title:32, start timestamp:1614045643.253834, stop timestamp:1614045689.228973, headset type:EPOCFLEX, headset serial:F00001ED, headset firmware:f12, subject name:s06, channels:75, sampling rate:128, samples:5933      , version:2.0
Timestamp,EEG.Counter,EEG.Interpolated,EEG.Cz,EEG.Fz,EEG.Fp1,EEG.AF3,EEG.F7,EEG.F3,EEG.FC1,EEG.C3,EEG.FC5,EEG.T7,EEG.CP5,EEG.CP1,EEG.P3,EEG.P7,EEG.PO3,EEG.O1,EEG.Pz,EEG.Oz,EEG.O2,EEG.PO4,EEG.P8,EEG.P4,EEG.CP2,EEG.CP6,EEG.T8,EEG.FC6,EEG.C4,EEG.FC2,EEG.F4,EEG.F8,EEG.AF4,EEG.Fp2,EEG.HighBitFlex,EEG.RawCq,EEG.Battery,MarkerIndex,MarkerType,MarkerValueInt,EEG.MarkerHardware,CQ.Cz,CQ.Fz,CQ.Fp1,CQ.AF3,CQ.F7,CQ.F3,CQ.FC1,CQ.C3,CQ.FC5,CQ.T7,CQ.CP5,CQ.CP1,CQ.P3,CQ.P7,CQ.PO3,CQ.O1,CQ.Pz,CQ.Oz,CQ.O2,CQ.PO4,CQ.P8,CQ.P4,CQ.CP2,CQ.CP6,CQ.T8,CQ.FC6,CQ.C4,CQ.FC2,CQ.F4,CQ.F8,CQ.AF4,CQ.Fp2,CQ.Overall
1614045643.253834,125.000000,0.000000,3.050595,7.631067,-41.086037,9.393498,-10.155307,5.588115,-2.741394,-3.145249,3.947088,-0.666201,-29.375153,-13.398778,-38.865288,-59.195618,-41.536766,-32.027931,-8.975586,70.483818,8.988014,-44.661777,-24.588116,14.070318,10.749575,-9.078102,12.227960,13.188742,16.047970,11.007292,19.239408,3.098936,8.453764,11.733766,8064.000000,0.000000,4.000000,,,,0.000000,4.000000,4.000000,4.000000,4.000000,4.000000,4.000000,4.000000,4.000000,2.000000,4.000000,4.000000,4.000000,4.000000,4.000000,4.000000,4.000000,4.000000,4.000000,4.000000,4.000000,4.000000,4.000000,4.000000,4.000000,4.000000,4.000000,4.000000,4.000000,4.000000,4.000000,4.000000,4.000000,83.333336
1614045643.261483,126.000000,0.000000,12.791134,7.623436,-44.121876,7.332823,-14.247716,2.505604,3.928014,-3.654925,2.917500,0.872927,-19.602188,13.794107,-8.570011,-36.572319,-8.674716,-3.790777,16.161594,98.618462,41.799538,-11.796601,-3.025065,44.312656,31.251646,12.982258,27.600348,17.790937,30.903715,15.611670,21.784271,7.711222,7.419669,11.722033,8192.000000,0.000000,4.000000,,,,0.000000,4.000000,4.000000,4.000000,4.000000,4.000000,4.000000,4.000000,4.000000,2.000000,4.000000,4.000000,4.000000,4.000000,4.000000,4.000000,4.000000,4.000000,4.000000,4.000000,4.000000,4.000000,4.000000,4.000000,4.000000,4.000000,4.000000,4.000000,4.000000,4.000000,4.000000,4.000000,4.000000,83.333336
1614045643.269232,127.000000,0.000000,20.983471,8.128633,-38.436726,6.812669,-8.079621,2.503098,8.539471,-0.574347,7.017146,2.923336,-6.762073,23.011084,9.900097,-3.715234,16.462164,25.956604,27.427485,127.750610,67.911583,0.010067,3.131806,51.960651,40.963985,39.635944,33.726593,24.439814,32.924095,16.108877,22.275309,10.780434,7.925070,17.351336,8192.000000,0.000000,4.000000,,,,0.000000,4.000000,4.000000,4.000000,4.000000,4.000000,4.000000,4.000000,4.000000,2.000000,4.000000,4.000000,4.000000,4.000000,4.000000,4.000000,4.000000,4.000000,4.000000,4.000000,4.000000,4.000000,4.000000,4.000000,4.000000,4.000000,4.000000,4.000000,4.000000,4.000000,4.000000,4.000000,4.000000,83.333336
1614045643.276882,0.000000,0.000000,20.962488,7.607684,-36.347008,6.805857,-7.558722,2.500595,6.992470,8.656997,7.522950,5.997336,-0.088644,8.629097,13.992762,14.750019,33.881599,58.751160,20.733391,160.443375,64.253929,-4.092507,0.564571,44.729206,36.820457,44.724510,30.103123,24.415375,29.301426,13.015846,21.740211,9.744012,7.917145,19.385267,0.000000,197.000000,4.000000,,,,0.000000,4.000000,4.000000,4.000000,4.000000,4.000000,4.000000,4.000000,4.000000,2.000000,4.000000,4.000000,4.000000,4.000000,4.000000,4.000000,4.000000,4.000000,4.000000,4.000000,4.000000,4.000000,4.000000,4.000000,4.000000,4.000000,4.000000,4.000000,4.000000,4.000000,4.000000,4.000000,4.000000,83.333336
1614045643.284631,1.000000,0.000000,20.428703,7.600076,-35.797840,8.337512,-8.063983,4.549376,6.472657,17.879108,6.489786,11.119543,9.655034,0.415340,32.440308,35.248089,52.309258,86.384720,20.712656,183.359848,72.394806,0.014149,2.615289,44.171654,32.168251,39.038761,38.278149,25.929420,29.272125,12.490009,22.231293,11.785550,7.396407,18.340240,0.000000,193.000000,4.000000,,,,0.000000,4.000000,4.000000,4.000000,4.000000,4.000000,4.000000,4.000000,4.000000,2.000000,4.000000,4.000000,4.000000,4.000000,4.000000,4.000000,4.000000,4.000000,4.000000,4.000000,4.000000,4.000000,4.000000,4.000000,4.000000,4.000000,4.000000,4.000000,4.000000,4.000000,4.000000,4.000000,4.000000,83.333336
1614045643.292280,2.000000,0.000000,21.433916,7.592476,-29.608196,10.380457,-1.389253,9.160212,7.491825,19.912512,9.560219,16.236629,21.953072,4.517489,50.869404,63.417969,57.385151,88.349617,24.794508,171.894440,68.219849,-6.139711,2.612674,44.640305,32.648903,38.999722,51.573204,30.006054,29.242853,13.503160,21.696241,16.389149,7.389010,18.321899,0.000000,181.000000,4.000000,,,,0.000000,4.000000,4.000000,4.000000,4.000000,4.000000,4.000000,4.000000,4.000000,2.000000,4.000000,4.000000,4.000000,4.000000,4.000000,4.000000,4.000000,4.000000,4.000000,4.000000,4.000000,4.000000,4.000000,4.000000,4.000000,4.000000,4.000000,4.000000,4.000000,4.000000,4.000000,4.000000,4.000000,83.333336
1614045643.300029,3.000000,0.000000,20.899662,7.584884,-23.937563,11.395718,4.765983,10.689513,6.971513,19.379780,14.678864,25.963982,28.084965,6.051433,51.844177,74.123779,51.686741,88.261261,19.128689,165.568710,48.664448,-18.441263,1.584420,35.364895,31.077793,37.422260,54.598553,32.027332,29.213610,12.976837,22.187365,18.424042,7.381621,18.816399,0.000000,141.000000,4.000000,,,,0.000000,4.000000,4.000000,4.000000,4.000000,4.000000,4.000000,4.000000,4.000000,2.000000,4.000000,4.000000,4.000000,4.000000,4.000000,4.000000,4.000000,4.000000,4.000000,4.000000,4.000000,4.000000,4.000000,4.000000,4.000000,4.000000,4.000000,4.000000,4.000000,4.000000,4.000000,4.000000,4.000000,83.333336
1614045643.307678,4.000000,0.000000,20.878763,7.577299,-23.400805,10.871501,7.325319,10.166003,6.964541,20.386040,15.689826,40.809814,29.082520,4.506920,50.253872,71.998375,51.122234,99.967873,10.391610,185.915955,61.949116,-20.986925,1.070015,20.457735,24.892868,34.307915,54.543953,33.533764,27.645935,12.451039,21.652357,17.892797,7.374240,18.284761,0.000000,187.000000,4.000000,,,,0.000000,4.000000,4.000000,4.000000,4.000000,4.000000,4.000000,4.000000,4.000000,2.000000,4.000000,4.000000,4.000000,4.000000,4.000000,4.000000,4.000000,4.000000,4.000000,4.000000,4.000000,4.000000,4.000000,4.000000,4.000000,4.000000,4.000000,4.000000,4.000000,4.000000,4.000000,4.000000,4.000000,83.333336
1614045643.315427,5.000000,0.000000,19.319422,7.569722,-21.838942,10.860630,10.394917,10.155837,6.957577,19.340014,15.161316,41.281822,29.566257,4.502413,38.408745,69.875099,41.840343,94.739700,-0.388012,183.678757,82.399986,-32.760811,-5.597722,8.129585,17.688488,32.735146,47.822742,24.782282,17.874699,12.951409,18.040960,14.285161,7.366866,18.779297,0.000000,200.000000,4.000000,,,,0.000000,4.000000,4.000000,4.000000,4.000000,4.000000,4.000000,4.000000,4.000000,2.000000,4.000000,4.000000,4.000000,4.000000,4.000000,4.000000,4.000000,4.000000,4.000000,4.000000,4.000000,4.000000,4.000000,4.000000,4.000000,4.000000,4.000000,4.000000,4.000000,4.000000,4.000000,4.000000,4.000000,83.333336
1614045643.323076,6.000000,0.000000,15.197538,7.562152,-21.304283,10.849769,12.435804,10.658502,6.950619,15.730929,14.633334,22.266184,21.844385,2.959449,11.703670,51.856503,14.106194,67.465477,-13.208137,154.264313,60.779125,-54.779331,-20.463919,-3.160596,8.440031,17.830616,21.621075,5.783141,7.087594,12.938457,14.433176,9.142671,7.359499,18.760519,0.000000,188.000000,4.000000,,,,0.000000,4.000000,4.000000,4.000000,4.000000,4.000000,4.000000,4.000000,4.000000,2.000000,4.000000,4.000000,4.000000,4.000000,4.000000,4.000000,4.000000,4.000000,4.000000,4.000000,4.000000,4.000000,4.000000,4.000000,4.000000,4.000000,4.000000,4.000000,4.000000,4.000000,4.000000,4.000000,4.000000,83.333336
1614045643.330825,7.000000,0.000000,12.618238,7.554590,-19.744516,11.351740,12.423368,10.135022,7.456489,11.612635,14.618700,5.833661,3.361001,-8.838383,-6.256752,19.496954,-13.600220,36.628780,-20.887236,127.956200,28.410654,-65.493782,-36.853710,-7.259999,0.739283,-6.802598,-0.964649,-3.966232,4.516404,12.925519,13.905923,6.569426,7.352139,16.177654,0.000000,201.000000,4.000000,,,,0.000000,4.000000,4.000000,4.000000,4.000000,4.000000,4.000000,4.000000,4.000000,2.000000,4.000000,4.000000,4.000000,4.000000,4.000000,4.000000,4.000000,4.000000,4.000000,4.000000,4.000000,4.000000,4.000000,4.000000,4.000000,4.000000,4.000000,4.000000,4.000000,4.000000,4.000000,4.000000,4.000000,83.333336
1614045643.338475,8.000000,0.000000,12.092800,7.547035,-20.237593,10.827568,6.769919,10.124887,6.423392,8.011278,12.552799,-0.326019,-14.591078,-21.650057,-9.327418,-5.137927,-24.868671,8.387022,-15.225324,103.212860,13.510448,-58.761623,-39.893780,7.106235,4.328288,-19.103489,-4.553428,0.653119,7.075990,12.912594,14.404838,6.562856,7.857608,15.135837,0.000000,201.000000,4.000000,,,,0.000000,4.000000,4.000000,4.000000,4.000000,4.000000,4.000000,4.000000,4.000000,2.000000,4.000000,4.000000,4.000000,4.000000,4.000000,4.000000,4.000000,4.000000,4.000000,4.000000,4.000000,4.000000,4.000000,4.000000,4.000000,4.000000,4.000000,4.000000,4.000000,4.000000,4.000000,4.000000,4.000000,83.333336
1614045643.346224,9.000000,0.000000,13.619168,7.539488,-35.089149,8.765458,-2.980440,10.114762,4.365686,4.413524,6.899221,-10.582104,-22.781614,-13.423279,-6.241168,-12.312276,-14.587392,0.686327,3.764261,99.007080,21.189245,-36.138760,-22.417990,27.099129,16.631651,-11.904898,-3.523233,1.678107,12.197119,12.899681,13.877612,4.505012,7.336929,13.582239,0.000000,208.000000,4.000000,,,,0.000000,4.000000,4.000000,4.000000,4.000000,4.000000,4.000000,4.000000,4.000000,2.000000,4.000000,4.000000,4.000000,4.000000,4.000000,4.000000,4.000000,4.000000,4.000000,4.000000,4.000000,4.000000,4.000000,4.000000,4.000000,4.000000,4.000000,4.000000,4.000000,4.000000,4.000000,4.000000,4.000000,83.333336
1614045643.353873,10.000000,0.000000,16.169651,7.531949,-49.413036,6.705410,-8.105665,10.104648,3.335680,2.357828,-0.799986,-17.238188,-24.297295,5.564504,4.534305,-10.761502,9.529759,27.865128,22.734856,128.651657,41.168056,-7.384670,-4.446854,32.200233,24.307327,2.978802,-0.442787,1.676429,16.800306,12.886782,13.863734,2.449224,4.765490,9.978913,0.000000,200.000000,4.000000,,,,0.000000,4.000000,4.000000,4.000000,4.000000,4.000000,4.000000,4.000000,4.000000,2.000000,4.000000,4.000000,4.000000,4.000000,4.000000,4.000000,4.000000,4.000000,4.000000,4.000000,4.000000,4.000000,4.000000,4.000000,4.000000,4.000000,4.000000,4.000000,4.000000,4.000000,4.000000,4.000000,4.000000,83.333336
1614045643.361722,11.000000,0.000000,16.666304,7.524416,-45.261059,7.211525,-7.584739,9.581722,1.793882,0.817009,0.226455,-9.528643,-22.221716,8.635862,15.299001,2.069772,26.956127,58.093674,28.353146,150.061478,62.665348,8.520150,-0.852663,33.193676,24.795841,15.796336,10.839707,10.905521,16.783506,12.873895,14.362691,2.446775,3.222263,6.892011,0.000000,197.000000,4.000000,,,,0.000000,4.000000,4.000000,4.000000,4.000000,4.000000,4.000000,4.000000,4.000000,2.000000,4.000000,4.000000,4.000000,4.000000,4.000000,4.000000,4.000000,4.000000,4.000000,4.000000,4.000000,4.000000,4.000000,4.000000,4.000000,4.000000,4.000000,4.000000,4.000000,4.000000,4.000000,4.000000,4.000000,83.333336
1614045643.369471,12.000000,0.000000,17.162457,7.516892,-38.036308,7.204314,-7.064333,10.084962,-0.259194,0.303371,6.892896,-0.288344,-13.994365,2.986201,17.334984,18.990780,30.006094,55.471478,29.350433,150.937057,80.551399,7.485989,0.173831,34.698944,22.206942,22.960028,18.008354,17.561283,15.741081,13.373841,14.348329,2.957149,3.731861,7.397940,0.000000,207.000000,4.000000,,,,0.000000,4.000000,4.000000,4.000000,4.000000,4.000000,4.000000,4.000000,4.000000,2.000000,4.000000,4.000000,4.000000,4.000000,4.000000,4.000000,4.000000,4.000000,4.000000,4.000000,4.000000,4.000000,4.000000,4.000000,4.000000,4.000000,4.000000,4.000000,4.000000,4.000000,4.000000,4.000000,4.000000,83.333336
1614045643.377320,13.000000,0.000000,18.683756,7.509375,-39.536736,7.197110,-8.082911,10.587697,-0.771755,0.815888,5.860362,-0.288056,-7.313704,1.957574,16.804829,21.535891,28.437628,36.441647,26.756981,146.683548,72.778542,-7.393292,-8.031471,20.818090,18.082170,24.988350,13.374962,14.466799,14.186879,12.847647,14.333981,2.954192,3.728129,7.390542,0.000000,202.000000,4.000000,,,,0.000000,4.000000,4.000000,4.000000,4.000000,4.000000,4.000000,4.000000,4.000000,2.000000,4.000000,4.000000,4.000000,4.000000,4.000000,4.000000,4.000000,4.000000,4.000000,4.000000,4.000000,4.000000,4.000000,4.000000,4.000000,4.000000,4.000000,4.000000,4.000000,4.000000,4.000000,4.000000,4.000000,83.333336
1614045643.385069,14.000000,0.000000,11.998405,7.501866,-40.522839,7.189913,-7.562007,8.013007,-0.258163,0.815072,0.213476,-2.851871,-7.306390,-4.198230,13.711101,17.924612,29.947651,46.148796,11.345609,138.331741,40.398071,-34.565384,-31.100363,1.310093,10.371781,17.271053,6.694920,9.836947,9.557307,8.732235,14.319646,2.951238,3.724401,6.870331,0.000000,200.000000,4.000000,,,,0.000000,4.000000,4.000000,4.000000,4.000000,4.000000,4.000000,4.000000,4.000000,2.000000,4.000000,4.000000,4.000000,4.000000,4.000000,4.000000,4.000000,4.000000,4.000000,4.000000,4.000000,4.000000,4.000000,4.000000,4.000000,4.000000,4.000000,4.000000,4.000000,4.000000,4.000000,4.000000,4.000000,83.333336
1614045643.392918,15.000000,0.000000,3.268459,7.494364,-38.943855,7.182723,-7.041624,6.979352,-0.257904,0.814257,-0.299558,-1.823378,-5.760623,-12.399160,6.517902,20.470789,26.840780,72.256493,0.052212,144.860077,33.178188,-45.812870,-39.274391,-2.280961,2.669102,4.433269,6.175405,9.314290,7.496468,5.133759,14.818147,2.948286,3.720677,7.376281,0.000000,227.000000,4.000000,,,,0.000000,4.000000,4.000000,4.000000,4.000000,4.000000,4.000000,4.000000,4.000000,2.000000,4.000000,4.000000,4.000000,4.000000,4.000000,4.000000,4.000000,4.000000,4.000000,4.000000,4.000000,4.000000,4.000000,4.000000,4.000000,4.000000,4.000000,4.000000,4.000000,4.000000,4.000000,4.000000,4.000000,83.333336
1614045643.400667,16.000000,0.000000,1.726729,7.486870,-38.392090,7.175540,-7.034583,11.587758,-0.257647,0.813443,1.239203,-2.334375,-7.293324,-12.386761,-3.232205,11.732369,6.813939,53.722698,-6.101686,149.330597,65.965523,-44.228596,-34.619732,-7.919705,-4.000234,1.351913,5.143588,9.817796,3.386408,5.641446,14.290508,2.945338,3.716956,5.830443,0.000000,179.000000,4.000000,,,,0.000000,4.000000,4.000000,4.000000,4.000000,4.000000,4.000000,4.000000,4.000000,2.000000,4.000000,4.000000,4.000000,4.000000,4.000000,4.000000,4.000000,4.000000,4.000000,4.000000,4.000000,4.000000,4.000000,4.000000,4.000000,4.000000,4.000000,4.000000,4.000000,4.000000,4.000000,4.000000,4.000000,83.333336
1614045643.408516,17.000000,0.000000,-0.839101,7.479383,-35.789597,7.168365,-7.027548,14.653093,-0.257389,1.325450,0.212322,-8.485887,-17.542440,-15.451297,-18.613588,-10.843465,-22.936464,21.361282,-28.146866,116.873573,43.335453,-72.389496,-52.021011,-33.039989,-13.227003,-2.752003,-4.092325,8.782337,-10.463133,5.122984,11.712115,2.942393,3.713239,3.773331,0.000000,203.000000,4.000000,,,,0.000000,4.000000,4.000000,4.000000,4.000000,4.000000,4.000000,4.000000,4.000000,2.000000,4.000000,4.000000,4.000000,4.000000,4.000000,4.000000,4.000000,4.000000,4.000000,4.000000,4.000000,4.000000,4.000000,4.000000,4.000000,4.000000,4.000000,4.000000,4.000000,4.000000,4.000000,4.000000,4.000000,83.333336
1614045643.416265,18.000000,0.000000,-8.017749,7.471903,-32.164063,7.161196,-7.020521,14.125620,-0.257132,-0.214337,0.212110,-10.015862,-23.165924,-21.589691,-29.877026,-19.037750,-36.246861,13.134792,-48.118721,84.449013,10.984426,-104.624802,-77.610016,-50.442848,-20.906084,-20.185148,-10.754899,9.286375,-19.170618,2.040938,10.161942,2.939450,3.709526,5.308019,0.000000,221.000000,4.000000,,,,0.000000,4.000000,4.000000,4.000000,4.000000,4.000000,4.000000,4.000000,4.000000,2.000000,4.000000,4.000000,4.000000,4.000000,4.000000,4.000000,4.000000,4.000000,4.000000,4.000000,4.000000,4.000000,4.000000,4.000000,4.000000,4.000000,4.000000,4.000000,4.000000,4.000000,4.000000,4.000000,4.000000,83.333336
1614045643.424114,19.000000,0.000000,-7.496911,7.977252,-31.106258,7.666855,-6.500679,13.085853,-0.256874,-2.778225,0.211898,-6.416103,-21.604296,-24.132204,-29.334328,-17.993071,-33.646511,28.506273,-42.942394,107.954308,21.229853,-95.289406,-70.865738,-38.084713,-18.833895,-34.523937,-3.051836,9.277089,-17.612986,1.526077,10.664600,2.936511,3.705817,7.353993,0.000000,189.000000,4.000000,,,,0.000000,4.000000,4.000000,4.000000,4.000000,4.000000,4.000000,4.000000,4.000000,2.000000,4.000000,4.000000,4.000000,4.000000,4.000000,4.000000,4.000000,4.000000,4.000000,4.000000,4.000000,4.000000,4.000000,4.000000,4.000000,4.000000,4.000000,4.000000,4.000000,4.000000,4.000000,4.000000,4.000000,83.333336
1614045643.431863,20.000000,0.000000,-5.438132,7.969275,-31.075151,5.607906,-9.058281,11.021485,-0.256618,-5.852370,-1.839596,-11.025071,-29.275000,-28.723457,-33.407558,-29.769949,-39.253891,18.734177,-36.745609,124.769432,54.029137,-67.501808,-46.179485,-18.046629,-15.738138,-30.899670,5.156344,7.729350,-14.005630,2.037371,10.653935,2.933574,3.702111,7.346639,0.000000,176.000000,4.000000,,,,0.000000,4.000000,4.000000,4.000000,4.000000,4.000000,4.000000,4.000000,4.000000,2.000000,4.000000,4.000000,4.000000,4.000000,4.000000,4.000000,4.000000,4.000000,4.000000,4.000000,4.000000,4.000000,4.000000,4.000000,4.000000,4.000000,4.000000,4.000000,4.000000,4.000000,4.000000,4.000000,4.000000,83.333336
1614045643.439712,21.000000,0.000000,-5.945514,6.935665,-33.095360,3.038196,-11.613326,7.933540,-0.256361,-6.872159,-4.914680,-23.321739,-40.527775,-29.207554,-40.040817,-43.073513,-49.471046,4.869289,-36.196041,96.439529,41.667412,-62.306103,-41.005104,-3.669607,-11.619836,-21.638000,4.638367,5.157518,-6.299316,1.522513,10.130461,2.417820,3.185588,6.826472,0.000000,198.000000,4.000000,,,,0.000000,4.000000,4.000000,4.000000,4.000000,4.000000,4.000000,4.000000,4.000000,2.000000,4.000000,4.000000,4.000000,4.000000,4.000000,4.000000,4.000000,4.000000,4.000000,4.000000,4.000000,4.000000,4.000000,4.000000,4.000000,4.000000,4.000000,4.000000,4.000000,4.000000,4.000000,4.000000,4.000000,83.333336
1614045643.447461,22.000000,0.000000,3.291201,7.954370,-36.139187,3.035158,-10.576072,6.387146,-0.256105,-7.378107,-8.499508,-25.349699,-41.000069,-15.845014,-33.334110,-44.568901,-45.831833,4.864419,-17.185486,76.855911,9.318053,-54.038666,-46.092304,17.359703,5.827681,-12.898415,4.633729,5.152361,7.040317,2.546632,10.633151,2.928223,3.695223,7.332466,0.000000,209.000000,4.000000,,,,0.000000,4.000000,4.000000,4.000000,4.000000,4.000000,4.000000,4.000000,4.000000,2.000000,4.000000,4.000000,4.000000,4.000000,4.000000,4.000000,4.000000,4.000000,4.000000,4.000000,4.000000,4.000000,4.000000,4.000000,4.000000,4.000000,4.000000,4.000000,4.000000,4.000000,4.000000,4.000000,4.000000,83.333336
1614045643.455310,23.000000,0.000000,16.108423,7.946415,-39.179970,4.057764,-11.078316,6.380758,-0.255848,-6.857908,-11.055111,-20.196144,-33.266762,-3.521476,-19.454622,-41.960228,-28.862925,6.398017,8.472725,95.753418,37.001041,-21.164116,-26.046209,40.932087,23.770571,-0.577824,4.629095,6.172850,12.161481,5.108188,11.135339,2.925295,3.178707,7.325133,0.000000,228.000000,4.000000,,,,0.000000,4.000000,4.000000,4.000000,4.000000,4.000000,4.000000,4.000000,4.000000,2.000000,4.000000,4.000000,4.000000,4.000000,4.000000,4.000000,4.000000,4.000000,4.000000,4.000000,4.000000,4.000000,4.000000,4.000000,4.000000,4.000000,4.000000,4.000000,4.000000,4.000000,4.000000,4.000000,4.000000,83.333336
1614045643.463059,24.000000,0.000000,16.605135,3.835905,-39.653610,2.515244,-12.092878,6.374378,-0.255593,-5.312589,-6.941492,-19.150307,-17.336058,-4.030775,-1.486449,-26.533653,0.909529,25.878798,19.233482,128.478180,69.784554,10.651920,6.800349,51.660385,26.823725,13.268908,4.624465,4.628215,10.610858,6.128721,8.560101,1.896728,-0.927036,6.292167,0.000000,193.000000,4.000000,,,,0.000000,4.000000,4.000000,4.000000,4.000000,4.000000,4.000000,4.000000,4.000000,2.000000,4.000000,4.000000,4.000000,4.000000,4.000000,4.000000,4.000000,4.000000,4.000000,4.000000,4.000000,4.000000,4.000000,4.000000,4.000000,4.000000,4.000000,4.000000,4.000000,4.000000,4.000000,4.000000,4.000000,83.333336
1614045643.470908,25.000000,0.000000,12.485965,-0.270495,-36.537033,3.025550,-5.926939,5.342362,-1.280978,-1.204712,-0.780704,-15.541413,4.219739,-5.565206,20.053499,5.800572,30.652208,57.134972,19.727070,140.144562,63.560925,8.589986,13.460216,48.018982,24.745619,23.512049,14.363431,5.649228,11.113068,5.609771,7.013079,3.433293,1.125173,8.337157,0.000000,197.000000,4.000000,,,,0.000000,4.000000,4.000000,4.000000,4.000000,4.000000,4.000000,4.000000,4.000000,2.000000,4.000000,4.000000,4.000000,4.000000,4.000000,4.000000,4.000000,4.000000,4.000000,4.000000,4.000000,4.000000,4.000000,4.000000,4.000000,4.000000,4.000000,4.000000,4.000000,4.000000,4.000000,4.000000,4.000000,83.333336
1614045643.478657,26.000000,0.000000,13.499121,2.293878,-31.885113,8.150729,5.361039,5.849840,0.258765,6.488800,2.809820,-4.243820,16.010391,-4.021179,31.828318,28.871695,38.313866,66.308601,20.220163,130.260834,31.189671,-11.931424,0.113422,40.278656,24.720873,27.591101,26.143940,10.258964,11.101954,5.604162,10.595810,10.609347,10.867638,13.457025,0.000000,202.000000,4.000000,,,,0.000000,4.000000,4.000000,4.000000,4.000000,4.000000,4.000000,4.000000,4.000000,2.000000,4.000000,4.000000,4.000000,4.000000,4.000000,4.000000,4.000000,4.000000,4.000000,4.000000,4.000000,4.000000,4.000000,4.000000,4.000000,4.000000,4.000000,4.000000,4.000000,4.000000,4.000000,4.000000,4.000000,83.333336
1614045643.486406,27.000000,0.000000,13.998442,4.342866,-31.340406,11.219501,9.458241,6.869631,2.822608,13.661798,3.832651,4.991193,15.481561,-3.504338,32.309307,34.996670,36.737087,79.575630,21.738405,152.694672,63.978992,-11.919493,5.241513,34.597351,25.721792,27.050690,27.143436,13.325627,10.578032,5.598557,14.687778,15.214123,14.446514,14.469209,0.000000,177.000000,4.000000,,,,0.000000,4.000000,4.000000,4.000000,4.000000,4.000000,4.000000,4.000000,4.000000,2.000000,4.000000,4.000000,4.000000,4.000000,4.000000,4.000000,4.000000,4.000000,4.000000,4.000000,4.000000,4.000000,4.000000,4.000000,4.000000,4.000000,4.000000,4.000000,4.000000,4.000000,4.000000,4.000000,4.000000,83.333336
1614045643.494155,28.000000,0.000000,12.958802,2.287241,-32.334705,10.695461,6.884681,5.324300,3.332606,16.725060,3.315998,10.627227,15.978900,-4.013654,32.789822,44.192440,44.905479,109.239647,20.178205,184.849670,96.735527,-5.753727,8.826015,23.793522,24.157610,27.536459,23.526550,13.312302,11.080275,5.592959,13.647449,11.609164,11.355145,13.941919,0.000000,180.000000,4.000000,,,,0.000000,4.000000,4.000000,4.000000,4.000000,4.000000,4.000000,4.000000,4.000000,2.000000,4.000000,4.000000,4.000000,4.000000,4.000000,4.000000,4.000000,4.000000,4.000000,4.000000,4.000000,4.000000,4.000000,4.000000,4.000000,4.000000,4.000000,4.000000,4.000000,4.000000,4.000000,4.000000,4.000000,83.333336
1614045643.501805,29.000000,0.000000,12.945844,4.849057,-26.661346,13.248869,8.416258,5.831797,4.354915,16.195515,6.389605,17.796087,16.475740,-5.548101,29.680107,50.302094,38.706730,101.950920,9.388796,154.921234,64.331100,-30.876179,-16.311016,5.821011,13.877042,25.457642,22.990202,12.786169,5.940989,5.587366,14.146622,10.059094,10.318149,17.517721,0.000000,159.000000,4.000000,,,,0.000000,4.000000,4.000000,4.000000,4.000000,4.000000,4.000000,4.000000,4.000000,2.000000,4.000000,4.000000,4.000000,4.000000,4.000000,4.000000,4.000000,4.000000,4.000000,4.000000,4.000000,4.000000,4.000000,4.000000,4.000000,4.000000,4.000000,4.000000,4.000000,4.000000,4.000000,4.000000,4.000000,83.333336
1614045643.509554,30.000000,0.000000,11.907256,12.536515,-18.429558,18.876646,11.997585,15.056734,8.965944,15.666498,15.101164,19.316753,15.433624,-1.439989,24.009401,44.610767,19.693663,77.746399,0.148638,128.099640,35.035999,-49.306843,-29.115217,-4.441220,0.529831,14.150132,24.505674,12.773383,-0.731618,5.581779,18.747860,15.177240,11.846292,22.115587,0.000000,205.000000,4.000000,,,,0.000000,4.000000,4.000000,4.000000,4.000000,4.000000,4.000000,4.000000,4.000000,2.000000,4.000000,4.000000,4.000000,4.000000,4.000000,4.000000,4.000000,4.000000,4.000000,4.000000,4.000000,4.000000,4.000000,4.000000,4.000000,4.000000,4.000000,4.000000,4.000000,4.000000,4.000000,4.000000,4.000000,83.333336
1614045643.517203,31.000000,0.000000,9.844068,15.600902,-15.847025,18.344948,11.472767,22.221165,9.982619,17.189293,18.675806,17.246153,16.443832,2.151194,23.985392,39.950771,25.314995,90.489166,0.661310,160.792053,67.821480,-30.283175,-19.342512,-1.872676,-3.573263,4.392392,23.455526,13.273430,-1.756528,5.576197,22.318855,18.238985,10.808805,22.093472,0.000000,196.000000,4.000000,,,,0.000000,4.000000,4.000000,4.000000,4.000000,4.000000,4.000000,4.000000,4.000000,2.000000,4.000000,4.000000,4.000000,4.000000,4.000000,4.000000,4.000000,4.000000,4.000000,4.000000,4.000000,4.000000,4.000000,4.000000,4.000000,4.000000,4.000000,4.000000,4.000000,4.000000,4.000000,4.000000,4.000000,83.333336
1614045643.524952,32.000000,0.000000,7.782941,14.559660,-16.856819,13.711219,10.435654,19.122021,7.408534,15.633642,15.067387,17.228909,7.709439,-10.671470,16.781919,34.269794,34.520451,89.885857,-3.954736,167.810760,64.676735,-28.201611,-34.194965,-2.896445,-2.031228,2.849538,13.688481,13.260157,-1.241951,5.057800,21.783716,17.707926,10.285175,21.558558,8064.000000,0.000000,4.000000,,,,0.000000,4.000000,4.000000,4.000000,4.000000,4.000000,4.000000,4.000000,4.000000,2.000000,4.000000,4.000000,4.000000,4.000000,4.000000,4.000000,4.000000,4.000000,4.000000,4.000000,4.000000,4.000000,4.000000,4.000000,4.000000,4.000000,4.000000,4.000000,4.000000,4.000000,4.000000,4.000000,4.000000,83.333336
1614045643.532601,33.000000,0.000000,5.723876,14.545100,-16.839962,10.620584,7.861115,17.051617,6.375484,5.361598,11.462576,3.878345,-11.272629,-26.045414,-6.311785,7.568859,8.844903,57.488281,-15.232833,135.335251,32.304363,-58.429817,-62.878719,-7.508933,-2.542017,-0.230235,-1.709822,11.195614,-0.727888,6.078383,21.249113,17.177399,12.838992,21.537001,8064.000000,0.000000,4.000000,,,,0.000000,4.000000,4.000000,4.000000,4.000000,4.000000,4.000000,4.000000,4.000000,2.000000,4.000000,4.000000,4.000000,4.000000,4.000000,4.000000,4.000000,4.000000,4.000000,4.000000,4.000000,4.000000,4.000000,4.000000,4.000000,4.000000,4.000000,4.000000,4.000000,4.000000,4.000000,4.000000,4.000000,83.333336
1614045643.540350,34.000000,0.000000,5.205332,15.043376,-16.310303,10.609963,-1.377515,18.060205,7.394750,-6.438635,7.348549,-20.228098,-27.158792,-28.070650,-27.331114,-24.746403,-23.471634,29.738485,-19.832985,110.071709,19.451546,-69.140617,-58.713276,-3.911680,-2.539475,-7.922312,-4.272215,8.620317,4.913866,9.149228,21.740685,16.647400,14.364614,21.515463,8064.000000,0.000000,4.000000,,,,0.000000,4.000000,4.000000,4.000000,4.000000,4.000000,4.000000,4.000000,4.000000,2.000000,4.000000,4.000000,4.000000,4.000000,4.000000,4.000000,4.000000,4.000000,4.000000,4.000000,4.000000,4.000000,4.000000,4.000000,4.000000,4.000000,4.000000,4.000000,4.000000,4.000000,4.000000,4.000000,4.000000,83.333336
1614045643.547999,35.000000,0.000000,5.712947,15.028332,-16.293991,10.599354,-13.171009,9.324197,7.900176,-12.586042,0.161714,-30.977100,-34.311119,-28.042580,-36.534554,-37.029346,-37.807137,29.708746,-19.813152,109.961639,29.688505,-62.917633,-45.834049,1.733257,-2.536936,-8.427210,3.424365,9.124516,9.524336,8.627258,21.718943,13.041009,14.350250,21.493948,8064.000000,0.000000,4.000000,,,,0.000000,4.000000,4.000000,4.000000,4.000000,4.000000,4.000000,4.000000,4.000000,2.000000,4.000000,4.000000,4.000000,4.000000,4.000000,4.000000,4.000000,4.000000,4.000000,4.000000,4.000000,4.000000,4.000000,4.000000,4.000000,4.000000,4.000000,4.000000,4.000000,4.000000,4.000000,4.000000,4.000000,83.333336
1614045643.555749,36.000000,0.000000,5.194414,14.500484,-18.328979,10.075934,-16.747581,-1.454358,4.302532,-15.137559,-3.941012,-28.894840,-34.789631,-22.886332,-31.369814,-30.838472,-30.077023,32.755959,-12.613852,112.415779,22.479328,-57.726509,-44.249756,0.705883,-1.508758,-6.880322,2.395300,9.115392,6.950709,5.541708,20.158762,7.899763,14.335900,21.472454,8064.000000,0.000000,4.000000,,,,0.000000,4.000000,4.000000,4.000000,4.000000,4.000000,4.000000,4.000000,4.000000,2.000000,4.000000,4.000000,4.000000,4.000000,4.000000,4.000000,4.000000,4.000000,4.000000,4.000000,4.000000,4.000000,4.000000,4.000000,4.000000,4.000000,4.000000,4.000000,4.000000,4.000000,4.000000,4.000000,4.000000,83.333336
1614045643.563398,37.000000,0.000000,5.189219,11.921881,-22.413216,10.578678,-11.602630,-2.478545,0.195666,-14.096780,-4.962712,-23.737741,-23.985609,-2.863446,-6.210238,-19.012762,-1.841817,53.236027,3.296198,142.046951,50.149158,-38.181602,-27.795248,4.807741,2.595315,-9.437544,1.880084,6.542174,5.918118,5.023345,14.497578,5.840581,14.834385,21.450981,8064.000000,0.000000,4.000000,,,,0.000000,4.000000,4.000000,4.000000,4.000000,4.000000,4.000000,4.000000,4.000000,2.000000,4.000000,4.000000,4.000000,4.000000,4.000000,4.000000,4.000000,4.000000,4.000000,4.000000,4.000000,4.000000,4.000000,4.000000,4.000000,4.000000,4.000000,4.000000,4.000000,4.000000,4.000000,4.000000,4.000000,83.333336
1614045643.571147,38.000000,0.000000,7.748132,10.371497,-22.903622,10.055280,-6.975642,2.139318,-0.830171,-3.826273,-3.419288,-12.944772,-7.038547,9.447110,18.924177,1.519071,27.903614,82.926376,12.010851,170.110031,82.919518,-15.579320,-4.177709,18.136267,4.644001,-4.812722,12.647434,4.997170,6.937840,6.043963,10.380516,6.347561,14.306729,21.429529,8064.000000,0.000000,4.000000,,,,0.000000,4.000000,4.000000,4.000000,4.000000,4.000000,4.000000,4.000000,4.000000,2.000000,4.000000,4.000000,4.000000,4.000000,4.000000,4.000000,4.000000,4.000000,4.000000,4.000000,4.000000,4.000000,4.000000,4.000000,4.000000,4.000000,4.000000,4.000000,4.000000,4.000000,4.000000,4.000000,4.000000,83.333336
1614045643.578796,39.000000,0.000000,9.278846,10.873946,-20.829437,10.558044,-3.378923,7.778204,-1.342161,4.895502,3.250798,-5.239520,6.814645,2.258176,28.136023,32.286781,40.696224,105.407555,11.486020,175.068130,79.759682,-8.897074,3.518776,25.810438,7.203460,13.140809,22.891197,5.504993,6.418082,5.525099,9.857315,5.828393,14.805243,21.408100,8064.000000,0.000000,4.000000,,,,0.000000,4.000000,4.000000,4.000000,4.000000,4.000000,4.000000,4.000000,4.000000,2.000000,4.000000,4.000000,4.000000,4.000000,4.000000,4.000000,4.000000,4.000000,4.000000,4.000000,4.000000,4.000000,4.000000,4.000000,4.000000,4.000000,4.000000,4.000000,4.000000,4.000000,4.000000,4.000000,4.000000,83.333336
1614045643.586545,40.000000,0.000000,9.269567,10.863072,-19.782967,12.598768,1.752661,14.437093,0.197642,8.993171,10.427034,-1.131716,16.551420,-5.949211,37.851475,51.741676,48.347836,120.686760,17.115559,187.200760,86.346588,-4.785613,7.105001,23.733345,12.837282,23.896898,25.432409,5.499488,6.924484,5.519574,10.360278,5.822565,15.303259,21.386692,8064.000000,0.000000,4.000000,,,,0.000000,4.000000,4.000000,4.000000,4.000000,4.000000,4.000000,4.000000,4.000000,2.000000,4.000000,4.000000,4.000000,4.000000,4.000000,4.000000,4.000000,4.000000,4.000000,4.000000,4.000000,4.000000,4.000000,4.000000,4.000000,4.000000,4.000000,4.000000,4.000000,4.000000,4.000000,4.000000,4.000000,83.333336
1614045643.594194,41.000000,0.000000,9.260298,10.852209,-19.763184,14.637452,5.340652,17.499578,4.812829,14.112382,11.955069,15.792493,21.663074,-4.404800,52.172600,52.202755,58.043076,118.001976,23.252291,192.141754,98.055107,-1.703904,6.585075,22.683971,17.439829,21.821720,26.432617,5.493989,8.968842,5.514054,9.837098,8.380844,9.646930,21.365305,8064.000000,0.000000,4.000000,,,,0.000000,4.000000,4.000000,4.000000,4.000000,4.000000,4.000000,4.000000,4.000000,2.000000,4.000000,4.000000,4.000000,4.000000,4.000000,4.000000,4.000000,4.000000,4.000000,4.000000,4.000000,4.000000,4.000000,4.000000,4.000000,4.000000,4.000000,4.000000,4.000000,4.000000,4.000000,4.000000,4.000000,83.333336
1614045643.602043,42.000000,0.000000,9.251037,10.841356,-19.743420,14.622814,5.848132,17.482079,7.372119,19.226475,11.430293,33.212597,24.718334,4.830374,55.197350,56.253117,61.574780,115.319870,23.229038,182.718842,84.623726,-6.317585,-6.754843,23.174109,16.909569,21.799898,26.406185,5.488495,10.498335,5.508540,9.827261,10.423746,3.483437,21.856760,8192.000000,0.000000,4.000000,,,,0.000000,4.000000,4.000000,4.000000,4.000000,4.000000,4.000000,4.000000,4.000000,2.000000,4.000000,4.000000,4.000000,4.000000,4.000000,4.000000,4.000000,4.000000,4.000000,4.000000,4.000000,4.000000,4.000000,4.000000,4.000000,4.000000,4.000000,4.000000,4.000000,4.000000,4.000000,4.000000,4.000000,83.333336
1614045643.609792,43.000000,0.000000,9.241786,10.830515,-20.236496,14.608191,3.791002,17.464598,6.851926,20.232889,11.418863,30.615282,29.821821,16.107595,53.090870,64.914810,62.026024,133.666092,24.231449,191.254074,74.795509,-8.362549,-18.542959,20.586830,15.354198,21.778099,24.328497,5.483006,9.975016,5.503032,10.330254,9.900501,2.454312,20.296442,8192.000000,0.000000,4.000000,,,,0.000000,4.000000,4.000000,4.000000,4.000000,4.000000,4.000000,4.000000,4.000000,2.000000,4.000000,4.000000,4.000000,4.000000,4.000000,4.000000,4.000000,4.000000,4.000000,4.000000,4.000000,4.000000,4.000000,4.000000,4.000000,4.000000,4.000000,4.000000,4.000000,4.000000,4.000000,4.000000,4.000000,83.333336
1614045643.617641,44.000000,0.000000,9.232544,10.819685,-19.190619,14.593583,4.812852,16.934313,9.409177,22.776760,11.920264,26.994923,34.407383,25.835077,53.550598,59.721691,61.451176,126.352936,28.822603,190.037186,78.310455,-9.892648,-17.498775,19.540604,17.902946,13.551192,22.765707,5.477523,9.965041,5.497529,10.319923,9.890601,3.477499,18.224863,8192.000000,0.000000,4.000000,,,,0.000000,4.000000,4.000000,4.000000,4.000000,4.000000,4.000000,4.000000,4.000000,2.000000,4.000000,4.000000,4.000000,4.000000,4.000000,4.000000,4.000000,4.000000,4.000000,4.000000,4.000000,4.000000,4.000000,4.000000,4.000000,4.000000,4.000000,4.000000,4.000000,4.000000,4.000000,4.000000,4.000000,83.333336
1614045643.625390,45.000000,0.000000,9.223311,11.321686,-20.709890,14.578990,5.833680,17.943018,10.938230,24.292444,11.395524,32.096134,31.808874,24.270781,49.394485,48.379917,57.287163,93.918892,31.357883,167.283035,86.950096,-7.831473,-9.276149,25.162088,21.987608,11.999180,23.255762,5.472046,10.467896,5.492031,10.309604,9.880711,2.961201,17.180998,8192.000000,0.000000,4.000000,,,,0.000000,4.000000,4.000000,4.000000,4.000000,4.000000,4.000000,4.000000,4.000000,2.000000,4.000000,4.000000,4.000000,4.000000,4.000000,4.000000,4.000000,4.000000,4.000000,4.000000,4.000000,4.000000,4.000000,4.000000,4.000000,4.000000,4.000000,4.000000,4.000000,4.000000,4.000000,4.000000,4.000000,83.333336
1614045643.633239,46.000000,0.000000,9.214088,10.797544,-29.919950,12.513129,-4.428564,16.386614,6.824727,18.114305,7.281564,22.320448,16.392448,10.400356,40.114323,41.152050,49.537567,92.799332,29.788063,172.243958,103.273399,4.484050,1.502358,36.931797,24.016903,23.269232,23.745325,5.466574,11.995890,5.486539,10.812115,9.870830,2.958240,17.676638,8064.000000,0.000000,4.000000,,,,0.000000,4.000000,4.000000,4.000000,4.000000,4.000000,4.000000,4.000000,4.000000,2.000000,4.000000,4.000000,4.000000,4.000000,4.000000,4.000000,4.000000,4.000000,4.000000,4.000000,4.000000,4.000000,4.000000,4.000000,4.000000,4.000000,4.000000,4.000000,4.000000,4.000000,4.000000,4.000000,4.000000,83.333336
1614045643.640988,47.000000,0.000000,9.204874,11.299566,-40.146439,6.859590,-19.295931,9.703561,3.228159,12.967986,1.120437,-2.830078,-2.598302,-1.404916,26.740873,23.162182,34.103413,97.834732,22.065968,179.251205,99.067566,7.556489,1.500856,40.484612,24.505707,32.989552,18.593376,5.461107,14.547997,5.481052,10.288482,9.860959,3.468102,17.658960,8064.000000,0.000000,4.000000,,,,0.000000,4.000000,4.000000,4.000000,4.000000,4.000000,4.000000,4.000000,4.000000,2.000000,4.000000,4.000000,4.000000,4.000000,4.000000,4.000000,4.000000,4.000000,4.000000,4.000000,4.000000,4.000000,4.000000,4.000000,4.000000,4.000000,4.000000,4.000000,4.000000,4.000000,4.000000,4.000000,4.000000,83.333336
1614045643.648837,48.000000,0.000000,9.195669,11.288267,-43.183216,0.186064,-23.379198,4.565652,2.712110,9.878095,-1.957607,-16.673401,-14.390575,-1.916332,4.662850,-7.117391,10.992387,65.429207,14.351594,146.764267,66.660805,-8.861323,-15.423722,25.059509,22.429918,31.930922,7.805552,4.942826,13.507808,5.475572,9.765373,8.825457,2.951813,17.128481,8064.000000,0.000000,4.000000,,,,0.000000,4.000000,4.000000,4.000000,4.000000,4.000000,4.000000,4.000000,4.000000,2.000000,4.000000,4.000000,4.000000,4.000000,4.000000,4.000000,4.000000,4.000000,4.000000,4.000000,4.000000,4.000000,4.000000,4.000000,4.000000,4.000000,4.000000,4.000000,4.000000,4.000000,4.000000,4.000000,4.000000,83.333336
1614045643.656586,49.000000,0.000000,9.186474,7.687235,-42.114391,-2.891045,-22.330177,5.586728,1.170936,-2.952296,-5.032572,-16.656729,-17.965929,-1.914415,-9.187966,-21.469248,-1.839118,44.338139,10.747499,117.899551,34.286449,-28.852463,-28.228811,7.598553,13.176719,21.129761,2.156720,4.937883,5.801992,4.957275,10.781249,8.816631,2.436041,17.111353,8064.000000,0.000000,4.000000,,,,0.000000,4.000000,4.000000,4.000000,4.000000,4.000000,4.000000,4.000000,4.000000,2.000000,4.000000,4.000000,4.000000,4.000000,4.000000,4.000000,4.000000,4.000000,4.000000,4.000000,4.000000,4.000000,4.000000,4.000000,4.000000,4.000000,4.000000,4.000000,4.000000,4.000000,4.000000,4.000000,4.000000,83.333336
1614045643.664435,50.000000,0.000000,9.177287,3.576984,-42.585098,0.188769,-21.282207,5.581141,-1.394337,-12.692933,-4.001899,-11.511867,-13.332578,-6.015065,1.077632,-7.088805,9.444773,70.960464,10.223930,143.422684,43.995754,-28.823610,-19.995455,4.514031,4.445593,4.185553,4.718666,5.958586,-2.408938,5.465138,8.206365,10.859097,3.459246,17.607061,8064.000000,0.000000,4.000000,,,,0.000000,4.000000,4.000000,4.000000,4.000000,4.000000,4.000000,4.000000,4.000000,2.000000,4.000000,4.000000,4.000000,4.000000,4.000000,4.000000,4.000000,4.000000,4.000000,4.000000,4.000000,4.000000,4.000000,4.000000,4.000000,4.000000,4.000000,4.000000,4.000000,4.000000,4.000000,4.000000,4.000000,83.333336
1614045643.672185,51.000000,0.000000,9.680930,3.060586,-38.439949,6.342426,-16.132719,5.062739,-0.880122,-2.423830,5.745693,-2.269585,-0.498733,-6.009050,17.999632,13.943925,31.486610,94.479248,13.290629,175.074127,76.772270,-8.794786,-3.052382,9.124902,6.492430,-4.536581,9.842153,5.952628,-4.457811,5.972494,4.095594,9.822597,4.481428,18.102276,8064.000000,0.000000,4.000000,,,,0.000000,4.000000,4.000000,4.000000,4.000000,4.000000,4.000000,4.000000,4.000000,2.000000,4.000000,4.000000,4.000000,4.000000,4.000000,4.000000,4.000000,4.000000,4.000000,4.000000,4.000000,4.000000,4.000000,4.000000,4.000000,4.000000,4.000000,4.000000,4.000000,4.000000,4.000000,4.000000,4.000000,83.333336
1614045643.680033,52.000000,0.000000,9.158429,3.570346,-27.632278,10.951468,-8.424279,10.185882,3.736142,11.424747,14.970716,-0.216033,7.194074,-4.977400,22.084196,23.160751,39.147430,93.871948,12.764519,170.283661,83.362167,-8.785992,-5.613432,8.090136,9.050040,2.647443,11.883593,5.433854,-0.863610,4.940880,3.065858,8.274313,1.912844,18.084173,8064.000000,0.000000,4.000000,,,,0.000000,4.000000,4.000000,4.000000,4.000000,4.000000,4.000000,4.000000,4.000000,2.000000,4.000000,4.000000,4.000000,4.000000,4.000000,4.000000,4.000000,4.000000,4.000000,4.000000,4.000000,4.000000,4.000000,4.000000,4.000000,4.000000,4.000000,4.000000,4.000000,4.000000,4.000000,4.000000,4.000000,83.333336
1614045643.687783,53.000000,0.000000,8.123630,4.079596,-14.784134,14.017440,-2.774829,15.816722,6.809330,11.413322,14.955746,0.809824,7.186880,-8.562166,20.010830,26.214514,29.877514,92.239616,-0.068759,152.164673,50.971111,-36.982334,-19.966793,6.543584,6.989708,6.234539,12.384529,10.556625,5.291100,6.987222,9.216639,21.599371,6.526316,20.630192,8064.000000,0.000000,4.000000,,,,0.000000,4.000000,4.000000,4.000000,4.000000,4.000000,4.000000,4.000000,4.000000,2.000000,4.000000,4.000000,4.000000,4.000000,4.000000,4.000000,4.000000,4.000000,4.000000,4.000000,4.000000,4.000000,4.000000,4.000000,4.000000,4.000000,4.000000,4.000000,4.000000,4.000000,4.000000,4.000000,4.000000,83.333336
1614045643.695632,54.000000,0.000000,9.653968,6.639619,-9.128324,18.105988,0.304869,17.339367,7.315341,10.376268,14.427969,20.809013,6.154052,-8.553604,22.042101,32.854965,24.719431,95.737122,-7.760998,159.191986,61.689369,-37.458172,-17.895544,10.126784,9.034000,4.689843,16.987530,20.289660,10.414014,11.595619,18.438190,35.423927,19.853123,25.224947,8192.000000,0.000000,4.000000,,,,0.000000,4.000000,4.000000,4.000000,4.000000,4.000000,4.000000,4.000000,4.000000,2.000000,4.000000,4.000000,4.000000,4.000000,4.000000,4.000000,4.000000,4.000000,4.000000,4.000000,4.000000,4.000000,4.000000,4.000000,4.000000,4.000000,4.000000,4.000000,4.000000,4.000000,4.000000,4.000000,4.000000,83.333336
1614045643.703381,55.000000,0.000000,8.105852,7.658621,-16.298683,19.113522,-1.233898,17.322027,6.795205,12.929995,15.439182,35.147179,7.686359,-1.878384,23.045700,34.360573,25.207533,95.641380,-4.163493,169.289200,94.448196,-15.882252,-13.262264,12.167939,7.999325,16.992846,17.996183,18.730907,9.377959,10.558382,16.368471,23.593630,20.858912,24.174080,8064.000000,0.000000,4.000000,,,,0.000000,4.000000,4.000000,4.000000,4.000000,4.000000,4.000000,4.000000,4.000000,2.000000,4.000000,4.000000,4.000000,4.000000,4.000000,4.000000,4.000000,4.000000,4.000000,4.000000,4.000000,4.000000,4.000000,4.000000,4.000000,4.000000,4.000000,4.000000,4.000000,4.000000,4.000000,4.000000,4.000000,83.333336
1614045643.711230,56.000000,0.000000,1.431080,5.086859,-30.128538,14.479024,-5.848049,14.227782,7.301230,9.840141,13.885282,18.188955,7.678673,1.713238,20.971373,20.992878,23.131042,86.827789,-6.210612,153.222488,64.610153,-30.225344,-32.736179,8.053207,0.299018,22.104057,8.234597,0.763459,2.701914,3.881157,-0.058154,4.082857,7.504718,12.355034,8064.000000,0.000000,4.000000,,,,0.000000,4.000000,4.000000,4.000000,4.000000,4.000000,4.000000,4.000000,4.000000,2.000000,4.000000,4.000000,4.000000,4.000000,4.000000,4.000000,4.000000,4.000000,4.000000,4.000000,4.000000,4.000000,4.000000,4.000000,4.000000,4.000000,4.000000,4.000000,4.000000,4.000000,4.000000,4.000000,4.000000,83.333336
1614045643.718979,57.000000,0.000000,1.942469,3.543311,-35.739433,10.874801,-6.867842,10.623811,7.293929,10.343122,10.794474,-0.290772,7.158174,5.814089,27.104246,10.202654,32.851501,81.099937,5.077650,146.402588,46.084007,-41.477169,-42.447033,12.147718,7.478207,-0.994970,-2.030048,-13.083459,-0.890531,1.313174,-11.852968,1.001851,-1.220735,-0.477834,8064.000000,0.000000,4.000000,,,,0.000000,4.000000,4.000000,4.000000,4.000000,4.000000,4.000000,4.000000,4.000000,2.000000,4.000000,4.000000,4.000000,4.000000,4.000000,4.000000,4.000000,4.000000,4.000000,4.000000,4.000000,4.000000,4.000000,4.000000,4.000000,4.000000,4.000000,4.000000,4.000000,4.000000,4.000000,4.000000,4.000000,83.333336
1614045643.726628,58.000000,0.000000,14.761040,3.026947,-32.626774,9.838285,-6.348153,12.664469,6.773814,21.102009,10.270859,5.350544,7.663836,14.526224,37.333553,14.807836,50.767368,81.018837,35.328983,151.897217,72.191772,-15.794667,-21.378946,25.981724,26.957909,-14.327308,-4.592121,-11.531914,0.136000,1.824681,-9.789833,4.077773,-0.706694,-0.990176,8064.000000,0.000000,4.000000,,,,0.000000,4.000000,4.000000,4.000000,4.000000,4.000000,4.000000,4.000000,4.000000,2.000000,4.000000,4.000000,4.000000,4.000000,4.000000,4.000000,4.000000,4.000000,4.000000,4.000000,4.000000,4.000000,4.000000,4.000000,4.000000,4.000000,4.000000,4.000000,4.000000,4.000000,4.000000,4.000000,4.000000,83.333336
1614045643.734377,59.000000,0.000000,21.925766,4.049562,-31.055683,10.341268,-6.854626,15.728727,6.767041,26.209112,11.286228,13.550322,10.220275,18.614262,41.398785,20.434053,52.767883,71.707054,40.421860,130.719681,48.017014,-11.676309,-10.075517,32.109589,29.495052,2.097276,1.566318,-5.366536,-1.915418,1.822856,-7.215940,2.022413,0.832474,4.651840,8064.000000,0.000000,4.000000,,,,0.000000,4.000000,4.000000,4.000000,4.000000,4.000000,4.000000,4.000000,4.000000,2.000000,4.000000,4.000000,4.000000,4.000000,4.000000,4.000000,4.000000,4.000000,4.000000,4.000000,4.000000,4.000000,4.000000,4.000000,4.000000,4.000000,4.000000,4.000000,4.000000,4.000000,4.000000,4.000000,4.000000,83.333336
1614045643.742026,60.000000,0.000000,18.826916,6.096794,-31.537449,10.330926,-6.334950,17.764280,6.760273,19.516237,10.249301,10.972669,12.261336,18.595648,42.895847,21.952082,48.099731,74.712265,25.509642,129.563324,34.122845,-20.382582,-8.526979,32.590302,20.747608,12.351588,15.410905,-2.284246,-1.400682,1.308213,-5.670263,1.507570,4.934206,6.698470,8192.000000,0.000000,4.000000,,,,0.000000,4.000000,4.000000,4.000000,4.000000,4.000000,4.000000,4.000000,4.000000,2.000000,4.000000,4.000000,4.000000,4.000000,4.000000,4.000000,4.000000,4.000000,4.000000,4.000000,4.000000,4.000000,4.000000,4.000000,4.000000,4.000000,4.000000,4.000000,4.000000,4.000000,4.000000,4.000000,4.000000,83.333336
1614045643.749775,61.000000,0.000000,17.269629,7.629158,-29.967449,9.294954,-7.354257,17.746517,7.266334,12.830054,7.674950,10.961696,4.556767,17.551411,37.211926,21.417309,46.000347,99.252937,23.945671,162.254272,66.909233,-6.003224,3.276419,30.506428,20.214041,11.313596,19.498058,-1.256321,0.652001,1.819725,1.002074,2.531703,7.493374,6.691772,8192.000000,0.000000,4.000000,,,,0.000000,4.000000,4.000000,4.000000,4.000000,4.000000,4.000000,4.000000,4.000000,2.000000,4.000000,4.000000,4.000000,4.000000,4.000000,4.000000,4.000000,4.000000,4.000000,4.000000,4.000000,4.000000,4.000000,4.000000,4.000000,4.000000,4.000000,4.000000,4.000000,4.000000,4.000000,4.000000,4.000000,83.333336
1614045643.757424,62.000000,0.000000,15.201077,7.108709,-33.014404,7.234377,-11.449467,10.036462,5.720606,3.586455,6.641634,11.463555,-11.345225,7.790269,13.072148,5.498456,25.954348,90.948555,11.614033,153.374069,59.662838,-19.843374,-5.444806,13.552844,13.527160,11.302282,3.068304,-6.896090,-10.117882,1.817905,-0.024569,1.503531,5.947420,5.659439,8064.000000,0.000000,4.000000,,,,0.000000,4.000000,4.000000,4.000000,4.000000,4.000000,4.000000,4.000000,4.000000,2.000000,4.000000,4.000000,4.000000,4.000000,4.000000,4.000000,4.000000,4.000000,4.000000,4.000000,4.000000,4.000000,4.000000,4.000000,4.000000,4.000000,4.000000,4.000000,4.000000,4.000000,4.000000,4.000000,4.000000,83.333336
1614045643.765173,63.000000,0.000000,6.980747,7.101600,-41.186520,6.201502,-14.514940,-1.255626,3.150783,-9.750465,7.147812,1.708502,-20.051828,-5.550854,-12.581949,-13.994223,-2.276734,58.549919,-12.500145,120.912994,27.295481,-52.131222,-32.618847,-7.999170,-2.896624,-2.555174,-11.293738,-16.119963,-19.338533,1.816087,-9.255314,-3.113358,3.377370,1.551215,8064.000000,0.000000,4.000000,,,,0.000000,4.000000,4.000000,4.000000,4.000000,4.000000,4.000000,4.000000,4.000000,2.000000,4.000000,4.000000,4.000000,4.000000,4.000000,4.000000,4.000000,4.000000,4.000000,4.000000,4.000000,4.000000,4.000000,4.000000,4.000000,4.000000,4.000000,4.000000,4.000000,4.000000,4.000000,4.000000,4.000000,83.333336
1614045643.772823,64.000000,0.000000,4.922484,7.607319,-40.632511,6.708121,-13.987604,-2.280011,2.634811,-10.766356,7.140665,-7.523976,-18.493315,-10.160687,-16.671932,-14.493049,-2.787278,60.029831,-12.487645,136.689514,44.704082,-43.873962,-32.586227,-9.529633,-8.021933,-22.552618,-10.256804,-16.103844,-7.524323,1.814271,-10.784520,-7.725629,3.373992,-3.578541,0.000000,217.000000,4.000000,,,,0.000000,4.000000,4.000000,4.000000,4.000000,4.000000,4.000000,4.000000,4.000000,2.000000,4.000000,4.000000,4.000000,4.000000,4.000000,4.000000,4.000000,4.000000,4.000000,4.000000,4.000000,4.000000,4.000000,4.000000,4.000000,4.000000,4.000000,4.000000,4.000000,4.000000,4.000000,4.000000,4.000000,83.333336
1614045643.780572,65.000000,0.000000,5.943203,7.599712,-30.848289,6.701413,-13.973617,1.824833,3.144997,-4.088923,7.133524,-4.952350,-20.526104,-15.791553,-15.629619,-7.299068,7.984740,86.123642,-11.962337,162.193863,76.454254,-32.548038,-25.374155,-6.443180,-6.475449,-20.991604,-9.220906,-9.933893,6.329355,1.812457,-7.183992,-8.743545,4.396259,-4.600604,0.000000,204.000000,4.000000,,,,0.000000,4.000000,4.000000,4.000000,4.000000,4.000000,4.000000,4.000000,4.000000,2.000000,4.000000,4.000000,4.000000,4.000000,4.000000,4.000000,4.000000,4.000000,4.000000,4.000000,4.000000,4.000000,4.000000,4.000000,4.000000,4.000000,4.000000,4.000000,4.000000,4.000000,4.000000,4.000000,4.000000,83.333336
1614045643.788221,66.000000,0.000000,-1.755048,7.079291,-28.253340,4.643429,-14.472464,0.284547,2.629032,-4.597654,7.126390,-2.896115,-21.531219,-26.544992,-19.203732,-2.163564,6.438293,86.550339,-24.258066,144.595764,54.839336,-46.874466,-33.041088,-9.000839,-7.494614,-12.252664,-13.827069,-8.898318,6.835846,1.810645,-7.689629,-8.734800,2.340581,-4.596003,0.000000,209.000000,4.000000,,,,0.000000,4.000000,4.000000,4.000000,4.000000,4.000000,4.000000,4.000000,4.000000,2.000000,4.000000,4.000000,4.000000,4.000000,4.000000,4.000000,4.000000,4.000000,4.000000,4.000000,4.000000,4.000000,4.000000,4.000000,4.000000,4.000000,4.000000,4.000000,4.000000,4.000000,4.000000,4.000000,4.000000,83.333336
1614045643.795970,67.000000,0.000000,-6.368678,7.072212,-34.378933,3.100324,-14.457992,-2.279840,3.139223,-2.541775,7.119264,-4.944501,-5.612252,-19.851780,-4.312734,15.274497,15.662624,94.156097,-11.413296,153.169113,67.092186,-32.468616,-20.700356,2.803033,0.718009,-13.266052,-7.146576,-9.402241,10.931575,1.808834,-8.194759,-9.751707,0.286958,-4.591407,0.000000,147.000000,4.000000,,,,0.000000,4.000000,4.000000,4.000000,4.000000,4.000000,4.000000,4.000000,4.000000,2.000000,4.000000,4.000000,4.000000,4.000000,4.000000,4.000000,4.000000,4.000000,4.000000,4.000000,4.000000,4.000000,4.000000,4.000000,4.000000,4.000000,4.000000,4.000000,4.000000,4.000000,4.000000,4.000000,4.000000,83.333336
1614045643.803619,68.000000,0.000000,2.355640,7.577960,-34.857372,3.097224,-13.930713,-1.764740,5.700186,11.306921,7.112144,3.778392,13.880540,7.347558,20.306963,29.105375,38.723885,116.626045,10.649400,182.759537,97.281509,-11.410506,-4.782220,21.261768,14.563444,-4.022017,8.245186,-5.803095,18.100130,1.807025,-8.186564,-8.203494,-0.226149,-4.586816,0.000000,204.000000,4.000000,,,,0.000000,4.000000,4.000000,4.000000,4.000000,4.000000,4.000000,4.000000,4.000000,2.000000,4.000000,4.000000,4.000000,4.000000,4.000000,4.000000,4.000000,4.000000,4.000000,4.000000,4.000000,4.000000,4.000000,4.000000,4.000000,4.000000,4.000000,4.000000,4.000000,4.000000,4.000000,4.000000,4.000000,83.333336
1614045643.811368,69.000000,0.000000,9.532771,6.031921,-32.771233,3.094127,-14.429603,-2.275796,7.232948,20.526384,7.105032,15.569486,15.917941,25.801750,26.440502,21.896784,44.839008,106.765831,12.177212,165.653702,72.568840,-27.296532,-21.700514,21.240507,16.600163,13.930723,10.288223,-4.771650,15.517928,1.805218,-8.691198,-8.708111,-1.764385,-5.607870,0.000000,200.000000,4.000000,,,,0.000000,4.000000,4.000000,4.000000,4.000000,4.000000,4.000000,4.000000,4.000000,2.000000,4.000000,4.000000,4.000000,4.000000,4.000000,4.000000,4.000000,4.000000,4.000000,4.000000,4.000000,4.000000,4.000000,4.000000,4.000000,4.000000,4.000000,4.000000,4.000000,4.000000,4.000000,4.000000,4.000000,83.333336
1614045643.819017,70.000000,0.000000,9.010418,3.461787,-34.789745,3.091033,-14.415173,0.290583,6.712894,18.967396,7.097928,15.553916,12.825101,23.724667,26.926884,17.772322,43.768528,84.607780,24.985548,139.334198,52.496273,-33.423080,-35.012146,18.655165,17.096384,14.942433,5.149730,-5.279699,9.861384,1.803413,-4.067123,-10.237864,-3.813902,-8.679185,0.000000,179.000000,4.000000,,,,0.000000,4.000000,4.000000,4.000000,4.000000,4.000000,4.000000,4.000000,4.000000,2.000000,4.000000,4.000000,4.000000,4.000000,4.000000,4.000000,4.000000,4.000000,4.000000,4.000000,4.000000,4.000000,4.000000,4.000000,4.000000,4.000000,4.000000,4.000000,4.000000,4.000000,4.000000,4.000000,4.000000,83.333336
1614045643.826767,71.000000,0.000000,13.103971,2.945504,-33.729313,5.139224,-11.323834,4.905676,6.706182,18.435608,7.090829,11.435798,18.966122,19.598377,42.284573,30.062243,61.160656,91.189842,47.011845,153.041016,79.110443,-7.748633,-9.848930,34.021126,27.848518,10.824926,14.888169,-1.171856,9.851522,1.801610,2.603611,-3.048139,-2.271627,-7.644865,0.000000,197.000000,4.000000,,,,0.000000,4.000000,4.000000,4.000000,4.000000,4.000000,4.000000,4.000000,4.000000,2.000000,4.000000,4.000000,4.000000,4.000000,4.000000,4.000000,4.000000,4.000000,4.000000,4.000000,4.000000,4.000000,4.000000,4.000000,4.000000,4.000000,4.000000,4.000000,4.000000,4.000000,4.000000,4.000000,4.000000,83.333336
1614045643.834416,72.000000,0.000000,17.706253,3.455379,-26.516098,6.672546,-7.722767,5.413591,6.699475,19.442814,7.083739,15.014106,20.998438,19.065958,50.447414,39.775768,71.355904,103.919167,43.375088,166.221313,99.031334,7.130910,12.725021,45.781975,32.948875,23.634615,27.693794,4.470342,10.354492,1.799808,3.113828,10.288242,0.294747,0.055088,0.000000,201.000000,4.000000,,,,0.000000,4.000000,4.000000,4.000000,4.000000,4.000000,4.000000,4.000000,4.000000,2.000000,4.000000,4.000000,4.000000,4.000000,4.000000,4.000000,4.000000,4.000000,4.000000,4.000000,4.000000,4.000000,4.000000,4.000000,4.000000,4.000000,4.000000,4.000000,4.000000,4.000000,4.000000,4.000000,4.000000,83.333336
1614045643.842265,73.000000,0.000000,15.124444,2.939103,-21.874197,6.665873,-5.663763,8.485101,6.692776,16.346447,7.076655,20.640118,13.797952,11.867405,38.089275,38.710354,51.797371,101.763962,25.895817,151.696121,77.906662,-4.158272,2.968707,32.402859,24.197977,38.482777,27.666100,6.004333,9.318496,1.798008,3.623534,15.406159,-0.731188,6.721699,0.000000,211.000000,4.000000,,,,0.000000,4.000000,4.000000,4.000000,4.000000,4.000000,4.000000,4.000000,4.000000,2.000000,4.000000,4.000000,4.000000,4.000000,4.000000,4.000000,4.000000,4.000000,4.000000,4.000000,4.000000,4.000000,4.000000,4.000000,4.000000,4.000000,4.000000,4.000000,4.000000,4.000000,4.000000,4.000000,4.000000,83.333336
1614045643.850014,74.000000,0.000000,12.032396,3.448985,-22.365143,6.659207,-3.606817,13.092000,6.686083,14.278819,7.582399,19.081017,9.168769,5.701691,28.307596,38.158821,31.232752,100.123741,13.562228,136.672623,48.085163,-21.077190,-13.957339,11.344815,15.455830,34.341728,25.587152,5.485508,9.309177,1.796210,8.235295,13.852291,0.295184,8.253439,0.000000,194.000000,4.000000,,,,0.000000,4.000000,4.000000,4.000000,4.000000,4.000000,4.000000,4.000000,4.000000,2.000000,4.000000,4.000000,4.000000,4.000000,4.000000,4.000000,4.000000,4.000000,4.000000,4.000000,4.000000,4.000000,4.000000,4.000000,4.000000,4.000000,4.000000,4.000000,4.000000,4.000000,4.000000,4.000000,4.000000,83.333336
1614045643.857863,75.000000,0.000000,12.533184,6.009638,-22.855598,6.652548,-2.577569,10.514806,6.679397,14.264540,6.549175,11.369627,10.185242,8.260092,26.740828,39.146305,29.663057,105.664642,3.292255,143.202621,53.678104,-30.799704,-16.507484,3.641163,13.389092,23.025335,27.100027,5.992843,9.812689,1.794414,10.278342,13.325619,2.858991,6.193903,0.000000,193.000000,4.000000,,,,0.000000,4.000000,4.000000,4.000000,4.000000,4.000000,4.000000,4.000000,4.000000,2.000000,4.000000,4.000000,4.000000,4.000000,4.000000,4.000000,4.000000,4.000000,4.000000,4.000000,4.000000,4.000000,4.000000,4.000000,4.000000,4.000000,4.000000,4.000000,4.000000,4.000000,4.000000,4.000000,4.000000,83.333336
1614045643.865612,76.000000,0.000000,12.520651,7.542090,-22.319923,7.671536,-3.600632,6.914547,6.672718,14.763096,7.568267,8.281334,10.175056,4.662088,22.611523,39.107159,32.197498,107.097435,-0.813601,160.495316,79.778275,-29.743261,-12.388412,5.175983,10.811601,16.335644,27.072927,5.986850,8.777235,1.792619,11.806525,14.337934,3.368953,7.213351,0.000000,223.000000,4.000000,,,,0.000000,4.000000,4.000000,4.000000,4.000000,4.000000,4.000000,4.000000,4.000000,2.000000,4.000000,4.000000,4.000000,4.000000,4.000000,4.000000,4.000000,4.000000,4.000000,4.000000,4.000000,4.000000,4.000000,4.000000,4.000000,4.000000,4.000000,4.000000,4.000000,4.000000,4.000000,4.000000,4.000000,83.333336
1614045643.873461,77.000000,0.000000,11.995310,7.021728,-22.297602,10.227967,-1.032929,11.523018,6.666045,14.235512,10.637622,12.375617,10.164881,-9.188727,15.922244,39.580872,28.575556,104.426239,-3.376890,172.129700,87.903618,-29.200699,-13.914486,4.657987,7.723866,10.678282,26.533033,5.468043,6.204356,1.790827,14.358822,14.323596,3.365584,11.308702,0.000000,197.000000,4.000000,,,,0.000000,4.000000,4.000000,4.000000,4.000000,4.000000,4.000000,4.000000,4.000000,2.000000,4.000000,4.000000,4.000000,4.000000,4.000000,4.000000,4.000000,4.000000,4.000000,4.000000,4.000000,4.000000,4.000000,4.000000,4.000000,4.000000,4.000000,4.000000,4.000000,4.000000,4.000000,4.000000,4.000000,83.333336
1614045643.881210,78.000000,0.000000,11.983315,7.014706,-22.275305,10.730560,-3.595999,12.537135,6.659379,14.734097,8.575703,8.260677,10.154716,-18.410309,11.803758,39.028469,25.470058,109.962837,-5.424795,181.188339,97.046486,-27.633036,-15.439033,2.089226,6.690501,6.565039,22.916756,5.462575,5.685331,1.276216,9.729078,11.745170,3.362218,7.194829,0.000000,179.000000,4.000000,,,,0.000000,4.000000,4.000000,4.000000,4.000000,4.000000,4.000000,4.000000,4.000000,2.000000,4.000000,4.000000,4.000000,4.000000,4.000000,4.000000,4.000000,4.000000,4.000000,4.000000,4.000000,4.000000,4.000000,4.000000,4.000000,4.000000,4.000000,4.000000,4.000000,4.000000,4.000000,4.000000,4.000000,83.333336
1614045643.889059,79.000000,0.000000,12.484152,6.494871,-26.355595,10.207009,-16.925735,9.447676,6.652719,14.719363,3.438922,0.047288,7.067638,-19.417538,12.817595,37.450981,24.931767,115.493896,3.298578,184.084061,113.872520,-15.810532,-12.346670,6.702522,8.735092,7.584115,15.714353,5.457112,8.243748,1.274939,3.052682,6.605220,0.794753,-3.068777,0.000000,228.000000,4.000000,,,,0.000000,4.000000,4.000000,4.000000,4.000000,4.000000,4.000000,4.000000,4.000000,2.000000,4.000000,4.000000,4.000000,4.000000,4.000000,4.000000,4.000000,4.000000,4.000000,4.000000,4.000000,4.000000,4.000000,4.000000,4.000000,4.000000,4.000000,4.000000,4.000000,4.000000,4.000000,4.000000,4.000000,83.333336
1614045643.896808,80.000000,0.000000,12.471667,7.001196,-31.457443,9.683982,-19.985733,10.976689,6.646067,14.704644,2.409842,1.072882,7.060571,-9.141711,20.497086,38.439171,26.445297,106.660454,16.628613,169.541016,97.861206,-10.666515,-17.462528,14.388127,11.803281,10.140634,6.980690,4.938835,9.261146,3.324946,6.639373,5.060153,0.281138,-5.116990,0.000000,179.000000,4.000000,,,,0.000000,4.000000,4.000000,4.000000,4.000000,4.000000,4.000000,4.000000,4.000000,2.000000,4.000000,4.000000,4.000000,4.000000,4.000000,4.000000,4.000000,4.000000,4.000000,4.000000,4.000000,4.000000,4.000000,4.000000,4.000000,4.000000,4.000000,4.000000,4.000000,4.000000,4.000000,4.000000,4.000000,83.333336
1614045643.904657,81.000000,0.000000,12.459196,9.558298,-30.400345,10.187119,-8.683697,13.529815,6.639421,14.689939,3.433073,1.071809,9.104793,11.893072,26.630434,35.836628,28.470135,97.835846,20.714548,151.935577,68.532578,-17.835337,-32.316860,16.425020,11.278657,10.130493,2.358324,4.933896,10.277525,5.372903,8.684016,5.567914,5.409062,1.554794,0.000000,204.000000,4.000000,,,,0.000000,4.000000,4.000000,4.000000,4.000000,4.000000,4.000000,4.000000,4.000000,2.000000,4.000000,4.000000,4.000000,4.000000,4.000000,4.000000,4.000000,4.000000,4.000000,4.000000,4.000000,4.000000,4.000000,4.000000,4.000000,4.000000,4.000000,4.000000,4.000000,4.000000,4.000000,4.000000,4.000000,83.333336
1614045643.912406,82.000000,0.000000,12.446736,8.523098,-30.369944,10.176931,-8.675013,13.003465,6.632781,14.675249,3.429640,-11.236955,5.505944,22.650410,24.552521,21.441818,25.877562,90.558525,19.155373,144.091324,61.797379,-23.971348,-38.438389,16.921417,14.344301,10.120362,4.407248,5.441782,12.831350,5.367531,2.521486,5.049525,7.454935,3.604521,0.000000,223.000000,4.000000,,,,0.000000,4.000000,4.000000,4.000000,4.000000,4.000000,4.000000,4.000000,4.000000,2.000000,4.000000,4.000000,4.000000,4.000000,4.000000,4.000000,4.000000,4.000000,4.000000,4.000000,4.000000,4.000000,4.000000,4.000000,4.000000,4.000000,4.000000,4.000000,4.000000,4.000000,4.000000,4.000000,4.000000,83.333336
1614045643.920255,83.000000,0.000000,12.434290,8.001755,-31.365215,9.141113,-18.409927,12.477641,6.626148,14.147754,2.913390,-16.866743,2.936336,20.576477,26.579250,7.061401,33.543991,77.647453,18.110577,140.357498,58.658657,-25.485838,-25.066620,20.494238,23.047905,10.623063,11.069508,4.923520,13.331339,5.874984,2.006144,6.582937,6.934659,1.036814,0.000000,193.000000,4.000000,,,,0.000000,4.000000,4.000000,4.000000,4.000000,4.000000,4.000000,4.000000,4.000000,2.000000,4.000000,4.000000,4.000000,4.000000,4.000000,4.000000,4.000000,4.000000,4.000000,4.000000,4.000000,4.000000,4.000000,4.000000,4.000000,4.000000,4.000000,4.000000,4.000000,4.000000,4.000000,4.000000,4.000000,83.333336
1614045643.928004,84.000000,0.000000,11.909036,14.660419,-24.154364,12.208895,-15.827415,12.977983,6.619522,15.159246,2.910476,-2.490902,10.625707,22.607183,43.988567,14.233828,59.151474,91.928780,23.733492,152.012009,64.241028,-20.332146,-3.503091,25.601950,28.153063,12.663722,20.289207,5.431417,15.369290,8.433211,7.132343,13.755841,10.517468,5.138341,0.000000,180.000000,4.000000,,,,0.000000,4.000000,4.000000,4.000000,4.000000,4.000000,4.000000,4.000000,4.000000,2.000000,4.000000,4.000000,4.000000,4.000000,4.000000,4.000000,4.000000,4.000000,4.000000,4.000000,4.000000,4.000000,4.000000,4.000000,4.000000,4.000000,4.000000,4.000000,4.000000,4.000000,4.000000,4.000000,4.000000,83.333336
1614045643.935753,85.000000,0.000000,12.922768,21.825247,-11.309696,18.863354,-4.529536,14.503468,6.612903,14.631267,4.958848,19.050051,20.358671,15.405088,52.662529,37.809338,73.964119,124.657364,31.402065,170.834351,82.638321,-11.081045,7.782464,29.678911,28.637730,18.804905,32.063789,12.605474,20.482126,9.450419,12.253415,20.921572,14.609515,14.876793,0.000000,197.000000,4.000000,,,,0.000000,4.000000,4.000000,4.000000,4.000000,4.000000,4.000000,4.000000,4.000000,2.000000,4.000000,4.000000,4.000000,4.000000,4.000000,4.000000,4.000000,4.000000,4.000000,4.000000,4.000000,4.000000,4.000000,4.000000,4.000000,4.000000,4.000000,4.000000,4.000000,4.000000,4.000000,4.000000,4.000000,83.333336
1614045643.943502,86.000000,0.000000,12.909844,21.803421,-5.657361,21.921413,-0.935263,16.540245,6.606290,10.514071,7.517992,24.672026,14.697287,-5.123137,34.148327,45.976654,52.864510,108.635269,21.114252,160.407104,82.555687,-14.146887,8.800323,24.521027,24.506529,25.452766,38.698391,19.259535,19.436003,8.928148,18.395008,26.541677,14.594906,20.502941,0.000000,190.000000,4.000000,,,,0.000000,4.000000,4.000000,4.000000,4.000000,4.000000,4.000000,4.000000,4.000000,2.000000,4.000000,4.000000,4.000000,4.000000,4.000000,4.000000,4.000000,4.000000,4.000000,4.000000,4.000000,4.000000,4.000000,4.000000,4.000000,4.000000,4.000000,4.000000,4.000000,4.000000,4.000000,4.000000,4.000000,83.333336
1614045643.951251,87.000000,0.000000,8.794371,20.755978,-7.702985,21.386671,-3.498430,16.523706,6.599683,6.913814,6.484832,9.775558,-1.214847,-11.271860,13.601359,29.007603,21.016775,76.218941,-3.009425,142.810806,74.780823,-29.517355,7.765881,8.086250,11.661509,26.452953,31.993027,18.727455,11.211438,8.919220,22.479177,28.566418,14.067491,20.995258,0.000000,207.000000,4.000000,,,,0.000000,4.000000,4.000000,4.000000,4.000000,4.000000,4.000000,4.000000,4.000000,2.000000,4.000000,4.000000,4.000000,4.000000,4.000000,4.000000,4.000000,4.000000,4.000000,4.000000,4.000000,4.000000,4.000000,4.000000,4.000000,4.000000,4.000000,4.000000,4.000000,4.000000,4.000000,4.000000,4.000000,83.333336
1614045643.959000,88.000000,0.000000,4.683012,21.760862,-8.208103,20.852463,-2.982111,16.507181,6.593084,6.906900,7.503989,-2.029089,-9.931581,-6.132383,8.459553,13.081159,7.662425,87.937599,-12.237185,154.975693,77.270142,-36.154507,0.065807,-3.203887,0.367796,17.708553,20.678984,15.631804,6.584842,8.910300,20.405416,26.999390,14.053423,20.974264,0.000000,202.000000,4.000000,,,,0.000000,4.000000,4.000000,4.000000,4.000000,4.000000,4.000000,4.000000,4.000000,2.000000,4.000000,4.000000,4.000000,4.000000,4.000000,4.000000,4.000000,4.000000,4.000000,4.000000,4.000000,4.000000,4.000000,4.000000,4.000000,4.000000,4.000000,4.000000,4.000000,4.000000,4.000000,4.000000,4.000000,83.333336
1614045643.966650,89.000000,0.000000,4.678329,22.251921,-5.635792,21.857252,-1.440668,16.490675,6.586491,7.412814,12.624690,1.562684,-7.870367,-11.767277,0.758786,12.555257,6.116301,100.670174,-14.276230,158.410446,71.551849,-37.143990,-12.241951,-4.226325,-0.145392,5.383152,18.094202,16.128992,6.065437,8.901390,18.333729,25.946749,14.552190,21.466110,0.000000,197.000000,4.000000,,,,0.000000,4.000000,4.000000,4.000000,4.000000,4.000000,4.000000,4.000000,4.000000,2.000000,4.000000,4.000000,4.000000,4.000000,4.000000,4.000000,4.000000,4.000000,4.000000,4.000000,4.000000,4.000000,4.000000,4.000000,4.000000,4.000000,4.000000,4.000000,4.000000,4.000000,4.000000,4.000000,4.000000,83.333336
1614045643.974399,90.000000,0.000000,5.186471,21.716848,-10.245541,21.835394,-4.516150,16.474184,6.579904,6.892581,13.637706,3.099583,-7.349676,-18.934996,-9.498384,13.568343,2.520441,75.954117,-19.902979,139.277679,74.557220,-36.081207,-14.793812,-4.222098,-0.658067,-1.288898,18.588928,16.625685,5.033731,8.892489,17.802574,22.843878,14.537638,21.957464,0.000000,204.000000,4.000000,,,,0.000000,4.000000,4.000000,4.000000,4.000000,4.000000,4.000000,4.000000,4.000000,2.000000,4.000000,4.000000,4.000000,4.000000,4.000000,4.000000,4.000000,4.000000,4.000000,4.000000,4.000000,4.000000,4.000000,4.000000,4.000000,4.000000,4.000000,4.000000,4.000000,4.000000,4.000000,4.000000,4.000000,83.333336
1614045643.982048,91.000000,0.000000,4.668464,21.182312,-24.081450,17.198175,-12.203941,16.457710,6.573324,6.885688,9.008684,-4.083004,-10.932070,-16.864779,-6.411962,10.990672,2.517920,79.467903,-10.139486,145.292252,97.046761,-25.275894,-11.189274,-2.166594,1.393873,-1.800430,17.544699,16.096237,5.541517,8.883596,17.271952,15.641548,14.010280,21.422686,0.000000,181.000000,4.000000,,,,0.000000,4.000000,4.000000,4.000000,4.000000,4.000000,4.000000,4.000000,4.000000,2.000000,4.000000,4.000000,4.000000,4.000000,4.000000,4.000000,4.000000,4.000000,4.000000,4.000000,4.000000,4.000000,4.000000,4.000000,4.000000,4.000000,4.000000,4.000000,4.000000,4.000000,4.000000,4.000000,4.000000,83.333336
1614045643.989797,92.000000,0.000000,4.663796,21.673950,-31.749676,10.514310,-15.268661,16.441252,6.566751,7.391623,6.435573,-2.027639,-4.767292,-16.847914,1.286758,15.595066,11.746172,105.029465,5.255268,160.018753,89.257408,-23.199337,-14.767828,2.963778,8.571966,-1.285809,17.527153,15.567321,12.715463,8.874713,17.767500,13.061804,13.996269,20.375624,0.000000,179.000000,4.000000,,,,0.000000,4.000000,4.000000,4.000000,4.000000,4.000000,4.000000,4.000000,4.000000,2.000000,4.000000,4.000000,4.000000,4.000000,4.000000,4.000000,4.000000,4.000000,4.000000,4.000000,4.000000,4.000000,4.000000,4.000000,4.000000,4.000000,4.000000,4.000000,4.000000,4.000000,4.000000,4.000000,4.000000,83.333336
1614045643.997446,93.000000,0.000000,5.171952,20.626635,-26.589722,8.965334,-11.663649,16.937632,6.560184,7.384231,7.454778,6.179517,10.109270,-11.702862,9.490600,23.271778,24.042118,92.103920,7.814116,144.474121,63.014305,-30.868444,-18.855625,3.473634,11.640317,-0.258882,18.535267,16.064573,20.395056,8.865838,17.236912,12.023101,15.520735,21.893709,0.000000,175.000000,4.000000,,,,0.000000,4.000000,4.000000,4.000000,4.000000,4.000000,4.000000,4.000000,4.000000,2.000000,4.000000,4.000000,4.000000,4.000000,4.000000,4.000000,4.000000,4.000000,4.000000,4.000000,4.000000,4.000000,4.000000,4.000000,4.000000,4.000000,4.000000,4.000000,4.000000,4.000000,4.000000,4.000000,4.000000,83.333336
1614045644.005195,94.000000,0.000000,5.166780,14.964983,-26.050310,10.494830,-9.600703,15.382232,6.553624,7.376847,6.934503,8.737440,14.714546,10.872944,25.378544,24.786968,33.761665,83.806686,19.088352,142.278366,75.771805,-18.017063,-9.093180,15.265033,17.269703,1.279838,16.978270,16.048510,20.887480,8.856973,11.578650,3.293129,9.864188,19.820534,0.000000,180.000000,4.000000,,,,0.000000,4.000000,4.000000,4.000000,4.000000,4.000000,4.000000,4.000000,4.000000,2.000000,4.000000,4.000000,4.000000,4.000000,4.000000,4.000000,4.000000,4.000000,4.000000,4.000000,4.000000,4.000000,4.000000,4.000000,4.000000,4.000000,4.000000,4.000000,4.000000,4.000000,4.000000,4.000000,4.000000,83.333336
1614045644.012844,95.000000,0.000000,5.161614,7.257710,-34.229389,9.458694,-11.129563,12.802748,6.547071,10.446393,6.414748,7.703062,8.545985,32.913353,37.148037,24.249361,43.984314,112.440834,42.659008,164.700195,97.234497,8.154799,7.838991,37.813869,33.149868,9.483686,20.551035,13.981179,20.866592,8.848115,5.926045,-1.838369,0.110734,10.057122,0.000000,196.000000,4.000000,,,,0.000000,4.000000,4.000000,4.000000,4.000000,4.000000,4.000000,4.000000,4.000000,2.000000,4.000000,4.000000,4.000000,4.000000,4.000000,4.000000,4.000000,4.000000,4.000000,4.000000,4.000000,4.000000,4.000000,4.000000,4.000000,4.000000,4.000000,4.000000,4.000000,4.000000,4.000000,4.000000,4.000000,83.333336
1614045644.020593,96.000000,0.000000,5.156452,5.711991,-29.579775,9.449236,-9.579972,12.277124,6.540524,11.974408,6.921154,6.156897,7.511798,32.880440,39.674992,24.737932,49.068535,113.866852,46.718914,153.253433,80.214180,10.197927,11.420896,40.852978,40.296207,28.961382,28.735613,12.428737,21.871368,8.839268,5.920119,5.342956,-0.402197,2.354758,8064.000000,0.000000,4.000000,,,,0.000000,4.000000,4.000000,4.000000,4.000000,4.000000,4.000000,4.000000,4.000000,2.000000,4.000000,4.000000,4.000000,4.000000,4.000000,4.000000,4.000000,4.000000,4.000000,4.000000,4.000000,4.000000,4.000000,4.000000,4.000000,4.000000,4.000000,4.000000,4.000000,4.000000,4.000000,4.000000,4.000000,83.333336
1614045644.028243,97.000000,0.000000,5.151296,6.731920,-15.704041,11.491069,-4.442188,13.290488,7.046803,9.911152,6.914232,5.637919,7.504286,15.411662,37.071217,24.713194,45.942543,81.445290,33.338860,126.433517,59.621147,-9.812271,1.153064,26.965973,29.486679,38.676010,28.706877,12.416307,19.285395,8.830428,6.427020,10.978639,3.187949,5.429326,8064.000000,0.000000,4.000000,,,,0.000000,4.000000,4.000000,4.000000,4.000000,4.000000,4.000000,4.000000,4.000000,2.000000,4.000000,4.000000,4.000000,4.000000,4.000000,4.000000,4.000000,4.000000,4.000000,4.000000,4.000000,4.000000,4.000000,4.000000,4.000000,4.000000,4.000000,4.000000,4.000000,4.000000,4.000000,4.000000,4.000000,83.333336
1614045644.035992,98.000000,0.000000,5.146144,6.212367,-17.226799,13.530860,-1.873643,11.225916,6.526936,6.824317,6.907318,6.657923,4.419859,-4.603750,27.290554,24.175661,40.768394,82.902306,15.356804,139.127594,64.689735,-26.212715,-5.514756,16.169775,17.662321,26.842463,22.524324,12.403892,17.214827,8.821598,5.907772,9.429198,2.159120,7.475179,8064.000000,0.000000,4.000000,,,,0.000000,4.000000,4.000000,4.000000,4.000000,4.000000,4.000000,4.000000,4.000000,2.000000,4.000000,4.000000,4.000000,4.000000,4.000000,4.000000,4.000000,4.000000,4.000000,4.000000,4.000000,4.000000,4.000000,4.000000,4.000000,4.000000,4.000000,4.000000,4.000000,4.000000,4.000000,4.000000,4.000000,83.333336
1614045644.043641,99.000000,0.000000,5.653819,6.718976,-21.824957,13.517328,-2.897410,9.676228,6.520409,7.843134,6.900411,7.676906,3.389798,-16.394018,14.442751,21.587381,32.522499,107.947609,-9.273937,153.860260,65.137863,-38.494194,-8.073343,1.794632,9.952351,16.046391,22.501801,12.904308,17.710432,8.812776,8.465966,8.906949,5.746704,5.416422,8064.000000,0.000000,4.000000,,,,0.000000,4.000000,4.000000,4.000000,4.000000,4.000000,4.000000,4.000000,4.000000,2.000000,4.000000,4.000000,4.000000,4.000000,4.000000,4.000000,4.000000,4.000000,4.000000,4.000000,4.000000,4.000000,4.000000,4.000000,4.000000,4.000000,4.000000,4.000000,4.000000,4.000000,4.000000,4.000000,4.000000,83.333336
1614045644.051390,100.000000,0.000000,4.622524,9.789180,-13.598003,13.503811,-2.381692,11.717834,7.026709,6.296830,6.893510,8.182050,-3.793079,-19.967367,-1.981949,13.360666,9.413054,87.839661,-28.239023,127.552559,42.508621,-56.404419,-19.347321,-14.617419,1.224450,12.953421,21.453657,11.352942,12.051696,8.803964,10.508782,9.923683,12.920444,9.000749,8064.000000,0.000000,4.000000,,,,0.000000,4.000000,4.000000,4.000000,4.000000,4.000000,4.000000,4.000000,4.000000,2.000000,4.000000,4.000000,4.000000,4.000000,4.000000,4.000000,4.000000,4.000000,4.000000,4.000000,4.000000,4.000000,4.000000,4.000000,4.000000,4.000000,4.000000,4.000000,4.000000,4.000000,4.000000,4.000000,4.000000,83.333336
1614045644.059039,101.000000,0.000000,2.566619,10.805032,-12.558764,14.003128,-1.866490,11.706116,4.455580,-1.914596,6.886617,7.148226,-19.686722,-21.998682,-31.210735,-2.037310,-21.878410,55.444130,-34.877449,98.707054,26.568678,-72.245453,-32.661308,-19.731007,-4.930621,-2.444149,11.175793,5.187743,2.808875,8.795159,8.959812,10.426579,9.830602,8.991748,8064.000000,0.000000,4.000000,,,,0.000000,4.000000,4.000000,4.000000,4.000000,4.000000,4.000000,4.000000,4.000000,2.000000,4.000000,4.000000,4.000000,4.000000,4.000000,4.000000,4.000000,4.000000,4.000000,4.000000,4.000000,4.000000,4.000000,4.000000,4.000000,4.000000,4.000000,4.000000,4.000000,4.000000,4.000000,4.000000,4.000000,83.333336
1614045644.066888,102.000000,0.000000,1.025591,10.281405,-28.956461,13.989125,-5.454367,9.130307,-0.164260,-8.579348,6.879730,1.500052,-28.384983,-20.951042,-52.717987,-15.368606,-35.189865,48.209202,-38.945137,103.736557,38.849800,-73.711662,-34.167107,-19.198456,-7.489793,-19.877602,2.959489,0.567171,0.754784,8.786365,6.899570,7.339230,3.154104,-4.863398,8064.000000,0.000000,4.000000,,,,0.000000,4.000000,4.000000,4.000000,4.000000,4.000000,4.000000,4.000000,4.000000,2.000000,4.000000,4.000000,4.000000,4.000000,4.000000,4.000000,4.000000,4.000000,4.000000,4.000000,4.000000,4.000000,4.000000,4.000000,4.000000,4.000000,4.000000,4.000000,4.000000,4.000000,4.000000,4.000000,4.000000,83.333336
1614045644.074637,103.000000,0.000000,1.537386,10.271125,-39.696735,13.462316,-10.577118,8.608356,-1.702558,-7.032307,6.872850,0.472911,-22.202753,-13.237783,-39.331936,-10.737852,-21.308521,80.981506,-33.265167,124.658455,59.323772,-62.355904,-32.081657,-16.615154,-8.507944,-19.344904,2.443709,1.079424,2.292491,8.777577,6.379850,0.152404,2.638129,-17.166227,8064.000000,0.000000,4.000000,,,,0.000000,4.000000,4.000000,4.000000,4.000000,4.000000,4.000000,4.000000,4.000000,2.000000,4.000000,4.000000,4.000000,4.000000,4.000000,4.000000,4.000000,4.000000,4.000000,4.000000,4.000000,4.000000,4.000000,4.000000,4.000000,4.000000,4.000000,4.000000,4.000000,4.000000,4.000000,4.000000,4.000000,83.333336
1614045644.082486,104.000000,0.000000,1.535849,10.260853,-37.605759,13.448853,-11.592182,9.112569,-0.675214,-1.897069,6.865978,9.190387,-7.308755,-8.609161,-6.984911,7.734424,4.866633,96.797958,-12.206260,129.149185,63.879833,-46.396111,-33.075218,-7.880591,-0.294308,-12.658892,3.466907,1.078344,1.777378,9.281621,6.373471,-2.924672,3.148312,-17.149059,8064.000000,0.000000,4.000000,,,,0.000000,4.000000,4.000000,4.000000,4.000000,4.000000,4.000000,4.000000,4.000000,2.000000,4.000000,4.000000,4.000000,4.000000,4.000000,4.000000,4.000000,4.000000,4.000000,4.000000,4.000000,4.000000,4.000000,4.000000,4.000000,4.000000,4.000000,4.000000,4.000000,4.000000,4.000000,4.000000,4.000000,83.333336
1614045644.090235,105.000000,0.000000,1.534313,10.250592,-37.055332,11.896942,-9.529307,8.590635,-0.674539,2.720212,4.807830,13.796581,7.570349,-9.113373,17.637459,16.957458,29.989971,96.701164,8.831588,123.891830,58.174927,-31.477921,-30.990860,1.870880,9.962397,-11.620592,3.463439,0.564446,1.262780,7.733878,6.367097,-1.896106,3.657984,-15.080629,8064.000000,0.000000,4.000000,,,,0.000000,4.000000,4.000000,4.000000,4.000000,4.000000,4.000000,4.000000,4.000000,2.000000,4.000000,4.000000,4.000000,4.000000,4.000000,4.000000,4.000000,4.000000,4.000000,4.000000,4.000000,4.000000,4.000000,4.000000,4.000000,4.000000,4.000000,4.000000,4.000000,4.000000,4.000000,4.000000,4.000000,83.333336
1614045644.098084,106.000000,0.000000,1.019958,10.240342,-42.146481,6.756841,-11.571060,9.094866,-1.186685,4.255954,3.264560,10.705862,10.639702,-2.950413,31.465975,16.427681,49.447163,118.655739,22.668909,143.255112,66.834702,-16.574648,-22.754742,9.048496,12.516537,-12.121792,2.434335,1.589522,1.774338,5.674861,4.822268,-2.919851,1.090223,-16.604010,8192.000000,0.000000,4.000000,,,,0.000000,4.000000,4.000000,4.000000,4.000000,4.000000,4.000000,4.000000,4.000000,2.000000,4.000000,4.000000,4.000000,4.000000,4.000000,4.000000,4.000000,4.000000,4.000000,4.000000,4.000000,4.000000,4.000000,4.000000,4.000000,4.000000,4.000000,4.000000,4.000000,4.000000,4.000000,4.000000,4.000000,83.333336
1614045644.105833,107.000000,0.000000,2.044579,10.230102,-50.309464,1.621879,-18.226156,9.085771,-0.672678,3.226057,2.748475,7.105412,0.885472,6.283307,32.460152,17.436893,52.474636,132.383240,32.389832,169.778534,93.947357,-0.660637,-9.398653,16.218935,14.555303,-9.545568,2.944721,0.049471,2.798204,4.643546,2.253344,-0.865649,-7.628816,-17.100227,8192.000000,0.000000,4.000000,,,,0.000000,4.000000,4.000000,4.000000,4.000000,4.000000,4.000000,4.000000,4.000000,2.000000,4.000000,4.000000,4.000000,4.000000,4.000000,4.000000,4.000000,4.000000,4.000000,4.000000,4.000000,4.000000,4.000000,4.000000,4.000000,4.000000,4.000000,4.000000,4.000000,4.000000,4.000000,4.000000,4.000000,83.333336
1614045644.113682,108.000000,0.000000,4.606637,10.219872,-45.130947,1.620257,-15.643827,8.563865,-0.159184,4.248472,2.232906,6.072666,-4.756439,6.789844,25.761023,16.906637,36.011906,106.609833,29.280518,152.685669,91.289307,-3.736899,-2.722588,19.279638,19.156132,-1.330894,11.146905,2.613524,5.872329,5.151723,2.251090,6.314704,-6.595546,-10.416460,8192.000000,0.000000,4.000000,,,,0.000000,4.000000,4.000000,4.000000,4.000000,4.000000,4.000000,4.000000,4.000000,2.000000,4.000000,4.000000,4.000000,4.000000,4.000000,4.000000,4.000000,4.000000,4.000000,4.000000,4.000000,4.000000,4.000000,4.000000,4.000000,4.000000,4.000000,4.000000,4.000000,4.000000,4.000000,4.000000,4.000000,83.333336
1614045644.121431,109.000000,0.000000,5.627671,10.209652,-20.470432,11.362226,2.320534,10.606583,1.892257,8.859608,5.307596,10.681978,-1.161939,7.295874,24.196800,17.915371,21.104099,86.503220,18.482006,120.225296,58.890324,-31.425470,-11.437814,16.696257,19.136976,9.952488,19.853706,11.841680,6.379277,5.146571,5.838583,14.000697,5.718742,4.465752,8064.000000,0.000000,4.000000,,,,0.000000,4.000000,4.000000,4.000000,4.000000,4.000000,4.000000,4.000000,4.000000,2.000000,4.000000,4.000000,4.000000,4.000000,4.000000,4.000000,4.000000,4.000000,4.000000,4.000000,4.000000,4.000000,4.000000,4.000000,4.000000,4.000000,4.000000,4.000000,4.000000,4.000000,4.000000,4.000000,4.000000,83.333336
1614045644.129280,110.000000,0.000000,5.622044,10.199442,0.062859,22.632915,13.600266,12.647258,4.454467,11.927671,11.968955,19.902065,3.454607,7.288579,22.634142,26.102585,22.108635,102.826973,15.899422,131.387115,41.395535,-41.650455,-11.939197,16.679560,17.066557,12.506639,22.397955,17.470863,5.860077,5.141424,9.422488,20.653362,12.379690,14.717696,8064.000000,0.000000,4.000000,,,,0.000000,4.000000,4.000000,4.000000,4.000000,4.000000,4.000000,4.000000,4.000000,2.000000,4.000000,4.000000,4.000000,4.000000,4.000000,4.000000,4.000000,4.000000,4.000000,4.000000,4.000000,4.000000,4.000000,4.000000,4.000000,4.000000,4.000000,4.000000,4.000000,4.000000,4.000000,4.000000,4.000000,83.333336
1614045644.137029,111.000000,0.000000,5.616422,10.189242,0.575616,24.148745,7.432819,12.634611,1.373090,10.890102,15.033910,20.907804,3.451153,-7.077684,14.919200,22.999557,23.624989,117.083122,11.780958,161.512146,74.174652,-27.249830,4.482999,15.637239,12.946926,9.930029,25.965302,16.427752,6.879858,5.136283,10.438706,22.683992,10.316029,14.702978,8064.000000,0.000000,4.000000,,,,0.000000,4.000000,4.000000,4.000000,4.000000,4.000000,4.000000,4.000000,4.000000,2.000000,4.000000,4.000000,4.000000,4.000000,4.000000,4.000000,4.000000,4.000000,4.000000,4.000000,4.000000,4.000000,4.000000,4.000000,4.000000,4.000000,4.000000,4.000000,4.000000,4.000000,4.000000,4.000000,4.000000,83.333336
1614045644.144878,112.000000,0.000000,2.021062,9.666233,-3.014703,20.022032,0.758719,12.621976,-3.243668,7.802289,13.993235,14.733050,-1.680503,-23.480864,2.596589,5.540661,4.627005,98.504501,-12.846208,144.940384,87.946632,-44.658478,-3.726612,-2.839936,-4.501919,13.509843,24.913694,16.924145,5.334517,5.131147,9.915447,17.020283,10.305713,14.688275,8064.000000,0.000000,4.000000,,,,0.000000,4.000000,4.000000,4.000000,4.000000,4.000000,4.000000,4.000000,4.000000,2.000000,4.000000,4.000000,4.000000,4.000000,4.000000,4.000000,4.000000,4.000000,4.000000,4.000000,4.000000,4.000000,4.000000,4.000000,4.000000,4.000000,4.000000,4.000000,4.000000,4.000000,4.000000,4.000000,4.000000,83.333336
1614045644.152628,113.000000,0.000000,-4.134806,10.682207,-2.498868,20.514830,1.783602,12.609354,-4.778886,5.230384,13.979241,14.205497,-6.807028,-25.508665,-15.354726,-3.695649,-26.146852,67.123947,-45.141052,112.487747,55.550991,-76.921509,-36.030579,-35.144787,-23.471775,3.752743,8.478524,16.907221,-1.337484,5.126016,9.905532,12.900698,11.321048,14.673587,8064.000000,0.000000,4.000000,,,,0.000000,4.000000,4.000000,4.000000,4.000000,4.000000,4.000000,4.000000,4.000000,2.000000,4.000000,4.000000,4.000000,4.000000,4.000000,4.000000,4.000000,4.000000,4.000000,4.000000,4.000000,4.000000,4.000000,4.000000,4.000000,4.000000,4.000000,4.000000,4.000000,4.000000,4.000000,4.000000,4.000000,83.333336
1614045644.160476,114.000000,0.000000,-6.181953,13.235628,-2.496369,23.571238,2.294639,13.109566,-4.261287,3.686693,14.478083,16.242573,-7.825862,-23.431873,-33.800911,-4.204773,-45.095066,59.364513,-62.018990,110.836792,37.033901,-90.177925,-42.661213,-46.904514,-28.063688,-24.456139,0.264918,16.377493,-5.951531,5.120890,10.408446,13.400618,11.309727,14.658914,8064.000000,0.000000,4.000000,,,,0.000000,4.000000,4.000000,4.000000,4.000000,4.000000,4.000000,4.000000,4.000000,2.000000,4.000000,4.000000,4.000000,4.000000,4.000000,4.000000,4.000000,4.000000,4.000000,4.000000,4.000000,4.000000,4.000000,4.000000,4.000000,4.000000,4.000000,4.000000,4.000000,4.000000,4.000000,4.000000,4.000000,83.333336
1614045644.168226,115.000000,0.000000,-6.175771,14.248034,-3.519513,24.573307,0.241062,12.583635,-4.257025,3.170185,13.950784,13.662228,-9.356498,-24.434082,-40.433777,-5.739030,-44.024330,80.330788,-54.264664,131.238785,69.817383,-57.267231,-23.131374,-24.806330,-18.804855,-32.636810,9.495422,17.899576,-5.432759,5.115768,10.398038,9.284653,10.272776,14.131434,8064.000000,0.000000,4.000000,,,,0.000000,4.000000,4.000000,4.000000,4.000000,4.000000,4.000000,4.000000,4.000000,2.000000,4.000000,4.000000,4.000000,4.000000,4.000000,4.000000,4.000000,4.000000,4.000000,4.000000,4.000000,4.000000,4.000000,4.000000,4.000000,4.000000,4.000000,4.000000,4.000000,4.000000,4.000000,4.000000,4.000000,83.333336
1614045644.176075,116.000000,0.000000,-6.169595,13.720964,-5.567276,24.035913,1.266462,12.571052,-4.765589,2.654195,13.936833,15.699848,-7.295859,-20.307085,-29.111290,-0.605086,-26.544407,90.506866,-28.569372,133.158829,76.414230,-24.902273,-17.467216,-2.217420,-6.991179,-15.168276,9.998747,10.189370,-5.427326,5.110653,8.336358,5.172804,8.724042,10.014739,8064.000000,0.000000,4.000000,,,,0.000000,4.000000,4.000000,4.000000,4.000000,4.000000,4.000000,4.000000,4.000000,2.000000,4.000000,4.000000,4.000000,4.000000,4.000000,4.000000,4.000000,4.000000,4.000000,4.000000,4.000000,4.000000,4.000000,4.000000,4.000000,4.000000,4.000000,4.000000,4.000000,4.000000,4.000000,4.000000,4.000000,83.333336
1614045644.183824,117.000000,0.000000,-5.137784,14.220064,-11.202734,24.011877,0.752375,13.071301,-4.248003,8.292566,14.435717,20.812353,5.531950,-11.056008,-1.389871,8.113468,1.687265,86.313797,1.715607,132.000015,80.440384,-4.877371,-21.039494,7.015567,-0.830342,-5.409518,1.270800,-4.179794,-5.421899,5.105542,6.276740,4.141990,7.689676,0.773955,8064.000000,0.000000,4.000000,,,,0.000000,4.000000,4.000000,4.000000,4.000000,4.000000,4.000000,4.000000,4.000000,2.000000,4.000000,4.000000,4.000000,4.000000,4.000000,4.000000,4.000000,4.000000,4.000000,4.000000,4.000000,4.000000,4.000000,4.000000,4.000000,4.000000,4.000000,4.000000,4.000000,4.000000,4.000000,4.000000,4.000000,83.333336
1614045644.191573,118.000000,0.000000,-2.568544,13.180203,-18.883839,23.987865,-5.402224,11.519768,-4.756575,17.002222,14.421281,18.227438,15.270007,-1.814183,26.303825,9.643816,31.429169,104.176201,25.816456,153.919312,113.180450,12.050584,-17.428709,18.803423,4.298694,-8.993852,-1.807394,-10.842281,-5.416477,5.100437,6.270463,-0.477537,4.092243,-5.893486,8064.000000,0.000000,4.000000,,,,0.000000,4.000000,4.000000,4.000000,4.000000,4.000000,4.000000,4.000000,4.000000,2.000000,4.000000,4.000000,4.000000,4.000000,4.000000,4.000000,4.000000,4.000000,4.000000,4.000000,4.000000,4.000000,4.000000,4.000000,4.000000,4.000000,4.000000,4.000000,4.000000,4.000000,4.000000,4.000000,4.000000,83.333336
1614045644.199322,119.000000,0.000000,-1.027514,10.602921,-22.967520,23.963879,-11.037848,9.456966,-3.726177,19.036503,11.842757,12.055365,11.152173,3.315836,32.944191,9.634172,45.243893,126.636131,37.585510,164.021790,123.836502,22.294943,-14.334358,29.041029,11.473883,-8.472037,-0.779946,-10.831439,-5.923881,5.095336,6.264193,-1.502700,-0.014413,-5.374772,8064.000000,0.000000,4.000000,,,,0.000000,4.000000,4.000000,4.000000,4.000000,4.000000,4.000000,4.000000,4.000000,2.000000,4.000000,4.000000,4.000000,4.000000,4.000000,4.000000,4.000000,4.000000,4.000000,4.000000,4.000000,4.000000,4.000000,4.000000,4.000000,4.000000,4.000000,4.000000,4.000000,4.000000,4.000000,4.000000,4.000000,83.333336
1614045644.206971,120.000000,0.000000,1.024796,9.566676,-20.380449,24.452734,-11.026810,8.421868,-1.671169,17.991825,9.266812,9.992027,6.012816,3.312520,25.218937,12.188641,37.506340,115.227440,36.522285,138.216751,91.404976,19.195724,-12.268742,26.960707,15.052152,-4.361001,3.836219,-7.230864,-2.328214,4.577420,5.745108,5.165469,1.011242,2.322911,8064.000000,0.000000,4.000000,,,,0.000000,4.000000,4.000000,4.000000,4.000000,4.000000,4.000000,4.000000,4.000000,2.000000,4.000000,4.000000,4.000000,4.000000,4.000000,4.000000,4.000000,4.000000,4.000000,4.000000,4.000000,4.000000,4.000000,4.000000,4.000000,4.000000,4.000000,4.000000,4.000000,4.000000,4.000000,4.000000,4.000000,83.333336
1614045644.214720,121.000000,0.000000,2.049412,10.069930,-17.795967,23.402641,-9.990141,8.926267,-0.131037,19.512295,10.796007,7.930753,8.058085,3.309208,23.142437,14.227734,26.186783,99.727600,30.331917,124.745201,65.672546,7.381658,-8.666729,24.369644,11.960176,-1.279717,12.037511,3.032778,4.853601,5.085663,8.303465,10.288509,3.574334,11.551357,8064.000000,0.000000,4.000000,,,,0.000000,4.000000,4.000000,4.000000,4.000000,4.000000,4.000000,4.000000,4.000000,2.000000,4.000000,4.000000,4.000000,4.000000,4.000000,4.000000,4.000000,4.000000,4.000000,4.000000,4.000000,4.000000,4.000000,4.000000,4.000000,4.000000,4.000000,4.000000,4.000000,4.000000,4.000000,4.000000,4.000000,83.333336
1614045644.222369,122.000000,0.000000,2.560183,10.059860,-21.880735,20.815136,-10.492971,8.917340,-0.130906,15.903038,9.759570,6.384361,7.537207,4.844360,23.632114,14.213506,26.673416,109.884277,20.557995,144.107635,87.145332,-1.343673,-7.119601,20.755529,13.999498,1.798486,16.128038,9.183591,6.900030,5.080578,10.346444,9.252580,3.057939,14.616729,8064.000000,0.000000,4.000000,,,,0.000000,4.000000,4.000000,4.000000,4.000000,4.000000,4.000000,4.000000,4.000000,2.000000,4.000000,4.000000,4.000000,4.000000,4.000000,4.000000,4.000000,4.000000,4.000000,4.000000,4.000000,4.000000,4.000000,4.000000,4.000000,4.000000,4.000000,4.000000,4.000000,4.000000,4.000000,4.000000,4.000000,83.333336
1614045644.230118,123.000000,0.000000,2.044802,10.049801,-21.346033,19.768679,-10.995299,8.908423,-1.669236,6.143546,2.057503,16.634386,1.375823,-0.801510,14.377713,13.686472,24.082642,110.287216,3.101539,148.578903,99.878700,-10.573098,-5.574020,3.298877,13.472678,3.847969,15.599089,6.610305,6.380310,2.511395,9.310456,9.243327,2.542060,13.063650,8064.000000,0.000000,4.000000,,,,0.000000,4.000000,4.000000,4.000000,4.000000,4.000000,4.000000,4.000000,4.000000,2.000000,4.000000,4.000000,4.000000,4.000000,4.000000,4.000000,4.000000,4.000000,4.000000,4.000000,4.000000,4.000000,4.000000,4.000000,4.000000,4.000000,4.000000,4.000000,4.000000,4.000000,4.000000,4.000000,4.000000,83.333336
1614045644.237768,124.000000,0.000000,-0.008525,10.039751,-9.016995,20.261732,-8.420201,8.386695,-3.718849,2.034838,1.029804,25.335701,-1.702476,-9.518657,5.132566,16.749708,13.289328,88.638466,-9.722075,129.968796,77.727539,-27.998423,-9.671010,-13.114678,-0.386948,3.844121,16.096310,5.578053,6.886750,2.508883,10.839607,11.285365,3.052339,15.101869,8064.000000,0.000000,4.000000,,,,0.000000,4.000000,4.000000,4.000000,4.000000,4.000000,4.000000,4.000000,4.000000,2.000000,4.000000,4.000000,4.000000,4.000000,4.000000,4.000000,4.000000,4.000000,4.000000,4.000000,4.000000,4.000000,4.000000,4.000000,4.000000,4.000000,4.000000,4.000000,4.000000,4.000000,4.000000,4.000000,4.000000,83.333336
1614045644.245517,125.000000,0.000000,-1.546978,10.029711,-1.828491,20.241470,-0.206653,8.891129,-4.740771,3.571265,8.208261,26.336006,0.863329,-13.098882,5.640254,24.938087,10.711936,83.421623,-12.789276,130.351639,74.060066,-41.816578,-20.943390,-16.178486,-9.617331,4.865918,17.618675,8.136578,6.367043,7.121759,13.392871,9.735619,3.049286,19.189331,8064.000000,0.000000,4.000000,,,,0.000000,4.000000,4.000000,4.000000,4.000000,4.000000,4.000000,4.000000,4.000000,2.000000,4.000000,4.000000,4.000000,4.000000,4.000000,4.000000,4.000000,4.000000,4.000000,4.000000,4.000000,4.000000,4.000000,4.000000,4.000000,4.000000,4.000000,4.000000,4.000000,4.000000,4.000000,4.000000,4.000000,83.333336
1614045644.253166,126.000000,0.000000,-3.596713,10.019681,-3.365124,20.221228,8.511502,10.933519,-4.223210,2.029232,11.789797,27.335312,-5.804201,-16.675528,-1.544873,19.272123,7.111480,98.722816,-24.571360,144.580261,92.960365,-43.313225,-26.563473,-16.675129,-10.120533,4.348232,20.677980,9.666903,6.360675,9.678740,13.892298,8.700242,3.046237,21.221424,8064.000000,0.000000,4.000000,,,,0.000000,4.000000,4.000000,4.000000,4.000000,4.000000,4.000000,4.000000,4.000000,2.000000,4.000000,4.000000,4.000000,4.000000,4.000000,4.000000,4.000000,4.000000,4.000000,4.000000,4.000000,4.000000,4.000000,4.000000,4.000000,4.000000,4.000000,4.000000,4.000000,4.000000,4.000000,4.000000,4.000000,83.333336
1614045644.260915,127.000000,0.000000,-8.208501,10.009662,-2.848938,20.201008,8.502991,12.461047,-4.731807,-7.203567,9.726725,19.615669,-29.388140,-26.402441,-29.748457,-8.439456,-19.562298,93.495888,-47.110889,138.281845,85.175102,-48.398113,-28.588192,-20.248198,-18.828362,3.318243,16.041918,9.144416,6.867136,8.643420,13.365585,10.230003,3.043191,21.200203,8064.000000,0.000000,4.000000,,,,0.000000,4.000000,4.000000,4.000000,4.000000,4.000000,4.000000,4.000000,4.000000,2.000000,4.000000,4.000000,4.000000,4.000000,4.000000,4.000000,4.000000,4.000000,4.000000,4.000000,4.000000,4.000000,4.000000,4.000000,4.000000,4.000000,4.000000,4.000000,4.000000,4.000000,4.000000,4.000000,4.000000,83.333336
1614045644.268564,0.000000,0.000000,-10.251575,9.999652,-8.999935,17.616703,1.827821,12.448586,-4.214255,-14.375850,8.691357,-2.455229,-49.358753,-28.940142,-57.411015,-37.661785,-48.260685,61.094704,-51.679165,121.733299,66.115562,-54.503563,-41.892937,-20.227949,-24.450560,3.827745,-3.974124,4.007066,1.219243,9.147597,13.352220,4.578748,2.527327,18.102079,0.000000,199.000000,4.000000,,,,0.000000,4.000000,4.000000,4.000000,4.000000,4.000000,4.000000,4.000000,4.000000,2.000000,4.000000,4.000000,4.000000,4.000000,4.000000,4.000000,4.000000,4.000000,4.000000,4.000000,4.000000,4.000000,4.000000,4.000000,4.000000,4.000000,4.000000,4.000000,4.000000,4.000000,4.000000,4.000000,4.000000,83.333336
1614045644.276313,1.000000,0.000000,-7.677220,9.989653,-23.862730,17.086266,-6.379135,12.436137,-1.645938,-7.694808,7.144204,-12.196363,-45.719650,-14.039406,-48.122837,-46.342072,-42.058578,45.136169,-27.012100,116.483360,62.972527,-54.961880,-56.210018,-19.694901,-14.169698,-2.329929,-19.354765,-4.202069,-7.499926,8.112808,9.236303,-12.348908,3.037620,10.391669,0.000000,206.000000,4.000000,,,,0.000000,4.000000,4.000000,4.000000,4.000000,4.000000,4.000000,4.000000,4.000000,2.000000,4.000000,4.000000,4.000000,4.000000,4.000000,4.000000,4.000000,4.000000,4.000000,4.000000,4.000000,4.000000,4.000000,4.000000,4.000000,4.000000,4.000000,4.000000,4.000000,4.000000,4.000000,4.000000,4.000000,83.333336
1614045644.283962,2.000000,0.000000,-5.618261,7.928380,-31.018354,14.505077,-17.141987,11.910881,-0.105831,6.671862,6.624239,-5.004680,-24.648289,5.974633,-15.254200,-38.090603,-9.196006,64.578217,1.732861,120.982262,56.242889,-54.394096,-59.230732,-18.136744,-6.463221,-22.840420,-20.873873,-10.351713,-9.543708,3.489311,1.534759,-24.131432,3.034583,2.688970,0.000000,196.000000,4.000000,,,,0.000000,4.000000,4.000000,4.000000,4.000000,4.000000,4.000000,4.000000,4.000000,4.000000,4.000000,4.000000,4.000000,4.000000,4.000000,4.000000,4.000000,4.000000,4.000000,4.000000,4.000000,4.000000,4.000000,4.000000,4.000000,4.000000,4.000000,4.000000,4.000000,4.000000,4.000000,4.000000,4.000000,100.000000
1614045644.291711,3.000000,0.000000,-6.125463,6.381990,-30.987337,10.388008,-21.740229,8.822047,-0.618545,11.793395,6.617615,-1.409932,-7.187743,12.122505,6.812336,-18.565332,16.454216,79.385429,12.500359,127.015129,57.725105,-46.134575,-49.427910,-3.759633,-2.354193,-37.689373,-17.263254,-11.879824,-9.534163,0.921719,-2.569340,-13.850889,2.005907,0.122178,0.000000,168.000000,4.000000,,,,0.000000,4.000000,4.000000,4.000000,4.000000,4.000000,4.000000,4.000000,4.000000,4.000000,4.000000,4.000000,4.000000,4.000000,4.000000,4.000000,4.000000,4.000000,4.000000,4.000000,4.000000,4.000000,4.000000,4.000000,4.000000,4.000000,4.000000,4.000000,4.000000,4.000000,4.000000,4.000000,4.000000,100.000000
1614045644.299361,4.000000,0.000000,-4.068056,5.862788,-24.289682,12.941723,-10.436438,8.813225,-0.617927,10.243140,5.585357,5.258144,-2.052350,6.469357,9.882447,9.658360,19.514685,81.357330,12.487859,132.016312,79.205841,-23.011518,-25.788738,16.756947,12.007135,-26.882454,-1.861376,-4.688456,-5.422066,0.920797,-1.028309,8.727064,3.542363,8.327185,0.000000,188.000000,4.000000,,,,0.000000,4.000000,4.000000,4.000000,4.000000,4.000000,4.000000,4.000000,4.000000,4.000000,4.000000,4.000000,4.000000,4.000000,4.000000,4.000000,4.000000,4.000000,4.000000,4.000000,4.000000,4.000000,4.000000,4.000000,4.000000,4.000000,4.000000,4.000000,4.000000,4.000000,4.000000,4.000000,4.000000,100.000000
1614045644.307210,5.000000,0.000000,-1.499885,5.856925,-9.906419,21.646730,4.958614,11.368514,-0.617309,11.258537,7.118233,21.150322,1.026625,4.924426,20.128975,31.187164,25.649015,106.917000,13.501012,149.320206,100.665100,1.626878,5.006281,28.022242,22.251539,-3.265828,25.319973,9.162386,6.891049,1.432697,4.100925,22.564491,8.154205,19.600908,0.000000,200.000000,4.000000,,,,0.000000,4.000000,4.000000,4.000000,4.000000,4.000000,4.000000,4.000000,4.000000,4.000000,4.000000,4.000000,4.000000,4.000000,4.000000,4.000000,4.000000,4.000000,4.000000,4.000000,4.000000,4.000000,4.000000,4.000000,4.000000,4.000000,4.000000,4.000000,4.000000,4.000000,4.000000,4.000000,4.000000,100.000000
1614045644.314959,6.000000,0.000000,-1.498385,6.363889,-3.742666,24.702005,8.543399,12.895607,-0.616691,14.837023,9.675217,26.770197,8.717906,9.022065,33.954998,37.309822,42.546444,139.117767,15.025972,175.324722,127.231102,17.009867,22.949993,31.071142,20.690825,7.506669,39.140804,11.204506,13.038004,0.918444,6.148106,24.593208,11.222974,23.683872,0.000000,178.000000,4.000000,,,,0.000000,4.000000,4.000000,4.000000,4.000000,4.000000,4.000000,4.000000,4.000000,4.000000,4.000000,4.000000,4.000000,4.000000,4.000000,4.000000,4.000000,4.000000,4.000000,4.000000,4.000000,4.000000,4.000000,4.000000,4.000000,4.000000,4.000000,4.000000,4.000000,4.000000,4.000000,4.000000,4.000000,100.000000
1614045644.322808,7.000000,0.000000,-2.009707,5.844705,-8.867128,23.138842,4.945112,11.857071,-0.616075,15.335007,10.178363,22.640863,12.811752,10.551505,33.408222,36.246872,45.580822,131.286346,13.472485,174.123764,141.975662,20.069780,22.414223,30.527250,20.670134,7.499162,36.024742,5.552276,7.896761,0.917526,4.603497,24.055796,9.673289,20.583265,0.000000,202.000000,4.000000,,,,0.000000,4.000000,4.000000,4.000000,4.000000,4.000000,4.000000,4.000000,4.000000,4.000000,4.000000,4.000000,4.000000,4.000000,4.000000,4.000000,4.000000,4.000000,4.000000,4.000000,4.000000,4.000000,4.000000,4.000000,4.000000,4.000000,4.000000,4.000000,4.000000,4.000000,4.000000,4.000000,4.000000,100.000000
1614045644.330557,8.000000,0.000000,-2.007697,5.838860,-6.806979,23.628525,3.914526,11.332393,-0.615459,14.294030,11.706646,24.156685,11.773299,11.053774,31.836355,36.723446,38.868572,114.744804,11.407730,157.539383,117.731125,8.767659,13.161038,22.291595,17.572542,7.491663,33.937435,11.187749,6.350402,0.916608,9.214277,25.057381,9.663616,19.024220,0.000000,194.000000,4.000000,,,,0.000000,4.000000,4.000000,4.000000,4.000000,4.000000,4.000000,4.000000,4.000000,4.000000,4.000000,4.000000,4.000000,4.000000,4.000000,4.000000,4.000000,4.000000,4.000000,4.000000,4.000000,4.000000,4.000000,4.000000,4.000000,4.000000,4.000000,4.000000,4.000000,4.000000,4.000000,4.000000,4.000000,100.000000
1614045644.338406,9.000000,0.000000,-2.005690,10.448405,2.430597,24.117716,6.474714,16.449266,-0.614843,14.279737,15.797503,26.696630,10.735886,8.478618,33.342979,37.712364,48.573296,135.142883,12.934784,172.253632,109.921082,0.553763,7.506852,10.987252,9.349840,7.996992,33.903500,20.920151,9.933796,2.454153,20.487114,24.519503,16.320620,23.620581,0.000000,184.000000,4.000000,,,,0.000000,4.000000,4.000000,4.000000,4.000000,4.000000,4.000000,4.000000,4.000000,4.000000,4.000000,4.000000,4.000000,4.000000,4.000000,4.000000,4.000000,4.000000,4.000000,4.000000,4.000000,4.000000,4.000000,4.000000,4.000000,4.000000,4.000000,4.000000,4.000000,4.000000,4.000000,4.000000,4.000000,100.000000
1614045644.346155,10.000000,0.000000,-2.003684,16.078983,5.505090,26.144880,10.570804,23.099483,-0.614228,14.778277,17.832987,25.644293,10.212329,-2.811912,21.001944,36.136189,53.652927,153.982101,10.357746,187.466003,141.606033,3.117312,9.037807,9.950624,8.314850,11.065918,33.869595,20.899231,10.436683,5.015801,26.107653,23.982162,24.509426,31.802088,0.000000,183.000000,4.000000,,,,0.000000,4.000000,4.000000,4.000000,4.000000,4.000000,4.000000,4.000000,4.000000,4.000000,4.000000,4.000000,4.000000,4.000000,4.000000,4.000000,4.000000,4.000000,4.000000,4.000000,4.000000,4.000000,4.000000,4.000000,4.000000,4.000000,4.000000,4.000000,4.000000,4.000000,4.000000,4.000000,4.000000,100.000000
1614045644.354004,11.000000,0.000000,-2.001680,18.114185,4.473943,28.682838,12.098694,22.050743,-0.613614,11.173755,18.840796,26.644289,7.125194,-13.065511,2.006583,35.074413,30.009529,132.802475,-2.473124,167.278534,139.925964,-5.090933,4.413384,10.453494,6.255253,17.721518,34.348545,19.339870,8.887784,5.523606,25.055904,23.958179,26.023378,37.411312,0.000000,204.000000,4.000000,,,,0.000000,4.000000,4.000000,4.000000,4.000000,4.000000,4.000000,4.000000,4.000000,4.000000,4.000000,4.000000,4.000000,4.000000,4.000000,4.000000,4.000000,4.000000,4.000000,4.000000,4.000000,4.000000,4.000000,4.000000,4.000000,4.000000,4.000000,4.000000,4.000000,4.000000,4.000000,4.000000,4.000000,100.000000
1614045644.361753,12.000000,0.000000,-2.512499,17.070431,2.931008,27.115694,7.471211,16.387667,-0.613001,7.060017,17.796314,24.566362,0.964222,-14.078086,-4.149270,28.372671,9.979520,108.054283,-11.188600,150.188171,107.478348,-20.983278,-10.975645,2.237912,-1.956131,15.652514,27.647530,20.858992,9.391717,5.005262,24.005207,22.395760,22.920433,35.322617,0.000000,206.000000,4.000000,,,,0.000000,4.000000,4.000000,4.000000,4.000000,4.000000,4.000000,4.000000,4.000000,4.000000,4.000000,4.000000,4.000000,4.000000,4.000000,4.000000,4.000000,4.000000,4.000000,4.000000,4.000000,4.000000,4.000000,4.000000,4.000000,4.000000,4.000000,4.000000,4.000000,4.000000,4.000000,4.000000,4.000000,100.000000
1614045644.369602,13.000000,0.000000,-1.484346,17.053360,3.440897,27.088577,2.335535,15.345637,-0.612388,6.540137,10.599030,15.311027,-5.190588,-11.499906,-2.093838,10.395580,7.405438,98.715462,-8.613309,147.473877,89.934975,-26.603321,-22.246719,-5.969454,-0.928534,7.944555,15.312190,16.222748,9.382325,5.000257,23.981203,20.834904,21.871870,33.236015,0.000000,182.000000,4.000000,,,,0.000000,4.000000,4.000000,4.000000,4.000000,4.000000,4.000000,4.000000,4.000000,4.000000,4.000000,4.000000,4.000000,4.000000,4.000000,4.000000,4.000000,4.000000,4.000000,4.000000,4.000000,4.000000,4.000000,4.000000,4.000000,4.000000,4.000000,4.000000,4.000000,4.000000,4.000000,4.000000,4.000000,100.000000
1614045644.377351,14.000000,0.000000,1.081241,17.549128,6.001559,29.112772,1.820379,16.868753,-0.611775,7.046417,6.485867,9.654691,-8.262321,-6.873021,-3.117385,-14.743020,-1.832737,81.693672,-3.476490,123.223846,69.332222,-26.063896,-24.788576,-5.450664,8.815985,6.910969,6.578929,10.052679,9.372943,4.995256,21.905939,17.737144,19.285896,34.228420,0.000000,179.000000,4.000000,,,,0.000000,4.000000,4.000000,4.000000,4.000000,4.000000,4.000000,4.000000,4.000000,4.000000,4.000000,4.000000,4.000000,4.000000,4.000000,4.000000,4.000000,4.000000,4.000000,4.000000,4.000000,4.000000,4.000000,4.000000,4.000000,4.000000,4.000000,4.000000,4.000000,4.000000,4.000000,4.000000,4.000000,100.000000
1614045644.385200,15.000000,0.000000,2.105801,16.505938,-4.773673,19.852890,1.305738,14.800603,-0.611163,6.526550,6.479382,8.106574,-11.843802,0.313339,-3.627088,-37.292381,-10.548853,56.996590,6.783397,104.126266,57.468014,-16.807064,-22.712505,2.759915,11.884091,5.365597,-0.094316,5.940063,9.363570,4.990261,16.755827,10.539921,12.599944,27.527523,0.000000,205.000000,4.000000,,,,0.000000,4.000000,4.000000,4.000000,4.000000,4.000000,4.000000,4.000000,4.000000,4.000000,4.000000,4.000000,4.000000,4.000000,4.000000,4.000000,4.000000,4.000000,4.000000,4.000000,4.000000,4.000000,4.000000,4.000000,4.000000,4.000000,4.000000,4.000000,4.000000,4.000000,4.000000,4.000000,4.000000,100.000000
1614045644.392949,16.000000,0.000000,1.590875,12.386868,-27.845823,3.935601,-4.849414,9.144776,-0.610552,7.032844,-2.245047,-2.670763,-19.011446,3.389949,-2.085000,-49.562778,-2.333176,52.837029,26.263792,116.842651,82.025932,5.261025,-17.561588,16.090488,12.385028,-0.280795,-7.786530,0.805917,8.841386,4.985271,10.585226,4.888355,8.997601,12.115380,0.000000,158.000000,4.000000,,,,0.000000,4.000000,4.000000,4.000000,4.000000,4.000000,4.000000,4.000000,4.000000,4.000000,4.000000,4.000000,4.000000,4.000000,4.000000,4.000000,4.000000,4.000000,4.000000,4.000000,4.000000,4.000000,4.000000,4.000000,4.000000,4.000000,4.000000,4.000000,4.000000,4.000000,4.000000,4.000000,4.000000,100.000000
1614045644.400798,17.000000,0.000000,1.076463,7.759096,-30.894899,-0.683719,-10.998411,4.007427,-0.609942,7.025811,-7.883827,-12.411682,-20.018076,1.848098,-1.570094,-43.359371,8.951209,74.322655,37.006760,127.495041,91.687492,18.589098,-12.928641,25.305168,16.988028,-0.280514,-9.830025,-3.297453,9.858186,4.980286,8.523358,4.370646,9.501423,2.872496,0.000000,213.000000,4.000000,,,,0.000000,4.000000,4.000000,4.000000,4.000000,4.000000,4.000000,4.000000,4.000000,4.000000,4.000000,4.000000,4.000000,4.000000,4.000000,4.000000,4.000000,4.000000,4.000000,4.000000,4.000000,4.000000,4.000000,4.000000,4.000000,4.000000,4.000000,4.000000,4.000000,4.000000,4.000000,4.000000,4.000000,100.000000
1614045644.408547,18.000000,0.000000,3.639489,10.315439,-15.479389,3.419528,-10.474592,4.516240,-0.609332,7.531606,2.380467,-2.142860,-12.305749,3.384711,2.021219,-15.623704,16.634565,96.299614,33.892830,130.957291,81.852219,18.057688,-10.864431,25.279861,20.560783,5.873613,-5.717631,-3.294155,12.412430,4.462485,9.027656,4.879096,10.004743,5.946547,0.000000,209.000000,4.000000,,,,0.000000,4.000000,4.000000,4.000000,4.000000,4.000000,4.000000,4.000000,4.000000,4.000000,4.000000,4.000000,4.000000,4.000000,4.000000,4.000000,4.000000,4.000000,4.000000,4.000000,4.000000,4.000000,4.000000,4.000000,4.000000,4.000000,4.000000,4.000000,4.000000,4.000000,4.000000,4.000000,4.000000,100.000000
1614045644.416196,19.000000,0.000000,7.225594,17.997431,-10.335705,4.441750,-7.387194,7.075826,-0.608722,9.062536,11.096035,19.397743,-6.652418,10.560814,13.301250,11.058587,28.925623,112.613571,35.397400,151.339157,101.257545,21.116554,-5.725361,25.767403,22.078684,7.406201,0.441933,-3.290861,12.912838,5.996484,8.505808,5.387038,9.481917,9.017523,0.000000,175.000000,4.000000,,,,0.000000,4.000000,4.000000,4.000000,4.000000,4.000000,4.000000,4.000000,4.000000,4.000000,4.000000,4.000000,4.000000,4.000000,4.000000,4.000000,4.000000,4.000000,4.000000,4.000000,4.000000,4.000000,4.000000,4.000000,4.000000,4.000000,4.000000,4.000000,4.000000,4.000000,4.000000,4.000000,4.000000,100.000000
1614045644.423945,20.000000,0.000000,9.269650,21.569178,-10.838190,7.514231,-5.841346,8.094391,2.468809,11.104755,10.572119,27.070654,-4.081663,15.165637,22.005898,19.252657,37.614647,128.398392,35.362000,167.598068,116.540901,20.069796,-1.617072,27.280096,22.056606,6.885974,4.544055,-2.261929,13.412745,8.554590,9.010122,7.945753,9.985255,9.008506,0.000000,180.000000,4.000000,,,,0.000000,4.000000,4.000000,4.000000,4.000000,4.000000,4.000000,4.000000,4.000000,4.000000,4.000000,4.000000,4.000000,4.000000,4.000000,4.000000,4.000000,4.000000,4.000000,4.000000,4.000000,4.000000,4.000000,4.000000,4.000000,4.000000,4.000000,4.000000,4.000000,4.000000,4.000000,4.000000,4.000000,100.000000
1614045644.431594,21.000000,0.000000,8.747560,20.521967,-10.314531,13.147742,-6.861145,8.599117,4.517622,10.068009,10.048726,14.735891,-3.564761,10.535087,18.394148,17.694942,35.525749,127.757172,19.942024,166.404831,107.193596,9.280496,-4.179557,20.586151,17.931984,7.391909,3.001049,-2.259667,12.373692,8.546036,10.026753,9.476269,10.488091,8.999497,0.000000,205.000000,4.000000,,,,0.000000,4.000000,4.000000,4.000000,4.000000,4.000000,4.000000,4.000000,4.000000,4.000000,4.000000,4.000000,4.000000,4.000000,4.000000,4.000000,4.000000,4.000000,4.000000,4.000000,4.000000,4.000000,4.000000,4.000000,4.000000,4.000000,4.000000,4.000000,4.000000,4.000000,4.000000,4.000000,4.000000,100.000000
1614045644.439344,22.000000,0.000000,8.738812,20.501446,-18.509344,11.596133,-7.367105,8.590518,-0.102280,3.904096,9.013036,3.439104,-6.125299,5.396347,9.144984,17.164427,30.362019,108.142235,4.024646,165.725601,118.368454,4.143010,-4.175378,12.873257,14.324309,6.871696,4.023689,-4.308690,8.771575,8.537489,8.478265,8.953972,9.964783,9.503318,0.000000,177.000000,4.000000,,,,0.000000,4.000000,4.000000,4.000000,4.000000,4.000000,4.000000,4.000000,4.000000,4.000000,4.000000,4.000000,4.000000,4.000000,4.000000,4.000000,4.000000,4.000000,4.000000,4.000000,4.000000,4.000000,4.000000,4.000000,4.000000,4.000000,4.000000,4.000000,4.000000,4.000000,4.000000,4.000000,4.000000,100.000000
1614045644.446993,23.000000,0.000000,8.730074,20.993765,-19.003656,14.661460,-1.718712,8.581927,-3.691921,0.823268,6.952741,9.589511,-7.657635,5.390951,5.033275,18.685724,27.767553,99.828964,1.456519,158.380386,123.378288,2.600405,-4.171203,13.373203,14.822805,6.352004,11.711973,1.336645,8.762803,11.093055,12.059530,10.996300,9.954818,14.622020,0.000000,205.000000,4.000000,,,,0.000000,4.000000,4.000000,4.000000,4.000000,4.000000,4.000000,4.000000,4.000000,4.000000,4.000000,4.000000,4.000000,4.000000,4.000000,4.000000,4.000000,4.000000,4.000000,4.000000,4.000000,4.000000,4.000000,4.000000,4.000000,4.000000,4.000000,4.000000,4.000000,4.000000,4.000000,4.000000,4.000000,100.000000
1614045644.454742,24.000000,0.000000,8.721343,21.485592,-5.651319,23.877567,4.436853,8.573346,-1.636947,4.925009,8.997070,18.810690,-4.060234,6.411201,5.541062,18.154217,27.739786,102.293243,3.506344,132.580978,90.947220,-8.171426,-15.449082,9.257266,15.320803,6.345652,13.238723,13.643001,12.343783,13.133244,20.252600,13.549406,10.457684,17.684320,0.000000,204.000000,4.000000,,,,0.000000,4.000000,4.000000,4.000000,4.000000,4.000000,4.000000,4.000000,4.000000,4.000000,4.000000,4.000000,4.000000,4.000000,4.000000,4.000000,4.000000,4.000000,4.000000,4.000000,4.000000,4.000000,4.000000,4.000000,4.000000,4.000000,4.000000,4.000000,4.000000,4.000000,4.000000,4.000000,4.000000,100.000000
1614045644.462391,25.000000,0.000000,8.712622,19.412823,-11.286694,18.212666,0.842672,8.564773,-0.096848,7.997007,8.475253,14.689316,-5.081814,5.379148,5.022701,6.854012,26.686405,87.319153,4.528479,116.550964,72.394730,-22.009409,-32.869530,-7.675068,12.741380,3.775204,5.020356,12.090896,10.280158,11.068829,19.719526,11.997396,9.421584,10.999969,0.000000,203.000000,4.000000,,,,0.000000,4.000000,4.000000,4.000000,4.000000,4.000000,4.000000,4.000000,4.000000,4.000000,4.000000,4.000000,4.000000,4.000000,4.000000,4.000000,4.000000,4.000000,4.000000,4.000000,4.000000,4.000000,4.000000,4.000000,4.000000,4.000000,4.000000,4.000000,4.000000,4.000000,4.000000,4.000000,4.000000,100.000000
1614045644.470140,26.000000,0.000000,8.703910,16.316488,-30.249765,5.886760,-5.824837,8.043387,-3.173675,4.399267,4.364213,6.982319,-11.230578,4.860949,4.504858,-6.486175,26.659719,76.975426,7.600873,127.716469,84.630028,-19.423296,-35.400764,-9.718675,10.677357,-4.433700,1.425592,2.335215,11.295519,9.006477,11.494678,6.857193,4.796778,2.783842,0.000000,188.000000,4.000000,,,,0.000000,4.000000,4.000000,4.000000,4.000000,4.000000,4.000000,4.000000,4.000000,4.000000,4.000000,4.000000,4.000000,4.000000,4.000000,4.000000,4.000000,4.000000,4.000000,4.000000,4.000000,4.000000,4.000000,4.000000,4.000000,4.000000,4.000000,4.000000,4.000000,4.000000,4.000000,4.000000,4.000000,100.000000
1614045644.477789,27.000000,0.000000,8.695206,16.812992,-29.193874,8.957796,-5.819012,8.548164,-4.708962,3.369226,1.795747,7.488157,-12.244989,7.933011,8.602917,-3.402766,32.274086,96.385628,15.798401,144.511826,93.776169,7.262794,-14.852543,16.444889,13.743602,-5.967728,5.526731,4.896982,22.566275,8.484651,8.406260,4.799054,2.227879,1.755417,0.000000,179.000000,4.000000,,,,0.000000,4.000000,4.000000,4.000000,4.000000,4.000000,4.000000,4.000000,4.000000,4.000000,4.000000,4.000000,4.000000,4.000000,4.000000,4.000000,4.000000,4.000000,4.000000,4.000000,4.000000,4.000000,4.000000,4.000000,4.000000,4.000000,4.000000,4.000000,4.000000,4.000000,4.000000,4.000000,4.000000,100.000000
1614045644.485538,28.000000,0.000000,8.686510,16.796179,-21.985193,16.128326,-7.351655,8.026795,-4.191433,8.494062,2.306771,11.070413,-6.591719,15.104565,14.748160,2.754483,38.395657,113.725136,29.115936,149.495514,105.477264,36.486301,11.828977,41.556652,20.909346,11.474137,8.598126,12.584394,28.184734,8.476166,9.936316,4.794255,2.225651,1.240841,0.000000,179.000000,4.000000,,,,0.000000,4.000000,4.000000,4.000000,4.000000,4.000000,4.000000,4.000000,4.000000,4.000000,4.000000,4.000000,4.000000,4.000000,4.000000,4.000000,4.000000,4.000000,4.000000,4.000000,4.000000,4.000000,4.000000,4.000000,4.000000,4.000000,4.000000,4.000000,4.000000,4.000000,4.000000,4.000000,4.000000,100.000000
1614045644.493187,29.000000,0.000000,8.677824,10.625536,-21.963209,12.009633,-8.369944,6.993128,-4.700062,11.562491,4.355747,10.546521,-3.508204,17.653563,18.323154,5.315831,39.895721,105.919106,39.343231,147.807571,119.730759,45.680584,23.612019,45.104836,26.529463,30.437023,9.615170,12.571809,24.566805,8.467690,9.413559,4.276640,1.710605,1.752421,0.000000,173.000000,4.000000,,,,0.000000,4.000000,4.000000,4.000000,4.000000,4.000000,4.000000,4.000000,4.000000,4.000000,4.000000,4.000000,4.000000,4.000000,4.000000,4.000000,4.000000,4.000000,4.000000,4.000000,4.000000,4.000000,4.000000,4.000000,4.000000,4.000000,4.000000,4.000000,4.000000,4.000000,4.000000,4.000000,4.000000,100.000000
1614045644.500937,30.000000,0.000000,9.181967,10.614911,-9.120732,15.587367,4.458939,10.575878,-2.644080,10.525288,8.453955,9.510334,-1.966234,13.533345,15.227909,18.131027,38.317364,96.582420,37.252605,148.685394,122.175133,42.557980,22.049946,43.008450,27.528574,35.021969,14.220940,11.020776,24.542238,8.459222,8.891325,7.349287,2.734535,8.930156,0.000000,216.000000,4.000000,,,,0.000000,4.000000,4.000000,4.000000,4.000000,4.000000,4.000000,4.000000,4.000000,4.000000,4.000000,4.000000,4.000000,4.000000,4.000000,4.000000,4.000000,4.000000,4.000000,4.000000,4.000000,4.000000,4.000000,4.000000,4.000000,4.000000,4.000000,4.000000,4.000000,4.000000,4.000000,4.000000,4.000000,100.000000
1614045644.508586,31.000000,0.000000,7.634323,18.296604,3.708901,23.776907,18.813454,16.719149,-1.615795,10.001942,9.983962,8.988003,1.625476,10.955709,11.622937,34.010334,36.740585,103.665321,30.548685,160.844406,131.796539,45.079525,23.566357,45.016724,24.424122,31.910025,20.360565,12.035396,21.440773,8.450763,8.882433,14.521424,8.372827,15.075071,0.000000,170.000000,4.000000,,,,0.000000,4.000000,4.000000,4.000000,4.000000,4.000000,4.000000,4.000000,4.000000,4.000000,4.000000,4.000000,4.000000,4.000000,4.000000,4.000000,4.000000,4.000000,4.000000,4.000000,4.000000,4.000000,4.000000,4.000000,4.000000,4.000000,4.000000,4.000000,4.000000,4.000000,4.000000,4.000000,4.000000,100.000000
1614045644.516335,32.000000,0.000000,4.036945,19.303947,-0.397372,21.189028,18.281820,19.266531,-5.203923,9.991940,10.486799,10.004656,3.675133,9.406292,13.662597,36.540424,38.755127,118.946274,26.415573,180.170746,147.562180,40.931881,24.055611,37.792221,17.220211,33.416576,22.391485,12.536180,11.675743,8.442312,9.386372,17.071005,10.415736,18.136919,8064.000000,0.000000,4.000000,,,,0.000000,4.000000,4.000000,4.000000,4.000000,4.000000,4.000000,4.000000,4.000000,4.000000,4.000000,4.000000,4.000000,4.000000,4.000000,4.000000,4.000000,4.000000,4.000000,4.000000,4.000000,4.000000,4.000000,4.000000,4.000000,4.000000,4.000000,4.000000,4.000000,4.000000,4.000000,4.000000,4.000000,100.000000
1614045644.523984,33.000000,0.000000,0.955985,17.233362,0.628666,21.680660,16.212255,23.349829,-6.224360,7.930666,10.989133,11.533113,4.184278,4.268681,10.572011,34.452602,38.203552,126.519630,16.645567,183.067490,138.183853,16.788383,6.595658,15.703146,5.920939,31.844698,22.369095,12.010824,8.074324,8.433869,9.376985,16.028294,8.866858,24.785450,8064.000000,0.000000,4.000000,,,,0.000000,4.000000,4.000000,4.000000,4.000000,4.000000,4.000000,4.000000,4.000000,4.000000,4.000000,4.000000,4.000000,4.000000,4.000000,4.000000,4.000000,4.000000,4.000000,4.000000,4.000000,4.000000,4.000000,4.000000,4.000000,4.000000,4.000000,4.000000,4.000000,4.000000,4.000000,4.000000,4.000000,100.000000
1614045644.531833,34.000000,0.000000,0.442209,21.318693,9.858807,31.402569,22.349890,26.403402,-4.679674,5.871453,8.926862,8.957478,3.154453,-1.889434,-5.848817,34.930969,21.755093,117.162346,0.218665,162.371597,111.891823,-11.433533,-19.051962,-5.851019,-5.367033,18.479521,21.833904,11.998814,7.553429,7.912615,8.854788,20.114830,11.422094,28.863228,8064.000000,0.000000,4.000000,,,,0.000000,4.000000,4.000000,4.000000,4.000000,4.000000,4.000000,4.000000,4.000000,4.000000,4.000000,4.000000,4.000000,4.000000,4.000000,4.000000,4.000000,4.000000,4.000000,4.000000,4.000000,4.000000,4.000000,4.000000,4.000000,4.000000,4.000000,4.000000,4.000000,4.000000,4.000000,4.000000,4.000000,100.000000
1614045644.539582,35.000000,0.000000,2.493048,24.887117,12.413051,35.473732,23.866001,25.864180,-5.700635,6.891223,14.046140,10.999802,2.638478,-3.426006,-7.894250,33.357578,8.912825,114.993904,-6.961040,156.055389,105.113266,-21.165689,-30.314962,-11.486194,-8.438589,2.563605,21.299250,11.986814,1.904850,8.417523,9.871573,27.274202,16.538877,27.808723,8064.000000,0.000000,4.000000,,,,0.000000,4.000000,4.000000,4.000000,4.000000,4.000000,4.000000,4.000000,4.000000,4.000000,4.000000,4.000000,4.000000,4.000000,4.000000,4.000000,4.000000,4.000000,4.000000,4.000000,4.000000,4.000000,4.000000,4.000000,4.000000,4.000000,4.000000,4.000000,4.000000,4.000000,4.000000,4.000000,4.000000,100.000000
1614045644.547431,36.000000,0.000000,6.593120,24.349409,13.426279,34.925438,22.816494,30.966520,3.023014,13.550999,23.775684,27.911879,8.276865,-0.345657,15.703387,35.375504,29.416733,136.417374,4.327972,178.976257,121.418411,-8.836831,-26.694904,-1.218297,-0.737843,-6.156908,23.329233,12.487648,1.902945,10.973208,12.425805,26.734106,18.060801,31.370659,8192.000000,0.000000,4.000000,,,,0.000000,4.000000,4.000000,4.000000,4.000000,4.000000,4.000000,4.000000,4.000000,4.000000,4.000000,4.000000,4.000000,4.000000,4.000000,4.000000,4.000000,4.000000,4.000000,4.000000,4.000000,4.000000,4.000000,4.000000,4.000000,4.000000,4.000000,4.000000,4.000000,4.000000,4.000000,4.000000,4.000000,100.000000
1614045644.555180,37.000000,0.000000,9.150629,24.325060,7.259007,33.864868,22.793678,33.499657,18.404606,19.178473,19.649343,41.217300,11.345510,6.321355,31.072300,32.776024,54.002701,141.409149,19.708260,183.925476,127.963661,-0.110045,-27.181028,11.090613,6.442382,-5.125109,17.152058,10.936699,7.542068,11.987876,13.439020,19.015064,17.017097,27.749544,8192.000000,0.000000,4.000000,,,,0.000000,4.000000,4.000000,4.000000,4.000000,4.000000,4.000000,4.000000,4.000000,4.000000,4.000000,4.000000,4.000000,4.000000,4.000000,4.000000,4.000000,4.000000,4.000000,4.000000,4.000000,4.000000,4.000000,4.000000,4.000000,4.000000,4.000000,4.000000,4.000000,4.000000,4.000000,4.000000,4.000000,100.000000
1614045644.563029,38.000000,0.000000,8.628657,20.710993,-15.825176,25.113056,13.027295,20.132822,15.309278,14.543910,4.757899,30.406853,0.564935,9.904778,21.810457,15.307351,47.282032,108.960052,23.278296,151.433868,104.245949,-11.904807,-32.794872,13.130805,7.461581,-2.555882,2.775931,8.874480,9.072987,12.488708,12.912761,14.893486,17.512901,10.285897,8064.000000,0.000000,4.000000,,,,0.000000,4.000000,4.000000,4.000000,4.000000,4.000000,4.000000,4.000000,4.000000,4.000000,4.000000,4.000000,4.000000,4.000000,4.000000,4.000000,4.000000,4.000000,4.000000,4.000000,4.000000,4.000000,4.000000,4.000000,4.000000,4.000000,4.000000,4.000000,4.000000,4.000000,4.000000,4.000000,4.000000,100.000000
1614045644.570778,39.000000,0.000000,8.620029,16.587717,-25.040119,16.369995,1.219396,11.907562,7.088841,9.913981,1.163398,17.043112,-8.666400,9.382052,15.121981,11.189480,33.901417,85.261353,21.203733,122.051659,71.834015,-19.072390,-23.018490,13.117674,8.479760,-2.553326,-2.355050,7.839965,10.602376,12.476220,13.412668,15.904233,16.982569,1.557662,8064.000000,0.000000,4.000000,,,,0.000000,4.000000,4.000000,4.000000,4.000000,4.000000,4.000000,4.000000,4.000000,4.000000,4.000000,4.000000,4.000000,4.000000,4.000000,4.000000,4.000000,4.000000,4.000000,4.000000,4.000000,4.000000,4.000000,4.000000,4.000000,4.000000,4.000000,4.000000,4.000000,4.000000,4.000000,4.000000,4.000000,100.000000
