title:01, start timestamp:1614472915.201107, stop timestamp:1614472960.993931, headset type:EPOCFLEX, headset serial:F00001ED, headset firmware:f12, subject name:s13, channels:75, sampling rate:128, samples:5909      , version:2.0
Timestamp,EEG.Counter,EEG.Interpolated,EEG.Cz,EEG.Fz,EEG.Fp1,EEG.F7,EEG.F3,EEG.FC1,EEG.C3,EEG.FC5,EEG.FT9,EEG.T7,EEG.TP9,EEG.CP5,EEG.CP1,EEG.P3,EEG.P7,EEG.O1,EEG.Pz,EEG.Oz,EEG.O2,EEG.P8,EEG.P4,EEG.CP2,EEG.CP6,EEG.TP10,EEG.T8,EEG.FT10,EEG.FC6,EEG.C4,EEG.FC2,EEG.F4,EEG.F8,EEG.Fp2,EEG.HighBitFlex,EEG.RawCq,EEG.Battery,MarkerIndex,MarkerType,MarkerValueInt,EEG.MarkerHardware,CQ.Cz,CQ.Fz,CQ.Fp1,CQ.F7,CQ.F3,CQ.FC1,CQ.C3,CQ.FC5,CQ.FT9,CQ.T7,CQ.TP9,CQ.CP5,CQ.CP1,CQ.P3,CQ.P7,CQ.O1,CQ.Pz,CQ.Oz,CQ.O2,CQ.P8,CQ.P4,CQ.CP2,CQ.CP6,CQ.TP10,CQ.T8,CQ.FT10,CQ.FC6,CQ.C4,CQ.FC2,CQ.F4,CQ.F8,CQ.Fp2,CQ.Overall
1614472915.201107,43.000000,0.000000,-0.894450,-2.642415,4.403653,9.417044,7.400731,-1.183527,-0.642489,-1.881976,-3.951692,-3.502198,-17.113775,-6.227638,9.700466,-2.776668,-10.843329,-44.289127,0.503541,-21.610252,-22.360907,-2.972070,-4.190908,0.372987,-7.542349,-211.072250,7.467537,-1.122017,10.964500,2.124256,-1.125165,-0.852618,3.913360,-6.906311,8064.000000,0.000000,4.000000,,,,0.000000,4.000000,4.000000,4.000000,4.000000,4.000000,4.000000,4.000000,4.000000,4.000000,4.000000,4.000000,4.000000,4.000000,4.000000,4.000000,4.000000,4.000000,4.000000,4.000000,4.000000,4.000000,4.000000,4.000000,4.000000,4.000000,4.000000,4.000000,4.000000,4.000000,4.000000,4.000000,4.000000,100.000000
1614472915.208957,44.000000,0.000000,-0.893555,-3.152593,3.373608,1.715319,1.752305,-1.182344,-0.129026,-3.931376,-4.460561,-3.498695,-19.660765,-5.708590,4.049740,-5.337994,-14.935050,-40.655094,-4.625168,-18.511721,-22.338547,-14.251149,-7.263640,-2.191489,-9.586088,-210.348358,-4.334802,-1.120895,6.338151,-4.544535,-1.636860,-1.877407,-7.885425,-15.617353,8064.000000,0.000000,4.000000,,,,0.000000,4.000000,4.000000,4.000000,4.000000,4.000000,4.000000,4.000000,4.000000,4.000000,4.000000,4.000000,4.000000,4.000000,4.000000,4.000000,4.000000,4.000000,4.000000,4.000000,4.000000,4.000000,4.000000,4.000000,4.000000,4.000000,4.000000,4.000000,4.000000,4.000000,4.000000,4.000000,4.000000,100.000000
1614472915.216707,45.000000,0.000000,-0.892662,-2.123800,-2.783612,-3.414601,-1.326370,-1.181162,-0.128897,-4.440266,-4.456100,-4.520838,-19.128283,-6.215702,-1.082515,-4.819835,-15.945756,-34.973415,-7.184646,-22.082952,-40.264927,-31.672796,-12.897403,-4.240580,-15.730349,-209.112366,-9.458673,-1.119774,3.767711,-9.155375,-1.122403,0.175753,-12.492925,-17.140198,8064.000000,0.000000,4.000000,,,,0.000000,4.000000,4.000000,4.000000,4.000000,4.000000,4.000000,4.000000,4.000000,4.000000,4.000000,4.000000,4.000000,4.000000,4.000000,4.000000,4.000000,4.000000,4.000000,4.000000,4.000000,4.000000,4.000000,4.000000,4.000000,4.000000,4.000000,4.000000,4.000000,4.000000,4.000000,4.000000,4.000000,100.000000
1614472915.224557,46.000000,0.000000,0.133872,0.955247,-3.293649,6.332403,0.213417,-1.179981,-0.128768,-3.923005,-3.938824,-6.567599,-21.160437,-5.696666,-1.594253,-5.840656,-15.929811,-45.707672,-4.613358,-26.163433,-33.557995,-19.333431,-4.679377,-3.723519,-20.842823,-190.954544,-1.756906,-1.118654,4.789584,-3.505194,1.442822,3.252500,-4.788124,-8.917930,8064.000000,0.000000,4.000000,,,,0.000000,4.000000,4.000000,4.000000,4.000000,4.000000,4.000000,4.000000,4.000000,4.000000,4.000000,4.000000,4.000000,4.000000,4.000000,4.000000,4.000000,4.000000,4.000000,4.000000,4.000000,4.000000,4.000000,4.000000,4.000000,4.000000,4.000000,4.000000,4.000000,4.000000,4.000000,4.000000,4.000000,100.000000
1614472915.232307,47.000000,0.000000,2.697841,0.954292,-2.777534,7.351712,-5.427822,-1.178800,-0.128640,-3.919082,-4.960526,-7.073852,-36.523891,-7.229431,-1.079838,-14.039944,-20.016445,-74.892731,1.032281,-42.034706,-18.139820,5.301288,4.043252,-3.719795,-16.719416,-163.584091,3.373056,-1.117536,4.784795,3.164978,2.467020,-0.853316,-5.808977,-13.524396,8064.000000,0.000000,4.000000,,,,0.000000,4.000000,4.000000,4.000000,4.000000,4.000000,4.000000,4.000000,4.000000,4.000000,4.000000,4.000000,4.000000,4.000000,4.000000,4.000000,4.000000,4.000000,4.000000,4.000000,4.000000,4.000000,4.000000,4.000000,4.000000,4.000000,4.000000,4.000000,4.000000,4.000000,4.000000,4.000000,4.000000,100.000000
1614472915.240157,48.000000,0.000000,3.207963,-2.123585,-13.543988,-8.553076,-12.601881,-1.690442,-0.128511,-4.427983,-7.519668,-7.579598,-40.589931,-9.786304,-1.591578,-14.538724,-16.919504,-72.253738,5.133812,-39.428570,-16.583220,8.885730,3.526387,-3.716075,-13.112953,-143.933334,2.344042,-1.116418,4.267190,2.136171,2.464553,-8.544771,-15.033937,-24.792923,8064.000000,0.000000,4.000000,,,,0.000000,4.000000,4.000000,4.000000,4.000000,4.000000,4.000000,4.000000,4.000000,4.000000,4.000000,4.000000,4.000000,4.000000,4.000000,4.000000,4.000000,4.000000,4.000000,4.000000,4.000000,4.000000,4.000000,4.000000,4.000000,4.000000,4.000000,4.000000,4.000000,4.000000,4.000000,4.000000,4.000000,100.000000
1614472915.247907,49.000000,0.000000,3.204756,-2.634283,-19.171469,-10.082984,-10.025177,-1.175931,-0.641203,-4.423555,-8.537789,-7.572019,-20.549341,-7.725235,1.486936,-4.780596,0.020492,-39.360973,8.718422,-6.568627,-1.182021,5.799921,6.599784,-3.712359,-12.074200,-131.481705,1.828878,-1.115302,4.262922,2.646856,2.974909,-8.023405,-9.377877,-18.614285,8064.000000,0.000000,4.000000,,,,0.000000,4.000000,4.000000,4.000000,4.000000,4.000000,4.000000,4.000000,4.000000,4.000000,4.000000,4.000000,4.000000,4.000000,4.000000,4.000000,4.000000,4.000000,4.000000,4.000000,4.000000,4.000000,4.000000,4.000000,4.000000,4.000000,4.000000,4.000000,4.000000,4.000000,4.000000,4.000000,4.000000,100.000000
1614472915.255757,50.000000,0.000000,3.714371,-3.657289,-7.870247,1.721970,-5.399767,-0.661935,-0.127741,-3.393491,-8.016431,-3.974703,-12.836485,-2.589305,3.023911,-1.698892,5.661497,-36.244690,8.709704,3.181532,12.665315,8.358224,11.208570,-3.708647,-5.395459,-127.247658,3.365510,-1.114187,5.284300,6.233953,1.433473,-3.912818,-0.650551,-9.364901,8064.000000,0.000000,4.000000,,,,0.000000,4.000000,4.000000,4.000000,4.000000,4.000000,4.000000,4.000000,4.000000,4.000000,4.000000,4.000000,4.000000,4.000000,4.000000,4.000000,4.000000,4.000000,4.000000,4.000000,4.000000,4.000000,4.000000,4.000000,4.000000,4.000000,4.000000,4.000000,4.000000,4.000000,4.000000,4.000000,4.000000,100.000000
1614472915.263507,51.000000,0.000000,2.172195,-6.217734,-4.785453,1.720248,-5.907187,-3.225375,-0.127613,-4.928559,-10.059697,-4.483549,-20.003136,-2.586716,-2.107318,-5.286937,-3.062114,-49.028957,2.547148,-9.129342,2.396239,6.298584,6.581976,-4.217759,-1.287499,-134.299896,3.362145,-1.113072,3.740554,6.740539,-1.132063,-6.473008,-6.803746,-16.535023,8064.000000,0.000000,4.000000,,,,0.000000,4.000000,4.000000,4.000000,4.000000,4.000000,4.000000,4.000000,4.000000,4.000000,4.000000,4.000000,4.000000,4.000000,4.000000,4.000000,4.000000,4.000000,4.000000,4.000000,4.000000,4.000000,4.000000,4.000000,4.000000,4.000000,4.000000,4.000000,4.000000,4.000000,4.000000,4.000000,4.000000,100.000000
1614472915.271357,52.000000,0.000000,0.118741,-6.211517,-10.421694,-3.409677,-9.491024,-4.760612,-0.640306,-8.513373,-13.126560,-7.043168,-8.701081,-1.045667,-4.669313,-1.179086,-3.571872,-25.903004,-2.583604,0.110556,0.342561,4.753823,3.498471,-3.187900,-4.363135,-139.293808,2.333142,-1.111959,1.172711,6.220978,-1.643752,-9.030638,-10.386686,-22.672335,8064.000000,0.000000,4.000000,,,,0.000000,4.000000,4.000000,4.000000,4.000000,4.000000,4.000000,4.000000,4.000000,4.000000,4.000000,4.000000,4.000000,4.000000,4.000000,4.000000,4.000000,4.000000,4.000000,4.000000,4.000000,4.000000,4.000000,4.000000,4.000000,4.000000,4.000000,4.000000,4.000000,4.000000,4.000000,4.000000,4.000000,100.000000
1614472915.279106,53.000000,0.000000,1.657084,-4.154023,-4.257426,2.747579,-9.481533,-2.704569,2.437257,-3.376655,-9.523690,-2.933561,4.640953,5.109224,0.463561,3.437478,3.611187,-6.902742,-1.042559,10.879677,8.547347,6.287531,4.007793,-0.620609,-5.897233,-140.692978,3.356450,-1.110847,1.171539,9.291680,-1.129287,-5.944684,-1.658351,-19.572739,8064.000000,0.000000,4.000000,,,,0.000000,4.000000,4.000000,4.000000,4.000000,4.000000,4.000000,4.000000,4.000000,4.000000,4.000000,4.000000,4.000000,4.000000,4.000000,4.000000,4.000000,4.000000,4.000000,4.000000,4.000000,4.000000,4.000000,4.000000,4.000000,4.000000,4.000000,4.000000,4.000000,4.000000,4.000000,4.000000,4.000000,100.000000
1614472915.286956,54.000000,0.000000,3.706709,-2.098587,3.439139,9.411498,-4.856667,-0.650582,6.537384,7.395952,-2.334679,3.736039,-5.620098,10.232320,3.540020,-0.668524,3.607576,-26.895840,1.009766,-1.438895,-3.768893,1.153038,-2.150061,-0.107168,-4.352874,-153.885620,5.917196,-1.109737,3.734470,8.256747,-1.640979,-3.887457,1.420231,-17.501884,8064.000000,0.000000,4.000000,,,,0.000000,4.000000,4.000000,4.000000,4.000000,4.000000,4.000000,4.000000,4.000000,4.000000,4.000000,4.000000,4.000000,4.000000,4.000000,4.000000,4.000000,4.000000,4.000000,4.000000,4.000000,4.000000,4.000000,4.000000,4.000000,4.000000,4.000000,4.000000,4.000000,4.000000,4.000000,4.000000,4.000000,100.000000
1614472915.294706,55.000000,0.000000,3.190182,2.006076,4.974162,9.402086,1.302036,-1.162752,6.018026,12.003941,0.231758,4.757944,-17.409349,9.709268,2.510839,-6.308881,-1.524237,-44.817661,-0.016885,-14.257969,-19.149740,-3.463499,-7.788937,-0.107061,-4.861342,-175.270187,6.936920,-1.108627,5.269197,3.120286,0.411944,-4.909210,-0.632472,-10.817715,8064.000000,0.000000,4.000000,,,,0.000000,4.000000,4.000000,4.000000,4.000000,4.000000,4.000000,4.000000,4.000000,4.000000,4.000000,4.000000,4.000000,4.000000,4.000000,4.000000,4.000000,4.000000,4.000000,4.000000,4.000000,4.000000,4.000000,4.000000,4.000000,4.000000,4.000000,4.000000,4.000000,4.000000,4.000000,4.000000,4.000000,100.000000
1614472915.302556,56.000000,0.000000,2.674171,5.080993,11.123034,8.367043,3.352016,-1.674410,3.447905,10.453475,-0.794115,3.214725,-17.391941,6.622635,1.995508,-5.789752,-0.497072,-43.234383,-0.016868,-14.243711,-14.002384,0.129708,-3.678584,1.944328,-5.882122,-180.735947,6.417162,-1.107518,4.751107,1.578704,5.026917,-4.904301,1.419443,-0.037666,8064.000000,0.000000,4.000000,,,,0.000000,4.000000,4.000000,4.000000,4.000000,4.000000,4.000000,4.000000,4.000000,4.000000,4.000000,4.000000,4.000000,4.000000,4.000000,4.000000,4.000000,4.000000,4.000000,4.000000,4.000000,4.000000,4.000000,4.000000,4.000000,4.000000,4.000000,4.000000,4.000000,4.000000,4.000000,4.000000,4.000000,100.000000
1614472915.310305,57.000000,0.000000,3.184317,5.075912,12.137551,9.384317,2.323023,-1.159915,3.444458,10.955842,-2.331782,4.237151,-13.784805,6.103192,3.019154,-2.194218,2.580349,-37.037300,0.495969,-4.485878,-3.731972,4.232142,0.427659,3.993666,-5.876239,-174.401367,6.410745,-1.106411,4.746356,3.115587,6.560352,-3.873756,4.494946,0.475192,8064.000000,0.000000,4.000000,,,,0.000000,4.000000,4.000000,4.000000,4.000000,4.000000,4.000000,4.000000,4.000000,4.000000,4.000000,4.000000,4.000000,4.000000,4.000000,4.000000,4.000000,4.000000,4.000000,4.000000,4.000000,4.000000,4.000000,4.000000,4.000000,4.000000,4.000000,4.000000,4.000000,4.000000,4.000000,4.000000,4.000000,100.000000
1614472915.318155,58.000000,0.000000,3.181133,4.558015,2.894645,9.374933,2.320700,-1.158755,3.953834,9.919246,-3.867912,4.232914,-12.232558,5.584268,2.503314,-1.679203,-1.524796,-34.436161,0.495473,1.672454,-5.266702,2.689449,-0.085589,3.476851,-5.357543,-176.278244,6.404334,-1.105304,4.741610,2.599650,6.040971,-4.895523,4.490452,-5.166309,8064.000000,0.000000,4.000000,,,,0.000000,4.000000,4.000000,4.000000,4.000000,4.000000,4.000000,4.000000,4.000000,4.000000,4.000000,4.000000,4.000000,4.000000,4.000000,4.000000,4.000000,4.000000,4.000000,4.000000,4.000000,4.000000,4.000000,4.000000,4.000000,4.000000,4.000000,4.000000,4.000000,4.000000,4.000000,4.000000,4.000000,100.000000
1614472915.326005,59.000000,0.000000,3.177952,5.066278,-1.723634,8.852737,2.831200,-1.157596,3.437059,6.832403,-4.376864,3.715861,-17.861351,1.476120,2.500811,-5.267268,-10.754041,-43.119675,0.494978,-13.713834,-12.953743,2.173939,-1.111145,2.960554,-5.352185,-182.768631,6.397930,-1.104199,4.736868,2.084230,6.034930,-3.864987,3.460320,-6.186784,8192.000000,0.000000,4.000000,,,,0.000000,4.000000,4.000000,4.000000,4.000000,4.000000,4.000000,4.000000,4.000000,4.000000,4.000000,4.000000,4.000000,4.000000,4.000000,4.000000,4.000000,4.000000,4.000000,4.000000,4.000000,4.000000,4.000000,4.000000,4.000000,4.000000,4.000000,4.000000,4.000000,4.000000,4.000000,4.000000,4.000000,100.000000
1614472915.333755,60.000000,0.000000,3.174774,4.548391,-0.183449,8.843884,2.315548,-1.156439,3.433622,6.312750,-4.372488,3.712145,-23.484516,-2.627920,2.498310,-4.749180,-14.333030,-52.820145,0.494483,-26.520632,-8.325404,6.787149,4.530993,4.496055,-5.859653,-176.944839,8.442814,-1.103095,4.732131,2.594967,6.541716,0.754263,2.944039,-6.180597,8064.000000,0.000000,4.000000,,,,0.000000,4.000000,4.000000,4.000000,4.000000,4.000000,4.000000,4.000000,4.000000,4.000000,4.000000,4.000000,4.000000,4.000000,4.000000,4.000000,4.000000,4.000000,4.000000,4.000000,4.000000,4.000000,4.000000,4.000000,4.000000,4.000000,4.000000,4.000000,4.000000,4.000000,4.000000,4.000000,4.000000,100.000000
1614472915.341605,61.000000,0.000000,3.171599,4.543842,-0.696086,8.835041,2.313233,-1.155282,3.943009,6.819258,-4.368115,3.708432,-17.307186,-3.138113,1.982991,0.896595,-10.216133,-44.049377,0.493988,-12.647958,13.734203,17.036772,16.321333,6.542841,-2.776871,-165.485840,9.972833,-1.101992,4.727399,2.592372,6.022353,3.317611,3.966736,-6.687237,8064.000000,0.000000,4.000000,,,,0.000000,4.000000,4.000000,4.000000,4.000000,4.000000,4.000000,4.000000,4.000000,4.000000,4.000000,4.000000,4.000000,4.000000,4.000000,4.000000,4.000000,4.000000,4.000000,4.000000,4.000000,4.000000,4.000000,4.000000,4.000000,4.000000,4.000000,4.000000,4.000000,4.000000,4.000000,4.000000,4.000000,100.000000
1614472915.349355,62.000000,0.000000,3.168427,4.539299,-0.695390,8.313385,2.310919,-1.154127,2.913425,6.812439,-4.363747,3.191904,-11.136032,-2.109334,3.519469,1.408519,-5.077712,-35.287376,-0.532147,-2.891721,24.489700,24.199223,22.458858,6.536298,2.354111,-164.807541,9.450039,-1.100890,4.722672,2.589779,6.016331,2.801473,2.424308,-5.142088,8064.000000,0.000000,4.000000,,,,0.000000,4.000000,4.000000,4.000000,4.000000,4.000000,4.000000,4.000000,4.000000,4.000000,4.000000,4.000000,4.000000,4.000000,4.000000,4.000000,4.000000,4.000000,4.000000,4.000000,4.000000,4.000000,4.000000,4.000000,4.000000,4.000000,4.000000,4.000000,4.000000,4.000000,4.000000,4.000000,4.000000,100.000000
1614472915.357205,63.000000,0.000000,3.165259,4.534760,-3.258797,6.253790,1.795788,-1.152973,2.910511,6.292806,-4.359383,2.163071,-9.073614,-1.081583,5.567232,1.407110,0.568392,-30.123886,-0.531615,-0.837547,20.362646,22.123741,17.308193,7.555403,5.428680,-168.232468,9.953410,-1.099789,4.717949,2.074369,6.010314,2.798672,-5.270424,-10.265151,8064.000000,0.000000,4.000000,,,,0.000000,4.000000,4.000000,4.000000,4.000000,4.000000,4.000000,4.000000,4.000000,4.000000,4.000000,4.000000,4.000000,4.000000,4.000000,4.000000,4.000000,4.000000,4.000000,4.000000,4.000000,4.000000,4.000000,4.000000,4.000000,4.000000,4.000000,4.000000,4.000000,4.000000,4.000000,4.000000,4.000000,100.000000
1614472915.364955,64.000000,0.000000,3.162094,4.530224,-8.383743,5.734715,2.306813,-1.151820,4.446063,6.799334,-4.355024,4.212190,-2.397874,1.483601,6.587306,4.995447,5.183208,-14.709146,1.007378,12.496624,26.496130,17.999054,15.239604,10.624771,4.910431,-166.012955,9.430635,-1.098689,4.713231,2.585115,6.004304,3.308694,-7.829256,-13.331809,0.000000,198.000000,4.000000,,,,0.000000,4.000000,4.000000,4.000000,4.000000,4.000000,4.000000,4.000000,4.000000,4.000000,4.000000,4.000000,4.000000,4.000000,4.000000,4.000000,4.000000,4.000000,4.000000,4.000000,4.000000,4.000000,4.000000,4.000000,4.000000,4.000000,4.000000,4.000000,4.000000,4.000000,4.000000,4.000000,4.000000,100.000000
1614472915.372805,65.000000,0.000000,3.158932,4.525694,-3.759975,4.190519,2.817326,-1.150668,-0.173768,6.792534,-4.350669,3.695157,-3.933937,1.994938,5.555078,3.964810,6.716486,-17.771360,-0.019270,7.355922,18.777327,17.981054,14.711543,11.639787,5.931161,-173.539246,9.421206,-1.097590,4.708518,3.095351,5.485479,2.792564,2.434983,0.014856,0.000000,200.000000,4.000000,,,,0.000000,4.000000,4.000000,4.000000,4.000000,4.000000,4.000000,4.000000,4.000000,4.000000,4.000000,4.000000,4.000000,4.000000,4.000000,4.000000,4.000000,4.000000,4.000000,4.000000,4.000000,4.000000,4.000000,4.000000,4.000000,4.000000,4.000000,4.000000,4.000000,4.000000,4.000000,4.000000,4.000000,100.000000
1614472915.380555,66.000000,0.000000,2.642952,4.521169,4.961733,4.186329,1.276047,-1.149518,-4.276158,6.272921,-4.859138,1.640180,-12.135132,-0.058339,6.062343,1.396743,10.299514,-36.727947,-0.019251,-7.523228,-6.882477,19.501535,12.132730,9.576865,6.438051,-188.750320,14.539989,-1.609313,4.190989,1.553794,5.992815,2.276951,10.637677,11.809713,0.000000,191.000000,4.000000,,,,0.000000,4.000000,4.000000,4.000000,4.000000,4.000000,4.000000,4.000000,4.000000,4.000000,4.000000,4.000000,4.000000,4.000000,4.000000,4.000000,4.000000,4.000000,4.000000,4.000000,4.000000,4.000000,4.000000,4.000000,4.000000,4.000000,4.000000,4.000000,4.000000,4.000000,4.000000,4.000000,4.000000,100.000000
1614472915.388405,67.000000,0.000000,3.665950,4.516647,9.059336,15.464194,2.813233,-1.661188,2.394784,7.292289,-4.854280,13.433412,4.287260,3.018642,10.158845,12.677398,21.571266,-15.152758,12.288461,22.740705,8.509021,19.994854,24.428289,15.721134,3.867510,-179.330811,19.653654,-2.120524,4.186798,4.116343,8.550924,2.274674,10.114219,7.695339,0.000000,192.000000,4.000000,,,,0.000000,4.000000,4.000000,4.000000,4.000000,4.000000,4.000000,4.000000,4.000000,4.000000,4.000000,4.000000,4.000000,4.000000,4.000000,4.000000,4.000000,4.000000,4.000000,4.000000,4.000000,4.000000,4.000000,4.000000,4.000000,4.000000,4.000000,4.000000,4.000000,4.000000,4.000000,4.000000,4.000000,100.000000
1614472915.396155,68.000000,0.000000,5.713566,4.512131,17.255405,32.371807,8.451446,-0.121066,11.110338,9.336279,-3.823784,34.958439,26.847075,10.707932,13.738429,24.459591,29.754822,15.118805,27.660788,50.923092,41.321026,22.538961,41.839760,20.320799,7.966207,-159.664291,22.198103,-0.579942,5.208252,11.804534,10.080834,3.298041,11.642566,4.610721,0.000000,189.000000,4.000000,,,,0.000000,4.000000,4.000000,4.000000,4.000000,4.000000,4.000000,4.000000,4.000000,4.000000,4.000000,4.000000,4.000000,4.000000,4.000000,4.000000,4.000000,4.000000,4.000000,4.000000,4.000000,4.000000,4.000000,4.000000,4.000000,4.000000,4.000000,4.000000,4.000000,4.000000,4.000000,4.000000,4.000000,100.000000
1614472915.404005,69.000000,0.000000,7.246315,4.507619,21.340714,34.903538,7.417353,2.443158,11.612048,10.865404,-4.845602,34.923481,16.050997,12.235684,13.724691,20.845388,21.519939,-5.409134,22.504921,18.564478,26.920729,18.413858,31.541508,9.531246,16.676189,-172.837967,24.227188,-0.579362,4.177402,13.844011,10.070754,2.781922,12.143744,5.631751,0.000000,196.000000,4.000000,,,,0.000000,4.000000,4.000000,4.000000,4.000000,4.000000,4.000000,4.000000,4.000000,4.000000,4.000000,4.000000,4.000000,4.000000,4.000000,4.000000,4.000000,4.000000,4.000000,4.000000,4.000000,4.000000,4.000000,4.000000,4.000000,4.000000,4.000000,4.000000,4.000000,4.000000,4.000000,4.000000,4.000000,100.000000
1614472915.411755,70.000000,0.000000,6.726248,5.015932,11.062963,24.612223,3.307371,2.953535,10.061975,10.854539,-4.840756,16.427019,-4.477874,7.608064,13.198146,12.619415,10.729189,-26.429367,6.584981,-6.582293,-3.362602,6.087753,11.509967,0.290946,12.556949,-199.844620,22.151678,-3.142886,3.660405,8.189141,10.573503,2.266320,7.516215,1.010735,0.000000,194.000000,4.000000,,,,0.000000,4.000000,4.000000,4.000000,4.000000,4.000000,4.000000,4.000000,4.000000,4.000000,4.000000,4.000000,4.000000,4.000000,4.000000,4.000000,4.000000,4.000000,4.000000,4.000000,4.000000,4.000000,4.000000,4.000000,4.000000,4.000000,4.000000,4.000000,4.000000,4.000000,4.000000,4.000000,4.000000,100.000000
1614472915.419605,71.000000,0.000000,6.719522,4.498095,9.000617,22.536329,7.406628,2.437761,11.590375,10.843684,4.907675,17.436234,-7.037499,12.215841,14.210588,12.606795,9.179997,-12.556783,6.065576,11.885828,5.871530,4.030383,12.011277,7.982963,-0.276121,-204.772980,18.539783,7.629488,11.349051,6.642491,9.537289,6.366618,13.149725,6.137929,0.000000,201.000000,4.000000,,,,0.000000,4.000000,4.000000,4.000000,4.000000,4.000000,4.000000,4.000000,4.000000,4.000000,4.000000,4.000000,4.000000,4.000000,4.000000,4.000000,4.000000,4.000000,4.000000,4.000000,4.000000,4.000000,4.000000,4.000000,4.000000,4.000000,4.000000,4.000000,4.000000,4.000000,4.000000,4.000000,4.000000,100.000000
1614472915.427355,72.000000,0.000000,7.225622,5.006418,22.837770,27.129177,9.450503,2.435323,11.065964,10.320020,14.133536,27.162386,-4.466359,19.895933,13.170737,14.132650,9.683639,-12.031405,14.264638,13.412404,11.506684,13.769942,13.537727,15.154467,0.749796,-204.568207,16.982780,23.519295,19.542831,10.225592,10.553392,10.975636,22.880165,18.439484,0.000000,195.000000,4.000000,,,,0.000000,4.000000,4.000000,4.000000,4.000000,4.000000,4.000000,4.000000,4.000000,4.000000,4.000000,4.000000,4.000000,4.000000,4.000000,4.000000,4.000000,4.000000,4.000000,4.000000,4.000000,4.000000,4.000000,4.000000,4.000000,4.000000,4.000000,4.000000,4.000000,4.000000,4.000000,4.000000,4.000000,100.000000
1614472915.435205,73.000000,0.000000,6.705576,5.001411,25.891855,22.486664,6.876951,2.432888,9.003615,11.335341,12.580941,16.878815,-5.487534,15.773473,13.157566,12.067236,8.135493,-25.352707,15.788836,0.065658,2.264408,16.833096,6.857523,14.113671,9.466995,-212.055939,12.863235,17.341928,15.933545,9.702546,10.542839,4.810814,11.062413,12.267198,0.000000,199.000000,4.000000,,,,0.000000,4.000000,4.000000,4.000000,4.000000,4.000000,4.000000,4.000000,4.000000,4.000000,4.000000,4.000000,4.000000,4.000000,4.000000,4.000000,4.000000,4.000000,4.000000,4.000000,4.000000,4.000000,4.000000,4.000000,4.000000,4.000000,4.000000,4.000000,4.000000,4.000000,4.000000,4.000000,4.000000,100.000000
1614472915.442955,74.000000,0.000000,6.698871,1.406666,14.583913,10.156485,6.357253,2.430455,5.404869,10.298365,7.440155,2.502961,-8.558969,9.091033,14.682870,5.388502,2.486332,-31.481201,14.234585,2.116875,7.903169,13.739339,7.876307,14.099558,8.431888,-214.920807,5.670884,-2.162592,8.225304,5.590279,1.301527,-3.911946,-7.923008,-4.668147,0.000000,187.000000,4.000000,,,,0.000000,4.000000,4.000000,4.000000,4.000000,4.000000,4.000000,4.000000,4.000000,4.000000,4.000000,4.000000,4.000000,4.000000,4.000000,4.000000,4.000000,4.000000,4.000000,4.000000,4.000000,4.000000,4.000000,4.000000,4.000000,4.000000,4.000000,4.000000,4.000000,4.000000,4.000000,4.000000,4.000000,100.000000
1614472915.450805,75.000000,0.000000,6.692172,-2.697305,9.441124,6.043764,0.709870,2.428025,1.296899,3.621400,5.381433,1.987637,-18.294001,4.466557,10.052803,-1.283553,-10.849487,-54.526642,14.733171,-12.757037,1.741420,12.699959,7.355610,8.957253,4.833712,-216.244354,6.178034,-7.288635,8.217078,1.482125,-8.443364,-5.446496,-2.786880,-6.714760,0.000000,192.000000,4.000000,,,,0.000000,4.000000,4.000000,4.000000,4.000000,4.000000,4.000000,4.000000,4.000000,4.000000,4.000000,4.000000,4.000000,4.000000,4.000000,4.000000,4.000000,4.000000,4.000000,4.000000,4.000000,4.000000,4.000000,4.000000,4.000000,4.000000,4.000000,4.000000,4.000000,4.000000,4.000000,4.000000,4.000000,100.000000
1614472915.458555,76.000000,0.000000,3.608557,-3.207428,10.970144,8.601823,-10.572891,2.425597,-0.755679,-1.510427,0.247846,3.524111,-21.865450,-3.230217,0.299160,-2.307911,-12.889920,-70.369553,12.154335,-25.564793,-14.670578,11.661617,7.861074,0.743168,4.828878,-221.156311,9.761600,-3.178782,9.234502,-3.134742,-9.460562,-3.902587,7.985137,-1.579840,0.000000,188.000000,4.000000,,,,0.000000,4.000000,4.000000,4.000000,4.000000,4.000000,4.000000,4.000000,4.000000,4.000000,4.000000,4.000000,4.000000,4.000000,4.000000,4.000000,4.000000,4.000000,4.000000,4.000000,4.000000,4.000000,4.000000,4.000000,4.000000,4.000000,4.000000,4.000000,4.000000,4.000000,4.000000,4.000000,4.000000,100.000000
1614472915.466405,77.000000,0.000000,-1.010437,-2.691400,10.446354,8.593221,-11.075139,2.423171,-0.754924,-0.996096,-4.880607,3.520587,-10.048712,-6.303910,-2.778062,0.258500,7.635790,-46.709438,11.116540,-2.462305,-0.809753,20.880726,18.622444,4.332168,2.772767,-216.832596,9.751838,-4.714065,6.661165,-5.182889,-8.938280,-4.411505,4.900229,-2.603902,0.000000,195.000000,4.000000,,,,0.000000,4.000000,4.000000,4.000000,4.000000,4.000000,4.000000,4.000000,4.000000,4.000000,4.000000,4.000000,4.000000,4.000000,4.000000,4.000000,4.000000,4.000000,4.000000,4.000000,4.000000,4.000000,4.000000,4.000000,4.000000,4.000000,4.000000,4.000000,4.000000,4.000000,4.000000,4.000000,4.000000,100.000000
1614472915.474155,78.000000,0.000000,-1.009426,-2.688709,9.923087,7.046166,-4.910217,2.420748,-0.241348,-0.995100,-5.388546,7.619631,0.730567,-2.195042,-1.236822,1.796703,24.038410,-28.201191,12.131064,4.206824,5.344903,30.603434,23.732027,10.481682,1.744353,-213.026016,9.229265,-6.247812,4.090401,-3.126424,-8.416522,-4.919914,2.331226,-3.626939,0.000000,189.000000,4.000000,,,,0.000000,4.000000,4.000000,4.000000,4.000000,4.000000,4.000000,4.000000,4.000000,4.000000,4.000000,4.000000,4.000000,4.000000,4.000000,4.000000,4.000000,4.000000,4.000000,4.000000,4.000000,4.000000,4.000000,4.000000,4.000000,4.000000,4.000000,4.000000,4.000000,4.000000,4.000000,4.000000,4.000000,100.000000
1614472915.482005,79.000000,0.000000,4.119788,-3.198840,9.913163,10.628864,-4.905307,2.418327,-0.753928,-1.506925,-4.357517,11.201755,1.242657,1.909717,-2.261226,4.871829,23.501553,-26.634529,5.965087,-9.130716,-15.686084,23.393343,18.580090,8.419918,3.793891,-218.966827,9.732857,-4.703103,3.573490,-1.072016,-1.228618,-4.402174,5.918639,-3.623312,0.000000,188.000000,4.000000,,,,0.000000,4.000000,4.000000,4.000000,4.000000,4.000000,4.000000,4.000000,4.000000,4.000000,4.000000,4.000000,4.000000,4.000000,4.000000,4.000000,4.000000,4.000000,4.000000,4.000000,4.000000,4.000000,4.000000,4.000000,4.000000,4.000000,4.000000,4.000000,4.000000,4.000000,4.000000,4.000000,4.000000,100.000000
1614472915.489755,80.000000,0.000000,7.192592,-2.682821,9.903251,14.720799,-4.900402,2.415909,-0.240353,3.109966,-4.865980,10.677732,4.318338,7.036013,0.817958,9.482342,26.042152,1.084414,4.933481,18.570723,1.765500,23.369951,21.125612,6.873037,4.815738,-214.132477,9.210303,-1.621477,4.082737,0.467518,1.849534,-4.397772,8.476823,-3.619689,0.000000,185.000000,4.000000,,,,0.000000,4.000000,4.000000,4.000000,4.000000,4.000000,4.000000,4.000000,4.000000,4.000000,4.000000,4.000000,4.000000,4.000000,4.000000,4.000000,4.000000,4.000000,4.000000,4.000000,4.000000,4.000000,4.000000,4.000000,4.000000,4.000000,4.000000,4.000000,4.000000,4.000000,4.000000,4.000000,4.000000,100.000000
1614472915.497604,81.000000,0.000000,6.672578,-2.680138,9.893347,15.218899,-1.818578,2.413493,-0.240113,7.209421,-4.861114,10.667054,7.903763,12.157182,8.509447,9.985680,27.554573,18.519226,14.672137,42.141895,34.584248,36.167095,25.207050,10.455907,7.375025,-204.687576,9.713913,-1.107035,5.104296,3.031153,-2.767700,-3.880553,6.929884,-1.051966,0.000000,200.000000,4.000000,,,,0.000000,4.000000,4.000000,4.000000,4.000000,4.000000,4.000000,4.000000,4.000000,4.000000,4.000000,4.000000,4.000000,4.000000,4.000000,4.000000,4.000000,4.000000,4.000000,4.000000,4.000000,4.000000,4.000000,4.000000,4.000000,4.000000,4.000000,4.000000,4.000000,4.000000,4.000000,4.000000,4.000000,100.000000
1614472915.505354,82.000000,0.000000,6.665906,-2.677458,10.909095,12.126757,-0.791119,2.411079,-0.239873,7.202211,-2.292150,9.117926,-0.822089,11.119384,10.552220,6.898771,16.757788,-4.576215,16.708746,12.868984,12.498381,23.310413,14.412613,11.471092,9.418932,-219.867508,10.217020,-3.157210,4.073550,0.976840,-5.329035,-5.415134,-1.794994,-4.640658,0.000000,203.000000,4.000000,,,,0.000000,4.000000,4.000000,4.000000,4.000000,4.000000,4.000000,4.000000,4.000000,4.000000,4.000000,4.000000,4.000000,4.000000,4.000000,4.000000,4.000000,4.000000,4.000000,4.000000,4.000000,4.000000,4.000000,4.000000,4.000000,4.000000,4.000000,4.000000,4.000000,4.000000,4.000000,4.000000,4.000000,100.000000
1614472915.513204,83.000000,0.000000,7.172060,-3.187601,9.872544,10.063348,-1.303148,2.408668,-0.239633,6.682189,-0.238576,6.544705,-2.359729,9.056982,9.516026,6.379052,19.817953,-10.212665,12.076653,6.702269,-14.180784,5.851205,5.680252,10.433980,5.306949,-239.647644,6.617059,-5.205335,4.069477,-4.152342,-4.810886,-7.973822,-7.434225,-8.738582,0.000000,219.000000,4.000000,,,,0.000000,4.000000,4.000000,4.000000,4.000000,4.000000,4.000000,4.000000,4.000000,4.000000,4.000000,4.000000,4.000000,4.000000,4.000000,4.000000,4.000000,4.000000,4.000000,4.000000,4.000000,4.000000,4.000000,4.000000,4.000000,4.000000,4.000000,4.000000,4.000000,4.000000,4.000000,4.000000,4.000000,100.000000
1614472915.520954,84.000000,0.000000,6.652068,-2.158772,9.349852,14.155849,-1.814665,2.406260,-0.239393,7.188327,-0.751158,7.563802,10.975965,9.047925,10.019331,8.423955,33.644287,4.669343,13.603039,34.900696,7.371858,19.691507,9.777136,10.423547,1.711899,-236.331070,7.123263,-4.687309,11.244894,-5.173831,-4.293254,-5.914566,3.342440,7.680414,0.000000,212.000000,4.000000,,,,0.000000,4.000000,4.000000,4.000000,4.000000,4.000000,4.000000,4.000000,4.000000,4.000000,4.000000,4.000000,4.000000,4.000000,4.000000,4.000000,4.000000,4.000000,4.000000,4.000000,4.000000,4.000000,4.000000,4.000000,4.000000,4.000000,4.000000,4.000000,4.000000,4.000000,4.000000,4.000000,4.000000,100.000000
1614472915.528604,85.000000,0.000000,6.645416,0.407489,13.955887,22.346821,-0.787210,2.403853,-0.239154,7.181139,-1.263227,10.120340,9.939347,9.038877,10.009312,9.441172,25.405516,-11.745584,13.589436,23.583742,16.082436,24.800022,15.408384,10.413123,6.838392,-229.940887,14.808447,-4.682621,15.336214,-4.143016,-3.263320,-1.293267,11.544226,27.159912,0.000000,187.000000,4.000000,,,,0.000000,4.000000,4.000000,4.000000,4.000000,4.000000,4.000000,4.000000,4.000000,4.000000,4.000000,4.000000,4.000000,4.000000,4.000000,4.000000,4.000000,4.000000,4.000000,4.000000,4.000000,4.000000,4.000000,4.000000,4.000000,4.000000,4.000000,4.000000,4.000000,4.000000,4.000000,4.000000,4.000000,100.000000
1614472915.536454,86.000000,0.000000,6.638771,1.432722,17.531673,27.452679,1.264859,2.401450,-0.238915,6.661137,-0.749144,11.135861,-4.429566,9.029839,9.999303,8.918910,9.482675,-32.246658,8.960462,-4.644969,-6.497750,4.775222,13.341694,10.402710,9.908477,-236.377625,16.332100,-4.677939,7.115749,-4.651694,-1.208775,-2.317615,4.353194,16.876343,0.000000,198.000000,4.000000,,,,0.000000,4.000000,4.000000,4.000000,4.000000,4.000000,4.000000,4.000000,4.000000,4.000000,4.000000,4.000000,4.000000,4.000000,4.000000,4.000000,4.000000,4.000000,4.000000,4.000000,4.000000,4.000000,4.000000,4.000000,4.000000,4.000000,4.000000,4.000000,4.000000,4.000000,4.000000,4.000000,4.000000,100.000000
1614472915.544204,87.000000,0.000000,6.632132,0.918469,14.437220,26.399586,2.802056,2.399048,-0.238676,6.654476,-0.748394,10.099084,-10.578983,6.969526,9.989304,8.909991,7.421909,-31.701591,7.413039,-6.691606,-11.619457,0.667882,8.712967,10.905128,5.283184,-242.807907,13.238845,-5.186081,-0.070854,-5.159863,-1.207566,-4.879399,-1.292184,-0.576431,0.000000,226.000000,4.000000,,,,0.000000,4.000000,4.000000,4.000000,4.000000,4.000000,4.000000,4.000000,4.000000,4.000000,4.000000,4.000000,4.000000,4.000000,4.000000,4.000000,4.000000,4.000000,4.000000,4.000000,4.000000,4.000000,4.000000,4.000000,4.000000,4.000000,4.000000,4.000000,4.000000,4.000000,4.000000,4.000000,4.000000,100.000000
1614472915.552054,88.000000,0.000000,6.625500,0.917551,13.909962,26.373186,2.286434,2.396649,-0.238437,6.647821,-1.260467,11.114626,-14.158148,0.808711,7.928032,6.336979,1.260641,-46.541683,4.328703,-16.428505,-4.941171,11.436445,7.165793,9.355761,1.175336,-245.129196,18.353811,-4.668075,0.954858,-4.641882,-1.206358,-4.361700,3.324492,6.603632,0.000000,190.000000,4.000000,,,,0.000000,4.000000,4.000000,4.000000,4.000000,4.000000,4.000000,4.000000,4.000000,4.000000,4.000000,4.000000,4.000000,4.000000,4.000000,4.000000,4.000000,4.000000,4.000000,4.000000,4.000000,4.000000,4.000000,4.000000,4.000000,4.000000,4.000000,4.000000,4.000000,4.000000,4.000000,4.000000,4.000000,100.000000
1614472915.559804,89.000000,0.000000,6.618874,0.916633,19.537077,27.372454,2.284147,2.394253,-0.238199,6.641173,-1.259206,13.667614,-20.297836,-2.781842,5.868822,2.740898,-4.381645,-60.341297,0.221810,-27.694128,-1.346486,14.501932,7.158627,6.782302,1.174161,-243.858429,20.386740,-2.612125,1.466724,-4.637240,-1.205152,-3.844517,4.346809,16.853439,0.000000,187.000000,4.000000,,,,0.000000,4.000000,4.000000,4.000000,4.000000,4.000000,4.000000,4.000000,4.000000,4.000000,4.000000,4.000000,4.000000,4.000000,4.000000,4.000000,4.000000,4.000000,4.000000,4.000000,4.000000,4.000000,4.000000,4.000000,4.000000,4.000000,4.000000,4.000000,4.000000,4.000000,4.000000,4.000000,4.000000,100.000000
1614472915.567653,90.000000,0.000000,6.612255,0.915717,21.568823,26.319441,2.281863,2.391858,-0.237960,6.634532,1.306156,13.141126,-19.251898,-0.214957,5.862953,1.199696,5.366327,-42.845058,2.272871,-10.743356,5.834347,14.487430,4.587366,6.262700,2.711448,-247.204315,12.674046,-1.071051,0.439616,-4.632603,-1.203947,-4.353493,1.265539,9.657099,0.000000,192.000000,4.000000,,,,0.000000,4.000000,4.000000,4.000000,4.000000,4.000000,4.000000,4.000000,4.000000,4.000000,4.000000,4.000000,4.000000,4.000000,4.000000,4.000000,4.000000,4.000000,4.000000,4.000000,4.000000,4.000000,4.000000,4.000000,4.000000,4.000000,4.000000,4.000000,4.000000,4.000000,4.000000,4.000000,4.000000,100.000000
1614472915.575404,91.000000,0.000000,6.605643,0.914801,21.034433,25.780300,2.279581,2.389466,-0.237722,6.627898,3.356132,10.563883,-17.181362,1.323719,5.857090,1.711317,13.053268,-27.417597,1.757777,-3.553126,-5.453538,7.293456,-0.545427,6.769258,4.760019,-266.957123,8.558807,-0.557160,0.439177,-4.627970,-1.202743,-4.349140,-0.787009,3.493595,0.000000,217.000000,4.000000,,,,0.000000,4.000000,4.000000,4.000000,4.000000,4.000000,4.000000,4.000000,4.000000,4.000000,4.000000,4.000000,4.000000,4.000000,4.000000,4.000000,4.000000,4.000000,4.000000,4.000000,4.000000,4.000000,4.000000,4.000000,4.000000,4.000000,4.000000,4.000000,4.000000,4.000000,4.000000,4.000000,4.000000,100.000000
1614472915.583253,92.000000,0.000000,7.111858,0.913886,22.039040,27.292982,2.277302,2.387077,-0.237485,6.621270,2.839955,10.040498,-15.625720,1.322395,5.851233,1.709605,15.604318,-27.903000,-2.859365,-11.241880,-25.448084,-2.970248,-2.083343,6.762488,5.268079,-285.151703,10.088710,-1.069423,0.951558,-4.623343,-1.714361,-3.831970,-0.273401,7.592666,0.000000,193.000000,4.000000,,,,0.000000,4.000000,4.000000,4.000000,4.000000,4.000000,4.000000,4.000000,4.000000,4.000000,4.000000,4.000000,4.000000,4.000000,4.000000,4.000000,4.000000,4.000000,4.000000,4.000000,4.000000,4.000000,4.000000,4.000000,4.000000,4.000000,4.000000,4.000000,4.000000,4.000000,4.000000,4.000000,4.000000,100.000000
1614472915.591003,93.000000,0.000000,5.566285,0.912972,18.940077,23.163124,2.275024,2.897510,-0.237247,6.614648,2.837115,10.543278,-6.892146,3.885176,5.845382,1.195075,24.819483,-17.618687,-2.343685,4.666798,-12.602124,8.314774,0.995664,6.755726,2.698709,-283.328094,9.052980,-1.068354,0.950606,-4.618719,-1.199826,-4.853779,-0.273128,9.123534,0.000000,197.000000,4.000000,,,,0.000000,4.000000,4.000000,4.000000,4.000000,4.000000,4.000000,4.000000,4.000000,4.000000,4.000000,4.000000,4.000000,4.000000,4.000000,4.000000,4.000000,4.000000,4.000000,4.000000,4.000000,4.000000,4.000000,4.000000,4.000000,4.000000,4.000000,4.000000,4.000000,4.000000,4.000000,4.000000,4.000000,100.000000
1614472915.598853,94.000000,0.000000,3.509436,1.424880,17.895496,16.473295,2.272749,1.868972,-0.237010,6.608034,5.911201,10.532735,2.345516,5.419752,5.326716,1.706701,27.358765,-6.319017,0.735582,22.098028,5.359196,25.229536,2.533129,6.748970,1.157548,-276.378082,12.120851,-1.067285,0.949656,-4.614100,0.852656,-4.336105,-0.272855,8.601590,0.000000,158.000000,4.000000,,,,0.000000,4.000000,4.000000,4.000000,4.000000,4.000000,4.000000,4.000000,4.000000,4.000000,4.000000,4.000000,4.000000,4.000000,4.000000,4.000000,4.000000,4.000000,4.000000,4.000000,4.000000,4.000000,4.000000,4.000000,4.000000,4.000000,4.000000,4.000000,4.000000,4.000000,4.000000,4.000000,4.000000,100.000000
1614472915.606603,95.000000,0.000000,2.480286,-0.627827,21.980165,16.969643,2.270477,2.892744,-0.236773,6.601426,7.443751,10.522202,2.855991,4.901512,2.757287,1.704994,19.639099,-8.363980,-0.290795,13.870802,-0.287189,22.127382,3.043417,4.690939,1.669211,-276.614532,17.236935,-1.066218,0.948706,-4.609486,2.903085,-1.767666,0.240239,9.105809,0.000000,207.000000,4.000000,,,,0.000000,4.000000,4.000000,4.000000,4.000000,4.000000,4.000000,4.000000,4.000000,4.000000,4.000000,4.000000,4.000000,4.000000,4.000000,4.000000,4.000000,4.000000,4.000000,4.000000,4.000000,4.000000,4.000000,4.000000,4.000000,4.000000,4.000000,4.000000,4.000000,4.000000,4.000000,4.000000,4.000000,100.000000
1614472915.614453,96.000000,0.000000,2.477805,-2.678482,16.317160,22.080877,2.268206,5.453954,-0.236536,6.594824,4.872205,10.511680,2.340314,4.896610,1.728888,1.703289,15.516895,-12.971001,-0.290504,5.651803,1.251560,15.951409,4.578835,3.147787,1.667542,-275.312286,13.629954,-1.065152,0.947757,-4.604877,2.387362,-1.765899,0.239999,4.481319,8064.000000,0.000000,4.000000,,,,0.000000,4.000000,4.000000,4.000000,4.000000,4.000000,4.000000,4.000000,4.000000,4.000000,4.000000,4.000000,4.000000,4.000000,4.000000,4.000000,4.000000,4.000000,4.000000,4.000000,4.000000,4.000000,4.000000,4.000000,4.000000,4.000000,4.000000,4.000000,4.000000,4.000000,4.000000,4.000000,4.000000,100.000000
1614472915.622203,97.000000,0.000000,2.988148,-3.188623,5.531611,22.571617,1.753117,2.371577,-0.236300,6.588230,2.816051,10.501168,2.850795,4.891714,2.239980,1.701586,14.988558,-19.111876,-0.290214,4.620510,8.942616,14.396996,7.138359,3.144639,1.665875,-271.447205,5.924016,-1.064087,0.946810,-4.600272,1.872154,-3.815415,-0.785882,-2.189829,8064.000000,0.000000,4.000000,,,,0.000000,4.000000,4.000000,4.000000,4.000000,4.000000,4.000000,4.000000,4.000000,4.000000,4.000000,4.000000,4.000000,4.000000,4.000000,4.000000,4.000000,4.000000,4.000000,4.000000,4.000000,4.000000,4.000000,4.000000,4.000000,4.000000,4.000000,4.000000,4.000000,4.000000,4.000000,4.000000,4.000000,100.000000
1614472915.630053,98.000000,0.000000,2.472339,-3.185435,6.038900,22.036224,2.777005,-1.733359,-0.236063,6.068820,2.300414,11.003488,-1.254620,4.886822,2.237740,1.699884,12.409467,-26.785072,-0.289924,-8.717443,-2.348378,6.177471,7.131220,2.628674,1.664209,-272.714233,5.918092,-1.063022,0.945863,-4.595672,2.383102,-4.837240,-0.272276,-3.726101,8064.000000,0.000000,4.000000,,,,0.000000,4.000000,4.000000,4.000000,4.000000,4.000000,4.000000,4.000000,4.000000,4.000000,4.000000,4.000000,4.000000,4.000000,4.000000,4.000000,4.000000,4.000000,4.000000,4.000000,4.000000,4.000000,4.000000,4.000000,4.000000,4.000000,4.000000,4.000000,4.000000,4.000000,4.000000,4.000000,4.000000,100.000000
1614472915.637803,99.000000,0.000000,2.982688,-2.669429,7.571323,22.014189,4.825510,-0.193164,-0.235827,6.575572,2.298114,8.428381,-5.355930,4.881935,2.235502,1.698184,11.884237,-28.296747,4.325751,-18.965136,-13.115260,3.094371,6.611269,3.651686,1.662544,-280.133820,3.860892,-1.061959,0.432096,-4.591076,2.380719,-4.319582,-0.784824,-6.286477,8064.000000,0.000000,4.000000,,,,0.000000,4.000000,4.000000,4.000000,4.000000,4.000000,4.000000,4.000000,4.000000,4.000000,4.000000,4.000000,4.000000,4.000000,4.000000,4.000000,4.000000,4.000000,4.000000,4.000000,4.000000,4.000000,4.000000,4.000000,4.000000,4.000000,4.000000,4.000000,4.000000,4.000000,4.000000,4.000000,4.000000,100.000000
1614472915.645653,100.000000,0.000000,6.056628,-0.102657,0.897085,17.889610,5.846326,2.371132,-0.235591,6.056176,2.808636,4.317389,-6.889036,4.877053,2.233267,1.696486,11.872353,-27.242809,9.962451,-11.766685,-12.589324,8.219481,6.604657,5.699317,1.660882,-290.110107,-4.348097,-1.573718,0.944485,-4.586485,1.865518,-4.828084,-7.450706,-9.357114,8064.000000,0.000000,4.000000,,,,0.000000,4.000000,4.000000,4.000000,4.000000,4.000000,4.000000,4.000000,4.000000,4.000000,4.000000,4.000000,4.000000,4.000000,4.000000,4.000000,4.000000,4.000000,4.000000,4.000000,4.000000,4.000000,4.000000,4.000000,4.000000,4.000000,4.000000,4.000000,4.000000,4.000000,4.000000,4.000000,4.000000,100.000000
1614472915.653403,101.000000,0.000000,10.153135,1.435907,0.383367,14.794798,5.840479,2.368760,-0.235356,6.050120,2.293007,2.261790,-8.933429,4.359355,2.231034,1.694790,12.886122,-27.215567,12.003771,-5.601071,-12.576735,8.724082,6.085232,7.232079,1.659221,-296.999481,-3.318108,-1.059324,0.943540,-5.094719,3.402114,-4.310435,-16.161203,-10.886218,8064.000000,0.000000,4.000000,,,,0.000000,4.000000,4.000000,4.000000,4.000000,4.000000,4.000000,4.000000,4.000000,4.000000,4.000000,4.000000,4.000000,4.000000,4.000000,4.000000,4.000000,4.000000,4.000000,4.000000,4.000000,4.000000,4.000000,4.000000,4.000000,4.000000,4.000000,4.000000,4.000000,4.000000,4.000000,4.000000,4.000000,100.000000
1614472915.661253,102.000000,0.000000,10.655803,-0.103990,4.485548,16.831285,5.321818,4.417674,-0.235121,9.120993,2.290714,2.259528,-10.462956,4.867817,2.228802,1.693095,15.437338,-28.726812,13.530229,-6.621111,-4.359030,13.843563,6.079147,6.712026,1.657562,-297.215302,6.428800,-1.058264,-0.083044,-4.063983,5.449994,-4.818945,-16.145042,-12.926614,8064.000000,0.000000,4.000000,,,,0.000000,4.000000,4.000000,4.000000,4.000000,4.000000,4.000000,4.000000,4.000000,4.000000,4.000000,4.000000,4.000000,4.000000,4.000000,4.000000,4.000000,4.000000,4.000000,4.000000,4.000000,4.000000,4.000000,4.000000,4.000000,4.000000,4.000000,4.000000,4.000000,4.000000,4.000000,4.000000,4.000000,100.000000
1614472915.669003,103.000000,0.000000,10.132326,3.998678,8.583627,19.378557,5.316497,6.464538,-0.234885,12.701615,6.390987,6.359832,-8.914032,6.914231,1.713753,1.691402,15.934721,-27.672445,15.055160,-0.973464,8.978662,26.137413,6.585888,6.705314,0.630263,-293.841156,11.037756,-2.595668,4.019603,-1.495817,6.470185,-5.326947,-1.769924,-0.605995,8064.000000,0.000000,4.000000,,,,0.000000,4.000000,4.000000,4.000000,4.000000,4.000000,4.000000,4.000000,4.000000,4.000000,4.000000,4.000000,4.000000,4.000000,4.000000,4.000000,4.000000,4.000000,4.000000,4.000000,4.000000,4.000000,4.000000,4.000000,4.000000,4.000000,4.000000,4.000000,4.000000,4.000000,4.000000,4.000000,4.000000,100.000000
1614472915.676853,104.000000,0.000000,10.122194,10.661345,19.344275,20.897640,6.849642,5.945253,-0.234651,14.227376,12.538443,14.045780,-9.930759,8.958599,2.224860,1.689710,16.944427,-21.490927,13.501643,6.719817,7.944043,28.675377,5.553661,6.698608,1.142453,-290.983215,8.975436,2.022313,12.733532,-0.981500,5.950894,-1.731876,12.590820,21.958714,8064.000000,0.000000,4.000000,,,,0.000000,4.000000,4.000000,4.000000,4.000000,4.000000,4.000000,4.000000,4.000000,4.000000,4.000000,4.000000,4.000000,4.000000,4.000000,4.000000,4.000000,4.000000,4.000000,4.000000,4.000000,4.000000,4.000000,4.000000,4.000000,4.000000,4.000000,4.000000,4.000000,4.000000,4.000000,4.000000,4.000000,100.000000
1614472915.684603,105.000000,0.000000,10.112072,11.163505,24.965956,22.415203,9.406895,5.939308,-0.747236,13.700328,12.525904,18.647120,-8.895187,7.923999,2.222635,1.175200,21.030046,-18.905333,10.924039,4.148994,-1.294671,24.031317,6.573749,6.179090,2.166952,-291.717865,8.966460,8.686957,16.310541,-1.493339,5.944943,1.859599,14.629512,19.885473,8064.000000,0.000000,4.000000,,,,0.000000,4.000000,4.000000,4.000000,4.000000,4.000000,4.000000,4.000000,4.000000,4.000000,4.000000,4.000000,4.000000,4.000000,4.000000,4.000000,4.000000,4.000000,4.000000,4.000000,4.000000,4.000000,4.000000,4.000000,4.000000,4.000000,4.000000,4.000000,4.000000,4.000000,4.000000,4.000000,4.000000,100.000000
1614472915.692453,106.000000,0.000000,10.101960,8.075418,18.787144,22.392788,8.884667,5.933369,-0.233669,13.173807,8.923635,17.602831,-0.681164,8.941716,1.194771,1.174025,22.547478,-14.783864,9.887473,10.298692,0.757906,24.007286,12.721022,6.172910,0.113503,-291.426147,10.495955,7.139809,14.242949,-0.466205,5.938999,3.396201,13.589241,4.993793,8064.000000,0.000000,4.000000,,,,0.000000,4.000000,4.000000,4.000000,4.000000,4.000000,4.000000,4.000000,4.000000,4.000000,4.000000,4.000000,4.000000,4.000000,4.000000,4.000000,4.000000,4.000000,4.000000,4.000000,4.000000,4.000000,4.000000,4.000000,4.000000,4.000000,4.000000,4.000000,4.000000,4.000000,4.000000,4.000000,4.000000,100.000000
1614472915.700203,107.000000,0.000000,10.091858,8.067343,19.793997,22.370396,10.927065,5.927435,2.330668,13.673453,11.478813,17.585228,9.575928,13.548159,3.244859,1.685671,25.601854,3.692458,11.416048,31.826855,14.603302,25.521740,17.836506,7.192379,1.651851,-283.955231,12.536742,8.158310,15.767168,1.072723,5.933060,6.469728,19.729498,12.681107,8064.000000,0.000000,4.000000,,,,0.000000,4.000000,4.000000,4.000000,4.000000,4.000000,4.000000,4.000000,4.000000,4.000000,4.000000,4.000000,4.000000,4.000000,4.000000,4.000000,4.000000,4.000000,4.000000,4.000000,4.000000,4.000000,4.000000,4.000000,4.000000,4.000000,4.000000,4.000000,4.000000,4.000000,4.000000,4.000000,4.000000,100.000000
1614472915.708053,108.000000,0.000000,10.594586,8.572096,24.902409,22.348024,16.044342,5.921508,4.379619,16.223883,17.108360,18.080463,11.617634,16.611534,8.882640,0.658345,25.063433,4.201586,11.404632,28.718105,23.306648,25.496218,18.844311,6.672366,13.957891,-281.107178,13.037025,15.842459,18.315504,4.148573,5.927126,12.104284,23.812332,20.873554,8064.000000,0.000000,4.000000,,,,0.000000,4.000000,4.000000,4.000000,4.000000,4.000000,4.000000,4.000000,4.000000,4.000000,4.000000,4.000000,4.000000,4.000000,4.000000,4.000000,4.000000,4.000000,4.000000,4.000000,4.000000,4.000000,4.000000,4.000000,4.000000,4.000000,4.000000,4.000000,4.000000,4.000000,4.000000,4.000000,4.000000,100.000000
1614472915.715803,109.000000,0.000000,10.583992,8.563524,19.749300,22.325676,15.515478,5.915586,2.836778,16.720480,17.604073,17.549562,4.939349,15.569282,9.899398,-2.932057,12.730676,-26.571846,7.803483,2.535540,14.565392,23.419439,16.774183,6.152873,23.687523,-293.646606,12.511168,16.852257,18.297188,8.246988,5.408379,14.656282,20.711597,10.083449,8064.000000,0.000000,4.000000,,,,0.000000,4.000000,4.000000,4.000000,4.000000,4.000000,4.000000,4.000000,4.000000,4.000000,4.000000,4.000000,4.000000,4.000000,4.000000,4.000000,4.000000,4.000000,4.000000,4.000000,4.000000,4.000000,4.000000,4.000000,4.000000,4.000000,4.000000,4.000000,4.000000,4.000000,4.000000,4.000000,4.000000,100.000000
1614472915.723653,110.000000,0.000000,9.547767,11.119063,22.293653,21.790531,13.448680,5.909670,3.859582,17.729401,17.073648,17.532013,5.960051,16.066532,9.889499,0.147798,15.282048,-27.570915,9.334142,12.276594,10.448262,23.396021,16.244589,10.762104,20.586912,-295.917053,16.088400,18.373867,23.407097,10.802844,6.428611,13.615985,23.254988,16.227211,8064.000000,0.000000,4.000000,,,,0.000000,4.000000,4.000000,4.000000,4.000000,4.000000,4.000000,4.000000,4.000000,4.000000,4.000000,4.000000,4.000000,4.000000,4.000000,4.000000,4.000000,4.000000,4.000000,4.000000,4.000000,4.000000,4.000000,4.000000,4.000000,4.000000,4.000000,4.000000,4.000000,4.000000,4.000000,4.000000,4.000000,100.000000
1614472915.731403,111.000000,0.000000,11.076681,12.133585,33.040592,22.281561,15.486513,5.903761,8.983928,21.301414,17.569395,17.514481,13.646399,16.563286,13.469353,10.916881,37.318047,1.687425,19.068398,36.879704,13.514737,26.449549,19.818089,14.341086,20.053505,-287.928833,20.174875,25.022160,32.614456,10.792042,8.986285,14.115190,29.385580,35.185345,8064.000000,0.000000,4.000000,,,,0.000000,4.000000,4.000000,4.000000,4.000000,4.000000,4.000000,4.000000,4.000000,4.000000,4.000000,4.000000,4.000000,4.000000,4.000000,4.000000,4.000000,4.000000,4.000000,4.000000,4.000000,4.000000,4.000000,4.000000,4.000000,4.000000,4.000000,4.000000,4.000000,4.000000,4.000000,4.000000,4.000000,100.000000
1614472915.739253,112.000000,0.000000,10.039963,9.557349,26.853704,22.259279,13.932566,6.923498,10.513405,18.716009,13.962082,18.009787,4.401983,11.418518,10.891781,10.905964,30.614063,-18.314262,19.562149,4.535131,-13.165444,17.192329,16.208527,10.224181,20.546272,-305.589600,19.129061,16.279188,33.094666,9.242788,10.002940,13.588254,21.151066,31.047594,8064.000000,0.000000,4.000000,,,,0.000000,4.000000,4.000000,4.000000,4.000000,4.000000,4.000000,4.000000,4.000000,4.000000,4.000000,4.000000,4.000000,4.000000,4.000000,4.000000,4.000000,4.000000,4.000000,4.000000,4.000000,4.000000,4.000000,4.000000,4.000000,4.000000,4.000000,4.000000,4.000000,4.000000,4.000000,4.000000,4.000000,100.000000
1614472915.747003,113.000000,0.000000,3.363256,8.009330,14.519158,20.185738,9.303248,4.865293,5.374687,9.466525,9.845555,17.991777,-12.012675,4.740433,0.624479,0.125827,1.352680,-50.603642,9.286177,-27.777098,-44.434330,1.277701,1.833343,5.598572,6.166752,-331.950684,17.058649,0.365474,22.805159,7.182263,9.992937,9.472101,5.745299,15.119111,8064.000000,0.000000,4.000000,,,,0.000000,4.000000,4.000000,4.000000,4.000000,4.000000,4.000000,4.000000,4.000000,4.000000,4.000000,4.000000,4.000000,4.000000,4.000000,4.000000,4.000000,4.000000,4.000000,4.000000,4.000000,4.000000,4.000000,4.000000,4.000000,4.000000,4.000000,4.000000,4.000000,4.000000,4.000000,4.000000,4.000000,100.000000
1614472915.754653,114.000000,0.000000,-0.742671,8.001321,12.966177,18.114269,8.268304,2.809145,2.292389,4.841674,9.835710,16.948145,-3.795535,3.710052,-1.940248,-2.438401,0.325686,-35.681240,6.712788,-2.621115,-21.312973,1.789244,3.882792,6.618614,-6.659928,-319.823883,16.015949,3.442031,18.166969,6.149440,9.982944,5.872886,1.124169,14.078350,8064.000000,0.000000,4.000000,,,,0.000000,4.000000,4.000000,4.000000,4.000000,4.000000,4.000000,4.000000,4.000000,4.000000,4.000000,4.000000,4.000000,4.000000,4.000000,4.000000,4.000000,4.000000,4.000000,4.000000,4.000000,4.000000,4.000000,4.000000,4.000000,4.000000,4.000000,4.000000,4.000000,4.000000,4.000000,4.000000,4.000000,100.000000
1614472915.762403,115.000000,0.000000,1.822174,7.993320,6.799365,18.608976,9.798497,2.293516,3.315737,6.375294,9.825874,18.469658,8.003133,4.731983,1.651435,4.230704,15.197155,-6.927612,11.834280,28.663557,8.964751,11.531044,19.263525,7.124816,-1.012242,-299.504059,17.025574,11.130897,19.687263,6.656111,8.434500,5.867013,3.687148,16.115555,8064.000000,0.000000,4.000000,,,,0.000000,4.000000,4.000000,4.000000,4.000000,4.000000,4.000000,4.000000,4.000000,4.000000,4.000000,4.000000,4.000000,4.000000,4.000000,4.000000,4.000000,4.000000,4.000000,4.000000,4.000000,4.000000,4.000000,4.000000,4.000000,4.000000,4.000000,4.000000,4.000000,4.000000,4.000000,4.000000,4.000000,100.000000
1614472915.770053,116.000000,0.000000,1.820352,7.985326,-1.925383,19.103188,9.275878,0.239940,5.876524,6.368918,9.303227,17.425547,-3.799742,4.214430,0.111322,6.277755,12.105035,-23.843761,10.283984,8.122073,-8.992931,9.981051,11.551953,6.092051,6.168257,-313.050690,17.521370,8.042843,16.590654,4.598173,6.374783,6.373966,2.657820,11.484054,8064.000000,0.000000,4.000000,,,,0.000000,4.000000,4.000000,4.000000,4.000000,4.000000,4.000000,4.000000,4.000000,4.000000,4.000000,4.000000,4.000000,4.000000,4.000000,4.000000,4.000000,4.000000,4.000000,4.000000,4.000000,4.000000,4.000000,4.000000,4.000000,4.000000,4.000000,4.000000,4.000000,4.000000,4.000000,4.000000,4.000000,100.000000
1614472915.777803,117.000000,0.000000,-1.258391,7.977341,-1.923458,15.494341,7.728141,-4.375684,7.409110,5.849729,10.319566,8.177352,-11.488250,4.210216,-1.940071,4.733016,7.477546,-31.512226,6.683957,-4.193741,-21.291632,4.330045,-5.382676,6.085958,4.623627,-327.096619,11.862823,4.957877,9.394576,2.029472,4.829947,5.854772,0.091059,4.293083,8064.000000,0.000000,4.000000,,,,0.000000,4.000000,4.000000,4.000000,4.000000,4.000000,4.000000,4.000000,4.000000,4.000000,4.000000,4.000000,4.000000,4.000000,4.000000,4.000000,4.000000,4.000000,4.000000,4.000000,4.000000,4.000000,4.000000,4.000000,4.000000,4.000000,4.000000,4.000000,4.000000,4.000000,4.000000,4.000000,4.000000,100.000000
1614472915.785452,118.000000,0.000000,-1.769953,7.969364,-6.024098,11.376283,5.156310,-6.422591,5.350418,6.356699,8.257964,2.528149,-3.271634,4.718826,1.138792,4.728283,10.546991,-5.326867,6.677273,18.374556,4.883507,4.325715,-1.787549,6.592693,4.106183,-314.461823,3.133011,4.952919,5.795438,2.027442,2.261014,6.361738,-0.934673,-1.352236,8064.000000,0.000000,4.000000,,,,0.000000,4.000000,4.000000,4.000000,4.000000,4.000000,4.000000,4.000000,4.000000,4.000000,4.000000,4.000000,4.000000,4.000000,4.000000,4.000000,4.000000,4.000000,4.000000,4.000000,4.000000,4.000000,4.000000,4.000000,4.000000,4.000000,4.000000,4.000000,4.000000,4.000000,4.000000,4.000000,4.000000,100.000000
1614472915.793302,119.000000,0.000000,-0.742542,7.961394,-8.582177,10.339265,5.663974,-4.364886,3.806606,5.837523,3.634321,7.141006,-0.704259,4.201287,2.163295,5.236375,13.613367,4.934870,7.183416,33.227974,23.340162,6.885492,6.932187,6.073280,5.127718,-303.378143,0.052955,2.896684,7.840924,2.538235,1.745933,6.355376,-0.933738,-3.402166,8064.000000,0.000000,4.000000,,,,0.000000,4.000000,4.000000,4.000000,4.000000,4.000000,4.000000,4.000000,4.000000,4.000000,4.000000,4.000000,4.000000,4.000000,4.000000,4.000000,4.000000,4.000000,4.000000,4.000000,4.000000,4.000000,4.000000,4.000000,4.000000,4.000000,4.000000,4.000000,4.000000,4.000000,4.000000,4.000000,4.000000,100.000000
1614472915.801052,120.000000,0.000000,-0.741800,7.953433,1.682816,11.354567,8.735233,-2.309239,7.392543,8.395787,1.579405,11.236428,-1.216376,5.735547,1.648311,5.231139,18.215139,-1.223911,7.176233,30.630646,17.675797,13.545273,6.925255,7.092847,5.635411,-304.100403,3.129825,1.868147,12.448468,2.022877,4.308290,6.349020,-0.932804,-3.398764,8064.000000,0.000000,4.000000,,,,0.000000,4.000000,4.000000,4.000000,4.000000,4.000000,4.000000,4.000000,4.000000,4.000000,4.000000,4.000000,4.000000,4.000000,4.000000,4.000000,4.000000,4.000000,4.000000,4.000000,4.000000,4.000000,4.000000,4.000000,4.000000,4.000000,4.000000,4.000000,4.000000,4.000000,4.000000,4.000000,4.000000,100.000000
1614472915.808902,121.000000,0.000000,-0.228238,7.945479,5.783697,11.343212,8.726499,-0.768468,11.487715,11.464314,2.603467,9.686730,0.836123,8.293914,5.236406,5.225907,19.222565,-6.863712,7.681877,20.856424,5.350428,20.198395,9.995253,9.137036,10.245160,-305.847595,4.665157,2.379099,15.000122,2.533674,5.842443,6.342671,0.093769,-2.882544,8064.000000,0.000000,4.000000,,,,0.000000,4.000000,4.000000,4.000000,4.000000,4.000000,4.000000,4.000000,4.000000,4.000000,4.000000,4.000000,4.000000,4.000000,4.000000,4.000000,4.000000,4.000000,4.000000,4.000000,4.000000,4.000000,4.000000,4.000000,4.000000,4.000000,4.000000,4.000000,4.000000,4.000000,4.000000,4.000000,4.000000,100.000000
1614472915.816652,122.000000,0.000000,-1.766471,7.937534,0.649708,10.819049,5.128028,-1.280521,10.450586,6.837466,2.600863,9.677044,-3.780098,8.798440,3.179888,4.195041,13.562316,-17.113258,4.084452,14.168901,3.293795,20.178196,14.087821,10.153541,11.773376,-303.490448,5.173312,2.376720,14.985122,2.018320,5.836600,6.336329,2.144958,-0.828380,8064.000000,0.000000,4.000000,,,,0.000000,4.000000,4.000000,4.000000,4.000000,4.000000,4.000000,4.000000,4.000000,4.000000,4.000000,4.000000,4.000000,4.000000,4.000000,4.000000,4.000000,4.000000,4.000000,4.000000,4.000000,4.000000,4.000000,4.000000,4.000000,4.000000,4.000000,4.000000,4.000000,4.000000,4.000000,4.000000,4.000000,100.000000
1614472915.824502,123.000000,0.000000,0.799398,7.929596,5.264443,11.321051,5.122900,-1.792060,9.927315,2.215244,2.085442,10.180187,-1.212215,8.276821,-1.438677,6.242127,15.600036,-8.378197,4.593188,27.488066,12.521271,20.670837,14.586555,10.143387,9.197500,-297.033112,8.757882,2.374343,14.970137,2.016302,5.317943,6.329993,4.706915,0.710910,7936.000000,0.000000,4.000000,,,,0.000000,4.000000,4.000000,4.000000,4.000000,4.000000,4.000000,4.000000,4.000000,4.000000,4.000000,4.000000,4.000000,4.000000,4.000000,4.000000,4.000000,4.000000,4.000000,4.000000,4.000000,4.000000,4.000000,4.000000,4.000000,4.000000,4.000000,4.000000,4.000000,4.000000,4.000000,4.000000,4.000000,100.000000
1614472915.832252,124.000000,0.000000,7.978086,8.434487,10.387383,12.335370,9.220342,-0.764627,10.943028,5.802772,2.596177,10.682828,8.532587,8.268544,3.690967,10.851270,19.174179,10.091720,9.716800,32.588783,4.303621,20.650167,13.546327,10.133244,8.162662,-293.146332,9.774765,2.371969,15.467987,5.604029,5.825446,6.836483,6.240670,1.223020,8064.000000,0.000000,4.000000,,,,0.000000,4.000000,4.000000,4.000000,4.000000,4.000000,4.000000,4.000000,4.000000,4.000000,4.000000,4.000000,4.000000,4.000000,4.000000,4.000000,4.000000,4.000000,4.000000,4.000000,4.000000,4.000000,4.000000,4.000000,4.000000,4.000000,4.000000,4.000000,4.000000,4.000000,4.000000,4.000000,4.000000,100.000000
1614472915.840102,125.000000,0.000000,8.482928,7.913232,2.171868,10.271752,8.698300,-1.276683,9.906445,4.771328,3.106401,10.672145,4.421490,8.773097,9.841122,12.891701,9.411415,-5.815808,9.707083,7.940810,-16.726324,15.501312,11.481498,10.123111,8.667320,-297.468567,4.636786,2.369597,15.452519,9.700990,6.332441,6.829647,7.772891,0.708976,8064.000000,0.000000,4.000000,,,,0.000000,4.000000,4.000000,4.000000,4.000000,4.000000,4.000000,4.000000,4.000000,4.000000,4.000000,4.000000,4.000000,4.000000,4.000000,4.000000,4.000000,4.000000,4.000000,4.000000,4.000000,4.000000,4.000000,4.000000,4.000000,4.000000,4.000000,4.000000,4.000000,4.000000,4.000000,4.000000,4.000000,100.000000
1614472915.847852,126.000000,0.000000,2.833420,5.341217,-5.522612,4.107635,3.561397,-6.403612,6.819615,-2.925751,3.103295,6.558908,-1.223957,8.251503,9.318460,11.853168,1.196876,-23.758711,8.158915,1.266202,-5.940366,12.921708,10.444376,10.625808,9.171473,-299.735199,1.042405,2.367227,14.924246,10.204109,4.787647,6.309997,6.739477,-2.881476,8064.000000,0.000000,4.000000,,,,0.000000,4.000000,4.000000,4.000000,4.000000,4.000000,4.000000,4.000000,4.000000,4.000000,4.000000,4.000000,4.000000,4.000000,4.000000,4.000000,4.000000,4.000000,4.000000,4.000000,4.000000,4.000000,4.000000,4.000000,4.000000,4.000000,4.000000,4.000000,4.000000,4.000000,4.000000,4.000000,4.000000,100.000000
1614472915.855702,127.000000,0.000000,2.830586,4.310234,-4.491448,-1.024678,1.506554,-8.961310,6.299975,-3.948466,2.587371,3.475427,5.956754,8.243252,11.873244,14.405417,5.811064,-8.863156,15.330242,20.239296,11.501472,18.036991,14.536495,12.666464,10.700763,-297.897003,3.605465,2.877681,14.909322,9.681084,6.321321,6.816507,4.681456,-6.468338,8064.000000,0.000000,4.000000,,,,0.000000,4.000000,4.000000,4.000000,4.000000,4.000000,4.000000,4.000000,4.000000,4.000000,4.000000,4.000000,4.000000,4.000000,4.000000,4.000000,4.000000,4.000000,4.000000,4.000000,4.000000,4.000000,4.000000,4.000000,4.000000,4.000000,4.000000,4.000000,4.000000,4.000000,4.000000,4.000000,4.000000,100.000000
1614472915.863452,0.000000,0.000000,6.930320,6.357206,-4.486957,-3.074935,2.017868,-2.285683,9.370598,2.209329,3.097604,5.523233,4.412336,8.747828,16.989576,16.442295,9.907817,-4.238909,18.904655,18.680593,-4.407466,20.070236,17.598883,14.192259,12.228524,-302.214508,6.678783,2.874803,14.894413,10.697044,13.494487,6.809690,3.138312,-6.974690,0.000000,173.000000,4.000000,,,,0.000000,4.000000,4.000000,4.000000,4.000000,4.000000,4.000000,4.000000,4.000000,4.000000,4.000000,4.000000,4.000000,4.000000,4.000000,4.000000,4.000000,4.000000,4.000000,4.000000,4.000000,4.000000,4.000000,4.000000,4.000000,4.000000,4.000000,4.000000,4.000000,4.000000,4.000000,4.000000,4.000000,100.000000
1614472915.871302,1.000000,0.000000,6.923389,8.914951,-4.482470,-3.071860,2.015850,3.357629,10.386868,3.232760,3.094507,6.543351,-5.335667,6.687799,13.895663,14.887390,8.359447,-18.080824,11.193443,6.867042,-19.274853,16.460423,17.068462,13.665246,12.729115,-309.091766,5.133643,0.307825,12.828237,7.609424,15.532274,2.700317,1.596713,-6.454895,0.000000,207.000000,4.000000,,,,0.000000,4.000000,4.000000,4.000000,4.000000,4.000000,4.000000,4.000000,4.000000,4.000000,4.000000,4.000000,4.000000,4.000000,4.000000,4.000000,4.000000,4.000000,4.000000,4.000000,4.000000,4.000000,4.000000,4.000000,4.000000,4.000000,4.000000,4.000000,4.000000,4.000000,4.000000,4.000000,4.000000,100.000000
1614472915.879052,2.000000,0.000000,5.890825,7.367575,-3.965167,-4.607250,1.501013,2.328630,10.376482,3.229527,-1.011152,4.485526,-5.330331,4.629829,9.266383,11.795580,7.325447,-21.652487,5.541224,8.398637,-10.024809,15.418322,16.538574,11.600299,12.716387,-308.782684,4.615688,-1.230944,10.764126,2.473609,10.388536,-1.917768,-0.456166,-6.961261,0.000000,207.000000,4.000000,,,,0.000000,4.000000,4.000000,4.000000,4.000000,4.000000,4.000000,4.000000,4.000000,4.000000,4.000000,4.000000,4.000000,4.000000,4.000000,4.000000,4.000000,4.000000,4.000000,4.000000,4.000000,4.000000,4.000000,4.000000,4.000000,4.000000,4.000000,4.000000,4.000000,4.000000,4.000000,4.000000,4.000000,100.000000
1614472915.886902,3.000000,0.000000,6.397755,2.744823,-7.038125,-8.192387,2.012333,1.813481,10.366105,0.662195,-5.112705,1.916938,-2.760898,4.112379,8.744296,11.783784,8.343762,-21.630835,6.561324,13.005622,0.754446,16.428545,17.034855,10.050238,7.062644,-305.396973,10.252098,-0.716892,10.753362,1.445495,8.326866,-0.890209,-0.968531,-6.441479,0.000000,171.000000,4.000000,,,,0.000000,4.000000,4.000000,4.000000,4.000000,4.000000,4.000000,4.000000,4.000000,4.000000,4.000000,4.000000,4.000000,4.000000,4.000000,4.000000,4.000000,4.000000,4.000000,4.000000,4.000000,4.000000,4.000000,4.000000,4.000000,4.000000,4.000000,4.000000,4.000000,4.000000,4.000000,4.000000,4.000000,100.000000
1614472915.894652,4.000000,0.000000,6.391357,0.177975,-11.646471,-10.748297,2.010320,2.837308,10.355739,-6.517954,-5.107592,-2.700364,0.831607,4.621087,9.248373,12.284822,15.002086,-8.788691,7.067584,24.787489,13.574204,16.924936,17.530642,10.040187,3.978659,-299.450562,14.857231,-2.254637,11.768250,2.469690,9.857001,0.136322,0.058079,-5.409397,0.000000,200.000000,4.000000,,,,0.000000,4.000000,4.000000,4.000000,4.000000,4.000000,4.000000,4.000000,4.000000,4.000000,4.000000,4.000000,4.000000,4.000000,4.000000,4.000000,4.000000,4.000000,4.000000,4.000000,4.000000,4.000000,4.000000,4.000000,4.000000,4.000000,4.000000,4.000000,4.000000,4.000000,4.000000,4.000000,4.000000,100.000000
1614472915.902502,5.000000,0.000000,6.384966,0.690618,-12.147645,-10.737548,2.008310,2.834471,10.345384,-7.537077,-4.589664,-5.261766,10.061544,4.616466,9.239124,12.272536,20.628109,14.297022,6.547695,31.429367,13.047810,16.395191,17.513111,9.517326,9.615706,-296.074188,9.714169,-4.303665,11.243661,2.467221,9.334323,-2.940738,0.058021,-6.429628,0.000000,227.000000,4.000000,,,,0.000000,4.000000,4.000000,4.000000,4.000000,4.000000,4.000000,4.000000,4.000000,4.000000,4.000000,4.000000,4.000000,4.000000,4.000000,4.000000,4.000000,4.000000,4.000000,4.000000,4.000000,4.000000,4.000000,4.000000,4.000000,4.000000,4.000000,4.000000,4.000000,4.000000,4.000000,4.000000,4.000000,100.000000
1614472915.910252,6.000000,0.000000,6.378581,0.689927,-11.109857,-9.701170,2.006302,2.831636,10.335038,-1.888514,-5.097895,-1.153940,12.102765,4.099029,8.717065,11.234623,17.530558,-1.101891,5.002686,9.346656,-7.478058,15.353154,15.444315,10.020630,11.657372,-298.855042,6.114711,-3.273720,11.232417,3.490394,8.812168,3.216049,-0.967678,-5.910378,0.000000,173.000000,4.000000,,,,0.000000,4.000000,4.000000,4.000000,4.000000,4.000000,4.000000,4.000000,4.000000,4.000000,4.000000,4.000000,4.000000,4.000000,4.000000,4.000000,4.000000,4.000000,4.000000,4.000000,4.000000,4.000000,4.000000,4.000000,4.000000,4.000000,4.000000,4.000000,4.000000,4.000000,4.000000,4.000000,4.000000,100.000000
1614472915.918102,7.000000,0.000000,6.372202,0.176417,-11.611567,-5.588904,2.004296,2.315984,10.324703,-0.860985,-5.092797,2.436957,13.629124,4.094930,8.195527,12.761849,16.487387,-22.639250,10.125889,3.696284,-2.855196,22.517288,19.018614,12.574712,7.543151,-289.325409,13.800903,-0.706344,13.785287,7.589468,9.316176,13.469243,0.058931,-2.827545,0.000000,200.000000,4.000000,,,,0.000000,4.000000,4.000000,4.000000,4.000000,4.000000,4.000000,4.000000,4.000000,4.000000,4.000000,4.000000,4.000000,4.000000,4.000000,4.000000,4.000000,4.000000,4.000000,4.000000,4.000000,4.000000,4.000000,4.000000,4.000000,4.000000,4.000000,4.000000,4.000000,4.000000,4.000000,4.000000,4.000000,100.000000
1614472915.925852,8.000000,0.000000,6.365830,0.689061,-12.112776,-2.506392,2.002291,-0.250434,10.314378,-1.372944,-4.574884,2.947341,26.436007,5.629296,13.315536,17.364471,23.650387,3.537235,20.884993,34.974640,21.763044,29.674259,24.127802,14.100598,17.792019,-270.061707,10.710179,-0.192817,15.822783,11.684443,9.306861,6.789107,-0.966769,-3.850358,0.000000,197.000000,4.000000,,,,0.000000,4.000000,4.000000,4.000000,4.000000,4.000000,4.000000,4.000000,4.000000,4.000000,4.000000,4.000000,4.000000,4.000000,4.000000,4.000000,4.000000,4.000000,4.000000,4.000000,4.000000,4.000000,4.000000,4.000000,4.000000,4.000000,4.000000,4.000000,4.000000,4.000000,4.000000,4.000000,4.000000,100.000000
1614472915.933702,9.000000,0.000000,5.846643,0.688372,-11.587843,-4.042347,2.000289,-1.788645,10.304064,2.730993,-4.570309,3.457214,28.973673,7.674949,19.456068,19.911211,28.242121,21.995235,26.505135,39.042229,16.613075,23.490738,16.924187,13.573677,31.620380,-272.355774,-6.736428,-3.269547,12.217217,9.108656,9.297554,-7.063836,-10.709393,-13.590097,0.000000,207.000000,4.000000,,,,0.000000,4.000000,4.000000,4.000000,4.000000,4.000000,4.000000,4.000000,4.000000,4.000000,4.000000,4.000000,4.000000,4.000000,4.000000,4.000000,4.000000,4.000000,4.000000,4.000000,4.000000,4.000000,4.000000,4.000000,4.000000,4.000000,4.000000,4.000000,4.000000,4.000000,4.000000,4.000000,4.000000,100.000000
1614472915.941452,10.000000,0.000000,6.353618,0.687683,-11.576255,-6.089587,1.998289,-1.274036,10.293759,6.830826,-4.565739,0.376834,18.688290,8.180095,19.436611,19.891298,26.675417,3.511702,25.452988,22.080109,2.237489,13.210836,7.676493,13.560103,22.870811,-286.442383,-13.909179,-7.368842,7.589616,-2.182504,9.288257,-9.620874,-22.493555,-21.781635,0.000000,201.000000,4.000000,,,,0.000000,4.000000,4.000000,4.000000,4.000000,4.000000,4.000000,4.000000,4.000000,4.000000,4.000000,4.000000,4.000000,4.000000,4.000000,4.000000,4.000000,4.000000,4.000000,4.000000,4.000000,4.000000,4.000000,4.000000,4.000000,4.000000,4.000000,4.000000,4.000000,4.000000,4.000000,4.000000,4.000000,100.000000
1614472915.949102,11.000000,0.000000,6.347264,0.686996,-11.564678,-7.109138,1.996290,-1.785583,10.283466,6.823995,-4.561173,-3.213287,17.643961,8.171915,16.340252,19.871408,26.648741,3.508191,25.427534,31.801619,4.286533,11.659164,12.284201,13.546543,3.360760,-286.668762,-10.305526,-8.899934,7.069206,-9.359809,8.766148,-8.072792,-21.958241,-21.247034,0.000000,193.000000,4.000000,,,,0.000000,4.000000,4.000000,4.000000,4.000000,4.000000,4.000000,4.000000,4.000000,4.000000,4.000000,4.000000,4.000000,4.000000,4.000000,4.000000,4.000000,4.000000,4.000000,4.000000,4.000000,4.000000,4.000000,4.000000,4.000000,4.000000,4.000000,4.000000,4.000000,4.000000,4.000000,4.000000,4.000000,100.000000
1614472915.956852,12.000000,0.000000,5.828096,0.686309,-9.501832,-5.563568,1.994294,-1.783797,10.273183,6.817171,-4.556612,0.892491,18.139137,7.650922,16.323912,18.313074,26.109272,4.017503,25.402107,30.231356,-4.948523,13.185966,16.374481,13.532997,-1.770805,-284.843628,-8.756759,-8.378214,8.087777,-4.222244,9.783022,-7.039078,-13.218333,-14.559120,0.000000,176.000000,4.000000,,,,0.000000,4.000000,4.000000,4.000000,4.000000,4.000000,4.000000,4.000000,4.000000,4.000000,4.000000,4.000000,4.000000,4.000000,4.000000,4.000000,4.000000,4.000000,4.000000,4.000000,4.000000,4.000000,4.000000,4.000000,4.000000,4.000000,4.000000,4.000000,4.000000,4.000000,4.000000,4.000000,4.000000,100.000000
1614472915.964502,13.000000,0.000000,8.899191,0.685622,-6.928227,-1.455440,1.992300,2.833371,10.262909,5.784713,-4.552055,7.045444,12.479972,8.156092,15.794767,18.807583,25.570341,-18.550617,24.863884,7.637022,-17.764088,14.198421,16.870926,13.519464,4.897632,-285.071594,-1.568515,-8.882656,7.566869,2.448645,12.337342,-0.878193,-8.076910,-10.441997,0.000000,210.000000,4.000000,,,,0.000000,4.000000,4.000000,4.000000,4.000000,4.000000,4.000000,4.000000,4.000000,4.000000,4.000000,4.000000,4.000000,4.000000,4.000000,4.000000,4.000000,4.000000,4.000000,4.000000,4.000000,4.000000,4.000000,4.000000,4.000000,4.000000,4.000000,4.000000,4.000000,4.000000,4.000000,4.000000,4.000000,100.000000
1614472915.972252,14.000000,0.000000,13.505676,0.684937,-8.459761,1.110118,1.990308,5.394640,10.765467,6.804569,-4.547503,7.038399,15.031595,12.763320,16.804613,21.352877,27.596054,-16.480785,24.839022,9.680667,-4.412990,16.748325,22.495081,13.505944,10.020940,-272.991669,8.689464,-7.848133,7.046482,2.446196,11.812184,3.738070,-7.556013,-9.918735,0.000000,191.000000,4.000000,,,,0.000000,4.000000,4.000000,4.000000,4.000000,4.000000,4.000000,4.000000,4.000000,4.000000,4.000000,4.000000,4.000000,4.000000,4.000000,4.000000,4.000000,4.000000,4.000000,4.000000,4.000000,4.000000,4.000000,4.000000,4.000000,4.000000,4.000000,4.000000,4.000000,4.000000,4.000000,4.000000,4.000000,100.000000
1614472915.979902,15.000000,0.000000,12.466530,0.684252,-7.938480,1.109007,1.988317,3.337964,10.754702,12.438790,-4.542955,6.518540,12.965281,15.827480,15.762168,13.126396,22.953074,-9.797637,17.121874,9.670986,7.386295,12.629014,19.908484,14.005259,12.062201,-271.693024,8.680775,-5.276182,7.552256,1.930930,9.236269,3.221512,-7.548457,-10.421636,0.000000,174.000000,4.000000,,,,0.000000,4.000000,4.000000,4.000000,4.000000,4.000000,4.000000,4.000000,4.000000,4.000000,4.000000,4.000000,4.000000,4.000000,4.000000,4.000000,4.000000,4.000000,4.000000,4.000000,4.000000,4.000000,4.000000,4.000000,4.000000,4.000000,4.000000,4.000000,4.000000,4.000000,4.000000,4.000000,4.000000,100.000000
1614472915.987652,16.000000,0.000000,7.838679,0.683568,-6.392080,0.595078,1.986329,1.796164,6.641383,12.426352,-4.538413,4.973560,3.721547,14.786012,7.541277,6.446603,16.263453,-31.326302,6.335521,-8.287403,1.737883,7.488180,11.170627,12.965612,12.050138,-286.293121,5.082350,-4.245265,7.031883,2.441819,8.714212,2.705470,-7.028088,-9.385573,0.000000,208.000000,4.000000,,,,0.000000,4.000000,4.000000,4.000000,4.000000,4.000000,4.000000,4.000000,4.000000,4.000000,4.000000,4.000000,4.000000,4.000000,4.000000,4.000000,4.000000,4.000000,4.000000,4.000000,4.000000,4.000000,4.000000,4.000000,4.000000,4.000000,4.000000,4.000000,4.000000,4.000000,4.000000,4.000000,4.000000,100.000000
1614472915.995302,17.000000,0.000000,5.779558,0.682884,-13.052355,-3.508081,1.984343,2.820009,2.532177,4.721617,-4.533874,3.430125,19.102440,15.796866,10.610659,22.850412,28.042061,-13.859077,9.406109,15.310628,13.018197,14.660178,18.338943,13.465467,11.525268,-274.211975,6.102909,-4.753840,7.537672,2.952198,9.218319,1.677123,-7.021060,-9.889009,0.000000,187.000000,4.000000,,,,0.000000,4.000000,4.000000,4.000000,4.000000,4.000000,4.000000,4.000000,4.000000,4.000000,4.000000,4.000000,4.000000,4.000000,4.000000,4.000000,4.000000,4.000000,4.000000,4.000000,4.000000,4.000000,4.000000,4.000000,4.000000,4.000000,4.000000,4.000000,4.000000,4.000000,4.000000,4.000000,4.000000,100.000000
1614472916.003152,18.000000,0.000000,6.799419,1.195022,-19.193150,-9.145598,1.982358,2.817189,3.555286,2.152793,-4.529340,7.016438,40.621799,19.883635,27.523125,38.212177,45.962738,18.975294,21.191574,48.115829,30.953896,25.927570,27.551374,14.990463,13.052204,-249.322372,6.609626,-4.749086,7.530134,2.436425,10.234741,-0.888657,-7.526859,-9.879119,0.000000,190.000000,4.000000,,,,0.000000,4.000000,4.000000,4.000000,4.000000,4.000000,4.000000,4.000000,4.000000,4.000000,4.000000,4.000000,4.000000,4.000000,4.000000,4.000000,4.000000,4.000000,4.000000,4.000000,4.000000,4.000000,4.000000,4.000000,4.000000,4.000000,4.000000,4.000000,4.000000,4.000000,4.000000,4.000000,4.000000,100.000000
1614472916.010902,19.000000,0.000000,6.792620,0.681006,-10.968827,-9.136453,1.980376,2.814372,3.038910,8.304486,-4.524811,4.445319,27.760666,19.350929,25.957140,24.327812,40.275749,4.597345,22.196024,33.708740,16.563969,22.311899,19.831514,10.360088,13.551972,-262.406372,5.577376,-4.231516,7.522604,0.382707,8.686046,-0.887768,-7.519332,-6.279497,0.000000,201.000000,4.000000,,,,0.000000,4.000000,4.000000,4.000000,4.000000,4.000000,4.000000,4.000000,4.000000,4.000000,4.000000,4.000000,4.000000,4.000000,4.000000,4.000000,4.000000,4.000000,4.000000,4.000000,4.000000,4.000000,4.000000,4.000000,4.000000,4.000000,4.000000,4.000000,4.000000,4.000000,4.000000,4.000000,4.000000,100.000000
1614472916.018752,20.000000,0.000000,5.247366,0.167505,-0.188628,-4.511932,1.978395,1.785917,2.010230,10.860285,-4.520286,2.389592,14.912392,17.793118,13.623491,14.559895,29.466242,-27.714945,20.122545,18.803236,-2.939775,14.597279,16.221939,4.708703,7.384574,-279.067047,5.571798,-4.740105,8.540722,-2.694599,5.087615,-0.886880,-7.511813,-2.683473,0.000000,176.000000,4.000000,,,,0.000000,4.000000,4.000000,4.000000,4.000000,4.000000,4.000000,4.000000,4.000000,4.000000,4.000000,4.000000,4.000000,4.000000,4.000000,4.000000,4.000000,4.000000,4.000000,4.000000,4.000000,4.000000,4.000000,4.000000,4.000000,4.000000,4.000000,4.000000,4.000000,4.000000,4.000000,4.000000,4.000000,100.000000
1614472916.026502,21.000000,0.000000,5.754939,1.192978,-0.188439,1.646426,1.976417,1.784131,10.726169,9.310963,-4.515766,19.310280,34.897480,23.416349,22.840637,30.442770,40.718826,-4.610307,28.307552,48.528023,14.499062,25.351912,26.974949,11.883481,3.274626,-260.326447,5.566226,-4.735365,12.634746,0.385019,11.749195,-1.911634,-7.504301,-2.167969,0.000000,192.000000,4.000000,,,,0.000000,4.000000,4.000000,4.000000,4.000000,4.000000,4.000000,4.000000,4.000000,4.000000,4.000000,4.000000,4.000000,4.000000,4.000000,4.000000,4.000000,4.000000,4.000000,4.000000,4.000000,4.000000,4.000000,4.000000,4.000000,4.000000,4.000000,4.000000,4.000000,4.000000,4.000000,4.000000,4.000000,100.000000
1614472916.034352,22.000000,0.000000,7.800466,0.678965,-1.213892,7.285805,1.974441,4.346449,17.894930,9.814472,-4.511250,32.111481,41.529247,25.957035,27.946001,34.514893,44.780674,8.727637,29.817705,54.633343,29.869179,35.070148,28.486435,17.512623,11.476480,-248.271240,5.560660,-4.217809,16.724674,6.025659,17.891293,-0.371261,-7.496797,-1.652981,0.000000,216.000000,4.000000,,,,0.000000,4.000000,4.000000,4.000000,4.000000,4.000000,4.000000,4.000000,4.000000,4.000000,4.000000,4.000000,4.000000,4.000000,4.000000,4.000000,4.000000,4.000000,4.000000,4.000000,4.000000,4.000000,4.000000,4.000000,4.000000,4.000000,4.000000,4.000000,4.000000,4.000000,4.000000,4.000000,4.000000,100.000000
1614472916.042102,23.000000,0.000000,2.664460,-4.449919,-0.187037,8.304160,1.972466,-1.811743,8.133445,8.779016,-4.506739,16.694756,14.308232,13.623386,7.405235,17.557301,20.633327,-23.588783,11.326349,22.271015,3.685463,17.599182,13.586153,3.648957,16.080387,-267.510162,5.555099,-6.264874,12.605386,3.455531,5.565708,-0.883710,-7.489300,-4.215431,0.000000,187.000000,4.000000,,,,0.000000,4.000000,4.000000,4.000000,4.000000,4.000000,4.000000,4.000000,4.000000,4.000000,4.000000,4.000000,4.000000,4.000000,4.000000,4.000000,4.000000,4.000000,4.000000,4.000000,4.000000,4.000000,4.000000,4.000000,4.000000,4.000000,4.000000,4.000000,4.000000,4.000000,4.000000,4.000000,4.000000,100.000000
1614472916.049952,24.000000,0.000000,-1.440768,-6.496752,-0.186850,7.783036,1.970494,-11.040701,-2.131099,6.206135,-5.015053,1.293445,-5.193256,2.840532,-4.909863,8.821794,2.663977,-44.590836,-2.018310,-2.366640,-22.472069,-1.905596,3.316157,-6.098282,2.730973,-279.550323,5.549545,-8.822711,4.900473,-1.163309,-5.721909,-4.985391,-7.994631,-11.903522,0.000000,187.000000,4.000000,,,,0.000000,4.000000,4.000000,4.000000,4.000000,4.000000,4.000000,4.000000,4.000000,4.000000,4.000000,4.000000,4.000000,4.000000,4.000000,4.000000,4.000000,4.000000,4.000000,4.000000,4.000000,4.000000,4.000000,4.000000,4.000000,4.000000,4.000000,4.000000,4.000000,4.000000,4.000000,4.000000,4.000000,100.000000
1614472916.057702,25.000000,0.000000,7.278622,-2.387691,-0.699484,8.800894,1.968523,-6.414276,0.947956,6.199929,-3.984396,1.804972,-3.136781,4.888974,3.300175,11.889895,2.661313,-36.341118,7.727298,3.276752,-13.218827,7.327079,7.415405,5.189868,-2.399963,-274.142578,5.543995,-7.275427,5.408393,4.991700,1.463300,0.147800,-6.960996,-14.455722,0.000000,191.000000,4.000000,,,,0.000000,4.000000,4.000000,4.000000,4.000000,4.000000,4.000000,4.000000,4.000000,4.000000,4.000000,4.000000,4.000000,4.000000,4.000000,4.000000,4.000000,4.000000,4.000000,4.000000,4.000000,4.000000,4.000000,4.000000,4.000000,4.000000,4.000000,4.000000,4.000000,4.000000,4.000000,4.000000,4.000000,100.000000
1614472916.065552,26.000000,0.000000,12.912369,1.204441,-1.211604,5.202349,1.966555,2.310087,4.023931,5.680909,-1.929130,2.828808,-2.620823,7.961008,6.886619,11.878005,4.197113,-32.202209,17.975981,11.478603,2.691827,21.165905,15.100297,15.441089,11.961411,-273.355621,5.538451,-4.704049,10.531190,14.217478,6.077221,8.865601,-4.389932,-11.364343,0.000000,193.000000,4.000000,,,,0.000000,4.000000,4.000000,4.000000,4.000000,4.000000,4.000000,4.000000,4.000000,4.000000,4.000000,4.000000,4.000000,4.000000,4.000000,4.000000,4.000000,4.000000,4.000000,4.000000,4.000000,4.000000,4.000000,4.000000,4.000000,4.000000,4.000000,4.000000,4.000000,4.000000,4.000000,4.000000,4.000000,100.000000
1614472916.073302,27.000000,0.000000,4.181508,0.690416,-0.184752,0.581762,1.964588,-0.256325,-0.082657,5.675228,-0.901560,5.902902,-3.643843,6.927406,3.802809,10.327665,8.808301,-32.682831,16.932364,14.544048,2.689136,19.093458,16.623659,13.374365,21.693041,-273.595093,5.532913,-4.186524,11.546300,13.177619,1.968580,6.292633,-5.411183,-10.327337,0.000000,185.000000,4.000000,,,,0.000000,4.000000,4.000000,4.000000,4.000000,4.000000,4.000000,4.000000,4.000000,4.000000,4.000000,4.000000,4.000000,4.000000,4.000000,4.000000,4.000000,4.000000,4.000000,4.000000,4.000000,4.000000,4.000000,4.000000,4.000000,4.000000,4.000000,4.000000,4.000000,4.000000,4.000000,4.000000,4.000000,100.000000
1614472916.081152,28.000000,0.000000,3.151685,0.176905,1.866715,2.632463,1.962624,-2.307351,-1.621036,10.797758,-0.900658,12.050845,-0.563276,7.433299,4.311827,11.342979,21.107185,-32.137325,16.402611,15.042325,2.173626,20.612825,16.094213,12.335350,18.594423,-268.193268,5.527380,-5.207979,10.509112,9.061877,4.017894,-0.893147,-7.457054,-9.804190,0.000000,178.000000,4.000000,,,,0.000000,4.000000,4.000000,4.000000,4.000000,4.000000,4.000000,4.000000,4.000000,4.000000,4.000000,4.000000,4.000000,4.000000,4.000000,4.000000,4.000000,4.000000,4.000000,4.000000,4.000000,4.000000,4.000000,4.000000,4.000000,4.000000,4.000000,4.000000,4.000000,4.000000,4.000000,4.000000,4.000000,100.000000
1614472916.088902,29.000000,0.000000,9.302380,1.202369,3.403310,7.245215,1.447840,1.797521,1.970328,16.940805,-0.899758,13.577256,0.462928,7.425866,5.333156,10.818815,27.239923,-28.515446,17.924669,19.642668,2.684273,27.258879,16.590940,14.887117,18.575829,-264.848175,5.521852,-4.689950,11.011424,9.565637,9.654902,1.159028,-4.372674,-5.691822,0.000000,196.000000,4.000000,,,,0.000000,4.000000,4.000000,4.000000,4.000000,4.000000,4.000000,4.000000,4.000000,4.000000,4.000000,4.000000,4.000000,4.000000,4.000000,4.000000,4.000000,4.000000,4.000000,4.000000,4.000000,4.000000,4.000000,4.000000,4.000000,4.000000,4.000000,4.000000,4.000000,4.000000,4.000000,4.000000,4.000000,100.000000
1614472916.096752,30.000000,0.000000,2.113590,0.688346,2.374265,7.237969,2.472034,1.795723,3.506820,15.385404,-0.898858,15.614961,9.180413,8.444081,5.327823,11.833638,26.187042,-14.640776,17.393925,34.494820,1.655947,22.616236,16.574350,13.333768,20.095715,-265.096130,5.516330,-4.685260,11.513233,10.068892,9.645247,3.721971,-0.265737,-2.096386,0.000000,190.000000,4.000000,,,,0.000000,4.000000,4.000000,4.000000,4.000000,4.000000,4.000000,4.000000,4.000000,4.000000,4.000000,4.000000,4.000000,4.000000,4.000000,4.000000,4.000000,4.000000,4.000000,4.000000,4.000000,4.000000,4.000000,4.000000,4.000000,4.000000,4.000000,4.000000,4.000000,4.000000,4.000000,4.000000,4.000000,100.000000
1614472916.104502,31.000000,0.000000,-2.503908,0.174837,2.371891,7.230731,5.033664,-1.282996,2.990492,13.318736,-0.897959,20.727551,25.581490,12.538201,5.322495,16.437189,26.160856,0.245660,17.889351,46.768017,12.423522,16.952595,17.583416,10.756332,17.511517,-260.728485,6.023634,-5.193396,10.988899,9.546001,8.609961,2.692608,0.247349,-1.581469,0.000000,180.000000,4.000000,,,,0.000000,4.000000,4.000000,4.000000,4.000000,4.000000,4.000000,4.000000,4.000000,4.000000,4.000000,4.000000,4.000000,4.000000,4.000000,4.000000,4.000000,4.000000,4.000000,4.000000,4.000000,4.000000,4.000000,4.000000,4.000000,4.000000,4.000000,4.000000,4.000000,4.000000,4.000000,4.000000,4.000000,100.000000
1614472916.112352,32.000000,0.000000,3.652442,0.687483,3.907981,9.274783,5.541451,-1.281713,3.500322,13.305418,1.154221,18.142721,28.632832,16.115406,5.317173,21.036137,27.673157,2.809517,17.871462,44.669968,17.026484,15.397180,18.078653,9.719934,15.442723,-258.416473,6.530432,-3.649741,11.490730,10.049276,9.114171,3.202736,0.247102,-2.605529,8064.000000,0.000000,4.000000,,,,0.000000,4.000000,4.000000,4.000000,4.000000,4.000000,4.000000,4.000000,4.000000,4.000000,4.000000,4.000000,4.000000,4.000000,4.000000,4.000000,4.000000,4.000000,4.000000,4.000000,4.000000,4.000000,4.000000,4.000000,4.000000,4.000000,4.000000,4.000000,4.000000,4.000000,4.000000,4.000000,4.000000,100.000000
1614472916.120102,33.000000,0.000000,6.212892,0.173975,2.878432,7.214226,5.535910,-1.793252,2.984002,12.779292,3.204349,10.945091,16.296507,15.073650,5.311855,18.963818,26.619843,-0.270216,11.699744,32.317604,-0.426441,5.125372,11.393909,7.658933,16.452921,-263.286255,4.985440,-2.107630,10.966419,9.526406,9.105057,2.686713,0.246855,-3.115744,8064.000000,0.000000,4.000000,,,,0.000000,4.000000,4.000000,4.000000,4.000000,4.000000,4.000000,4.000000,4.000000,4.000000,4.000000,4.000000,4.000000,4.000000,4.000000,4.000000,4.000000,4.000000,4.000000,4.000000,4.000000,4.000000,4.000000,4.000000,4.000000,4.000000,4.000000,4.000000,4.000000,4.000000,4.000000,4.000000,4.000000,100.000000
1614472916.127952,34.000000,0.000000,9.283602,0.173801,2.875553,8.232653,7.068835,-0.765817,3.493838,14.817795,2.688324,8.370044,10.126364,15.571397,9.409107,18.432034,25.054760,-0.269945,10.149583,26.644260,-6.067040,2.556145,10.356874,5.599992,15.410828,-261.484497,6.518916,-1.079881,10.955453,10.029700,9.095951,3.196847,0.246608,0.477116,8064.000000,0.000000,4.000000,,,,0.000000,4.000000,4.000000,4.000000,4.000000,4.000000,4.000000,4.000000,4.000000,4.000000,4.000000,4.000000,4.000000,4.000000,4.000000,4.000000,4.000000,4.000000,4.000000,4.000000,4.000000,4.000000,4.000000,4.000000,4.000000,4.000000,4.000000,4.000000,4.000000,4.000000,4.000000,4.000000,4.000000,100.000000
1614472916.135702,35.000000,0.000000,15.940985,3.763371,10.564985,17.968010,9.113049,1.799051,6.567267,19.418362,2.685636,9.900135,14.218801,15.043005,13.502262,20.464884,26.568167,1.781607,16.293280,30.207361,11.374925,19.989487,17.013184,5.594392,14.882596,-255.582001,9.589320,2.510943,11.457318,13.096594,8.574035,3.706470,0.246361,5.092023,8064.000000,0.000000,4.000000,,,,0.000000,4.000000,4.000000,4.000000,4.000000,4.000000,4.000000,4.000000,4.000000,4.000000,4.000000,4.000000,4.000000,4.000000,4.000000,4.000000,4.000000,4.000000,4.000000,4.000000,4.000000,4.000000,4.000000,4.000000,4.000000,4.000000,4.000000,4.000000,4.000000,4.000000,4.000000,4.000000,4.000000,100.000000
1614472916.143552,36.000000,0.000000,8.745557,7.862171,15.169806,16.924400,9.103935,-0.766851,3.996598,18.886122,3.708591,8.351773,5.999454,5.284372,10.411838,13.777752,24.490316,-13.091969,14.738524,17.356640,5.722524,17.918215,7.252580,5.075977,15.893354,-266.608459,5.477166,2.508432,8.881759,10.006575,9.078281,-1.938262,-3.343629,2.010008,8064.000000,0.000000,4.000000,,,,0.000000,4.000000,4.000000,4.000000,4.000000,4.000000,4.000000,4.000000,4.000000,4.000000,4.000000,4.000000,4.000000,4.000000,4.000000,4.000000,4.000000,4.000000,4.000000,4.000000,4.000000,4.000000,4.000000,4.000000,4.000000,4.000000,4.000000,4.000000,4.000000,4.000000,4.000000,4.000000,4.000000,100.000000
1614472916.151302,37.000000,0.000000,-1.519599,8.367129,4.385405,0.497220,7.556370,-4.868648,-4.212527,16.815954,0.115139,-6.015553,-17.083467,-9.592707,2.709118,-0.082179,10.619673,-45.386570,1.903273,-12.404306,-26.590891,-7.227909,-10.190570,1.993978,10.749256,-289.418793,-6.323183,-6.724846,3.744671,-2.311125,9.069203,-10.654272,-8.981311,-5.684310,8064.000000,0.000000,4.000000,,,,0.000000,4.000000,4.000000,4.000000,4.000000,4.000000,4.000000,4.000000,4.000000,4.000000,4.000000,4.000000,4.000000,4.000000,4.000000,4.000000,4.000000,4.000000,4.000000,4.000000,4.000000,4.000000,4.000000,4.000000,4.000000,4.000000,4.000000,4.000000,4.000000,4.000000,4.000000,4.000000,4.000000,100.000000
1614472916.158952,38.000000,0.000000,3.610126,7.845942,-5.362571,-7.708405,4.471890,-5.376600,-8.823699,16.286318,-3.474720,-20.881332,-30.399717,-13.172858,0.655127,-5.210302,1.891105,-58.161697,-2.714015,-15.981646,-35.282249,-8.246322,-5.052174,1.479163,-5.158929,-292.719116,-12.470706,-12.359147,2.715286,-11.026762,8.034493,-13.207721,-12.049253,-7.217087,8064.000000,0.000000,4.000000,,,,0.000000,4.000000,4.000000,4.000000,4.000000,4.000000,4.000000,4.000000,4.000000,4.000000,4.000000,4.000000,4.000000,4.000000,4.000000,4.000000,4.000000,4.000000,4.000000,4.000000,4.000000,4.000000,4.000000,4.000000,4.000000,4.000000,4.000000,4.000000,4.000000,4.000000,4.000000,4.000000,4.000000,100.000000
1614472916.166702,39.000000,0.000000,10.786003,8.350917,0.283818,-1.034030,4.980239,-6.396864,-9.327696,15.244390,-2.958425,-9.578400,-17.548805,-1.364813,3.218574,1.974395,13.171265,-38.616356,3.442546,14.290747,-6.016197,14.838847,10.850314,5.580248,-12.333257,-271.913574,-2.714645,-7.731403,3.738211,-8.451632,9.564920,-13.194512,-12.550024,-5.671408,8064.000000,0.000000,4.000000,,,,0.000000,4.000000,4.000000,4.000000,4.000000,4.000000,4.000000,4.000000,4.000000,4.000000,4.000000,4.000000,4.000000,4.000000,4.000000,4.000000,4.000000,4.000000,4.000000,4.000000,4.000000,4.000000,4.000000,4.000000,4.000000,4.000000,4.000000,4.000000,4.000000,4.000000,4.000000,4.000000,4.000000,100.000000
1614472916.174552,40.000000,0.000000,9.749576,8.342566,9.001483,1.531106,12.154746,-0.749442,-5.728625,20.870173,-0.391364,17.097845,11.699512,16.072449,4.753817,13.767293,27.004248,-18.577740,6.516026,36.840557,22.194948,27.131701,16.993309,9.677232,-0.013232,-254.205750,12.159864,-4.133928,2.708832,2.838870,14.170740,-8.565933,-6.383627,-6.178557,8064.000000,0.000000,4.000000,,,,0.000000,4.000000,4.000000,4.000000,4.000000,4.000000,4.000000,4.000000,4.000000,4.000000,4.000000,4.000000,4.000000,4.000000,4.000000,4.000000,4.000000,4.000000,4.000000,4.000000,4.000000,4.000000,4.000000,4.000000,4.000000,4.000000,4.000000,4.000000,4.000000,4.000000,4.000000,4.000000,4.000000,100.000000
1614472916.182302,41.000000,0.000000,9.227006,7.821403,10.018122,-0.521707,17.270796,13.097462,6.584796,30.592892,-0.903793,26.311518,35.277557,25.799967,4.749063,24.522757,31.079807,-9.328392,6.509510,40.393463,30.377880,32.745594,23.130163,9.667555,13.832935,-249.336166,20.865654,-5.155435,3.731764,12.579621,16.720671,2.724684,6.956089,-6.685199,8064.000000,0.000000,4.000000,,,,0.000000,4.000000,4.000000,4.000000,4.000000,4.000000,4.000000,4.000000,4.000000,4.000000,4.000000,4.000000,4.000000,4.000000,4.000000,4.000000,4.000000,4.000000,4.000000,4.000000,4.000000,4.000000,4.000000,4.000000,4.000000,4.000000,4.000000,4.000000,4.000000,4.000000,4.000000,4.000000,4.000000,100.000000
1614472916.189952,42.000000,0.000000,10.243420,7.813581,9.495283,-0.008365,16.227884,14.110005,14.783340,29.536657,-1.928530,23.721104,37.806381,26.286987,5.257134,28.600798,35.151291,-3.678038,6.503001,40.353069,25.732119,33.738491,23.619852,9.657887,16.383205,-250.625290,21.357609,-3.098998,8.856237,14.105503,16.703951,8.362985,11.051698,-6.165694,8192.000000,0.000000,4.000000,,,,0.000000,4.000000,4.000000,4.000000,4.000000,4.000000,4.000000,4.000000,4.000000,4.000000,4.000000,4.000000,4.000000,4.000000,4.000000,4.000000,4.000000,4.000000,4.000000,4.000000,4.000000,4.000000,4.000000,4.000000,4.000000,4.000000,4.000000,4.000000,4.000000,4.000000,4.000000,4.000000,4.000000,100.000000
1614472916.197702,43.000000,0.000000,9.720356,7.805768,9.998609,0.504464,16.211657,6.403587,12.204453,27.455839,-0.388140,25.235844,25.973703,26.260700,5.251877,23.443991,36.141781,-4.187181,5.470857,36.722973,19.552540,21.909880,12.314181,12.212332,15.341181,-253.964417,18.259327,-0.531796,11.411484,12.552936,16.174427,6.303339,5.912440,-6.159528,8192.000000,0.000000,4.000000,,,,0.000000,4.000000,4.000000,4.000000,4.000000,4.000000,4.000000,4.000000,4.000000,4.000000,4.000000,4.000000,4.000000,4.000000,4.000000,4.000000,4.000000,4.000000,4.000000,4.000000,4.000000,4.000000,4.000000,4.000000,4.000000,4.000000,4.000000,4.000000,4.000000,4.000000,4.000000,4.000000,4.000000,100.000000
1614472916.205352,44.000000,0.000000,10.223456,8.310782,10.501431,0.503960,17.221087,6.910005,10.653788,38.710434,1.663530,23.159325,24.409267,26.747259,5.246625,22.907726,38.156921,1.970853,10.593591,46.942657,27.225294,22.400791,11.276227,13.738581,15.838660,-251.146347,13.625684,-0.018444,11.400072,14.591665,16.158253,7.322677,3.342426,-6.153368,8064.000000,0.000000,4.000000,,,,0.000000,4.000000,4.000000,4.000000,4.000000,4.000000,4.000000,4.000000,4.000000,4.000000,4.000000,4.000000,4.000000,4.000000,4.000000,4.000000,4.000000,4.000000,4.000000,4.000000,4.000000,4.000000,4.000000,4.000000,4.000000,4.000000,4.000000,4.000000,4.000000,4.000000,4.000000,4.000000,4.000000,100.000000
1614472916.213102,45.000000,0.000000,9.700412,7.789651,9.978108,0.503456,15.152583,9.980018,10.643134,40.210186,3.200328,15.443858,31.564346,26.207691,5.241379,29.551485,47.862354,13.250934,17.762486,69.459816,41.044224,36.737366,20.495720,13.724843,16.335642,-244.741348,12.586417,-0.531246,13.439955,13.551433,16.654915,5.776893,1.287801,-6.147215,8192.000000,0.000000,4.000000,,,,0.000000,4.000000,4.000000,4.000000,4.000000,4.000000,4.000000,4.000000,4.000000,4.000000,4.000000,4.000000,4.000000,4.000000,4.000000,4.000000,4.000000,4.000000,4.000000,4.000000,4.000000,4.000000,4.000000,4.000000,4.000000,4.000000,4.000000,4.000000,4.000000,4.000000,4.000000,4.000000,4.000000,100.000000
1614472916.220752,46.000000,0.000000,7.639430,5.730579,9.968130,-0.009868,12.573328,6.380294,3.965824,24.785360,2.684307,12.351491,20.250731,25.668663,5.236137,24.906549,40.122185,-4.711036,13.129337,51.954460,21.516001,29.521139,14.321378,12.172656,15.806486,-256.291473,13.599471,-4.120458,15.477797,6.871214,16.125439,-2.434012,-3.328871,-6.141068,8064.000000,0.000000,4.000000,,,,0.000000,4.000000,4.000000,4.000000,4.000000,4.000000,4.000000,4.000000,4.000000,4.000000,4.000000,4.000000,4.000000,4.000000,4.000000,4.000000,4.000000,4.000000,4.000000,4.000000,4.000000,4.000000,4.000000,4.000000,4.000000,4.000000,4.000000,4.000000,4.000000,4.000000,4.000000,4.000000,4.000000,100.000000
1614472916.228502,47.000000,0.000000,6.093328,4.186387,9.958162,1.015783,12.047934,4.835452,-1.679168,18.093908,2.681623,12.851960,0.230480,25.642996,5.230901,12.573951,19.056421,-31.372992,3.372618,19.594814,-10.813209,6.414695,0.973723,10.109201,12.713757,-278.599304,8.970488,-7.706081,14.949498,1.736138,9.955467,-4.995681,-3.838363,-6.134927,8192.000000,0.000000,4.000000,,,,0.000000,4.000000,4.000000,4.000000,4.000000,4.000000,4.000000,4.000000,4.000000,4.000000,4.000000,4.000000,4.000000,4.000000,4.000000,4.000000,4.000000,4.000000,4.000000,4.000000,4.000000,4.000000,4.000000,4.000000,4.000000,4.000000,4.000000,4.000000,4.000000,4.000000,4.000000,4.000000,4.000000,100.000000
1614472916.236152,48.000000,0.000000,6.087235,3.669380,9.948204,5.630152,12.548707,5.856257,-1.164668,23.716839,3.191762,12.839108,7.409736,25.617352,5.225670,13.587018,21.088646,-19.546747,5.420528,28.293169,-6.699831,5.382639,3.536852,9.586271,8.598478,-273.705322,7.423055,-8.211196,14.421728,1.734402,5.842947,-2.426582,-4.347345,-6.128792,8064.000000,0.000000,4.000000,,,,0.000000,4.000000,4.000000,4.000000,4.000000,4.000000,4.000000,4.000000,4.000000,4.000000,4.000000,4.000000,4.000000,4.000000,4.000000,4.000000,4.000000,4.000000,4.000000,4.000000,4.000000,4.000000,4.000000,4.000000,4.000000,4.000000,4.000000,4.000000,4.000000,4.000000,4.000000,4.000000,4.000000,100.000000
1614472916.243902,49.000000,0.000000,6.081148,4.178532,9.938256,8.188624,12.536158,5.850401,-0.650683,23.693123,2.162929,13.851911,26.376686,25.591734,5.220445,21.778559,31.836788,-1.065661,11.056133,59.546925,24.588921,16.146488,12.251264,9.576686,7.564239,-258.046997,12.543838,-9.741446,14.407307,2.245488,7.888387,-0.885694,-3.317357,-4.071381,8064.000000,0.000000,4.000000,,,,0.000000,4.000000,4.000000,4.000000,4.000000,4.000000,4.000000,4.000000,4.000000,4.000000,4.000000,4.000000,4.000000,4.000000,4.000000,4.000000,4.000000,4.000000,4.000000,4.000000,4.000000,4.000000,4.000000,4.000000,4.000000,4.000000,4.000000,4.000000,4.000000,4.000000,4.000000,4.000000,4.000000,100.000000
1614472916.251552,50.000000,0.000000,6.075067,4.174353,9.928318,8.180435,12.523622,5.844551,-1.162853,19.566866,3.186407,11.786777,19.170822,25.566143,5.215224,15.090114,20.522902,-20.038954,9.506616,38.461739,11.743818,11.002136,11.726192,9.567109,8.069495,-271.122284,10.992832,-6.654782,14.905720,1.730422,9.418960,3.217756,-0.237116,-2.016028,8064.000000,0.000000,4.000000,,,,0.000000,4.000000,4.000000,4.000000,4.000000,4.000000,4.000000,4.000000,4.000000,4.000000,4.000000,4.000000,4.000000,4.000000,4.000000,4.000000,4.000000,4.000000,4.000000,4.000000,4.000000,4.000000,4.000000,4.000000,4.000000,4.000000,4.000000,4.000000,4.000000,4.000000,4.000000,4.000000,4.000000,100.000000
1614472916.259402,51.000000,0.000000,6.068992,4.170178,9.918389,7.659434,12.511098,5.325886,-1.161690,19.034477,5.234503,6.133964,1.202933,25.540577,5.210009,5.844254,8.194686,-41.044556,6.420186,6.628405,-20.062798,0.221903,8.124722,9.557542,8.061426,-285.210114,5.853634,1.557001,12.839532,1.728691,8.383900,7.829922,-3.313802,-2.526832,8064.000000,0.000000,4.000000,,,,0.000000,4.000000,4.000000,4.000000,4.000000,4.000000,4.000000,4.000000,4.000000,4.000000,4.000000,4.000000,4.000000,4.000000,4.000000,4.000000,4.000000,4.000000,4.000000,4.000000,4.000000,4.000000,4.000000,4.000000,4.000000,4.000000,4.000000,4.000000,4.000000,4.000000,4.000000,4.000000,4.000000,100.000000
1614472916.267152,52.000000,0.000000,6.062923,4.166008,8.882830,8.164596,12.498587,2.756458,-0.647707,20.553905,5.229269,7.666292,0.176089,25.515036,5.717620,7.889692,10.237773,-39.977871,4.875304,15.339725,-8.247863,0.221681,9.655059,10.060804,7.540544,-268.514648,6.360601,-0.495838,8.211308,2.239783,9.401157,5.770811,-12.028438,-2.524305,8064.000000,0.000000,4.000000,,,,0.000000,4.000000,4.000000,4.000000,4.000000,4.000000,4.000000,4.000000,4.000000,4.000000,4.000000,4.000000,4.000000,4.000000,4.000000,4.000000,4.000000,4.000000,4.000000,4.000000,4.000000,4.000000,4.000000,4.000000,4.000000,4.000000,4.000000,4.000000,4.000000,4.000000,4.000000,4.000000,4.000000,100.000000
1614472916.275002,53.000000,0.000000,6.569680,4.161842,6.822665,8.156431,12.998909,1.728060,-0.647060,20.533352,2.659937,11.248369,3.252836,26.515162,5.199081,8.907444,11.765997,-39.425072,4.357608,24.555155,16.888590,2.272742,10.158224,7.999462,8.045824,-253.374344,-1.850888,-8.187650,6.664635,2.237543,6.827653,2.175296,-16.631794,-3.034601,8064.000000,0.000000,4.000000,,,,0.000000,4.000000,4.000000,4.000000,4.000000,4.000000,4.000000,4.000000,4.000000,4.000000,4.000000,4.000000,4.000000,4.000000,4.000000,4.000000,4.000000,4.000000,4.000000,4.000000,4.000000,4.000000,4.000000,4.000000,4.000000,4.000000,4.000000,4.000000,4.000000,4.000000,4.000000,4.000000,4.000000,100.000000
1614472916.282752,54.000000,0.000000,6.050290,4.157681,4.251740,7.122633,10.934628,2.239152,-0.646413,18.974356,2.144456,2.006351,-0.852981,25.463005,5.193882,4.795972,10.728590,-32.206161,1.789148,25.043421,12.769137,0.219187,8.609605,5.427360,8.550598,-262.864563,-15.695190,-3.564077,7.170791,2.235306,1.692621,0.634659,-15.589520,-3.031567,8064.000000,0.000000,4.000000,,,,0.000000,4.000000,4.000000,4.000000,4.000000,4.000000,4.000000,4.000000,4.000000,4.000000,4.000000,4.000000,4.000000,4.000000,4.000000,4.000000,4.000000,4.000000,4.000000,4.000000,4.000000,4.000000,4.000000,4.000000,4.000000,4.000000,4.000000,4.000000,4.000000,4.000000,4.000000,4.000000,4.000000,100.000000
1614472916.290602,55.000000,0.000000,6.044240,4.153523,2.709027,4.551408,6.308309,2.236913,-0.645766,16.391279,3.167953,-4.662322,2.224795,25.437544,5.701509,5.303997,17.384527,-8.071390,2.300179,49.633762,15.320471,0.731788,9.626637,6.447574,7.516407,-266.191437,-9.525649,3.618974,7.163620,2.233071,1.178107,-0.391616,-14.035469,-1.490074,8064.000000,0.000000,4.000000,,,,0.000000,4.000000,4.000000,4.000000,4.000000,4.000000,4.000000,4.000000,4.000000,4.000000,4.000000,4.000000,4.000000,4.000000,4.000000,4.000000,4.000000,4.000000,4.000000,4.000000,4.000000,4.000000,4.000000,4.000000,4.000000,4.000000,4.000000,4.000000,4.000000,4.000000,4.000000,4.000000,4.000000,100.000000
1614472916.298352,56.000000,0.000000,7.063837,4.149369,2.706318,3.521216,4.250718,2.747497,0.380520,16.374887,2.651964,2.521828,7.350775,26.950567,4.157346,8.375616,24.546631,-6.012037,5.374802,60.866180,23.510279,3.807979,9.104189,6.441126,8.021711,-265.412445,6.381312,-1.000030,7.669277,2.230837,2.202570,-0.391225,-14.534255,-2.514225,8192.000000,0.000000,4.000000,,,,0.000000,4.000000,4.000000,4.000000,4.000000,4.000000,4.000000,4.000000,4.000000,4.000000,4.000000,4.000000,4.000000,4.000000,4.000000,4.000000,4.000000,4.000000,4.000000,4.000000,4.000000,4.000000,4.000000,4.000000,4.000000,4.000000,4.000000,4.000000,4.000000,4.000000,4.000000,4.000000,4.000000,100.000000
1614472916.306202,57.000000,0.000000,5.518312,4.145220,2.703611,4.030515,5.272109,2.231929,-0.645501,15.845693,2.649312,4.057767,-7.015550,20.256950,0.563445,4.264676,21.957981,-38.313717,-2.835701,28.497620,-8.820924,-2.349675,0.889956,-0.744802,10.064971,-287.711121,5.862110,-6.127234,6.635967,2.741427,0.661906,-1.929295,-15.545362,-3.024531,8064.000000,0.000000,4.000000,,,,0.000000,4.000000,4.000000,4.000000,4.000000,4.000000,4.000000,4.000000,4.000000,4.000000,4.000000,4.000000,4.000000,4.000000,4.000000,4.000000,4.000000,4.000000,4.000000,4.000000,4.000000,4.000000,4.000000,4.000000,4.000000,4.000000,4.000000,4.000000,4.000000,4.000000,4.000000,4.000000,4.000000,100.000000
1614472916.313952,58.000000,0.000000,0.897408,4.141075,2.700908,4.026484,5.266837,2.229697,-4.747420,11.214462,2.646663,-1.074495,-18.803406,7.416180,-3.026862,-1.380614,13.218075,-53.660019,-17.704660,0.263994,-35.991589,-7.988351,-6.290421,-5.872263,4.926701,-299.218292,5.856248,-4.582646,6.629331,1.713045,4.763808,0.123916,-5.786226,7.234904,7936.000000,0.000000,4.000000,,,,0.000000,4.000000,4.000000,4.000000,4.000000,4.000000,4.000000,4.000000,4.000000,4.000000,4.000000,4.000000,4.000000,4.000000,4.000000,4.000000,4.000000,4.000000,4.000000,4.000000,4.000000,4.000000,4.000000,4.000000,4.000000,4.000000,4.000000,4.000000,4.000000,4.000000,4.000000,4.000000,4.000000,100.000000
1614472916.321802,59.000000,0.000000,-1.667592,4.649754,4.749489,4.022458,4.748749,3.765929,-3.717031,8.126325,3.156837,3.541964,0.189756,1.767738,-2.511014,1.697690,11.153575,-28.478153,-12.558750,32.571423,-3.135086,2.788868,1.408177,-2.789467,-0.206431,-273.278046,15.593982,-4.065243,10.212445,2.224152,10.400070,9.354562,10.116996,17.484079,7936.000000,0.000000,4.000000,,,,0.000000,4.000000,4.000000,4.000000,4.000000,4.000000,4.000000,4.000000,4.000000,4.000000,4.000000,4.000000,4.000000,4.000000,4.000000,4.000000,4.000000,4.000000,4.000000,4.000000,4.000000,4.000000,4.000000,4.000000,4.000000,4.000000,4.000000,4.000000,4.000000,4.000000,4.000000,4.000000,4.000000,100.000000
1614472916.329552,60.000000,0.000000,-1.153103,3.619463,6.796021,4.018435,5.769641,-0.340401,-4.226135,8.631019,3.153680,4.564063,11.984438,3.817252,-0.970042,5.285736,12.168062,-15.116342,0.274321,54.077312,23.021896,7.401464,6.022154,-0.735396,7.486084,-257.107330,11.988644,-5.086819,9.176592,3.247569,5.261465,6.781105,7.542776,8.748647,8064.000000,0.000000,4.000000,,,,0.000000,4.000000,4.000000,4.000000,4.000000,4.000000,4.000000,4.000000,4.000000,4.000000,4.000000,4.000000,4.000000,4.000000,4.000000,4.000000,4.000000,4.000000,4.000000,4.000000,4.000000,4.000000,4.000000,4.000000,4.000000,4.000000,4.000000,4.000000,4.000000,4.000000,4.000000,4.000000,4.000000,100.000000
1614472916.337402,61.000000,0.000000,-3.203233,1.564562,5.763584,2.475956,4.225410,-10.083651,-15.503960,8.622388,0.073603,-5.696912,-10.078828,1.249333,-5.584456,-2.924679,3.437945,-40.229431,-11.520824,21.715544,-9.308819,-15.170040,-11.932587,-4.324404,13.119623,-279.927155,-4.433601,-4.568911,0.962287,-1.883884,-4.487386,-8.610292,-9.387843,-5.619077,8064.000000,0.000000,4.000000,,,,0.000000,4.000000,4.000000,4.000000,4.000000,4.000000,4.000000,4.000000,4.000000,4.000000,4.000000,4.000000,4.000000,4.000000,4.000000,4.000000,4.000000,4.000000,4.000000,4.000000,4.000000,4.000000,4.000000,4.000000,4.000000,4.000000,4.000000,4.000000,4.000000,4.000000,4.000000,4.000000,4.000000,100.000000
1614472916.345152,62.000000,0.000000,-5.764132,0.537356,4.219359,-0.090623,2.169903,-13.663310,-21.129482,9.126586,-4.029035,-7.742497,-21.350801,-1.828840,-10.194257,-8.562779,0.870405,-51.984074,-23.816996,2.719469,-38.017460,-29.001024,-25.253986,-6.371362,-0.226830,-295.031830,-15.198399,-3.538701,-1.089958,-5.471744,-7.047001,-10.652964,-16.045122,-10.228842,8064.000000,0.000000,4.000000,,,,0.000000,4.000000,4.000000,4.000000,4.000000,4.000000,4.000000,4.000000,4.000000,4.000000,4.000000,4.000000,4.000000,4.000000,4.000000,4.000000,4.000000,4.000000,4.000000,4.000000,4.000000,4.000000,4.000000,4.000000,4.000000,4.000000,4.000000,4.000000,4.000000,4.000000,4.000000,4.000000,4.000000,100.000000
1614472916.353002,63.000000,0.000000,-4.219906,0.536819,2.676678,-3.167455,1.142092,-10.059903,-12.903224,11.681561,-5.050646,-1.068088,-4.406373,3.301194,-3.004575,2.215014,17.279791,-28.855165,-7.382923,35.537262,-5.158928,-11.536125,-13.433861,-1.749606,-9.970193,-282.429108,-14.670380,-5.073624,6.603440,0.174754,-3.963031,-2.437183,-13.464974,-11.757075,8064.000000,0.000000,4.000000,,,,0.000000,4.000000,4.000000,4.000000,4.000000,4.000000,4.000000,4.000000,4.000000,4.000000,4.000000,4.000000,4.000000,4.000000,4.000000,4.000000,4.000000,4.000000,4.000000,4.000000,4.000000,4.000000,4.000000,4.000000,4.000000,4.000000,4.000000,4.000000,4.000000,4.000000,4.000000,4.000000,4.000000,100.000000
1614472916.360752,64.000000,0.000000,-1.138763,0.536282,1.648361,-4.189929,1.653770,-8.511382,-6.223654,12.695521,-5.045596,-1.067019,4.315982,7.913278,5.203557,12.469210,25.980459,-21.134003,8.521896,49.347878,14.846231,3.347206,-0.599914,4.918810,-0.729453,-271.377441,-2.348017,-2.504448,11.725041,6.841246,-2.420607,-0.383463,-4.220740,-5.591472,0.000000,204.000000,4.000000,,,,0.000000,4.000000,4.000000,4.000000,4.000000,4.000000,4.000000,4.000000,4.000000,4.000000,4.000000,4.000000,4.000000,4.000000,4.000000,4.000000,4.000000,4.000000,4.000000,4.000000,4.000000,4.000000,4.000000,4.000000,4.000000,4.000000,4.000000,4.000000,4.000000,4.000000,4.000000,4.000000,4.000000,100.000000
1614472916.368602,65.000000,0.000000,-2.163265,0.535746,6.774917,-2.647277,1.652117,-9.015692,-8.268712,12.682826,-4.527730,-2.091594,-5.944744,5.854082,2.121431,4.251612,16.723709,-37.523125,2.872348,29.298531,-0.553231,1.805397,-0.599315,6.965174,11.066148,-274.182983,9.962024,4.164723,10.687675,4.783123,-2.418186,0.129741,9.629634,8.260274,0.000000,199.000000,4.000000,,,,0.000000,4.000000,4.000000,4.000000,4.000000,4.000000,4.000000,4.000000,4.000000,4.000000,4.000000,4.000000,4.000000,4.000000,4.000000,4.000000,4.000000,4.000000,4.000000,4.000000,4.000000,4.000000,4.000000,4.000000,4.000000,4.000000,4.000000,4.000000,4.000000,4.000000,4.000000,4.000000,4.000000,100.000000
1614472916.376352,66.000000,0.000000,-4.725205,-1.003251,5.742501,-3.157451,1.650464,-8.493855,-8.260444,13.182963,-4.523202,-0.038220,-11.579824,3.284126,-2.496075,-4.983409,13.117243,-39.024063,-4.822832,31.320515,5.088348,-0.247690,-3.162818,5.932568,12.593543,-275.960083,4.311036,-1.480467,10.676988,1.701416,-1.902947,-3.972953,7.055902,4.149449,0.000000,179.000000,4.000000,,,,0.000000,4.000000,4.000000,4.000000,4.000000,4.000000,4.000000,4.000000,4.000000,4.000000,4.000000,4.000000,4.000000,4.000000,4.000000,4.000000,4.000000,4.000000,4.000000,4.000000,4.000000,4.000000,4.000000,4.000000,4.000000,4.000000,4.000000,4.000000,4.000000,4.000000,4.000000,4.000000,4.000000,100.000000
1614472916.384002,67.000000,0.000000,-4.720479,-5.617633,-9.647857,-8.282498,1.648814,-8.485361,-7.226542,11.631319,-10.672525,-1.576643,-6.440040,4.306482,-1.467938,0.662600,18.232330,-26.677347,-4.818009,50.263554,23.031977,2.829480,-0.595552,5.926635,9.504026,-264.914886,-2.359942,-15.837961,11.179132,2.212536,-1.901044,-13.199750,-6.284487,-9.700854,0.000000,190.000000,4.000000,,,,0.000000,4.000000,4.000000,4.000000,4.000000,4.000000,4.000000,4.000000,4.000000,4.000000,4.000000,4.000000,4.000000,4.000000,4.000000,4.000000,4.000000,4.000000,4.000000,4.000000,4.000000,4.000000,4.000000,4.000000,4.000000,4.000000,4.000000,4.000000,4.000000,4.000000,4.000000,4.000000,4.000000,100.000000
1614472916.391752,68.000000,0.000000,-4.715759,-6.637656,-15.279234,-8.787036,1.647165,-8.476876,-7.732136,8.542765,-12.200314,0.476216,2.797169,4.302176,-1.466470,10.918347,19.239738,-18.958363,-1.736268,56.367134,28.649971,6.929215,5.558889,6.946349,7.956061,-248.752548,12.001392,-15.309302,10.655132,2.723144,-1.899143,-9.596807,3.465387,1.078078,0.000000,203.000000,4.000000,,,,0.000000,4.000000,4.000000,4.000000,4.000000,4.000000,4.000000,4.000000,4.000000,4.000000,4.000000,4.000000,4.000000,4.000000,4.000000,4.000000,4.000000,4.000000,4.000000,4.000000,4.000000,4.000000,4.000000,4.000000,4.000000,4.000000,4.000000,4.000000,4.000000,4.000000,4.000000,4.000000,4.000000,100.000000
1614472916.399402,69.000000,0.000000,-4.711043,-1.502813,1.659122,2.503802,1.645518,-8.468399,-5.673122,9.047043,-1.931703,8.680867,6.384116,4.297874,-1.977824,12.958712,18.194859,-13.811199,-2.247352,51.182564,21.954655,3.845363,5.553330,6.426582,8.973746,-245.939697,21.220161,-5.037583,10.644477,2.207600,-1.897244,0.669201,18.846537,12.359051,0.000000,190.000000,4.000000,,,,0.000000,4.000000,4.000000,4.000000,4.000000,4.000000,4.000000,4.000000,4.000000,4.000000,4.000000,4.000000,4.000000,4.000000,4.000000,4.000000,4.000000,4.000000,4.000000,4.000000,4.000000,4.000000,4.000000,4.000000,4.000000,4.000000,4.000000,4.000000,4.000000,4.000000,4.000000,4.000000,4.000000,100.000000
1614472916.407152,70.000000,0.000000,-4.706332,1.575612,4.734386,6.091042,1.643872,-8.459930,-4.641808,9.550816,2.172792,8.672187,0.223885,4.806396,-1.975846,6.279086,16.638203,-16.361490,-7.886130,36.772408,-2.682685,-11.030277,-4.195813,1.804771,8.451952,-259.539917,6.327146,-7.083827,9.608191,2.205392,-1.895347,-2.408391,6.519998,-6.627667,0.000000,197.000000,4.000000,,,,0.000000,4.000000,4.000000,4.000000,4.000000,4.000000,4.000000,4.000000,4.000000,4.000000,4.000000,4.000000,4.000000,4.000000,4.000000,4.000000,4.000000,4.000000,4.000000,4.000000,4.000000,4.000000,4.000000,4.000000,4.000000,4.000000,4.000000,4.000000,4.000000,4.000000,4.000000,4.000000,4.000000,100.000000
1614472916.414802,71.000000,0.000000,-5.214447,0.035575,-14.757528,-8.786844,1.642229,-8.451470,-7.201269,2.361778,-4.496047,-3.131357,-5.930184,1.211846,-3.512332,0.631781,13.031820,-27.627180,-11.980808,27.504864,-12.936413,-16.660273,-10.345463,-1.786777,3.315295,-265.947021,-6.499694,-12.717770,7.034481,0.151905,-1.893452,-9.585470,-8.871138,-22.518475,0.000000,199.000000,4.000000,,,,0.000000,4.000000,4.000000,4.000000,4.000000,4.000000,4.000000,4.000000,4.000000,4.000000,4.000000,4.000000,4.000000,4.000000,4.000000,4.000000,4.000000,4.000000,4.000000,4.000000,4.000000,4.000000,4.000000,4.000000,4.000000,4.000000,4.000000,4.000000,4.000000,4.000000,4.000000,4.000000,4.000000,100.000000
1614472916.422552,72.000000,0.000000,-4.183591,1.061181,-18.332514,-19.547289,1.640586,-8.955840,-8.219708,-2.255969,-3.978730,-10.307714,-5.924254,-2.891929,-5.047281,0.118329,11.480327,-32.214939,-8.891904,36.195309,10.153447,-5.361561,-7.258194,-1.784990,1.260697,-258.501587,-3.416272,-6.038385,6.514626,-1.899529,-1.891558,-5.986141,-4.759702,-14.290829,0.000000,196.000000,4.000000,,,,0.000000,4.000000,4.000000,4.000000,4.000000,4.000000,4.000000,4.000000,4.000000,4.000000,4.000000,4.000000,4.000000,4.000000,4.000000,4.000000,4.000000,4.000000,4.000000,4.000000,4.000000,4.000000,4.000000,4.000000,4.000000,4.000000,4.000000,4.000000,4.000000,4.000000,4.000000,4.000000,4.000000,100.000000
1614472916.430202,73.000000,0.000000,-1.615305,4.137043,-2.929566,-12.861074,1.126125,-7.921243,-7.698668,3.900134,2.691915,-8.758944,-5.918330,-3.401858,-5.555055,0.631031,8.391924,-33.721184,-6.831730,36.159115,8.092011,-4.843379,-5.199654,-1.270385,7.413283,-256.704651,-0.335932,0.634320,9.072213,-1.384809,-1.889667,-3.416053,0.886083,-7.609871,0.000000,188.000000,4.000000,,,,0.000000,4.000000,4.000000,4.000000,4.000000,4.000000,4.000000,4.000000,4.000000,4.000000,4.000000,4.000000,4.000000,4.000000,4.000000,4.000000,4.000000,4.000000,4.000000,4.000000,4.000000,4.000000,4.000000,4.000000,4.000000,4.000000,4.000000,4.000000,4.000000,4.000000,4.000000,4.000000,4.000000,100.000000
1614472916.437952,74.000000,0.000000,-2.126510,4.645726,1.175928,-8.745649,1.637820,-5.862040,-7.690969,9.537259,3.202044,-7.724544,-6.938053,-5.449738,-6.062320,0.117580,7.357891,-36.251564,-8.363360,25.353724,-22.685310,-17.146229,-5.707275,-1.781935,7.405869,-267.217163,-2.899699,-0.391955,11.114423,-1.383424,-1.887777,-4.438277,-0.140444,-9.653543,0.000000,193.000000,4.000000,,,,0.000000,4.000000,4.000000,4.000000,4.000000,4.000000,4.000000,4.000000,4.000000,4.000000,4.000000,4.000000,4.000000,4.000000,4.000000,4.000000,4.000000,4.000000,4.000000,4.000000,4.000000,4.000000,4.000000,4.000000,4.000000,4.000000,4.000000,4.000000,4.000000,4.000000,4.000000,4.000000,4.000000,100.000000
1614472916.445602,75.000000,0.000000,-4.688486,1.564157,-4.466274,-14.890749,1.636182,-4.317716,-7.170458,7.989260,-0.390902,-10.280922,-5.392653,-10.059673,-4.517796,0.117462,7.350533,-34.164032,-7.842176,29.943754,-23.175446,-21.744467,-5.188747,-1.267332,-2.345126,-275.667908,-2.896799,-1.417204,11.103309,-1.382041,-1.885889,-4.433839,-0.653124,-10.669531,0.000000,185.000000,4.000000,,,,0.000000,4.000000,4.000000,4.000000,4.000000,4.000000,4.000000,4.000000,4.000000,4.000000,4.000000,4.000000,4.000000,4.000000,4.000000,4.000000,4.000000,4.000000,4.000000,4.000000,4.000000,4.000000,4.000000,4.000000,4.000000,4.000000,4.000000,4.000000,4.000000,4.000000,4.000000,4.000000,4.000000,100.000000
1614472916.453352,76.000000,0.000000,-5.196618,0.024132,-5.487449,-12.824576,1.121725,-4.826219,-8.188929,4.391528,-1.928973,-8.732180,-7.438543,-12.100896,-6.051740,0.630165,-3.938869,-40.796535,-8.859975,24.785604,-12.383040,-17.620157,-5.183558,-1.266065,-7.470986,-273.340942,-1.868261,-0.390146,10.579385,-1.380659,-2.396824,-4.942226,-1.165291,-10.658861,0.000000,178.000000,4.000000,,,,0.000000,4.000000,4.000000,4.000000,4.000000,4.000000,4.000000,4.000000,4.000000,4.000000,4.000000,4.000000,4.000000,4.000000,4.000000,4.000000,4.000000,4.000000,4.000000,4.000000,4.000000,4.000000,4.000000,4.000000,4.000000,4.000000,4.000000,4.000000,4.000000,4.000000,4.000000,4.000000,4.000000,100.000000
1614472916.461002,77.000000,0.000000,-4.165781,1.049749,-3.430679,0.008761,2.659065,-4.821393,-7.667919,5.925598,0.124238,-0.518319,-8.456745,-11.575974,-12.199534,0.116714,-12.140059,-52.037788,-12.440859,5.273640,-19.037323,-15.551256,-5.178375,-1.777620,-6.950695,-267.426575,-1.866393,-0.902576,10.568806,-1.379278,-1.881606,-1.347540,2.425618,-5.007177,0.000000,152.000000,4.000000,,,,0.000000,4.000000,4.000000,4.000000,4.000000,4.000000,4.000000,4.000000,4.000000,4.000000,4.000000,4.000000,4.000000,4.000000,4.000000,2.000000,4.000000,4.000000,4.000000,4.000000,4.000000,4.000000,4.000000,4.000000,4.000000,4.000000,4.000000,4.000000,4.000000,4.000000,4.000000,4.000000,4.000000,83.333336
1614472916.468752,78.000000,0.000000,-4.674435,3.612801,-4.452889,6.162598,7.271791,-4.816571,-2.532046,8.483774,2.688217,7.174507,-0.755981,-8.487475,-11.161694,3.193521,4.795158,-37.626778,-10.889956,23.217085,-2.608030,-11.945961,-2.609094,-1.263021,-6.430923,-258.441193,-2.377347,-0.388853,11.071057,-1.377899,0.684378,3.269192,6.525756,0.638856,0.000000,212.000000,4.000000,,,,0.000000,4.000000,4.000000,4.000000,4.000000,4.000000,4.000000,4.000000,4.000000,4.000000,4.000000,4.000000,4.000000,4.000000,4.000000,2.000000,4.000000,4.000000,4.000000,4.000000,4.000000,4.000000,4.000000,4.000000,4.000000,4.000000,4.000000,4.000000,4.000000,4.000000,4.000000,4.000000,4.000000,83.333336
1614472916.476402,79.000000,0.000000,-5.182581,4.122009,-4.961257,4.617974,9.315801,-4.811755,-0.478232,8.475290,-0.391395,6.654512,6.424263,-3.350782,-3.458224,6.780071,21.200621,-13.999407,-8.827785,55.501560,23.548424,-9.369912,-2.606485,-1.774579,-6.937313,-254.080200,-2.887790,-1.926926,8.495884,-1.376521,1.709334,0.701820,1.903846,-7.054090,0.000000,180.000000,4.000000,,,,0.000000,4.000000,4.000000,4.000000,4.000000,4.000000,4.000000,4.000000,4.000000,4.000000,4.000000,4.000000,4.000000,4.000000,4.000000,2.000000,4.000000,4.000000,4.000000,4.000000,4.000000,4.000000,4.000000,4.000000,4.000000,4.000000,4.000000,4.000000,4.000000,4.000000,4.000000,4.000000,4.000000,83.333336
1614472916.484151,80.000000,0.000000,-5.177399,3.605067,-4.956296,2.562074,8.793664,-4.806943,-5.093138,5.389892,-4.493567,4.083755,2.315274,-3.860252,-4.993227,6.260470,12.974291,-22.190536,-10.870238,43.138367,16.345388,-9.360542,-7.219263,-2.285625,-7.956017,-263.569702,-2.884903,-4.489101,2.333542,-1.375144,1.707625,-4.427087,-4.251904,-14.226523,0.000000,170.000000,4.000000,,,,0.000000,4.000000,4.000000,4.000000,4.000000,4.000000,4.000000,4.000000,4.000000,4.000000,4.000000,4.000000,4.000000,4.000000,4.000000,2.000000,4.000000,4.000000,4.000000,4.000000,4.000000,4.000000,4.000000,4.000000,4.000000,4.000000,4.000000,4.000000,4.000000,4.000000,4.000000,4.000000,4.000000,83.333336
1614472916.491801,81.000000,0.000000,-4.146580,4.627102,-3.925699,2.046691,8.784871,-4.802136,-8.164968,4.358861,-2.437792,3.566850,-3.840887,-4.369213,-9.090798,3.690107,5.781829,-36.014500,-9.833728,27.710611,6.585454,-6.274259,-8.750505,1.819225,-4.871138,-268.947174,-1.856377,-2.946151,2.844029,-1.373769,1.705917,-4.935480,-1.683550,-10.109733,0.000000,191.000000,4.000000,,,,0.000000,4.000000,4.000000,4.000000,4.000000,4.000000,4.000000,4.000000,4.000000,4.000000,4.000000,4.000000,4.000000,4.000000,4.000000,2.000000,4.000000,4.000000,4.000000,4.000000,4.000000,4.000000,4.000000,4.000000,4.000000,4.000000,4.000000,4.000000,4.000000,4.000000,4.000000,4.000000,4.000000,83.333336
1614472916.499651,82.000000,0.000000,-4.655254,4.622475,-4.434594,1.019004,9.288906,-4.797334,-7.643983,7.944246,-0.384072,2.024822,-1.272944,5.378747,-0.876580,5.737699,14.493997,-20.593868,-3.157227,51.272644,18.886560,1.424323,-6.690473,6.432790,1.287580,-254.832062,-2.367341,-0.891923,7.969390,-1.372396,1.704211,-4.417724,-0.656225,-12.663726,0.000000,182.000000,4.000000,,,,0.000000,4.000000,4.000000,4.000000,4.000000,4.000000,4.000000,4.000000,4.000000,4.000000,4.000000,4.000000,4.000000,4.000000,4.000000,2.000000,4.000000,4.000000,4.000000,4.000000,4.000000,4.000000,4.000000,4.000000,4.000000,4.000000,4.000000,4.000000,4.000000,4.000000,4.000000,4.000000,4.000000,83.333336
1614472916.507401,83.000000,0.000000,-5.676240,3.079391,-5.455800,-0.007656,8.766797,-4.792536,-7.636339,11.013225,-0.896508,2.535618,3.856534,17.168240,7.329425,8.296064,22.171810,2.503648,0.435674,73.272652,25.534340,8.089565,-2.068398,5.400716,4.876036,-242.782364,1.737591,-1.916672,8.987062,-1.883844,1.702507,-4.413306,-0.142748,-17.779268,0.000000,180.000000,4.000000,,,,0.000000,4.000000,4.000000,4.000000,4.000000,4.000000,4.000000,4.000000,4.000000,4.000000,4.000000,4.000000,4.000000,4.000000,4.000000,2.000000,4.000000,4.000000,4.000000,4.000000,4.000000,4.000000,4.000000,4.000000,4.000000,4.000000,4.000000,4.000000,4.000000,4.000000,4.000000,4.000000,4.000000,83.333336
1614472916.515251,84.000000,0.000000,0.996103,7.691697,2.754784,1.017992,8.758030,-4.787744,-7.115882,14.079135,3.719773,9.712569,5.903960,20.227995,5.783634,8.287768,27.790665,5.065247,1.460879,70.635277,19.867781,12.696860,4.600338,7.446598,4.871160,-243.052399,16.094828,4.751912,14.619100,-1.369139,4.264907,-1.844790,11.652267,-3.402514,0.000000,190.000000,4.000000,,,,0.000000,4.000000,4.000000,4.000000,4.000000,4.000000,4.000000,4.000000,4.000000,4.000000,4.000000,4.000000,4.000000,4.000000,4.000000,2.000000,4.000000,4.000000,4.000000,4.000000,4.000000,4.000000,4.000000,4.000000,4.000000,4.000000,4.000000,4.000000,4.000000,4.000000,4.000000,4.000000,4.000000,83.333336
1614472916.523001,85.000000,0.000000,9.713056,12.299390,11.982799,4.093897,9.262093,-4.782956,-4.544663,16.629158,7.818617,17.395164,5.385235,18.669306,4.752210,7.766660,28.788515,-10.324434,3.510700,57.231312,16.258169,13.196984,9.723942,13.080176,7.943212,-243.322159,27.360785,13.465108,26.912172,0.683512,8.363207,1.746798,24.461126,15.062428,0.000000,192.000000,4.000000,,,,0.000000,4.000000,4.000000,4.000000,4.000000,4.000000,4.000000,4.000000,4.000000,4.000000,4.000000,4.000000,4.000000,4.000000,4.000000,2.000000,4.000000,4.000000,4.000000,4.000000,4.000000,4.000000,4.000000,4.000000,4.000000,4.000000,4.000000,4.000000,4.000000,4.000000,4.000000,4.000000,4.000000,83.333336
1614472916.530851,86.000000,0.000000,7.652061,4.081962,6.329790,2.551342,6.175908,-4.778173,-3.514478,12.509965,4.221055,16.352129,4.354209,14.035251,5.773098,7.758893,21.067417,-26.211546,3.507190,38.199718,10.600885,10.619684,9.714218,11.015815,11.525012,-243.078842,24.769320,9.349079,29.449364,2.734110,9.380485,3.283513,26.487947,17.611467,0.000000,183.000000,4.000000,,,,0.000000,4.000000,4.000000,4.000000,4.000000,4.000000,4.000000,4.000000,4.000000,4.000000,4.000000,4.000000,4.000000,4.000000,4.000000,2.000000,4.000000,4.000000,4.000000,4.000000,4.000000,4.000000,4.000000,4.000000,4.000000,4.000000,4.000000,4.000000,4.000000,4.000000,4.000000,4.000000,4.000000,83.333336
