title:06, start timestamp:1614473300.184567, stop timestamp:1614473345.946865, headset type:EPOCFLEX, headset serial:F00001ED, headset firmware:f12, subject name:s13, channels:75, sampling rate:128, samples:5905      , version:2.0
Timestamp,EEG.Counter,EEG.Interpolated,EEG.Cz,EEG.Fz,EEG.Fp1,EEG.F7,EEG.F3,EEG.FC1,EEG.C3,EEG.FC5,EEG.FT9,EEG.T7,EEG.TP9,EEG.CP5,EEG.CP1,EEG.P3,EEG.P7,EEG.O1,EEG.Pz,EEG.Oz,EEG.O2,EEG.P8,EEG.P4,EEG.CP2,EEG.CP6,EEG.TP10,EEG.T8,EEG.FT10,EEG.FC6,EEG.C4,EEG.FC2,EEG.F4,EEG.F8,EEG.Fp2,EEG.HighBitFlex,EEG.RawCq,EEG.Battery,MarkerIndex,MarkerType,MarkerValueInt,EEG.MarkerHardware,CQ.Cz,CQ.Fz,CQ.Fp1,CQ.F7,CQ.F3,CQ.FC1,CQ.C3,CQ.FC5,CQ.FT9,CQ.T7,CQ.TP9,CQ.CP5,CQ.CP1,CQ.P3,CQ.P7,CQ.O1,CQ.Pz,CQ.Oz,CQ.O2,CQ.P8,CQ.P4,CQ.CP2,CQ.CP6,CQ.TP10,CQ.T8,CQ.FT10,CQ.FC6,CQ.C4,CQ.FC2,CQ.F4,CQ.F8,CQ.Fp2,CQ.Overall
1614473300.184567,62.000000,0.000000,-2.974854,-12.252985,-28.274366,-23.563528,-12.112152,-11.084808,9.002164,-18.505390,-13.914680,-20.648867,-9.344474,-21.603750,0.562444,-7.227014,-33.914791,6.254212,2.855221,70.569023,46.395248,-20.756296,-25.337164,-11.926035,1.741179,-43.850441,-23.752768,-18.596605,11.530798,-4.387300,-12.330128,-27.046700,-18.229841,-54.261402,8064.000000,0.000000,4.000000,,,,0.000000,4.000000,4.000000,4.000000,4.000000,4.000000,4.000000,4.000000,4.000000,4.000000,4.000000,4.000000,2.000000,4.000000,4.000000,4.000000,4.000000,4.000000,4.000000,4.000000,4.000000,4.000000,4.000000,4.000000,4.000000,4.000000,4.000000,4.000000,4.000000,4.000000,4.000000,4.000000,4.000000,83.333336
1614473300.192216,63.000000,0.000000,4.207609,-10.189450,-29.271732,-36.360477,-15.176963,-13.637826,2.326495,-18.999706,-12.875123,-22.679499,-17.027437,-18.505222,-2.002221,-21.065941,-40.547543,5.735137,2.852366,62.806149,38.143723,-21.248362,-23.773365,-12.426929,6.867642,-47.909153,-25.780298,-16.013906,12.544909,-2.331630,-14.881900,-23.429909,-12.057766,-51.130215,8064.000000,0.000000,4.000000,,,,0.000000,4.000000,4.000000,4.000000,4.000000,4.000000,4.000000,4.000000,4.000000,4.000000,4.000000,4.000000,2.000000,4.000000,4.000000,4.000000,4.000000,4.000000,4.000000,4.000000,4.000000,4.000000,4.000000,4.000000,4.000000,4.000000,4.000000,4.000000,4.000000,4.000000,4.000000,4.000000,4.000000,83.333336
1614473300.200065,64.000000,0.000000,7.280324,-8.127978,-28.216820,-39.401039,-16.700249,-13.111367,-7.419422,-18.980705,-4.144300,-24.195282,-38.548870,-27.204666,-7.128424,-35.916668,-46.148022,-25.039829,-3.304333,35.051033,5.797887,-21.227112,-27.852156,-12.414503,7.373595,-69.912529,-22.164774,-15.485071,19.711851,-2.329299,-5.123428,-24.432119,1.287625,-33.643188,0.000000,180.000000,4.000000,,,,0.000000,4.000000,4.000000,4.000000,4.000000,4.000000,4.000000,4.000000,4.000000,4.000000,4.000000,4.000000,2.000000,4.000000,4.000000,4.000000,4.000000,4.000000,4.000000,4.000000,4.000000,4.000000,4.000000,4.000000,4.000000,4.000000,4.000000,4.000000,4.000000,4.000000,4.000000,4.000000,4.000000,83.333336
1614473300.207815,65.000000,0.000000,-2.470546,-4.017286,-19.983475,-24.489843,-16.683548,-12.585436,-2.283797,-18.448904,-8.755540,-19.555702,-44.151348,-31.280025,-7.634116,-28.188446,-33.281361,-38.860943,-7.403593,28.862137,13.484397,-18.641783,-23.721739,-12.914909,7.366222,-67.791336,-17.014404,-10.854201,27.897266,-2.839790,2.574003,-23.382048,5.901722,-27.455698,0.000000,193.000000,4.000000,,,,0.000000,4.000000,4.000000,4.000000,4.000000,4.000000,4.000000,4.000000,4.000000,4.000000,4.000000,4.000000,2.000000,4.000000,4.000000,4.000000,4.000000,4.000000,4.000000,4.000000,4.000000,4.000000,4.000000,4.000000,4.000000,4.000000,4.000000,4.000000,4.000000,4.000000,4.000000,4.000000,4.000000,83.333336
1614473300.215664,66.000000,0.000000,-7.596281,-7.603013,-13.296825,-17.285868,-15.641223,-13.085670,3.359512,-18.943275,-19.516016,-13.382299,-18.466171,-16.889771,-4.036738,-17.391026,-18.376286,-6.001569,-5.857728,61.653786,46.291424,-16.571859,-11.903146,-10.850712,7.871676,-42.595337,-16.484570,-9.817706,24.792446,-1.811309,-4.095238,-24.897127,3.844538,-33.069267,0.000000,179.000000,4.000000,,,,0.000000,4.000000,4.000000,4.000000,4.000000,4.000000,4.000000,4.000000,4.000000,4.000000,4.000000,4.000000,2.000000,4.000000,4.000000,4.000000,4.000000,4.000000,4.000000,4.000000,4.000000,4.000000,4.000000,4.000000,4.000000,4.000000,4.000000,4.000000,4.000000,4.000000,4.000000,4.000000,4.000000,83.333336
1614473300.223413,67.000000,0.000000,-3.998941,-6.569769,-15.334810,-19.832684,-11.010198,-13.585405,2.330512,-17.385872,-8.727268,-14.394558,6.167680,-7.129292,-4.545522,-16.347994,-18.357908,26.824945,-4.826229,93.387009,61.629749,-13.991184,-9.327140,-4.173194,6.838163,-32.296329,-17.493725,-11.346350,21.690731,-0.271036,-6.142425,-23.846588,6.917617,-31.497738,0.000000,180.000000,4.000000,,,,0.000000,4.000000,4.000000,4.000000,4.000000,4.000000,4.000000,4.000000,4.000000,4.000000,4.000000,4.000000,2.000000,4.000000,4.000000,4.000000,4.000000,4.000000,4.000000,4.000000,4.000000,4.000000,4.000000,4.000000,4.000000,4.000000,4.000000,4.000000,4.000000,4.000000,4.000000,4.000000,4.000000,83.333336
1614473300.231262,68.000000,0.000000,-0.405198,2.667570,-17.370758,-19.300030,-8.947905,-12.033359,2.841002,-13.265922,6.666074,-16.944265,0.520487,-7.634983,-2.489695,-19.921389,-20.390833,15.003248,-5.334223,74.319260,53.875813,-10.387449,-12.907557,-0.579278,12.472351,-37.905060,-17.476233,-3.129875,31.412630,1.780517,0.530384,-11.515049,8.449161,-27.876497,0.000000,188.000000,4.000000,,,,0.000000,4.000000,4.000000,4.000000,4.000000,4.000000,4.000000,4.000000,4.000000,4.000000,4.000000,4.000000,2.000000,4.000000,4.000000,4.000000,4.000000,4.000000,4.000000,4.000000,4.000000,4.000000,4.000000,4.000000,4.000000,4.000000,4.000000,4.000000,4.000000,4.000000,4.000000,4.000000,4.000000,83.333336
1614473300.239012,69.000000,0.000000,1.133669,0.613621,-16.840567,-23.896114,-13.554341,-9.970043,-2.290044,-10.175733,5.120947,-16.414501,-10.762085,-7.114528,2.128180,-20.414289,-18.319160,-3.473293,-2.764786,59.885967,53.309116,-6.274498,-13.407469,-0.578699,21.690647,-39.405617,-16.945934,2.514280,37.022243,1.265916,-2.547069,-7.400970,7.415071,-28.361441,0.000000,174.000000,4.000000,,,,0.000000,4.000000,4.000000,4.000000,4.000000,4.000000,4.000000,4.000000,4.000000,4.000000,4.000000,4.000000,2.000000,4.000000,4.000000,4.000000,4.000000,4.000000,4.000000,4.000000,4.000000,4.000000,4.000000,4.000000,4.000000,4.000000,4.000000,4.000000,4.000000,4.000000,4.000000,4.000000,4.000000,83.333336
1614473300.246861,70.000000,0.000000,0.619714,-6.053660,-17.849367,-30.538885,-16.617710,-9.447252,-6.903139,-13.242479,1.013262,-18.449369,-9.725682,-14.799721,-0.950872,-16.291309,-21.890585,-1.931358,-1.736380,74.185051,53.255806,-6.268224,-11.855600,-0.578120,20.643316,-36.802109,-17.954630,-4.667721,32.882656,1.264650,-1.006061,-14.573056,7.407655,-29.871540,0.000000,159.000000,4.000000,,,,0.000000,4.000000,4.000000,4.000000,4.000000,4.000000,4.000000,4.000000,4.000000,4.000000,4.000000,4.000000,2.000000,4.000000,4.000000,4.000000,4.000000,4.000000,4.000000,4.000000,4.000000,4.000000,4.000000,4.000000,4.000000,4.000000,4.000000,4.000000,4.000000,4.000000,4.000000,4.000000,4.000000,83.333336
1614473300.254610,71.000000,0.000000,0.619095,-1.432221,-15.780235,-30.508347,-16.088272,-8.412165,0.796072,-18.357443,0.499428,-19.969381,-15.869802,-26.579792,-8.129408,-19.351942,-33.150745,-17.826862,-5.324388,61.290356,42.946140,-10.877340,-12.356565,-1.090362,12.417544,-38.303768,-17.936676,-7.739977,30.798492,1.263385,6.687253,-12.507201,6.887427,-29.328848,0.000000,198.000000,4.000000,,,,0.000000,4.000000,4.000000,4.000000,4.000000,4.000000,4.000000,4.000000,4.000000,4.000000,4.000000,4.000000,2.000000,4.000000,4.000000,4.000000,4.000000,4.000000,4.000000,4.000000,4.000000,4.000000,4.000000,4.000000,4.000000,4.000000,4.000000,4.000000,4.000000,4.000000,4.000000,4.000000,4.000000,83.333336
1614473300.262459,72.000000,0.000000,7.797963,0.620493,-15.251635,-32.016300,-15.559363,-9.429393,5.923481,-18.851906,-0.013892,-20.975052,-25.597523,-20.399366,-8.121279,-27.537718,-40.809902,-31.142370,-5.319063,38.664963,33.672424,-13.430565,-13.369849,0.962010,9.328204,-41.855209,-14.841816,-5.168134,31.793335,1.262122,1.039540,-4.802386,7.906181,-28.273878,0.000000,206.000000,4.000000,,,,0.000000,4.000000,4.000000,4.000000,4.000000,4.000000,4.000000,4.000000,4.000000,4.000000,4.000000,4.000000,2.000000,4.000000,4.000000,4.000000,4.000000,4.000000,4.000000,4.000000,4.000000,4.000000,4.000000,4.000000,4.000000,4.000000,4.000000,4.000000,4.000000,4.000000,4.000000,4.000000,4.000000,83.333336
1614473300.270209,73.000000,0.000000,14.969652,-1.431410,-24.467152,-37.112488,-16.056625,-14.035349,2.840635,-16.268951,1.524583,-25.056643,-21.469360,-9.096916,-4.523414,-23.920437,-34.102425,-14.700971,-1.211180,56.062195,36.202854,-8.801750,-13.356480,5.576433,11.882978,-43.351814,-14.826974,-5.162966,31.761541,0.748039,-5.115345,-7.361687,6.359813,-30.809708,0.000000,168.000000,4.000000,,,,0.000000,4.000000,4.000000,4.000000,4.000000,4.000000,4.000000,4.000000,4.000000,4.000000,4.000000,4.000000,2.000000,4.000000,4.000000,4.000000,4.000000,4.000000,4.000000,4.000000,4.000000,4.000000,4.000000,4.000000,4.000000,4.000000,4.000000,4.000000,4.000000,4.000000,4.000000,4.000000,4.000000,83.333336
1614473300.278058,74.000000,0.000000,13.929041,1.646945,-28.032429,-36.562557,-16.553389,-10.431569,1.812153,-15.227041,-1.553864,-26.057226,-21.960712,-12.677563,-4.006070,-17.229851,-27.401655,-18.276012,4.943877,61.647160,35.141010,-5.203205,-9.240560,4.545215,16.486481,-42.282822,-18.401890,-3.619342,31.216959,1.260112,3.607719,-10.431248,0.712428,-36.932743,0.000000,187.000000,4.000000,,,,0.000000,4.000000,4.000000,4.000000,4.000000,4.000000,4.000000,4.000000,4.000000,4.000000,4.000000,4.000000,2.000000,4.000000,4.000000,4.000000,4.000000,4.000000,4.000000,4.000000,4.000000,4.000000,4.000000,4.000000,4.000000,4.000000,4.000000,4.000000,4.000000,4.000000,4.000000,4.000000,4.000000,83.333336
1614473300.285807,75.000000,0.000000,11.351009,0.619657,-20.824909,-31.910608,-16.536835,-2.728830,1.297520,-15.211814,-8.731797,-19.877323,-29.118238,-20.870014,-5.027705,-22.340826,-35.579384,-47.488506,6.477395,33.893204,21.259716,-7.249283,-5.128755,-0.074715,17.495634,-43.266178,-14.280925,-7.718287,26.057537,1.258851,8.219496,-8.882355,0.711715,-35.870171,0.000000,193.000000,4.000000,,,,0.000000,4.000000,4.000000,4.000000,4.000000,4.000000,4.000000,4.000000,4.000000,4.000000,4.000000,4.000000,2.000000,4.000000,4.000000,4.000000,4.000000,4.000000,4.000000,4.000000,4.000000,4.000000,4.000000,4.000000,4.000000,4.000000,4.000000,4.000000,4.000000,4.000000,4.000000,4.000000,4.000000,83.333336
1614473300.293656,76.000000,0.000000,12.365299,-5.021988,-17.214340,-29.314596,-15.494658,-8.367127,-0.242239,-15.196602,-10.261527,-15.754881,-17.294249,-18.797861,-5.535497,-20.267202,-37.595085,-36.671787,4.419635,40.013157,26.366661,-5.703573,-7.174908,-1.100281,14.401216,-42.710094,-3.497413,-16.941338,20.903275,-0.280869,3.083071,-9.386293,5.326388,-33.270199,0.000000,186.000000,4.000000,,,,0.000000,4.000000,4.000000,4.000000,4.000000,4.000000,4.000000,4.000000,4.000000,4.000000,4.000000,4.000000,2.000000,4.000000,4.000000,4.000000,4.000000,4.000000,4.000000,4.000000,4.000000,4.000000,4.000000,4.000000,4.000000,4.000000,4.000000,4.000000,4.000000,4.000000,4.000000,4.000000,4.000000,83.333336
1614473300.301406,77.000000,0.000000,11.840114,-7.068249,-20.274050,-29.798101,-16.504803,-16.563889,3.860567,-15.694226,-9.225625,-15.739126,2.723046,-9.548294,1.649525,-7.426422,-19.095951,-3.814603,9.543421,69.203911,58.647987,4.045721,-6.654912,-2.124822,16.950916,-30.359690,-1.955454,-10.770550,20.882372,3.309155,0.003065,-8.864086,6.346703,-36.313850,0.000000,171.000000,4.000000,,,,0.000000,4.000000,4.000000,4.000000,4.000000,4.000000,4.000000,4.000000,4.000000,4.000000,4.000000,4.000000,2.000000,4.000000,4.000000,4.000000,4.000000,4.000000,4.000000,4.000000,4.000000,4.000000,4.000000,4.000000,4.000000,4.000000,4.000000,4.000000,4.000000,4.000000,4.000000,4.000000,4.000000,83.333336
1614473300.309055,78.000000,0.000000,12.853915,-7.574001,-22.305058,-31.306765,-16.488298,-13.470401,4.882348,-9.524686,-9.216399,-16.749029,5.284425,-1.333618,11.904286,-4.854893,-7.281984,10.548186,20.303108,76.314194,73.461136,11.733983,-2.545693,0.441406,24.626274,-19.560101,-2.979139,4.112016,23.425592,10.485333,-1.535400,-6.291120,13.519843,-28.585228,0.000000,166.000000,4.000000,,,,0.000000,4.000000,4.000000,4.000000,4.000000,4.000000,4.000000,4.000000,4.000000,4.000000,4.000000,4.000000,4.000000,4.000000,4.000000,4.000000,4.000000,4.000000,4.000000,4.000000,4.000000,4.000000,4.000000,4.000000,4.000000,4.000000,4.000000,4.000000,4.000000,4.000000,4.000000,4.000000,4.000000,100.000000
1614473300.316804,79.000000,0.000000,15.917984,-3.463863,-15.103265,-25.634432,-9.805143,-8.841546,3.339004,-1.310033,-5.617439,-16.219460,6.304782,0.206177,13.943664,-2.285936,-7.274702,4.896613,25.411011,88.032753,67.233826,12.747890,-2.030327,10.697374,26.140110,-20.053360,4.203327,7.184827,34.684216,13.551771,5.132802,-7.310470,25.301195,-11.633567,0.000000,178.000000,4.000000,,,,0.000000,4.000000,4.000000,4.000000,4.000000,4.000000,4.000000,4.000000,4.000000,4.000000,4.000000,4.000000,4.000000,4.000000,4.000000,4.000000,4.000000,4.000000,4.000000,4.000000,4.000000,4.000000,4.000000,4.000000,4.000000,4.000000,4.000000,4.000000,4.000000,4.000000,4.000000,4.000000,4.000000,100.000000
1614473300.324454,80.000000,0.000000,13.850784,0.129345,-2.267649,-10.737003,-2.103031,-7.807064,8.463870,-2.334364,-3.047719,-10.562214,11.939503,-0.819670,11.365618,7.972760,-4.190504,6.430178,25.898420,100.765236,69.730698,13.760783,-0.489835,12.737959,25.601149,-18.494844,8.814508,2.562257,43.367481,11.999758,11.794336,-8.841620,29.891279,-7.006548,0.000000,194.000000,4.000000,,,,0.000000,4.000000,4.000000,4.000000,4.000000,4.000000,4.000000,4.000000,4.000000,4.000000,4.000000,4.000000,4.000000,4.000000,4.000000,4.000000,4.000000,4.000000,4.000000,4.000000,4.000000,4.000000,4.000000,4.000000,4.000000,4.000000,4.000000,4.000000,4.000000,4.000000,4.000000,4.000000,4.000000,100.000000
1614473300.332203,81.000000,0.000000,5.631805,-7.563092,-6.367945,-11.239086,-2.100928,-10.876180,7.942586,-7.973055,-4.583133,-9.526011,7.312179,0.719611,9.302970,-0.753161,-10.340159,8.475029,22.282778,84.254211,63.507118,7.080355,-3.566268,3.494452,25.575548,-20.527632,2.139027,-0.517228,32.042065,12.500579,-2.063612,-9.345600,30.374208,-14.179029,0.000000,191.000000,4.000000,,,,0.000000,4.000000,4.000000,4.000000,4.000000,4.000000,4.000000,4.000000,4.000000,4.000000,4.000000,4.000000,4.000000,4.000000,4.000000,4.000000,4.000000,4.000000,4.000000,4.000000,4.000000,4.000000,4.000000,4.000000,4.000000,4.000000,4.000000,4.000000,4.000000,4.000000,4.000000,4.000000,4.000000,100.000000
1614473300.339853,82.000000,0.000000,3.062071,-12.683734,-27.387218,-29.689386,-3.124468,-22.147354,-1.296126,-7.965082,-5.604191,-22.849817,-1.413082,-3.383672,4.678282,-21.265228,-28.278538,1.799888,8.927162,64.682777,42.417973,-8.824161,-18.434498,-1.637247,19.908947,-39.994286,-4.016958,-3.080813,20.727970,10.949616,-17.446163,-12.925998,24.702808,-29.549465,0.000000,196.000000,4.000000,,,,0.000000,4.000000,4.000000,4.000000,4.000000,4.000000,4.000000,4.000000,4.000000,4.000000,4.000000,4.000000,4.000000,4.000000,4.000000,4.000000,4.000000,4.000000,4.000000,4.000000,4.000000,4.000000,4.000000,4.000000,4.000000,4.000000,4.000000,4.000000,4.000000,4.000000,4.000000,4.000000,4.000000,100.000000
1614473300.347602,83.000000,0.000000,6.135931,-5.491563,-33.000858,-38.890465,-6.711087,-26.227772,-4.884573,-7.444296,-8.162689,-31.544916,-11.668079,-11.585417,3.647963,-26.372168,-32.865643,-18.201912,0.713106,57.951431,34.683247,-14.456363,-27.646832,-2.148431,14.248012,-55.851727,-3.500121,-4.616194,26.348267,4.272000,-12.300512,-16.502815,8.780669,-47.468636,0.000000,184.000000,4.000000,,,,0.000000,4.000000,4.000000,4.000000,4.000000,4.000000,4.000000,4.000000,4.000000,4.000000,4.000000,4.000000,4.000000,4.000000,4.000000,4.000000,4.000000,4.000000,4.000000,4.000000,4.000000,4.000000,4.000000,4.000000,4.000000,4.000000,4.000000,4.000000,4.000000,4.000000,4.000000,4.000000,4.000000,100.000000
1614473300.355251,84.000000,0.000000,1.514411,-3.947610,-22.711445,-34.236191,-17.986427,-19.022057,-10.520715,-10.000955,-12.257091,-28.436449,-28.066668,-16.189217,2.105854,-23.781694,-32.319958,-45.876019,2.250855,44.047325,30.545998,-6.236778,-19.926878,-4.197564,13.720943,-53.231773,-3.496621,-6.150040,30.424482,-0.347656,-5.621545,-17.511953,7.746248,-40.241676,0.000000,170.000000,4.000000,,,,0.000000,4.000000,4.000000,4.000000,4.000000,4.000000,4.000000,4.000000,4.000000,4.000000,4.000000,4.000000,4.000000,4.000000,4.000000,4.000000,4.000000,4.000000,4.000000,4.000000,4.000000,4.000000,4.000000,4.000000,4.000000,4.000000,4.000000,4.000000,4.000000,4.000000,4.000000,4.000000,4.000000,100.000000
1614473300.363001,85.000000,0.000000,-7.205052,-5.994945,-21.150272,-32.663494,-16.942801,-17.977394,-16.664040,-12.042235,-11.219193,-27.895191,-35.218090,-16.685848,-8.665483,-24.783552,-40.492767,-55.060913,-2.366781,33.746868,19.746222,-1.615156,-13.240284,-5.731828,10.117478,-50.101616,-3.493124,-8.195171,27.829956,0.678332,-7.667206,-16.981621,26.200039,-16.611692,0.000000,218.000000,4.000000,,,,0.000000,4.000000,4.000000,4.000000,4.000000,4.000000,4.000000,4.000000,4.000000,4.000000,4.000000,4.000000,4.000000,4.000000,4.000000,4.000000,4.000000,4.000000,4.000000,4.000000,4.000000,4.000000,4.000000,4.000000,4.000000,4.000000,4.000000,4.000000,4.000000,4.000000,4.000000,4.000000,4.000000,100.000000
1614473300.370650,86.000000,0.000000,-4.633745,-1.886386,-24.718866,-34.682110,-3.592524,-17.446596,-6.390966,-12.030193,-8.643870,-26.841656,-22.875177,-11.540956,-8.143997,-24.758770,-36.862530,-36.544312,-4.928516,38.328503,30.495707,-4.177644,-12.714223,-6.238917,7.543259,-48.000233,-4.002451,-5.110053,29.340588,4.780218,-7.146718,-12.862076,31.814865,-19.159184,0.000000,195.000000,4.000000,,,,0.000000,4.000000,4.000000,4.000000,4.000000,4.000000,4.000000,4.000000,4.000000,4.000000,4.000000,4.000000,4.000000,4.000000,4.000000,4.000000,4.000000,4.000000,4.000000,4.000000,4.000000,4.000000,4.000000,4.000000,4.000000,4.000000,4.000000,4.000000,4.000000,4.000000,4.000000,4.000000,4.000000,100.000000
1614473300.378399,87.000000,0.000000,6.140120,-0.346038,-25.206968,-34.647430,-5.127393,-8.198380,4.897477,-10.479702,-9.148047,-16.045584,-13.108713,-3.324287,7.761583,-25.759651,-22.466692,-22.148792,6.358463,39.315819,45.337006,-2.635005,-13.214330,-4.181396,11.638279,-42.824028,-3.998449,-1.515200,29.311247,7.852361,-9.190853,-6.695367,27.680487,-28.370794,0.000000,185.000000,4.000000,,,,0.000000,4.000000,4.000000,4.000000,4.000000,4.000000,4.000000,4.000000,4.000000,4.000000,4.000000,4.000000,4.000000,4.000000,4.000000,4.000000,4.000000,4.000000,4.000000,4.000000,4.000000,4.000000,4.000000,4.000000,4.000000,4.000000,4.000000,4.000000,4.000000,4.000000,4.000000,4.000000,4.000000,100.000000
1614473300.386049,88.000000,0.000000,9.723723,-1.371333,-24.156120,-32.048679,-11.276112,-4.600438,1.815656,-8.417940,-9.138900,-7.824409,-16.172527,0.781601,11.343565,-21.631329,-19.367302,-31.870234,13.531592,44.404705,38.112183,5.059938,-14.226756,2.489452,15.216385,-46.883766,2.672216,-1.000864,38.512707,8.870150,-8.156022,-6.175851,35.345112,-9.368064,0.000000,208.000000,4.000000,,,,0.000000,4.000000,4.000000,4.000000,4.000000,4.000000,4.000000,4.000000,4.000000,4.000000,4.000000,4.000000,4.000000,4.000000,4.000000,4.000000,4.000000,4.000000,4.000000,4.000000,4.000000,4.000000,4.000000,4.000000,4.000000,4.000000,4.000000,4.000000,4.000000,4.000000,4.000000,4.000000,4.000000,100.000000
1614473300.393798,89.000000,0.000000,7.662718,1.194141,-17.978117,-29.452528,-4.598169,-4.595837,0.275379,-7.383881,-8.616940,-8.329406,-14.105073,0.267999,6.716836,-9.814825,-14.732551,-25.684517,14.030881,66.411583,45.766376,13.260006,-3.956119,7.102347,16.226809,-41.195858,10.874672,1.051419,54.371628,8.348459,1.595724,-8.733778,44.540539,3.461817,0.000000,218.000000,4.000000,,,,0.000000,4.000000,4.000000,4.000000,4.000000,4.000000,4.000000,4.000000,4.000000,4.000000,4.000000,4.000000,4.000000,4.000000,4.000000,4.000000,4.000000,4.000000,4.000000,4.000000,4.000000,4.000000,4.000000,4.000000,4.000000,4.000000,4.000000,4.000000,4.000000,4.000000,4.000000,4.000000,4.000000,100.000000
1614473300.401448,90.000000,0.000000,8.167875,-2.396797,-16.934498,-29.935896,-4.080750,1.049784,5.403308,-7.376497,-10.146785,-9.346717,1.293648,-0.245089,7.222940,-0.574241,-4.974228,7.161680,17.093773,84.293892,68.797531,16.323669,12.458094,6.582424,17.749044,-19.103380,12.402259,-3.052197,46.624950,8.340111,2.106949,-9.237864,43.470356,-13.464722,0.000000,170.000000,4.000000,,,,0.000000,4.000000,4.000000,4.000000,4.000000,4.000000,4.000000,4.000000,4.000000,4.000000,4.000000,4.000000,4.000000,4.000000,4.000000,4.000000,4.000000,4.000000,4.000000,4.000000,4.000000,4.000000,4.000000,4.000000,4.000000,4.000000,4.000000,4.000000,4.000000,4.000000,4.000000,4.000000,4.000000,100.000000
1614473300.409197,91.000000,0.000000,8.672528,-8.548246,-30.250896,-29.905960,-11.768977,-1.002548,6.936367,-9.420403,-12.187920,-8.311729,15.138508,-1.270485,5.164435,0.451975,-12.661562,19.975031,11.435654,80.619850,64.113350,12.717602,7.830251,6.063022,18.244116,-17.545816,12.902678,-13.305554,31.706530,8.844591,-10.202850,-9.741447,42.401245,-26.784590,0.000000,197.000000,4.000000,,,,0.000000,4.000000,4.000000,4.000000,4.000000,4.000000,4.000000,4.000000,4.000000,4.000000,4.000000,4.000000,4.000000,4.000000,4.000000,4.000000,4.000000,4.000000,4.000000,4.000000,4.000000,4.000000,4.000000,4.000000,4.000000,4.000000,4.000000,4.000000,4.000000,4.000000,4.000000,4.000000,4.000000,100.000000
1614473300.416846,92.000000,0.000000,8.151035,-7.514057,-35.348850,-27.824772,-12.270028,-12.796417,7.442251,-10.949444,-12.688553,-7.790597,8.456703,1.294888,5.159271,-3.651042,-22.392490,-4.147509,6.296013,67.205902,49.690262,6.551038,-7.049374,6.056958,17.713051,-31.887245,10.325672,-12.779428,36.803028,8.322926,-15.833673,-8.193244,41.846024,-24.706524,0.000000,214.000000,4.000000,,,,0.000000,4.000000,4.000000,4.000000,4.000000,4.000000,4.000000,4.000000,4.000000,4.000000,4.000000,4.000000,4.000000,4.000000,4.000000,4.000000,4.000000,4.000000,4.000000,4.000000,4.000000,4.000000,4.000000,4.000000,4.000000,4.000000,4.000000,4.000000,4.000000,4.000000,4.000000,4.000000,4.000000,100.000000
1614473300.424596,93.000000,0.000000,8.655704,-10.070645,-28.646835,-34.463615,-16.873142,-17.911825,3.332245,-10.938495,-14.214325,-9.834088,-7.962010,-2.808971,10.795137,-10.826878,-14.164969,-17.476694,16.033306,63.036129,52.204674,4.493205,-6.016684,6.563722,18.208158,-28.265614,-0.966705,-9.689726,38.304688,5.750500,-14.279378,-9.210692,37.701614,-24.168997,0.000000,196.000000,4.000000,,,,0.000000,4.000000,4.000000,4.000000,4.000000,4.000000,4.000000,4.000000,4.000000,4.000000,4.000000,4.000000,4.000000,4.000000,4.000000,4.000000,4.000000,4.000000,4.000000,4.000000,4.000000,4.000000,4.000000,4.000000,4.000000,4.000000,4.000000,4.000000,4.000000,4.000000,4.000000,4.000000,4.000000,100.000000
1614473300.432245,94.000000,0.000000,7.108587,-16.727242,-32.207932,-43.659920,-25.061398,-15.842631,-6.927498,-14.004479,-16.251392,-13.413998,-10.518151,-17.677958,2.066393,-12.867332,-13.637984,-15.407935,16.017273,63.485912,51.639648,5.514353,-1.908103,6.557158,16.651489,-23.109142,-7.119585,-17.885164,32.625355,4.719109,-14.265099,-17.919430,34.586987,-25.683289,0.000000,189.000000,4.000000,,,,0.000000,4.000000,4.000000,4.000000,4.000000,4.000000,4.000000,4.000000,4.000000,4.000000,4.000000,4.000000,4.000000,4.000000,4.000000,4.000000,4.000000,4.000000,4.000000,4.000000,4.000000,4.000000,4.000000,4.000000,4.000000,4.000000,4.000000,4.000000,4.000000,4.000000,4.000000,4.000000,4.000000,100.000000
1614473300.440094,95.000000,0.000000,4.537376,-17.736155,-38.329571,-38.488056,-23.497875,-16.339609,-3.843647,-18.605860,-16.747963,-12.374943,-4.353786,-20.737202,-10.756186,-12.341645,-27.470499,-24.623297,2.667923,55.730122,51.075191,3.457557,-4.983118,2.448037,14.583555,-26.675777,-3.522721,-21.457024,36.182476,7.278492,-13.738013,-18.414331,35.065220,-25.144785,0.000000,167.000000,4.000000,,,,0.000000,4.000000,4.000000,4.000000,4.000000,4.000000,4.000000,4.000000,4.000000,4.000000,4.000000,4.000000,4.000000,4.000000,4.000000,4.000000,4.000000,4.000000,4.000000,4.000000,4.000000,4.000000,4.000000,4.000000,4.000000,4.000000,4.000000,4.000000,4.000000,4.000000,4.000000,4.000000,4.000000,100.000000
1614473300.447844,96.000000,0.000000,4.020018,-19.769701,-36.239960,-30.757259,-20.910275,-16.836090,5.903786,-19.100073,-16.218393,-11.849748,-8.964817,-5.844670,-3.053122,-21.560072,-32.571236,-27.675596,7.793460,48.494904,60.767704,1.915638,-4.465314,-1.656975,13.543330,-18.443974,-5.570480,-17.333002,28.966805,8.809675,-17.314018,-5.575404,35.030155,-28.196564,8064.000000,0.000000,4.000000,,,,0.000000,4.000000,4.000000,4.000000,4.000000,4.000000,4.000000,4.000000,4.000000,4.000000,4.000000,4.000000,4.000000,4.000000,4.000000,4.000000,4.000000,4.000000,4.000000,4.000000,4.000000,4.000000,4.000000,4.000000,4.000000,4.000000,4.000000,4.000000,4.000000,4.000000,4.000000,4.000000,4.000000,100.000000
1614473300.455693,97.000000,0.000000,4.015998,-15.134546,-36.716541,-34.316246,-22.427826,-16.819254,1.795318,-18.055332,-16.202175,-22.094309,-15.109698,-1.223441,10.283264,-28.205179,-29.974562,-23.032536,20.093359,51.010509,57.630013,4.477825,-2.922388,0.908784,13.016967,-21.502453,-10.180295,-14.751566,20.219889,7.775225,-16.783884,-4.031367,30.892563,-32.270931,8064.000000,0.000000,4.000000,,,,0.000000,4.000000,4.000000,4.000000,4.000000,4.000000,4.000000,4.000000,4.000000,4.000000,4.000000,4.000000,4.000000,4.000000,4.000000,4.000000,4.000000,4.000000,4.000000,4.000000,4.000000,4.000000,4.000000,4.000000,4.000000,4.000000,4.000000,4.000000,4.000000,4.000000,4.000000,4.000000,4.000000,100.000000
1614473300.463442,98.000000,0.000000,4.011982,-1.786079,-33.602901,-35.820389,-19.328476,-16.289614,-5.898785,-18.550098,-16.185974,-25.149137,-14.581768,-7.888884,11.298622,-23.048769,-29.431767,-35.830017,14.432240,47.882576,33.982639,1.909244,-7.534850,1.933517,14.542411,-43.019413,-7.093191,-8.070148,39.174026,5.716167,-7.536331,-15.309387,27.271927,-32.751480,8064.000000,0.000000,4.000000,,,,0.000000,4.000000,4.000000,4.000000,4.000000,4.000000,4.000000,4.000000,4.000000,4.000000,4.000000,4.000000,4.000000,4.000000,4.000000,4.000000,4.000000,4.000000,4.000000,4.000000,4.000000,4.000000,4.000000,4.000000,4.000000,4.000000,4.000000,4.000000,4.000000,4.000000,4.000000,4.000000,4.000000,100.000000
1614473300.471291,99.000000,0.000000,4.520791,-4.861216,-25.876989,-32.707645,-15.719403,-15.760505,-3.328784,-18.531548,-16.169786,-12.816296,-16.618469,-8.906636,9.748862,-20.461618,-31.453615,-42.973675,7.751141,42.193668,22.666607,-5.272152,-9.578597,-2.170981,14.015048,-44.002033,-2.983534,-4.985155,45.801521,4.171989,-6.503153,-17.858181,27.244654,-32.205910,8064.000000,0.000000,4.000000,,,,0.000000,4.000000,4.000000,4.000000,4.000000,4.000000,4.000000,4.000000,4.000000,4.000000,4.000000,4.000000,4.000000,4.000000,4.000000,4.000000,4.000000,4.000000,4.000000,4.000000,4.000000,4.000000,4.000000,4.000000,4.000000,4.000000,4.000000,4.000000,4.000000,4.000000,4.000000,4.000000,4.000000,100.000000
1614473300.479041,100.000000,0.000000,3.490629,-15.625586,-29.953676,-32.674938,-14.165222,-16.770386,-0.248532,-18.513016,-16.153618,-11.265018,-8.396722,-7.359268,9.226293,-17.364233,-30.909342,-18.828136,8.769031,58.561729,43.669582,-6.805342,-7.004916,-0.630348,10.924110,-28.060595,-1.954909,-12.672478,24.217258,4.680638,-14.701778,-12.712117,27.730230,-31.148062,8064.000000,0.000000,4.000000,,,,0.000000,4.000000,4.000000,4.000000,4.000000,4.000000,4.000000,4.000000,4.000000,4.000000,4.000000,4.000000,4.000000,4.000000,4.000000,4.000000,4.000000,4.000000,4.000000,4.000000,4.000000,4.000000,4.000000,4.000000,4.000000,4.000000,4.000000,4.000000,4.000000,4.000000,4.000000,4.000000,4.000000,100.000000
1614473300.486890,101.000000,0.000000,5.025600,-7.404831,-37.103210,-32.129444,-9.535672,-16.240793,-1.273924,-18.494503,-16.137465,-22.535805,13.662956,-7.351909,13.319631,-5.039176,-23.186125,7.344538,9.273083,84.144196,75.420784,-2.695972,-3.920988,4.498487,14.502930,-20.340227,-2.978595,-12.146984,28.295605,6.727240,-9.046051,-12.186584,27.189680,-32.142555,8064.000000,0.000000,4.000000,,,,0.000000,4.000000,4.000000,4.000000,4.000000,4.000000,4.000000,4.000000,4.000000,4.000000,4.000000,4.000000,4.000000,4.000000,4.000000,4.000000,4.000000,4.000000,4.000000,4.000000,4.000000,4.000000,4.000000,4.000000,4.000000,4.000000,4.000000,4.000000,4.000000,4.000000,4.000000,4.000000,4.000000,100.000000
1614473300.494639,102.000000,0.000000,11.687241,5.935907,-30.912260,-34.661419,-9.526136,-11.609169,-2.298291,-18.476009,-16.634148,-25.590191,14.674934,-5.293275,19.972977,-1.957214,-15.470631,9.388475,12.340733,82.521591,72.268440,-2.180456,-1.865785,6.545270,25.770477,-22.883989,-4.001258,-1.878427,49.805771,8.258974,1.219405,-13.200039,27.675310,-32.623234,8064.000000,0.000000,4.000000,,,,0.000000,4.000000,4.000000,4.000000,4.000000,4.000000,4.000000,4.000000,4.000000,4.000000,4.000000,4.000000,4.000000,4.000000,4.000000,4.000000,4.000000,4.000000,4.000000,4.000000,4.000000,4.000000,4.000000,4.000000,4.000000,4.000000,4.000000,4.000000,4.000000,4.000000,4.000000,4.000000,4.000000,100.000000
1614473300.502488,103.000000,0.000000,16.290937,5.929971,-25.753143,-37.703678,-11.567892,-8.520637,-1.783172,-18.457533,-16.104692,-23.513319,-5.852561,-6.313623,16.363260,-11.186026,-16.480801,-7.543990,15.918135,63.464710,43.478222,-4.229558,-2.889560,6.025905,26.770348,-33.630337,2.669410,-4.440651,42.063656,8.250715,0.705365,-13.186839,27.134815,-28.488047,8064.000000,0.000000,4.000000,,,,0.000000,4.000000,4.000000,4.000000,4.000000,4.000000,4.000000,4.000000,4.000000,4.000000,4.000000,4.000000,4.000000,4.000000,4.000000,4.000000,4.000000,4.000000,4.000000,4.000000,4.000000,4.000000,4.000000,4.000000,4.000000,4.000000,4.000000,4.000000,4.000000,4.000000,4.000000,4.000000,4.000000,100.000000
1614473300.510238,104.000000,0.000000,15.761827,3.359938,-26.753031,-30.486488,-8.479402,-8.512115,3.346816,-18.439075,-16.088587,-22.464165,-12.000554,-8.358591,6.603308,-13.738942,-19.541245,-19.331318,13.338115,61.862782,46.511665,-3.712507,-2.886671,6.019879,19.051270,-35.135166,7.794946,-12.128518,27.149799,7.729644,0.191839,-12.660831,26.594858,-29.998018,8064.000000,0.000000,4.000000,,,,0.000000,4.000000,4.000000,4.000000,4.000000,4.000000,4.000000,4.000000,4.000000,4.000000,4.000000,4.000000,4.000000,4.000000,4.000000,4.000000,4.000000,4.000000,4.000000,4.000000,4.000000,4.000000,4.000000,4.000000,4.000000,4.000000,4.000000,4.000000,4.000000,4.000000,4.000000,4.000000,4.000000,100.000000
1614473300.518087,105.000000,0.000000,15.233245,2.843758,-28.264740,-27.891899,-10.009384,-9.016424,8.984494,-18.420635,-17.098141,-20.903238,-4.809067,-7.837412,5.058243,-8.596998,-19.008883,-0.850448,12.811955,74.621429,73.131821,-2.170333,3.270062,6.013859,16.468117,-15.612852,-4.007721,-11.090749,28.661110,8.234735,-0.833993,-10.596889,28.619547,-43.814175,8064.000000,0.000000,4.000000,,,,0.000000,4.000000,4.000000,4.000000,4.000000,4.000000,4.000000,4.000000,4.000000,4.000000,4.000000,4.000000,4.000000,4.000000,4.000000,4.000000,4.000000,4.000000,4.000000,4.000000,4.000000,4.000000,4.000000,4.000000,4.000000,4.000000,4.000000,4.000000,4.000000,4.000000,4.000000,4.000000,4.000000,100.000000
1614473300.525836,106.000000,0.000000,15.730832,1.302453,-33.364681,-38.120419,-12.050656,-8.494587,8.462689,-18.402216,-15.542581,-23.959259,-3.265796,-8.855216,7.104467,-8.588402,-21.041155,14.535018,14.850426,68.905785,65.366379,-6.783547,-1.861413,6.007845,16.964470,-15.597239,-16.824226,-6.977094,30.683731,8.739321,-4.935724,-9.047830,25.001183,-52.488308,8192.000000,0.000000,4.000000,,,,0.000000,4.000000,4.000000,4.000000,4.000000,4.000000,4.000000,4.000000,4.000000,4.000000,4.000000,4.000000,4.000000,4.000000,4.000000,4.000000,4.000000,4.000000,4.000000,4.000000,4.000000,4.000000,4.000000,4.000000,4.000000,4.000000,4.000000,4.000000,4.000000,4.000000,4.000000,4.000000,4.000000,100.000000
1614473300.533685,107.000000,0.000000,15.202280,3.865253,-33.331314,-36.543835,-6.397580,-8.998913,5.890124,-15.819711,-10.911654,-21.884018,-10.954838,-11.410463,6.071722,-12.682377,-26.661140,-17.787209,12.784293,38.067650,34.531784,-9.853687,-18.782629,6.001837,16.947504,-41.222668,-17.320223,-4.918835,32.704330,7.704940,-2.879506,-9.038782,19.847977,-46.794796,8064.000000,0.000000,4.000000,,,,0.000000,4.000000,4.000000,4.000000,4.000000,4.000000,4.000000,4.000000,4.000000,4.000000,4.000000,4.000000,4.000000,4.000000,4.000000,4.000000,4.000000,4.000000,4.000000,4.000000,4.000000,4.000000,4.000000,4.000000,4.000000,4.000000,4.000000,4.000000,4.000000,4.000000,4.000000,4.000000,4.000000,100.000000
1614473300.541435,108.000000,0.000000,15.699899,4.887028,-23.041574,-24.712420,-7.929644,-8.989914,5.371414,-12.214148,-8.336638,-10.067262,-14.020806,-6.783668,6.065650,-14.208157,-28.172939,-45.461731,13.797151,30.850094,33.471611,2.463859,-11.071538,5.483015,17.956198,-37.591702,-14.225979,-4.401095,35.748547,8.722877,3.277220,-8.004103,28.033257,-40.594154,8064.000000,0.000000,4.000000,,,,0.000000,4.000000,4.000000,4.000000,4.000000,4.000000,4.000000,4.000000,4.000000,4.000000,4.000000,4.000000,4.000000,4.000000,4.000000,4.000000,4.000000,4.000000,4.000000,4.000000,4.000000,4.000000,4.000000,4.000000,4.000000,4.000000,4.000000,4.000000,4.000000,4.000000,4.000000,4.000000,4.000000,100.000000
1614473300.549084,109.000000,0.000000,15.171378,3.856500,-22.505713,-21.097963,-14.075561,-8.980925,5.878863,-11.689113,-8.841123,-5.954630,3.941933,-1.135859,6.059584,-3.937538,-18.401176,-12.595755,20.962841,63.639755,66.258652,20.922934,17.657482,7.015994,15.374140,-8.836162,0.147221,-5.422335,36.738441,12.816717,4.299583,-7.483278,40.825737,-35.938175,8064.000000,0.000000,4.000000,,,,0.000000,4.000000,4.000000,4.000000,4.000000,4.000000,4.000000,4.000000,4.000000,4.000000,4.000000,4.000000,4.000000,4.000000,4.000000,4.000000,4.000000,4.000000,4.000000,4.000000,4.000000,4.000000,4.000000,4.000000,4.000000,4.000000,4.000000,4.000000,4.000000,4.000000,4.000000,4.000000,4.000000,100.000000
1614473300.556834,110.000000,0.000000,14.643387,7.955208,-25.047308,-15.435840,-0.728152,-8.971944,10.488369,-10.651783,-5.755359,-2.871753,28.040554,-0.109082,7.079165,6.835630,-6.075084,16.134789,24.531620,82.037659,81.064186,22.953293,22.255209,8.547439,19.461329,1.429085,23.736818,-0.288708,46.445293,15.368003,7.372207,-3.373230,43.349014,-28.209930,8064.000000,0.000000,4.000000,,,,0.000000,4.000000,4.000000,4.000000,4.000000,4.000000,4.000000,4.000000,4.000000,4.000000,4.000000,4.000000,4.000000,4.000000,4.000000,4.000000,4.000000,4.000000,4.000000,4.000000,4.000000,4.000000,4.000000,4.000000,4.000000,4.000000,4.000000,4.000000,4.000000,4.000000,4.000000,4.000000,4.000000,100.000000
1614473300.564483,111.000000,0.000000,17.705666,12.049817,-18.355595,-7.728096,12.605910,-8.962972,16.631727,-6.025746,-1.134219,5.849068,22.884310,2.967950,11.174650,-1.376333,-4.017727,-5.419807,23.994268,59.904335,58.419022,17.802134,7.873980,9.564532,39.954689,-4.726190,22.174620,5.865427,55.629616,15.865456,9.416117,0.732707,42.792843,-22.540695,8064.000000,0.000000,4.000000,,,,0.000000,4.000000,4.000000,4.000000,4.000000,4.000000,4.000000,4.000000,4.000000,4.000000,4.000000,4.000000,4.000000,4.000000,4.000000,4.000000,4.000000,4.000000,4.000000,4.000000,4.000000,4.000000,4.000000,4.000000,4.000000,4.000000,4.000000,4.000000,4.000000,4.000000,4.000000,4.000000,4.000000,100.000000
1614473300.572232,112.000000,0.000000,18.713602,4.858280,-18.337238,-15.412676,0.285612,-8.954008,15.076633,-2.429977,-0.620264,-4.413191,7.989630,2.964983,12.189116,-15.221111,-4.013709,-7.978490,22.944633,62.921356,50.155476,21.886896,5.302003,10.580609,49.145504,-9.849669,0.101163,1.244177,49.420139,15.336770,3.765675,-2.857769,39.673126,-23.543795,8064.000000,0.000000,4.000000,,,,0.000000,4.000000,4.000000,4.000000,4.000000,4.000000,4.000000,4.000000,4.000000,4.000000,4.000000,4.000000,4.000000,4.000000,4.000000,4.000000,4.000000,4.000000,4.000000,4.000000,4.000000,4.000000,4.000000,4.000000,4.000000,4.000000,4.000000,4.000000,4.000000,4.000000,4.000000,4.000000,4.000000,100.000000
1614473300.579882,113.000000,0.000000,14.592323,-3.351707,-25.498388,-25.653673,-13.560828,-9.457875,10.446172,-3.966008,-3.183746,-22.357496,5.930358,-12.422598,9.612825,-17.257172,-2.984054,9.465386,18.306305,83.371254,62.413013,16.223984,1.706958,6.980285,34.737385,-14.968024,-8.616887,-4.910913,41.165592,11.218869,-0.853475,-8.495937,29.377045,-27.109995,8064.000000,0.000000,4.000000,,,,0.000000,4.000000,4.000000,4.000000,4.000000,4.000000,4.000000,4.000000,4.000000,4.000000,4.000000,4.000000,4.000000,4.000000,4.000000,4.000000,4.000000,4.000000,4.000000,4.000000,4.000000,4.000000,4.000000,4.000000,4.000000,4.000000,4.000000,4.000000,4.000000,4.000000,4.000000,4.000000,4.000000,100.000000
1614473300.587631,114.000000,0.000000,12.013629,-3.348355,-22.908789,-23.576738,-12.521626,-7.909956,8.897264,-7.038966,-5.231844,-16.181292,-6.383265,-24.205048,5.500648,-16.727095,-11.186198,-11.056900,12.134151,59.698139,44.401882,-3.792240,-11.115262,-0.206183,22.394953,-20.594082,-5.018527,-4.393182,39.585964,7.105086,0.173019,-5.923339,27.809206,-27.082884,8064.000000,0.000000,4.000000,,,,0.000000,4.000000,4.000000,4.000000,4.000000,4.000000,4.000000,4.000000,4.000000,4.000000,4.000000,4.000000,4.000000,4.000000,4.000000,4.000000,4.000000,4.000000,4.000000,4.000000,4.000000,4.000000,4.000000,4.000000,4.000000,4.000000,4.000000,4.000000,4.000000,4.000000,4.000000,4.000000,4.000000,100.000000
1614473300.595280,115.000000,0.000000,14.565718,-2.319366,-18.783316,-21.501879,-10.970643,-5.850764,9.401187,-7.031927,-5.226613,-5.908701,-13.043548,-15.975714,5.495148,-15.684726,-18.354500,-24.891996,12.122018,40.151260,33.075428,-3.275628,-12.642609,0.819665,18.782814,-20.060667,-6.551970,-4.388789,37.495098,11.200545,0.172846,-1.814851,33.935242,-27.055801,8064.000000,0.000000,4.000000,,,,0.000000,4.000000,4.000000,4.000000,4.000000,4.000000,4.000000,4.000000,4.000000,4.000000,4.000000,4.000000,4.000000,4.000000,4.000000,4.000000,4.000000,4.000000,4.000000,4.000000,4.000000,4.000000,4.000000,4.000000,4.000000,4.000000,4.000000,4.000000,4.000000,4.000000,4.000000,4.000000,4.000000,100.000000
1614473300.603030,116.000000,0.000000,15.063972,-3.342687,-21.328634,-20.967556,-9.934031,-5.332092,10.417427,-7.024895,-4.708566,-14.620741,7.482316,-4.677687,12.669140,-9.515195,-11.669478,-0.764540,14.673998,67.803421,65.862869,16.214828,-2.886376,8.511152,19.276852,-14.399581,-8.083879,-4.384400,39.508884,14.779088,0.172674,-1.300216,27.747461,-31.131310,8064.000000,0.000000,4.000000,,,,0.000000,4.000000,4.000000,4.000000,4.000000,4.000000,4.000000,4.000000,4.000000,4.000000,4.000000,4.000000,4.000000,4.000000,4.000000,4.000000,4.000000,4.000000,4.000000,4.000000,4.000000,4.000000,4.000000,4.000000,4.000000,4.000000,4.000000,4.000000,4.000000,4.000000,4.000000,4.000000,4.000000,100.000000
1614473300.610679,117.000000,0.000000,14.536088,-3.339345,-23.871408,-23.510693,-8.898457,-4.813940,6.304446,-8.556332,-7.267960,-21.785606,7.987655,-4.160189,17.271854,-11.556962,-9.606526,-6.404801,15.172145,69.274078,68.873924,14.147330,-1.345028,10.041103,26.949883,-20.026207,-6.537334,-1.303092,38.956554,11.174565,2.223783,-1.811736,19.514585,-35.715565,8064.000000,0.000000,4.000000,,,,0.000000,4.000000,4.000000,4.000000,4.000000,4.000000,4.000000,4.000000,4.000000,4.000000,4.000000,4.000000,4.000000,4.000000,4.000000,4.000000,4.000000,4.000000,4.000000,4.000000,4.000000,4.000000,4.000000,4.000000,4.000000,4.000000,4.000000,4.000000,4.000000,4.000000,4.000000,4.000000,4.000000,100.000000
1614473300.618528,118.000000,0.000000,15.547193,-2.823185,-25.898819,-36.307693,-11.453660,-2.757844,-2.932628,-11.111877,-8.799153,-22.276642,-12.020333,-5.181670,10.075096,-16.673611,-17.802048,-26.398397,15.156973,48.691982,36.497360,-1.251432,-2.882145,6.441319,22.820370,-33.852333,-7.556437,-3.865892,25.584265,7.060827,3.247200,-6.938129,20.007893,-34.654205,8064.000000,0.000000,4.000000,,,,0.000000,4.000000,4.000000,4.000000,4.000000,4.000000,4.000000,4.000000,4.000000,4.000000,4.000000,4.000000,4.000000,4.000000,4.000000,4.000000,4.000000,4.000000,4.000000,4.000000,4.000000,4.000000,4.000000,4.000000,4.000000,4.000000,4.000000,4.000000,4.000000,4.000000,4.000000,4.000000,4.000000,100.000000
1614473300.626278,119.000000,0.000000,13.480364,-2.820361,-29.462664,-43.963696,-10.929386,-0.703804,0.147228,-14.690509,-8.790354,-25.844109,1.837841,-3.638026,7.500918,-6.913347,-16.758606,-7.910460,18.218739,67.104828,49.794197,-3.301463,-0.315160,4.383595,1.259088,-29.203098,-9.600163,-11.041513,14.276628,8.079407,4.782414,-13.085037,15.372499,-37.183655,8064.000000,0.000000,4.000000,,,,0.000000,4.000000,4.000000,4.000000,4.000000,4.000000,4.000000,4.000000,4.000000,4.000000,4.000000,4.000000,4.000000,4.000000,4.000000,4.000000,4.000000,4.000000,4.000000,4.000000,4.000000,4.000000,4.000000,4.000000,4.000000,4.000000,4.000000,4.000000,4.000000,4.000000,4.000000,4.000000,4.000000,100.000000
1614473300.634027,120.000000,0.000000,11.415602,-3.330362,-33.535767,-36.740242,-5.790252,-1.728741,9.377850,-18.265562,-9.294384,-26.843906,12.092413,-3.121568,12.108802,-8.444895,-23.921333,-15.594857,12.559494,58.832596,56.923889,-4.836623,-6.468691,3.353570,-1.306274,-24.558510,-12.154666,-12.056112,13.236712,8.584147,2.213530,-12.046311,9.203280,-43.813137,8064.000000,0.000000,4.000000,,,,0.000000,4.000000,4.000000,4.000000,4.000000,4.000000,4.000000,4.000000,4.000000,4.000000,4.000000,4.000000,4.000000,4.000000,4.000000,4.000000,4.000000,4.000000,4.000000,4.000000,4.000000,4.000000,4.000000,4.000000,4.000000,4.000000,4.000000,4.000000,4.000000,4.000000,4.000000,4.000000,4.000000,100.000000
1614473300.641676,121.000000,0.000000,14.993929,-1.788570,-37.604794,-33.113758,-3.733179,-5.829576,3.727446,-18.760117,-7.746628,-29.893986,-15.611987,-4.144087,6.968488,-28.949270,-45.435875,-47.886955,0.239242,26.466070,24.559273,-10.985632,-18.769915,1.811755,11.002725,-44.021130,-13.680973,-8.454313,15.274756,7.549922,-2.916889,-8.957342,10.732539,-46.333427,8064.000000,0.000000,4.000000,,,,0.000000,4.000000,4.000000,4.000000,4.000000,4.000000,4.000000,4.000000,4.000000,4.000000,4.000000,4.000000,4.000000,4.000000,4.000000,4.000000,4.000000,4.000000,4.000000,4.000000,4.000000,4.000000,4.000000,4.000000,4.000000,4.000000,4.000000,4.000000,4.000000,4.000000,4.000000,4.000000,4.000000,100.000000
1614473300.649426,122.000000,0.000000,19.081499,0.264501,-37.567188,-36.157570,-4.242267,-7.362208,1.159616,-18.228537,-4.661958,-33.966656,-17.647657,-4.139943,6.961520,-24.817757,-38.723770,-29.890350,6.905670,44.901142,25.047533,-4.820800,-15.161401,2.322764,9.453260,-44.489929,-13.667292,-7.420218,20.900507,8.055193,1.188592,-8.948385,9.696165,-46.287094,7936.000000,0.000000,4.000000,,,,0.000000,4.000000,4.000000,4.000000,4.000000,4.000000,4.000000,4.000000,4.000000,4.000000,4.000000,4.000000,4.000000,4.000000,4.000000,4.000000,4.000000,4.000000,4.000000,4.000000,4.000000,4.000000,4.000000,4.000000,4.000000,4.000000,4.000000,4.000000,4.000000,4.000000,4.000000,4.000000,4.000000,100.000000
1614473300.657075,123.000000,0.000000,19.575239,1.289877,-34.452698,-34.070129,-4.750845,-5.816385,12.953328,-18.210308,-6.195758,-26.753202,9.549479,-3.110162,18.236609,-3.254478,-14.069663,2.960053,22.796200,77.676750,57.842999,0.825046,-3.351368,2.320441,8.930986,-20.342876,-14.166445,-7.412797,26.007813,8.559958,9.392531,-8.426616,11.224931,-45.727985,8064.000000,0.000000,4.000000,,,,0.000000,4.000000,4.000000,4.000000,4.000000,4.000000,4.000000,4.000000,4.000000,4.000000,4.000000,4.000000,4.000000,4.000000,4.000000,4.000000,4.000000,4.000000,4.000000,4.000000,4.000000,4.000000,4.000000,4.000000,4.000000,4.000000,4.000000,4.000000,4.000000,4.000000,4.000000,4.000000,4.000000,100.000000
1614473300.664924,124.000000,0.000000,18.530022,0.775767,-33.905426,-31.471956,-3.720453,-4.784927,12.427554,-18.192099,-9.266485,-20.059782,3.386082,-4.645514,13.090168,-8.379429,-23.286364,-17.555727,13.542635,48.881130,44.451824,-8.406549,-5.912119,2.318121,13.024619,-24.937918,-14.152278,-7.918205,23.417702,8.038578,6.819036,-6.879728,20.957296,-41.066875,8064.000000,0.000000,4.000000,,,,0.000000,4.000000,4.000000,4.000000,4.000000,4.000000,4.000000,4.000000,4.000000,4.000000,4.000000,4.000000,4.000000,4.000000,4.000000,4.000000,4.000000,4.000000,4.000000,4.000000,4.000000,4.000000,4.000000,4.000000,4.000000,4.000000,4.000000,4.000000,4.000000,4.000000,4.000000,4.000000,4.000000,100.000000
1614473300.672674,125.000000,0.000000,18.511492,0.774991,-33.871521,-31.953304,-0.639809,-5.805783,3.184358,-17.661085,-4.641834,-24.142286,-13.027560,-8.743432,0.769385,-21.191563,-41.211796,-39.589455,-1.342703,23.704042,34.150959,-14.039167,-13.598515,2.315803,4.293646,-39.784775,-13.112485,-7.397467,24.932745,8.030540,4.760935,-4.821566,18.885056,-38.461704,8064.000000,0.000000,4.000000,,,,0.000000,4.000000,4.000000,4.000000,4.000000,4.000000,4.000000,4.000000,4.000000,4.000000,4.000000,4.000000,4.000000,4.000000,4.000000,4.000000,4.000000,4.000000,4.000000,4.000000,4.000000,4.000000,4.000000,4.000000,4.000000,4.000000,4.000000,4.000000,4.000000,4.000000,4.000000,4.000000,4.000000,100.000000
1614473300.680523,126.000000,0.000000,19.518621,1.287037,-33.324829,-32.434174,-2.177631,-5.287157,2.155532,-18.669065,-0.534628,-27.707888,-8.911968,-7.196227,7.435282,-19.631908,-27.324429,-12.883198,7.889409,56.500851,64.373222,-8.384103,-12.559275,2.313487,6.340635,-32.565502,-16.689116,-6.877248,28.497557,8.535330,3.730533,-3.278283,6.558479,-43.551449,8064.000000,0.000000,4.000000,,,,0.000000,4.000000,4.000000,4.000000,4.000000,4.000000,4.000000,4.000000,4.000000,4.000000,4.000000,4.000000,4.000000,4.000000,4.000000,4.000000,4.000000,4.000000,4.000000,4.000000,4.000000,4.000000,4.000000,4.000000,4.000000,4.000000,4.000000,4.000000,4.000000,4.000000,4.000000,4.000000,4.000000,100.000000
1614473300.688272,127.000000,0.000000,17.447821,0.260109,-38.419708,-34.453018,-10.893402,-5.281870,-4.513290,-18.137575,-3.611017,-27.680180,-10.954338,-4.112108,13.581694,-21.150738,-16.015053,-0.049801,15.061007,72.341789,60.206284,-5.298795,-12.546716,2.311173,22.231730,-38.173962,-20.774992,-14.049858,21.289572,6.475512,-6.529607,-11.480133,2.962177,-47.610462,8064.000000,0.000000,4.000000,,,,0.000000,4.000000,4.000000,4.000000,4.000000,4.000000,4.000000,4.000000,4.000000,4.000000,4.000000,4.000000,4.000000,4.000000,4.000000,4.000000,4.000000,4.000000,4.000000,4.000000,4.000000,4.000000,4.000000,4.000000,4.000000,4.000000,4.000000,4.000000,4.000000,4.000000,4.000000,4.000000,4.000000,100.000000
1614473300.696122,0.000000,0.000000,9.225245,-1.791433,-41.458210,-35.957027,-16.523535,-5.789409,-7.585700,-17.606617,-8.222791,-26.114038,-10.943384,-11.800303,6.901445,-19.591125,-21.127243,-13.383085,6.327997,51.756622,43.735821,-7.344779,-13.559810,2.308862,16.055653,-50.443481,-16.138832,-21.728117,19.729820,2.366472,-9.600001,-22.237883,3.472035,-45.511566,0.000000,192.000000,4.000000,,,,0.000000,4.000000,4.000000,4.000000,4.000000,4.000000,4.000000,4.000000,4.000000,4.000000,4.000000,4.000000,4.000000,4.000000,4.000000,4.000000,4.000000,4.000000,4.000000,4.000000,4.000000,4.000000,4.000000,4.000000,4.000000,4.000000,4.000000,4.000000,4.000000,4.000000,4.000000,4.000000,4.000000,100.000000
1614473300.703871,1.000000,0.000000,3.574994,-3.328104,-37.827011,-35.921070,-15.994190,-4.245158,4.729578,-20.153112,-11.291491,-20.959719,3.426534,-18.455170,4.843261,-10.853586,-22.131756,-15.420984,4.270387,48.115124,58.563881,-6.824614,-9.956507,2.306553,2.193443,-34.495602,-9.968846,-23.244850,25.863937,0.312824,-1.385273,-21.190004,6.545486,-45.466057,0.000000,194.000000,4.000000,,,,0.000000,4.000000,4.000000,4.000000,4.000000,4.000000,4.000000,4.000000,4.000000,4.000000,4.000000,4.000000,4.000000,4.000000,4.000000,4.000000,4.000000,4.000000,4.000000,4.000000,4.000000,4.000000,4.000000,4.000000,4.000000,4.000000,4.000000,4.000000,4.000000,4.000000,4.000000,4.000000,4.000000,100.000000
1614473300.711720,2.000000,0.000000,6.135522,-3.324775,-37.789181,-36.397972,-15.465376,-6.805015,2.160746,-22.184242,-12.305840,-22.990042,-1.705098,-11.770048,4.838418,-19.560682,-28.263472,-22.072229,3.240476,35.759315,53.377110,-6.304968,-11.997832,2.304247,6.293813,-31.384184,-10.471698,-23.734425,22.248329,0.312511,-6.512093,-17.066250,13.718428,-47.471874,0.000000,169.000000,4.000000,,,,0.000000,4.000000,4.000000,4.000000,4.000000,4.000000,4.000000,4.000000,4.000000,4.000000,4.000000,4.000000,4.000000,4.000000,4.000000,4.000000,4.000000,4.000000,4.000000,4.000000,4.000000,4.000000,4.000000,4.000000,4.000000,4.000000,4.000000,4.000000,4.000000,4.000000,4.000000,4.000000,4.000000,100.000000
1614473300.719469,3.000000,0.000000,7.155027,-2.808630,-36.725754,-34.823112,-16.475552,-12.952056,-11.687569,-17.033854,-7.165329,-26.043974,-22.729034,-6.117252,2.782298,-34.412914,-39.004440,-41.024517,-4.967893,19.313301,37.939117,-6.811484,-17.114040,2.301943,10.902904,-49.301517,-8.409945,-16.531204,25.815825,0.312199,-14.710709,-16.536364,17.807274,-38.706451,0.000000,191.000000,4.000000,,,,0.000000,4.000000,4.000000,4.000000,4.000000,4.000000,4.000000,4.000000,4.000000,4.000000,4.000000,4.000000,4.000000,4.000000,4.000000,4.000000,4.000000,4.000000,4.000000,4.000000,4.000000,4.000000,4.000000,4.000000,4.000000,4.000000,4.000000,4.000000,4.000000,4.000000,4.000000,4.000000,4.000000,100.000000
1614473300.727319,4.000000,0.000000,7.147872,-0.754539,-22.330051,-28.121622,-15.946256,-10.375002,-0.393829,-10.862973,-1.004318,-15.761519,-25.270407,-8.162417,6.882080,-27.711836,-28.709024,-40.983490,0.678101,33.140141,51.747334,-2.702108,-7.866156,2.299641,10.892001,-41.559910,0.316414,1.946866,46.815651,0.311886,-4.439588,-5.237776,32.148441,-21.231848,0.000000,164.000000,4.000000,,,,0.000000,4.000000,4.000000,4.000000,4.000000,4.000000,4.000000,4.000000,4.000000,4.000000,4.000000,4.000000,4.000000,4.000000,4.000000,4.000000,4.000000,4.000000,4.000000,4.000000,4.000000,4.000000,4.000000,4.000000,4.000000,4.000000,4.000000,4.000000,4.000000,4.000000,4.000000,4.000000,4.000000,100.000000
1614473300.735068,5.000000,0.000000,7.653545,0.784677,-10.512851,-23.990936,-12.853386,-2.672319,17.042461,-9.826468,-1.516134,-5.489348,-10.373343,-5.590152,10.464941,-13.837971,-11.757237,-21.455328,10.421012,49.004436,60.413532,3.967261,4.962223,2.297341,18.060596,-21.518349,5.444303,9.124406,47.281654,0.824395,5.821262,9.639256,56.731678,-14.031129,0.000000,171.000000,4.000000,,,,0.000000,4.000000,4.000000,4.000000,4.000000,4.000000,4.000000,4.000000,4.000000,4.000000,4.000000,4.000000,4.000000,4.000000,4.000000,4.000000,4.000000,4.000000,4.000000,4.000000,4.000000,4.000000,4.000000,4.000000,4.000000,4.000000,4.000000,4.000000,4.000000,4.000000,4.000000,4.000000,4.000000,100.000000
1614473300.742917,6.000000,0.000000,5.594609,0.783892,-18.194645,-23.454124,-9.763610,-2.156826,15.999779,-10.842283,-4.591541,-3.432576,4.508826,-1.481998,9.941655,-11.260030,-9.181378,-6.562078,6.820848,52.545177,60.353119,5.501755,4.444440,1.782223,21.119459,-20.471189,4.926038,-2.166770,27.234373,-0.714891,4.276979,6.552694,54.623661,-20.170944,0.000000,203.000000,4.000000,,,,0.000000,4.000000,4.000000,4.000000,4.000000,4.000000,4.000000,4.000000,4.000000,4.000000,4.000000,4.000000,4.000000,4.000000,4.000000,4.000000,4.000000,4.000000,4.000000,4.000000,4.000000,4.000000,4.000000,4.000000,4.000000,4.000000,4.000000,4.000000,4.000000,4.000000,4.000000,4.000000,4.000000,100.000000
1614473300.750666,7.000000,0.000000,9.178759,0.783108,-29.971323,-24.456310,-8.728205,-5.744413,14.445317,-10.831441,-5.612590,-2.916323,8.094061,0.570766,12.495816,-12.274411,-12.249120,-4.504234,9.378129,60.184937,73.626099,4.470612,-0.688210,2.293262,18.534237,-21.476358,4.408291,-6.267167,26.694319,1.849927,3.247061,2.443578,37.133141,-26.304619,0.000000,214.000000,4.000000,,,,0.000000,4.000000,4.000000,4.000000,4.000000,4.000000,4.000000,4.000000,4.000000,4.000000,4.000000,4.000000,4.000000,4.000000,4.000000,4.000000,4.000000,4.000000,4.000000,4.000000,4.000000,4.000000,4.000000,4.000000,4.000000,4.000000,4.000000,4.000000,4.000000,4.000000,4.000000,4.000000,4.000000,100.000000
1614473300.758516,8.000000,0.000000,18.400349,0.782325,-30.454172,-33.149803,-7.181015,-5.738668,8.277025,-9.794969,-4.068516,-13.169817,-2.683264,1.083016,12.483320,-15.339060,-12.749691,-11.679217,15.009777,53.970909,64.834526,4.466142,-4.277265,4.855071,20.566984,-27.608728,4.403883,1.431408,40.000957,9.540384,4.269455,8.594980,41.711391,-26.791136,0.000000,174.000000,4.000000,,,,0.000000,4.000000,4.000000,4.000000,4.000000,4.000000,4.000000,4.000000,4.000000,4.000000,4.000000,4.000000,4.000000,4.000000,4.000000,4.000000,4.000000,4.000000,4.000000,4.000000,4.000000,4.000000,4.000000,4.000000,4.000000,4.000000,4.000000,4.000000,4.000000,4.000000,4.000000,4.000000,4.000000,100.000000
1614473300.766265,9.000000,0.000000,18.894770,0.781543,-28.885256,-44.398705,-8.712296,-4.707289,-7.628687,-10.810815,-5.602909,-30.079725,-14.475452,-7.636016,7.855453,-21.477568,-16.326685,-23.462410,4.225536,33.404118,38.615845,4.461675,-10.426834,5.875857,20.033598,-42.452915,5.425120,2.455618,41.499416,11.069305,4.265186,6.022283,50.387630,-27.789986,0.000000,193.000000,4.000000,,,,0.000000,4.000000,4.000000,4.000000,4.000000,4.000000,4.000000,4.000000,4.000000,4.000000,4.000000,4.000000,4.000000,4.000000,4.000000,4.000000,4.000000,4.000000,4.000000,4.000000,4.000000,4.000000,4.000000,4.000000,4.000000,4.000000,4.000000,4.000000,4.000000,4.000000,4.000000,4.000000,4.000000,100.000000
1614473300.774114,10.000000,0.000000,14.773310,0.780761,-30.394833,-47.431229,-12.806148,-5.215402,-7.621058,-17.466671,-12.263973,-28.511183,-15.486618,-15.833508,5.796315,-24.020191,-18.361641,-30.105614,0.631567,28.755327,37.551586,4.970034,-7.339484,5.869981,15.398179,-34.718155,6.958157,-1.136582,38.380997,8.494134,3.748100,-1.676048,49.311604,-28.275015,0.000000,202.000000,4.000000,,,,0.000000,4.000000,4.000000,4.000000,4.000000,4.000000,4.000000,4.000000,4.000000,4.000000,4.000000,4.000000,4.000000,4.000000,4.000000,4.000000,4.000000,4.000000,4.000000,4.000000,4.000000,4.000000,4.000000,4.000000,4.000000,4.000000,4.000000,4.000000,4.000000,4.000000,4.000000,4.000000,4.000000,100.000000
1614473300.781863,11.000000,0.000000,18.861101,0.779980,-33.441360,-46.358158,-6.639495,-4.697366,7.258357,-21.038948,-15.841453,-19.251904,-10.342926,-7.099726,5.790519,-22.970531,-19.368919,-22.896021,13.451448,33.341957,47.257626,3.426603,-2.203939,5.864111,13.331498,-22.375744,6.951199,-1.648265,39.368256,10.024101,1.693070,4.479475,54.903316,-27.221100,0.000000,193.000000,4.000000,,,,0.000000,4.000000,4.000000,4.000000,4.000000,4.000000,4.000000,4.000000,4.000000,4.000000,4.000000,4.000000,4.000000,4.000000,4.000000,4.000000,4.000000,4.000000,4.000000,4.000000,4.000000,4.000000,4.000000,4.000000,4.000000,4.000000,4.000000,4.000000,4.000000,4.000000,4.000000,4.000000,4.000000,100.000000
1614473300.789513,12.000000,0.000000,21.406342,0.779200,-34.433559,-46.824619,3.110734,-5.718309,7.763919,-16.915344,-13.774329,-22.309574,-5.204379,3.676605,5.784729,-22.947559,-17.811089,-10.565434,13.437997,35.359898,47.723190,-1.192209,-9.894043,5.858247,10.754065,-32.609779,2.841683,-0.108156,40.867348,11.552539,-0.359905,14.218585,53.822773,-28.732340,0.000000,182.000000,4.000000,,,,0.000000,4.000000,4.000000,4.000000,4.000000,4.000000,4.000000,4.000000,4.000000,4.000000,4.000000,4.000000,4.000000,4.000000,4.000000,4.000000,4.000000,4.000000,4.000000,4.000000,4.000000,4.000000,4.000000,4.000000,4.000000,4.000000,4.000000,4.000000,4.000000,4.000000,4.000000,4.000000,4.000000,100.000000
1614473300.797262,13.000000,0.000000,18.820833,0.265601,-28.245281,-46.264973,-0.482120,-5.712591,0.576668,-13.821507,-12.734914,-21.261623,-4.173533,-1.968097,11.932790,-23.950254,-11.126612,-6.452303,10.347636,42.504025,54.342133,3.937189,-12.448252,5.339568,11.256131,-34.115631,-0.238081,1.943235,41.852123,8.464063,2.717378,13.178725,42.999718,-27.165146,0.000000,192.000000,4.000000,,,,0.000000,4.000000,4.000000,4.000000,4.000000,4.000000,4.000000,4.000000,4.000000,4.000000,4.000000,4.000000,4.000000,4.000000,4.000000,4.000000,4.000000,4.000000,4.000000,4.000000,4.000000,4.000000,4.000000,4.000000,4.000000,4.000000,4.000000,4.000000,4.000000,4.000000,4.000000,4.000000,4.000000,100.000000
1614473300.804912,14.000000,0.000000,20.853294,0.778156,-21.550369,-43.654606,-8.173945,-0.578674,1.601733,-14.320505,-11.696538,-12.522413,-4.169359,-9.145617,17.561882,-23.413483,-8.038562,-10.548415,20.593699,52.717930,63.518559,17.266584,0.897530,7.898331,18.937183,-18.184078,3.351900,3.479753,43.861553,7.942778,6.817225,12.139906,49.110565,-15.855929,0.000000,198.000000,4.000000,,,,0.000000,4.000000,4.000000,4.000000,4.000000,4.000000,4.000000,4.000000,4.000000,4.000000,4.000000,4.000000,4.000000,4.000000,4.000000,4.000000,4.000000,4.000000,4.000000,4.000000,4.000000,4.000000,4.000000,4.000000,4.000000,4.000000,4.000000,4.000000,4.000000,4.000000,4.000000,4.000000,4.000000,100.000000
1614473300.812661,15.000000,0.000000,20.319620,0.777377,-24.092920,-42.072491,-8.165771,0.960367,3.138592,-14.819005,-12.197661,-11.484249,-2.626729,-7.598010,16.518681,-20.313147,-10.081805,-15.153252,20.060284,55.229313,61.403759,17.249319,7.050478,10.454535,25.584911,-15.601791,10.015215,2.450632,43.304871,9.986117,8.348869,13.153407,61.881966,-8.660586,0.000000,193.000000,4.000000,,,,0.000000,4.000000,4.000000,4.000000,4.000000,4.000000,4.000000,4.000000,4.000000,4.000000,4.000000,4.000000,4.000000,4.000000,4.000000,4.000000,4.000000,4.000000,4.000000,4.000000,4.000000,4.000000,4.000000,4.000000,4.000000,4.000000,4.000000,4.000000,4.000000,4.000000,4.000000,4.000000,4.000000,100.000000
1614473300.820310,16.000000,0.000000,16.196737,-3.838785,-30.735495,-42.030418,-10.208888,-6.220081,2.109813,-16.342648,-20.390593,-15.575330,-3.649743,-7.077591,13.425238,-18.754372,-10.584544,-17.702200,10.809455,47.481777,57.239792,9.539762,2.428043,8.392798,24.533686,-14.560549,12.056481,3.473823,42.235924,11.001773,6.289238,12.627433,62.845726,-13.267310,0.000000,182.000000,4.000000,,,,0.000000,4.000000,4.000000,4.000000,4.000000,4.000000,4.000000,4.000000,4.000000,4.000000,4.000000,4.000000,4.000000,4.000000,4.000000,4.000000,4.000000,4.000000,4.000000,4.000000,4.000000,4.000000,4.000000,4.000000,4.000000,4.000000,4.000000,4.000000,4.000000,4.000000,4.000000,4.000000,4.000000,100.000000
1614473300.828060,17.000000,0.000000,16.693361,-2.809305,-34.294502,-44.039669,-15.839705,-10.316425,1.594882,-17.864767,-21.395844,-16.072575,-3.133273,-8.096154,13.411813,-19.761259,-12.112421,-11.017832,13.362748,45.895836,65.900497,13.632786,2.425615,6.845944,23.483511,-2.238296,11.531605,8.085733,45.270611,13.042053,2.180385,13.127625,62.782879,-16.330967,0.000000,187.000000,4.000000,,,,0.000000,4.000000,4.000000,4.000000,4.000000,4.000000,4.000000,4.000000,4.000000,4.000000,4.000000,4.000000,4.000000,4.000000,4.000000,4.000000,4.000000,4.000000,4.000000,4.000000,4.000000,4.000000,4.000000,4.000000,4.000000,4.000000,4.000000,4.000000,4.000000,4.000000,4.000000,4.000000,4.000000,100.000000
1614473300.835709,18.000000,0.000000,15.651027,5.398633,-30.670464,-46.559734,-16.336685,-7.229186,2.106108,-16.308439,-11.118036,-15.543681,4.562169,-5.523956,13.398401,-16.664574,-9.023386,4.890622,19.503231,65.337120,82.244858,20.285820,6.525754,9.403201,24.485668,-6.851442,12.032894,10.641750,50.353546,8.413626,-0.385898,11.576036,55.540611,-14.776174,0.000000,212.000000,4.000000,,,,0.000000,4.000000,4.000000,4.000000,4.000000,4.000000,4.000000,4.000000,4.000000,4.000000,4.000000,4.000000,4.000000,4.000000,4.000000,4.000000,4.000000,4.000000,4.000000,4.000000,4.000000,4.000000,4.000000,4.000000,4.000000,4.000000,4.000000,4.000000,4.000000,4.000000,4.000000,4.000000,4.000000,100.000000
1614473300.843458,19.000000,0.000000,11.019991,5.906054,-21.921844,-44.461891,-15.807528,-5.170674,2.104002,-14.240849,-10.594098,-15.015317,6.096068,-3.979970,13.897823,-12.545345,-0.809234,7.962654,21.535009,79.630753,80.624153,16.162970,6.519228,7.855336,24.461184,-21.203566,10.482399,10.118288,48.764732,1.225725,-0.385512,7.461896,48.305584,-12.710115,0.000000,195.000000,4.000000,,,,0.000000,4.000000,4.000000,4.000000,4.000000,4.000000,4.000000,4.000000,4.000000,4.000000,4.000000,4.000000,4.000000,4.000000,4.000000,4.000000,4.000000,4.000000,4.000000,4.000000,4.000000,4.000000,4.000000,4.000000,4.000000,4.000000,4.000000,4.000000,4.000000,4.000000,4.000000,4.000000,4.000000,100.000000
1614473300.851108,20.000000,0.000000,11.008971,1.797584,-15.233256,-39.802044,-16.304541,-5.165504,2.101898,-13.713788,-15.711709,-12.949020,-2.627977,-3.975990,10.807002,-14.071261,-4.910989,-2.814539,16.385269,59.551125,55.415321,12.044243,3.435786,0.667994,21.872620,-23.746464,14.061661,10.108170,43.074940,4.814243,0.127694,5.403152,63.641891,0.123107,0.000000,185.000000,4.000000,,,,0.000000,4.000000,4.000000,4.000000,4.000000,4.000000,4.000000,4.000000,4.000000,4.000000,4.000000,4.000000,4.000000,4.000000,4.000000,4.000000,4.000000,4.000000,4.000000,4.000000,4.000000,4.000000,4.000000,4.000000,4.000000,4.000000,4.000000,4.000000,4.000000,4.000000,4.000000,4.000000,4.000000,100.000000
1614473300.858857,21.000000,0.000000,13.049244,7.949633,-15.218023,-37.710960,-9.621571,-6.185979,1.586976,-14.212895,-7.490869,-11.910430,-7.753554,-4.484835,5.155169,-17.646935,-19.265053,-9.478392,-0.554192,28.722343,37.411186,11.006557,-1.695855,-2.922418,19.286644,-25.261179,18.662983,9.585241,43.544685,14.553019,0.640386,7.449031,76.398766,10.379395,0.000000,218.000000,4.000000,,,,0.000000,4.000000,4.000000,4.000000,4.000000,4.000000,4.000000,4.000000,4.000000,4.000000,4.000000,4.000000,4.000000,4.000000,4.000000,4.000000,4.000000,4.000000,4.000000,4.000000,4.000000,4.000000,4.000000,4.000000,4.000000,4.000000,4.000000,4.000000,4.000000,4.000000,4.000000,4.000000,4.000000,100.000000
1614473300.866507,22.000000,0.000000,16.113117,16.146812,-14.689985,-38.698891,-1.406821,-4.641332,3.123850,-14.198682,0.721750,-10.360058,-8.258621,-3.454709,7.714117,-20.193390,-16.681684,-9.468913,-3.117741,24.078236,40.963520,10.482730,-5.796723,-0.868213,21.318640,-24.210278,11.464833,12.139758,45.552422,16.076927,-0.898715,10.518506,68.117233,2.163887,0.000000,194.000000,4.000000,,,,0.000000,4.000000,4.000000,4.000000,4.000000,4.000000,4.000000,4.000000,4.000000,4.000000,4.000000,4.000000,4.000000,4.000000,4.000000,4.000000,4.000000,4.000000,4.000000,4.000000,4.000000,4.000000,4.000000,4.000000,4.000000,4.000000,4.000000,4.000000,4.000000,4.000000,4.000000,4.000000,4.000000,100.000000
1614473300.874356,23.000000,0.000000,21.225210,16.130665,-6.982987,-38.147369,0.133048,0.491515,5.172009,-10.081920,-0.304613,-8.298416,-7.737542,-1.399972,17.449993,-19.660376,-2.818849,-8.433803,18.936659,47.131081,50.666145,20.215837,-5.790926,1.183937,25.912706,-12.391195,4.786702,16.743004,46.532513,14.009568,-0.384996,12.559269,68.049118,5.751467,0.000000,218.000000,4.000000,,,,0.000000,4.000000,4.000000,4.000000,4.000000,4.000000,4.000000,4.000000,4.000000,4.000000,4.000000,4.000000,4.000000,4.000000,4.000000,4.000000,4.000000,4.000000,4.000000,4.000000,4.000000,4.000000,4.000000,4.000000,4.000000,4.000000,4.000000,4.000000,4.000000,4.000000,4.000000,4.000000,4.000000,100.000000
1614473300.882105,24.000000,0.000000,17.614241,15.601713,-3.386261,-38.622044,-0.892726,1.003844,5.679657,-6.994915,-1.842770,-9.315759,1.500965,-0.372931,20.509466,-10.922767,1.286534,-3.809985,24.558748,66.058311,57.794968,26.349468,-4.246674,1.695573,27.425255,-9.301881,8.884480,17.751902,46.998798,15.021199,6.282055,9.469787,74.647736,21.130331,0.000000,191.000000,4.000000,,,,0.000000,4.000000,4.000000,4.000000,4.000000,4.000000,4.000000,4.000000,4.000000,4.000000,4.000000,4.000000,4.000000,4.000000,4.000000,4.000000,4.000000,4.000000,4.000000,4.000000,4.000000,4.000000,4.000000,4.000000,4.000000,4.000000,4.000000,4.000000,4.000000,4.000000,4.000000,4.000000,4.000000,100.000000
1614473300.889954,25.000000,0.000000,10.929960,13.022009,-11.075182,-39.609062,-0.891833,-4.125365,5.161157,-12.116124,-2.866568,-7.767981,5.089207,-0.885379,15.873571,-9.373382,-5.381419,-4.831816,10.175215,56.761482,59.275635,13.502605,-2.191145,2.206698,27.910650,-17.497707,7.849954,14.657227,41.310776,14.493358,6.788594,4.844933,60.726936,6.750226,0.000000,176.000000,4.000000,,,,0.000000,4.000000,4.000000,4.000000,4.000000,4.000000,4.000000,4.000000,4.000000,4.000000,4.000000,4.000000,4.000000,4.000000,4.000000,4.000000,4.000000,4.000000,4.000000,4.000000,4.000000,4.000000,4.000000,4.000000,4.000000,4.000000,4.000000,4.000000,4.000000,4.000000,4.000000,4.000000,4.000000,100.000000
1614473300.897704,26.000000,0.000000,13.995954,8.906424,-15.679491,-38.030991,-0.890942,-5.146881,5.668816,-16.719393,-4.402163,-7.760213,-4.146651,-0.371673,13.293595,-24.235804,-16.145269,-10.980830,11.703502,42.345745,60.754818,4.771154,-1.676134,1.178851,26.344278,-17.480209,1.688258,13.104107,35.115620,15.504505,-4.500246,6.891369,45.794415,-14.794986,0.000000,202.000000,4.000000,,,,0.000000,4.000000,4.000000,4.000000,4.000000,4.000000,4.000000,4.000000,4.000000,4.000000,4.000000,4.000000,4.000000,4.000000,4.000000,4.000000,4.000000,4.000000,4.000000,4.000000,4.000000,4.000000,4.000000,4.000000,4.000000,4.000000,4.000000,4.000000,4.000000,4.000000,4.000000,4.000000,4.000000,100.000000
1614473300.905453,27.000000,0.000000,17.058880,10.435978,-14.638171,-38.505783,-0.890051,-5.654554,4.637506,-16.189854,-2.346479,-20.060144,-5.168146,-0.371301,13.280302,-26.775671,-18.693226,-12.508310,20.409746,50.508526,74.027397,16.561255,-3.212919,2.716133,23.753830,-13.872986,-1.390354,13.603824,40.721527,14.976181,-6.034207,9.448581,44.722977,-6.062242,0.000000,197.000000,4.000000,,,,0.000000,4.000000,4.000000,4.000000,4.000000,4.000000,4.000000,4.000000,4.000000,4.000000,4.000000,4.000000,4.000000,4.000000,4.000000,4.000000,4.000000,4.000000,4.000000,4.000000,4.000000,4.000000,4.000000,4.000000,4.000000,4.000000,4.000000,4.000000,4.000000,4.000000,4.000000,4.000000,4.000000,100.000000
1614473300.913102,28.000000,0.000000,15.503360,10.425542,-17.187635,-40.005737,-1.401981,-6.161720,5.658510,-14.122381,-1.318491,-24.142649,3.554971,-1.396571,13.779842,-9.312997,-4.828379,-14.034264,20.902157,60.201611,83.696960,26.288282,0.380037,9.380084,25.781359,-14.371933,-0.876143,13.590219,49.911575,12.909923,4.741058,7.900671,45.703896,0.097666,0.000000,192.000000,4.000000,,,,0.000000,4.000000,4.000000,4.000000,4.000000,4.000000,4.000000,4.000000,4.000000,4.000000,4.000000,4.000000,4.000000,4.000000,4.000000,4.000000,4.000000,4.000000,4.000000,4.000000,4.000000,4.000000,4.000000,4.000000,4.000000,4.000000,4.000000,4.000000,4.000000,4.000000,4.000000,4.000000,4.000000,100.000000
1614473300.920852,29.000000,0.000000,20.616062,7.338194,-11.529422,-31.247784,-1.400579,3.075211,11.806698,-7.441592,-1.317173,-6.169788,9.705262,3.733031,15.817345,-0.585735,9.535424,-12.994589,27.035101,57.577305,77.459419,26.261995,12.174529,13.986089,30.370962,-11.280638,10.406785,13.063809,49.861664,21.102140,8.326060,10.456872,56.427422,-4.004995,0.000000,181.000000,4.000000,,,,0.000000,4.000000,4.000000,4.000000,4.000000,4.000000,4.000000,4.000000,4.000000,4.000000,4.000000,4.000000,4.000000,4.000000,4.000000,4.000000,4.000000,4.000000,4.000000,4.000000,4.000000,4.000000,4.000000,4.000000,4.000000,4.000000,4.000000,4.000000,4.000000,4.000000,4.000000,4.000000,4.000000,100.000000
1614473300.928501,30.000000,0.000000,24.698009,10.407779,3.866723,-14.806279,3.729027,11.277264,16.923096,0.258157,2.786708,8.195355,20.977608,12.447247,16.827168,-0.072329,11.577170,5.992765,32.649094,61.622292,76.869141,26.235733,18.316200,13.459282,28.802130,-4.602691,25.268173,13.563566,49.298981,34.414371,7.292093,17.625902,72.781250,11.383625,0.000000,192.000000,4.000000,,,,0.000000,4.000000,4.000000,4.000000,4.000000,4.000000,4.000000,4.000000,4.000000,4.000000,4.000000,4.000000,4.000000,4.000000,4.000000,4.000000,4.000000,4.000000,4.000000,4.000000,4.000000,4.000000,4.000000,4.000000,4.000000,4.000000,4.000000,4.000000,4.000000,4.000000,4.000000,4.000000,4.000000,100.000000
1614473300.936350,31.000000,0.000000,22.109209,15.012755,3.862856,-12.227370,11.930426,3.573679,16.906172,-2.819024,5.348024,6.648699,28.136118,14.998902,16.810341,4.543128,10.027132,18.807285,24.924135,65.663231,82.946114,21.081291,14.195320,12.933002,29.286148,-2.033986,20.114698,13.550002,50.788147,32.841496,7.284801,20.685200,70.657188,14.449164,0.000000,179.000000,4.000000,,,,0.000000,4.000000,4.000000,4.000000,4.000000,4.000000,4.000000,4.000000,4.000000,4.000000,4.000000,4.000000,4.000000,4.000000,4.000000,4.000000,4.000000,4.000000,4.000000,4.000000,4.000000,4.000000,4.000000,4.000000,4.000000,4.000000,4.000000,4.000000,4.000000,4.000000,4.000000,4.000000,4.000000,100.000000
1614473300.944100,32.000000,0.000000,22.599920,14.997743,-7.423058,-21.445911,13.456957,-1.045280,15.863626,-5.380308,6.881138,5.616409,17.338751,14.983903,16.793530,-0.589621,10.017105,4.429503,18.745365,53.802696,73.632401,12.342262,10.078561,13.432889,34.385067,-6.134516,8.299713,13.536452,48.686073,23.065065,6.251875,20.151693,61.868584,-4.539644,8064.000000,0.000000,4.000000,,,,0.000000,4.000000,4.000000,4.000000,4.000000,4.000000,4.000000,4.000000,4.000000,4.000000,4.000000,4.000000,4.000000,4.000000,4.000000,4.000000,4.000000,4.000000,4.000000,4.000000,4.000000,4.000000,4.000000,4.000000,4.000000,4.000000,4.000000,4.000000,4.000000,4.000000,4.000000,4.000000,4.000000,100.000000
1614473300.951949,33.000000,0.000000,25.141422,16.521206,-2.800251,-17.834723,10.879397,7.160894,16.873404,3.855842,9.951180,7.662075,7.577823,14.968919,17.289557,-7.255698,8.468626,-9.421080,19.239441,50.159153,61.251076,9.765817,9.042842,13.419456,34.350681,-13.820689,11.881157,13.522916,51.714314,21.503538,12.912290,18.593081,63.345177,2.131562,8192.000000,0.000000,4.000000,,,,0.000000,4.000000,4.000000,4.000000,4.000000,4.000000,4.000000,4.000000,4.000000,4.000000,4.000000,4.000000,4.000000,4.000000,4.000000,4.000000,4.000000,4.000000,4.000000,4.000000,4.000000,4.000000,4.000000,4.000000,4.000000,4.000000,4.000000,4.000000,4.000000,4.000000,4.000000,4.000000,4.000000,100.000000
1614473300.959698,34.000000,0.000000,26.141922,14.966224,8.997421,-4.483554,9.842876,10.230656,21.471914,9.493011,5.325844,7.141592,9.621527,13.928309,17.272268,-0.068955,7.947337,-7.360377,19.220201,62.929504,64.779564,11.807333,9.033798,12.893216,31.752230,-14.319689,19.048763,13.509393,59.867725,22.507675,21.104506,15.497565,64.820290,19.052507,8064.000000,0.000000,4.000000,,,,0.000000,4.000000,4.000000,4.000000,4.000000,4.000000,4.000000,4.000000,4.000000,4.000000,4.000000,4.000000,4.000000,4.000000,4.000000,4.000000,4.000000,4.000000,4.000000,4.000000,4.000000,4.000000,4.000000,4.000000,4.000000,4.000000,4.000000,4.000000,4.000000,4.000000,4.000000,4.000000,4.000000,100.000000
1614473300.967547,35.000000,0.000000,28.167063,2.643565,6.424322,-4.479071,10.345855,9.707605,26.578648,7.945057,-0.833328,6.108809,11.150367,16.478483,16.742174,4.546499,6.400928,-5.814555,21.252262,66.456322,68.304527,13.333987,10.563227,13.393144,33.771759,-9.177164,19.029715,13.495884,56.218113,22.485168,13.903914,12.917965,65.268295,6.212943,8064.000000,0.000000,4.000000,,,,0.000000,4.000000,4.000000,4.000000,4.000000,4.000000,4.000000,4.000000,4.000000,4.000000,4.000000,4.000000,4.000000,4.000000,4.000000,4.000000,4.000000,4.000000,4.000000,4.000000,4.000000,4.000000,4.000000,4.000000,4.000000,4.000000,4.000000,4.000000,4.000000,4.000000,4.000000,4.000000,4.000000,100.000000
1614473300.975297,36.000000,0.000000,27.626076,-3.000104,-0.248769,-14.731002,10.848330,9.185077,27.064890,8.449932,2.244428,5.077060,12.164858,16.974825,16.725433,0.439388,6.907348,-2.731817,20.718189,61.774479,66.184944,14.346294,5.424458,12.866930,34.763626,-11.219269,18.497864,12.969567,46.931126,21.437042,3.120780,9.828124,64.690201,-8.152245,8064.000000,0.000000,4.000000,,,,0.000000,4.000000,4.000000,4.000000,4.000000,4.000000,4.000000,4.000000,4.000000,4.000000,4.000000,4.000000,4.000000,4.000000,4.000000,4.000000,4.000000,4.000000,4.000000,4.000000,4.000000,4.000000,4.000000,4.000000,4.000000,4.000000,4.000000,4.000000,4.000000,4.000000,4.000000,4.000000,4.000000,100.000000
1614473300.983146,37.000000,0.000000,25.547167,2.643922,-1.274162,-17.793194,8.273378,-0.054878,24.986542,4.851739,4.293466,3.533521,5.486026,5.162979,17.221527,-3.150795,9.464542,-0.164983,12.492343,61.199883,67.144402,13.306307,-6.375838,10.289961,35.241684,-18.387537,12.838340,13.469419,47.397015,12.184835,2.604838,5.715732,56.420383,-5.579990,8064.000000,0.000000,4.000000,,,,0.000000,4.000000,4.000000,4.000000,4.000000,4.000000,4.000000,4.000000,4.000000,4.000000,4.000000,4.000000,4.000000,4.000000,4.000000,4.000000,4.000000,4.000000,4.000000,4.000000,4.000000,4.000000,4.000000,4.000000,4.000000,4.000000,4.000000,4.000000,4.000000,4.000000,4.000000,4.000000,4.000000,100.000000
1614473300.990895,38.000000,0.000000,25.008799,0.077175,-0.247246,-17.775400,1.598438,-8.772772,16.243607,-0.794138,0.186608,0.453064,-14.519460,-4.072953,14.127383,-9.301490,-3.878255,-18.626356,8.377287,49.856632,60.923409,15.344283,-6.882283,9.254030,33.667980,-19.394791,7.697297,13.455949,48.888081,8.070086,2.089413,4.171554,56.876785,-0.959025,8064.000000,0.000000,4.000000,,,,0.000000,4.000000,4.000000,4.000000,4.000000,4.000000,4.000000,4.000000,4.000000,4.000000,4.000000,4.000000,4.000000,4.000000,4.000000,4.000000,4.000000,4.000000,4.000000,4.000000,4.000000,4.000000,4.000000,4.000000,4.000000,4.000000,4.000000,4.000000,4.000000,4.000000,4.000000,4.000000,4.000000,100.000000
1614473300.998745,39.000000,0.000000,18.317123,-7.102389,-0.759820,-20.321728,-1.992904,-7.225537,3.406851,-1.818985,0.186422,-3.649953,-23.735710,-4.581701,5.908128,-16.471676,-23.874376,-37.582088,7.343268,31.345238,50.093254,16.354580,0.816907,9.244776,26.967648,-18.349754,11.792164,12.416852,46.275089,14.728683,0.036041,4.167383,71.178879,6.221421,8064.000000,0.000000,4.000000,,,,0.000000,4.000000,4.000000,4.000000,4.000000,4.000000,4.000000,4.000000,4.000000,4.000000,4.000000,4.000000,4.000000,4.000000,4.000000,4.000000,4.000000,4.000000,4.000000,4.000000,4.000000,4.000000,4.000000,4.000000,4.000000,4.000000,4.000000,4.000000,4.000000,4.000000,4.000000,4.000000,4.000000,100.000000
1614473301.006494,40.000000,0.000000,10.606499,0.597021,-1.271881,-21.327047,-0.965270,-5.167029,3.403444,-11.047935,1.724697,-5.697585,-11.404282,-6.115581,0.261194,-14.403922,-22.312040,-25.749636,2.720541,30.288252,55.684189,6.594635,-1.235192,3.081685,23.350935,-16.280123,13.831654,14.455717,47.254456,16.765236,2.087287,5.701677,73.671806,6.728020,8064.000000,0.000000,4.000000,,,,0.000000,4.000000,4.000000,4.000000,4.000000,4.000000,4.000000,4.000000,4.000000,4.000000,4.000000,4.000000,4.000000,4.000000,4.000000,4.000000,4.000000,4.000000,4.000000,4.000000,4.000000,4.000000,4.000000,4.000000,4.000000,4.000000,4.000000,4.000000,4.000000,4.000000,4.000000,4.000000,4.000000,100.000000
1614473301.014143,41.000000,0.000000,14.698457,11.365655,-0.757788,-20.280079,-0.964305,-5.161862,13.143630,-17.703554,2.748613,-4.666246,-2.162108,1.582842,4.363497,-11.312595,-12.033319,-4.698245,2.717820,43.591297,69.987480,7.613682,-4.310880,1.540142,23.327585,-13.699739,10.740899,19.569466,48.745663,16.235651,3.110841,9.798539,64.880188,0.054625,8064.000000,0.000000,4.000000,,,,0.000000,4.000000,4.000000,4.000000,4.000000,4.000000,4.000000,4.000000,4.000000,4.000000,4.000000,4.000000,4.000000,4.000000,4.000000,4.000000,4.000000,4.000000,4.000000,4.000000,4.000000,4.000000,4.000000,4.000000,4.000000,4.000000,4.000000,4.000000,4.000000,4.000000,4.000000,4.000000,4.000000,100.000000
1614473301.021893,42.000000,0.000000,21.863245,12.379930,-0.757030,-19.746979,-0.450520,-4.643880,15.181768,-6.403800,8.386890,-4.148759,-4.211228,11.324849,11.025800,-12.326923,-15.611029,-0.078162,10.407410,54.829758,76.584160,28.631710,1.847277,14.359115,21.765795,-17.275784,15.858363,21.088358,50.748199,20.834799,5.671833,12.865664,65.328125,8.259699,8064.000000,0.000000,4.000000,,,,0.000000,4.000000,4.000000,4.000000,4.000000,4.000000,4.000000,4.000000,4.000000,4.000000,4.000000,4.000000,4.000000,4.000000,4.000000,4.000000,4.000000,4.000000,4.000000,4.000000,4.000000,4.000000,4.000000,4.000000,4.000000,4.000000,4.000000,4.000000,4.000000,4.000000,4.000000,4.000000,4.000000,100.000000
1614473301.029542,43.000000,0.000000,20.815741,11.341909,-0.243453,-19.214411,-0.450069,-7.203339,12.602484,-4.858934,6.327221,-5.170252,-4.719837,-0.481347,13.578876,-11.288956,-18.159521,-3.155007,16.550848,60.415951,80.097313,35.269745,6.460814,20.498602,27.385056,-17.258509,21.483530,21.067270,56.851299,20.813965,10.794366,12.339977,68.339722,18.507849,8064.000000,0.000000,4.000000,,,,0.000000,4.000000,4.000000,4.000000,4.000000,4.000000,4.000000,4.000000,4.000000,4.000000,4.000000,4.000000,4.000000,4.000000,4.000000,4.000000,4.000000,4.000000,4.000000,4.000000,4.000000,4.000000,4.000000,4.000000,4.000000,4.000000,4.000000,4.000000,4.000000,4.000000,4.000000,4.000000,4.000000,100.000000
1614473301.037291,44.000000,0.000000,17.718002,10.817747,-0.756030,-20.733658,-4.039363,-3.093571,11.564240,-22.289972,-3.935516,-4.139441,-3.689476,-14.839840,13.052478,-13.841769,-15.577258,-10.331339,16.534298,48.560665,71.812088,17.798576,6.454354,8.170410,35.049976,-14.677147,17.359482,21.046204,52.691883,15.664946,7.193828,12.327638,68.784203,10.284213,8064.000000,0.000000,4.000000,,,,0.000000,4.000000,4.000000,4.000000,4.000000,4.000000,4.000000,4.000000,4.000000,4.000000,4.000000,4.000000,4.000000,4.000000,4.000000,4.000000,4.000000,4.000000,4.000000,4.000000,4.000000,4.000000,4.000000,4.000000,4.000000,4.000000,4.000000,4.000000,4.000000,4.000000,4.000000,4.000000,4.000000,100.000000
1614473301.044941,45.000000,0.000000,17.700285,8.242826,-0.242453,-19.174463,-3.009682,4.601830,12.065496,-25.344606,-2.393119,-3.622481,-8.813993,-11.235257,11.500963,-22.033056,-22.741169,-22.115879,5.235712,20.306976,41.483868,0.344881,-1.244408,-2.606991,26.296980,-33.124008,10.675456,17.435413,38.793037,14.110819,0.519968,12.828131,67.689774,4.632904,8064.000000,0.000000,4.000000,,,,0.000000,4.000000,4.000000,4.000000,4.000000,4.000000,4.000000,4.000000,4.000000,4.000000,4.000000,4.000000,4.000000,4.000000,4.000000,4.000000,4.000000,4.000000,4.000000,4.000000,4.000000,4.000000,4.000000,4.000000,4.000000,4.000000,4.000000,4.000000,4.000000,4.000000,4.000000,4.000000,4.000000,100.000000
1614473301.052690,46.000000,0.000000,17.682585,7.721763,-0.242211,-18.642467,-0.955391,-3.095080,11.027790,-17.626953,1.711838,-9.772704,-16.497486,-8.147099,9.951001,-27.139227,-29.385094,-27.221968,-9.128498,11.568720,26.570589,-6.322131,-15.089317,-3.117204,13.450170,-54.116524,5.023756,12.802593,36.190140,12.045426,-0.506193,12.302482,56.852856,4.628271,8064.000000,0.000000,4.000000,,,,0.000000,4.000000,4.000000,4.000000,4.000000,4.000000,4.000000,4.000000,4.000000,4.000000,4.000000,4.000000,4.000000,4.000000,4.000000,4.000000,4.000000,4.000000,4.000000,4.000000,4.000000,4.000000,4.000000,4.000000,4.000000,4.000000,4.000000,4.000000,4.000000,4.000000,4.000000,4.000000,4.000000,100.000000
1614473301.060339,47.000000,0.000000,18.177723,7.201221,-5.882994,-32.982800,-8.646743,-14.886856,2.298814,-21.711891,-4.443720,-20.019342,-19.045092,-12.241515,8.915409,-28.137730,-27.304426,-23.605003,-2.965523,33.095612,49.108120,5.479063,-11.484485,0.475656,15.488002,-42.780357,4.505911,12.789790,43.333439,11.007740,-0.505687,12.290179,50.129337,-0.504563,8064.000000,0.000000,4.000000,,,,0.000000,4.000000,4.000000,4.000000,4.000000,4.000000,4.000000,4.000000,4.000000,4.000000,4.000000,4.000000,4.000000,4.000000,4.000000,4.000000,4.000000,4.000000,4.000000,4.000000,4.000000,4.000000,4.000000,4.000000,4.000000,4.000000,4.000000,4.000000,4.000000,4.000000,4.000000,4.000000,4.000000,100.000000
1614473301.068089,48.000000,0.000000,16.621082,5.142737,-12.030957,-47.821613,-16.330404,-8.205303,-7.959895,-25.792744,-8.541841,-24.614708,-12.872200,-12.229274,9.419314,-24.519848,-25.225840,-20.504475,13.960519,46.908672,63.930809,27.524866,6.988538,5.603386,18.036615,-24.788858,9.629610,13.289821,46.879848,14.073655,1.546101,12.277889,57.258694,-0.504058,8064.000000,0.000000,4.000000,,,,0.000000,4.000000,4.000000,4.000000,4.000000,4.000000,4.000000,4.000000,4.000000,4.000000,4.000000,4.000000,4.000000,4.000000,4.000000,4.000000,4.000000,4.000000,4.000000,4.000000,4.000000,4.000000,4.000000,4.000000,4.000000,4.000000,4.000000,4.000000,4.000000,4.000000,4.000000,4.000000,4.000000,100.000000
1614473301.075738,49.000000,0.000000,11.989077,3.599133,-12.018927,-42.132767,-14.262792,-0.504790,-1.798089,-25.766951,-10.584580,-23.051630,-6.192661,-11.704225,8.897074,-16.290199,-25.200615,-21.509611,13.433739,39.169453,52.072006,18.779392,5.955909,2.008039,15.967298,-25.276892,7.055878,11.225249,43.243225,11.495479,4.621478,12.265612,56.688614,-3.067657,8064.000000,0.000000,4.000000,,,,0.000000,4.000000,4.000000,4.000000,4.000000,4.000000,4.000000,4.000000,4.000000,4.000000,4.000000,4.000000,4.000000,4.000000,4.000000,4.000000,4.000000,4.000000,4.000000,4.000000,4.000000,4.000000,4.000000,4.000000,4.000000,4.000000,4.000000,4.000000,4.000000,4.000000,4.000000,4.000000,4.000000,100.000000
1614473301.083488,50.000000,0.000000,8.900165,3.595534,-12.519728,-35.936787,-13.222888,-6.145310,7.947299,-31.895029,-16.727842,-23.028580,-4.135186,-10.666879,8.888177,-11.145704,-23.636951,-20.462461,6.753638,34.002079,47.917370,-3.290669,-5.332098,-4.660636,19.541073,-21.149050,-0.643485,8.649921,36.020493,8.407061,0.001472,11.740525,42.785774,-18.449205,8064.000000,0.000000,4.000000,,,,0.000000,4.000000,4.000000,4.000000,4.000000,4.000000,4.000000,4.000000,4.000000,4.000000,4.000000,4.000000,4.000000,4.000000,4.000000,4.000000,4.000000,4.000000,4.000000,4.000000,4.000000,4.000000,4.000000,4.000000,4.000000,4.000000,4.000000,4.000000,4.000000,4.000000,4.000000,4.000000,4.000000,100.000000
1614473301.091137,51.000000,0.000000,10.942547,4.617579,-17.122593,-38.464951,-11.158382,-8.190448,4.862428,-25.709288,-10.044448,-24.031191,-2.079769,-6.553648,9.392110,-11.134559,-22.074854,-16.339434,9.823808,39.096283,59.151505,7.994673,-0.198561,3.549153,22.085634,-11.384311,2.946902,9.154092,37.010117,13.526858,-3.588274,11.728785,40.178883,-16.379473,8064.000000,0.000000,4.000000,,,,0.000000,4.000000,4.000000,4.000000,4.000000,4.000000,4.000000,4.000000,4.000000,4.000000,4.000000,4.000000,4.000000,4.000000,4.000000,4.000000,4.000000,4.000000,4.000000,4.000000,4.000000,4.000000,4.000000,4.000000,4.000000,4.000000,4.000000,4.000000,4.000000,4.000000,4.000000,4.000000,4.000000,100.000000
1614473301.098886,52.000000,0.000000,13.495707,6.664244,-11.464445,-32.272640,-2.429276,-5.105334,3.319104,-8.760502,1.247648,-20.930237,-5.667433,-5.008633,9.382717,-11.123425,-16.411753,-18.374376,13.403728,39.570007,61.656456,22.858473,7.493945,13.289194,24.114832,-14.962670,10.636263,10.683399,47.742336,17.615896,1.030699,12.742697,45.266911,2.098445,8064.000000,0.000000,4.000000,,,,0.000000,4.000000,4.000000,4.000000,4.000000,4.000000,4.000000,4.000000,4.000000,4.000000,4.000000,4.000000,4.000000,4.000000,4.000000,4.000000,4.000000,4.000000,4.000000,4.000000,4.000000,4.000000,4.000000,4.000000,4.000000,4.000000,4.000000,4.000000,4.000000,4.000000,4.000000,4.000000,4.000000,100.000000
1614473301.106536,53.000000,0.000000,13.995031,6.144759,0.854712,-24.548061,-3.452487,-4.587408,7.931170,-7.726100,-6.445907,-13.216999,-8.738688,-7.567727,9.373335,-12.650763,-11.779957,-20.407284,12.364682,37.991974,57.492233,12.066384,3.383887,6.609238,31.783024,-22.127195,11.651267,9.134254,52.309978,15.034178,2.568130,12.729954,45.221642,2.609167,8064.000000,0.000000,4.000000,,,,0.000000,4.000000,4.000000,4.000000,4.000000,4.000000,4.000000,4.000000,4.000000,4.000000,4.000000,4.000000,4.000000,4.000000,4.000000,4.000000,4.000000,4.000000,4.000000,4.000000,4.000000,4.000000,4.000000,4.000000,4.000000,4.000000,4.000000,4.000000,4.000000,4.000000,4.000000,4.000000,4.000000,100.000000
1614473301.114285,54.000000,0.000000,13.981036,4.600153,3.930780,-21.959410,-4.987496,-5.608461,8.436059,-17.461964,-10.542026,-8.075578,7.680307,-8.072980,8.851141,-10.586830,-13.306639,-9.104826,11.326676,46.159111,61.537308,6.926113,0.816400,0.448782,29.699959,-22.617887,11.639616,8.099480,48.155106,13.480681,1.027101,10.665942,48.253345,2.093737,8192.000000,0.000000,4.000000,,,,0.000000,4.000000,4.000000,4.000000,4.000000,4.000000,4.000000,4.000000,4.000000,4.000000,4.000000,4.000000,4.000000,4.000000,4.000000,4.000000,4.000000,4.000000,4.000000,4.000000,4.000000,4.000000,4.000000,4.000000,4.000000,4.000000,4.000000,4.000000,4.000000,4.000000,4.000000,4.000000,4.000000,100.000000
1614473301.121934,55.000000,0.000000,13.967055,6.646835,3.414029,-10.142579,11.427748,-5.602853,13.043008,-13.341938,8.442876,-7.554681,19.980318,-7.039266,9.355110,-4.935217,-10.729229,-1.403413,9.776889,45.087311,63.014229,14.098674,2.354045,4.550898,28.131798,-20.543987,14.704900,16.296509,49.645409,15.005663,3.590176,15.783482,55.384579,12.348054,8192.000000,0.000000,4.000000,,,,0.000000,4.000000,4.000000,4.000000,4.000000,4.000000,4.000000,4.000000,4.000000,4.000000,4.000000,4.000000,4.000000,4.000000,4.000000,4.000000,4.000000,4.000000,4.000000,4.000000,4.000000,4.000000,4.000000,4.000000,4.000000,4.000000,4.000000,4.000000,4.000000,4.000000,4.000000,4.000000,4.000000,100.000000
1614473301.129784,56.000000,0.000000,13.953089,8.178650,8.538820,-0.901667,20.647089,-4.571609,14.055606,-5.123468,19.716484,-7.547127,3.550082,-7.545047,9.858576,-9.032846,-7.641577,-13.196881,7.715829,24.529404,47.566601,11.007652,0.813230,5.571988,41.437000,-20.523445,15.715836,20.895596,51.647045,14.477837,1.022483,20.383083,57.893295,7.720321,8064.000000,0.000000,4.000000,,,,0.000000,4.000000,4.000000,4.000000,4.000000,4.000000,4.000000,4.000000,4.000000,4.000000,4.000000,4.000000,4.000000,4.000000,4.000000,4.000000,4.000000,4.000000,4.000000,4.000000,4.000000,4.000000,4.000000,4.000000,4.000000,4.000000,4.000000,4.000000,4.000000,4.000000,4.000000,4.000000,4.000000,100.000000
1614473301.137533,57.000000,0.000000,13.939136,7.657650,11.607204,-3.464868,6.780288,-3.541397,2.759499,-5.631165,12.004460,-8.052400,-7.735519,-7.537502,8.310255,-14.664839,-13.274961,-19.337530,7.708114,22.453592,33.672882,6.894080,-2.264506,1.976672,41.908382,-27.169588,14.674479,10.105470,49.544117,14.463359,2.047102,11.131930,56.809761,2.584395,8064.000000,0.000000,4.000000,,,,0.000000,4.000000,4.000000,4.000000,4.000000,4.000000,4.000000,4.000000,4.000000,4.000000,4.000000,4.000000,4.000000,4.000000,4.000000,4.000000,4.000000,4.000000,4.000000,4.000000,4.000000,4.000000,4.000000,4.000000,4.000000,4.000000,4.000000,4.000000,4.000000,4.000000,4.000000,4.000000,4.000000,100.000000
1614473301.145382,58.000000,0.000000,13.925197,7.649993,10.569956,-2.948582,1.132482,-1.999394,4.808022,-7.163995,8.402712,-7.531527,7.144011,-8.042785,10.353228,-4.393764,-9.159122,-3.420758,8.213226,51.149086,49.536644,12.015391,-2.262242,1.461875,24.430576,-29.193701,14.659804,2.403057,47.956112,14.448895,12.301465,1.890029,55.214493,11.299760,8064.000000,0.000000,4.000000,,,,0.000000,4.000000,4.000000,4.000000,4.000000,4.000000,4.000000,4.000000,4.000000,4.000000,4.000000,4.000000,4.000000,4.000000,4.000000,4.000000,4.000000,4.000000,4.000000,4.000000,4.000000,4.000000,4.000000,4.000000,4.000000,4.000000,4.000000,4.000000,4.000000,4.000000,4.000000,4.000000,4.000000,100.000000
1614473301.153132,59.000000,0.000000,14.424091,7.642343,10.046566,-1.407172,8.823657,0.566708,21.213470,-6.644011,10.445591,-4.959893,17.906097,-6.496280,14.958259,4.328578,-0.432014,9.915997,8.717834,64.431274,75.640953,16.105940,-1.234339,1.460413,20.303583,-18.908096,14.645144,10.092961,46.882515,14.434446,11.776343,8.041986,57.210560,7.698717,8064.000000,0.000000,4.000000,,,,0.000000,4.000000,4.000000,4.000000,4.000000,4.000000,4.000000,4.000000,4.000000,4.000000,4.000000,4.000000,4.000000,4.000000,4.000000,4.000000,4.000000,4.000000,4.000000,4.000000,4.000000,4.000000,4.000000,4.000000,4.000000,4.000000,4.000000,4.000000,4.000000,4.000000,4.000000,4.000000,4.000000,100.000000
1614473301.160981,60.000000,0.000000,13.896847,7.634700,8.498057,-5.508329,11.891757,-1.997961,18.628153,-6.124546,9.922325,-4.954933,12.759987,-3.925682,13.917660,-2.342417,-12.226454,1.700952,8.709115,42.315559,72.488388,16.089834,-0.720284,2.484594,26.949945,-19.914829,15.656140,14.185432,44.784351,14.932833,-0.543126,13.674969,56.640526,-0.514111,8064.000000,0.000000,4.000000,,,,0.000000,4.000000,4.000000,4.000000,4.000000,4.000000,4.000000,4.000000,4.000000,4.000000,4.000000,4.000000,4.000000,4.000000,4.000000,4.000000,4.000000,4.000000,4.000000,4.000000,4.000000,4.000000,4.000000,4.000000,4.000000,4.000000,4.000000,4.000000,4.000000,4.000000,4.000000,4.000000,4.000000,100.000000
1614473301.168730,61.000000,0.000000,13.882950,8.652707,5.925457,-8.066923,10.854224,-7.636989,8.353115,-6.118422,9.912403,-8.026901,4.542099,-5.460217,9.288357,-8.493920,-24.521919,-19.839211,7.161945,22.273243,49.338978,11.971180,-3.796487,4.533391,27.435816,-35.792351,13.076382,13.145606,44.739567,13.379438,-3.106685,10.584371,46.327477,2.563327,8064.000000,0.000000,4.000000,,,,0.000000,4.000000,4.000000,4.000000,4.000000,4.000000,4.000000,4.000000,4.000000,4.000000,4.000000,4.000000,4.000000,4.000000,4.000000,4.000000,4.000000,4.000000,4.000000,4.000000,4.000000,4.000000,4.000000,4.000000,4.000000,4.000000,4.000000,4.000000,4.000000,4.000000,4.000000,4.000000,4.000000,100.000000
1614473301.176579,62.000000,0.000000,14.381887,6.592772,6.432352,-11.648600,1.612600,-4.552429,11.421685,-9.189226,6.825567,-8.018874,-0.590649,-7.506039,9.279069,-7.972606,-17.830730,-29.562962,11.257347,31.481739,43.135792,10.420748,-5.331151,4.016037,26.382740,-35.243736,7.422279,14.158101,44.694828,11.314776,0.486165,8.009684,37.563202,-0.516160,8064.000000,0.000000,4.000000,,,,0.000000,4.000000,4.000000,4.000000,4.000000,4.000000,4.000000,4.000000,4.000000,4.000000,4.000000,4.000000,4.000000,4.000000,4.000000,4.000000,4.000000,4.000000,4.000000,4.000000,4.000000,4.000000,4.000000,4.000000,4.000000,4.000000,4.000000,4.000000,4.000000,4.000000,4.000000,4.000000,4.000000,100.000000
1614473301.184329,63.000000,0.000000,12.316224,1.457974,5.913099,-18.303617,-10.696705,0.067508,8.333341,-13.795422,-1.899207,-7.498035,4.025327,-6.985713,7.731328,-6.938993,-15.761619,-17.225706,12.271730,54.527180,61.554195,17.589813,-0.710436,1.960739,23.792253,-23.413622,6.902037,8.502917,42.086029,10.277821,-0.539962,6.463212,41.115379,-2.566926,8064.000000,0.000000,4.000000,,,,0.000000,4.000000,4.000000,4.000000,4.000000,4.000000,4.000000,4.000000,4.000000,4.000000,4.000000,4.000000,4.000000,4.000000,4.000000,4.000000,4.000000,4.000000,4.000000,4.000000,4.000000,4.000000,4.000000,4.000000,4.000000,4.000000,4.000000,4.000000,4.000000,4.000000,4.000000,4.000000,4.000000,100.000000
1614473301.192178,64.000000,0.000000,7.175703,-0.081945,3.855904,-16.234032,-7.609085,-9.163328,-1.418583,-14.294447,-5.999872,-10.567460,4.021301,-9.030009,2.595392,-7.957695,-25.489447,-9.516172,-0.048233,52.421371,70.723412,15.520942,-4.299469,1.445958,20.178719,-24.928669,7.920776,3.366210,41.018303,9.754723,-0.026602,4.918288,45.689651,2.051026,0.000000,206.000000,4.000000,,,,0.000000,4.000000,4.000000,4.000000,4.000000,4.000000,4.000000,4.000000,4.000000,4.000000,4.000000,4.000000,4.000000,4.000000,4.000000,4.000000,4.000000,4.000000,4.000000,4.000000,4.000000,4.000000,4.000000,4.000000,4.000000,4.000000,4.000000,4.000000,4.000000,4.000000,4.000000,4.000000,4.000000,100.000000
1614473301.199927,65.000000,0.000000,5.117245,-0.081863,-1.276157,-19.294722,-1.447629,-17.359293,-2.955626,-13.767332,-3.429770,-14.659456,-14.444259,-11.585081,0.541514,-17.693327,-31.104982,-24.378450,-10.817416,22.625360,47.575764,-2.443297,-19.166964,1.957333,24.773924,-33.108868,2.784650,10.029510,39.951641,11.283429,-2.590677,4.913370,45.131142,-7.181794,0.000000,172.000000,4.000000,,,,0.000000,4.000000,4.000000,4.000000,4.000000,4.000000,4.000000,4.000000,4.000000,4.000000,4.000000,4.000000,4.000000,4.000000,4.000000,4.000000,4.000000,4.000000,4.000000,4.000000,4.000000,4.000000,4.000000,4.000000,4.000000,4.000000,4.000000,4.000000,4.000000,4.000000,4.000000,4.000000,4.000000,100.000000
1614473301.207776,66.000000,0.000000,7.163409,-3.158705,-6.915906,-31.070299,-8.112848,-14.777831,-5.516772,-14.266385,-1.375058,-16.696079,-26.224686,-8.496573,1.053793,-29.983326,-30.561058,-26.405354,-9.780957,16.961708,24.451265,-5.004956,-25.301643,1.442555,24.749149,-37.178326,-4.397622,10.532301,35.296307,10.246505,-6.690651,1.318713,44.060368,-15.892561,0.000000,205.000000,4.000000,,,,0.000000,4.000000,4.000000,4.000000,4.000000,4.000000,4.000000,4.000000,4.000000,4.000000,4.000000,4.000000,4.000000,4.000000,4.000000,4.000000,4.000000,4.000000,4.000000,4.000000,4.000000,4.000000,4.000000,4.000000,4.000000,4.000000,4.000000,4.000000,4.000000,4.000000,4.000000,4.000000,4.000000,100.000000
1614473301.215526,67.000000,0.000000,4.592144,-1.617084,-0.755144,-22.834101,-10.668839,-13.224592,-9.100999,-14.252118,-1.886503,-15.653742,-16.454872,-9.513718,2.078380,-26.876419,-22.325367,-11.507154,-7.207074,40.021671,32.119122,8.333382,-19.122496,1.953933,13.955170,-40.730888,-4.906045,-0.247462,33.722549,3.056771,-2.068576,-3.297991,41.965027,-4.594617,0.000000,209.000000,4.000000,,,,0.000000,4.000000,4.000000,4.000000,4.000000,4.000000,4.000000,4.000000,4.000000,4.000000,4.000000,4.000000,4.000000,4.000000,4.000000,4.000000,4.000000,4.000000,4.000000,4.000000,4.000000,4.000000,4.000000,4.000000,4.000000,4.000000,4.000000,4.000000,4.000000,4.000000,4.000000,4.000000,4.000000,100.000000
1614473301.223375,68.000000,0.000000,2.536269,5.564020,9.502021,-6.913830,-6.555605,-7.570342,-3.450873,-13.725046,-2.397437,-12.561165,-9.771750,-14.119589,3.101943,-19.157234,-18.200478,-16.111032,-5.661406,41.007290,39.266487,5.760946,-14.487988,1.439158,6.761728,-41.715801,-1.311395,-0.760035,33.688828,1.002432,6.651442,-0.730590,41.410240,4.127926,0.000000,183.000000,4.000000,,,,0.000000,4.000000,4.000000,4.000000,4.000000,4.000000,4.000000,4.000000,4.000000,4.000000,4.000000,4.000000,4.000000,4.000000,4.000000,4.000000,4.000000,4.000000,4.000000,4.000000,4.000000,4.000000,4.000000,4.000000,4.000000,4.000000,4.000000,4.000000,4.000000,4.000000,4.000000,4.000000,4.000000,100.000000
1614473301.231124,69.000000,0.000000,8.687579,7.609738,0.774570,-13.573583,-3.984947,0.642357,1.167963,-13.711321,-0.343758,-13.061424,-11.300440,-10.002905,0.021918,-21.189360,-29.977150,-26.864151,-4.630103,25.068846,29.996454,-8.090969,-17.037603,1.950540,7.780607,-42.186905,0.228378,4.881751,32.116676,8.180917,8.183251,3.372705,42.394470,1.046875,0.000000,208.000000,4.000000,,,,0.000000,4.000000,4.000000,4.000000,4.000000,4.000000,4.000000,4.000000,4.000000,4.000000,4.000000,4.000000,4.000000,4.000000,4.000000,4.000000,4.000000,4.000000,4.000000,4.000000,4.000000,4.000000,4.000000,4.000000,4.000000,4.000000,4.000000,4.000000,4.000000,4.000000,4.000000,4.000000,4.000000,100.000000
1614473301.238774,70.000000,0.000000,16.371199,11.704692,-11.021076,-15.098471,3.711346,0.128894,4.243718,-13.184789,5.297612,-16.125286,-6.673755,-1.274953,5.150101,-19.629709,-31.485634,-16.580877,-4.112652,33.248905,39.197227,-9.621339,-17.533386,7.076794,7.260006,-41.119076,-1.310312,6.415330,38.751225,11.762480,7.149427,4.907794,36.711052,0.533008,0.000000,198.000000,4.000000,,,,0.000000,4.000000,4.000000,4.000000,4.000000,4.000000,4.000000,4.000000,4.000000,4.000000,4.000000,4.000000,4.000000,4.000000,4.000000,4.000000,4.000000,4.000000,4.000000,4.000000,4.000000,4.000000,4.000000,4.000000,4.000000,4.000000,4.000000,4.000000,4.000000,4.000000,4.000000,4.000000,4.000000,100.000000
1614473301.246523,71.000000,0.000000,18.406111,16.821192,-2.292106,-0.211578,10.887121,1.154406,10.393320,-5.992117,9.394878,-8.416853,-0.513235,0.777604,22.580849,-8.328028,-11.966969,-7.333527,7.686332,50.138733,64.286232,3.721615,-6.746622,13.223563,13.919413,-19.026676,1.767921,9.485838,50.507347,10.212255,7.655098,5.928526,35.135880,2.583757,0.000000,189.000000,4.000000,,,,0.000000,4.000000,4.000000,4.000000,4.000000,4.000000,4.000000,4.000000,4.000000,4.000000,4.000000,4.000000,4.000000,4.000000,4.000000,4.000000,4.000000,4.000000,4.000000,4.000000,4.000000,4.000000,4.000000,4.000000,4.000000,4.000000,4.000000,4.000000,4.000000,4.000000,4.000000,4.000000,4.000000,100.000000
1614473301.254172,72.000000,0.000000,18.387705,11.676167,6.940955,-0.211366,5.748029,5.768636,11.408568,1.193362,9.898304,1.335153,5.641124,-0.248815,23.583908,-2.678674,-0.672951,-7.326193,19.473518,51.627056,68.837334,19.102509,9.157560,13.210340,27.751646,13.812864,9.971281,6.912250,46.354275,10.202044,7.647443,2.332855,41.767410,2.068352,0.000000,194.000000,4.000000,,,,0.000000,4.000000,4.000000,4.000000,4.000000,4.000000,4.000000,4.000000,4.000000,4.000000,4.000000,4.000000,4.000000,4.000000,4.000000,4.000000,4.000000,4.000000,4.000000,4.000000,4.000000,4.000000,4.000000,4.000000,4.000000,4.000000,4.000000,4.000000,4.000000,4.000000,4.000000,4.000000,4.000000,100.000000
1614473301.261922,73.000000,0.000000,13.241111,4.485003,7.446835,-4.313719,3.690999,0.121842,5.756134,-1.884754,9.888406,1.333818,10.763688,0.264254,4.073145,-2.675995,-5.287663,-0.652200,9.710454,50.036968,62.101830,14.980843,6.071480,7.043283,30.800817,43.029819,12.012592,-2.325432,34.000229,11.217483,8.152617,-1.772043,41.212822,1.553463,0.000000,195.000000,4.000000,,,,0.000000,4.000000,4.000000,4.000000,4.000000,4.000000,4.000000,4.000000,4.000000,4.000000,4.000000,4.000000,4.000000,4.000000,4.000000,4.000000,4.000000,4.000000,4.000000,4.000000,4.000000,4.000000,4.000000,4.000000,4.000000,4.000000,4.000000,4.000000,4.000000,4.000000,4.000000,4.000000,4.000000,100.000000
1614473301.269571,74.000000,0.000000,7.074024,6.531800,9.490670,1.331621,9.841154,-8.596229,4.724737,-8.549536,8.852876,0.306843,5.624720,0.263990,-1.571953,-6.263063,-8.872118,-3.728471,-2.606948,43.320263,62.552547,-2.470036,-9.319207,2.420856,24.616171,56.320126,6.359554,2.292278,31.914946,11.206264,5.580361,5.922037,39.633148,1.039089,0.000000,179.000000,4.000000,,,,0.000000,4.000000,4.000000,4.000000,4.000000,4.000000,4.000000,4.000000,4.000000,4.000000,4.000000,4.000000,4.000000,4.000000,4.000000,4.000000,4.000000,4.000000,4.000000,4.000000,4.000000,4.000000,4.000000,4.000000,4.000000,4.000000,4.000000,4.000000,4.000000,4.000000,4.000000,4.000000,4.000000,100.000000
1614473301.277320,75.000000,0.000000,9.631052,8.576550,2.814512,-7.387660,10.344133,-9.100452,5.232832,-6.489705,9.869664,-1.744746,-4.124495,0.776547,8.686028,-16.513210,-12.452990,-18.083717,-0.553059,29.430790,58.900249,-2.980386,-11.873990,1.392794,22.027452,49.084316,3.276271,12.546396,34.447132,11.195059,0.959396,12.582782,45.234539,3.602153,0.000000,192.000000,4.000000,,,,0.000000,4.000000,4.000000,4.000000,4.000000,4.000000,4.000000,4.000000,4.000000,4.000000,4.000000,4.000000,4.000000,4.000000,4.000000,4.000000,4.000000,4.000000,4.000000,4.000000,4.000000,4.000000,4.000000,4.000000,4.000000,4.000000,4.000000,4.000000,4.000000,4.000000,4.000000,4.000000,4.000000,100.000000
1614473301.284970,76.000000,0.000000,13.211165,7.029512,-6.931892,-22.764887,6.231225,-10.116993,2.150677,-1.355010,9.859795,-9.948129,-7.710114,-1.275512,9.190164,-22.137722,-17.055922,-24.219481,0.985955,28.375719,54.738785,8.817466,-9.298014,1.904222,23.543886,34.676258,4.298636,8.944106,32.874226,10.671043,-0.067204,3.852250,38.522636,0.008807,0.000000,181.000000,4.000000,,,,0.000000,4.000000,4.000000,4.000000,4.000000,4.000000,4.000000,4.000000,4.000000,4.000000,4.000000,4.000000,4.000000,4.000000,4.000000,4.000000,4.000000,4.000000,4.000000,4.000000,4.000000,4.000000,4.000000,4.000000,4.000000,4.000000,4.000000,4.000000,4.000000,4.000000,4.000000,4.000000,4.000000,100.000000
1614473301.292719,77.000000,0.000000,10.121031,7.535303,-0.771114,-19.665199,5.712173,-6.517133,0.610064,-3.917757,5.234550,-6.861258,-8.728045,-3.325519,4.052768,-15.961739,-17.551685,-25.733721,3.036251,38.603752,57.760971,12.398392,-8.263075,1.389497,23.007523,40.282608,3.268696,1.755675,32.328529,11.173192,3.009786,-3.331089,26.689243,-7.683509,0.000000,194.000000,4.000000,,,,0.000000,4.000000,4.000000,4.000000,4.000000,4.000000,4.000000,4.000000,4.000000,4.000000,4.000000,4.000000,4.000000,4.000000,4.000000,4.000000,4.000000,4.000000,4.000000,4.000000,4.000000,4.000000,4.000000,4.000000,4.000000,4.000000,4.000000,4.000000,4.000000,4.000000,4.000000,4.000000,4.000000,100.000000
1614473301.300369,78.000000,0.000000,9.598089,7.527768,1.280939,-12.466047,6.732102,-0.869590,1.635095,-6.477942,3.178034,-1.726191,0.511452,-3.835014,4.561536,-11.330393,-18.559774,-14.938757,9.699882,44.206177,51.549362,11.360353,-2.100965,1.388107,21.958874,54.088478,3.778248,1.241099,33.321842,14.238942,4.032417,-0.250835,34.867683,-6.137364,0.000000,185.000000,4.000000,,,,0.000000,4.000000,4.000000,4.000000,4.000000,4.000000,4.000000,4.000000,4.000000,4.000000,4.000000,4.000000,4.000000,4.000000,4.000000,4.000000,4.000000,4.000000,4.000000,4.000000,4.000000,4.000000,4.000000,4.000000,4.000000,4.000000,4.000000,4.000000,4.000000,4.000000,4.000000,4.000000,4.000000,100.000000
1614473301.308118,79.000000,0.000000,13.178235,7.520240,-13.592136,-14.504863,7.751011,-10.099489,2.146281,-5.958643,7.790240,-16.083439,14.357095,-4.343999,6.095436,-10.293421,-21.105318,5.076181,6.100438,40.059406,39.190121,7.759249,-7.227070,1.899540,22.449736,47.880543,4.800111,2.778319,33.801342,11.660601,3.515564,2.826339,37.909737,-6.644047,0.000000,174.000000,4.000000,,,,0.000000,4.000000,4.000000,4.000000,4.000000,4.000000,4.000000,4.000000,4.000000,4.000000,4.000000,4.000000,4.000000,4.000000,4.000000,4.000000,4.000000,4.000000,4.000000,4.000000,4.000000,4.000000,4.000000,4.000000,4.000000,4.000000,4.000000,4.000000,4.000000,4.000000,4.000000,4.000000,4.000000,100.000000
1614473301.315767,80.000000,0.000000,14.190698,10.076822,-18.193930,-18.080101,5.179158,-13.166313,2.144135,-6.978326,8.295271,-26.323767,2.547866,-7.416578,5.576520,-12.847230,-21.597033,-5.185305,-0.059508,30.788576,40.176575,-1.479280,-24.142920,1.384820,21.914465,38.089073,-0.845715,7.903746,33.254719,1.392530,4.024869,0.772231,18.897469,-20.996378,0.000000,187.000000,4.000000,,,,0.000000,4.000000,4.000000,4.000000,4.000000,4.000000,4.000000,4.000000,4.000000,4.000000,4.000000,4.000000,4.000000,4.000000,4.000000,4.000000,4.000000,4.000000,4.000000,4.000000,4.000000,4.000000,4.000000,4.000000,4.000000,4.000000,4.000000,4.000000,4.000000,4.000000,4.000000,4.000000,4.000000,100.000000
1614473301.323517,81.000000,0.000000,13.663687,9.041104,-7.919324,-18.062021,2.097056,3.769930,1.116349,-5.432886,5.722873,-16.553852,-15.916221,-7.409162,5.058123,-15.911306,-21.575436,-32.359608,3.017474,29.219326,44.238960,-1.477800,-21.554674,1.896255,19.328447,37.025345,-7.511536,6.870201,33.221466,-5.275529,3.508024,-1.279824,8.622161,-20.975382,0.000000,191.000000,4.000000,,,,0.000000,4.000000,4.000000,4.000000,4.000000,4.000000,4.000000,4.000000,4.000000,4.000000,4.000000,4.000000,4.000000,4.000000,4.000000,4.000000,4.000000,4.000000,4.000000,4.000000,4.000000,4.000000,4.000000,4.000000,4.000000,4.000000,4.000000,4.000000,4.000000,4.000000,4.000000,4.000000,4.000000,100.000000
1614473301.331166,82.000000,0.000000,13.650023,2.878217,-1.244739,-7.787549,6.197523,7.355904,2.140874,-6.453094,5.717150,-10.383453,-7.182355,-7.401752,5.565885,-8.203087,-20.528219,-26.686222,1.988816,34.831131,38.553696,5.703165,-4.097222,2.920000,18.283480,36.475498,-3.914281,-4.931541,33.701065,-3.218972,4.530157,-2.304185,15.280206,-5.056970,0.000000,183.000000,4.000000,,,,0.000000,4.000000,4.000000,4.000000,4.000000,4.000000,4.000000,4.000000,4.000000,4.000000,4.000000,4.000000,4.000000,4.000000,4.000000,4.000000,4.000000,4.000000,4.000000,4.000000,4.000000,4.000000,4.000000,4.000000,4.000000,4.000000,4.000000,4.000000,4.000000,4.000000,4.000000,4.000000,4.000000,100.000000
1614473301.338915,83.000000,0.000000,12.097911,-0.201584,-6.884520,-6.754121,5.165684,-9.061708,2.138733,-16.703051,2.634510,-15.501274,4.106878,-9.958453,5.560319,1.035885,-21.020512,-9.223638,-1.602917,33.257839,46.720272,3.133359,0.522260,-0.159843,18.778015,48.233894,1.217839,-8.003532,31.616081,1.912452,2.987165,-2.301881,20.905951,-9.154477,0.000000,195.000000,4.000000,,,,0.000000,4.000000,4.000000,4.000000,4.000000,4.000000,4.000000,4.000000,4.000000,4.000000,4.000000,4.000000,4.000000,4.000000,4.000000,4.000000,4.000000,4.000000,4.000000,4.000000,4.000000,4.000000,4.000000,4.000000,4.000000,4.000000,4.000000,4.000000,4.000000,4.000000,4.000000,4.000000,4.000000,100.000000
1614473301.346565,84.000000,0.000000,10.034531,0.311438,-20.210968,-29.311470,-7.659995,-13.155211,-4.017251,-24.378656,-1.983510,-16.511414,-2.051075,-11.486957,5.554759,-7.683099,-24.076414,-8.188773,5.578174,35.275864,71.288933,1.591764,-2.042365,-1.185324,18.759237,60.493351,-3.398764,-1.841683,26.969080,3.449002,-5.220950,-1.786758,20.372225,-29.145323,0.000000,191.000000,4.000000,,,,0.000000,4.000000,4.000000,4.000000,4.000000,4.000000,4.000000,4.000000,4.000000,4.000000,4.000000,4.000000,4.000000,4.000000,4.000000,4.000000,4.000000,4.000000,4.000000,4.000000,4.000000,4.000000,4.000000,4.000000,4.000000,4.000000,4.000000,4.000000,4.000000,4.000000,4.000000,4.000000,4.000000,100.000000
1614473301.354314,85.000000,0.000000,9.511676,0.311127,-19.677937,-32.359081,-10.729258,-7.501030,-9.141439,-20.251713,-0.443065,-14.443621,-4.613126,-11.475470,5.036384,-19.983109,-24.052338,-8.180584,12.752083,50.625202,77.884315,8.256839,-2.040323,5.995348,18.740479,45.048244,-9.036390,-1.839841,23.865189,2.932732,-11.369576,-2.297792,14.198007,-32.193100,0.000000,179.000000,4.000000,,,,0.000000,4.000000,4.000000,4.000000,4.000000,4.000000,4.000000,4.000000,4.000000,4.000000,4.000000,4.000000,4.000000,4.000000,4.000000,4.000000,4.000000,4.000000,4.000000,4.000000,4.000000,4.000000,4.000000,4.000000,4.000000,4.000000,4.000000,4.000000,4.000000,4.000000,4.000000,4.000000,4.000000,100.000000
1614473301.361964,86.000000,0.000000,7.963703,0.310816,-0.683900,-10.275440,-3.026221,-8.006350,-10.670760,-16.641718,0.070199,-11.865075,-4.608513,-10.951174,5.544168,-19.450304,-19.412901,-17.403173,13.252151,45.959194,56.267967,11.325505,-3.576744,10.091917,18.721739,26.541656,-3.386328,1.238922,26.405426,3.442620,-9.819744,-2.295494,18.799192,-16.263472,0.000000,197.000000,4.000000,,,,0.000000,4.000000,4.000000,4.000000,4.000000,4.000000,4.000000,4.000000,4.000000,4.000000,4.000000,4.000000,4.000000,4.000000,4.000000,4.000000,4.000000,4.000000,4.000000,4.000000,4.000000,4.000000,4.000000,4.000000,4.000000,4.000000,4.000000,4.000000,4.000000,4.000000,4.000000,4.000000,4.000000,100.000000
1614473301.369713,87.000000,0.000000,6.417278,-0.202316,5.470630,-10.777985,-4.561656,-9.023984,-9.634448,-17.650717,-4.032435,-8.776286,-9.732110,-10.940222,5.538624,-17.892393,-18.367847,-38.924232,11.700438,23.349133,36.211700,14.391103,-4.598808,3.927979,18.703016,28.566397,9.437571,5.340247,31.507225,3.951998,-7.245822,-1.780378,44.421421,-0.349772,0.000000,189.000000,4.000000,,,,0.000000,4.000000,4.000000,4.000000,4.000000,4.000000,4.000000,4.000000,4.000000,4.000000,4.000000,4.000000,4.000000,4.000000,4.000000,4.000000,4.000000,4.000000,4.000000,4.000000,4.000000,4.000000,4.000000,4.000000,4.000000,4.000000,4.000000,4.000000,4.000000,4.000000,4.000000,4.000000,4.000000,100.000000
1614473301.377362,88.000000,0.000000,5.898040,-2.253396,-6.329712,-19.485155,-9.172479,-9.527781,-2.958147,-17.120247,-5.566864,-7.229049,-2.030070,-11.442102,3.994623,-17.874500,-20.400761,-32.218639,7.073352,27.941168,38.226768,13.863891,-5.619850,-1.716975,18.684313,32.127575,13.530697,-2.357401,28.911615,3.435225,-5.700114,-4.342700,46.428280,-8.554550,0.000000,172.000000,4.000000,,,,0.000000,4.000000,4.000000,4.000000,4.000000,4.000000,4.000000,4.000000,4.000000,4.000000,4.000000,4.000000,4.000000,4.000000,4.000000,4.000000,4.000000,4.000000,4.000000,4.000000,4.000000,4.000000,4.000000,4.000000,4.000000,4.000000,4.000000,4.000000,4.000000,4.000000,4.000000,4.000000,4.000000,100.000000
1614473301.385212,89.000000,0.000000,5.892142,-3.789604,-8.374664,-12.286183,-6.086383,-11.569535,4.737119,-17.615946,-6.074118,-6.708999,6.689909,-10.405020,2.964988,-18.369446,-19.867540,-6.032576,0.912433,49.451687,53.060337,0.516694,-10.742435,-1.715258,18.665628,28.505703,1.209474,-6.457608,24.780140,3.431790,-8.771338,-9.466563,16.125441,-29.058817,0.000000,176.000000,4.000000,,,,0.000000,4.000000,4.000000,4.000000,4.000000,4.000000,4.000000,4.000000,4.000000,4.000000,4.000000,4.000000,4.000000,4.000000,4.000000,4.000000,4.000000,4.000000,4.000000,4.000000,4.000000,4.000000,4.000000,4.000000,4.000000,4.000000,4.000000,4.000000,4.000000,4.000000,4.000000,4.000000,4.000000,100.000000
1614473301.392961,90.000000,0.000000,8.963173,-3.785814,-4.776546,-16.889282,-4.541835,-8.481043,3.193920,-17.085510,-5.042403,-8.753572,-0.496268,-8.343332,4.500484,-21.427999,-18.309212,-0.898338,0.398700,55.043262,61.725227,-0.509464,-12.782975,-1.200722,18.134142,23.861813,-7.509684,2.779619,30.396385,3.428358,-12.865130,-10.482738,9.955470,-22.875912,0.000000,178.000000,4.000000,,,,0.000000,4.000000,4.000000,4.000000,4.000000,4.000000,4.000000,4.000000,4.000000,4.000000,4.000000,4.000000,4.000000,4.000000,4.000000,4.000000,4.000000,4.000000,4.000000,4.000000,4.000000,4.000000,4.000000,4.000000,4.000000,4.000000,4.000000,4.000000,4.000000,4.000000,4.000000,4.000000,4.000000,100.000000
1614473301.400810,91.000000,0.000000,13.056773,-3.269208,-4.258949,-17.898033,-1.973191,-4.882818,2.677906,-7.837655,2.142127,-8.231998,-2.034234,-6.796527,6.547266,-10.637341,-14.701159,-8.076927,-0.627340,53.449757,56.022476,11.798738,-9.180449,-1.199521,19.141649,16.658464,2.754236,6.879404,38.058296,3.424930,-0.544573,-7.395331,29.432693,-1.314574,0.000000,183.000000,4.000000,,,,0.000000,4.000000,4.000000,4.000000,4.000000,4.000000,4.000000,4.000000,4.000000,4.000000,4.000000,4.000000,4.000000,4.000000,4.000000,4.000000,4.000000,4.000000,4.000000,4.000000,4.000000,4.000000,4.000000,4.000000,4.000000,4.000000,4.000000,4.000000,4.000000,4.000000,4.000000,4.000000,4.000000,100.000000
1614473301.408559,92.000000,0.000000,10.479614,-3.265939,-0.152126,0.581403,1.105705,-4.365115,6.777792,-6.291356,6.755369,-1.044279,3.608826,-6.789731,6.027898,-0.883114,-13.147996,-14.735517,-2.677995,44.678360,48.274143,3.068990,-8.145627,-2.223963,18.609688,11.513600,11.469430,2.769960,36.994598,3.421505,10.738023,-5.849474,30.941723,-1.826080,0.000000,193.000000,4.000000,,,,0.000000,4.000000,4.000000,4.000000,4.000000,4.000000,4.000000,4.000000,4.000000,4.000000,4.000000,4.000000,4.000000,4.000000,4.000000,4.000000,4.000000,4.000000,4.000000,4.000000,4.000000,4.000000,4.000000,4.000000,4.000000,4.000000,4.000000,4.000000,4.000000,4.000000,4.000000,4.000000,4.000000,100.000000
1614473301.416409,93.000000,0.000000,6.879391,-3.775493,-5.280180,-7.111486,-3.510785,-4.360750,1.129989,-17.054295,0.594768,-2.581696,-6.651193,-6.782941,2.944947,-16.266848,-21.339975,-27.028473,-0.624035,24.120859,46.174587,-6.677669,-8.137482,-4.785841,15.514154,13.040548,3.765653,1.228729,30.803757,3.418083,-5.170151,-6.356446,25.782576,-10.542203,0.000000,174.000000,4.000000,,,,0.000000,4.000000,4.000000,4.000000,4.000000,4.000000,4.000000,4.000000,4.000000,4.000000,4.000000,4.000000,4.000000,4.000000,4.000000,4.000000,4.000000,4.000000,4.000000,4.000000,4.000000,4.000000,4.000000,4.000000,4.000000,4.000000,4.000000,4.000000,4.000000,4.000000,4.000000,4.000000,4.000000,100.000000
1614473301.424158,94.000000,0.000000,8.410974,-2.746077,-14.505669,-28.642836,-8.122659,-6.407671,-8.614731,-19.088524,-1.457109,-14.373986,-18.439413,-7.288979,2.429182,-28.558271,-29.523764,-32.642471,0.915051,21.019815,46.641235,5.636702,-8.129344,-5.293876,14.985820,12.001867,-4.956061,1.740321,28.721670,3.414665,-17.472673,-6.862910,27.808075,-10.018840,0.000000,193.000000,4.000000,,,,0.000000,4.000000,4.000000,4.000000,4.000000,4.000000,4.000000,4.000000,4.000000,4.000000,4.000000,4.000000,4.000000,4.000000,4.000000,4.000000,4.000000,4.000000,4.000000,4.000000,4.000000,4.000000,4.000000,4.000000,4.000000,4.000000,4.000000,4.000000,4.000000,4.000000,4.000000,4.000000,4.000000,100.000000
1614473301.432007,95.000000,0.000000,9.428204,-0.179228,-3.209111,-19.383425,-5.550434,-8.965365,-8.093296,-5.223281,4.698194,-10.769869,-16.369692,-7.281690,4.478034,-16.222021,-23.340395,-31.584187,0.914136,35.357769,51.722797,8.707988,-9.146855,-4.775762,18.047758,12.502686,-3.925464,3.277042,29.205769,2.898430,-4.634687,-6.343226,24.703344,-9.496000,0.000000,183.000000,4.000000,,,,0.000000,4.000000,4.000000,4.000000,4.000000,4.000000,4.000000,4.000000,4.000000,4.000000,4.000000,4.000000,4.000000,4.000000,4.000000,4.000000,4.000000,4.000000,4.000000,4.000000,4.000000,4.000000,4.000000,4.000000,4.000000,4.000000,4.000000,4.000000,4.000000,4.000000,4.000000,4.000000,4.000000,100.000000
1614473301.439756,96.000000,0.000000,10.444416,0.846592,13.717175,-8.594810,-4.006422,-4.341016,-5.521100,0.422968,6.231957,2.061414,-14.302040,-6.761588,1.909454,-13.128877,-16.650387,-32.578243,1.938863,40.963436,61.927486,4.083895,-7.599247,-8.360729,18.542530,13.515824,-2.895897,2.248124,28.150923,3.408352,1.523793,-4.798421,30.832487,-4.871120,8064.000000,0.000000,4.000000,,,,0.000000,4.000000,4.000000,4.000000,4.000000,4.000000,4.000000,4.000000,4.000000,4.000000,4.000000,4.000000,4.000000,4.000000,4.000000,4.000000,4.000000,4.000000,4.000000,4.000000,4.000000,4.000000,4.000000,4.000000,4.000000,4.000000,4.000000,4.000000,4.000000,4.000000,4.000000,4.000000,4.000000,100.000000
1614473301.447606,97.000000,0.000000,8.895510,-1.718357,13.190637,-16.791344,-5.028056,-2.798213,-9.105323,-11.372327,2.123161,-1.530391,-13.774918,-9.831749,-4.759122,-21.833696,-20.223480,-21.776434,-1.652820,43.999397,65.455299,7.669555,-8.617290,-15.019035,18.011168,4.271539,-3.918643,-6.472073,22.994566,3.404944,-6.170038,-6.844905,43.109348,3.851700,8064.000000,0.000000,4.000000,,,,0.000000,4.000000,4.000000,4.000000,4.000000,4.000000,4.000000,4.000000,4.000000,4.000000,4.000000,4.000000,4.000000,4.000000,4.000000,4.000000,4.000000,4.000000,4.000000,4.000000,4.000000,4.000000,4.000000,4.000000,4.000000,4.000000,4.000000,4.000000,4.000000,4.000000,4.000000,4.000000,4.000000,100.000000
1614473301.455355,98.000000,0.000000,1.707127,-3.767920,9.587703,-15.748911,-2.458925,-9.462082,-10.121858,-21.104544,1.608218,-11.785271,-11.709861,-14.950123,-6.292825,-21.299042,-23.793001,-15.087992,-9.343474,37.801552,53.594975,-7.722730,-19.890722,-18.080940,19.018797,-9.066066,-4.427545,-3.901499,20.407469,2.888718,-8.215150,-5.812419,34.861111,2.822207,8064.000000,0.000000,4.000000,,,,0.000000,4.000000,4.000000,4.000000,4.000000,4.000000,4.000000,4.000000,4.000000,4.000000,4.000000,4.000000,4.000000,4.000000,4.000000,4.000000,4.000000,4.000000,4.000000,4.000000,4.000000,4.000000,4.000000,4.000000,4.000000,4.000000,4.000000,4.000000,4.000000,4.000000,4.000000,4.000000,4.000000,100.000000
1614473301.463204,99.000000,0.000000,3.756702,-0.687230,10.603756,-11.630598,-0.405185,-11.503901,-9.086095,-18.006516,2.632251,-11.260665,-18.364817,-13.909532,-4.748070,-26.405949,-24.794849,-36.098545,-10.359772,13.661186,39.182404,-23.099623,-26.537498,-14.985935,18.486958,-15.210846,-2.884655,11.999839,26.540907,4.937112,-7.694114,5.988265,31.236506,3.845026,8064.000000,0.000000,4.000000,,,,0.000000,4.000000,4.000000,4.000000,4.000000,4.000000,4.000000,4.000000,4.000000,4.000000,4.000000,4.000000,4.000000,4.000000,4.000000,4.000000,4.000000,4.000000,4.000000,4.000000,4.000000,4.000000,4.000000,4.000000,4.000000,4.000000,4.000000,4.000000,4.000000,4.000000,4.000000,4.000000,4.000000,100.000000
1614473301.470954,100.000000,0.000000,15.034997,3.928842,10.080332,-14.695890,-0.404779,-5.851372,-9.077009,-10.809023,2.116798,-10.736584,-23.474657,-10.818699,-5.768963,-34.584671,-23.744413,-45.806038,-7.785310,13.647525,41.194504,-0.512420,-16.767372,-8.817103,18.468472,-17.246918,1.733614,18.141685,37.283596,9.547559,-5.635138,13.674584,47.615524,14.610412,8064.000000,0.000000,4.000000,,,,0.000000,4.000000,4.000000,4.000000,4.000000,4.000000,4.000000,4.000000,4.000000,4.000000,4.000000,4.000000,4.000000,4.000000,4.000000,4.000000,4.000000,4.000000,4.000000,4.000000,4.000000,4.000000,4.000000,4.000000,4.000000,4.000000,4.000000,4.000000,4.000000,4.000000,4.000000,4.000000,4.000000,100.000000
1614473301.478803,101.000000,0.000000,16.558424,4.437734,14.685637,-12.117092,-0.917195,-3.794239,-8.042291,-8.746932,2.114681,-10.725847,-15.758876,-12.346341,-5.763194,-23.268034,-18.079643,-22.170486,-7.264704,43.377468,54.999466,14.872707,-5.468553,-4.705722,23.578207,-14.665567,5.321624,14.020980,41.861698,11.076473,1.549984,6.481422,47.567909,13.570160,8064.000000,0.000000,4.000000,,,,0.000000,4.000000,4.000000,4.000000,4.000000,4.000000,4.000000,4.000000,4.000000,4.000000,4.000000,4.000000,4.000000,4.000000,4.000000,4.000000,4.000000,4.000000,4.000000,4.000000,4.000000,4.000000,4.000000,4.000000,4.000000,4.000000,4.000000,4.000000,4.000000,4.000000,4.000000,4.000000,4.000000,100.000000
1614473301.486552,102.000000,0.000000,10.388019,3.920476,16.209412,-11.079333,-0.916278,-4.816085,-6.495787,-12.840749,2.112566,-11.227942,-10.614911,-14.385277,-5.244610,-16.578100,-19.087204,-11.891906,-6.231798,39.744347,54.944466,-1.039601,-4.437444,-5.213837,25.605911,-10.548338,1.726559,11.442856,37.204453,10.552576,0.522793,0.833916,34.187008,3.300180,8064.000000,0.000000,4.000000,,,,0.000000,4.000000,4.000000,4.000000,4.000000,4.000000,4.000000,4.000000,4.000000,4.000000,4.000000,4.000000,4.000000,4.000000,4.000000,4.000000,4.000000,4.000000,4.000000,4.000000,4.000000,4.000000,4.000000,4.000000,4.000000,4.000000,4.000000,4.000000,4.000000,4.000000,4.000000,4.000000,4.000000,100.000000
1614473301.494401,103.000000,0.000000,9.351990,3.916555,1.834228,-16.196459,-0.915362,-6.349731,-5.463650,-16.417652,2.110454,-20.447483,-14.706861,-15.396533,-7.803468,-28.869213,-34.965553,-26.751808,-7.764028,12.012294,45.658752,-7.192408,-6.484288,-6.234264,19.426458,-14.640354,-4.941834,6.816029,28.962120,11.054844,-6.144396,4.422825,31.075897,-0.292864,8064.000000,0.000000,4.000000,,,,0.000000,4.000000,4.000000,4.000000,4.000000,4.000000,4.000000,4.000000,4.000000,4.000000,4.000000,4.000000,4.000000,4.000000,4.000000,4.000000,4.000000,4.000000,4.000000,4.000000,4.000000,4.000000,4.000000,4.000000,4.000000,4.000000,4.000000,4.000000,4.000000,4.000000,4.000000,4.000000,4.000000,100.000000
