title:17, start timestamp:1614474147.111438, stop timestamp:1614474193.132825, headset type:EPOCFLEX, headset serial:F00001ED, headset firmware:f12, subject name:s13, channels:75, sampling rate:128, samples:5944      , version:2.0
Timestamp,EEG.Counter,EEG.Interpolated,EEG.Cz,EEG.Fz,EEG.Fp1,EEG.F7,EEG.F3,EEG.FC1,EEG.C3,EEG.FC5,EEG.FT9,EEG.T7,EEG.TP9,EEG.CP5,EEG.CP1,EEG.P3,EEG.P7,EEG.O1,EEG.Pz,EEG.Oz,EEG.O2,EEG.P8,EEG.P4,EEG.CP2,EEG.CP6,EEG.TP10,EEG.T8,EEG.FT10,EEG.FC6,EEG.C4,EEG.FC2,EEG.F4,EEG.F8,EEG.Fp2,EEG.HighBitFlex,EEG.RawCq,EEG.Battery,MarkerIndex,MarkerType,MarkerValueInt,EEG.MarkerHardware,CQ.Cz,CQ.Fz,CQ.Fp1,CQ.F7,CQ.F3,CQ.FC1,CQ.C3,CQ.FC5,CQ.FT9,CQ.T7,CQ.TP9,CQ.CP5,CQ.CP1,CQ.P3,CQ.P7,CQ.O1,CQ.Pz,CQ.Oz,CQ.O2,CQ.P8,CQ.P4,CQ.CP2,CQ.CP6,CQ.TP10,CQ.T8,CQ.FT10,CQ.FC6,CQ.C4,CQ.FC2,CQ.F4,CQ.F8,CQ.Fp2,CQ.Overall
1614474147.111438,41.000000,0.000000,-18.611401,2.003050,9.796402,-14.955277,-12.030092,-24.964697,-15.972016,-26.362188,8.863523,-20.487698,-16.949324,-22.016127,-22.125498,-15.805181,-33.004765,53.764832,-18.748297,174.263351,157.138382,-40.128990,-19.465054,-17.295996,-15.075739,-32.599522,-17.542986,26.918629,-2.227377,-12.712478,-0.993532,11.468406,14.804446,14.204352,8064.000000,0.000000,4.000000,,,,0.000000,4.000000,4.000000,4.000000,4.000000,4.000000,4.000000,4.000000,4.000000,4.000000,4.000000,4.000000,4.000000,4.000000,4.000000,4.000000,4.000000,4.000000,4.000000,4.000000,4.000000,4.000000,4.000000,4.000000,4.000000,4.000000,4.000000,4.000000,4.000000,4.000000,4.000000,4.000000,4.000000,100.000000
1614474147.119287,42.000000,0.000000,-3.208173,9.693355,9.786606,-26.222374,-13.043703,-24.426912,-22.622711,-15.566595,10.905941,-29.185158,-31.804169,-18.404366,-12.359782,-23.481684,-31.946117,41.403374,-11.550060,166.909607,124.673546,-34.960655,-30.214821,0.670018,-14.547843,-54.105385,-15.986980,30.481453,0.338952,-10.648482,0.545923,6.841553,10.687078,15.728609,8064.000000,0.000000,4.000000,,,,0.000000,4.000000,4.000000,4.000000,4.000000,4.000000,4.000000,4.000000,4.000000,4.000000,4.000000,4.000000,4.000000,4.000000,4.000000,4.000000,4.000000,4.000000,4.000000,4.000000,4.000000,4.000000,4.000000,4.000000,4.000000,4.000000,4.000000,4.000000,4.000000,4.000000,4.000000,4.000000,4.000000,100.000000
1614474147.127036,43.000000,0.000000,-17.051119,1.478533,9.776819,-25.683331,-13.030659,-24.402485,-28.753935,-15.038208,4.741189,-33.258537,-16.900570,-32.744938,-22.603832,-18.842817,-30.888531,49.567101,-13.589792,199.563202,146.087326,-21.592361,-24.030760,-2.920395,-15.046116,-47.384609,-24.176123,6.861228,-4.276771,-12.689116,1.571018,-6.498622,5.035366,18.789804,8064.000000,0.000000,4.000000,,,,0.000000,4.000000,4.000000,4.000000,4.000000,4.000000,4.000000,4.000000,4.000000,4.000000,4.000000,4.000000,4.000000,4.000000,4.000000,4.000000,4.000000,4.000000,4.000000,4.000000,4.000000,4.000000,4.000000,4.000000,4.000000,4.000000,4.000000,4.000000,4.000000,4.000000,4.000000,4.000000,4.000000,100.000000
1614474147.134686,44.000000,0.000000,-36.008427,-6.728074,10.279863,-12.324314,-7.376603,-23.865261,-25.135437,-23.228298,-0.391758,-24.507330,-7.140080,-34.250652,-31.811998,-14.208590,-32.908924,50.030354,-19.730049,190.645691,166.966888,-29.263077,-18.878523,-25.481577,-18.107992,-35.029533,-23.639126,8.392828,-8.375058,-12.163607,-2.533117,4.277107,14.261099,23.386398,8064.000000,0.000000,4.000000,,,,0.000000,4.000000,4.000000,4.000000,4.000000,4.000000,4.000000,4.000000,4.000000,4.000000,4.000000,4.000000,4.000000,4.000000,4.000000,4.000000,4.000000,4.000000,4.000000,4.000000,4.000000,4.000000,4.000000,4.000000,4.000000,4.000000,4.000000,4.000000,4.000000,4.000000,4.000000,4.000000,4.000000,100.000000
1614474147.142435,45.000000,0.000000,-21.613443,1.483783,10.269584,-5.132503,1.348723,-24.867039,-20.494917,-19.615326,7.300942,-19.354618,-9.697042,-18.318966,-23.575058,-16.245663,-31.337553,54.595707,-21.248781,158.147354,147.825562,-37.951763,-23.475029,-25.968916,-20.141167,-33.968864,-14.897537,32.487000,-9.392324,-4.459136,-8.684430,24.785650,21.939146,24.388653,8064.000000,0.000000,4.000000,,,,0.000000,4.000000,4.000000,4.000000,4.000000,4.000000,4.000000,4.000000,4.000000,4.000000,4.000000,4.000000,4.000000,4.000000,4.000000,4.000000,4.000000,4.000000,4.000000,4.000000,4.000000,4.000000,4.000000,4.000000,4.000000,4.000000,4.000000,4.000000,4.000000,4.000000,4.000000,4.000000,4.000000,100.000000
1614474147.150085,46.000000,0.000000,-3.130292,10.713068,9.233673,-11.794037,0.321733,-24.329350,-20.987242,-6.262377,16.011589,-21.899366,-7.636064,-12.146801,-16.371996,-16.229418,-24.639549,70.438545,-16.612146,174.399460,134.857224,-30.221504,-23.451553,-12.609614,-17.044102,-38.550278,-13.344178,29.890409,-9.382932,-5.480317,-7.650105,12.965993,7.558232,23.851444,8064.000000,0.000000,4.000000,,,,0.000000,4.000000,4.000000,4.000000,4.000000,4.000000,4.000000,4.000000,4.000000,4.000000,4.000000,4.000000,4.000000,4.000000,4.000000,4.000000,4.000000,4.000000,4.000000,4.000000,4.000000,4.000000,4.000000,4.000000,4.000000,4.000000,4.000000,4.000000,4.000000,4.000000,4.000000,4.000000,4.000000,100.000000
1614474147.157834,47.000000,0.000000,-10.819469,7.625432,11.275721,-11.782243,-8.396538,-19.689636,-21.991896,-6.768936,8.303270,-22.903107,-16.346376,-27.006449,-26.612034,-15.187547,-24.102089,52.419392,-12.492970,177.301987,125.491592,-26.088718,-19.838360,-15.673927,-15.488597,-43.639935,-14.356475,7.809237,-7.322267,-18.295349,-2.514249,-10.636716,-2.705736,29.981440,8064.000000,0.000000,4.000000,,,,0.000000,4.000000,4.000000,4.000000,4.000000,4.000000,4.000000,4.000000,4.000000,4.000000,4.000000,4.000000,4.000000,4.000000,4.000000,4.000000,4.000000,4.000000,4.000000,4.000000,4.000000,4.000000,4.000000,4.000000,4.000000,4.000000,4.000000,4.000000,4.000000,4.000000,4.000000,4.000000,4.000000,100.000000
1614474147.165483,48.000000,0.000000,-21.577881,1.976781,12.290087,0.024412,-7.362500,-17.105844,-18.380161,-18.044218,-2.987084,-19.803282,-25.560799,-30.569187,-33.764908,-16.710821,-30.231834,36.469536,-16.070221,155.586227,129.981491,-29.139553,-17.767239,-24.889023,-21.626955,-28.211679,-10.239554,3.698864,-10.904689,-19.302696,-9.178402,-2.420951,7.553380,31.489920,8064.000000,0.000000,4.000000,,,,0.000000,4.000000,4.000000,4.000000,4.000000,4.000000,4.000000,4.000000,4.000000,4.000000,4.000000,4.000000,4.000000,4.000000,4.000000,4.000000,4.000000,4.000000,4.000000,4.000000,4.000000,4.000000,4.000000,4.000000,4.000000,4.000000,4.000000,4.000000,4.000000,4.000000,4.000000,4.000000,4.000000,100.000000
1614474147.173233,49.000000,0.000000,-16.428099,-0.076478,5.611130,0.024387,1.875632,-22.729763,-16.310499,-19.564634,1.631287,-20.809118,-9.124982,-9.000155,-21.423450,-14.130008,-28.150320,69.253578,-21.182356,188.251144,162.672028,-20.392464,-16.211010,-14.094903,-19.554045,-2.029621,-9.716495,11.900293,-17.560450,-8.514162,-23.015377,9.376341,7.545826,21.714840,8064.000000,0.000000,4.000000,,,,0.000000,4.000000,4.000000,4.000000,4.000000,4.000000,4.000000,4.000000,4.000000,4.000000,4.000000,4.000000,4.000000,4.000000,4.000000,4.000000,4.000000,4.000000,4.000000,4.000000,4.000000,4.000000,4.000000,4.000000,4.000000,4.000000,4.000000,4.000000,4.000000,4.000000,4.000000,4.000000,4.000000,100.000000
1614474147.180882,50.000000,0.000000,-10.770644,1.462060,0.990134,-12.283330,2.386576,-26.296778,-18.345470,-14.929686,9.321964,-23.865232,5.755938,-1.811668,-9.094336,-9.500493,-14.788836,94.825348,-16.545790,220.883408,191.740112,-7.551559,-16.707619,0.790987,-0.560132,-7.668617,-10.732419,12.401214,-9.850582,-13.121033,-17.351336,-4.992009,-2.205309,16.052099,8064.000000,0.000000,4.000000,,,,0.000000,4.000000,4.000000,4.000000,4.000000,4.000000,4.000000,4.000000,4.000000,4.000000,4.000000,4.000000,4.000000,4.000000,4.000000,4.000000,4.000000,4.000000,4.000000,4.000000,4.000000,4.000000,4.000000,4.000000,4.000000,4.000000,4.000000,4.000000,4.000000,4.000000,4.000000,4.000000,4.000000,100.000000
1614474147.188631,51.000000,0.000000,-11.272694,1.973419,6.117349,-14.322329,-7.872221,-16.014071,-17.301483,-15.940397,4.184437,-11.533675,-6.557510,-19.245754,-10.110883,-8.465351,-7.081739,62.422832,-8.836936,188.354843,159.240692,-6.005546,-15.665271,-0.748266,7.132736,-27.660948,-6.106302,9.824710,5.543884,-20.287399,0.614733,-9.602402,8.053307,19.625790,8064.000000,0.000000,4.000000,,,,0.000000,4.000000,4.000000,4.000000,4.000000,4.000000,4.000000,4.000000,4.000000,4.000000,4.000000,4.000000,4.000000,4.000000,4.000000,4.000000,4.000000,4.000000,4.000000,4.000000,4.000000,4.000000,4.000000,4.000000,4.000000,4.000000,4.000000,4.000000,4.000000,4.000000,4.000000,4.000000,4.000000,100.000000
1614474147.196281,52.000000,0.000000,-8.184498,-2.131119,7.136872,-10.718263,-9.402809,-4.716005,-7.540593,-16.437277,-0.947953,10.016319,-12.191978,-18.200867,-12.152054,-7.431245,-11.177222,41.334770,-8.828099,155.858795,135.491699,-11.640566,-11.034221,-6.901364,-8.259012,-20.453800,1.079292,12.378987,6.051160,-6.933778,3.178221,7.330277,25.993971,21.657446,8064.000000,0.000000,4.000000,,,,0.000000,4.000000,4.000000,4.000000,4.000000,4.000000,4.000000,4.000000,4.000000,4.000000,4.000000,4.000000,4.000000,4.000000,4.000000,4.000000,4.000000,4.000000,4.000000,4.000000,4.000000,4.000000,4.000000,4.000000,4.000000,4.000000,4.000000,4.000000,4.000000,4.000000,4.000000,4.000000,4.000000,100.000000
1614474147.204030,53.000000,0.000000,-2.022468,4.537679,4.052813,-8.656262,3.427106,-11.890777,1.184897,-10.779815,8.283765,10.006304,1.153547,3.355795,-4.960414,-2.295608,-17.832712,73.601128,-9.332091,178.779861,168.176727,-14.705849,-13.074469,-3.304719,-15.943061,-9.151296,1.591033,15.443532,0.916904,4.868028,-4.517265,13.989614,22.378233,19.071686,8064.000000,0.000000,4.000000,,,,0.000000,4.000000,4.000000,4.000000,4.000000,4.000000,4.000000,4.000000,4.000000,4.000000,4.000000,4.000000,4.000000,4.000000,4.000000,4.000000,4.000000,4.000000,4.000000,4.000000,4.000000,4.000000,4.000000,4.000000,4.000000,4.000000,4.000000,4.000000,4.000000,4.000000,4.000000,4.000000,4.000000,100.000000
1614474147.211680,54.000000,0.000000,1.056478,19.917757,15.330812,-0.442478,11.628807,-21.622475,2.209353,-3.589547,17.506250,-2.824216,8.331881,7.967824,7.352239,-0.242031,-14.225135,83.783936,-0.604811,206.293381,175.700851,-14.691143,-16.651138,2.339612,-6.183528,-15.295990,-2.513122,16.453730,6.557013,0.760596,-2.974286,6.283317,8.509702,16.488512,8064.000000,0.000000,4.000000,,,,0.000000,4.000000,4.000000,4.000000,4.000000,4.000000,4.000000,4.000000,4.000000,4.000000,4.000000,4.000000,4.000000,4.000000,4.000000,4.000000,4.000000,4.000000,4.000000,4.000000,4.000000,4.000000,4.000000,4.000000,4.000000,4.000000,4.000000,4.000000,4.000000,4.000000,4.000000,4.000000,4.000000,100.000000
1614474147.219429,55.000000,0.000000,-2.534322,14.256813,32.751377,11.352837,6.488973,-11.857264,-0.869779,-3.073138,11.334897,3.332455,4.733805,-0.758093,8.883348,-1.267430,-1.903218,64.725792,5.036820,199.933243,156.037979,-13.650810,-1.249871,1.311631,1.514963,-18.870438,-3.023430,15.924455,9.627378,-4.881191,1.644073,3.712930,4.911448,16.984844,8192.000000,0.000000,4.000000,,,,0.000000,4.000000,4.000000,4.000000,4.000000,4.000000,4.000000,4.000000,4.000000,4.000000,4.000000,4.000000,4.000000,4.000000,4.000000,4.000000,4.000000,4.000000,4.000000,4.000000,4.000000,4.000000,4.000000,4.000000,4.000000,4.000000,4.000000,4.000000,4.000000,4.000000,4.000000,4.000000,4.000000,100.000000
1614474147.227078,56.000000,0.000000,-9.198455,-3.706161,31.180164,16.982510,4.944023,-3.640278,-1.894551,-6.659808,7.733819,13.072712,4.729071,-2.295796,-3.946048,-0.753342,-5.491058,53.891838,-5.737448,168.451263,150.240906,-15.688442,10.033430,-5.356348,-1.050655,-17.313107,0.056517,14.882890,-0.125838,-3.850668,-0.921674,5.760499,9.521921,16.967859,8064.000000,0.000000,4.000000,,,,0.000000,4.000000,4.000000,4.000000,4.000000,4.000000,4.000000,4.000000,4.000000,4.000000,4.000000,4.000000,4.000000,4.000000,4.000000,4.000000,4.000000,4.000000,4.000000,4.000000,4.000000,4.000000,4.000000,4.000000,4.000000,4.000000,4.000000,4.000000,4.000000,4.000000,4.000000,4.000000,4.000000,100.000000
1614474147.234927,57.000000,0.000000,-4.061051,6.041134,16.790010,17.991169,14.682669,-15.944330,-2.405477,-0.499302,22.085060,5.367332,6.262804,0.783423,-8.044666,-1.778229,-24.972746,61.530254,-19.065044,151.359726,153.167587,-16.185574,-5.874040,-6.889452,-5.152168,-21.911177,1.594922,15.893648,-5.253918,-2.308356,-3.997675,6.780380,5.409835,16.438070,8064.000000,0.000000,4.000000,,,,0.000000,4.000000,4.000000,4.000000,4.000000,4.000000,4.000000,4.000000,4.000000,4.000000,4.000000,4.000000,4.000000,4.000000,4.000000,4.000000,4.000000,4.000000,4.000000,4.000000,4.000000,4.000000,4.000000,4.000000,4.000000,4.000000,4.000000,4.000000,4.000000,4.000000,4.000000,4.000000,4.000000,100.000000
1614474147.242677,58.000000,0.000000,12.866087,25.522272,13.183476,10.793690,17.232088,-21.056591,-2.915892,14.885813,28.729641,-4.381626,5.743721,4.372383,1.706968,-4.853374,-22.896492,83.520004,-7.251107,179.413498,169.937500,-12.066824,-16.124577,0.296924,-2.582913,-24.966188,-0.457955,17.929037,-3.710202,-3.844509,-3.480857,5.235138,-12.544292,13.857531,8064.000000,0.000000,4.000000,,,,0.000000,4.000000,4.000000,4.000000,4.000000,4.000000,4.000000,4.000000,4.000000,4.000000,4.000000,4.000000,4.000000,4.000000,4.000000,4.000000,4.000000,4.000000,4.000000,4.000000,4.000000,4.000000,4.000000,4.000000,4.000000,4.000000,4.000000,4.000000,4.000000,4.000000,4.000000,4.000000,4.000000,100.000000
1614474147.250526,59.000000,0.000000,11.827580,13.189058,17.272858,7.705973,7.471266,-6.676559,-2.400155,14.870927,10.752193,-3.864424,5.737977,1.291088,-3.422944,-5.361341,-5.437698,87.539047,6.089478,200.259720,176.434235,-13.593219,-6.364861,-0.729014,1.522234,-24.428402,-4.047241,9.193158,-8.321877,-9.481690,-2.964556,-0.411123,-19.198416,11.279571,8064.000000,0.000000,4.000000,,,,0.000000,4.000000,4.000000,4.000000,4.000000,4.000000,4.000000,4.000000,4.000000,4.000000,4.000000,4.000000,4.000000,4.000000,4.000000,4.000000,4.000000,4.000000,4.000000,4.000000,4.000000,4.000000,4.000000,4.000000,4.000000,4.000000,4.000000,4.000000,4.000000,4.000000,4.000000,4.000000,4.000000,100.000000
1614474147.258275,60.000000,0.000000,-6.645786,-4.260028,18.281225,25.134165,10.027898,-8.721165,-3.423396,-1.041380,3.561954,-0.783636,5.219418,-7.940973,-22.906700,-4.843160,-13.124568,65.913048,-12.378150,172.879974,143.950104,-23.323215,-9.948240,-13.548798,-7.197237,-27.993717,-1.991912,-1.072445,-18.057144,-12.036311,-5.525693,-0.923532,-1.743319,14.858034,8064.000000,0.000000,4.000000,,,,0.000000,4.000000,4.000000,4.000000,4.000000,4.000000,4.000000,4.000000,4.000000,4.000000,4.000000,4.000000,4.000000,4.000000,4.000000,4.000000,4.000000,4.000000,4.000000,4.000000,4.000000,4.000000,4.000000,4.000000,4.000000,4.000000,4.000000,4.000000,4.000000,4.000000,4.000000,4.000000,4.000000,100.000000
1614474147.266125,61.000000,0.000000,-14.331448,4.975001,16.211662,33.314159,23.864023,-30.763725,-7.009717,-5.655723,20.481468,-4.885417,6.239840,-5.881750,-22.883795,-4.838316,-26.444777,72.000984,-28.263208,166.553253,142.267685,-26.889635,-23.784445,-13.022429,-20.010553,-27.965723,-0.451458,4.569653,-21.116011,-10.485814,-7.571450,2.667135,0.309706,14.843176,8064.000000,0.000000,4.000000,,,,0.000000,4.000000,4.000000,4.000000,4.000000,4.000000,4.000000,4.000000,4.000000,4.000000,4.000000,4.000000,4.000000,4.000000,4.000000,4.000000,4.000000,4.000000,4.000000,4.000000,4.000000,4.000000,4.000000,4.000000,4.000000,4.000000,4.000000,4.000000,4.000000,4.000000,4.000000,4.000000,4.000000,100.000000
1614474147.273874,62.000000,0.000000,-7.650450,10.611052,9.015964,10.716742,14.096570,-35.348347,-9.566810,-0.521862,18.922525,-14.624121,6.233600,-3.824586,-7.476295,-4.833478,-13.597819,96.544365,-8.747766,199.207214,174.945938,-18.144798,-20.170918,-2.752996,-15.887979,-18.706989,-12.758698,6.103545,-19.043612,-17.654816,-7.563879,-9.130404,-30.459835,-6.197308,8064.000000,0.000000,4.000000,,,,0.000000,4.000000,4.000000,4.000000,4.000000,4.000000,4.000000,4.000000,4.000000,4.000000,4.000000,4.000000,4.000000,4.000000,4.000000,4.000000,4.000000,4.000000,4.000000,4.000000,4.000000,4.000000,4.000000,4.000000,4.000000,4.000000,4.000000,4.000000,4.000000,4.000000,4.000000,4.000000,4.000000,100.000000
1614474147.281723,63.000000,0.000000,-7.129979,-4.271354,2.853101,-3.652949,-10.020091,-23.005306,-10.582884,-7.700828,-7.250243,-12.558214,0.586341,-20.743837,-13.109844,-4.828645,-4.353452,80.037567,2.543034,202.597748,173.745346,-12.998447,-10.407157,-9.929729,-9.718244,-16.636999,-22.489531,-13.389738,-19.024569,-26.867929,-7.043494,-30.659735,-43.762707,-19.011623,8064.000000,0.000000,4.000000,,,,0.000000,4.000000,4.000000,4.000000,4.000000,4.000000,4.000000,4.000000,4.000000,4.000000,4.000000,4.000000,4.000000,4.000000,4.000000,4.000000,4.000000,4.000000,4.000000,4.000000,4.000000,4.000000,4.000000,4.000000,4.000000,4.000000,4.000000,4.000000,4.000000,4.000000,4.000000,4.000000,4.000000,100.000000
1614474147.289472,64.000000,0.000000,-11.738234,-12.472211,2.850248,11.222499,-7.445968,-23.495121,-11.085121,-17.436716,-12.884018,0.274856,-5.055271,-27.902582,-27.968529,-4.310996,-15.118329,53.803680,-14.895407,170.087463,141.263916,-22.216219,-13.473673,-21.714672,-19.964935,-27.902414,-10.672169,-22.094297,-20.544006,-22.225677,-6.523630,-32.167538,-23.718945,1.007388,0.000000,160.000000,4.000000,,,,0.000000,4.000000,4.000000,4.000000,4.000000,4.000000,4.000000,4.000000,4.000000,4.000000,4.000000,4.000000,4.000000,4.000000,4.000000,4.000000,4.000000,4.000000,4.000000,4.000000,4.000000,4.000000,4.000000,4.000000,4.000000,4.000000,4.000000,4.000000,4.000000,4.000000,4.000000,4.000000,4.000000,100.000000
1614474147.297322,65.000000,0.000000,-9.675213,-3.228970,0.283295,18.903584,6.407632,-32.702396,-7.997113,-14.342357,4.564764,-3.315162,-6.075857,-8.900320,-19.735432,-4.306684,-21.769878,60.416542,-17.957434,160.686600,138.045731,-32.963234,-21.665327,-14.000649,-23.534714,-36.079639,-7.071753,-4.123485,-17.959358,-11.434220,-7.029927,-17.776394,-14.464457,6.647407,0.000000,190.000000,4.000000,,,,0.000000,4.000000,4.000000,4.000000,4.000000,4.000000,4.000000,4.000000,4.000000,4.000000,4.000000,4.000000,4.000000,4.000000,4.000000,4.000000,4.000000,4.000000,4.000000,4.000000,4.000000,4.000000,4.000000,4.000000,4.000000,4.000000,4.000000,4.000000,4.000000,4.000000,4.000000,4.000000,4.000000,100.000000
1614474147.305071,66.000000,0.000000,-1.460410,2.928105,-4.845193,6.064167,-3.342366,-32.156872,-12.091680,-8.174169,10.201224,-19.722103,-9.659525,1.364990,-0.228518,-6.353660,-15.594261,64.458694,2.060523,183.602844,164.061523,-31.391808,-24.207766,-2.704598,-7.613744,-35.017918,-31.680065,10.239614,-11.274733,-11.935607,-8.048538,-12.630413,-28.296146,-16.948984,0.000000,186.000000,4.000000,,,,0.000000,4.000000,4.000000,4.000000,4.000000,4.000000,4.000000,4.000000,4.000000,4.000000,4.000000,4.000000,4.000000,4.000000,4.000000,4.000000,4.000000,4.000000,4.000000,4.000000,4.000000,4.000000,4.000000,4.000000,4.000000,4.000000,4.000000,4.000000,4.000000,4.000000,4.000000,4.000000,4.000000,100.000000
1614474147.312920,67.000000,0.000000,-1.458949,-0.151746,-3.301886,-4.711128,-15.646715,-26.996511,-27.977024,-8.165994,4.037177,-19.702381,-14.265250,-6.841503,-0.741109,-4.808845,-10.963283,51.573719,7.186667,183.932053,146.461563,-20.591185,-18.029711,-2.189073,-2.990746,-35.495724,-38.827873,8.690912,-6.648074,-16.026236,-3.937925,-15.181886,-31.857594,-13.342292,0.000000,166.000000,4.000000,,,,0.000000,4.000000,4.000000,4.000000,4.000000,4.000000,4.000000,4.000000,4.000000,4.000000,4.000000,4.000000,4.000000,4.000000,4.000000,4.000000,4.000000,4.000000,4.000000,4.000000,4.000000,4.000000,4.000000,4.000000,4.000000,4.000000,4.000000,4.000000,4.000000,4.000000,4.000000,4.000000,4.000000,100.000000
1614474147.320669,68.000000,0.000000,-8.636977,-2.715697,-0.221661,-3.167955,-8.451582,-26.456694,-26.410585,-8.670649,5.058781,-9.426269,-11.174062,-9.398764,-16.637804,-3.265574,-15.567704,46.906761,-9.230776,161.696838,125.289467,-18.006493,-13.396297,-3.212524,-15.808268,-36.485867,-14.173660,7.143759,-9.205528,-12.420465,-3.421167,-10.038498,-19.518044,5.132589,0.000000,182.000000,4.000000,,,,0.000000,4.000000,4.000000,4.000000,4.000000,4.000000,4.000000,4.000000,4.000000,4.000000,4.000000,4.000000,4.000000,4.000000,4.000000,4.000000,4.000000,4.000000,4.000000,4.000000,4.000000,4.000000,4.000000,4.000000,4.000000,4.000000,4.000000,4.000000,4.000000,4.000000,4.000000,4.000000,4.000000,100.000000
1614474147.328519,69.000000,0.000000,-6.577059,-1.174519,-1.247081,1.450598,-0.238002,-28.481520,-8.948277,-8.149158,9.156286,-9.416842,-8.598784,-6.312442,-18.159628,-10.441796,-23.244444,51.988060,-15.375391,158.971039,150.805206,-25.167973,-20.562387,-2.183671,-18.356562,-29.782715,-3.390256,9.700718,-12.273246,-6.767019,-13.674156,-0.284870,-17.447243,-11.795621,0.000000,192.000000,4.000000,,,,0.000000,4.000000,4.000000,4.000000,4.000000,4.000000,4.000000,4.000000,4.000000,4.000000,4.000000,4.000000,4.000000,4.000000,4.000000,4.000000,4.000000,4.000000,4.000000,4.000000,4.000000,4.000000,4.000000,4.000000,4.000000,4.000000,4.000000,4.000000,4.000000,4.000000,4.000000,4.000000,4.000000,100.000000
1614474147.336268,70.000000,0.000000,2.660288,1.390758,1.831089,0.936326,-3.314687,-26.401756,-11.503432,-8.141008,9.147130,-11.971528,-9.103006,-6.306129,-0.192750,-15.559559,-13.477610,66.807869,-0.488221,184.965912,177.321060,-15.399215,-20.541824,-1.668667,-8.594616,-24.111906,-10.566353,11.229479,-10.209690,-6.760252,-17.763046,-1.310226,-24.609283,-22.040236,0.000000,190.000000,4.000000,,,,0.000000,4.000000,4.000000,4.000000,4.000000,4.000000,4.000000,4.000000,4.000000,4.000000,4.000000,4.000000,4.000000,4.000000,4.000000,4.000000,4.000000,4.000000,4.000000,4.000000,4.000000,4.000000,4.000000,4.000000,4.000000,4.000000,4.000000,4.000000,4.000000,4.000000,4.000000,4.000000,4.000000,100.000000
1614474147.344117,71.000000,0.000000,1.631986,0.363726,6.957463,-0.090251,-7.926757,-18.170225,-21.748339,-7.107226,8.625162,-6.831351,3.213789,-7.838285,6.986929,-1.185025,11.151253,91.869263,11.819960,209.909164,167.400146,10.770031,-2.572565,1.409925,-4.996277,-25.113436,0.213444,7.628506,-5.071276,-8.291953,-3.899129,-9.514044,-16.379545,3.622830,0.000000,174.000000,4.000000,,,,0.000000,4.000000,4.000000,4.000000,4.000000,4.000000,4.000000,4.000000,4.000000,4.000000,4.000000,4.000000,4.000000,4.000000,4.000000,4.000000,4.000000,4.000000,4.000000,4.000000,4.000000,4.000000,4.000000,4.000000,4.000000,4.000000,4.000000,4.000000,4.000000,4.000000,4.000000,4.000000,4.000000,100.000000
1614474147.351867,72.000000,0.000000,-7.087595,-2.713561,3.873583,9.140609,-3.303446,-16.100773,-11.983001,-5.561657,7.078075,-1.696315,23.723396,-8.856088,-5.327750,11.123852,12.165742,98.956879,1.038909,209.699249,162.104538,14.349004,6.147956,0.895694,-7.555384,-15.344732,15.085026,0.441390,-3.527743,-6.745200,5.335539,-5.401966,0.047090,10.798695,0.000000,165.000000,4.000000,,,,0.000000,4.000000,4.000000,4.000000,4.000000,4.000000,4.000000,4.000000,4.000000,4.000000,4.000000,4.000000,4.000000,4.000000,4.000000,4.000000,4.000000,4.000000,4.000000,4.000000,4.000000,4.000000,4.000000,4.000000,4.000000,4.000000,4.000000,4.000000,4.000000,4.000000,4.000000,4.000000,4.000000,100.000000
1614474147.359516,73.000000,0.000000,-8.106148,-3.736488,-0.232855,14.259673,2.340883,-23.264160,-3.765889,-4.530455,8.609459,-1.181798,23.699673,-5.257488,-7.373704,2.907600,-9.897705,90.139977,-6.654438,198.720322,188.096283,-7.203806,-5.140243,-5.259048,-7.035008,1.080869,4.813530,3.517872,-5.062676,-6.738455,-2.362104,3.321385,-5.593983,-12.801847,0.000000,191.000000,4.000000,,,,0.000000,4.000000,4.000000,4.000000,4.000000,4.000000,4.000000,4.000000,4.000000,4.000000,4.000000,4.000000,4.000000,4.000000,4.000000,4.000000,4.000000,4.000000,4.000000,4.000000,4.000000,4.000000,4.000000,4.000000,4.000000,4.000000,4.000000,4.000000,4.000000,4.000000,4.000000,4.000000,4.000000,100.000000
1614474147.367265,74.000000,0.000000,-4.508298,-2.194290,-1.258263,-2.164843,-3.815304,-27.856279,-12.992892,1.115101,8.600849,-2.206257,2.137511,-3.200948,2.890080,-6.326077,-17.580116,89.024193,4.634268,203.649811,201.241531,-14.376090,-12.827411,-5.766609,-4.976691,-3.535597,-16.216925,6.591277,-3.006332,-12.372742,-8.513588,-7.963988,-26.101210,-22.019815,0.000000,194.000000,4.000000,,,,0.000000,4.000000,4.000000,4.000000,4.000000,4.000000,4.000000,4.000000,4.000000,4.000000,4.000000,4.000000,4.000000,4.000000,4.000000,4.000000,4.000000,4.000000,4.000000,4.000000,4.000000,4.000000,4.000000,4.000000,4.000000,4.000000,4.000000,4.000000,4.000000,4.000000,4.000000,4.000000,4.000000,100.000000
1614474147.374915,75.000000,0.000000,-11.170456,-3.217737,-5.359569,-14.470370,-13.042257,-26.289963,-19.133745,4.190909,-1.664162,-3.229692,-10.685140,-14.992620,-7.882041,-4.781289,-16.024075,81.755684,1.552711,206.010254,171.809509,-9.746329,-10.763301,-6.273663,-8.561458,-23.532061,-18.251989,-14.440955,-6.080249,-20.052677,-6.453793,-25.904741,-26.587929,-14.818308,0.000000,188.000000,4.000000,,,,0.000000,4.000000,4.000000,4.000000,4.000000,4.000000,4.000000,4.000000,4.000000,4.000000,4.000000,4.000000,4.000000,4.000000,4.000000,4.000000,4.000000,4.000000,4.000000,4.000000,4.000000,4.000000,4.000000,4.000000,4.000000,4.000000,4.000000,4.000000,4.000000,4.000000,4.000000,4.000000,4.000000,100.000000
1614474147.382664,76.000000,0.000000,-20.902876,-6.291442,-8.431132,-0.096926,-7.901010,-28.314955,-15.012048,-7.095333,-11.406087,-1.688001,-8.623173,-23.695576,-26.335697,-4.263688,-26.777281,56.545723,-22.551405,181.188858,141.381287,-23.582737,-15.367923,-17.549440,-16.245205,-33.252117,-8.490148,-29.811129,-17.356220,-19.519804,-5.934518,-19.724991,-12.202366,-14.290669,0.000000,180.000000,4.000000,,,,0.000000,4.000000,4.000000,4.000000,4.000000,4.000000,4.000000,4.000000,4.000000,4.000000,4.000000,4.000000,4.000000,4.000000,4.000000,4.000000,4.000000,4.000000,4.000000,4.000000,4.000000,4.000000,4.000000,4.000000,4.000000,4.000000,4.000000,4.000000,4.000000,4.000000,4.000000,4.000000,4.000000,100.000000
1614474147.390313,77.000000,0.000000,-18.830690,-5.259510,-7.909881,8.621119,0.312019,-33.927666,-12.945754,-16.319006,-3.189553,-4.250415,-9.640190,-13.928290,-17.591413,-10.926090,-33.929989,41.104561,-27.144239,164.597412,147.906586,-36.379665,-23.044863,-22.147276,-20.331522,-30.654764,-12.584222,-8.242857,-18.364504,-13.859259,-7.467045,-2.269369,-10.138882,-16.840481,0.000000,201.000000,4.000000,,,,0.000000,4.000000,4.000000,4.000000,4.000000,4.000000,4.000000,4.000000,4.000000,4.000000,4.000000,4.000000,4.000000,4.000000,4.000000,4.000000,4.000000,4.000000,4.000000,4.000000,4.000000,4.000000,4.000000,4.000000,4.000000,4.000000,4.000000,4.000000,4.000000,4.000000,4.000000,4.000000,4.000000,100.000000
1614474147.398063,78.000000,0.000000,-10.093911,-0.126045,-10.978894,-8.310578,-3.278036,-36.457840,-19.086655,-8.610380,8.608508,-18.605139,-16.810038,-14.427182,0.374896,-15.530549,-29.280676,45.678841,-10.194017,183.919998,159.553543,-26.086876,-24.047459,-9.817436,-16.208628,-31.136930,-26.417791,4.585899,-9.628191,-18.460783,-7.972399,-5.856843,-22.436436,-16.310820,0.000000,188.000000,4.000000,,,,0.000000,4.000000,4.000000,4.000000,4.000000,4.000000,4.000000,4.000000,4.000000,4.000000,4.000000,4.000000,4.000000,4.000000,4.000000,4.000000,4.000000,4.000000,4.000000,4.000000,4.000000,4.000000,4.000000,4.000000,4.000000,4.000000,4.000000,4.000000,4.000000,4.000000,4.000000,4.000000,4.000000,100.000000
1614474147.405712,79.000000,0.000000,-13.160741,2.438183,-16.608940,-15.994576,-8.402964,-31.805998,-23.170132,-8.088949,6.035798,-27.817303,-18.331688,-34.925575,-4.240863,-8.848351,-29.764215,45.120342,-5.568439,190.402740,136.317062,-22.471046,-19.920847,-6.730695,-15.679598,-35.208359,-21.263168,-16.444328,-11.157024,-26.647451,-5.400323,-23.286884,-31.644768,-14.756047,0.000000,191.000000,4.000000,,,,0.000000,4.000000,4.000000,4.000000,4.000000,4.000000,4.000000,4.000000,4.000000,4.000000,4.000000,4.000000,4.000000,4.000000,4.000000,4.000000,4.000000,4.000000,4.000000,4.000000,4.000000,4.000000,4.000000,4.000000,4.000000,4.000000,4.000000,4.000000,4.000000,4.000000,4.000000,4.000000,4.000000,100.000000
1614474147.413461,80.000000,0.000000,-17.250143,-0.128357,-13.515409,-1.619606,-3.266356,-27.158808,-8.787988,-22.439835,-0.124085,-15.481793,-11.646690,-34.377831,-11.928930,1.929727,-31.272913,42.511120,-11.716717,160.981567,115.155113,-33.730625,-14.259900,-15.441914,-20.792124,-31.070585,-4.831649,-16.940704,-15.761252,-17.390034,-2.318000,-15.058469,-23.920816,-14.228471,0.000000,190.000000,4.000000,,,,0.000000,4.000000,4.000000,4.000000,4.000000,4.000000,4.000000,4.000000,4.000000,4.000000,4.000000,4.000000,4.000000,4.000000,4.000000,4.000000,4.000000,4.000000,4.000000,4.000000,4.000000,4.000000,4.000000,4.000000,4.000000,4.000000,4.000000,4.000000,4.000000,4.000000,4.000000,4.000000,4.000000,100.000000
1614474147.421111,81.000000,0.000000,0.715824,1.923053,-9.912149,6.074321,2.890757,-27.131647,10.195160,-18.314831,5.004245,-2.132979,-8.558121,-5.625503,-1.660591,2.440618,-19.446768,61.955788,-4.525513,157.230850,140.680984,-26.004589,-12.194359,-6.708523,-18.207230,-15.654899,-2.775535,8.717262,-6.514722,5.704278,-3.854144,10.597615,-11.076382,-16.778345,0.000000,180.000000,4.000000,,,,0.000000,4.000000,4.000000,4.000000,4.000000,4.000000,4.000000,4.000000,4.000000,4.000000,4.000000,4.000000,4.000000,4.000000,4.000000,4.000000,4.000000,4.000000,4.000000,4.000000,4.000000,4.000000,4.000000,4.000000,4.000000,4.000000,4.000000,4.000000,4.000000,4.000000,4.000000,4.000000,4.000000,100.000000
1614474147.428860,82.000000,0.000000,17.125364,4.998053,-15.543263,3.504144,2.375046,-26.591696,5.056759,2.729125,12.178727,-7.771871,-9.575203,7.200635,6.546198,3.976639,-4.555527,88.047676,8.299525,189.894135,166.694153,-0.337558,-11.156523,11.759725,-2.291586,-13.075141,-6.362503,10.247006,1.696921,5.185754,-3.850290,6.997274,-12.603767,-14.710285,0.000000,214.000000,4.000000,,,,0.000000,4.000000,4.000000,4.000000,4.000000,4.000000,4.000000,4.000000,4.000000,4.000000,4.000000,4.000000,4.000000,4.000000,4.000000,4.000000,4.000000,4.000000,4.000000,4.000000,4.000000,4.000000,4.000000,4.000000,4.000000,4.000000,4.000000,4.000000,4.000000,4.000000,4.000000,4.000000,4.000000,100.000000
1614474147.436510,83.000000,0.000000,2.749265,1.403311,-6.809771,15.295511,1.347030,-22.462540,-6.743169,8.880242,13.192190,-6.225638,-0.334859,-4.601437,1.411447,18.844458,0.064413,87.446808,9.316867,195.858078,152.168472,9.406369,-4.478700,9.183862,5.915834,-19.728733,1.336167,-8.737599,-3.432981,-16.870714,2.820227,-19.676390,-21.821932,-4.951985,0.000000,223.000000,4.000000,,,,0.000000,4.000000,4.000000,4.000000,4.000000,4.000000,4.000000,4.000000,4.000000,4.000000,4.000000,4.000000,4.000000,4.000000,4.000000,4.000000,4.000000,4.000000,4.000000,4.000000,4.000000,4.000000,4.000000,4.000000,4.000000,4.000000,4.000000,4.000000,4.000000,4.000000,4.000000,4.000000,4.000000,100.000000
1614474147.444259,84.000000,0.000000,-13.663740,-5.777579,13.197039,31.177652,1.858503,-18.337513,1.981523,0.666234,9.076433,13.267767,15.562912,-10.237862,-4.230990,24.466639,-0.961292,74.538849,4.692165,173.610947,153.041946,2.217476,4.756548,-6.722758,-1.269569,-1.760286,5.950216,-11.805785,-8.557753,-14.802561,3.330228,-15.554149,-21.287291,-8.536777,0.000000,183.000000,4.000000,,,,0.000000,4.000000,4.000000,4.000000,4.000000,4.000000,4.000000,4.000000,4.000000,4.000000,4.000000,4.000000,4.000000,4.000000,4.000000,4.000000,4.000000,4.000000,4.000000,4.000000,4.000000,4.000000,4.000000,4.000000,4.000000,4.000000,4.000000,4.000000,4.000000,4.000000,4.000000,4.000000,4.000000,100.000000
1614474147.451908,85.000000,0.000000,-3.393667,-7.310263,6.004354,21.402885,-0.194637,-19.344816,8.133388,-2.411355,4.451972,12.228859,16.572990,-1.509675,-3.713939,8.031916,-3.011613,79.079697,5.713114,179.591171,185.709427,-0.861665,8.341536,-7.741676,-7.934966,21.318398,0.816060,-5.640133,-8.036375,6.237883,-5.903872,5.999866,-21.778824,-23.400034,0.000000,193.000000,4.000000,,,,0.000000,4.000000,4.000000,4.000000,4.000000,4.000000,4.000000,4.000000,4.000000,4.000000,4.000000,4.000000,4.000000,4.000000,4.000000,4.000000,4.000000,4.000000,4.000000,4.000000,4.000000,4.000000,4.000000,4.000000,4.000000,4.000000,4.000000,4.000000,4.000000,4.000000,4.000000,4.000000,4.000000,100.000000
1614474147.459658,86.000000,0.000000,8.404599,-5.764491,-11.950368,2.919943,-3.784186,-21.889574,-5.208079,0.155158,5.473162,-11.885935,4.248724,1.055938,-3.197404,-5.822270,-5.572704,83.616005,8.784325,208.129532,189.626282,1.703300,7.307553,2.522476,-5.875749,4.886823,0.815244,-6.147314,-7.002697,-1.973484,-6.923609,-6.826646,-32.013454,-21.325352,0.000000,216.000000,4.000000,,,,0.000000,4.000000,4.000000,4.000000,4.000000,4.000000,4.000000,4.000000,4.000000,4.000000,4.000000,4.000000,4.000000,4.000000,4.000000,4.000000,4.000000,4.000000,4.000000,4.000000,4.000000,4.000000,4.000000,4.000000,4.000000,4.000000,4.000000,4.000000,4.000000,4.000000,4.000000,4.000000,4.000000,100.000000
1614474147.467307,87.000000,0.000000,4.293630,-6.271547,3.446198,9.583690,-5.831684,-15.713839,-9.818256,0.667824,4.442048,-9.309946,-2.422191,-4.073324,-3.707027,-5.303627,-3.515849,73.275978,9.801181,214.588074,165.846909,2.214417,6.274604,-1.069790,-4.331412,-13.579602,2.352890,-11.269371,-6.482874,-21.971510,1.801263,-29.383923,-35.571186,-11.560437,0.000000,199.000000,4.000000,,,,0.000000,4.000000,4.000000,4.000000,4.000000,4.000000,4.000000,4.000000,4.000000,4.000000,4.000000,4.000000,4.000000,4.000000,4.000000,4.000000,4.000000,4.000000,4.000000,4.000000,4.000000,4.000000,4.000000,4.000000,4.000000,4.000000,4.000000,4.000000,4.000000,4.000000,4.000000,4.000000,4.000000,100.000000
1614474147.475156,88.000000,0.000000,1.212413,-7.290917,19.340187,28.548466,-2.236109,-6.467356,1.473614,-2.922588,-1.716241,11.725005,0.657155,-0.992327,-4.216141,-4.272683,-1.461051,70.638596,8.252918,198.988861,175.937469,-3.428823,8.832432,-14.914874,-9.455286,2.331413,-6.367411,-10.745281,-10.578956,-11.693129,-2.303102,-17.559666,-26.817665,-19.241184,0.000000,181.000000,4.000000,,,,0.000000,4.000000,4.000000,4.000000,4.000000,4.000000,4.000000,4.000000,4.000000,4.000000,4.000000,4.000000,4.000000,4.000000,4.000000,4.000000,4.000000,4.000000,4.000000,4.000000,4.000000,4.000000,4.000000,4.000000,4.000000,4.000000,4.000000,4.000000,4.000000,4.000000,4.000000,4.000000,4.000000,100.000000
1614474147.482906,89.000000,0.000000,3.262483,-4.719523,-3.756076,27.494276,8.022537,-10.563453,5.574704,-0.868383,8.029065,5.559434,3.220600,9.777896,-3.699104,-5.806872,-11.203179,79.285904,5.680562,189.046295,189.607681,-12.143343,4.721035,-13.361498,-10.984292,6.431645,-16.104633,-2.016587,-12.106838,6.267282,-12.557209,2.970714,-23.201103,-27.939892,0.000000,185.000000,4.000000,,,,0.000000,4.000000,4.000000,4.000000,4.000000,4.000000,4.000000,4.000000,4.000000,4.000000,4.000000,4.000000,4.000000,4.000000,4.000000,4.000000,4.000000,4.000000,4.000000,4.000000,4.000000,4.000000,4.000000,4.000000,4.000000,4.000000,4.000000,4.000000,4.000000,4.000000,4.000000,4.000000,4.000000,100.000000
1614474147.490755,90.000000,0.000000,3.772041,1.951863,-14.521550,17.723192,14.681182,-20.809299,0.953745,12.978640,28.021036,-10.856382,-0.885185,8.742477,-3.695405,-5.801065,-19.909925,72.027130,5.162062,186.293137,158.136032,-15.720943,-10.155480,-1.553265,-1.742538,-20.754272,-10.447503,1.575173,-4.915244,0.619990,-4.852344,-1.647641,-29.331749,-23.296568,0.000000,206.000000,4.000000,,,,0.000000,4.000000,4.000000,4.000000,4.000000,4.000000,4.000000,4.000000,4.000000,4.000000,4.000000,4.000000,4.000000,4.000000,4.000000,4.000000,4.000000,4.000000,4.000000,4.000000,4.000000,4.000000,4.000000,4.000000,4.000000,4.000000,4.000000,4.000000,4.000000,4.000000,4.000000,4.000000,4.000000,100.000000
1614474147.498504,91.000000,0.000000,2.742628,1.437091,9.595535,19.756750,4.922911,-16.173105,-0.072850,15.016943,18.249426,-3.666039,-7.038146,-2.035496,-3.178889,-4.769623,-15.274631,55.032028,5.156899,174.824799,125.670197,-15.705222,-19.888914,-5.654275,-0.202334,-35.605312,-1.719107,-9.195633,-8.500072,-9.637040,5.921739,-13.440866,-35.969086,-20.709167,0.000000,218.000000,4.000000,,,,0.000000,4.000000,4.000000,4.000000,4.000000,4.000000,4.000000,4.000000,4.000000,4.000000,4.000000,4.000000,4.000000,4.000000,4.000000,4.000000,4.000000,4.000000,4.000000,4.000000,4.000000,4.000000,4.000000,4.000000,4.000000,4.000000,4.000000,4.000000,4.000000,4.000000,4.000000,4.000000,4.000000,100.000000
1614474147.506353,92.000000,0.000000,2.227065,-8.820757,10.611581,23.839558,-3.799961,-11.028728,1.465684,-1.921151,-4.845747,1.978653,-6.005466,-1.520640,-3.688531,-4.764853,-12.695253,62.156487,5.664563,166.444839,127.595810,-18.253620,-16.792103,-16.417852,-18.150850,-28.390221,-11.460978,-18.930027,-31.055676,-8.088942,-6.391875,-13.427424,-39.010036,-24.791023,0.000000,182.000000,4.000000,,,,0.000000,4.000000,4.000000,4.000000,4.000000,4.000000,4.000000,4.000000,4.000000,4.000000,4.000000,4.000000,4.000000,4.000000,4.000000,4.000000,4.000000,4.000000,4.000000,4.000000,4.000000,4.000000,4.000000,4.000000,4.000000,4.000000,4.000000,4.000000,4.000000,4.000000,4.000000,4.000000,4.000000,100.000000
1614474147.514103,93.000000,0.000000,2.737658,-8.299115,-13.501595,22.277258,11.075634,-22.299749,0.951398,-6.021794,5.415509,-9.818197,1.180026,6.173188,-3.684842,-4.760088,-17.810764,83.632790,4.120437,178.073273,158.750259,-19.773829,-15.236849,-9.734767,-30.953213,-24.772087,-24.782850,-15.834174,-37.691284,-1.927007,-20.231638,-11.362715,-39.483849,-26.817514,0.000000,187.000000,4.000000,,,,0.000000,4.000000,4.000000,4.000000,4.000000,4.000000,4.000000,4.000000,4.000000,4.000000,4.000000,4.000000,4.000000,4.000000,4.000000,4.000000,4.000000,4.000000,4.000000,4.000000,4.000000,4.000000,4.000000,4.000000,4.000000,4.000000,4.000000,4.000000,4.000000,4.000000,4.000000,4.000000,4.000000,100.000000
1614474147.521952,94.000000,0.000000,3.760562,8.119440,-8.872708,21.229340,24.910711,-26.380014,0.950447,9.368843,25.922915,-15.449405,-4.975000,3.602912,-3.168337,-4.755328,-14.203209,74.831207,2.065035,181.997757,169.360748,-16.164310,-16.247253,2.069839,-19.640207,-29.362700,-19.629862,-10.177315,-16.627953,-4.489182,-13.031919,-12.889814,-39.444363,-25.765057,0.000000,191.000000,4.000000,,,,0.000000,4.000000,4.000000,4.000000,4.000000,4.000000,4.000000,4.000000,4.000000,4.000000,4.000000,4.000000,4.000000,4.000000,4.000000,4.000000,4.000000,4.000000,4.000000,4.000000,4.000000,4.000000,4.000000,4.000000,4.000000,4.000000,4.000000,4.000000,4.000000,4.000000,4.000000,4.000000,4.000000,100.000000
1614474147.529701,95.000000,0.000000,-0.858583,14.265166,14.213087,21.208109,14.629391,-13.533121,0.436676,13.462038,16.153400,-4.664724,-18.303358,-3.580178,-5.216451,-5.263393,-5.983878,45.525608,1.037328,158.738846,144.576004,-14.096864,-11.615622,0.529308,-5.774413,-29.846157,-9.353822,-9.141496,-3.790812,-17.305206,-2.249656,-13.389745,-39.404919,-24.713650,0.000000,191.000000,4.000000,,,,0.000000,4.000000,4.000000,4.000000,4.000000,4.000000,4.000000,4.000000,4.000000,4.000000,4.000000,4.000000,4.000000,4.000000,4.000000,4.000000,4.000000,4.000000,4.000000,4.000000,4.000000,4.000000,4.000000,4.000000,4.000000,4.000000,4.000000,4.000000,4.000000,4.000000,4.000000,4.000000,4.000000,100.000000
1614474147.537550,96.000000,0.000000,-5.473109,3.994491,13.173233,22.725363,8.460916,-6.340101,0.949060,4.217807,1.265453,2.519428,-7.515824,-4.089418,-9.826619,-4.232489,-10.593278,54.710850,1.549112,156.528824,143.405777,-17.159691,-7.501441,-6.650709,-9.358382,-18.021441,-9.344468,-10.157995,-18.658817,-14.723798,-2.760226,-12.863534,-38.852695,-25.714577,8064.000000,0.000000,4.000000,,,,0.000000,4.000000,4.000000,4.000000,4.000000,4.000000,4.000000,4.000000,4.000000,4.000000,4.000000,4.000000,4.000000,4.000000,4.000000,4.000000,4.000000,4.000000,4.000000,4.000000,4.000000,4.000000,4.000000,4.000000,4.000000,4.000000,4.000000,4.000000,4.000000,4.000000,4.000000,4.000000,4.000000,100.000000
1614474147.545300,97.000000,0.000000,-0.852252,5.016138,-1.711735,23.215458,21.272968,-11.461967,3.512213,0.111025,5.879572,-0.047195,13.004512,0.017235,-12.893716,-3.715436,-16.736530,87.476654,1.547563,187.141525,176.082886,-16.116890,-6.981120,-6.644058,-11.400306,-9.798290,-9.335123,-10.147838,-28.896568,0.162720,-4.295928,-12.850671,-38.813843,-29.791426,8064.000000,0.000000,4.000000,,,,0.000000,4.000000,4.000000,4.000000,4.000000,4.000000,4.000000,4.000000,4.000000,4.000000,4.000000,4.000000,4.000000,4.000000,4.000000,4.000000,4.000000,4.000000,4.000000,4.000000,4.000000,4.000000,4.000000,4.000000,4.000000,4.000000,4.000000,4.000000,4.000000,4.000000,4.000000,4.000000,4.000000,100.000000
1614474147.553149,98.000000,0.000000,4.789626,17.318813,-2.222844,20.115320,23.302977,-14.014606,5.047163,4.213478,10.489078,-3.636891,-2.393108,0.017218,-8.778257,-7.301464,-13.130051,82.260971,1.546015,191.056946,172.829880,-10.459747,-7.486959,-4.073311,3.482889,-26.198748,-8.812968,-7.573587,-13.483056,-4.965647,-2.753170,-12.837820,-38.775028,-28.223173,8064.000000,0.000000,4.000000,,,,0.000000,4.000000,4.000000,4.000000,4.000000,4.000000,4.000000,4.000000,4.000000,4.000000,4.000000,4.000000,4.000000,4.000000,4.000000,4.000000,4.000000,4.000000,4.000000,4.000000,4.000000,4.000000,4.000000,4.000000,4.000000,4.000000,4.000000,4.000000,4.000000,4.000000,4.000000,4.000000,4.000000,100.000000
1614474147.560898,99.000000,0.000000,-2.394651,10.634829,7.522969,23.684948,9.433519,-10.410849,4.529295,6.260547,5.350383,0.469310,-26.493279,-2.546901,-3.128454,-7.294163,-7.988716,49.871017,2.057290,168.301788,140.349365,-11.987749,-7.992293,-9.710263,8.094790,-37.967422,-12.393898,-9.617295,-6.802907,-20.858118,-2.237597,-12.312161,-37.710613,-21.528284,8064.000000,0.000000,4.000000,,,,0.000000,4.000000,4.000000,4.000000,4.000000,4.000000,4.000000,4.000000,4.000000,4.000000,4.000000,4.000000,4.000000,4.000000,4.000000,4.000000,4.000000,4.000000,4.000000,4.000000,4.000000,4.000000,4.000000,4.000000,4.000000,4.000000,4.000000,4.000000,4.000000,4.000000,4.000000,4.000000,4.000000,100.000000
1614474147.568648,100.000000,1.000000,-2.451365,10.462707,8.490794,25.277758,11.141873,-9.498011,4.984632,6.487772,5.463748,3.147321,-23.869253,-2.318698,-3.640927,-5.583951,-7.816888,51.517899,2.057061,169.251740,139.763962,-11.872457,-7.079724,-9.595224,6.897310,-36.538700,-9.144658,-10.243008,-6.517250,-19.203379,-1.325667,-12.253814,-35.826080,-19.075748,8064.000000,0.000000,4.000000,,,,0.000000,4.000000,4.000000,4.000000,4.000000,4.000000,4.000000,4.000000,4.000000,4.000000,4.000000,4.000000,4.000000,4.000000,4.000000,4.000000,4.000000,4.000000,4.000000,4.000000,4.000000,4.000000,4.000000,4.000000,4.000000,4.000000,4.000000,4.000000,4.000000,4.000000,4.000000,4.000000,4.000000,100.000000
1614474147.576397,101.000000,1.000000,-2.508079,10.290585,9.458619,26.870567,12.850226,-8.585174,5.439969,6.714996,5.577114,5.825331,-21.245226,-2.090495,-4.153399,-3.873738,-7.645061,53.164780,2.056832,170.201706,139.178574,-11.757165,-6.167155,-9.480186,5.699830,-35.109982,-5.895418,-10.868720,-6.231594,-17.548639,-0.413738,-12.195466,-33.941547,-16.623215,8064.000000,0.000000,4.000000,,,,0.000000,4.000000,4.000000,4.000000,4.000000,4.000000,4.000000,4.000000,4.000000,4.000000,4.000000,4.000000,4.000000,4.000000,4.000000,4.000000,4.000000,4.000000,4.000000,4.000000,4.000000,4.000000,4.000000,4.000000,4.000000,4.000000,4.000000,4.000000,4.000000,4.000000,4.000000,4.000000,4.000000,100.000000
1614474147.584146,102.000000,1.000000,-2.564793,10.118464,10.426444,28.463377,14.558580,-7.672336,5.895307,6.942221,5.690480,8.503342,-18.621201,-1.862292,-4.665873,-2.163526,-7.473233,54.811661,2.056604,171.151672,138.593170,-11.641872,-5.254586,-9.365147,4.502349,-33.681263,-2.646178,-11.494431,-5.945938,-15.893900,0.498192,-12.137117,-32.057014,-14.170680,8064.000000,0.000000,4.000000,,,,0.000000,4.000000,4.000000,4.000000,4.000000,4.000000,4.000000,4.000000,4.000000,4.000000,4.000000,4.000000,4.000000,4.000000,4.000000,4.000000,4.000000,4.000000,4.000000,4.000000,4.000000,4.000000,4.000000,4.000000,4.000000,4.000000,4.000000,4.000000,4.000000,4.000000,4.000000,4.000000,4.000000,100.000000
1614474147.591896,103.000000,1.000000,-2.621507,9.946342,11.394269,30.056187,16.266933,-6.759498,6.350644,7.169445,5.803845,11.181353,-15.997173,-1.634089,-5.178345,-0.453314,-7.301404,56.458542,2.056375,172.101624,138.007782,-11.526581,-4.342017,-9.250108,3.304868,-32.252541,0.603063,-12.120144,-5.660282,-14.239161,1.410121,-12.078770,-30.172483,-11.718146,8064.000000,0.000000,4.000000,,,,0.000000,4.000000,4.000000,4.000000,4.000000,4.000000,4.000000,4.000000,4.000000,4.000000,4.000000,4.000000,4.000000,4.000000,4.000000,4.000000,4.000000,4.000000,4.000000,4.000000,4.000000,4.000000,4.000000,4.000000,4.000000,4.000000,4.000000,4.000000,4.000000,4.000000,4.000000,4.000000,4.000000,100.000000
1614474147.599645,104.000000,1.000000,-2.678221,9.774220,12.362094,31.648998,17.975288,-5.846660,6.805981,7.396670,5.917211,13.859363,-13.373147,-1.405885,-5.690818,1.256898,-7.129577,58.105419,2.056147,173.051590,137.422394,-11.411288,-3.429448,-9.135069,2.107388,-30.823822,3.852303,-12.745856,-5.374626,-12.584421,2.322051,-12.020422,-28.287952,-9.265612,8064.000000,0.000000,4.000000,,,,0.000000,4.000000,4.000000,4.000000,4.000000,4.000000,4.000000,4.000000,4.000000,4.000000,4.000000,4.000000,4.000000,4.000000,4.000000,4.000000,4.000000,4.000000,4.000000,4.000000,4.000000,4.000000,4.000000,4.000000,4.000000,4.000000,4.000000,4.000000,4.000000,4.000000,4.000000,4.000000,4.000000,100.000000
1614474147.607394,105.000000,1.000000,-2.734935,9.602098,13.329919,33.241806,19.683641,-4.933823,7.261318,7.623894,6.030577,16.537373,-10.749121,-1.177682,-6.203291,2.967110,-6.957749,59.752300,2.055918,174.001541,136.836990,-11.295997,-2.516879,-9.020029,0.909907,-29.395102,7.101543,-13.371568,-5.088969,-10.929683,3.233981,-11.962073,-26.403419,-6.813077,8064.000000,0.000000,4.000000,,,,0.000000,4.000000,4.000000,4.000000,4.000000,4.000000,4.000000,4.000000,4.000000,4.000000,4.000000,4.000000,4.000000,4.000000,4.000000,4.000000,4.000000,4.000000,4.000000,4.000000,4.000000,4.000000,4.000000,4.000000,4.000000,4.000000,4.000000,4.000000,4.000000,4.000000,4.000000,4.000000,4.000000,100.000000
1614474147.615144,106.000000,1.000000,-2.791649,9.429976,14.297744,34.834618,21.391994,-4.020985,7.716655,7.851119,6.143942,19.215384,-8.125094,-0.949479,-6.715764,4.677322,-6.785921,61.399181,2.055689,174.951508,136.251602,-11.180704,-1.604310,-8.904990,-0.287574,-27.966381,10.350784,-13.997280,-4.803313,-9.274943,4.145910,-11.903726,-24.518888,-4.360542,8064.000000,0.000000,4.000000,,,,0.000000,4.000000,4.000000,4.000000,4.000000,4.000000,4.000000,4.000000,4.000000,4.000000,4.000000,4.000000,4.000000,4.000000,4.000000,4.000000,4.000000,4.000000,4.000000,4.000000,4.000000,4.000000,4.000000,4.000000,4.000000,4.000000,4.000000,4.000000,4.000000,4.000000,4.000000,4.000000,4.000000,100.000000
1614474147.622893,107.000000,1.000000,-2.848362,9.257854,15.265570,36.427425,23.100348,-3.108147,8.171992,8.078343,6.257308,21.893394,-5.501069,-0.721276,-7.228237,6.387535,-6.614093,63.046062,2.055461,175.901474,135.666199,-11.065413,-0.691741,-8.789951,-1.485054,-26.537661,13.600024,-14.622992,-4.517657,-7.620204,5.057840,-11.845377,-22.634356,-1.908008,8064.000000,0.000000,4.000000,,,,0.000000,4.000000,4.000000,4.000000,4.000000,4.000000,4.000000,4.000000,4.000000,4.000000,4.000000,4.000000,4.000000,4.000000,4.000000,4.000000,4.000000,4.000000,4.000000,4.000000,4.000000,4.000000,4.000000,4.000000,4.000000,4.000000,4.000000,4.000000,4.000000,4.000000,4.000000,4.000000,4.000000,100.000000
1614474147.630642,108.000000,0.000000,-2.905077,9.085732,16.233395,38.020237,24.808702,-2.195309,8.627330,8.305569,6.370674,24.571405,-2.877042,-0.493073,-7.740710,8.097747,-6.442266,64.692940,2.055232,176.851425,135.080811,-10.950120,0.220828,-8.674912,-2.682535,-25.108942,16.849264,-15.248704,-4.232001,-5.965465,5.969769,-11.787029,-20.749825,0.544527,8064.000000,0.000000,4.000000,,,,0.000000,4.000000,4.000000,4.000000,4.000000,4.000000,4.000000,4.000000,4.000000,4.000000,4.000000,4.000000,4.000000,4.000000,4.000000,4.000000,4.000000,4.000000,4.000000,4.000000,4.000000,4.000000,4.000000,4.000000,4.000000,4.000000,4.000000,4.000000,4.000000,4.000000,4.000000,4.000000,4.000000,100.000000
1614474147.638291,109.000000,0.000000,-3.414992,10.615108,-7.372582,37.982216,39.142868,-16.552088,14.259727,-5.548891,6.364303,16.854527,6.356604,4.635626,-4.143226,3.474265,-18.230696,91.807739,2.565998,201.289963,167.766235,-6.836606,1.759068,-8.666238,10.140660,-6.622294,14.268312,-16.259096,-5.766231,9.937937,-5.831072,-0.493191,-29.447023,-18.430376,8064.000000,0.000000,4.000000,,,,0.000000,4.000000,4.000000,4.000000,4.000000,4.000000,4.000000,4.000000,4.000000,4.000000,4.000000,4.000000,4.000000,4.000000,4.000000,4.000000,4.000000,4.000000,4.000000,4.000000,4.000000,4.000000,4.000000,4.000000,4.000000,4.000000,4.000000,4.000000,4.000000,4.000000,4.000000,4.000000,4.000000,100.000000
1614474147.646040,110.000000,0.000000,-1.873115,15.732698,-11.467774,26.662184,25.770391,-22.176561,10.142904,-4.004881,3.281016,1.965876,-13.136931,6.682272,7.142969,-9.349723,-13.597080,86.587723,13.845483,208.780975,181.444626,-0.675923,-0.293973,-8.657571,27.566418,-6.615672,-15.489545,-11.627453,1.419023,-1.866873,-11.979088,3.097046,-40.186806,-33.283741,8064.000000,0.000000,4.000000,,,,0.000000,4.000000,4.000000,4.000000,4.000000,4.000000,4.000000,4.000000,4.000000,4.000000,4.000000,4.000000,4.000000,4.000000,4.000000,4.000000,4.000000,4.000000,4.000000,4.000000,4.000000,4.000000,4.000000,4.000000,4.000000,4.000000,4.000000,4.000000,4.000000,4.000000,4.000000,4.000000,4.000000,100.000000
1614474147.653790,111.000000,0.000000,0.692860,20.332350,15.210361,38.430393,27.283083,2.973820,12.184043,15.999125,14.046966,17.861347,-13.636616,6.162769,15.340954,7.582704,10.006261,65.475494,25.113689,199.341431,148.955490,6.504240,0.219142,-3.007888,24.461927,-19.942389,-3.679184,-4.436338,24.494528,-8.531672,10.596994,2.068308,-15.018415,-2.994047,8064.000000,0.000000,4.000000,,,,0.000000,4.000000,4.000000,4.000000,4.000000,4.000000,4.000000,4.000000,4.000000,4.000000,4.000000,4.000000,4.000000,4.000000,4.000000,4.000000,4.000000,4.000000,4.000000,4.000000,4.000000,4.000000,4.000000,4.000000,4.000000,4.000000,4.000000,4.000000,4.000000,4.000000,4.000000,4.000000,4.000000,100.000000
1614474147.661539,112.000000,0.000000,0.179347,20.824839,31.092587,62.494526,53.922466,17.329821,30.120577,23.675432,30.443174,41.433228,13.556508,10.771991,13.787151,29.113583,15.637280,68.999763,19.447550,193.501068,140.088593,9.061838,2.270205,2.123325,15.719517,-20.948088,25.555265,-0.842158,31.649519,9.425577,26.996655,12.322650,5.509424,15.983306,8064.000000,0.000000,4.000000,,,,0.000000,4.000000,4.000000,4.000000,4.000000,4.000000,4.000000,4.000000,4.000000,4.000000,4.000000,4.000000,4.000000,4.000000,4.000000,4.000000,4.000000,4.000000,4.000000,4.000000,4.000000,4.000000,4.000000,4.000000,4.000000,4.000000,4.000000,4.000000,4.000000,4.000000,4.000000,4.000000,4.000000,100.000000
1614474147.669188,113.000000,0.000000,3.768911,23.368116,21.830725,55.765366,54.381363,1.415054,39.834045,14.420988,28.361450,35.237949,18.671158,19.479168,12.747724,17.289598,-1.301434,82.264099,12.761436,195.358841,172.769012,1.873289,-1.834630,0.582740,16.729439,-14.773293,13.222017,1.209966,13.156332,11.980254,17.226067,17.951353,-14.496086,-7.109601,8064.000000,0.000000,4.000000,,,,0.000000,4.000000,4.000000,4.000000,4.000000,4.000000,4.000000,4.000000,4.000000,4.000000,4.000000,4.000000,4.000000,4.000000,4.000000,4.000000,4.000000,4.000000,4.000000,4.000000,4.000000,4.000000,4.000000,4.000000,4.000000,4.000000,4.000000,4.000000,4.000000,4.000000,4.000000,4.000000,4.000000,100.000000
1614474147.676837,114.000000,0.000000,12.483091,25.908850,12.065304,30.068575,29.711597,-3.201745,27.999340,10.304003,17.563858,18.279634,-7.501360,21.510971,16.324718,-1.189230,-6.941158,72.438240,21.466621,190.548096,159.775726,-5.820891,-13.627666,0.069337,18.251171,-29.630316,-12.945051,0.183115,2.886765,-6.493265,7.465251,2.035965,-35.507229,-24.025568,8064.000000,0.000000,4.000000,,,,0.000000,4.000000,4.000000,4.000000,4.000000,4.000000,4.000000,4.000000,4.000000,4.000000,4.000000,4.000000,4.000000,4.000000,4.000000,4.000000,4.000000,4.000000,4.000000,4.000000,4.000000,4.000000,4.000000,4.000000,4.000000,4.000000,4.000000,4.000000,4.000000,4.000000,4.000000,4.000000,4.000000,100.000000
1614474147.684586,115.000000,0.000000,11.444967,17.677813,14.104520,25.935942,19.938297,7.570687,14.638008,12.344981,17.033472,18.774176,-25.442577,14.309973,8.103267,-2.726503,-7.959858,42.109394,19.393873,165.229355,127.308258,-12.481737,-19.255064,-1.469194,7.463689,-61.908379,-12.932106,-11.611939,0.832596,-13.666259,11.047530,-12.837865,-32.394802,-15.283594,8064.000000,0.000000,4.000000,,,,0.000000,4.000000,4.000000,4.000000,4.000000,4.000000,4.000000,4.000000,4.000000,4.000000,4.000000,4.000000,4.000000,4.000000,4.000000,4.000000,4.000000,4.000000,4.000000,4.000000,4.000000,4.000000,4.000000,4.000000,4.000000,4.000000,4.000000,4.000000,4.000000,4.000000,4.000000,4.000000,4.000000,100.000000
1614474147.692335,116.000000,0.000000,-1.386991,8.429366,15.116056,34.627956,24.533743,-3.206114,13.597729,7.204431,15.477978,16.704119,-24.391493,4.552073,-8.315093,0.353147,-23.336514,24.118567,-5.753726,133.782074,107.693771,-25.802589,-18.722988,-13.775417,-14.082236,-73.128517,-10.355071,-18.779816,-8.911826,-9.550029,12.062123,-5.132720,-25.695740,-9.114464,8064.000000,0.000000,4.000000,,,,0.000000,4.000000,4.000000,4.000000,4.000000,4.000000,4.000000,4.000000,4.000000,4.000000,4.000000,4.000000,4.000000,4.000000,4.000000,4.000000,4.000000,4.000000,4.000000,4.000000,4.000000,4.000000,4.000000,4.000000,4.000000,4.000000,4.000000,4.000000,4.000000,4.000000,4.000000,4.000000,4.000000,100.000000
1614474147.699984,117.000000,0.000000,-1.385604,17.651707,6.382992,32.542046,23.483568,-19.613165,14.609772,2.581842,12.898397,1.302799,-23.341461,2.496239,-8.819598,-1.185668,-29.467024,41.530346,-14.465920,139.289307,140.406586,-31.930632,-22.294010,-16.325745,-21.760462,-55.106674,-23.678049,-5.427702,-6.338812,-10.053299,3.844933,5.128823,-29.772608,-17.823298,8064.000000,0.000000,4.000000,,,,0.000000,4.000000,4.000000,4.000000,4.000000,4.000000,4.000000,4.000000,4.000000,4.000000,4.000000,4.000000,4.000000,4.000000,4.000000,4.000000,4.000000,4.000000,4.000000,4.000000,4.000000,4.000000,4.000000,4.000000,4.000000,4.000000,4.000000,4.000000,4.000000,4.000000,4.000000,4.000000,4.000000,100.000000
1614474147.707634,118.000000,0.000000,11.949115,31.480207,-0.290058,25.330015,20.895983,-9.337141,9.466957,6.681824,15.962422,-6.390811,-26.907864,3.006563,2.471272,-5.287046,-19.693966,69.181122,3.497263,171.970535,165.907211,-17.539728,-20.220434,-0.411983,-7.379727,-45.307976,-20.064629,-1.319710,8.026502,-12.094528,0.764165,-3.081434,-37.947964,-23.446501,7936.000000,0.000000,4.000000,,,,0.000000,4.000000,4.000000,4.000000,4.000000,4.000000,4.000000,4.000000,4.000000,4.000000,4.000000,4.000000,4.000000,4.000000,4.000000,4.000000,4.000000,4.000000,4.000000,4.000000,4.000000,4.000000,4.000000,4.000000,4.000000,4.000000,4.000000,4.000000,4.000000,4.000000,4.000000,4.000000,4.000000,100.000000
1614474147.715383,119.000000,0.000000,9.373063,26.833344,7.402540,26.843147,22.413548,3.492709,8.431849,7.700783,13.382357,-2.281856,-25.342493,-2.637469,-4.710686,-5.281759,-18.135811,69.624763,4.519407,180.516510,152.920792,-2.137573,-9.943803,-0.411571,3.909704,-48.852413,10.724668,-21.318390,8.018475,-11.056792,4.353144,-13.334763,-33.807449,-10.602541,8064.000000,0.000000,4.000000,,,,0.000000,4.000000,4.000000,4.000000,4.000000,4.000000,4.000000,4.000000,4.000000,4.000000,4.000000,4.000000,4.000000,4.000000,4.000000,4.000000,4.000000,4.000000,4.000000,4.000000,4.000000,4.000000,4.000000,4.000000,4.000000,4.000000,4.000000,4.000000,4.000000,4.000000,4.000000,4.000000,4.000000,100.000000
1614474147.723132,120.000000,0.000000,-8.585028,12.447536,10.984881,32.970150,23.416775,-4.715912,16.115725,-5.640251,4.651026,0.284528,-17.112022,-9.814319,-23.680334,-0.148272,-24.784342,62.888470,-13.433830,169.053940,159.434540,-6.750820,-6.856936,-24.000902,1.341692,-33.931767,20.970352,-31.553482,-2.758774,-6.943172,-4.369158,-8.706043,-19.414669,-4.950913,8064.000000,0.000000,4.000000,,,,0.000000,4.000000,4.000000,4.000000,4.000000,4.000000,4.000000,4.000000,4.000000,4.000000,4.000000,4.000000,4.000000,4.000000,4.000000,4.000000,4.000000,4.000000,4.000000,4.000000,4.000000,4.000000,4.000000,4.000000,4.000000,4.000000,4.000000,4.000000,4.000000,4.000000,4.000000,4.000000,4.000000,100.000000
1614474147.730781,121.000000,0.000000,-16.268751,10.383806,-6.974822,26.783333,21.342075,-12.916325,14.048327,-17.429482,0.543811,-0.228577,-18.633373,-9.804504,-23.143833,-5.789150,-25.785198,71.543533,-18.548601,180.679764,191.582794,-13.923555,-10.439823,-26.541004,1.853171,-13.385014,-5.717284,-23.316801,-6.345759,-2.320843,-19.236584,-0.492209,-20.933716,-25.458782,8064.000000,0.000000,4.000000,,,,0.000000,4.000000,4.000000,4.000000,4.000000,4.000000,4.000000,4.000000,4.000000,4.000000,4.000000,4.000000,4.000000,4.000000,4.000000,4.000000,4.000000,4.000000,4.000000,4.000000,4.000000,4.000000,4.000000,4.000000,4.000000,4.000000,4.000000,4.000000,4.000000,4.000000,4.000000,4.000000,4.000000,100.000000
1614474147.738530,122.000000,0.000000,-12.149918,14.988807,-21.839642,11.884755,16.192530,-11.364946,-1.350336,-12.796668,3.107370,-1.766810,-31.435251,-8.256239,-9.787356,-17.065413,-24.220951,66.856606,-11.863386,188.704208,175.493774,-8.781427,-10.942204,-4.976002,6.979523,-28.756243,-14.942336,-20.216560,3.404176,-3.344164,-10.499398,-1.517358,-31.682013,-32.099991,8064.000000,0.000000,4.000000,,,,0.000000,4.000000,4.000000,4.000000,4.000000,4.000000,4.000000,4.000000,4.000000,4.000000,4.000000,4.000000,4.000000,4.000000,4.000000,4.000000,4.000000,4.000000,4.000000,4.000000,4.000000,4.000000,4.000000,4.000000,4.000000,4.000000,4.000000,4.000000,4.000000,4.000000,4.000000,4.000000,4.000000,100.000000
1614474147.746179,123.000000,0.000000,-13.163408,12.409716,-9.510110,7.770307,16.176336,-10.327940,-4.938730,-5.604384,4.129903,0.799060,-32.942280,-11.324905,-9.264749,-8.843218,-23.683910,39.610260,-10.313061,165.951401,143.010590,-9.285466,-10.418441,-1.381282,4.408441,-51.804409,9.175170,-23.273268,16.221285,-6.417743,9.511102,-6.644046,-21.393921,-11.555070,8064.000000,0.000000,4.000000,,,,0.000000,4.000000,4.000000,4.000000,4.000000,4.000000,4.000000,4.000000,4.000000,4.000000,4.000000,4.000000,4.000000,4.000000,4.000000,4.000000,4.000000,4.000000,4.000000,4.000000,4.000000,4.000000,4.000000,4.000000,4.000000,4.000000,4.000000,4.000000,4.000000,4.000000,4.000000,4.000000,4.000000,100.000000
1614474147.753828,124.000000,0.000000,-15.201528,8.807562,0.242990,13.403562,19.237083,-11.343253,6.348260,-15.342370,-0.489611,5.413645,-22.140104,-12.852042,-16.434971,0.396394,-25.711508,30.339880,-13.379671,152.452118,156.200912,-22.096693,-13.484945,-16.764517,-3.288276,-40.470554,13.268559,-21.198711,15.179422,-7.436966,4.886206,-2.534837,-11.116117,-8.466592,8064.000000,0.000000,4.000000,,,,0.000000,4.000000,4.000000,4.000000,4.000000,4.000000,4.000000,4.000000,4.000000,4.000000,4.000000,4.000000,4.000000,4.000000,4.000000,4.000000,4.000000,4.000000,4.000000,4.000000,4.000000,4.000000,4.000000,4.000000,4.000000,4.000000,4.000000,4.000000,4.000000,4.000000,4.000000,4.000000,4.000000,100.000000
1614474147.761577,125.000000,0.000000,-8.006839,12.901319,-13.603407,6.210671,19.217846,-13.896013,10.957296,-23.019335,-2.027583,1.305668,-22.117966,-8.736626,-14.367254,-14.475797,-31.839643,50.309540,-10.289369,163.581726,188.865219,-29.254084,-15.009922,-12.132367,-5.336269,-26.583931,-10.847274,-17.587770,1.318089,-6.403888,-13.067398,6.185646,-21.874231,-25.894022,8064.000000,0.000000,4.000000,,,,0.000000,4.000000,4.000000,4.000000,4.000000,4.000000,4.000000,4.000000,4.000000,4.000000,4.000000,4.000000,4.000000,4.000000,4.000000,4.000000,4.000000,4.000000,4.000000,4.000000,4.000000,4.000000,4.000000,4.000000,4.000000,4.000000,4.000000,4.000000,4.000000,4.000000,4.000000,4.000000,4.000000,100.000000
1614474147.769227,126.000000,0.000000,-2.870627,17.503801,-18.205189,-2.513488,18.685808,-15.933399,6.330955,-10.688623,4.128291,-8.952048,-30.300976,-8.215069,-8.199040,-25.230553,-36.936008,59.489998,-2.586771,167.007889,168.676361,-25.122267,-14.482092,3.777201,-1.228369,-40.916321,-16.477451,-17.570181,-1.760152,-5.884664,-13.567152,3.102537,-22.365177,-24.842487,8064.000000,0.000000,4.000000,,,,0.000000,4.000000,4.000000,4.000000,4.000000,4.000000,4.000000,4.000000,4.000000,4.000000,4.000000,4.000000,4.000000,4.000000,4.000000,4.000000,4.000000,4.000000,4.000000,4.000000,4.000000,4.000000,4.000000,4.000000,4.000000,4.000000,4.000000,4.000000,4.000000,4.000000,4.000000,4.000000,4.000000,100.000000
1614474147.776976,127.000000,0.000000,-11.072885,9.281170,-2.289547,6.719794,19.179943,-14.379004,5.298983,-7.601012,-3.055325,-7.917455,-33.347599,-14.873520,-11.267765,-15.974552,-34.847790,40.456150,-0.532903,153.507538,136.199997,-24.071503,-14.980430,-6.995807,0.311321,-52.670277,-3.640461,-18.578253,1.318532,-11.006984,-2.271533,-9.721078,-11.060760,-15.074056,8064.000000,0.000000,4.000000,,,,0.000000,4.000000,4.000000,4.000000,4.000000,4.000000,4.000000,4.000000,4.000000,4.000000,4.000000,4.000000,4.000000,4.000000,4.000000,4.000000,4.000000,4.000000,4.000000,4.000000,4.000000,4.000000,4.000000,4.000000,4.000000,4.000000,4.000000,4.000000,4.000000,4.000000,4.000000,4.000000,4.000000,100.000000
1614474147.784625,0.000000,0.000000,-22.343863,-2.522983,-1.774437,14.405382,18.647942,-15.390266,6.832145,-28.619051,-24.077911,-2.268512,-32.288609,-16.909929,-16.897522,-11.343193,-35.838585,30.159285,-5.660575,143.097626,157.602249,-30.714098,-14.965449,-30.065735,-7.894119,-43.899658,-6.200923,-19.072495,-3.298172,-14.585721,-8.935928,-7.660075,-12.075341,-24.289751,0.000000,178.000000,4.000000,,,,0.000000,4.000000,4.000000,4.000000,4.000000,4.000000,4.000000,4.000000,4.000000,4.000000,4.000000,4.000000,4.000000,4.000000,4.000000,4.000000,4.000000,4.000000,4.000000,4.000000,4.000000,4.000000,4.000000,4.000000,4.000000,4.000000,4.000000,4.000000,4.000000,4.000000,4.000000,4.000000,4.000000,100.000000
1614474147.792374,1.000000,0.000000,-15.142032,3.120566,-21.772663,2.083285,19.654936,-18.451799,6.825313,-31.667356,-22.002550,-5.855988,-26.615294,-5.098147,-14.316523,-11.844670,-37.341206,57.821434,-6.167735,152.698120,186.162598,-31.196203,-13.924843,-26.445925,-16.091352,-37.701912,-16.451134,-15.463678,-3.294873,-7.391648,-23.798788,3.629637,-18.729933,-35.547512,0.000000,209.000000,4.000000,,,,0.000000,4.000000,4.000000,4.000000,4.000000,4.000000,4.000000,4.000000,4.000000,4.000000,4.000000,4.000000,4.000000,4.000000,4.000000,4.000000,4.000000,4.000000,4.000000,4.000000,4.000000,4.000000,4.000000,4.000000,4.000000,4.000000,4.000000,4.000000,4.000000,4.000000,4.000000,4.000000,4.000000,100.000000
1614474147.800023,2.000000,0.000000,-0.255095,18.502060,-19.699608,0.029919,19.122459,-8.689757,6.305667,-4.969022,-0.954907,-0.721926,-17.870729,4.137720,-8.661180,-3.114877,-21.406429,78.789253,0.505100,164.853104,160.335403,-19.370136,-14.936559,-6.419479,-11.459877,-46.894978,-9.255195,-12.371292,8.503293,-2.768871,-10.441655,-3.553480,-17.172741,-20.640169,0.000000,192.000000,4.000000,,,,0.000000,4.000000,4.000000,4.000000,4.000000,4.000000,4.000000,4.000000,4.000000,4.000000,4.000000,4.000000,4.000000,4.000000,4.000000,4.000000,4.000000,4.000000,4.000000,4.000000,4.000000,4.000000,4.000000,4.000000,4.000000,4.000000,4.000000,4.000000,4.000000,4.000000,4.000000,4.000000,4.000000,100.000000
1614474147.807672,3.000000,0.000000,0.770801,22.073301,13.140605,21.055531,18.077696,6.190727,7.837823,8.369281,0.584509,20.304438,-18.878500,1.569480,-7.626878,3.554904,-2.923485,57.172001,4.094338,158.021591,127.867386,-8.068715,-14.408802,0.253607,-5.807391,-49.412186,9.728419,-11.333280,19.264021,-5.330205,12.645710,-8.678132,-5.873517,8.611239,0.000000,170.000000,4.000000,,,,0.000000,4.000000,4.000000,4.000000,4.000000,4.000000,4.000000,4.000000,4.000000,4.000000,4.000000,4.000000,4.000000,4.000000,4.000000,4.000000,4.000000,4.000000,4.000000,4.000000,4.000000,4.000000,4.000000,4.000000,4.000000,4.000000,4.000000,4.000000,4.000000,4.000000,4.000000,4.000000,4.000000,100.000000
1614474147.815421,4.000000,0.000000,-6.409457,16.923023,26.460798,29.752424,23.187824,6.697357,10.394088,-0.357037,-5.569921,26.950798,-16.295519,3.619193,-8.644892,3.551350,-4.459023,51.473804,3.064603,162.478958,160.560028,-4.470902,-8.240547,-3.336390,-5.801584,-23.721748,19.462280,-4.655280,19.244757,6.469997,4.427936,13.894649,12.081075,11.679551,0.000000,211.000000,4.000000,,,,0.000000,4.000000,4.000000,4.000000,4.000000,4.000000,4.000000,4.000000,4.000000,4.000000,4.000000,4.000000,4.000000,4.000000,4.000000,4.000000,4.000000,4.000000,4.000000,4.000000,4.000000,4.000000,4.000000,4.000000,4.000000,4.000000,4.000000,4.000000,4.000000,4.000000,4.000000,4.000000,4.000000,100.000000
1614474147.823170,5.000000,0.000000,-6.403047,16.906101,-1.770792,11.261132,28.805662,-3.565750,10.383694,-4.972065,4.179238,7.949489,-1.407429,13.359163,-6.072145,2.009337,-14.198153,84.242844,3.061538,195.136993,193.219986,-1.389508,-2.591281,-1.281772,5.486269,-1.646745,16.365896,3.554504,15.635768,19.284040,-10.448287,28.239729,18.222839,-5.768026,0.000000,180.000000,4.000000,,,,0.000000,4.000000,4.000000,4.000000,4.000000,4.000000,4.000000,4.000000,4.000000,4.000000,4.000000,4.000000,4.000000,4.000000,4.000000,4.000000,4.000000,4.000000,4.000000,4.000000,4.000000,4.000000,4.000000,4.000000,4.000000,4.000000,4.000000,4.000000,4.000000,4.000000,4.000000,4.000000,4.000000,100.000000
1614474147.830820,6.000000,0.000000,-3.832541,21.504580,-18.179277,-5.673205,26.725574,-8.690390,7.809207,-0.864529,9.816085,-2.827691,-1.918842,11.294522,-4.014791,2.520148,-13.671135,88.261162,3.571297,198.018768,166.872910,1.175984,-3.614331,3.334895,23.429501,-17.029713,14.811069,5.089411,24.338081,5.931422,2.382674,14.878156,14.102053,-0.121232,0.000000,190.000000,4.000000,,,,0.000000,4.000000,4.000000,4.000000,4.000000,4.000000,4.000000,4.000000,4.000000,4.000000,4.000000,4.000000,4.000000,4.000000,4.000000,4.000000,4.000000,4.000000,4.000000,4.000000,4.000000,4.000000,4.000000,4.000000,4.000000,4.000000,4.000000,4.000000,4.000000,4.000000,4.000000,4.000000,4.000000,100.000000
1614474147.838469,7.000000,0.000000,-7.931273,21.995895,3.890184,-2.077789,22.083464,-4.066315,6.262937,-2.914946,0.062679,13.585393,-16.788719,-0.511644,-4.010776,6.620192,-10.580541,55.865211,3.567726,165.513062,134.398346,-0.363654,-4.123537,0.254637,22.893251,-33.422939,21.462923,3.545860,35.082973,-4.330919,16.739265,12.811996,22.293079,22.442991,0.000000,192.000000,4.000000,,,,0.000000,4.000000,4.000000,4.000000,4.000000,4.000000,4.000000,4.000000,4.000000,4.000000,4.000000,4.000000,4.000000,4.000000,4.000000,4.000000,4.000000,4.000000,4.000000,4.000000,4.000000,4.000000,4.000000,4.000000,4.000000,4.000000,4.000000,4.000000,4.000000,4.000000,4.000000,4.000000,4.000000,100.000000
1614474147.846218,8.000000,0.000000,-9.974624,19.409796,15.168345,6.129417,22.061380,-3.036608,8.307956,-7.527416,-3.014307,23.828218,-10.105263,-1.536774,-5.032406,4.049469,-14.672524,57.860626,3.051338,162.270630,160.417801,-2.414572,-1.555311,-2.309720,13.639588,-19.543364,25.031204,3.542314,22.740198,15.160591,9.030219,27.158157,32.014374,23.959011,0.000000,206.000000,4.000000,,,,0.000000,4.000000,4.000000,4.000000,4.000000,4.000000,4.000000,4.000000,4.000000,4.000000,4.000000,4.000000,4.000000,4.000000,4.000000,4.000000,4.000000,4.000000,4.000000,4.000000,4.000000,4.000000,4.000000,4.000000,4.000000,4.000000,4.000000,4.000000,4.000000,4.000000,4.000000,4.000000,4.000000,100.000000
1614474147.853867,9.000000,0.000000,-3.810803,20.416027,-7.410925,-0.543379,24.090601,-15.341263,10.350930,-6.494247,7.245118,3.291569,2.212535,6.669891,-4.001732,-7.236632,-19.273237,86.520714,2.535466,185.185272,188.462509,-2.412158,-6.681961,6.923358,14.651589,-18.498178,18.339506,3.025951,5.794382,21.299276,-1.748042,26.618179,20.700310,11.114538,0.000000,207.000000,4.000000,,,,0.000000,4.000000,4.000000,4.000000,4.000000,4.000000,4.000000,4.000000,4.000000,4.000000,4.000000,4.000000,4.000000,4.000000,4.000000,4.000000,4.000000,4.000000,4.000000,4.000000,4.000000,4.000000,4.000000,4.000000,4.000000,4.000000,4.000000,4.000000,4.000000,4.000000,4.000000,4.000000,4.000000,100.000000
1614474147.861616,10.000000,0.000000,-2.268531,22.959715,-22.275309,-13.876168,22.015228,-23.018230,4.186733,-5.974933,13.391719,-16.198902,-13.174294,4.099119,-1.433628,-13.383242,-15.151399,72.588043,3.045751,174.743683,157.504807,-1.896925,-15.906048,9.993359,20.790785,-38.992500,12.680141,5.587028,15.532177,-2.824587,-1.746294,18.386433,8.884738,10.077783,0.000000,185.000000,4.000000,,,,0.000000,4.000000,4.000000,4.000000,4.000000,4.000000,4.000000,4.000000,4.000000,4.000000,4.000000,4.000000,4.000000,4.000000,4.000000,4.000000,4.000000,4.000000,4.000000,4.000000,4.000000,4.000000,4.000000,4.000000,4.000000,4.000000,4.000000,4.000000,4.000000,4.000000,4.000000,4.000000,4.000000,100.000000
1614474147.869265,11.000000,0.000000,-12.522673,13.193165,-16.612009,-17.964857,16.865007,-14.790083,-3.509761,-17.251009,-0.467827,-10.028857,-25.981632,-10.776775,-2.457836,-9.780114,-13.084966,46.361607,3.555526,158.671509,149.142181,-2.407849,-10.249116,-9.503815,21.795635,-37.927868,13.693102,6.607082,23.721773,-12.052531,-0.206086,18.368046,13.491238,13.144629,0.000000,184.000000,4.000000,,,,0.000000,4.000000,4.000000,4.000000,4.000000,4.000000,4.000000,4.000000,4.000000,4.000000,4.000000,4.000000,4.000000,4.000000,4.000000,4.000000,4.000000,4.000000,4.000000,4.000000,4.000000,4.000000,4.000000,4.000000,4.000000,4.000000,4.000000,4.000000,4.000000,4.000000,4.000000,4.000000,4.000000,100.000000
1614474147.877014,12.000000,0.000000,-19.176817,3.436382,-18.646679,-15.382789,18.899426,-12.211190,-6.070354,-32.105553,-11.236589,-2.839341,-10.058214,-14.355742,-8.096403,-8.231873,-26.918034,62.725502,0.475047,172.871811,181.813553,-2.918261,0.017543,-22.314823,18.184095,-17.889940,16.243511,1.472270,10.877539,7.959521,-1.744342,20.400961,19.631592,9.541740,0.000000,180.000000,4.000000,,,,0.000000,4.000000,4.000000,4.000000,4.000000,4.000000,4.000000,4.000000,4.000000,4.000000,4.000000,4.000000,4.000000,4.000000,4.000000,4.000000,4.000000,4.000000,4.000000,4.000000,4.000000,4.000000,4.000000,4.000000,4.000000,4.000000,4.000000,4.000000,4.000000,4.000000,4.000000,4.000000,4.000000,100.000000
1614474147.884664,13.000000,0.000000,-13.003794,19.843203,-26.320339,-15.880227,26.572832,-18.865646,-2.474540,-34.124729,1.082339,-12.067270,3.285177,-2.546515,-10.139589,-9.762102,-32.532143,88.303802,-0.038249,189.109192,199.580460,-2.915343,-9.726064,-7.420714,14.576167,-14.795127,16.740089,7.624643,14.456405,17.695152,-2.768239,19.354918,18.073500,7.480916,0.000000,203.000000,4.000000,,,,0.000000,4.000000,4.000000,4.000000,4.000000,4.000000,4.000000,4.000000,4.000000,4.000000,4.000000,4.000000,4.000000,4.000000,4.000000,4.000000,4.000000,4.000000,4.000000,4.000000,4.000000,4.000000,4.000000,4.000000,4.000000,4.000000,4.000000,4.000000,4.000000,4.000000,4.000000,4.000000,4.000000,100.000000
1614474147.892413,14.000000,0.000000,-8.888226,37.259254,-21.678635,-18.428450,18.853952,-14.744216,-0.933604,-26.398296,3.645359,-17.183409,-10.564261,-3.056789,-7.565347,-9.239520,-16.089354,77.446266,5.602815,190.458542,191.175751,-2.399607,-19.459929,4.894399,19.176975,-27.600845,16.210527,19.924711,35.980408,6.395405,1.337094,18.822742,14.465682,10.037538,0.000000,181.000000,4.000000,,,,0.000000,4.000000,4.000000,4.000000,4.000000,4.000000,4.000000,4.000000,4.000000,4.000000,4.000000,4.000000,4.000000,4.000000,4.000000,4.000000,4.000000,4.000000,4.000000,4.000000,4.000000,4.000000,4.000000,4.000000,4.000000,4.000000,4.000000,4.000000,4.000000,4.000000,4.000000,4.000000,4.000000,100.000000
1614474147.900062,15.000000,0.000000,-14.520363,21.837381,-14.990290,-19.435661,4.988945,-6.011523,-2.471132,-26.371899,-18.409569,-9.986738,-30.040876,-19.463987,-9.096243,-8.717460,-9.919418,47.112411,7.648495,172.319366,158.676880,-2.910028,-11.235339,-2.802803,19.670620,-36.804012,16.194317,13.750940,35.431610,-1.816119,5.438321,18.291100,24.194807,16.694166,0.000000,181.000000,4.000000,,,,0.000000,4.000000,4.000000,4.000000,4.000000,4.000000,4.000000,4.000000,4.000000,4.000000,4.000000,4.000000,4.000000,4.000000,4.000000,4.000000,4.000000,4.000000,4.000000,4.000000,4.000000,4.000000,4.000000,4.000000,4.000000,4.000000,4.000000,4.000000,4.000000,4.000000,4.000000,4.000000,4.000000,100.000000
1614474147.907811,16.000000,0.000000,-17.069944,5.918108,-19.077864,-19.416225,14.214725,-8.569614,0.095442,-30.448092,-16.852697,-5.361367,-25.908272,-16.367601,-9.599967,-8.708742,-21.704370,41.424274,3.025461,146.506027,126.210510,-2.394298,-5.583079,-5.876923,6.830436,-37.792850,18.742226,5.019240,23.088484,5.878005,4.407241,20.836910,46.221893,24.369780,0.000000,201.000000,4.000000,,,,0.000000,4.000000,4.000000,4.000000,4.000000,4.000000,4.000000,4.000000,4.000000,4.000000,4.000000,4.000000,4.000000,4.000000,4.000000,4.000000,4.000000,4.000000,4.000000,4.000000,4.000000,4.000000,4.000000,4.000000,4.000000,4.000000,4.000000,4.000000,4.000000,4.000000,4.000000,4.000000,4.000000,100.000000
1614474147.915460,17.000000,0.000000,-7.822106,21.296806,-25.212631,-18.371168,27.533844,-12.663609,5.736372,-23.238155,9.318002,-7.920108,-8.446466,2.623126,2.204504,-6.135931,-15.015999,69.075157,8.663462,161.231308,148.135574,3.249122,-7.115957,8.487928,1.695400,-32.114033,17.697842,16.296272,29.219242,12.538794,2.351552,23.892998,48.226955,25.883873,0.000000,182.000000,4.000000,,,,0.000000,4.000000,4.000000,4.000000,4.000000,4.000000,4.000000,4.000000,4.000000,4.000000,4.000000,4.000000,4.000000,4.000000,4.000000,4.000000,4.000000,4.000000,4.000000,4.000000,4.000000,4.000000,4.000000,4.000000,4.000000,4.000000,4.000000,4.000000,4.000000,4.000000,4.000000,4.000000,4.000000,100.000000
1614474147.923209,18.000000,0.000000,1.416485,34.096020,-18.520752,-19.378439,12.634515,-3.932997,7.269097,-9.368764,10.847145,-5.860906,-6.386738,3.133323,16.561274,-2.540051,7.050299,83.365059,25.577875,193.890594,180.807953,10.425361,-0.442174,19.248671,17.591141,-24.902430,14.603222,20.895361,40.472073,6.885230,5.426124,20.792181,30.230009,20.729784,0.000000,216.000000,4.000000,,,,0.000000,4.000000,4.000000,4.000000,4.000000,4.000000,4.000000,4.000000,4.000000,4.000000,4.000000,4.000000,4.000000,4.000000,4.000000,4.000000,4.000000,4.000000,4.000000,4.000000,4.000000,4.000000,4.000000,4.000000,4.000000,4.000000,4.000000,4.000000,4.000000,4.000000,4.000000,4.000000,4.000000,100.000000
1614474147.930858,19.000000,0.000000,1.927889,23.292694,-7.220180,-20.384701,-2.762735,9.404270,5.723366,-3.205549,-7.112420,3.375725,-12.534197,-6.613400,18.083174,-1.511870,7.556069,67.384254,31.193323,192.158234,172.422028,14.004679,11.865960,16.152500,29.368422,-23.339066,26.383490,9.592414,39.918781,9.442447,9.523262,20.771389,37.892086,23.785976,0.000000,194.000000,4.000000,,,,0.000000,4.000000,4.000000,4.000000,4.000000,4.000000,4.000000,4.000000,4.000000,4.000000,4.000000,4.000000,4.000000,4.000000,4.000000,4.000000,4.000000,4.000000,4.000000,4.000000,4.000000,4.000000,4.000000,4.000000,4.000000,4.000000,4.000000,4.000000,4.000000,4.000000,4.000000,4.000000,4.000000,100.000000
1614474147.938608,20.000000,0.000000,0.900320,15.064274,-9.777062,-17.800215,9.547720,4.266660,10.333028,-7.817728,-8.643768,3.372349,-5.342176,-0.452941,10.885604,-0.997538,-9.374564,59.624561,20.905720,166.325058,156.864990,12.452212,11.854095,13.059423,24.723669,-23.315727,41.741722,5.993078,37.827579,28.407364,10.026559,31.519848,57.854195,26.839113,0.000000,163.000000,4.000000,,,,0.000000,4.000000,4.000000,4.000000,4.000000,4.000000,4.000000,4.000000,4.000000,4.000000,4.000000,4.000000,4.000000,4.000000,4.000000,4.000000,4.000000,4.000000,4.000000,4.000000,4.000000,4.000000,4.000000,4.000000,4.000000,4.000000,4.000000,4.000000,4.000000,4.000000,4.000000,4.000000,4.000000,100.000000
1614474147.946257,21.000000,0.000000,1.925061,20.690235,-20.536516,-20.859337,20.820223,-15.224786,12.373977,-18.579142,-2.481279,-16.631023,-8.413756,7.752640,9.336257,-3.560643,-16.031857,59.052116,13.192506,161.543350,172.092743,2.183350,-2.003914,13.559185,26.237406,-23.292412,26.315365,11.115291,39.328217,29.917418,8.990891,39.180637,45.488647,12.966121,0.000000,193.000000,4.000000,,,,0.000000,4.000000,4.000000,4.000000,4.000000,4.000000,4.000000,4.000000,4.000000,4.000000,4.000000,4.000000,4.000000,4.000000,4.000000,4.000000,4.000000,4.000000,4.000000,4.000000,4.000000,4.000000,4.000000,4.000000,4.000000,4.000000,4.000000,4.000000,4.000000,4.000000,4.000000,4.000000,4.000000,100.000000
1614474147.954006,22.000000,0.000000,2.435957,22.720827,-24.105722,-34.171810,9.517352,-17.260843,4.156475,-24.201588,-4.017259,-26.870802,-33.533546,3.129503,11.891024,-10.223749,-12.426081,39.505886,13.692134,161.894623,164.228333,-3.459859,-10.207038,9.955882,30.826553,-29.422966,1.160845,11.616996,39.288887,8.349038,9.494721,36.064533,23.904697,1.671103,0.000000,217.000000,4.000000,,,,0.000000,4.000000,4.000000,4.000000,4.000000,4.000000,4.000000,4.000000,4.000000,4.000000,4.000000,4.000000,4.000000,4.000000,4.000000,4.000000,4.000000,4.000000,4.000000,4.000000,4.000000,4.000000,4.000000,4.000000,4.000000,4.000000,4.000000,4.000000,4.000000,4.000000,4.000000,4.000000,4.000000,100.000000
1614474147.961655,23.000000,0.000000,1.920700,18.082722,-22.030336,-35.163280,2.841168,-0.833326,-3.027169,-22.638924,-5.551703,-4.279830,-34.525654,-2.001832,8.289389,-7.649423,-8.311090,34.850994,14.191262,162.245544,147.653854,7.825652,2.623682,5.843362,21.052137,-31.444824,15.005837,10.066917,38.736778,4.238125,14.613431,32.951546,31.060280,13.977124,0.000000,178.000000,4.000000,,,,0.000000,4.000000,4.000000,4.000000,4.000000,4.000000,4.000000,4.000000,4.000000,4.000000,4.000000,4.000000,4.000000,4.000000,4.000000,4.000000,4.000000,4.000000,4.000000,4.000000,4.000000,4.000000,4.000000,4.000000,4.000000,4.000000,4.000000,4.000000,4.000000,4.000000,4.000000,4.000000,4.000000,100.000000
1614474147.969404,24.000000,0.000000,0.893138,17.038998,-22.008305,-17.692219,14.633199,3.782892,-0.972860,-21.077824,-4.520511,14.698810,-4.234720,-1.999830,0.588792,3.640278,-6.764318,64.559731,13.151430,173.878174,162.890808,10.894750,13.903110,5.324698,12.825957,-21.669790,38.580574,9.544029,38.698040,19.618502,18.701382,33.944233,40.772808,24.219557,0.000000,184.000000,4.000000,,,,0.000000,4.000000,4.000000,4.000000,4.000000,4.000000,4.000000,4.000000,4.000000,4.000000,4.000000,4.000000,4.000000,4.000000,4.000000,4.000000,4.000000,4.000000,4.000000,4.000000,4.000000,4.000000,4.000000,4.000000,4.000000,4.000000,4.000000,4.000000,4.000000,4.000000,4.000000,4.000000,4.000000,100.000000
1614474147.977053,25.000000,0.000000,1.405066,20.611702,-25.576040,-12.033502,20.772411,-5.451660,4.669138,-21.569567,-4.003170,2.889239,-1.666382,-1.485009,-1.975900,2.610997,-7.270374,80.392609,12.112638,173.704300,164.266388,-3.987940,-2.008230,5.319374,19.992619,-20.109659,19.054815,11.072948,38.659344,19.086063,12.528834,33.910290,32.526909,13.426107,0.000000,190.000000,4.000000,,,,0.000000,4.000000,4.000000,4.000000,4.000000,4.000000,4.000000,4.000000,4.000000,4.000000,4.000000,4.000000,4.000000,4.000000,4.000000,4.000000,4.000000,4.000000,4.000000,4.000000,4.000000,4.000000,4.000000,4.000000,4.000000,4.000000,4.000000,4.000000,4.000000,4.000000,4.000000,4.000000,4.000000,100.000000
1614474147.984702,26.000000,0.000000,5.506225,21.103910,-26.576105,-23.816339,8.956767,-4.420567,5.690110,-18.983894,-5.024807,-7.882881,-25.254459,-0.970704,2.641461,-7.648025,-4.699001,71.081451,14.664627,170.453674,152.307251,-0.907029,-10.724171,5.826875,25.613651,-28.807497,-7.630906,12.087515,39.133503,6.246465,8.413742,33.363560,25.827715,12.899860,0.000000,191.000000,4.000000,,,,0.000000,4.000000,4.000000,4.000000,4.000000,4.000000,4.000000,4.000000,4.000000,4.000000,4.000000,4.000000,4.000000,4.000000,4.000000,4.000000,4.000000,4.000000,4.000000,4.000000,4.000000,4.000000,4.000000,4.000000,4.000000,4.000000,4.000000,4.000000,4.000000,4.000000,4.000000,4.000000,4.000000,100.000000
1614474147.992451,27.000000,0.000000,3.449437,12.364859,-25.523888,-26.356627,0.742682,4.301802,4.658779,-16.913628,-8.096705,0.842950,-17.536898,-4.046656,4.177281,-6.101915,-3.155841,69.984726,16.701244,191.308853,169.590836,21.657980,13.389118,8.897971,20.972652,-20.060741,10.838264,3.357479,37.043087,5.727398,15.584815,33.330196,28.365990,28.784397,0.000000,179.000000,4.000000,,,,0.000000,4.000000,4.000000,4.000000,4.000000,4.000000,4.000000,4.000000,4.000000,4.000000,4.000000,4.000000,4.000000,4.000000,4.000000,4.000000,4.000000,4.000000,4.000000,4.000000,4.000000,4.000000,4.000000,4.000000,4.000000,4.000000,4.000000,4.000000,4.000000,4.000000,4.000000,4.000000,4.000000,100.000000
1614474148.000101,28.000000,0.000000,-7.323244,3.634545,-31.652210,-20.176424,7.921427,4.297500,8.243864,-17.922356,-8.601430,4.944672,4.531921,-9.170815,-1.980743,3.647777,-8.793711,75.555763,14.633262,195.732925,178.139191,20.097860,24.144960,8.889072,18.900398,-5.168886,35.442810,-4.338186,32.903481,8.798594,16.082050,33.296864,29.876085,22.088945,0.000000,174.000000,4.000000,,,,0.000000,4.000000,4.000000,4.000000,4.000000,4.000000,4.000000,4.000000,4.000000,4.000000,4.000000,4.000000,4.000000,4.000000,4.000000,4.000000,4.000000,4.000000,4.000000,4.000000,4.000000,4.000000,4.000000,4.000000,4.000000,4.000000,4.000000,4.000000,4.000000,4.000000,4.000000,4.000000,4.000000,100.000000
1614474148.007850,29.000000,0.000000,-8.854382,8.759115,-38.800045,-20.669067,12.528890,-0.835002,8.748441,-17.904434,-8.080008,-0.701299,-3.164918,-6.084721,-0.953121,2.105667,-10.323379,70.352005,12.567347,166.819244,154.371307,-0.947878,-1.007390,6.828902,20.932779,-16.958588,21.048391,5.922562,30.819296,3.148769,5.296738,33.776390,27.794928,0.015575,0.000000,194.000000,4.000000,,,,0.000000,4.000000,4.000000,4.000000,4.000000,4.000000,4.000000,4.000000,4.000000,4.000000,4.000000,4.000000,4.000000,4.000000,4.000000,4.000000,4.000000,4.000000,4.000000,4.000000,4.000000,4.000000,4.000000,4.000000,4.000000,4.000000,4.000000,4.000000,4.000000,4.000000,4.000000,4.000000,4.000000,100.000000
1614474148.015499,30.000000,0.000000,2.436524,16.442665,-34.658680,-27.315065,-0.816972,-0.834167,0.021743,-14.296785,-9.610389,-1.726238,-18.546368,2.126492,6.740140,-1.999002,-1.595106,65.153450,17.170164,164.601151,142.422073,2.129993,-14.339716,7.334893,19.373386,-38.480091,5.642728,11.557665,31.814117,0.068697,6.829903,31.691330,28.279953,3.605303,0.000000,196.000000,4.000000,,,,0.000000,4.000000,4.000000,4.000000,4.000000,4.000000,4.000000,4.000000,4.000000,4.000000,4.000000,4.000000,4.000000,4.000000,4.000000,4.000000,4.000000,4.000000,4.000000,4.000000,4.000000,4.000000,4.000000,4.000000,4.000000,4.000000,4.000000,4.000000,4.000000,4.000000,4.000000,4.000000,4.000000,100.000000
1614474148.023248,31.000000,0.000000,3.972549,12.323657,-32.059921,-29.851852,-7.482822,0.705128,2.585824,-11.718386,-11.139240,-0.698871,-10.322694,2.124366,1.092374,3.131202,-1.593511,65.601112,21.768377,182.385269,146.382202,20.076582,0.546418,10.404482,14.738627,-37.928791,25.637085,-3.325687,29.218201,4.684013,18.617945,26.531435,32.354237,18.986313,0.000000,174.000000,4.000000,,,,0.000000,4.000000,4.000000,4.000000,4.000000,4.000000,4.000000,4.000000,4.000000,4.000000,4.000000,4.000000,4.000000,4.000000,4.000000,4.000000,4.000000,4.000000,4.000000,4.000000,4.000000,4.000000,4.000000,4.000000,4.000000,4.000000,4.000000,4.000000,4.000000,4.000000,4.000000,4.000000,4.000000,100.000000
1614474148.030897,32.000000,0.000000,-5.775013,9.747231,-35.104782,-21.616873,12.011841,-0.834038,18.480675,-15.809232,-11.128101,-0.185352,0.969680,0.583780,-10.190769,6.204994,-10.822687,64.509872,19.182507,168.356720,149.312744,14.415479,5.161256,9.881256,11.646966,-26.608810,37.406319,-9.476208,22.009495,8.269073,13.471122,25.479261,31.809063,10.762198,8064.000000,0.000000,4.000000,,,,0.000000,4.000000,4.000000,4.000000,4.000000,4.000000,4.000000,4.000000,4.000000,4.000000,4.000000,4.000000,4.000000,4.000000,4.000000,4.000000,4.000000,4.000000,4.000000,4.000000,4.000000,4.000000,4.000000,4.000000,4.000000,4.000000,4.000000,4.000000,4.000000,4.000000,4.000000,4.000000,4.000000,100.000000
1614474148.038646,33.000000,0.000000,-7.307700,19.993895,-24.300447,-7.236281,33.538292,-3.910127,21.026297,-12.716499,-9.065691,-0.697987,-4.159495,7.762683,3.152755,0.557763,-8.247762,64.958183,16.599222,152.803757,155.830109,-0.983552,-5.100315,8.332913,12.148139,-25.556561,10.702248,6.943525,19.423384,6.722342,-1.926965,27.505064,19.982382,-3.094718,8064.000000,0.000000,4.000000,,,,0.000000,4.000000,4.000000,4.000000,4.000000,4.000000,4.000000,4.000000,4.000000,4.000000,4.000000,4.000000,4.000000,4.000000,4.000000,4.000000,4.000000,4.000000,4.000000,4.000000,4.000000,4.000000,4.000000,4.000000,4.000000,4.000000,4.000000,4.000000,4.000000,4.000000,4.000000,4.000000,4.000000,100.000000
1614474148.046295,34.000000,0.000000,-0.120905,24.076464,-4.276147,-0.562378,32.991932,-2.880576,10.236039,5.244935,-1.877138,-2.235751,-11.334823,10.319023,22.123960,-2.519718,0.991256,66.431686,18.121084,173.676590,154.135818,4.145637,-5.095215,10.375863,13.161633,-29.120749,-5.205891,10.526325,24.019344,4.151517,0.639065,19.272430,9.193169,3.575044,8064.000000,0.000000,4.000000,,,,0.000000,4.000000,4.000000,4.000000,4.000000,4.000000,4.000000,4.000000,4.000000,4.000000,4.000000,4.000000,4.000000,4.000000,4.000000,4.000000,4.000000,4.000000,4.000000,4.000000,4.000000,4.000000,4.000000,4.000000,4.000000,4.000000,4.000000,4.000000,4.000000,4.000000,4.000000,4.000000,4.000000,100.000000
1614474148.054045,35.000000,0.000000,0.904857,12.770337,1.369154,3.540748,27.830734,1.737689,15.354009,5.752511,2.740124,6.997254,-6.195282,2.616396,12.871068,3.123827,-1.061018,63.801155,16.564501,190.938812,153.981674,15.936363,8.243214,9.852667,10.584368,-23.450602,19.414700,-11.535483,21.944042,2.608904,12.433297,4.894185,9.183975,9.212494,8064.000000,0.000000,4.000000,,,,0.000000,4.000000,4.000000,4.000000,4.000000,4.000000,4.000000,4.000000,4.000000,4.000000,4.000000,4.000000,4.000000,4.000000,4.000000,4.000000,4.000000,4.000000,4.000000,4.000000,4.000000,4.000000,4.000000,4.000000,4.000000,4.000000,4.000000,4.000000,4.000000,4.000000,4.000000,4.000000,4.000000,100.000000
1614474148.061694,36.000000,0.000000,-2.685792,8.655003,-1.709138,14.819259,32.418289,3.787233,30.723270,-15.278883,-0.852360,22.887693,4.067323,5.177883,-2.013598,9.274549,-2.085598,68.352737,11.932552,183.568390,177.930252,13.356324,13.363175,2.150506,10.060964,-8.042536,36.318363,-19.216255,13.204150,4.144757,11.908044,8.479033,10.200432,-4.642872,8064.000000,0.000000,4.000000,,,,0.000000,4.000000,4.000000,4.000000,4.000000,4.000000,4.000000,4.000000,4.000000,4.000000,4.000000,4.000000,4.000000,4.000000,4.000000,4.000000,4.000000,4.000000,4.000000,4.000000,4.000000,4.000000,4.000000,4.000000,4.000000,4.000000,4.000000,4.000000,4.000000,4.000000,4.000000,4.000000,4.000000,100.000000
1614474148.069443,37.000000,0.000000,-3.195926,15.313014,0.856674,23.522388,34.949974,3.270626,30.692547,-13.725142,1.712595,26.454550,6.114538,18.506039,5.680723,10.290916,10.224180,89.822845,16.023184,182.359177,192.111298,10.266045,3.093402,-1.441388,15.691928,-7.008852,20.897429,1.828602,16.780689,9.268817,4.716648,22.829529,7.626129,-11.304896,8064.000000,0.000000,4.000000,,,,0.000000,4.000000,4.000000,4.000000,4.000000,4.000000,4.000000,4.000000,4.000000,4.000000,4.000000,4.000000,4.000000,4.000000,4.000000,4.000000,4.000000,4.000000,4.000000,4.000000,4.000000,4.000000,4.000000,4.000000,4.000000,4.000000,4.000000,4.000000,4.000000,4.000000,4.000000,4.000000,4.000000,100.000000
1614474148.077092,38.000000,0.000000,-0.115807,18.887445,3.932740,20.421944,29.786818,3.267355,19.892624,9.878326,13.505754,21.812710,4.057141,18.487532,10.803247,7.716523,20.470366,99.989433,20.622545,189.869125,168.329453,19.999369,0.526206,3.175438,21.317261,-25.463381,18.825249,6.954978,29.584421,9.772368,6.763214,21.268238,13.772349,5.116665,8192.000000,0.000000,4.000000,,,,0.000000,4.000000,4.000000,4.000000,4.000000,4.000000,4.000000,4.000000,4.000000,4.000000,4.000000,4.000000,4.000000,4.000000,4.000000,4.000000,4.000000,4.000000,4.000000,4.000000,4.000000,4.000000,4.000000,4.000000,4.000000,4.000000,4.000000,4.000000,4.000000,4.000000,4.000000,4.000000,4.000000,100.000000
1614474148.084841,39.000000,0.000000,-3.705435,16.304455,2.903167,20.401522,25.141645,3.776908,15.257346,6.791525,11.440967,22.816538,6.104366,4.110070,-4.079351,10.272909,21.475536,83.479187,10.858334,187.115158,155.853424,30.235779,14.371834,0.095339,20.783123,-26.976379,39.832066,-10.487874,32.631760,7.198494,14.961578,12.016201,25.553448,17.932062,8064.000000,0.000000,4.000000,,,,0.000000,4.000000,4.000000,4.000000,4.000000,4.000000,4.000000,4.000000,4.000000,4.000000,4.000000,4.000000,4.000000,4.000000,4.000000,4.000000,4.000000,4.000000,4.000000,4.000000,4.000000,4.000000,4.000000,4.000000,4.000000,4.000000,4.000000,4.000000,4.000000,4.000000,4.000000,4.000000,4.000000,100.000000
1614474148.092490,40.000000,0.000000,-10.368397,14.749688,2.900263,27.047787,25.116505,2.234670,17.806190,-14.753728,1.685936,26.896286,3.021338,0.516216,-14.844502,11.288277,17.351498,71.088013,-2.485858,178.210083,180.825775,28.154261,18.972847,-8.622705,17.685417,-3.872480,40.817875,-2.785079,31.060667,8.729757,16.997900,21.234953,28.604818,10.221822,8064.000000,0.000000,4.000000,,,,0.000000,4.000000,4.000000,4.000000,4.000000,4.000000,4.000000,4.000000,4.000000,4.000000,4.000000,4.000000,4.000000,4.000000,4.000000,4.000000,4.000000,4.000000,4.000000,4.000000,4.000000,4.000000,4.000000,4.000000,4.000000,4.000000,4.000000,4.000000,4.000000,4.000000,4.000000,4.000000,4.000000,100.000000
1614474148.100239,41.000000,0.000000,-4.204182,20.888784,1.871722,20.866892,26.117029,-0.331668,17.275564,-8.585129,8.350916,26.356569,-8.263734,11.797751,-10.727094,-2.569165,9.641838,75.632309,-1.457732,176.493423,190.901367,23.510723,6.646182,-3.998697,23.821579,-2.842967,21.802696,18.756168,32.055248,13.336411,11.852696,31.982950,23.448008,3.544933,8064.000000,0.000000,4.000000,,,,0.000000,4.000000,4.000000,4.000000,4.000000,4.000000,4.000000,4.000000,4.000000,4.000000,4.000000,4.000000,4.000000,4.000000,4.000000,4.000000,4.000000,4.000000,4.000000,4.000000,4.000000,4.000000,4.000000,4.000000,4.000000,4.000000,4.000000,4.000000,4.000000,4.000000,4.000000,4.000000,4.000000,100.000000
1614474148.107889,42.000000,0.000000,4.005150,23.431999,-1.207073,4.948589,25.578091,-0.844156,10.078801,7.833713,9.881027,22.227648,-15.434958,13.324415,-6.613802,-12.823007,5.016811,67.351555,3.671931,178.881027,158.402771,21.435930,-1.565593,0.107866,28.413141,-32.583714,14.601407,8.993822,26.382166,9.733332,9.789561,15.027889,20.347637,7.131132,8064.000000,0.000000,4.000000,,,,0.000000,4.000000,4.000000,4.000000,4.000000,4.000000,4.000000,4.000000,4.000000,4.000000,4.000000,4.000000,4.000000,4.000000,4.000000,4.000000,4.000000,4.000000,4.000000,4.000000,4.000000,4.000000,4.000000,4.000000,4.000000,4.000000,4.000000,4.000000,4.000000,4.000000,4.000000,4.000000,4.000000,100.000000
1614474148.115638,43.000000,0.000000,-6.255265,10.588054,-1.205866,11.097486,24.526873,-0.330492,9.555902,-2.943352,-9.103213,21.179779,-12.342600,2.541860,-9.684112,-0.502491,4.498974,52.412407,1.616977,178.189331,136.705902,12.696545,-0.025566,-11.174294,14.538574,-40.243439,16.638088,-11.015172,14.560912,2.544111,9.779772,-1.910215,20.327290,9.175282,8064.000000,0.000000,4.000000,,,,0.000000,4.000000,4.000000,4.000000,4.000000,4.000000,4.000000,4.000000,4.000000,4.000000,4.000000,4.000000,4.000000,4.000000,4.000000,4.000000,4.000000,4.000000,4.000000,4.000000,4.000000,4.000000,4.000000,4.000000,4.000000,4.000000,4.000000,4.000000,4.000000,4.000000,4.000000,4.000000,4.000000,100.000000
1614474148.123287,44.000000,0.000000,-13.428496,1.346697,-2.230301,24.932543,25.015165,-0.330161,15.187372,-19.863485,-14.222315,23.209881,-6.176411,6.129062,-8.648787,10.267242,0.904732,61.590763,2.128181,175.447037,166.825607,0.888977,1.000101,-16.291325,-1.373400,-19.690374,13.544526,-3.311849,11.469429,6.644131,5.154607,17.066053,22.358244,7.114826,8064.000000,0.000000,4.000000,,,,0.000000,4.000000,4.000000,4.000000,4.000000,4.000000,4.000000,4.000000,4.000000,4.000000,4.000000,4.000000,4.000000,4.000000,4.000000,4.000000,4.000000,4.000000,4.000000,4.000000,4.000000,4.000000,4.000000,4.000000,4.000000,4.000000,4.000000,4.000000,4.000000,4.000000,4.000000,4.000000,4.000000,100.000000
1614474148.131036,45.000000,0.000000,0.943906,11.601760,-9.920378,11.061457,27.041433,-0.329831,14.146544,-8.048750,5.279087,14.468723,-6.683055,20.481907,-0.947830,2.051847,0.391006,77.939430,8.279899,176.297226,182.556213,-0.650374,-1.052181,-2.941700,9.397204,-19.157864,10.966879,8.999155,14.534883,15.355436,3.098171,34.484886,18.233322,7.107711,8064.000000,0.000000,4.000000,,,,0.000000,4.000000,4.000000,4.000000,4.000000,4.000000,4.000000,4.000000,4.000000,4.000000,4.000000,4.000000,4.000000,4.000000,4.000000,4.000000,4.000000,4.000000,4.000000,4.000000,4.000000,4.000000,4.000000,4.000000,4.000000,4.000000,4.000000,4.000000,4.000000,4.000000,4.000000,4.000000,4.000000,100.000000
1614474148.138685,46.000000,0.000000,5.558347,21.846569,-15.038663,-6.898323,22.911827,-0.842322,6.440089,8.882376,9.376372,0.095280,-15.907141,8.153733,-1.459703,-6.155333,1.929077,64.528152,9.810081,179.710678,150.065964,0.888738,-5.153693,3.727909,20.157038,-43.754089,11.981553,5.913233,16.058809,5.596491,10.274560,17.527323,5.394576,7.613423,8064.000000,0.000000,4.000000,,,,0.000000,4.000000,4.000000,4.000000,4.000000,4.000000,4.000000,4.000000,4.000000,4.000000,4.000000,4.000000,4.000000,4.000000,4.000000,4.000000,4.000000,4.000000,4.000000,4.000000,4.000000,4.000000,4.000000,4.000000,4.000000,4.000000,4.000000,4.000000,4.000000,4.000000,4.000000,4.000000,4.000000,100.000000
1614474148.146434,47.000000,0.000000,-11.370289,18.747799,-10.408239,1.313704,15.196608,-0.328659,3.869547,-2.408558,-9.607364,2.659287,-24.096361,-16.982626,-15.304397,-5.123537,-8.329263,43.437984,4.672065,168.248917,130.941544,-5.778818,-8.225463,-6.532229,7.829188,-51.915462,12.482392,1.804756,16.555571,-6.716798,13.341208,8.279027,5.902002,7.605810,8064.000000,0.000000,4.000000,,,,0.000000,4.000000,4.000000,4.000000,4.000000,4.000000,4.000000,4.000000,4.000000,4.000000,4.000000,4.000000,4.000000,4.000000,4.000000,4.000000,4.000000,4.000000,4.000000,4.000000,4.000000,4.000000,4.000000,4.000000,4.000000,4.000000,4.000000,4.000000,4.000000,4.000000,4.000000,4.000000,4.000000,100.000000
1614474148.154083,48.000000,0.000000,-14.948662,15.139308,-5.782447,11.055980,20.822437,1.210131,8.481062,-17.277945,-12.674679,12.913038,-24.585087,-4.657951,-20.930119,-4.092772,-22.679907,54.676598,2.103291,152.183228,161.579834,-11.414064,-6.678775,-10.628262,1.667513,-37.504574,13.495551,5.392694,15.000553,6.110432,4.097098,26.732286,21.793535,8.111025,8064.000000,0.000000,4.000000,,,,0.000000,4.000000,4.000000,4.000000,4.000000,4.000000,4.000000,4.000000,4.000000,4.000000,4.000000,4.000000,4.000000,4.000000,4.000000,4.000000,4.000000,4.000000,4.000000,4.000000,4.000000,4.000000,4.000000,4.000000,4.000000,4.000000,4.000000,4.000000,4.000000,4.000000,4.000000,4.000000,4.000000,100.000000
1614474148.161832,49.000000,0.000000,-0.061918,17.175451,-12.956152,2.326975,29.006742,-3.406463,8.985401,-4.440153,4.261073,5.207818,-23.534861,21.500553,-11.165598,-5.627141,-19.580305,84.878334,2.614008,171.005402,179.879791,-3.710342,-8.210558,4.254162,14.999179,-31.313223,12.456414,8.464225,17.036835,19.437654,-3.086486,31.320938,23.310204,7.590093,8064.000000,0.000000,4.000000,,,,0.000000,4.000000,4.000000,4.000000,4.000000,4.000000,4.000000,4.000000,4.000000,4.000000,4.000000,4.000000,4.000000,4.000000,4.000000,4.000000,4.000000,4.000000,4.000000,4.000000,4.000000,4.000000,4.000000,4.000000,4.000000,4.000000,4.000000,4.000000,4.000000,4.000000,4.000000,4.000000,4.000000,100.000000
1614474148.169482,50.000000,0.000000,0.963785,18.696737,-16.532940,-3.316377,20.259787,-7.505621,3.848211,6.333518,6.308094,-6.592262,-24.536966,7.120078,-3.462125,-5.621514,-6.740211,86.844734,2.098573,199.039520,172.520432,7.062599,-7.176707,16.044779,22.676487,-35.897293,13.469599,6.404479,27.789028,3.520781,-1.544938,15.905003,13.543303,7.069683,8064.000000,0.000000,4.000000,,,,0.000000,4.000000,4.000000,4.000000,4.000000,4.000000,4.000000,4.000000,4.000000,4.000000,4.000000,4.000000,4.000000,4.000000,4.000000,4.000000,4.000000,4.000000,4.000000,4.000000,4.000000,4.000000,4.000000,4.000000,4.000000,4.000000,4.000000,4.000000,4.000000,4.000000,4.000000,4.000000,4.000000,100.000000
1614474148.177231,51.000000,0.000000,-13.396153,13.549834,-9.336919,1.815144,13.572861,-2.369910,0.767439,-12.134355,-10.108471,-4.534388,-25.025249,-19.040888,-8.586868,-5.103072,-8.271933,61.116867,3.122116,185.507156,182.091492,9.619638,3.599701,4.746683,19.576887,-22.528065,24.738180,1.269869,33.402264,-7.764791,1.533530,15.889097,17.119505,9.113895,8064.000000,0.000000,4.000000,,,,0.000000,4.000000,4.000000,4.000000,4.000000,4.000000,4.000000,4.000000,4.000000,4.000000,4.000000,4.000000,4.000000,4.000000,4.000000,4.000000,4.000000,4.000000,4.000000,4.000000,4.000000,4.000000,4.000000,4.000000,4.000000,4.000000,4.000000,4.000000,4.000000,4.000000,4.000000,4.000000,4.000000,100.000000
1614474148.184880,52.000000,0.000000,-20.049423,7.895259,-10.353223,3.351791,20.225954,-1.341899,2.817954,-26.994015,-13.688107,-2.991392,-23.974583,-13.380821,-18.321871,-5.097969,-23.135456,60.030109,2.093353,166.347290,202.935043,7.558737,6.673024,-10.642679,19.044491,3.648310,32.918571,-0.782683,23.625273,8.140409,0.506355,24.078337,21.204948,5.515038,8064.000000,0.000000,4.000000,,,,0.000000,4.000000,4.000000,4.000000,4.000000,4.000000,4.000000,4.000000,4.000000,4.000000,4.000000,4.000000,4.000000,4.000000,4.000000,4.000000,4.000000,4.000000,4.000000,4.000000,4.000000,4.000000,4.000000,4.000000,4.000000,4.000000,4.000000,4.000000,4.000000,4.000000,4.000000,4.000000,4.000000,100.000000
1614474148.192629,53.000000,0.000000,-10.285785,14.041210,-22.650562,-1.266946,18.667267,-10.571327,1.276675,-14.659328,-1.879546,-8.629426,-23.437788,3.042816,-12.149703,-5.092871,-23.625141,85.098282,1.578439,185.155304,204.270569,9.602460,-4.615700,-1.401267,20.563908,-0.970722,22.629242,-0.269080,18.473444,15.824576,-2.571074,14.823489,9.388872,-4.234067,8064.000000,0.000000,4.000000,,,,0.000000,4.000000,4.000000,4.000000,4.000000,4.000000,4.000000,4.000000,4.000000,4.000000,4.000000,4.000000,4.000000,4.000000,4.000000,4.000000,4.000000,4.000000,4.000000,4.000000,4.000000,4.000000,4.000000,4.000000,4.000000,4.000000,4.000000,4.000000,4.000000,4.000000,4.000000,4.000000,4.000000,100.000000
1614474148.200278,54.000000,0.000000,2.032193,21.719477,-16.986885,-1.265679,7.366549,-4.919730,1.788218,-1.311336,-1.877667,-5.031053,-25.465633,3.039773,9.400908,-5.600598,-3.601516,79.372162,8.756348,193.175278,175.861176,8.054397,-13.841854,9.882186,21.056164,-30.200521,7.221997,-0.268811,28.198559,-1.627145,-2.568503,3.013794,0.661534,-6.281115,8064.000000,0.000000,4.000000,,,,0.000000,4.000000,4.000000,4.000000,4.000000,4.000000,4.000000,4.000000,4.000000,4.000000,4.000000,4.000000,4.000000,4.000000,4.000000,4.000000,4.000000,4.000000,4.000000,4.000000,4.000000,4.000000,4.000000,4.000000,4.000000,4.000000,4.000000,4.000000,4.000000,4.000000,4.000000,4.000000,4.000000,100.000000
1614474148.207927,55.000000,0.000000,-1.559582,15.031091,-0.046822,4.376612,6.333541,10.469806,15.119763,-2.848486,-11.619379,6.256029,-23.901705,-0.040190,17.083815,-5.082177,6.145676,52.113300,12.850155,165.802612,143.377625,-3.748530,-10.751089,-1.409748,17.445364,-33.760063,4.137852,-0.781362,26.119080,-9.830647,-0.514653,8.651806,4.763437,-0.633808,8064.000000,0.000000,4.000000,,,,0.000000,4.000000,4.000000,4.000000,4.000000,4.000000,4.000000,4.000000,4.000000,4.000000,4.000000,4.000000,4.000000,4.000000,4.000000,4.000000,4.000000,4.000000,4.000000,4.000000,4.000000,4.000000,4.000000,4.000000,4.000000,4.000000,4.000000,4.000000,4.000000,4.000000,4.000000,4.000000,4.000000,100.000000
1614474148.215676,56.000000,0.000000,-12.840075,7.323751,-7.226263,7.449159,15.045156,5.843951,24.848234,-4.384099,-7.505195,5.736953,-14.134214,2.523953,2.707757,-4.051454,-9.757906,57.702213,2.580895,153.329117,143.234238,-14.514012,-8.689055,-13.716030,6.658688,-17.316048,7.210638,-0.780581,4.554498,-0.590046,-3.591061,15.822640,8.348417,-2.171636,8064.000000,0.000000,4.000000,,,,0.000000,4.000000,4.000000,4.000000,4.000000,4.000000,4.000000,4.000000,4.000000,4.000000,4.000000,4.000000,4.000000,4.000000,4.000000,4.000000,4.000000,4.000000,4.000000,4.000000,4.000000,4.000000,4.000000,4.000000,4.000000,4.000000,4.000000,4.000000,4.000000,4.000000,4.000000,4.000000,4.000000,100.000000
1614474148.223326,57.000000,0.000000,-9.750311,19.111300,-24.142113,4.364787,19.645494,-8.520867,20.208000,-2.328433,6.861284,-8.114938,-13.607260,3.547070,-5.500079,-7.124326,-22.055840,67.900917,-7.165276,150.611679,146.680756,-19.627703,-22.526520,-10.112571,-0.014637,-31.144886,5.152145,-0.779800,1.473021,-0.589456,-6.151573,15.293998,3.211864,-7.810490,8064.000000,0.000000,4.000000,,,,0.000000,4.000000,4.000000,4.000000,4.000000,4.000000,4.000000,4.000000,4.000000,4.000000,4.000000,4.000000,4.000000,4.000000,4.000000,4.000000,4.000000,4.000000,4.000000,4.000000,4.000000,4.000000,4.000000,4.000000,4.000000,4.000000,4.000000,4.000000,4.000000,4.000000,4.000000,4.000000,4.000000,100.000000
1614474148.231075,58.000000,0.000000,-0.509792,31.912701,-13.348741,-1.280604,17.574568,-4.922603,16.085228,-1.813284,5.828782,-10.670926,-25.901344,2.517882,1.684908,-6.604381,-11.777374,44.756096,-3.568367,137.127731,119.867401,-19.608076,-34.811687,-7.025535,1.011019,-59.831688,2.070070,0.246620,24.548471,-10.845277,3.085348,14.253062,-0.381092,-5.751398,8064.000000,0.000000,4.000000,,,,0.000000,4.000000,4.000000,4.000000,4.000000,4.000000,4.000000,4.000000,4.000000,4.000000,4.000000,4.000000,4.000000,4.000000,4.000000,4.000000,4.000000,4.000000,4.000000,4.000000,4.000000,4.000000,4.000000,4.000000,4.000000,4.000000,4.000000,4.000000,4.000000,4.000000,4.000000,4.000000,4.000000,100.000000
1614474148.238724,59.000000,0.000000,-4.611846,27.265404,9.228711,0.771959,16.531353,5.338730,19.146067,-2.837112,-2.382175,3.185899,-18.183136,2.002543,4.760147,2.632993,-1.509187,45.224159,4.127509,156.477783,126.927025,-3.691032,-15.289695,-9.582612,1.010008,-47.464165,11.811589,-0.779267,29.652128,-5.706227,15.902776,13.725989,4.747494,-0.617441,8064.000000,0.000000,4.000000,,,,0.000000,4.000000,4.000000,4.000000,4.000000,4.000000,4.000000,4.000000,4.000000,4.000000,4.000000,4.000000,4.000000,4.000000,4.000000,4.000000,4.000000,4.000000,4.000000,4.000000,4.000000,4.000000,4.000000,4.000000,4.000000,4.000000,4.000000,4.000000,4.000000,4.000000,4.000000,4.000000,4.000000,100.000000
1614474148.246473,60.000000,0.000000,-4.607234,19.033010,9.732303,5.899392,25.745590,0.718007,21.178202,-3.347095,5.825336,6.259636,6.450432,5.590284,1.165643,5.194462,-7.148703,77.999451,6.174664,189.141830,159.620605,11.184454,8.315338,-5.983286,0.496177,-18.698751,23.081829,-1.804129,13.725039,14.812300,18.450975,17.302006,11.922234,0.921638,8064.000000,0.000000,4.000000,,,,0.000000,4.000000,4.000000,4.000000,4.000000,4.000000,4.000000,4.000000,4.000000,4.000000,4.000000,4.000000,4.000000,4.000000,4.000000,4.000000,4.000000,4.000000,4.000000,4.000000,4.000000,4.000000,4.000000,4.000000,4.000000,4.000000,4.000000,4.000000,4.000000,4.000000,4.000000,4.000000,4.000000,100.000000
1614474148.254122,61.000000,0.000000,6.679424,20.039618,-1.559481,2.816570,33.924973,-8.513481,20.131384,-2.830928,21.204124,-9.644059,0.290136,6.610335,2.190118,-3.528681,-15.346683,76.895805,5.142848,166.388580,153.819962,0.916860,-9.128875,-1.361918,6.136706,-30.474926,8.699773,4.351521,16.788237,16.848770,15.868422,22.412910,9.346210,-0.104925,8064.000000,0.000000,4.000000,,,,0.000000,4.000000,4.000000,4.000000,4.000000,4.000000,4.000000,4.000000,4.000000,4.000000,4.000000,4.000000,4.000000,4.000000,4.000000,4.000000,4.000000,4.000000,4.000000,4.000000,4.000000,4.000000,4.000000,4.000000,4.000000,4.000000,4.000000,4.000000,4.000000,4.000000,4.000000,4.000000,4.000000,100.000000
1614474148.261871,62.000000,0.000000,9.236848,22.070860,-2.070742,-2.827273,25.173100,-5.428044,16.521507,-2.828097,20.157280,-15.788261,-24.325539,-3.652685,2.700749,-9.678998,-12.767233,45.536861,6.163346,134.940140,121.358452,-3.186621,-21.940258,-1.873377,13.822877,-50.957272,-5.667902,7.936913,32.156063,-2.655258,16.878195,17.262291,6.259940,-0.617640,8064.000000,0.000000,4.000000,,,,0.000000,4.000000,4.000000,4.000000,4.000000,4.000000,4.000000,4.000000,4.000000,4.000000,4.000000,4.000000,4.000000,4.000000,4.000000,4.000000,4.000000,4.000000,4.000000,4.000000,4.000000,4.000000,4.000000,4.000000,4.000000,4.000000,4.000000,4.000000,4.000000,4.000000,4.000000,4.000000,4.000000,100.000000
1614474148.269520,63.000000,0.000000,0.509662,16.920586,4.085175,0.765298,14.891516,3.808153,12.402423,-5.902192,9.880713,-5.516063,-21.224291,-11.854161,-6.019901,-8.643679,-11.728825,47.542606,8.208465,160.959045,147.903763,16.816565,4.748348,-3.922785,14.321875,-29.880672,15.876228,0.749489,28.021345,-3.165424,17.886957,10.578362,14.971628,6.562464,8064.000000,0.000000,4.000000,,,,0.000000,4.000000,4.000000,4.000000,4.000000,4.000000,4.000000,4.000000,4.000000,4.000000,4.000000,4.000000,4.000000,4.000000,4.000000,4.000000,4.000000,4.000000,4.000000,4.000000,4.000000,4.000000,4.000000,4.000000,4.000000,4.000000,4.000000,4.000000,4.000000,4.000000,4.000000,4.000000,4.000000,100.000000
1614474148.277269,64.000000,0.000000,-3.080591,15.365203,2.542629,6.918379,21.030470,2.778704,11.877199,-6.921930,10.383653,0.643299,-5.818450,-6.714102,-10.629266,-8.122214,-21.460686,66.469421,5.636154,178.233978,180.576370,16.799749,10.384625,-5.970145,9.692168,-6.773869,34.834709,-2.328183,17.736912,13.760818,15.817788,18.260092,22.648964,14.761030,0.000000,205.000000,4.000000,,,,0.000000,4.000000,4.000000,4.000000,4.000000,4.000000,4.000000,4.000000,4.000000,4.000000,4.000000,4.000000,4.000000,4.000000,4.000000,4.000000,4.000000,4.000000,4.000000,4.000000,4.000000,4.000000,4.000000,4.000000,4.000000,4.000000,4.000000,4.000000,4.000000,4.000000,4.000000,4.000000,4.000000,100.000000
1614474148.284919,65.000000,0.000000,-1.539049,24.580606,1.001624,5.372999,26.137646,-3.377921,16.993528,-2.812444,13.963013,-0.382985,-9.915196,2.523382,1.689056,-9.652554,-19.900764,65.377312,5.630517,157.542923,159.370148,-4.242692,-16.805246,-4.938533,10.708117,-21.638889,17.363979,7.417735,22.847382,10.670135,10.673765,26.959782,14.934008,12.182166,0.000000,194.000000,4.000000,,,,0.000000,4.000000,4.000000,4.000000,4.000000,4.000000,4.000000,4.000000,4.000000,4.000000,4.000000,4.000000,4.000000,4.000000,4.000000,4.000000,4.000000,4.000000,4.000000,4.000000,4.000000,4.000000,4.000000,4.000000,4.000000,4.000000,4.000000,4.000000,4.000000,4.000000,4.000000,4.000000,4.000000,100.000000
1614474148.292668,66.000000,0.000000,-1.537510,25.581667,10.231392,4.854805,18.932020,5.343406,20.053457,1.292932,7.795203,1.668680,-19.648870,3.033679,13.995059,-8.617260,-1.932145,53.004242,16.394117,156.872574,138.697952,-2.699988,-16.275620,-0.318210,14.799973,-39.053150,2.474820,12.538522,29.491199,-6.776433,8.098989,24.368719,7.739587,10.631523,0.000000,173.000000,4.000000,,,,0.000000,4.000000,4.000000,4.000000,4.000000,4.000000,4.000000,4.000000,4.000000,4.000000,4.000000,4.000000,4.000000,4.000000,4.000000,4.000000,4.000000,4.000000,4.000000,4.000000,4.000000,4.000000,4.000000,4.000000,4.000000,4.000000,4.000000,4.000000,4.000000,4.000000,4.000000,4.000000,4.000000,100.000000
1614474148.300317,67.000000,0.000000,-2.561614,10.171470,20.990391,11.003797,15.323344,19.184216,20.033403,1.291639,0.607921,4.231114,-18.603580,-3.123201,4.750295,-6.044540,-3.468674,42.694828,14.839262,160.305435,131.379776,-1.158826,-1.387550,-6.471738,4.015943,-36.962814,8.626191,7.910599,21.256580,-9.846580,10.142172,21.267427,14.911334,19.851660,0.000000,186.000000,4.000000,,,,0.000000,4.000000,4.000000,4.000000,4.000000,4.000000,4.000000,4.000000,4.000000,4.000000,4.000000,4.000000,4.000000,4.000000,4.000000,4.000000,4.000000,4.000000,4.000000,4.000000,4.000000,4.000000,4.000000,4.000000,4.000000,4.000000,4.000000,4.000000,4.000000,4.000000,4.000000,4.000000,4.000000,100.000000
1614474148.308066,68.000000,0.000000,-5.635975,4.007452,16.354017,14.069716,20.436226,10.959904,20.013371,-0.248114,2.145774,1.149960,-13.969593,-8.248283,-10.639071,-4.500034,-25.516487,43.164955,-8.765321,140.145126,116.376602,-27.824335,-16.770777,-20.824242,-18.039356,-37.438671,7.079103,5.338586,6.363529,-5.221348,7.567927,21.246159,7.716936,13.677962,0.000000,201.000000,4.000000,,,,0.000000,4.000000,4.000000,4.000000,4.000000,4.000000,4.000000,4.000000,4.000000,4.000000,4.000000,4.000000,4.000000,4.000000,4.000000,4.000000,4.000000,4.000000,4.000000,4.000000,4.000000,4.000000,4.000000,4.000000,4.000000,4.000000,4.000000,4.000000,4.000000,4.000000,4.000000,4.000000,4.000000,100.000000
1614474148.315715,69.000000,0.000000,-6.143159,15.285496,3.004329,7.901801,20.415791,-4.435671,20.506178,1.290596,6.759013,-0.902472,-18.571009,-9.265676,-6.525867,-5.008355,-28.567894,45.685894,-13.884760,136.928070,115.234581,-39.591381,-34.702724,-17.726494,-20.585419,-48.170464,-3.184386,7.384529,6.357166,-9.318691,5.509078,17.122349,-13.316422,-2.745972,0.000000,179.000000,4.000000,,,,0.000000,4.000000,4.000000,4.000000,4.000000,4.000000,4.000000,4.000000,4.000000,4.000000,4.000000,4.000000,4.000000,4.000000,4.000000,4.000000,4.000000,4.000000,4.000000,4.000000,4.000000,4.000000,4.000000,4.000000,4.000000,4.000000,4.000000,4.000000,4.000000,4.000000,4.000000,4.000000,4.000000,100.000000
1614474148.323464,70.000000,0.000000,-1.008811,19.885595,4.026966,4.816976,13.215887,2.748251,19.460030,6.417510,4.188152,0.636892,-29.321667,-7.205128,6.301171,-5.516167,-13.667532,30.255590,8.180407,152.688568,121.786018,-13.910765,-26.462894,-3.349793,-4.154577,-51.712036,-2.155560,7.889965,19.171322,-7.258090,13.195876,14.541124,-6.636439,10.077287,0.000000,189.000000,4.000000,,,,0.000000,4.000000,4.000000,4.000000,4.000000,4.000000,4.000000,4.000000,4.000000,4.000000,4.000000,4.000000,4.000000,4.000000,4.000000,4.000000,4.000000,4.000000,4.000000,4.000000,4.000000,4.000000,4.000000,4.000000,4.000000,4.000000,4.000000,4.000000,4.000000,4.000000,4.000000,4.000000,4.000000,100.000000
1614474148.331113,71.000000,0.000000,2.581941,12.173402,15.817810,15.581389,14.228312,14.027555,19.953390,7.949554,2.132682,2.687537,-19.548756,-4.633820,4.243588,-4.997830,-11.602582,33.302258,12.274790,160.741013,128.330902,7.128787,-9.513354,-1.807981,-1.586320,-38.839813,7.590185,6.343614,19.664970,9.672245,18.310884,17.090685,19.524044,31.092852,0.000000,194.000000,4.000000,,,,0.000000,4.000000,4.000000,4.000000,4.000000,4.000000,4.000000,4.000000,4.000000,4.000000,4.000000,4.000000,4.000000,4.000000,4.000000,4.000000,4.000000,4.000000,4.000000,4.000000,4.000000,4.000000,4.000000,4.000000,4.000000,4.000000,4.000000,4.000000,4.000000,4.000000,4.000000,4.000000,4.000000,100.000000
1614474148.338862,72.000000,0.000000,1.040898,12.161228,15.801992,25.309397,28.573059,7.346860,23.523180,4.351861,9.310036,3.197670,6.624639,0.499019,-2.427322,-2.941550,-15.180723,66.089470,-4.660562,164.170013,151.792313,4.557556,-2.837174,-6.421558,-4.661656,-20.339434,20.915928,5.311629,9.901716,20.944624,8.036164,21.688980,23.607084,18.754066,0.000000,194.000000,4.000000,,,,0.000000,4.000000,4.000000,4.000000,4.000000,4.000000,4.000000,4.000000,4.000000,4.000000,4.000000,4.000000,4.000000,4.000000,4.000000,4.000000,4.000000,4.000000,4.000000,4.000000,4.000000,4.000000,4.000000,4.000000,4.000000,4.000000,4.000000,4.000000,4.000000,4.000000,4.000000,4.000000,4.000000,100.000000
1614474148.346512,73.000000,0.000000,1.552677,23.431118,9.632344,21.181524,34.698330,1.698488,22.474016,3.834689,15.967393,3.194472,5.079553,6.139545,4.241772,-0.887327,-11.575799,71.664406,-3.630260,154.775070,156.768723,3.527357,-5.398439,-4.876675,13.291723,-23.908836,30.638601,14.537086,20.148224,14.257012,0.335820,25.257034,16.403990,7.453260,0.000000,182.000000,4.000000,,,,0.000000,4.000000,4.000000,4.000000,4.000000,4.000000,4.000000,4.000000,4.000000,4.000000,4.000000,4.000000,4.000000,4.000000,4.000000,4.000000,4.000000,4.000000,4.000000,4.000000,4.000000,4.000000,4.000000,4.000000,4.000000,4.000000,4.000000,4.000000,4.000000,4.000000,4.000000,4.000000,4.000000,100.000000
1614474148.354261,74.000000,0.000000,3.089586,25.458969,10.135532,12.442394,21.843121,8.876276,15.272056,5.882136,8.771938,3.704098,-15.438348,1.518021,7.827273,-1.399260,-9.512940,39.797871,9.706703,145.389526,137.124771,14.293060,-0.264836,-3.333337,30.201508,-33.628517,31.633604,19.650755,36.538334,7.063268,11.617536,24.718956,22.028610,20.779140,0.000000,166.000000,4.000000,,,,0.000000,4.000000,4.000000,4.000000,4.000000,4.000000,4.000000,4.000000,4.000000,4.000000,4.000000,4.000000,4.000000,4.000000,4.000000,4.000000,4.000000,4.000000,4.000000,4.000000,4.000000,4.000000,4.000000,4.000000,4.000000,4.000000,4.000000,4.000000,4.000000,4.000000,4.000000,4.000000,4.000000,100.000000
1614474148.361910,75.000000,0.000000,-4.092990,16.202742,7.561295,11.917131,15.154611,11.431502,17.820887,-0.790413,-0.980424,3.187574,-7.730601,-10.278369,-6.026708,-1.397861,-12.067531,45.399097,10.209818,165.244141,149.808167,19.919794,14.607224,-3.842824,17.350794,-16.158993,32.114792,5.272130,27.271025,10.645948,21.862328,21.617315,25.596327,27.425028,0.000000,186.000000,4.000000,,,,0.000000,4.000000,4.000000,4.000000,4.000000,4.000000,4.000000,4.000000,4.000000,4.000000,4.000000,4.000000,4.000000,4.000000,4.000000,4.000000,4.000000,4.000000,4.000000,4.000000,4.000000,4.000000,4.000000,4.000000,4.000000,4.000000,4.000000,4.000000,4.000000,4.000000,4.000000,4.000000,4.000000,100.000000
1614474148.369659,76.000000,0.000000,-9.729923,22.340385,-2.189857,15.494958,27.959969,5.779046,26.521013,-10.020391,-2.005084,3.697207,8.687386,-8.216808,-14.225809,-0.883642,-14.619565,68.943443,4.558582,176.360947,171.196808,9.130643,6.387488,-5.890263,4.512930,-4.347961,33.621140,-0.374168,15.448882,12.173764,16.712261,22.108517,19.929705,20.730936,0.000000,197.000000,4.000000,,,,0.000000,4.000000,4.000000,4.000000,4.000000,4.000000,4.000000,4.000000,4.000000,4.000000,4.000000,4.000000,4.000000,4.000000,4.000000,4.000000,4.000000,4.000000,4.000000,4.000000,4.000000,4.000000,4.000000,4.000000,4.000000,4.000000,4.000000,4.000000,4.000000,4.000000,4.000000,4.000000,4.000000,100.000000
1614474148.377308,77.000000,0.000000,-4.079168,36.164200,-5.777410,8.812796,34.085854,2.183523,23.930389,-7.959089,0.561023,3.180689,-5.680276,5.637562,1.173032,-2.934041,-10.502382,57.592445,9.169408,159.261505,156.153824,-3.186180,-15.157361,-4.858732,17.841751,-26.394896,20.767004,15.010821,22.612921,9.597487,9.003241,22.086409,16.320030,15.069180,0.000000,193.000000,4.000000,,,,0.000000,4.000000,4.000000,4.000000,4.000000,4.000000,4.000000,4.000000,4.000000,4.000000,4.000000,4.000000,4.000000,4.000000,4.000000,4.000000,4.000000,4.000000,4.000000,4.000000,4.000000,4.000000,4.000000,4.000000,4.000000,4.000000,4.000000,4.000000,4.000000,4.000000,4.000000,4.000000,4.000000,100.000000
1614474148.385057,78.000000,0.000000,1.053117,21.256239,-5.258812,-3.503709,20.718435,3.206980,14.162870,-2.310104,-1.490820,-0.925056,-22.597673,3.580643,13.479551,-5.495209,-7.927777,45.227161,17.365366,162.179169,143.177155,-0.106071,-7.449895,-2.802591,25.003397,-38.163372,2.797519,9.867605,18.487743,7.536608,8.481418,16.936117,14.765249,11.977187,0.000000,171.000000,4.000000,,,,0.000000,4.000000,4.000000,4.000000,4.000000,4.000000,4.000000,4.000000,4.000000,4.000000,4.000000,4.000000,4.000000,4.000000,4.000000,4.000000,4.000000,4.000000,4.000000,4.000000,4.000000,4.000000,4.000000,4.000000,4.000000,4.000000,4.000000,4.000000,4.000000,4.000000,4.000000,4.000000,4.000000,100.000000
1614474148.392706,79.000000,0.000000,-4.588962,0.209342,-6.792015,0.602359,16.082333,3.203773,11.584604,-7.948820,-6.617534,-4.513875,-18.472511,-15.397297,-1.405723,-3.951252,-18.689079,37.489628,5.553130,159.452896,137.392960,-7.798273,0.762683,-11.517737,3.952752,-32.484184,0.230619,-10.655083,2.058999,5.990610,10.524218,13.329438,14.237663,13.503672,0.000000,180.000000,4.000000,,,,0.000000,4.000000,4.000000,4.000000,4.000000,4.000000,4.000000,4.000000,4.000000,4.000000,4.000000,4.000000,4.000000,4.000000,4.000000,4.000000,4.000000,4.000000,4.000000,4.000000,4.000000,4.000000,4.000000,4.000000,4.000000,4.000000,4.000000,4.000000,4.000000,4.000000,4.000000,4.000000,4.000000,100.000000
1614474148.400456,80.000000,0.000000,-8.686937,14.055286,-6.272402,13.422269,28.373943,2.687749,13.111482,-16.146000,-1.995532,-2.970899,-15.889935,-15.381900,-13.199189,-4.972942,-26.875519,17.964958,-15.990885,126.985748,116.742737,-33.944321,-21.802183,-23.301090,-12.461457,-45.785034,1.768850,-0.388017,5.646684,1.882055,9.488052,13.828929,13.197784,7.849143,0.000000,188.000000,4.000000,,,,0.000000,4.000000,4.000000,4.000000,4.000000,4.000000,4.000000,4.000000,4.000000,4.000000,4.000000,4.000000,4.000000,4.000000,4.000000,4.000000,4.000000,4.000000,4.000000,4.000000,4.000000,4.000000,4.000000,4.000000,4.000000,4.000000,4.000000,4.000000,4.000000,4.000000,4.000000,4.000000,4.000000,100.000000
1614474148.408105,81.000000,0.000000,-2.011584,30.964308,-11.394335,4.178078,26.294287,3.197882,12.585549,-11.514468,4.673131,-4.506390,-20.489431,8.736047,1.172984,-10.608994,-16.079412,31.793146,-9.821048,133.012604,124.831123,-30.833454,-34.088074,-16.611124,-4.756688,-49.841812,-4.899586,14.484165,16.410269,0.341712,5.376000,14.327921,5.492280,-13.184348,0.000000,168.000000,4.000000,,,,0.000000,4.000000,4.000000,4.000000,4.000000,4.000000,4.000000,4.000000,4.000000,4.000000,4.000000,4.000000,4.000000,4.000000,4.000000,4.000000,4.000000,4.000000,4.000000,4.000000,4.000000,4.000000,4.000000,4.000000,4.000000,4.000000,4.000000,4.000000,4.000000,4.000000,4.000000,4.000000,4.000000,100.000000
