title:23, start timestamp:1614475103.841280, stop timestamp:1614475149.684142, headset type:EPOCFLEX, headset serial:F00001ED, headset firmware:f12, subject name:s13, channels:75, sampling rate:128, samples:5917      , version:2.0
Timestamp,EEG.Counter,EEG.Interpolated,EEG.Cz,EEG.Fz,EEG.Fp1,EEG.F7,EEG.F3,EEG.FC1,EEG.C3,EEG.FC5,EEG.FT9,EEG.T7,EEG.TP9,EEG.CP5,EEG.CP1,EEG.P3,EEG.P7,EEG.O1,EEG.Pz,EEG.Oz,EEG.O2,EEG.P8,EEG.P4,EEG.CP2,EEG.CP6,EEG.TP10,EEG.T8,EEG.FT10,EEG.FC6,EEG.C4,EEG.FC2,EEG.F4,EEG.F8,EEG.Fp2,EEG.HighBitFlex,EEG.RawCq,EEG.Battery,MarkerIndex,MarkerType,MarkerValueInt,EEG.MarkerHardware,CQ.Cz,CQ.Fz,CQ.Fp1,CQ.F7,CQ.F3,CQ.FC1,CQ.C3,CQ.FC5,CQ.FT9,CQ.T7,CQ.TP9,CQ.CP5,CQ.CP1,CQ.P3,CQ.P7,CQ.O1,CQ.Pz,CQ.Oz,CQ.O2,CQ.P8,CQ.P4,CQ.CP2,CQ.CP6,CQ.TP10,CQ.T8,CQ.FT10,CQ.FC6,CQ.C4,CQ.FC2,CQ.F4,CQ.F8,CQ.Fp2,CQ.Overall
1614475103.841280,115.000000,0.000000,0.026808,1.269615,-10.277312,-25.307882,-5.984947,-7.436665,-2.211268,-18.470284,-13.842679,-11.879700,-39.469955,-10.831637,-9.579670,-28.037018,-41.280529,-68.729347,-18.969648,-102.039162,26.158897,-43.207783,-23.550339,-6.019271,-7.988139,-162.023834,-2.622982,7.197080,1.557052,0.315812,-1.427849,15.158865,8.367011,1.443457,8064.000000,0.000000,4.000000,,,,0.000000,4.000000,4.000000,4.000000,4.000000,4.000000,4.000000,4.000000,4.000000,4.000000,4.000000,4.000000,4.000000,4.000000,4.000000,4.000000,4.000000,4.000000,4.000000,4.000000,4.000000,4.000000,4.000000,4.000000,4.000000,4.000000,4.000000,4.000000,4.000000,4.000000,4.000000,4.000000,4.000000,100.000000
1614475103.849129,116.000000,0.000000,10.796012,2.806807,-10.779856,-39.641548,-12.132808,0.263079,-17.080853,0.522546,-5.110888,-18.021666,-47.635612,-6.205421,-1.364963,-33.137184,-37.136684,-61.993950,-9.207089,-92.706352,12.799404,-21.626112,-18.398584,1.679056,-8.492971,-166.477188,-4.671641,11.292446,6.683700,3.905240,-1.426421,14.118065,18.615055,10.159962,8064.000000,0.000000,4.000000,,,,0.000000,4.000000,4.000000,4.000000,4.000000,4.000000,4.000000,4.000000,4.000000,4.000000,4.000000,4.000000,4.000000,4.000000,4.000000,4.000000,4.000000,4.000000,4.000000,4.000000,4.000000,4.000000,4.000000,4.000000,4.000000,4.000000,4.000000,4.000000,4.000000,4.000000,4.000000,4.000000,4.000000,100.000000
1614475103.856878,117.000000,0.000000,-7.676323,0.752718,-14.358819,-45.242931,-14.171957,-3.326927,-25.781719,-13.836951,-8.182700,-21.593388,-28.100798,-20.558191,-9.568726,-16.180971,-23.766212,-44.496059,-18.428652,-61.331596,17.914810,-18.014742,-17.354544,-1.912366,-10.535761,-168.362000,6.615082,0.511923,13.856503,-8.406358,4.728851,-3.331950,19.109261,20.406212,8064.000000,0.000000,4.000000,,,,0.000000,4.000000,4.000000,4.000000,4.000000,4.000000,4.000000,4.000000,4.000000,4.000000,4.000000,4.000000,4.000000,4.000000,4.000000,4.000000,4.000000,4.000000,4.000000,4.000000,4.000000,4.000000,4.000000,4.000000,4.000000,4.000000,4.000000,4.000000,4.000000,4.000000,4.000000,4.000000,4.000000,100.000000
1614475103.864527,118.000000,0.000000,-24.078903,-7.453163,-14.344460,-42.120766,-13.644964,-10.503087,-17.037989,-40.489780,-27.148876,-15.930769,-24.482954,-30.281221,-17.251465,-11.549406,-23.229626,-43.938740,-23.025608,-62.295906,39.435356,-33.381344,-17.850010,-20.371992,-5.397020,-150.757736,-0.058200,-0.514230,4.099057,-22.756926,-1.429724,-3.328618,17.551689,16.283241,8064.000000,0.000000,4.000000,,,,0.000000,4.000000,4.000000,4.000000,4.000000,4.000000,4.000000,4.000000,4.000000,4.000000,4.000000,4.000000,4.000000,4.000000,4.000000,4.000000,4.000000,4.000000,4.000000,4.000000,4.000000,4.000000,4.000000,4.000000,4.000000,4.000000,4.000000,4.000000,4.000000,4.000000,4.000000,4.000000,4.000000,100.000000
1614475103.872276,119.000000,0.000000,-8.670209,-12.573915,-26.124989,-49.770954,-12.605679,-11.005404,-20.097874,-34.295444,-21.480701,-20.530224,-27.022573,-21.020172,-19.285496,-26.409651,-49.873062,-40.305058,-21.464121,-69.413094,37.857460,-30.783859,-16.806519,-17.274698,-18.724957,-145.991592,-10.827373,1.537567,-10.776836,-9.913656,-15.787269,2.828557,22.149523,10.625933,8064.000000,0.000000,4.000000,,,,0.000000,4.000000,4.000000,4.000000,4.000000,4.000000,4.000000,4.000000,4.000000,4.000000,4.000000,4.000000,4.000000,4.000000,4.000000,4.000000,4.000000,4.000000,4.000000,4.000000,4.000000,4.000000,4.000000,4.000000,4.000000,4.000000,4.000000,4.000000,4.000000,4.000000,4.000000,4.000000,4.000000,100.000000
1614475103.879926,120.000000,0.000000,2.107692,-5.381854,-31.227068,-49.208363,-9.003329,-10.994399,-19.564957,-16.825253,1.617702,-27.689180,-19.303244,-15.870946,-17.727749,-29.460165,-50.848831,-40.777573,-21.955477,-62.677017,31.152935,-23.573587,-19.866636,-0.334346,-18.706232,-160.204575,-5.175519,3.587311,4.618556,-2.724255,-14.233020,2.825728,16.999166,11.128127,8064.000000,0.000000,4.000000,,,,0.000000,4.000000,4.000000,4.000000,4.000000,4.000000,4.000000,4.000000,4.000000,4.000000,4.000000,4.000000,4.000000,4.000000,4.000000,4.000000,4.000000,4.000000,4.000000,4.000000,4.000000,4.000000,4.000000,4.000000,4.000000,4.000000,4.000000,4.000000,4.000000,4.000000,4.000000,4.000000,4.000000,100.000000
1614475103.887675,121.000000,0.000000,-4.048262,-5.889292,-12.734303,-36.851463,-16.173813,-6.368021,-18.006929,-15.269965,-3.512121,-16.379440,-31.591633,-19.444818,-12.068995,-23.789679,-27.721060,-61.762436,-16.805315,-79.024597,22.916655,-27.652578,-21.385231,-10.590422,3.876578,-162.608475,-7.734446,9.737570,17.434450,-16.567684,-6.013658,4.874184,8.777040,11.117000,8064.000000,0.000000,4.000000,,,,0.000000,4.000000,4.000000,4.000000,4.000000,4.000000,4.000000,4.000000,4.000000,4.000000,4.000000,4.000000,4.000000,4.000000,4.000000,4.000000,4.000000,4.000000,4.000000,4.000000,4.000000,4.000000,4.000000,4.000000,4.000000,4.000000,4.000000,4.000000,4.000000,4.000000,4.000000,4.000000,4.000000,100.000000
1614475103.895324,122.000000,0.000000,-6.608316,-15.114172,-5.542081,-35.276150,-23.337126,-0.207806,-32.347897,-16.280336,-18.893225,-7.132291,-45.406193,-20.963835,-20.262054,-23.253069,-37.949749,-70.418625,-19.865433,-97.919930,-1.208826,-31.727489,-19.825384,-21.349062,-5.358068,-163.471497,-13.880558,1.522704,-0.531703,-15.012655,-4.982004,2.305207,13.383647,10.593061,7936.000000,0.000000,4.000000,,,,0.000000,4.000000,4.000000,4.000000,4.000000,4.000000,4.000000,4.000000,4.000000,4.000000,4.000000,4.000000,4.000000,4.000000,4.000000,4.000000,4.000000,4.000000,4.000000,4.000000,4.000000,4.000000,4.000000,4.000000,4.000000,4.000000,4.000000,4.000000,4.000000,4.000000,4.000000,4.000000,4.000000,100.000000
1614475103.903073,123.000000,0.000000,-10.704271,-9.970853,-19.895514,-36.779335,-12.031738,-5.335804,-28.725805,-18.828157,-17.335869,-12.766185,-26.386429,-21.455692,-35.113586,-17.075970,-55.347694,-55.989231,-30.614799,-85.514320,2.894947,-32.208584,-18.267097,-6.455918,-26.891172,-163.308029,-2.584626,-5.145485,-5.146555,2.438255,-5.489842,3.328543,19.524111,10.582469,7936.000000,0.000000,4.000000,,,,0.000000,4.000000,4.000000,4.000000,4.000000,4.000000,4.000000,4.000000,4.000000,4.000000,4.000000,4.000000,4.000000,4.000000,4.000000,4.000000,4.000000,4.000000,4.000000,4.000000,4.000000,4.000000,4.000000,4.000000,4.000000,4.000000,4.000000,4.000000,4.000000,4.000000,4.000000,4.000000,4.000000,100.000000
1614475103.910722,124.000000,0.000000,-7.103824,3.372451,-20.901258,-37.255375,-3.301758,-7.381750,-8.697080,-18.809330,-14.241611,-13.266238,-15.590812,-14.767570,-22.257961,-18.597355,-44.010296,-49.779396,-21.866236,-79.274956,34.686924,-25.509708,-10.556521,3.294127,-11.479665,-142.631897,6.648728,14.859660,11.268847,9.615304,-5.484352,22.299574,23.094330,10.059066,8064.000000,0.000000,4.000000,,,,0.000000,4.000000,4.000000,4.000000,4.000000,4.000000,4.000000,4.000000,4.000000,4.000000,4.000000,4.000000,4.000000,4.000000,4.000000,4.000000,4.000000,4.000000,4.000000,4.000000,4.000000,4.000000,4.000000,4.000000,4.000000,4.000000,4.000000,4.000000,4.000000,4.000000,4.000000,4.000000,4.000000,100.000000
1614475103.918471,125.000000,0.000000,12.390460,5.933181,-12.675229,-49.012993,-10.477943,3.394863,-17.406330,-3.918726,-11.150446,-11.201691,-31.472656,-5.522033,-0.184421,-32.424911,-34.735519,-51.780899,-0.818728,-83.298248,32.088135,-14.202147,-4.904940,1.752372,7.506174,-136.848251,2.026694,25.614031,15.360143,8.067226,-4.966047,26.892658,27.173800,12.100288,8064.000000,0.000000,4.000000,,,,0.000000,4.000000,4.000000,4.000000,4.000000,4.000000,4.000000,4.000000,4.000000,4.000000,4.000000,4.000000,4.000000,4.000000,4.000000,4.000000,4.000000,4.000000,4.000000,4.000000,4.000000,4.000000,4.000000,4.000000,4.000000,4.000000,4.000000,4.000000,4.000000,4.000000,4.000000,4.000000,4.000000,100.000000
1614475103.926120,126.000000,0.000000,10.839607,4.388786,-11.124092,-46.912697,-13.544388,9.032494,-25.594053,-0.837884,-7.549552,-14.267412,-34.005287,-13.721640,-6.850903,-25.212999,-28.546936,-51.729118,0.207732,-67.317513,15.132969,-15.726406,-9.515419,1.237799,-0.193640,-156.711395,0.999027,8.152520,16.883244,-1.171610,1.192765,7.891407,24.069702,18.754854,8064.000000,0.000000,4.000000,,,,0.000000,4.000000,4.000000,4.000000,4.000000,4.000000,4.000000,4.000000,4.000000,4.000000,4.000000,4.000000,4.000000,4.000000,4.000000,4.000000,4.000000,4.000000,4.000000,4.000000,4.000000,4.000000,4.000000,4.000000,4.000000,4.000000,4.000000,4.000000,4.000000,4.000000,4.000000,4.000000,4.000000,100.000000
1614475103.933869,127.000000,0.000000,-9.684052,3.871577,-10.087327,-27.891424,-10.453920,4.920897,-8.132562,-19.811405,-16.772772,-9.637760,-25.253332,-22.938686,-18.126102,-6.726248,-15.697876,-55.779953,-9.536066,-67.250191,21.784502,-24.428629,-6.941802,-6.455747,-6.860114,-153.477768,4.587771,4.041803,23.533028,-7.324284,1.704393,8.909157,30.199478,22.325844,8064.000000,0.000000,4.000000,,,,0.000000,4.000000,4.000000,4.000000,4.000000,4.000000,4.000000,4.000000,4.000000,4.000000,4.000000,4.000000,4.000000,4.000000,4.000000,4.000000,4.000000,4.000000,4.000000,4.000000,4.000000,4.000000,4.000000,4.000000,4.000000,4.000000,4.000000,4.000000,4.000000,4.000000,4.000000,4.000000,4.000000,100.000000
1614475103.941519,0.000000,0.000000,-5.571805,0.790783,-16.231087,-32.478916,-9.930646,4.915976,-5.047506,-25.432619,-15.730358,-8.602481,-24.715260,-12.146518,-11.441310,-12.360548,-22.348845,-48.544685,-10.039351,-91.285507,22.788359,-23.378559,-2.832295,-11.577496,-3.263510,-137.426849,5.608824,15.832633,18.894110,6.016373,-7.528081,24.284863,48.117996,21.790697,0.000000,185.000000,4.000000,,,,0.000000,4.000000,4.000000,4.000000,4.000000,4.000000,4.000000,4.000000,4.000000,4.000000,4.000000,4.000000,4.000000,4.000000,4.000000,4.000000,4.000000,4.000000,4.000000,4.000000,4.000000,4.000000,4.000000,4.000000,4.000000,4.000000,4.000000,4.000000,4.000000,4.000000,4.000000,4.000000,4.000000,100.000000
1614475103.949268,1.000000,0.000000,7.254280,1.815633,-25.958445,-48.343876,-6.843792,3.885419,-13.247586,-14.125135,1.721270,-21.414391,-22.639261,-4.442063,-8.352946,-21.578957,-28.480343,-31.573063,-10.029311,-80.937813,26.355314,-20.791079,-15.649976,-2.847970,-2.747426,-146.520187,5.090395,13.252698,14.772652,10.112921,-11.623117,17.081091,37.813469,17.666342,0.000000,188.000000,4.000000,,,,0.000000,4.000000,4.000000,4.000000,4.000000,4.000000,4.000000,4.000000,4.000000,4.000000,4.000000,4.000000,4.000000,4.000000,4.000000,4.000000,4.000000,4.000000,4.000000,4.000000,4.000000,4.000000,4.000000,4.000000,4.000000,4.000000,4.000000,4.000000,4.000000,4.000000,4.000000,4.000000,4.000000,100.000000
1614475103.956917,2.000000,0.000000,-2.496564,3.865099,-16.701717,-41.116043,-13.503615,4.907175,-11.183057,-13.085369,-2.895836,-22.418617,-25.693546,-13.668390,-9.370234,-14.890711,-10.503144,-38.720978,-8.993641,-54.190208,43.764858,-19.231825,-20.249710,-2.845122,-4.283140,-156.117264,-1.068541,9.649702,21.937366,-9.384372,-6.996109,3.730676,15.211553,15.597394,0.000000,189.000000,4.000000,,,,0.000000,4.000000,4.000000,4.000000,4.000000,4.000000,4.000000,4.000000,4.000000,4.000000,4.000000,4.000000,4.000000,4.000000,4.000000,4.000000,4.000000,4.000000,4.000000,4.000000,4.000000,4.000000,4.000000,4.000000,4.000000,4.000000,4.000000,4.000000,4.000000,4.000000,4.000000,4.000000,4.000000,100.000000
1614475103.964766,3.000000,0.000000,-12.237657,-2.805433,-4.377323,-34.921082,-26.310625,8.492011,-20.915464,-15.636387,-19.303196,-12.139789,-37.462723,-20.834209,-9.873684,-17.952744,-14.082385,-60.220718,-12.061570,-67.469353,33.464680,-11.520286,-9.460230,-13.098687,-5.304498,-155.961151,0.470989,11.178514,22.428249,-10.913448,-5.450652,4.752587,32.632240,26.351028,0.000000,162.000000,4.000000,,,,0.000000,4.000000,4.000000,4.000000,4.000000,4.000000,4.000000,4.000000,4.000000,4.000000,4.000000,4.000000,4.000000,4.000000,4.000000,4.000000,4.000000,4.000000,4.000000,4.000000,4.000000,4.000000,4.000000,4.000000,4.000000,4.000000,4.000000,4.000000,4.000000,4.000000,4.000000,4.000000,4.000000,100.000000
1614475103.972515,4.000000,0.000000,-12.225419,-8.443653,-16.680637,-40.527187,-14.489442,-1.260071,-30.125317,-18.697674,-11.078765,-15.717393,-34.861156,-21.326195,-17.043299,-27.165560,-43.299072,-61.698959,-27.946945,-89.965981,12.918396,-18.175432,-14.578975,-14.111229,-7.350475,-159.907745,11.239748,5.013489,13.175052,4.994901,-4.932381,6.286296,50.548325,32.991344,0.000000,181.000000,4.000000,,,,0.000000,4.000000,4.000000,4.000000,4.000000,4.000000,4.000000,4.000000,4.000000,4.000000,4.000000,4.000000,4.000000,4.000000,4.000000,4.000000,4.000000,4.000000,4.000000,4.000000,4.000000,4.000000,4.000000,4.000000,4.000000,4.000000,4.000000,4.000000,4.000000,4.000000,4.000000,4.000000,4.000000,100.000000
1614475103.980364,5.000000,0.000000,-12.726014,-5.358286,-24.869085,-34.845634,-0.115978,-12.028042,-16.761858,-29.961027,-4.913840,-21.855522,-25.595528,-17.715126,-13.949331,-27.138393,-46.332695,-48.303928,-33.560024,-81.158073,31.367016,-36.618793,-25.333628,-14.609939,-8.368766,-152.055527,-1.079184,3.982835,8.546493,4.477086,-5.440269,5.254368,29.472136,12.958352,0.000000,183.000000,4.000000,,,,0.000000,4.000000,4.000000,4.000000,4.000000,4.000000,4.000000,4.000000,4.000000,4.000000,4.000000,4.000000,4.000000,4.000000,4.000000,4.000000,4.000000,4.000000,4.000000,4.000000,4.000000,4.000000,4.000000,4.000000,4.000000,4.000000,4.000000,4.000000,4.000000,4.000000,4.000000,4.000000,4.000000,100.000000
1614475103.988113,6.000000,0.000000,-4.508160,-4.840107,-14.587807,-40.451813,-17.551760,-2.785244,-12.129712,-26.341322,-15.678157,-16.705462,-30.698137,-11.543565,-2.140510,-29.162539,-33.465851,-42.614597,-16.090567,-66.717934,46.720264,-25.812946,-10.949319,-12.544046,-7.847577,-141.647064,-15.949900,11.158339,10.076407,-0.655597,-8.511751,9.351678,20.724714,7.304368,0.000000,169.000000,4.000000,,,,0.000000,4.000000,4.000000,4.000000,4.000000,4.000000,4.000000,4.000000,4.000000,4.000000,4.000000,4.000000,4.000000,4.000000,4.000000,4.000000,4.000000,4.000000,4.000000,4.000000,4.000000,4.000000,4.000000,4.000000,4.000000,4.000000,4.000000,4.000000,4.000000,4.000000,4.000000,4.000000,4.000000,100.000000
1614475103.995962,7.000000,0.000000,4.214297,-6.373729,-10.470654,-57.847260,-32.406002,8.499593,-22.886814,-10.930366,-18.226582,-15.663115,-29.128979,-19.224329,-7.266575,-20.928247,-30.868282,-43.597622,-4.792424,-59.984554,32.827389,1.905175,8.035990,2.853113,-7.839729,-149.197723,8.168614,9.095899,14.681716,5.498905,6.368555,7.803865,40.703991,36.527832,0.000000,213.000000,4.000000,,,,0.000000,4.000000,4.000000,4.000000,4.000000,4.000000,4.000000,4.000000,4.000000,4.000000,4.000000,4.000000,4.000000,4.000000,4.000000,4.000000,4.000000,4.000000,4.000000,4.000000,4.000000,4.000000,4.000000,4.000000,4.000000,4.000000,4.000000,4.000000,4.000000,4.000000,4.000000,4.000000,4.000000,100.000000
1614475104.003711,8.000000,0.000000,0.107518,-5.854535,-9.434543,-45.994541,-19.553083,9.003913,-18.248541,-14.509179,-19.746817,-11.544888,-13.715234,-26.384592,-14.438795,2.169604,-22.632284,-45.092487,-5.300452,-53.770721,34.333023,2.928911,8.027953,3.363080,-7.831889,-148.022888,28.673267,7.548341,17.231136,5.493406,24.310905,5.231958,40.150467,43.670792,0.000000,215.000000,4.000000,,,,0.000000,4.000000,4.000000,4.000000,4.000000,4.000000,4.000000,4.000000,4.000000,4.000000,4.000000,4.000000,4.000000,4.000000,4.000000,4.000000,4.000000,4.000000,4.000000,4.000000,4.000000,4.000000,4.000000,4.000000,4.000000,4.000000,4.000000,4.000000,4.000000,4.000000,4.000000,4.000000,4.000000,100.000000
1614475104.011560,9.000000,0.000000,0.107411,-7.899962,-9.937929,-36.204956,-12.354044,8.994909,-7.461062,-21.674156,-24.855274,-3.328214,-10.111774,-9.435130,-5.706408,3.705896,-19.019909,-37.867908,-3.243870,-54.742592,40.965359,-12.971454,-0.698023,-16.127462,-7.824058,-135.054352,9.157413,16.258741,11.060059,9.590477,6.850696,14.457496,28.828264,20.550198,0.000000,165.000000,4.000000,,,,0.000000,4.000000,4.000000,4.000000,4.000000,4.000000,4.000000,4.000000,4.000000,4.000000,4.000000,4.000000,4.000000,4.000000,4.000000,4.000000,4.000000,4.000000,4.000000,4.000000,4.000000,4.000000,4.000000,4.000000,4.000000,4.000000,4.000000,4.000000,4.000000,4.000000,4.000000,4.000000,4.000000,100.000000
1614475104.019309,10.000000,0.000000,4.209867,-5.840780,-24.799786,-59.758495,-16.444254,0.267966,-11.043345,-14.985816,-16.112471,-15.119758,-12.665766,0.317895,-7.239163,-13.733707,-27.718838,-26.547989,-6.317549,-58.790413,25.539778,-17.573868,-9.928094,-12.521591,-8.329054,-142.098785,-3.672256,20.857868,6.946435,17.786015,-14.181795,21.109705,32.389179,17.452724,0.000000,183.000000,4.000000,,,,0.000000,4.000000,4.000000,4.000000,4.000000,4.000000,4.000000,4.000000,4.000000,4.000000,4.000000,4.000000,4.000000,4.000000,4.000000,4.000000,4.000000,4.000000,4.000000,4.000000,4.000000,4.000000,4.000000,4.000000,4.000000,4.000000,4.000000,4.000000,4.000000,4.000000,4.000000,4.000000,4.000000,100.000000
1614475104.027158,11.000000,0.000000,-1.948189,4.421471,-30.928833,-66.365402,-17.453451,-6.911789,-14.622046,-16.509291,-13.532256,-27.412331,-15.730022,-16.605499,-10.308847,-12.181512,-19.998812,-38.829132,-12.977898,-58.731625,19.873213,-16.017832,-16.072012,2.875546,-7.807904,-153.238739,2.485262,22.375471,10.529232,5.973357,3.268284,8.780903,26.715763,23.076298,0.000000,210.000000,4.000000,,,,0.000000,4.000000,4.000000,4.000000,4.000000,4.000000,4.000000,4.000000,4.000000,4.000000,4.000000,4.000000,4.000000,4.000000,4.000000,4.000000,4.000000,4.000000,4.000000,4.000000,4.000000,4.000000,4.000000,4.000000,4.000000,4.000000,4.000000,4.000000,4.000000,4.000000,4.000000,4.000000,4.000000,100.000000
1614475104.034907,12.000000,0.000000,-5.535984,-2.762438,-16.026108,-47.837498,-23.077023,5.402815,-13.068962,-21.620987,-27.877697,-13.025944,-29.047626,-20.178638,0.470693,-4.989843,-9.722403,-62.380047,-10.400817,-63.288277,22.930262,-10.873609,-10.414915,-5.845278,-7.287276,-145.906006,4.021238,17.224890,7.441780,-5.314668,14.034246,-3.535570,21.048023,15.360914,0.000000,179.000000,4.000000,,,,0.000000,4.000000,4.000000,4.000000,4.000000,4.000000,4.000000,4.000000,4.000000,4.000000,4.000000,4.000000,4.000000,4.000000,4.000000,4.000000,4.000000,4.000000,4.000000,4.000000,4.000000,4.000000,4.000000,4.000000,4.000000,4.000000,4.000000,4.000000,4.000000,4.000000,4.000000,4.000000,4.000000,100.000000
1614475104.042756,13.000000,0.000000,-3.991987,-18.144291,-13.445980,-47.789661,-19.977022,10.012796,-13.568713,-20.060905,-25.285717,-5.320610,-35.172424,-10.927691,-7.222086,-12.164340,-25.610115,-59.753567,-14.492981,-71.942940,12.138101,-7.785812,-2.712192,-17.121485,-10.869732,-142.170364,13.247986,2.335871,2.306133,6.485518,-1.877224,-2.506394,36.411591,17.396835,0.000000,197.000000,4.000000,,,,0.000000,4.000000,4.000000,4.000000,4.000000,4.000000,4.000000,4.000000,4.000000,4.000000,4.000000,4.000000,4.000000,4.000000,4.000000,4.000000,4.000000,4.000000,4.000000,4.000000,4.000000,4.000000,4.000000,4.000000,4.000000,4.000000,4.000000,4.000000,4.000000,4.000000,4.000000,4.000000,4.000000,100.000000
1614475104.050505,14.000000,0.000000,-10.141841,-7.356915,-22.663303,-54.921360,-6.110892,-6.920293,-13.555144,-29.784433,-12.952740,-15.571700,-30.009047,-15.532147,-22.086658,-15.741920,-34.815273,-41.232273,-22.683617,-74.435097,20.331091,-13.419052,-12.453070,-10.437696,-11.371683,-144.079468,15.798841,4.897637,9.996135,10.068776,-10.080475,0.573036,37.913639,15.840977,0.000000,171.000000,4.000000,,,,0.000000,4.000000,4.000000,4.000000,4.000000,4.000000,4.000000,4.000000,4.000000,4.000000,4.000000,4.000000,4.000000,4.000000,4.000000,4.000000,4.000000,4.000000,4.000000,4.000000,4.000000,4.000000,4.000000,4.000000,4.000000,4.000000,4.000000,4.000000,4.000000,4.000000,4.000000,4.000000,4.000000,100.000000
1614475104.058354,15.000000,0.000000,-9.618878,9.060698,-19.563717,-55.379257,-10.207345,-11.015937,-14.054410,-32.831573,-16.529530,-16.581768,-37.671345,-19.619179,-7.705597,-20.341562,-26.575331,-38.626938,-12.917342,-74.360664,43.900505,-8.790248,-17.568821,-4.273412,-1.103901,-139.320007,-4.729778,22.328638,20.755369,0.315118,-8.531933,2.110924,22.491110,4.543085,0.000000,196.000000,4.000000,,,,0.000000,4.000000,4.000000,4.000000,4.000000,4.000000,4.000000,4.000000,4.000000,4.000000,4.000000,4.000000,4.000000,4.000000,4.000000,4.000000,4.000000,4.000000,4.000000,4.000000,4.000000,4.000000,4.000000,4.000000,4.000000,4.000000,4.000000,4.000000,4.000000,4.000000,4.000000,4.000000,4.000000,100.000000
1614475104.066103,16.000000,0.000000,0.647151,2.384970,-15.954410,-60.964905,-23.017651,2.328412,-17.630098,-15.875664,-16.000181,-16.565187,-37.120853,-20.625200,0.507236,-21.859682,-28.600039,-43.716515,-3.160835,-68.645271,38.728397,9.680080,0.910285,1.371887,7.102331,-140.719147,-0.622485,12.562718,21.760254,4.417367,-0.318273,1.083172,33.750671,19.410336,0.000000,187.000000,4.000000,,,,0.000000,4.000000,4.000000,4.000000,4.000000,4.000000,4.000000,4.000000,4.000000,4.000000,4.000000,4.000000,4.000000,4.000000,4.000000,4.000000,4.000000,4.000000,4.000000,4.000000,4.000000,4.000000,4.000000,4.000000,4.000000,4.000000,4.000000,4.000000,4.000000,4.000000,4.000000,4.000000,4.000000,100.000000
1614475104.073952,17.000000,0.000000,-1.917599,-2.745620,-15.938455,-50.647530,-17.353607,6.428648,-16.586828,-15.859788,-8.291872,-14.497340,-10.417067,-27.271242,-10.262502,-2.350643,-24.468874,-39.057415,-10.337162,-55.243298,28.433260,10.696041,11.678606,7.524361,4.018306,-142.629715,25.019163,-1.295998,21.225674,9.541155,20.707687,0.056448,56.281021,40.416569,0.000000,183.000000,4.000000,,,,0.000000,4.000000,4.000000,4.000000,4.000000,4.000000,4.000000,4.000000,4.000000,4.000000,4.000000,4.000000,4.000000,4.000000,4.000000,4.000000,4.000000,4.000000,4.000000,4.000000,4.000000,4.000000,4.000000,4.000000,4.000000,4.000000,4.000000,4.000000,4.000000,4.000000,4.000000,4.000000,4.000000,100.000000
1614475104.081701,18.000000,0.000000,0.135601,0.846870,-9.255850,-30.596882,-9.131125,5.396578,-9.390754,-24.561876,-6.745119,3.465875,6.516428,-12.884996,2.055453,10.472220,-7.008508,-21.069639,-8.788363,-43.906002,52.507389,-1.109527,2.948979,4.439913,4.014287,-126.076828,19.865940,20.243759,21.204449,12.095716,21.199799,17.492289,58.276024,31.658201,0.000000,193.000000,4.000000,,,,0.000000,4.000000,4.000000,4.000000,4.000000,4.000000,4.000000,4.000000,4.000000,4.000000,4.000000,4.000000,4.000000,4.000000,4.000000,4.000000,4.000000,4.000000,4.000000,4.000000,4.000000,4.000000,4.000000,4.000000,4.000000,4.000000,4.000000,4.000000,4.000000,4.000000,4.000000,4.000000,4.000000,100.000000
1614475104.089351,19.000000,0.000000,18.597004,5.461407,-9.246593,-34.668850,-8.609174,7.442464,-4.765978,-9.152699,7.107780,8.590614,3.432988,10.204811,15.386731,-3.897226,-7.001499,-5.663955,4.040938,-41.297993,65.788216,-0.595596,0.894748,10.589319,8.112837,-115.694344,11.128124,41.761978,20.157602,24.904133,7.845266,40.038898,56.166466,32.652184,0.000000,204.000000,4.000000,,,,0.000000,4.000000,4.000000,4.000000,4.000000,4.000000,4.000000,4.000000,4.000000,4.000000,4.000000,4.000000,4.000000,4.000000,4.000000,4.000000,4.000000,4.000000,4.000000,4.000000,4.000000,4.000000,4.000000,4.000000,4.000000,4.000000,4.000000,4.000000,4.000000,4.000000,4.000000,4.000000,4.000000,100.000000
1614475104.097100,20.000000,0.000000,16.014303,20.840561,-10.775809,-42.839310,-6.036462,5.896560,-7.325315,-2.989701,17.357082,-10.905155,-4.262753,-5.190009,-0.013271,-10.559996,-15.712446,-23.094189,0.447154,-43.307976,40.081402,-2.646283,-0.644609,22.886423,11.181647,-134.040192,22.399048,35.566368,27.316933,18.212563,20.657934,34.870655,57.648762,54.157993,0.000000,180.000000,4.000000,,,,0.000000,4.000000,4.000000,4.000000,4.000000,4.000000,4.000000,4.000000,4.000000,4.000000,4.000000,4.000000,4.000000,4.000000,4.000000,4.000000,4.000000,4.000000,4.000000,4.000000,4.000000,4.000000,4.000000,4.000000,4.000000,4.000000,4.000000,4.000000,4.000000,4.000000,4.000000,4.000000,4.000000,100.000000
1614475104.104749,21.000000,0.000000,-2.976069,23.383823,-2.047084,-38.693905,-11.671452,3.839381,-12.959016,-20.935429,-4.711557,-20.637840,-17.591824,-30.313025,-9.756847,-6.446872,-16.722376,-54.865967,-10.322524,-47.880054,21.066961,-16.489790,-9.361913,14.145588,13.734569,-147.752304,20.325367,26.812855,27.802437,-0.780009,29.868046,16.887068,51.437267,55.129478,0.000000,192.000000,4.000000,,,,0.000000,4.000000,4.000000,4.000000,4.000000,4.000000,4.000000,4.000000,4.000000,4.000000,4.000000,4.000000,4.000000,4.000000,4.000000,4.000000,4.000000,4.000000,4.000000,4.000000,4.000000,4.000000,4.000000,4.000000,4.000000,4.000000,4.000000,4.000000,4.000000,4.000000,4.000000,4.000000,4.000000,100.000000
1614475104.112498,22.000000,0.000000,-1.947452,0.283516,-3.070678,-42.244953,-16.275164,4.861183,-13.971698,-23.991417,-17.527357,-18.053101,-17.061411,-19.000660,-8.721450,-3.876322,-23.885139,-40.964947,-10.825023,-46.293713,35.917690,-17.498941,-4.224346,-1.253173,5.002885,-135.809677,16.202477,20.632195,9.825915,12.041284,13.427920,16.357359,47.796085,47.382038,0.000000,221.000000,4.000000,,,,0.000000,4.000000,4.000000,4.000000,4.000000,4.000000,4.000000,4.000000,4.000000,4.000000,4.000000,4.000000,4.000000,4.000000,4.000000,4.000000,4.000000,4.000000,4.000000,4.000000,4.000000,4.000000,4.000000,4.000000,4.000000,4.000000,4.000000,4.000000,4.000000,4.000000,4.000000,4.000000,4.000000,100.000000
1614475104.120147,23.000000,0.000000,4.721162,0.796053,-14.349659,-40.664249,-3.951197,3.317860,-7.803880,-15.249476,-1.099574,-17.522226,-1.659734,-0.520121,-12.302472,5.358323,-21.809973,-10.667571,-9.788556,-41.632034,52.804848,-12.866058,-3.707301,-0.739100,-8.848271,-126.443092,23.365763,21.637203,2.636602,23.824114,5.722185,23.007669,45.697006,46.309017,0.000000,190.000000,4.000000,,,,0.000000,4.000000,4.000000,4.000000,4.000000,4.000000,4.000000,4.000000,4.000000,4.000000,4.000000,4.000000,4.000000,4.000000,4.000000,4.000000,4.000000,4.000000,4.000000,4.000000,4.000000,4.000000,4.000000,4.000000,4.000000,4.000000,4.000000,4.000000,4.000000,4.000000,4.000000,4.000000,4.000000,100.000000
1614475104.127896,24.000000,0.000000,1.639518,22.846539,-8.694283,-33.444096,-0.870323,0.750440,-4.719152,-15.234227,1.978449,-13.914960,-17.042690,1.018861,-4.085042,-1.313702,-5.890727,-34.246647,-9.778768,-62.616043,41.982815,-21.571140,-25.754875,0.287280,-1.147116,-137.085876,8.470601,36.487362,17.505760,3.287470,6.229283,24.523123,35.907719,36.519119,0.000000,201.000000,4.000000,,,,0.000000,4.000000,4.000000,4.000000,4.000000,4.000000,4.000000,4.000000,4.000000,4.000000,4.000000,4.000000,4.000000,4.000000,4.000000,4.000000,4.000000,4.000000,4.000000,4.000000,4.000000,4.000000,4.000000,4.000000,4.000000,4.000000,4.000000,4.000000,4.000000,4.000000,4.000000,4.000000,4.000000,100.000000
1614475104.135545,25.000000,0.000000,4.201981,15.131385,-2.018923,-44.692703,-15.228427,-0.275952,-11.893921,-11.629250,-7.254299,-12.875404,-43.179493,-3.597542,0.534428,-22.338030,-11.525862,-66.520096,-9.256168,-88.194450,15.274164,-20.523930,-31.882967,-1.251468,9.110442,-152.846237,-0.768639,33.886772,23.642101,-5.946587,4.684593,23.985779,34.333351,33.918495,0.000000,195.000000,4.000000,,,,0.000000,4.000000,4.000000,4.000000,4.000000,4.000000,4.000000,4.000000,4.000000,4.000000,4.000000,4.000000,4.000000,4.000000,4.000000,4.000000,4.000000,4.000000,4.000000,4.000000,4.000000,4.000000,4.000000,4.000000,4.000000,4.000000,4.000000,4.000000,4.000000,4.000000,4.000000,4.000000,4.000000,100.000000
1614475104.143294,26.000000,0.000000,1.633676,-3.858105,-9.196391,-45.160831,-14.187557,1.262786,-14.958950,-9.566339,-7.247045,-13.888170,-28.264519,-14.875996,-15.876363,-9.495178,-23.822029,-54.145882,-15.400759,-75.285744,6.540941,-9.221354,-15.440827,0.801065,-5.770463,-153.206207,20.257771,9.237500,16.951792,3.290129,19.551702,16.269485,40.965683,40.551243,0.000000,165.000000,4.000000,,,,0.000000,4.000000,4.000000,4.000000,4.000000,4.000000,4.000000,4.000000,4.000000,4.000000,4.000000,4.000000,4.000000,4.000000,4.000000,4.000000,4.000000,4.000000,4.000000,4.000000,4.000000,4.000000,4.000000,4.000000,4.000000,4.000000,4.000000,4.000000,4.000000,4.000000,4.000000,4.000000,4.000000,100.000000
1614475104.150944,27.000000,0.000000,-7.085906,-2.828606,-6.110271,-27.166952,-2.891319,3.312805,-5.200401,-17.249079,-9.291080,-3.105051,-12.338819,-16.399582,-14.834846,7.950214,-15.593078,-33.066093,-14.872537,-55.723282,27.560041,-12.801876,-12.348464,-7.404864,-14.995462,-136.129929,18.186232,8.202622,15.909200,2.774018,21.070612,12.663472,37.334976,27.690180,0.000000,198.000000,4.000000,,,,0.000000,4.000000,4.000000,4.000000,4.000000,4.000000,4.000000,4.000000,4.000000,4.000000,4.000000,4.000000,4.000000,4.000000,4.000000,4.000000,4.000000,4.000000,4.000000,4.000000,4.000000,4.000000,4.000000,4.000000,4.000000,4.000000,4.000000,4.000000,4.000000,4.000000,4.000000,4.000000,4.000000,100.000000
1614475104.158693,28.000000,0.000000,2.664770,-1.287316,-4.052879,-33.806454,-5.965350,4.335133,-3.143919,-12.103625,-6.717686,-1.050664,-25.146992,0.539895,1.077426,-13.083377,-14.039023,-28.930464,-2.037152,-59.770123,48.558121,-11.763433,-16.951500,-8.423100,-2.159954,-123.173279,-3.370416,25.630318,14.867649,5.848167,-3.565843,22.907219,33.195076,18.944542,0.000000,217.000000,4.000000,,,,0.000000,4.000000,4.000000,4.000000,4.000000,4.000000,4.000000,4.000000,4.000000,4.000000,4.000000,4.000000,4.000000,4.000000,4.000000,4.000000,4.000000,4.000000,4.000000,4.000000,4.000000,4.000000,4.000000,4.000000,4.000000,4.000000,4.000000,4.000000,4.000000,4.000000,4.000000,4.000000,4.000000,100.000000
1614475104.166342,29.000000,0.000000,9.328772,-0.773208,-17.382160,-46.593159,-10.061949,4.330798,-13.910006,-2.860753,5.596724,-13.357306,-20.506460,3.103457,-7.128780,-22.301064,-16.076267,-21.722046,-1.522294,-49.453941,51.073666,5.684228,-13.344805,5.944297,3.483232,-128.691132,5.350903,26.117506,14.339961,7.893601,1.565928,22.884312,37.264446,32.771751,0.000000,173.000000,4.000000,,,,0.000000,4.000000,4.000000,4.000000,4.000000,4.000000,4.000000,4.000000,4.000000,4.000000,4.000000,4.000000,4.000000,4.000000,4.000000,4.000000,4.000000,4.000000,4.000000,4.000000,4.000000,4.000000,4.000000,4.000000,4.000000,4.000000,4.000000,4.000000,4.000000,4.000000,4.000000,4.000000,4.000000,100.000000
1614475104.174091,30.000000,0.000000,-10.167737,3.842950,-9.672470,-34.751694,-10.051887,3.813647,-8.255070,-10.550200,-3.639642,-9.241385,-4.075698,-13.309902,-14.813959,-2.278762,-1.701216,-24.264425,-9.725900,-33.507050,44.355927,7.729826,-10.767357,0.297327,6.043851,-134.203476,19.704527,18.911901,16.889723,-8.524549,21.564362,10.040915,37.227180,34.277439,0.000000,190.000000,4.000000,,,,0.000000,4.000000,4.000000,4.000000,4.000000,4.000000,4.000000,4.000000,4.000000,4.000000,4.000000,4.000000,4.000000,4.000000,4.000000,4.000000,4.000000,4.000000,4.000000,4.000000,4.000000,4.000000,4.000000,4.000000,4.000000,4.000000,4.000000,4.000000,4.000000,4.000000,4.000000,4.000000,4.000000,100.000000
1614475104.181740,31.000000,0.000000,-18.875517,-3.340380,4.696177,-30.614378,-15.682860,4.835474,8.163442,-19.257599,-23.123182,2.562729,-12.789571,-17.399157,-10.696581,-3.302124,-1.699515,-37.060673,-5.100790,-46.294056,42.773109,-3.047135,-4.602744,-17.651688,7.576269,-127.915421,17.633539,15.303246,12.257449,-5.951922,8.209465,12.594976,40.779697,24.499573,0.000000,185.000000,4.000000,,,,0.000000,4.000000,4.000000,4.000000,4.000000,4.000000,4.000000,4.000000,4.000000,4.000000,4.000000,4.000000,4.000000,4.000000,4.000000,4.000000,4.000000,4.000000,4.000000,4.000000,4.000000,4.000000,4.000000,4.000000,4.000000,4.000000,4.000000,4.000000,4.000000,4.000000,4.000000,4.000000,4.000000,100.000000
1614475104.189589,32.000000,0.000000,-7.061770,-2.824219,-12.231596,-39.814533,-11.564613,4.830638,0.462970,-20.263981,-15.920571,-10.260346,-19.956268,-15.843296,-19.916653,-16.119335,-25.287560,-35.997974,-4.070048,-54.452892,45.807259,-4.069728,-3.572500,-6.864806,-4.226180,-130.864426,20.180008,13.236662,11.732371,13.541209,-1.029514,23.864433,47.405582,29.090458,8064.000000,0.000000,4.000000,,,,0.000000,4.000000,4.000000,4.000000,4.000000,4.000000,4.000000,4.000000,4.000000,4.000000,4.000000,4.000000,4.000000,4.000000,4.000000,4.000000,4.000000,4.000000,4.000000,4.000000,4.000000,4.000000,4.000000,4.000000,4.000000,4.000000,4.000000,4.000000,4.000000,4.000000,4.000000,4.000000,4.000000,100.000000
1614475104.197338,33.000000,0.000000,-2.439324,17.178604,-22.988596,-38.749077,0.241823,3.800167,-13.896467,-23.833462,-0.007215,-26.147522,-20.449133,-16.853094,-18.358274,-17.641676,-29.364836,-35.449154,-11.758286,-50.295872,42.171707,-12.783607,-24.081749,4.424110,-2.683492,-147.143814,14.005982,21.428553,24.028332,6.861001,7.689464,23.327747,37.614590,25.471624,8064.000000,0.000000,4.000000,,,,0.000000,4.000000,4.000000,4.000000,4.000000,4.000000,4.000000,4.000000,4.000000,4.000000,4.000000,4.000000,4.000000,4.000000,4.000000,4.000000,4.000000,4.000000,4.000000,4.000000,4.000000,4.000000,4.000000,4.000000,4.000000,4.000000,4.000000,4.000000,4.000000,4.000000,4.000000,4.000000,4.000000,100.000000
1614475104.205187,34.000000,0.000000,4.229782,19.212708,-3.991247,-37.684689,-4.886624,4.309187,-6.190263,-15.604499,2.044074,-19.454708,-28.633812,-7.605471,-0.391199,-20.700958,-17.540598,-45.670116,-4.567040,-64.604553,25.206459,-22.514414,-28.673052,-3.785442,16.293550,-153.150528,1.684284,26.022509,26.568405,-3.402270,2.040749,20.227497,31.423128,17.753845,8064.000000,0.000000,4.000000,,,,0.000000,4.000000,4.000000,4.000000,4.000000,4.000000,4.000000,4.000000,4.000000,4.000000,4.000000,4.000000,4.000000,4.000000,4.000000,4.000000,4.000000,4.000000,4.000000,4.000000,4.000000,4.000000,4.000000,4.000000,4.000000,4.000000,4.000000,4.000000,4.000000,4.000000,4.000000,4.000000,4.000000,100.000000
1614475104.212936,35.000000,0.000000,9.353757,3.808880,4.217872,-35.082901,-12.574045,7.894622,5.097979,-3.794023,1.016389,-9.178843,-14.759025,-7.085045,-3.980551,-9.398206,-15.984596,-43.060341,2.104194,-65.052765,15.950483,-13.773951,-7.618737,-2.756015,8.584949,-148.894806,12.451831,13.688794,16.798248,6.857543,6.654093,18.155987,44.725037,32.095066,8064.000000,0.000000,4.000000,,,,0.000000,4.000000,4.000000,4.000000,4.000000,4.000000,4.000000,4.000000,4.000000,4.000000,4.000000,4.000000,4.000000,4.000000,4.000000,4.000000,4.000000,4.000000,4.000000,4.000000,4.000000,4.000000,4.000000,4.000000,4.000000,4.000000,4.000000,4.000000,4.000000,4.000000,4.000000,4.000000,4.000000,100.000000
1614475104.220785,36.000000,0.000000,-7.065853,2.779430,-4.504295,-23.252945,-6.407625,6.861086,5.605701,-16.610743,-1.548730,-4.554279,5.255735,-19.898474,-15.771442,10.098372,-13.917330,-43.017281,-9.179961,-50.628742,22.601200,-17.862741,-11.713682,-5.317362,-13.474917,-147.207443,18.080404,9.059721,16.781448,5.825045,24.083336,13.522447,46.218773,37.703995,8064.000000,0.000000,4.000000,,,,0.000000,4.000000,4.000000,4.000000,4.000000,4.000000,4.000000,4.000000,4.000000,4.000000,4.000000,4.000000,4.000000,4.000000,4.000000,4.000000,4.000000,4.000000,4.000000,4.000000,4.000000,4.000000,4.000000,4.000000,4.000000,4.000000,4.000000,4.000000,4.000000,4.000000,4.000000,4.000000,4.000000,100.000000
1614475104.228534,37.000000,0.000000,-8.084428,6.366395,-5.012611,-25.280973,-3.324295,-0.838083,4.061634,-22.235157,-3.085643,-2.498443,-12.185418,-12.699087,-10.627466,-3.245060,-14.929053,-57.333241,-18.914371,-73.142212,17.450394,-34.255135,-33.753250,-17.106916,-10.897340,-149.111526,0.113606,19.819891,20.354412,0.178194,10.725920,18.637129,37.454605,24.845779,8064.000000,0.000000,4.000000,,,,0.000000,4.000000,4.000000,4.000000,4.000000,4.000000,4.000000,4.000000,4.000000,4.000000,4.000000,4.000000,4.000000,4.000000,4.000000,4.000000,4.000000,4.000000,4.000000,4.000000,4.000000,4.000000,4.000000,4.000000,4.000000,4.000000,4.000000,4.000000,4.000000,4.000000,4.000000,4.000000,4.000000,100.000000
1614475104.236383,38.000000,0.000000,16.539042,6.872849,-4.494778,-33.973640,-4.346611,-3.401347,-1.070633,4.453745,11.789238,-10.701073,-30.121950,3.723868,-5.488634,-17.600790,-17.478228,-46.506676,-19.408278,-83.325485,4.612430,-22.426008,-36.796421,-2.730835,-4.732597,-153.577805,-2.963431,20.825712,19.821236,7.870323,-0.566857,21.182594,42.545357,32.513241,8064.000000,0.000000,4.000000,,,,0.000000,4.000000,4.000000,4.000000,4.000000,4.000000,4.000000,4.000000,4.000000,4.000000,4.000000,4.000000,4.000000,4.000000,4.000000,4.000000,4.000000,4.000000,4.000000,4.000000,4.000000,4.000000,4.000000,4.000000,4.000000,4.000000,4.000000,4.000000,4.000000,4.000000,4.000000,4.000000,4.000000,100.000000
1614475104.244132,39.000000,0.000000,13.445579,11.994181,-2.439001,-24.196079,-2.803803,1.730259,-5.684947,13.167240,13.315910,-11.716013,-14.194393,-4.484984,0.670701,3.955273,3.052072,-17.742220,-14.773484,-50.421646,14.864228,-4.454864,-30.605778,10.605229,-6.779146,-154.962677,8.321584,13.112579,22.365519,0.682966,15.843966,9.879361,44.041275,43.762779,8064.000000,0.000000,4.000000,,,,0.000000,4.000000,4.000000,4.000000,4.000000,4.000000,4.000000,4.000000,4.000000,4.000000,4.000000,4.000000,4.000000,4.000000,4.000000,4.000000,4.000000,4.000000,4.000000,4.000000,4.000000,4.000000,4.000000,4.000000,4.000000,4.000000,4.000000,4.000000,4.000000,4.000000,4.000000,4.000000,4.000000,100.000000
1614475104.251981,40.000000,0.000000,-7.080687,5.828341,5.255746,-12.377010,-7.416384,5.318273,-0.038236,-10.948491,-12.851253,5.218780,-6.487891,-11.147165,5.798236,13.694907,16.895174,-16.698837,-8.092045,-46.268658,29.208338,-7.527332,-19.293121,-9.405376,-5.746726,-140.961563,8.313262,10.022544,15.676486,-4.958743,12.751199,7.818200,37.843388,28.847221,8064.000000,0.000000,4.000000,,,,0.000000,4.000000,4.000000,4.000000,4.000000,4.000000,4.000000,4.000000,4.000000,4.000000,4.000000,4.000000,4.000000,4.000000,4.000000,4.000000,4.000000,4.000000,4.000000,4.000000,4.000000,4.000000,4.000000,4.000000,4.000000,4.000000,4.000000,4.000000,4.000000,4.000000,4.000000,4.000000,4.000000,100.000000
1614475104.259730,41.000000,0.000000,-1.945401,-0.844155,2.686388,-13.390275,-1.255121,4.800134,5.090007,-18.117029,-17.453785,10.341766,-13.148069,-2.418070,-7.028075,1.886341,-3.121722,-27.964190,-12.186517,-77.504440,31.743233,-7.519804,-3.376392,-13.498535,-9.843543,-124.923164,13.945975,11.550983,6.942860,12.994934,-4.184629,20.630894,38.831184,19.074785,8064.000000,0.000000,4.000000,,,,0.000000,4.000000,4.000000,4.000000,4.000000,4.000000,4.000000,4.000000,4.000000,4.000000,4.000000,4.000000,4.000000,4.000000,4.000000,4.000000,4.000000,4.000000,4.000000,4.000000,4.000000,4.000000,4.000000,4.000000,4.000000,4.000000,4.000000,4.000000,4.000000,4.000000,4.000000,4.000000,4.000000,100.000000
1614475104.267579,42.000000,0.000000,8.312954,16.079767,-1.418863,-13.889705,19.771774,3.256872,5.084918,-6.816862,5.640592,-0.950627,-11.596460,-1.390011,-4.456945,1.884455,-7.733984,-22.295198,-16.789715,-65.119247,49.147388,-2.384079,-5.937118,10.104707,-4.192674,-122.746964,21.624336,20.770201,21.807713,16.058863,5.050324,24.200006,31.612865,23.158274,8064.000000,0.000000,4.000000,,,,0.000000,4.000000,4.000000,4.000000,4.000000,4.000000,4.000000,4.000000,4.000000,4.000000,4.000000,4.000000,4.000000,4.000000,4.000000,4.000000,4.000000,4.000000,4.000000,4.000000,4.000000,4.000000,4.000000,4.000000,4.000000,4.000000,4.000000,4.000000,4.000000,4.000000,4.000000,4.000000,4.000000,100.000000
1614475104.275328,43.000000,0.000000,11.381564,21.704712,8.326145,-15.927097,14.110977,5.304897,7.643935,-2.194660,10.763156,-1.462496,-13.123325,3.226764,19.137257,-0.168712,10.735288,-15.606237,-1.901130,-44.541306,67.559776,2.746510,-6.956822,12.658705,21.452543,-124.162674,15.448866,30.493021,36.144878,4.247931,14.276043,20.073242,25.940228,22.622295,8064.000000,0.000000,4.000000,,,,0.000000,4.000000,4.000000,4.000000,4.000000,4.000000,4.000000,4.000000,4.000000,4.000000,4.000000,4.000000,4.000000,4.000000,4.000000,4.000000,4.000000,4.000000,4.000000,4.000000,4.000000,4.000000,4.000000,4.000000,4.000000,4.000000,4.000000,4.000000,4.000000,4.000000,4.000000,4.000000,4.000000,100.000000
1614475104.283177,44.000000,0.000000,14.447106,1.170187,18.574230,-17.962452,-7.954416,10.940618,6.097829,-3.730927,0.495983,8.795377,-10.546100,13.992768,13.989913,-1.194184,8.160450,-12.000888,9.382822,-49.112148,59.799911,22.230944,17.152699,5.466559,23.482374,-114.807747,24.151365,23.795860,25.339504,17.577017,11.184844,19.540350,44.375824,34.907364,8064.000000,0.000000,4.000000,,,,0.000000,4.000000,4.000000,4.000000,4.000000,4.000000,4.000000,4.000000,4.000000,4.000000,4.000000,4.000000,4.000000,4.000000,4.000000,4.000000,4.000000,4.000000,4.000000,4.000000,4.000000,4.000000,4.000000,4.000000,4.000000,4.000000,4.000000,4.000000,4.000000,4.000000,4.000000,4.000000,4.000000,100.000000
1614475104.290927,45.000000,0.000000,0.586505,-0.882265,21.119759,-10.765002,-3.331077,10.416857,3.014809,-12.957965,-0.530154,13.914786,5.361883,4.748006,-4.485615,17.781368,-1.591300,-11.476066,-0.370150,-40.857906,57.688828,29.388199,23.289392,8.025195,6.022994,-107.000633,41.563110,15.566937,19.160318,22.687645,17.327505,19.520809,50.998116,48.205791,8064.000000,0.000000,4.000000,,,,0.000000,4.000000,4.000000,4.000000,4.000000,4.000000,4.000000,4.000000,4.000000,4.000000,4.000000,4.000000,4.000000,4.000000,4.000000,4.000000,4.000000,4.000000,4.000000,4.000000,4.000000,4.000000,4.000000,4.000000,4.000000,4.000000,4.000000,4.000000,4.000000,4.000000,4.000000,4.000000,4.000000,100.000000
1614475104.298775,46.000000,0.000000,-7.106389,13.990412,14.431972,-16.395264,2.313280,0.662850,4.550255,-22.688597,0.496017,7.234205,-1.822966,-8.077255,5.775281,14.173844,-4.666632,-27.874846,-8.062088,-48.509357,63.272163,4.230606,-1.349281,-0.187958,16.273380,-114.585938,23.060011,24.269320,23.756542,1.639316,16.284536,21.552570,30.434298,29.696047,8064.000000,0.000000,4.000000,,,,0.000000,4.000000,4.000000,4.000000,4.000000,4.000000,4.000000,4.000000,4.000000,4.000000,4.000000,4.000000,4.000000,4.000000,4.000000,4.000000,4.000000,4.000000,4.000000,4.000000,4.000000,4.000000,4.000000,4.000000,4.000000,4.000000,4.000000,4.000000,4.000000,4.000000,4.000000,4.000000,4.000000,100.000000
1614475104.306525,47.000000,0.000000,18.541742,10.386678,-10.197845,-39.455791,-13.073648,-4.466018,-2.633782,-11.383857,2.546803,-11.747389,-27.974989,-5.505075,15.513095,-15.071099,-26.200426,-45.795689,-5.489923,-80.768539,39.619148,-10.645420,-16.732548,-1.726232,25.487877,-135.496994,-1.578434,24.757870,13.989196,-1.439246,7.550304,18.966915,20.660273,10.691992,8064.000000,0.000000,4.000000,,,,0.000000,4.000000,4.000000,4.000000,4.000000,4.000000,4.000000,4.000000,4.000000,4.000000,4.000000,4.000000,4.000000,4.000000,4.000000,4.000000,4.000000,4.000000,4.000000,4.000000,4.000000,4.000000,4.000000,4.000000,4.000000,4.000000,4.000000,4.000000,4.000000,4.000000,4.000000,4.000000,4.000000,100.000000
1614475104.314174,48.000000,0.000000,23.651405,1.145522,-27.623545,-47.621464,-18.188780,-3.435911,-12.887559,-2.654525,-0.019847,-23.017693,-28.459835,-10.114955,4.728352,-8.389361,-38.481918,-49.339638,-5.484433,-83.764694,14.964146,-7.557851,-16.715815,8.531905,4.436748,-146.643539,5.089811,6.271574,4.744437,2.664757,10.619677,2.024871,19.613972,17.860786,8064.000000,0.000000,4.000000,,,,0.000000,4.000000,4.000000,4.000000,4.000000,4.000000,4.000000,4.000000,4.000000,4.000000,4.000000,4.000000,4.000000,4.000000,4.000000,4.000000,4.000000,4.000000,4.000000,4.000000,4.000000,4.000000,4.000000,4.000000,4.000000,4.000000,4.000000,4.000000,4.000000,4.000000,4.000000,4.000000,4.000000,100.000000
1614475104.321923,49.000000,0.000000,-5.603014,-1.419726,-16.313869,-37.830254,-16.119308,-3.432475,-9.284927,-20.087767,-21.558289,-10.686982,-15.098042,-18.822788,-0.404582,15.721592,-16.904976,-49.290298,-6.504590,-68.296318,20.077387,-16.781063,-10.545253,-5.835601,-9.413842,-134.189209,6.623183,-4.503929,6.790975,-12.209702,7.532134,-8.746385,11.902050,14.253182,8064.000000,0.000000,4.000000,,,,0.000000,4.000000,4.000000,4.000000,4.000000,4.000000,4.000000,4.000000,4.000000,4.000000,4.000000,4.000000,4.000000,4.000000,4.000000,4.000000,4.000000,4.000000,4.000000,4.000000,4.000000,4.000000,4.000000,4.000000,4.000000,4.000000,4.000000,4.000000,4.000000,4.000000,4.000000,4.000000,4.000000,100.000000
1614475104.329572,50.000000,0.000000,-11.751258,-9.623434,-15.271914,-35.741138,-18.667292,-2.403401,-5.173079,-26.734346,-30.767500,-2.471167,-14.057302,-10.598837,-0.916998,7.500742,-8.682942,-41.548698,-5.985265,-76.433144,25.185514,-23.430948,-5.919323,-17.624638,-12.994172,-125.337074,-4.152671,-0.909681,2.681620,-11.171852,-6.834373,-0.019690,15.479892,2.956878,8064.000000,0.000000,4.000000,,,,0.000000,4.000000,4.000000,4.000000,4.000000,4.000000,4.000000,4.000000,4.000000,4.000000,4.000000,4.000000,4.000000,4.000000,4.000000,4.000000,4.000000,4.000000,4.000000,4.000000,4.000000,4.000000,4.000000,4.000000,4.000000,4.000000,4.000000,4.000000,4.000000,4.000000,4.000000,4.000000,4.000000,100.000000
1614475104.337321,51.000000,0.000000,3.645109,-7.562529,-33.718182,-39.807964,-10.443497,-4.452280,-9.783290,-11.322997,-9.711091,-15.289209,-10.453502,-0.844649,-2.967363,-6.352912,-18.930670,-27.660997,-8.030561,-72.254150,24.647509,-15.715210,-19.759558,4.957089,-16.570921,-135.980972,-1.071596,1.142511,3.704579,5.762397,-4.263436,6.646997,17.515694,8.594947,8064.000000,0.000000,4.000000,,,,0.000000,4.000000,4.000000,4.000000,4.000000,4.000000,4.000000,4.000000,4.000000,4.000000,4.000000,4.000000,4.000000,4.000000,4.000000,4.000000,4.000000,4.000000,4.000000,4.000000,4.000000,4.000000,4.000000,4.000000,4.000000,4.000000,4.000000,4.000000,4.000000,4.000000,4.000000,4.000000,4.000000,100.000000
1614475104.344970,52.000000,0.000000,5.179925,2.701444,-29.581900,-39.768154,-12.484336,-8.037571,-6.696584,-6.696289,-3.034713,-17.838022,-8.904587,-0.330984,4.215092,-3.782457,-7.116867,-29.171799,-3.919967,-57.310101,31.289528,-14.161033,-27.944927,13.157261,2.420008,-142.511658,-0.044883,0.628548,17.034208,1.654070,5.997238,4.076247,9.293050,8.073531,8064.000000,0.000000,4.000000,,,,0.000000,4.000000,4.000000,4.000000,4.000000,4.000000,4.000000,4.000000,4.000000,4.000000,4.000000,4.000000,4.000000,4.000000,4.000000,4.000000,4.000000,4.000000,4.000000,4.000000,4.000000,4.000000,4.000000,4.000000,4.000000,4.000000,4.000000,4.000000,4.000000,4.000000,4.000000,4.000000,4.000000,100.000000
1614475104.352719,53.000000,0.000000,1.072181,-3.967924,-9.552318,-40.754028,-30.420568,0.175595,-4.125784,-6.689593,-19.441935,-2.948389,-13.511066,-0.330653,5.236517,0.323890,7.249224,-28.116985,1.212158,-56.227150,28.694136,-4.403282,-4.840058,-4.291794,13.186819,-135.702469,3.032085,0.115098,19.068457,-5.527071,9.580984,4.072171,21.078629,10.116740,8064.000000,0.000000,4.000000,,,,0.000000,4.000000,4.000000,4.000000,4.000000,4.000000,4.000000,4.000000,4.000000,4.000000,4.000000,4.000000,4.000000,4.000000,4.000000,4.000000,4.000000,4.000000,4.000000,4.000000,4.000000,4.000000,4.000000,4.000000,4.000000,4.000000,4.000000,4.000000,4.000000,4.000000,4.000000,4.000000,4.000000,100.000000
1614475104.360369,54.000000,0.000000,-2.518634,-12.169085,-7.491483,-39.174812,-20.133738,5.303624,-7.711402,-8.734185,-18.396852,-1.406979,-1.189864,-5.971348,-8.614873,9.554335,-0.963153,-10.140150,-5.968541,-43.350410,33.793648,13.549839,10.036576,-1.723400,-9.903291,-133.515488,26.618797,-1.423478,14.434003,3.709225,17.263712,5.093740,37.980629,30.619444,8192.000000,0.000000,4.000000,,,,0.000000,4.000000,4.000000,4.000000,4.000000,4.000000,4.000000,4.000000,4.000000,4.000000,4.000000,4.000000,4.000000,4.000000,4.000000,4.000000,4.000000,4.000000,4.000000,4.000000,4.000000,4.000000,4.000000,4.000000,4.000000,4.000000,4.000000,4.000000,4.000000,4.000000,4.000000,4.000000,4.000000,100.000000
1614475104.368118,55.000000,0.000000,-2.516116,-1.387685,-14.150658,-37.597176,-2.164887,-5.983731,-5.652409,-27.699810,-9.660506,-10.636342,5.990814,-12.119223,-6.042155,12.108883,-8.654497,-9.617189,-11.603599,-38.691673,56.836777,7.895264,-1.768332,4.432170,-9.380568,-132.869156,29.669102,3.193330,18.522133,7.295260,14.169524,6.627108,29.224697,27.511902,8192.000000,0.000000,4.000000,,,,0.000000,4.000000,4.000000,4.000000,4.000000,4.000000,4.000000,4.000000,4.000000,4.000000,4.000000,4.000000,4.000000,4.000000,4.000000,4.000000,4.000000,4.000000,4.000000,4.000000,4.000000,4.000000,4.000000,4.000000,4.000000,4.000000,4.000000,4.000000,4.000000,4.000000,4.000000,4.000000,4.000000,100.000000
1614475104.375767,56.000000,0.000000,14.922297,7.331652,-15.674969,-52.944195,-20.111439,-10.080311,-9.749320,-30.749033,-13.240589,-14.728270,-19.143383,-6.466077,13.451066,-9.954508,-10.697125,-26.017828,-2.361225,-63.781189,55.754299,0.195061,-8.946051,-2.238929,17.295481,-133.249100,1.434304,10.882444,15.939508,2.672580,-2.767722,9.697404,19.451883,6.458748,8064.000000,0.000000,4.000000,,,,0.000000,4.000000,4.000000,4.000000,4.000000,4.000000,4.000000,4.000000,4.000000,4.000000,4.000000,4.000000,4.000000,4.000000,4.000000,4.000000,4.000000,4.000000,4.000000,4.000000,4.000000,4.000000,4.000000,4.000000,4.000000,4.000000,4.000000,4.000000,4.000000,4.000000,4.000000,4.000000,4.000000,100.000000
1614475104.383516,57.000000,0.000000,19.522760,4.247397,-18.223396,-65.711761,-29.322098,0.186179,-19.483160,-7.641361,-11.176066,-16.252003,-35.021675,-6.972432,13.437615,-17.124041,-13.763351,-32.658478,-0.307582,-64.230225,35.185722,8.912814,-6.885822,3.917156,13.175621,-141.320984,-0.105592,10.358742,10.282543,2.669907,3.388892,7.123604,23.534996,16.195879,8064.000000,0.000000,4.000000,,,,0.000000,4.000000,4.000000,4.000000,4.000000,4.000000,4.000000,4.000000,4.000000,4.000000,4.000000,4.000000,4.000000,4.000000,4.000000,4.000000,4.000000,4.000000,4.000000,4.000000,4.000000,4.000000,4.000000,4.000000,4.000000,4.000000,4.000000,4.000000,4.000000,4.000000,4.000000,4.000000,4.000000,100.000000
1614475104.391165,58.000000,0.000000,-4.599327,4.243150,-12.564148,-44.620411,-7.754314,3.262916,-10.232908,-11.223463,-7.575147,-9.569084,-22.678961,-21.837254,-2.473258,3.405904,-14.262408,-38.266846,-11.076506,-48.781384,41.304382,-0.326868,-4.314834,3.913239,1.367573,-134.000168,21.432974,5.732998,12.836363,3.180058,22.359861,6.090839,25.562742,31.051477,8064.000000,0.000000,4.000000,,,,0.000000,4.000000,4.000000,4.000000,4.000000,4.000000,4.000000,4.000000,4.000000,4.000000,4.000000,4.000000,4.000000,4.000000,4.000000,4.000000,4.000000,4.000000,4.000000,4.000000,4.000000,4.000000,4.000000,4.000000,4.000000,4.000000,4.000000,4.000000,4.000000,4.000000,4.000000,4.000000,4.000000,100.000000
1614475104.398914,59.000000,0.000000,-11.261395,3.726086,-4.859276,-22.011686,-2.618354,1.208371,-0.479086,-31.725061,-14.747059,0.696895,-23.169102,-23.353878,-7.086170,1.864037,-26.043018,-48.484989,-14.142352,-66.681320,51.519489,-14.172695,0.817686,-14.039392,10.596974,-113.353355,15.770516,4.701624,4.618399,3.176878,15.670835,13.264235,25.537180,16.661453,8064.000000,0.000000,4.000000,,,,0.000000,4.000000,4.000000,4.000000,4.000000,4.000000,4.000000,4.000000,4.000000,4.000000,4.000000,4.000000,4.000000,4.000000,4.000000,4.000000,4.000000,4.000000,4.000000,4.000000,4.000000,4.000000,4.000000,4.000000,4.000000,4.000000,4.000000,4.000000,4.000000,4.000000,4.000000,4.000000,4.000000,100.000000
1614475104.406563,60.000000,0.000000,7.211406,1.158257,-16.649288,-36.348648,-11.846505,-0.331299,-12.786299,-19.385643,-12.681030,-12.124314,-32.889523,-10.510012,-7.079083,-19.676289,-48.581078,-45.872402,-12.076927,-75.332588,36.596176,-3.389291,-5.336978,-10.435609,6.483814,-119.393845,-0.142690,3.671281,-3.078528,3.173701,3.860293,14.276612,20.383438,6.388381,8064.000000,0.000000,4.000000,,,,0.000000,4.000000,4.000000,4.000000,4.000000,4.000000,4.000000,4.000000,4.000000,4.000000,4.000000,4.000000,4.000000,4.000000,4.000000,4.000000,4.000000,4.000000,4.000000,4.000000,4.000000,4.000000,4.000000,4.000000,4.000000,4.000000,4.000000,4.000000,4.000000,4.000000,4.000000,4.000000,4.000000,100.000000
1614475104.414312,61.000000,0.000000,10.793938,3.721202,-25.350588,-49.132813,-7.732095,-5.459172,-15.337615,-0.391899,-3.437580,-26.983986,-31.830992,-7.422579,-4.507902,-15.554049,-41.353008,-39.672684,-7.449466,-53.718792,28.354450,-1.847440,-17.126513,8.036365,-2.240619,-137.223175,-3.219471,6.744533,14.360448,-0.932037,9.497458,4.518746,8.568183,8.433274,8064.000000,0.000000,4.000000,,,,0.000000,4.000000,4.000000,4.000000,4.000000,4.000000,4.000000,4.000000,4.000000,4.000000,4.000000,4.000000,4.000000,4.000000,4.000000,4.000000,4.000000,4.000000,4.000000,4.000000,4.000000,4.000000,4.000000,4.000000,4.000000,4.000000,4.000000,4.000000,4.000000,4.000000,4.000000,4.000000,4.000000,100.000000
1614475104.421962,62.000000,0.000000,5.142118,1.153378,-10.966263,-35.750347,-9.262824,1.212953,-1.988944,-4.494071,-8.049526,-9.521104,-29.747879,-8.440798,5.240196,4.461506,-14.644989,-38.607368,5.378497,-55.203533,28.326096,-14.666106,-11.468361,3.412944,3.402647,-130.932098,-7.831636,8.789071,19.474293,-7.084951,12.564883,0.924483,8.046794,8.937662,8064.000000,0.000000,4.000000,,,,0.000000,4.000000,4.000000,4.000000,4.000000,4.000000,4.000000,4.000000,4.000000,4.000000,4.000000,4.000000,4.000000,4.000000,4.000000,4.000000,4.000000,4.000000,4.000000,4.000000,4.000000,4.000000,4.000000,4.000000,4.000000,4.000000,4.000000,4.000000,4.000000,4.000000,4.000000,4.000000,4.000000,100.000000
1614475104.429811,63.000000,0.000000,3.598515,-6.027263,-4.801450,-23.406904,-9.766382,7.365587,3.654070,-7.566500,-11.631221,7.924315,-18.948900,-7.919536,-0.406070,8.046788,-16.168806,-38.055939,2.296195,-74.635513,18.554180,-12.087337,-3.251764,-7.359700,-3.780242,-126.698608,1.406965,-3.527411,-3.109284,-9.129148,8.449755,2.462020,16.243876,15.082570,8064.000000,0.000000,4.000000,,,,0.000000,4.000000,4.000000,4.000000,4.000000,4.000000,4.000000,4.000000,4.000000,4.000000,4.000000,4.000000,4.000000,4.000000,4.000000,4.000000,4.000000,4.000000,4.000000,4.000000,4.000000,4.000000,4.000000,4.000000,4.000000,4.000000,4.000000,4.000000,4.000000,4.000000,4.000000,4.000000,4.000000,100.000000
1614475104.437560,64.000000,0.000000,-2.046109,-4.482774,-16.078699,-21.845037,5.115180,-3.411010,6.727339,-11.661497,-4.952923,-3.365661,-2.519696,-9.962898,-16.303101,5.987459,-26.409048,-42.120449,-16.167641,-78.663437,22.638191,-12.075250,-9.915179,-4.275417,-14.032872,-134.777039,16.790173,-8.652088,-9.260020,-8.607199,8.954125,-0.617365,15.201990,14.554667,0.000000,183.000000,4.000000,,,,0.000000,4.000000,4.000000,4.000000,4.000000,4.000000,4.000000,4.000000,4.000000,4.000000,4.000000,4.000000,4.000000,4.000000,4.000000,4.000000,4.000000,4.000000,4.000000,4.000000,4.000000,4.000000,4.000000,4.000000,4.000000,4.000000,4.000000,4.000000,4.000000,4.000000,4.000000,4.000000,4.000000,100.000000
1614475104.445409,65.000000,0.000000,4.109783,0.137093,-16.575441,-27.464218,2.545962,-1.356317,6.207791,-13.701118,-2.383867,-13.105885,-5.594099,0.303475,-3.979105,9.058394,-9.972382,-33.873199,-6.407882,-66.789902,42.102730,-15.652918,-5.802700,-2.732680,0.340135,-125.411491,4.465691,5.202717,6.133855,-7.572950,7.406710,5.024278,13.135507,4.283702,0.000000,188.000000,4.000000,,,,0.000000,4.000000,4.000000,4.000000,4.000000,4.000000,4.000000,4.000000,4.000000,4.000000,4.000000,4.000000,4.000000,4.000000,4.000000,4.000000,4.000000,4.000000,4.000000,4.000000,4.000000,4.000000,4.000000,4.000000,4.000000,4.000000,4.000000,4.000000,4.000000,4.000000,4.000000,4.000000,4.000000,100.000000
1614475104.453158,66.000000,0.000000,18.464647,0.136956,-11.430661,-39.231625,-11.302738,18.132219,-6.106109,1.697199,-0.843022,-11.041497,-12.767992,13.123684,14.999233,10.587798,10.550411,-6.659840,17.701090,-39.543625,51.291397,5.388376,9.074898,1.372617,10.083385,-113.491203,-4.256723,10.838540,11.255926,-5.514095,9.450585,15.275664,17.737755,16.587111,0.000000,200.000000,4.000000,,,,0.000000,4.000000,4.000000,4.000000,4.000000,4.000000,4.000000,4.000000,4.000000,4.000000,4.000000,4.000000,4.000000,4.000000,4.000000,4.000000,4.000000,4.000000,4.000000,4.000000,4.000000,4.000000,4.000000,4.000000,4.000000,4.000000,4.000000,4.000000,4.000000,4.000000,4.000000,4.000000,4.000000,100.000000
1614475104.461007,67.000000,0.000000,2.548747,1.675281,-10.393590,-29.961624,-6.676051,11.960240,-7.125644,-0.355781,-2.893461,-10.004814,-7.114198,0.290047,1.650901,11.602851,11.052681,-8.704462,8.965440,-30.273314,51.240108,15.639398,10.604284,3.422526,6.483558,-119.018738,17.798815,2.109753,8.680568,-3.970119,17.646263,9.106543,20.796940,32.467960,0.000000,182.000000,4.000000,,,,0.000000,4.000000,4.000000,4.000000,4.000000,4.000000,4.000000,4.000000,4.000000,4.000000,4.000000,4.000000,4.000000,4.000000,4.000000,4.000000,4.000000,4.000000,4.000000,4.000000,4.000000,4.000000,4.000000,4.000000,4.000000,4.000000,4.000000,4.000000,4.000000,4.000000,4.000000,4.000000,4.000000,100.000000
1614475104.468756,68.000000,0.000000,-17.966623,-3.454599,-7.819093,-11.470124,-5.643734,-8.051720,-4.554416,-27.534912,-18.275183,-7.943527,-13.773751,-15.094858,-18.350750,6.975863,-5.881448,-41.003448,-14.120449,-62.550732,42.983738,-5.914703,4.439834,-8.375769,10.579638,-124.540749,22.909222,0.056361,7.646246,-4.478970,8.397847,-1.671795,22.314606,13.461133,0.000000,180.000000,4.000000,,,,0.000000,4.000000,4.000000,4.000000,4.000000,4.000000,4.000000,4.000000,4.000000,4.000000,4.000000,4.000000,4.000000,4.000000,4.000000,4.000000,4.000000,4.000000,4.000000,4.000000,4.000000,4.000000,4.000000,4.000000,4.000000,4.000000,4.000000,4.000000,4.000000,4.000000,4.000000,4.000000,4.000000,100.000000
1614475104.476605,69.000000,0.000000,-5.128143,-14.733196,-19.093327,-26.330448,-17.432962,-11.633411,-18.908836,-27.507378,-18.256908,-14.602250,-26.580490,-6.874635,-18.332399,-7.390087,-28.439669,-39.423985,-17.183250,-78.385620,36.786907,-8.985712,3.409753,-9.393034,8.517776,-125.954666,0.835030,0.569125,1.484753,-3.961670,-10.584909,1.919621,20.753830,-9.116431,0.000000,204.000000,4.000000,,,,0.000000,4.000000,4.000000,4.000000,4.000000,4.000000,4.000000,4.000000,4.000000,4.000000,4.000000,4.000000,4.000000,4.000000,4.000000,4.000000,4.000000,4.000000,4.000000,4.000000,4.000000,4.000000,4.000000,4.000000,4.000000,4.000000,4.000000,4.000000,4.000000,4.000000,4.000000,4.000000,4.000000,100.000000
1614475104.484354,70.000000,0.000000,5.646216,-8.051796,-34.458847,-45.278477,-16.902708,-11.621778,-25.556593,-10.043972,-2.854035,-24.844059,-20.912884,-0.713914,-16.262785,-15.075005,-28.924051,-8.102509,-12.550684,-45.486721,55.211658,11.536095,-0.183400,4.462513,-1.234331,-126.854355,-4.806830,2.619838,0.457628,-3.444888,-9.035863,7.045906,10.476665,-6.543212,0.000000,184.000000,4.000000,,,,0.000000,4.000000,4.000000,4.000000,4.000000,4.000000,4.000000,4.000000,4.000000,4.000000,4.000000,4.000000,4.000000,4.000000,4.000000,4.000000,4.000000,4.000000,4.000000,4.000000,4.000000,4.000000,4.000000,4.000000,4.000000,4.000000,4.000000,4.000000,4.000000,4.000000,4.000000,4.000000,4.000000,100.000000
1614475104.492203,71.000000,0.000000,-9.231225,6.315230,-15.962851,-31.899866,-16.372986,-4.430669,-11.172062,-15.162133,-11.569130,-10.460240,-21.404791,-9.943970,-16.759342,-10.957365,-7.869485,-15.273894,-7.409928,-29.030975,62.335938,14.601481,-2.747319,0.868307,9.536134,-121.599297,-0.186639,10.822347,8.662298,-5.492725,1.742403,4.987578,8.927727,-0.382823,0.000000,212.000000,4.000000,,,,0.000000,4.000000,4.000000,4.000000,4.000000,4.000000,4.000000,4.000000,4.000000,4.000000,4.000000,4.000000,4.000000,4.000000,4.000000,4.000000,4.000000,4.000000,4.000000,4.000000,4.000000,4.000000,4.000000,4.000000,4.000000,4.000000,4.000000,4.000000,4.000000,4.000000,4.000000,4.000000,4.000000,100.000000
1614475104.499952,72.000000,0.000000,-13.837379,0.667889,5.591574,-21.611555,-21.484818,5.830172,-4.494224,-21.300817,-23.352432,4.422015,-34.203899,-13.523769,-17.255404,-9.407947,-12.477000,-42.950928,-10.992261,-60.796818,29.965908,2.279188,-3.257392,-13.491535,13.116342,-128.657181,0.326368,7.221781,8.653636,-3.435951,1.227840,4.982591,22.252132,3.720124,0.000000,195.000000,4.000000,,,,0.000000,4.000000,4.000000,4.000000,4.000000,4.000000,4.000000,4.000000,4.000000,4.000000,4.000000,4.000000,4.000000,4.000000,4.000000,4.000000,4.000000,4.000000,4.000000,4.000000,4.000000,4.000000,4.000000,4.000000,4.000000,4.000000,4.000000,4.000000,4.000000,4.000000,4.000000,4.000000,4.000000,100.000000
1614475104.507801,73.000000,0.000000,-7.156875,-7.025086,-15.439658,-28.769430,-13.258204,-10.585915,-9.105114,-21.279516,-12.047029,-16.608047,-30.067131,-15.048707,-22.879173,-7.347256,-37.592728,-44.446438,-30.468449,-77.146278,12.500044,-18.748732,-15.049006,-12.452403,-7.922416,-148.015701,5.454247,-5.093133,0.439854,-3.432515,0.713792,2.413505,21.204239,2.690763,0.000000,173.000000,4.000000,,,,0.000000,4.000000,4.000000,4.000000,4.000000,4.000000,4.000000,4.000000,4.000000,4.000000,4.000000,4.000000,4.000000,4.000000,4.000000,4.000000,4.000000,4.000000,4.000000,4.000000,4.000000,4.000000,4.000000,4.000000,4.000000,4.000000,4.000000,4.000000,4.000000,4.000000,4.000000,4.000000,4.000000,100.000000
1614475104.515550,74.000000,0.000000,-5.611256,1.187067,-36.449860,-33.356045,-11.706485,-25.959944,-12.172932,-26.386442,-10.496520,-34.027336,-30.037064,-19.649042,-14.138346,-9.904012,-39.093597,-41.325069,-29.925159,-68.863998,43.256775,-39.242805,-28.880112,-10.901489,-12.529879,-150.944611,-5.833259,-0.985476,-0.073406,-13.685493,1.225899,-0.665831,0.670215,-14.235004,0.000000,182.000000,4.000000,,,,0.000000,4.000000,4.000000,4.000000,4.000000,4.000000,4.000000,4.000000,4.000000,4.000000,4.000000,4.000000,4.000000,4.000000,4.000000,4.000000,4.000000,4.000000,4.000000,4.000000,4.000000,4.000000,4.000000,4.000000,4.000000,4.000000,4.000000,4.000000,4.000000,4.000000,4.000000,4.000000,4.000000,100.000000
1614475104.523399,75.000000,0.000000,0.548201,2.211521,-27.182640,-49.220127,-24.002470,-11.575010,-16.263323,-13.539543,-16.639870,-25.275362,-44.878822,-19.629395,2.798869,-25.791544,-32.387836,-50.514511,-7.331132,-66.743858,52.444286,-31.511253,-25.774309,-12.941870,0.303165,-143.614182,-27.878708,3.118073,1.977949,-21.876936,-4.929173,-1.177986,-11.125327,-22.938719,0.000000,210.000000,4.000000,,,,0.000000,4.000000,4.000000,4.000000,4.000000,4.000000,4.000000,4.000000,4.000000,4.000000,4.000000,4.000000,4.000000,4.000000,4.000000,4.000000,4.000000,4.000000,4.000000,4.000000,4.000000,4.000000,4.000000,4.000000,4.000000,4.000000,4.000000,4.000000,4.000000,4.000000,4.000000,4.000000,4.000000,100.000000
1614475104.531148,76.000000,0.000000,1.573294,-5.995819,-21.001612,-60.965778,-21.927185,-4.383948,-15.221418,-3.269593,-10.469384,-23.711624,-36.628815,-21.148226,-4.896237,-23.201649,-36.458012,-52.515282,-5.785339,-66.164291,33.930305,-18.146410,-16.004944,-10.364825,-6.876626,-142.957748,-19.645700,-9.705557,-2.126593,-16.214033,-2.872962,-8.869116,-9.575741,-12.659369,0.000000,167.000000,4.000000,,,,0.000000,4.000000,4.000000,4.000000,4.000000,4.000000,4.000000,4.000000,4.000000,4.000000,4.000000,4.000000,4.000000,4.000000,4.000000,4.000000,4.000000,4.000000,4.000000,4.000000,4.000000,4.000000,4.000000,4.000000,4.000000,4.000000,4.000000,4.000000,4.000000,4.000000,4.000000,4.000000,4.000000,100.000000
1614475104.538797,77.000000,0.000000,-8.684690,-7.528285,-18.929329,-40.904812,-10.110387,-8.482128,-9.565171,-24.804785,-15.587120,-21.123810,-19.669109,-24.204000,-19.250315,-1.639986,-32.318993,-54.001228,-16.548784,-74.816078,28.768169,-31.974417,-14.450478,-17.021128,-20.203083,-136.148117,-0.651696,-13.285595,-5.714210,-11.582434,2.258116,-12.449990,-0.848216,-10.595428,0.000000,193.000000,4.000000,,,,0.000000,4.000000,4.000000,4.000000,4.000000,4.000000,4.000000,4.000000,4.000000,4.000000,4.000000,4.000000,4.000000,4.000000,4.000000,4.000000,4.000000,4.000000,4.000000,4.000000,4.000000,4.000000,4.000000,4.000000,4.000000,4.000000,4.000000,4.000000,4.000000,4.000000,4.000000,4.000000,4.000000,100.000000
1614475104.546546,78.000000,0.000000,-6.111902,-8.546397,-15.833476,-31.633139,-8.048994,-0.268517,-11.606889,-30.421005,-18.135635,-7.769353,-29.393030,-12.897745,-9.487475,-5.740911,-28.184109,-58.562611,-13.455313,-98.843826,22.585554,-36.557827,-13.923207,-22.132311,-21.721340,-128.832489,-6.804890,-1.990258,-7.246957,-12.083672,-7.487732,2.434255,11.973145,-12.123294,0.000000,183.000000,4.000000,,,,0.000000,4.000000,4.000000,4.000000,4.000000,4.000000,4.000000,4.000000,4.000000,4.000000,4.000000,4.000000,4.000000,4.000000,4.000000,4.000000,4.000000,4.000000,4.000000,4.000000,4.000000,4.000000,4.000000,4.000000,4.000000,4.000000,4.000000,4.000000,4.000000,4.000000,4.000000,4.000000,4.000000,100.000000
1614475104.554195,79.000000,0.000000,6.201902,-5.460928,-24.022770,-42.883556,-5.989663,0.244572,-12.108102,-5.775200,-0.168782,-14.428250,-27.825176,1.474127,-0.247219,-13.427477,-27.643103,-41.580971,-9.339293,-90.539848,18.973225,-17.546909,-14.422104,-4.161461,-20.673979,-135.883148,-14.490393,2.627116,-5.188428,-10.533127,-11.069987,6.021564,12.473992,-0.316299,0.000000,178.000000,4.000000,,,,0.000000,4.000000,4.000000,4.000000,4.000000,4.000000,4.000000,4.000000,4.000000,4.000000,4.000000,4.000000,4.000000,4.000000,4.000000,4.000000,4.000000,4.000000,4.000000,4.000000,4.000000,4.000000,4.000000,4.000000,4.000000,4.000000,4.000000,4.000000,4.000000,4.000000,4.000000,4.000000,4.000000,100.000000
1614475104.561945,80.000000,0.000000,3.631598,3.262482,-18.870543,-30.532980,-6.496494,-5.909519,-0.301122,-3.205323,-2.732715,-18.516386,-4.720427,1.985473,-1.272612,7.611591,-3.512896,-15.898364,-5.227390,-57.628799,38.954254,-7.785773,-13.382041,3.022188,-8.345613,-133.183151,-8.322057,1.598848,5.585991,-15.137979,5.351339,-7.830611,0.666646,5.837863,0.000000,172.000000,4.000000,,,,0.000000,4.000000,4.000000,4.000000,4.000000,4.000000,4.000000,4.000000,4.000000,4.000000,4.000000,4.000000,4.000000,4.000000,4.000000,4.000000,4.000000,4.000000,4.000000,4.000000,4.000000,4.000000,4.000000,4.000000,4.000000,4.000000,4.000000,4.000000,4.000000,4.000000,4.000000,4.000000,4.000000,100.000000
1614475104.569594,81.000000,0.000000,1.063864,-3.920268,1.148328,-9.989627,-10.079741,7.942544,6.365846,-11.407246,-17.601778,4.579053,2.463780,0.445026,0.779942,16.834749,14.439335,-12.805543,4.521427,-53.468605,45.581966,-1.111321,1.503136,-10.826988,4.483246,-115.101257,6.558061,-0.454033,14.298354,-12.558738,12.012654,-2.694576,16.563416,8.396129,0.000000,177.000000,4.000000,,,,0.000000,4.000000,4.000000,4.000000,4.000000,4.000000,4.000000,4.000000,4.000000,4.000000,4.000000,4.000000,4.000000,4.000000,4.000000,4.000000,4.000000,4.000000,4.000000,4.000000,4.000000,4.000000,4.000000,4.000000,4.000000,4.000000,4.000000,4.000000,4.000000,4.000000,4.000000,4.000000,4.000000,100.000000
1614475104.577343,82.000000,0.000000,10.293569,-8.018912,-5.006667,-9.466816,3.263672,12.037166,4.821018,1.424675,-3.225201,13.292423,6.563881,5.059966,-4.861863,5.535863,-6.087925,-13.305557,1.439983,-70.851036,39.382538,15.812867,16.373428,-3.123853,-0.136622,-106.268204,26.551502,-0.453579,12.745594,8.479463,2.257052,16.795298,47.828903,22.233887,0.000000,181.000000,4.000000,,,,0.000000,4.000000,4.000000,4.000000,4.000000,4.000000,4.000000,4.000000,4.000000,4.000000,4.000000,4.000000,4.000000,4.000000,4.000000,4.000000,4.000000,4.000000,4.000000,4.000000,4.000000,4.000000,4.000000,4.000000,4.000000,4.000000,4.000000,4.000000,4.000000,4.000000,4.000000,4.000000,4.000000,100.000000
1614475104.584992,83.000000,0.000000,9.770454,11.989107,-16.283710,-5.354785,14.542459,-2.846666,6.867479,4.500173,8.060075,3.022720,15.275266,8.131828,-7.933925,7.068789,-10.697222,-2.010201,-2.151201,-50.780186,63.958538,16.309875,9.177567,14.315167,8.581464,-105.136292,23.960848,14.418670,15.296951,14.624829,-0.309308,18.829784,41.627228,17.596268,0.000000,183.000000,4.000000,,,,0.000000,4.000000,4.000000,4.000000,4.000000,4.000000,4.000000,4.000000,4.000000,4.000000,4.000000,4.000000,4.000000,4.000000,4.000000,4.000000,4.000000,4.000000,4.000000,4.000000,4.000000,4.000000,4.000000,4.000000,4.000000,4.000000,4.000000,4.000000,4.000000,4.000000,4.000000,4.000000,4.000000,100.000000
1614475104.592741,84.000000,0.000000,5.658120,17.618143,-5.498197,-10.477635,-2.907980,-0.792538,2.245227,-5.247917,-6.306960,0.968415,-0.124625,7.098056,4.381701,3.471976,9.826296,-2.008190,12.722745,-33.293507,78.766373,11.165360,-3.652123,6.608545,29.085703,-105.543976,0.347144,22.096560,20.922680,0.251230,1.742283,12.657109,13.893293,-5.498252,0.000000,189.000000,4.000000,,,,0.000000,4.000000,4.000000,4.000000,4.000000,4.000000,4.000000,4.000000,4.000000,4.000000,4.000000,4.000000,4.000000,4.000000,4.000000,4.000000,4.000000,4.000000,4.000000,4.000000,4.000000,4.000000,4.000000,4.000000,4.000000,4.000000,4.000000,4.000000,4.000000,4.000000,4.000000,4.000000,4.000000,100.000000
1614475104.600390,85.000000,0.000000,7.190924,-1.886654,-9.082442,-31.492800,-16.238405,5.362101,-12.115993,-2.165746,-9.377576,-6.212040,-13.970654,-0.088529,-2.289347,-6.787906,2.636982,-16.877977,15.786945,-49.157650,54.585045,20.897785,-3.648471,-2.116012,21.364309,-114.669205,8.039104,2.074462,15.260732,-1.287483,0.714900,7.516247,15.930682,-1.390190,0.000000,191.000000,4.000000,,,,0.000000,4.000000,4.000000,4.000000,4.000000,4.000000,4.000000,4.000000,4.000000,4.000000,4.000000,4.000000,4.000000,4.000000,4.000000,4.000000,4.000000,4.000000,4.000000,4.000000,4.000000,4.000000,4.000000,4.000000,4.000000,4.000000,4.000000,4.000000,4.000000,4.000000,4.000000,4.000000,4.000000,100.000000
1614475104.608139,86.000000,0.000000,1.542707,-6.500152,-21.893873,-24.281818,-3.401654,-3.874030,-8.514132,-4.214862,-8.855377,-9.282751,-1.136171,-6.755107,-18.697313,6.039395,-11.211808,-23.527765,0.899364,-57.313622,50.427895,13.697399,-1.593541,0.963027,3.394227,-117.631462,23.415680,-5.107100,6.527522,5.893291,2.252647,3.918987,27.196802,10.918893,0.000000,198.000000,4.000000,,,,0.000000,4.000000,4.000000,4.000000,4.000000,4.000000,4.000000,4.000000,4.000000,4.000000,4.000000,4.000000,4.000000,4.000000,4.000000,4.000000,4.000000,4.000000,4.000000,4.000000,4.000000,4.000000,4.000000,4.000000,4.000000,4.000000,4.000000,4.000000,4.000000,4.000000,4.000000,4.000000,4.000000,100.000000
1614475104.615789,87.000000,0.000000,-1.022938,-1.365447,-14.692492,-9.385742,2.242773,-2.844515,5.340535,-13.441417,-16.538830,7.136788,3.480350,4.533699,-0.729898,14.751304,-5.046751,-15.299109,3.462567,-57.256306,66.787727,-10.931683,-3.130409,-5.704603,7.493397,-107.257416,6.469188,14.385187,4.469712,4.348937,-2.364990,11.607376,18.964478,-4.989462,0.000000,176.000000,4.000000,,,,0.000000,4.000000,4.000000,4.000000,4.000000,4.000000,4.000000,4.000000,4.000000,4.000000,4.000000,4.000000,4.000000,4.000000,4.000000,4.000000,4.000000,4.000000,4.000000,4.000000,4.000000,4.000000,4.000000,4.000000,4.000000,4.000000,4.000000,4.000000,4.000000,4.000000,4.000000,4.000000,4.000000,100.000000
1614475104.623538,88.000000,0.000000,10.772957,-1.876902,-16.729082,-29.889177,-4.938957,1.260893,-0.305831,-8.812591,-10.881266,0.975805,-4.728259,13.759934,18.245190,5.505784,-11.708370,-9.129965,18.330898,-63.352898,61.079910,-8.356648,-3.127279,-3.134796,11.588468,-108.175804,-2.255230,14.883622,3.952422,3.831767,-6.465189,11.082948,11.766026,-18.830626,0.000000,187.000000,4.000000,,,,0.000000,4.000000,4.000000,4.000000,4.000000,4.000000,4.000000,4.000000,4.000000,4.000000,4.000000,4.000000,4.000000,4.000000,4.000000,4.000000,4.000000,4.000000,4.000000,4.000000,4.000000,4.000000,4.000000,4.000000,4.000000,4.000000,4.000000,4.000000,4.000000,4.000000,4.000000,4.000000,4.000000,100.000000
1614475104.631187,89.000000,0.000000,11.275004,5.817283,-22.866198,-34.987492,-5.959659,-7.458316,-13.126039,-12.393521,-6.255000,-22.614914,-4.723530,-4.202543,5.919253,11.141303,-16.824867,-21.941347,21.389492,-52.520313,54.864983,6.010683,-3.636972,15.842698,10.038418,-118.836853,5.439333,1.022585,10.615136,-3.864372,6.361788,-6.364032,6.626055,-13.170770,0.000000,170.000000,4.000000,,,,0.000000,4.000000,4.000000,4.000000,4.000000,4.000000,4.000000,4.000000,4.000000,4.000000,4.000000,4.000000,4.000000,4.000000,4.000000,4.000000,4.000000,4.000000,4.000000,4.000000,4.000000,4.000000,4.000000,4.000000,4.000000,4.000000,4.000000,4.000000,4.000000,4.000000,4.000000,4.000000,4.000000,100.000000
1614475104.638936,90.000000,0.000000,-1.556784,6.324286,-5.920255,-15.465326,-8.004982,-3.861114,-9.523169,-24.688820,-19.069258,-13.874351,-10.872653,-18.044495,-2.804615,18.822470,-3.474709,-43.970688,20.342461,-47.852406,49.681915,-3.226097,-3.633335,12.749932,16.182226,-118.205200,-2.771234,5.124126,18.296829,-13.604097,18.663118,-3.280745,6.106608,-8.542214,0.000000,167.000000,4.000000,,,,0.000000,4.000000,4.000000,4.000000,4.000000,4.000000,4.000000,4.000000,4.000000,4.000000,4.000000,4.000000,4.000000,4.000000,4.000000,4.000000,4.000000,4.000000,4.000000,4.000000,4.000000,4.000000,4.000000,4.000000,4.000000,4.000000,4.000000,4.000000,4.000000,4.000000,4.000000,4.000000,4.000000,100.000000
1614475104.646585,91.000000,0.000000,-1.555227,-5.989730,-0.786130,-20.578066,-8.509797,5.373516,-4.898261,-14.920542,-13.409163,2.036959,-20.092550,-7.257219,-6.904375,8.547237,-10.650722,-45.978001,12.629810,-72.419937,29.119411,-13.479281,-1.065599,-4.698715,10.012197,-116.548531,0.308460,12.298490,11.611865,0.768481,11.977789,19.286638,27.126143,2.235559,0.000000,202.000000,4.000000,,,,0.000000,4.000000,4.000000,4.000000,4.000000,4.000000,4.000000,4.000000,4.000000,4.000000,4.000000,4.000000,4.000000,4.000000,4.000000,4.000000,4.000000,4.000000,4.000000,4.000000,4.000000,4.000000,4.000000,4.000000,4.000000,4.000000,4.000000,4.000000,4.000000,4.000000,4.000000,4.000000,4.000000,100.000000
1614475104.654434,92.000000,0.000000,4.087354,-1.368356,-16.682779,-27.224155,2.780764,-3.349806,-5.919003,-5.162032,9.168349,-7.708667,-17.508354,0.442345,-15.615418,1.872023,-26.024687,-38.752533,-2.254614,-86.706497,31.141575,-13.465802,-8.244020,-5.206837,-0.767046,-123.611473,17.744049,12.799011,5.959228,10.511302,3.760683,23.882736,38.893890,16.079477,0.000000,202.000000,4.000000,,,,0.000000,4.000000,4.000000,4.000000,4.000000,4.000000,4.000000,4.000000,4.000000,4.000000,4.000000,4.000000,4.000000,4.000000,4.000000,4.000000,4.000000,4.000000,4.000000,4.000000,4.000000,4.000000,4.000000,4.000000,4.000000,4.000000,4.000000,4.000000,4.000000,4.000000,4.000000,4.000000,4.000000,100.000000
1614475104.662183,93.000000,0.000000,5.108908,11.966346,-12.563533,-17.453341,1.752342,-8.474662,-5.400264,-8.233792,12.236104,-9.752240,-23.644691,-1.096558,-3.804932,-0.693951,-10.101226,-48.970192,-4.816462,-86.106964,40.341202,-13.965157,-16.953726,-2.637527,6.926029,-129.128891,11.059638,18.940060,16.722500,-4.883824,3.244102,19.243469,27.572943,15.550577,0.000000,176.000000,4.000000,,,,0.000000,4.000000,4.000000,4.000000,4.000000,4.000000,4.000000,4.000000,4.000000,4.000000,4.000000,4.000000,4.000000,4.000000,4.000000,4.000000,4.000000,4.000000,4.000000,4.000000,4.000000,4.000000,4.000000,4.000000,4.000000,4.000000,4.000000,4.000000,4.000000,4.000000,4.000000,4.000000,4.000000,100.000000
1614475104.670032,94.000000,0.000000,8.693542,7.851815,-3.320200,-24.102554,-12.095564,1.790223,-7.958966,4.082133,6.070022,-1.537360,-25.672329,3.519923,10.045027,-0.180437,7.344773,-51.485325,3.393483,-86.020859,19.275221,0.920603,-10.270104,-1.609249,8.970385,-132.076675,11.561399,18.921120,25.423725,-4.366120,8.369063,19.224226,35.750500,21.176052,0.000000,193.000000,4.000000,,,,0.000000,4.000000,4.000000,4.000000,4.000000,4.000000,4.000000,4.000000,4.000000,4.000000,4.000000,4.000000,4.000000,4.000000,4.000000,4.000000,4.000000,4.000000,4.000000,4.000000,4.000000,4.000000,4.000000,4.000000,4.000000,4.000000,4.000000,4.000000,4.000000,4.000000,4.000000,4.000000,4.000000,100.000000
1614475104.677781,95.000000,0.000000,5.607925,5.792681,-8.957906,-25.104092,-4.903981,4.352536,-3.848443,12.283179,7.089593,1.541100,-0.005632,5.567685,-4.323992,19.306923,9.388710,-23.741531,3.390089,-64.396378,24.384150,16.304298,0.509396,4.033386,0.756286,-126.816399,32.575478,12.748351,24.885481,11.535682,16.565823,15.615257,52.125004,32.949749,0.000000,184.000000,4.000000,,,,0.000000,4.000000,4.000000,4.000000,4.000000,4.000000,4.000000,4.000000,4.000000,4.000000,4.000000,4.000000,4.000000,4.000000,4.000000,4.000000,4.000000,4.000000,4.000000,4.000000,4.000000,4.000000,4.000000,4.000000,4.000000,4.000000,4.000000,4.000000,4.000000,4.000000,4.000000,4.000000,4.000000,100.000000
1614475104.685630,96.000000,0.000000,-2.602810,10.402273,-6.384845,-7.130270,10.998359,0.245619,8.975918,-5.677822,0.928657,10.257508,16.917452,8.126220,-12.011976,23.390181,10.404963,0.897595,0.822597,-47.408905,57.180279,0.390558,-0.516754,-1.611673,14.088863,-107.202400,24.850595,18.889450,23.322134,7.934402,11.421051,22.266310,44.380573,22.147568,8064.000000,0.000000,4.000000,,,,0.000000,4.000000,4.000000,4.000000,4.000000,4.000000,4.000000,4.000000,4.000000,4.000000,4.000000,4.000000,4.000000,4.000000,4.000000,4.000000,4.000000,4.000000,4.000000,4.000000,4.000000,4.000000,4.000000,4.000000,4.000000,4.000000,4.000000,4.000000,4.000000,4.000000,4.000000,4.000000,4.000000,100.000000
1614475104.693379,97.000000,0.000000,5.604920,4.238025,-7.916922,-15.841089,3.807873,0.758194,2.813096,-6.697785,-3.174836,11.272891,4.080020,14.271939,-0.717913,-2.274236,3.215070,1.922338,0.821774,-61.720470,57.123096,-7.302140,-2.054699,-5.199805,30.485031,-106.069557,9.441130,26.050047,21.760351,5.362366,3.204502,33.013275,41.259270,10.843369,8064.000000,0.000000,4.000000,,,,0.000000,4.000000,4.000000,4.000000,4.000000,4.000000,4.000000,4.000000,4.000000,4.000000,4.000000,4.000000,4.000000,4.000000,4.000000,4.000000,4.000000,4.000000,4.000000,4.000000,4.000000,4.000000,4.000000,4.000000,4.000000,4.000000,4.000000,4.000000,4.000000,4.000000,4.000000,4.000000,4.000000,100.000000
1614475104.701228,98.000000,0.000000,14.830085,2.695325,-20.216698,-33.261147,-6.452345,0.244615,-16.164076,9.719170,0.418083,-5.661458,-5.154829,7.591001,1.846908,-1.759141,3.211855,-2.694969,-0.204689,-57.043365,38.091618,17.833366,-1.027003,11.215652,22.249418,-126.476311,23.277842,20.382971,27.892437,7.408285,17.047451,19.646927,45.833393,19.550474,8064.000000,0.000000,4.000000,,,,0.000000,4.000000,4.000000,4.000000,4.000000,4.000000,4.000000,4.000000,4.000000,4.000000,4.000000,4.000000,4.000000,4.000000,4.000000,4.000000,4.000000,4.000000,4.000000,4.000000,4.000000,4.000000,4.000000,4.000000,4.000000,4.000000,4.000000,4.000000,4.000000,4.000000,4.000000,4.000000,4.000000,100.000000
1614475104.708977,99.000000,0.000000,4.046024,3.718271,-7.375968,-23.997114,-6.445893,3.834114,-9.994066,2.529963,-4.197720,-0.014771,-1.559930,-0.621718,3.896343,20.293900,17.054798,-4.230735,3.898080,-27.242731,57.027885,27.046303,0.512485,10.178795,17.098963,-118.657524,26.331488,15.234384,30.428646,-3.881174,22.671429,6.293946,38.095253,19.530924,8064.000000,0.000000,4.000000,,,,0.000000,4.000000,4.000000,4.000000,4.000000,4.000000,4.000000,4.000000,4.000000,4.000000,4.000000,4.000000,4.000000,4.000000,4.000000,4.000000,4.000000,4.000000,4.000000,4.000000,4.000000,4.000000,4.000000,4.000000,4.000000,4.000000,4.000000,4.000000,4.000000,4.000000,4.000000,4.000000,4.000000,100.000000
1614475104.716826,100.000000,0.000000,-2.624689,-3.977755,9.554485,-15.767990,-5.413806,8.958486,5.400544,-6.190516,-6.244804,18.446781,-1.045550,8.096852,8.507832,12.068479,7.806973,-3.200864,3.894182,-36.959080,64.150345,8.044897,3.588896,-9.831385,17.081863,-95.974762,9.894899,13.167867,8.859756,1.250912,0.597476,18.595345,43.185364,14.896008,8064.000000,0.000000,4.000000,,,,0.000000,4.000000,4.000000,4.000000,4.000000,4.000000,4.000000,4.000000,4.000000,4.000000,4.000000,4.000000,4.000000,4.000000,4.000000,4.000000,4.000000,4.000000,4.000000,4.000000,4.000000,4.000000,4.000000,4.000000,4.000000,4.000000,4.000000,4.000000,4.000000,4.000000,4.000000,4.000000,4.000000,100.000000
1614475104.724575,101.000000,0.000000,8.147167,4.744171,-6.352505,-18.316324,3.822377,1.257219,-2.297165,2.533624,7.607594,7.146284,-2.582966,11.678499,-1.244266,-5.379488,-16.303398,-7.813047,-10.468687,-69.229813,36.393887,-5.296481,-5.132642,-2.129245,5.782731,-110.750587,8.346543,15.205981,-1.918334,19.711199,-0.428763,26.269056,51.347305,24.111881,8064.000000,0.000000,4.000000,,,,0.000000,4.000000,4.000000,4.000000,4.000000,4.000000,4.000000,4.000000,4.000000,4.000000,4.000000,4.000000,4.000000,4.000000,4.000000,4.000000,4.000000,4.000000,4.000000,4.000000,4.000000,4.000000,4.000000,4.000000,4.000000,4.000000,4.000000,4.000000,4.000000,4.000000,4.000000,4.000000,4.000000,100.000000
1614475104.732424,102.000000,0.000000,12.754404,19.098402,-23.269230,-23.426212,9.459580,-6.436346,-10.499995,3.556731,11.189731,-11.835221,-6.682947,4.487333,1.833901,-1.271544,-11.671710,-25.753952,-9.432577,-72.750328,24.049799,-6.829646,-15.896740,19.924166,9.879512,-129.101379,6.799735,23.908724,19.109224,9.435078,19.571667,20.601763,34.372883,19.472383,8064.000000,0.000000,4.000000,,,,0.000000,4.000000,4.000000,4.000000,4.000000,4.000000,4.000000,4.000000,4.000000,4.000000,4.000000,4.000000,4.000000,4.000000,4.000000,4.000000,4.000000,4.000000,4.000000,4.000000,4.000000,4.000000,4.000000,4.000000,4.000000,4.000000,4.000000,4.000000,4.000000,4.000000,4.000000,4.000000,4.000000,100.000000
1614475104.740173,103.000000,0.000000,12.228829,4.207508,-17.092113,-42.889965,-6.447315,2.800860,-6.899752,0.989072,-3.180434,-7.720822,-10.266007,5.508487,20.293606,3.857933,3.724577,-32.394863,17.243523,-52.677574,32.743698,4.459235,3.093516,16.827318,26.792709,-109.485092,3.203192,15.166866,24.731142,0.707694,17.500813,18.017057,31.774406,8.170860,8064.000000,0.000000,4.000000,,,,0.000000,4.000000,4.000000,4.000000,4.000000,4.000000,4.000000,4.000000,4.000000,4.000000,4.000000,4.000000,4.000000,4.000000,4.000000,4.000000,4.000000,4.000000,4.000000,4.000000,4.000000,4.000000,4.000000,4.000000,4.000000,4.000000,4.000000,4.000000,4.000000,4.000000,4.000000,4.000000,4.000000,100.000000
1614475104.748022,104.000000,0.000000,11.703780,-9.642853,-12.972458,-51.052204,-15.671637,6.900623,-6.380032,-1.576020,-10.356740,-1.559255,-4.101895,0.887594,11.042542,6.930998,3.720853,-22.618881,24.405766,-41.342846,39.377621,15.736827,21.551960,10.656646,17.535147,-94.503815,17.046143,-3.309839,10.860256,19.168526,11.329466,13.383657,51.742630,16.367819,8192.000000,0.000000,4.000000,,,,0.000000,4.000000,4.000000,4.000000,4.000000,4.000000,4.000000,4.000000,4.000000,4.000000,4.000000,4.000000,4.000000,4.000000,4.000000,4.000000,4.000000,4.000000,4.000000,4.000000,4.000000,4.000000,4.000000,4.000000,4.000000,4.000000,4.000000,4.000000,4.000000,4.000000,4.000000,4.000000,4.000000,100.000000
1614475104.755771,105.000000,0.000000,5.025410,4.725764,-16.549229,-31.001152,-2.835453,-3.875508,-0.732626,-19.010342,-9.833563,-3.096157,-1.533691,-8.856883,-5.378757,12.052272,0.127388,-27.211647,8.996745,-57.711761,46.517731,-1.714807,3.581691,11.158810,8.286843,-103.127258,21.131660,9.513984,17.003242,23.251921,17.471983,15.421555,43.998581,13.787348,8064.000000,0.000000,4.000000,,,,0.000000,4.000000,4.000000,4.000000,4.000000,4.000000,4.000000,4.000000,4.000000,4.000000,4.000000,4.000000,4.000000,4.000000,4.000000,4.000000,4.000000,4.000000,4.000000,4.000000,4.000000,4.000000,4.000000,4.000000,4.000000,4.000000,4.000000,4.000000,4.000000,4.000000,4.000000,4.000000,4.000000,100.000000
1614475104.763620,106.000000,0.000000,3.994743,11.900525,-20.122423,-20.713741,0.757127,-7.974197,7.473235,-21.555433,-10.849371,-3.605882,-3.583439,3.459666,7.447135,10.501758,1.152902,-30.774178,9.500568,-78.679688,45.445572,-17.610529,-7.191122,11.147651,25.201633,-106.101051,8.290016,28.991650,25.704187,13.997899,10.787844,28.226646,29.082787,0.440227,8064.000000,0.000000,4.000000,,,,0.000000,4.000000,4.000000,4.000000,4.000000,4.000000,4.000000,4.000000,4.000000,4.000000,4.000000,4.000000,4.000000,4.000000,4.000000,4.000000,4.000000,4.000000,4.000000,4.000000,4.000000,4.000000,4.000000,4.000000,4.000000,4.000000,4.000000,4.000000,4.000000,4.000000,4.000000,4.000000,4.000000,100.000000
1614475104.771370,107.000000,0.000000,12.708697,5.221958,-17.538198,-25.821232,-4.371836,-3.350838,0.286274,5.645609,-2.633393,-3.602276,8.215016,15.251078,14.106355,13.055359,9.356877,-8.179301,20.260300,-59.113831,35.656536,2.919903,7.687864,19.341631,36.971302,-108.559052,14.948393,15.629324,23.114382,13.471081,8.212954,21.018932,37.258831,16.850042,8064.000000,0.000000,4.000000,,,,0.000000,4.000000,4.000000,4.000000,4.000000,4.000000,4.000000,4.000000,4.000000,4.000000,4.000000,4.000000,4.000000,4.000000,4.000000,4.000000,4.000000,4.000000,4.000000,4.000000,4.000000,4.000000,4.000000,4.000000,4.000000,4.000000,4.000000,4.000000,4.000000,4.000000,4.000000,4.000000,4.000000,100.000000
1614475104.779019,108.000000,0.000000,10.131886,5.216736,-2.136045,-20.154385,-5.393105,-3.347487,-9.970423,10.768168,-0.066657,2.042352,12.822186,2.928134,0.246095,18.683329,21.142393,0.546827,21.265680,-31.875229,39.723442,20.865702,11.782741,17.783829,32.831768,-112.040237,31.343700,6.382926,28.732292,7.816585,17.948330,12.792786,44.913883,37.346012,8064.000000,0.000000,4.000000,,,,0.000000,4.000000,4.000000,4.000000,4.000000,4.000000,4.000000,4.000000,4.000000,4.000000,4.000000,4.000000,4.000000,4.000000,4.000000,4.000000,4.000000,4.000000,4.000000,4.000000,4.000000,4.000000,4.000000,4.000000,4.000000,4.000000,4.000000,4.000000,4.000000,4.000000,4.000000,4.000000,4.000000,100.000000
1614475104.786768,109.000000,0.000000,0.890985,-2.480788,-0.082627,-16.544487,-13.080020,-2.318499,-7.396349,-11.806703,-13.399924,12.296720,1.527312,1.386745,-2.318254,9.946697,15.993045,-13.299874,19.705952,-45.176685,54.042694,13.665348,11.258138,-3.259597,30.234835,-96.543579,31.825178,19.709875,24.600996,6.783127,9.212433,31.241531,53.074097,26.539436,8064.000000,0.000000,4.000000,,,,0.000000,4.000000,4.000000,4.000000,4.000000,4.000000,4.000000,4.000000,4.000000,4.000000,4.000000,4.000000,4.000000,4.000000,4.000000,4.000000,4.000000,4.000000,4.000000,4.000000,4.000000,4.000000,4.000000,4.000000,4.000000,4.000000,4.000000,4.000000,4.000000,4.000000,4.000000,4.000000,4.000000,100.000000
1614475104.794417,110.000000,0.000000,4.479837,-8.632154,-22.646646,-25.245892,-16.656683,-3.854642,-4.824851,-18.461561,-15.437806,7.156218,6.653990,16.257153,0.248167,4.808545,3.156539,-5.594266,16.096502,-53.849461,58.604038,9.036298,9.195597,-1.717876,23.537931,-89.780373,29.229250,19.690166,7.140498,19.084036,-4.642933,31.723110,57.123585,12.153923,8064.000000,0.000000,4.000000,,,,0.000000,4.000000,4.000000,4.000000,4.000000,4.000000,4.000000,4.000000,4.000000,4.000000,4.000000,4.000000,4.000000,4.000000,4.000000,4.000000,4.000000,4.000000,4.000000,4.000000,4.000000,4.000000,4.000000,4.000000,4.000000,4.000000,4.000000,4.000000,4.000000,4.000000,4.000000,4.000000,4.000000,100.000000
1614475104.802166,111.000000,0.000000,9.090742,3.171350,-27.239384,-29.836031,-8.947719,-11.543095,-8.922589,-13.827716,-3.114676,-7.722733,11.262720,15.728075,2.812021,11.470404,6.743126,4.154918,9.926560,-33.282787,57.519791,7.488800,-9.275137,17.258202,23.001574,-111.741875,25.097456,12.490989,14.825665,10.347003,2.541197,5.024720,34.502361,9.577666,8064.000000,0.000000,4.000000,,,,0.000000,4.000000,4.000000,4.000000,4.000000,4.000000,4.000000,4.000000,4.000000,4.000000,4.000000,4.000000,4.000000,4.000000,4.000000,4.000000,4.000000,4.000000,4.000000,4.000000,4.000000,4.000000,4.000000,4.000000,4.000000,4.000000,4.000000,4.000000,4.000000,4.000000,4.000000,4.000000,4.000000,100.000000
1614475104.809815,112.000000,0.000000,8.568830,3.168179,-9.776248,-33.395939,-18.682362,-5.377706,-9.426488,-13.301067,-5.675663,-10.791933,-8.748542,6.994399,11.527158,6.843548,14.941511,-10.208212,10.942274,-30.172583,54.385349,8.506952,-11.829965,9.548635,27.593956,-118.296799,14.303128,14.529779,24.041609,-6.586421,8.692502,5.532516,27.801191,11.106550,8064.000000,0.000000,4.000000,,,,0.000000,4.000000,4.000000,4.000000,4.000000,4.000000,4.000000,4.000000,4.000000,4.000000,4.000000,4.000000,4.000000,4.000000,4.000000,4.000000,4.000000,4.000000,4.000000,4.000000,4.000000,4.000000,4.000000,4.000000,4.000000,4.000000,4.000000,4.000000,4.000000,4.000000,4.000000,4.000000,4.000000,100.000000
1614475104.817564,113.000000,0.000000,10.611544,-16.834990,-11.304933,-37.977928,-32.509830,10.525108,-10.442702,-11.236485,-13.875116,-6.678577,-13.867999,3.397660,0.233579,-1.368423,4.670159,-21.992876,10.931333,-41.937283,51.766861,21.831779,7.669045,-2.768606,13.207389,-103.819527,19.417030,7.335763,5.043208,0.086832,9.196630,18.347496,51.875954,21.864674,8064.000000,0.000000,4.000000,,,,0.000000,4.000000,4.000000,4.000000,4.000000,4.000000,4.000000,4.000000,4.000000,4.000000,4.000000,4.000000,4.000000,4.000000,4.000000,4.000000,4.000000,4.000000,4.000000,4.000000,4.000000,4.000000,4.000000,4.000000,4.000000,4.000000,4.000000,4.000000,4.000000,4.000000,4.000000,4.000000,4.000000,100.000000
1614475104.825213,114.000000,0.000000,9.062471,-21.433538,-22.575680,-35.888668,-18.118347,4.360737,-8.893798,-21.481659,-13.348420,-9.236001,-2.572079,-5.323686,-20.279474,1.709868,-13.283229,-27.611908,0.663991,-53.690216,49.663811,16.168921,-1.056573,1.336727,-1.164793,-107.305450,22.987356,-2.415163,-5.218246,3.676489,11.751535,6.534277,43.618950,16.714605,8064.000000,0.000000,4.000000,,,,0.000000,4.000000,4.000000,4.000000,4.000000,4.000000,4.000000,4.000000,4.000000,4.000000,4.000000,4.000000,4.000000,4.000000,4.000000,4.000000,4.000000,4.000000,4.000000,4.000000,4.000000,4.000000,4.000000,4.000000,4.000000,4.000000,4.000000,4.000000,4.000000,4.000000,4.000000,4.000000,4.000000,100.000000
1614475104.832963,115.000000,0.000000,9.053409,-13.719797,-31.271051,-49.698933,-11.946383,-12.053881,-7.859263,-36.331970,-20.001740,-19.995996,-15.390020,-8.908106,-10.515606,-8.548252,-23.526356,-38.353527,-1.900776,-76.713448,34.229534,-12.565196,-23.619619,-6.869738,8.579962,-118.993019,-0.625374,1.689817,-1.623284,-8.634880,-0.055088,-3.215847,14.857382,-13.045700,8064.000000,0.000000,4.000000,,,,0.000000,4.000000,4.000000,4.000000,4.000000,4.000000,4.000000,4.000000,4.000000,4.000000,4.000000,4.000000,4.000000,4.000000,4.000000,4.000000,4.000000,4.000000,4.000000,4.000000,4.000000,4.000000,4.000000,4.000000,4.000000,4.000000,4.000000,4.000000,4.000000,4.000000,4.000000,4.000000,4.000000,100.000000
1614475104.840612,116.000000,0.000000,12.121278,-15.757360,-49.701321,-76.315903,-32.447258,-9.477724,-19.646276,-29.116152,-30.238148,-30.232410,-29.220783,-9.924839,0.264141,-20.847397,-24.528471,-40.879276,3.229330,-80.226479,13.682483,-15.629554,-14.878051,-8.914150,9.084202,-121.950951,-14.470902,-2.927258,-8.801147,-10.677526,-7.747340,-3.725452,14.329704,-20.212141,8064.000000,0.000000,4.000000,,,,0.000000,4.000000,4.000000,4.000000,4.000000,4.000000,4.000000,4.000000,4.000000,4.000000,4.000000,4.000000,4.000000,4.000000,4.000000,4.000000,4.000000,4.000000,4.000000,4.000000,4.000000,4.000000,4.000000,4.000000,4.000000,4.000000,4.000000,4.000000,4.000000,4.000000,4.000000,4.000000,4.000000,100.000000
1614475104.848361,117.000000,0.000000,2.878388,-16.254423,-54.267002,-72.649841,-35.491734,-0.750297,-29.370218,-22.420370,-32.259190,-30.714998,-16.883871,-20.684145,-8.454072,-3.390651,-16.811634,-44.940960,3.226101,-56.556511,20.848288,3.360434,-2.042660,8.017840,-4.258215,-119.264893,3.492286,-13.180740,-3.151321,-10.154029,9.183484,-15.003778,13.289733,-5.320134,8064.000000,0.000000,4.000000,,,,0.000000,4.000000,4.000000,4.000000,4.000000,4.000000,4.000000,4.000000,4.000000,4.000000,4.000000,4.000000,4.000000,4.000000,4.000000,4.000000,4.000000,4.000000,4.000000,4.000000,4.000000,4.000000,4.000000,4.000000,4.000000,4.000000,4.000000,4.000000,4.000000,4.000000,4.000000,4.000000,4.000000,100.000000
1614475104.856010,118.000000,0.000000,-5.329619,-13.674066,-34.212734,-51.551548,-25.712652,-2.288009,-18.058798,-31.628719,-34.791035,-19.915052,-9.687500,-17.073717,-1.778951,16.612740,-6.538413,-47.972942,9.376720,-53.423031,44.417183,5.408356,-0.502155,3.907259,2.412709,-100.171272,16.309307,-6.500894,9.672343,-10.656695,14.815326,-14.475953,8.148238,-7.366096,8064.000000,0.000000,4.000000,,,,0.000000,4.000000,4.000000,4.000000,4.000000,4.000000,4.000000,4.000000,4.000000,4.000000,4.000000,4.000000,4.000000,4.000000,4.000000,4.000000,4.000000,4.000000,4.000000,4.000000,4.000000,4.000000,4.000000,4.000000,4.000000,4.000000,4.000000,4.000000,4.000000,4.000000,4.000000,4.000000,4.000000,100.000000
1614475104.863759,119.000000,0.000000,8.009044,-15.711674,-29.050318,-48.935894,-23.122837,-3.311362,-5.733047,-24.930424,-22.961372,-14.254112,-7.626530,10.122844,11.556161,7.878178,-8.070335,-24.848047,15.008369,-63.113197,53.603535,2.326025,8.216295,-2.250495,11.128245,-82.122383,13.216074,3.762018,1.457543,6.789859,-1.096925,2.974420,23.524706,-12.486935,8064.000000,0.000000,4.000000,,,,0.000000,4.000000,4.000000,4.000000,4.000000,4.000000,4.000000,4.000000,4.000000,4.000000,4.000000,4.000000,4.000000,4.000000,4.000000,4.000000,4.000000,4.000000,4.000000,4.000000,4.000000,4.000000,4.000000,4.000000,4.000000,4.000000,4.000000,4.000000,4.000000,4.000000,4.000000,4.000000,4.000000,100.000000
1614475104.871408,120.000000,0.000000,16.718985,-5.952373,-32.098190,-43.245934,-12.330483,-3.820871,-5.214493,-5.931134,2.189795,-15.265499,-1.977878,23.446054,8.467682,-2.898931,-13.190471,-11.489865,5.249772,-59.460339,49.960186,7.964724,6.156797,16.726114,9.578655,-94.860771,14.741320,5.296717,4.020188,17.552299,-0.583008,10.150933,30.680668,0.346065,8064.000000,0.000000,4.000000,,,,0.000000,4.000000,4.000000,4.000000,4.000000,4.000000,4.000000,4.000000,4.000000,4.000000,4.000000,4.000000,4.000000,4.000000,4.000000,4.000000,4.000000,4.000000,4.000000,4.000000,4.000000,4.000000,4.000000,4.000000,4.000000,4.000000,4.000000,4.000000,4.000000,4.000000,4.000000,4.000000,4.000000,100.000000
1614475104.879157,121.000000,0.000000,6.958675,4.309990,-12.066092,-22.689867,-9.754050,-2.278589,-5.209279,-5.925202,-0.376498,-6.532285,-9.155388,15.730301,8.459214,1.206532,-2.920870,-32.504017,6.782983,-63.503445,37.602535,7.443939,-4.105770,14.145287,21.363949,-115.278732,17.803501,8.368343,27.605911,0.098850,11.725267,9.115141,21.419218,8.038026,8064.000000,0.000000,4.000000,,,,0.000000,4.000000,4.000000,4.000000,4.000000,4.000000,4.000000,4.000000,4.000000,4.000000,4.000000,4.000000,4.000000,4.000000,4.000000,4.000000,4.000000,4.000000,4.000000,4.000000,4.000000,4.000000,4.000000,4.000000,4.000000,4.000000,4.000000,4.000000,4.000000,4.000000,4.000000,4.000000,4.000000,100.000000
1614475104.886807,122.000000,0.000000,0.797870,-9.540474,-2.310437,-18.564613,-28.718655,2.851895,-8.280993,-10.534662,-21.914583,3.730658,-13.761617,10.586366,5.886652,3.256608,7.851282,-32.471512,17.032610,-62.414299,26.795702,4.359572,-1.537561,-11.509885,22.881046,-116.189095,14.708775,2.206129,24.501383,-13.234582,11.713542,8.080384,26.013184,5.978706,8064.000000,0.000000,4.000000,,,,0.000000,4.000000,4.000000,4.000000,4.000000,4.000000,4.000000,4.000000,4.000000,4.000000,4.000000,4.000000,4.000000,4.000000,4.000000,4.000000,4.000000,4.000000,4.000000,4.000000,4.000000,4.000000,4.000000,4.000000,4.000000,4.000000,4.000000,4.000000,4.000000,4.000000,4.000000,4.000000,4.000000,100.000000
1614475104.894556,123.000000,0.000000,-4.843954,-18.248882,-19.744024,-21.110151,-23.561731,-3.817623,-8.272711,-10.524127,-14.713181,0.650004,2.149581,8.011677,-12.580772,3.253351,1.176764,-7.310836,-1.445961,-39.787785,43.179161,5.380853,-7.689870,-12.011195,-1.244399,-113.508804,13.668426,-8.565308,2.938419,-9.631604,8.112085,0.892817,27.525633,5.972728,8064.000000,0.000000,4.000000,,,,0.000000,4.000000,4.000000,4.000000,4.000000,4.000000,4.000000,4.000000,4.000000,4.000000,4.000000,4.000000,4.000000,4.000000,4.000000,4.000000,4.000000,4.000000,4.000000,4.000000,4.000000,4.000000,4.000000,4.000000,4.000000,4.000000,4.000000,4.000000,4.000000,4.000000,4.000000,4.000000,4.000000,100.000000
1614475104.902205,124.000000,0.000000,-9.967315,-2.333197,-23.314024,-11.345451,1.077215,-11.506113,7.120177,-12.052065,2.737430,-1.914748,7.275636,8.003665,-11.029731,6.327021,-4.978259,-4.739423,-12.726565,-33.081329,70.828293,3.324190,-18.964231,0.821329,-2.268795,-115.959396,14.167577,-1.377255,5.499583,-7.057870,3.488589,2.430386,18.267338,2.377011,8064.000000,0.000000,4.000000,,,,0.000000,4.000000,4.000000,4.000000,4.000000,4.000000,4.000000,4.000000,4.000000,4.000000,4.000000,4.000000,4.000000,4.000000,4.000000,4.000000,4.000000,4.000000,4.000000,4.000000,4.000000,4.000000,4.000000,4.000000,4.000000,4.000000,4.000000,4.000000,4.000000,4.000000,4.000000,4.000000,4.000000,100.000000
1614475104.910054,125.000000,0.000000,1.324704,1.771700,-12.008658,-13.898209,-5.590529,-0.212556,8.651518,-2.809243,1.196231,1.164089,-4.526511,13.123866,7.442838,2.730950,1.693386,-3.196222,12.414366,-38.689274,66.654900,9.474712,-6.637575,2.358969,20.810396,-115.843437,11.076487,7.854891,16.776134,-4.999530,-3.181567,9.607443,22.351633,-0.702289,8064.000000,0.000000,4.000000,,,,0.000000,4.000000,4.000000,4.000000,4.000000,4.000000,4.000000,4.000000,4.000000,4.000000,4.000000,4.000000,4.000000,4.000000,4.000000,4.000000,4.000000,4.000000,4.000000,4.000000,4.000000,4.000000,4.000000,4.000000,4.000000,4.000000,4.000000,4.000000,4.000000,4.000000,4.000000,4.000000,4.000000,100.000000
1614475104.917803,126.000000,0.000000,1.836200,-8.486482,-8.919726,-22.602259,-19.431091,6.454323,-4.177646,8.988438,-1.369068,-0.375536,-7.086087,5.931255,2.820010,-0.861525,7.332718,1.935180,19.068619,-29.932634,47.613884,12.542161,0.035729,0.305328,19.763945,-115.214775,10.039769,-0.870912,16.759359,-5.507351,3.488281,-2.709857,22.329283,1.349695,8064.000000,0.000000,4.000000,,,,0.000000,4.000000,4.000000,4.000000,4.000000,4.000000,4.000000,4.000000,4.000000,4.000000,4.000000,4.000000,4.000000,4.000000,4.000000,4.000000,4.000000,4.000000,4.000000,4.000000,4.000000,4.000000,4.000000,4.000000,4.000000,4.000000,4.000000,4.000000,4.000000,4.000000,4.000000,4.000000,4.000000,100.000000
1614475104.925652,127.000000,0.000000,-15.088714,-7.452354,-7.372345,-12.836067,-9.668072,-6.372644,4.031660,-5.379525,-5.470263,-1.913622,-6.053360,-7.920830,-10.516143,6.318824,6.812565,-20.118038,-1.976091,-40.159111,43.463707,-7.470381,-15.861742,-10.464209,4.872386,-115.099556,10.542550,-6.511067,16.229778,-11.655689,11.689921,-12.963557,4.871056,-3.267039,8064.000000,0.000000,4.000000,,,,0.000000,4.000000,4.000000,4.000000,4.000000,4.000000,4.000000,4.000000,4.000000,4.000000,4.000000,4.000000,4.000000,4.000000,4.000000,4.000000,4.000000,4.000000,4.000000,4.000000,4.000000,4.000000,4.000000,4.000000,4.000000,4.000000,4.000000,4.000000,4.000000,4.000000,4.000000,4.000000,4.000000,100.000000
1614475104.933401,0.000000,0.000000,-7.894137,-9.496184,-13.518819,-11.797589,-6.068660,-14.058579,11.719935,-22.297222,-12.644280,-4.475811,-6.560127,-3.297524,-11.018447,7.338146,-1.912196,-27.790228,-4.538218,-68.836899,42.907421,-23.360348,-19.948444,-16.094770,3.841873,-112.420357,4.890982,-2.914813,8.521241,-4.464547,3.473103,-3.207004,0.763620,-12.494541,0.000000,208.000000,4.000000,,,,0.000000,4.000000,4.000000,4.000000,4.000000,4.000000,4.000000,4.000000,4.000000,4.000000,4.000000,4.000000,4.000000,4.000000,4.000000,4.000000,4.000000,4.000000,4.000000,4.000000,4.000000,4.000000,4.000000,4.000000,4.000000,4.000000,4.000000,4.000000,4.000000,4.000000,4.000000,4.000000,4.000000,100.000000
1614475104.941250,1.000000,0.000000,10.062474,-8.461047,-32.479660,-31.785791,-10.677976,-15.582982,-4.189220,-16.633900,-1.349584,-18.830309,-3.989465,6.449363,-11.007429,-2.925602,-15.243617,-12.377822,1.107346,-70.819344,37.223488,-14.619038,-14.800291,1.357223,5.376493,-110.769470,-1.267756,-5.476000,-0.205228,5.283507,-1.145754,-4.229438,7.429523,-14.020508,0.000000,207.000000,4.000000,,,,0.000000,4.000000,4.000000,4.000000,4.000000,4.000000,4.000000,4.000000,4.000000,4.000000,4.000000,4.000000,4.000000,4.000000,4.000000,4.000000,4.000000,4.000000,4.000000,4.000000,4.000000,4.000000,4.000000,4.000000,4.000000,4.000000,4.000000,4.000000,4.000000,4.000000,4.000000,4.000000,4.000000,100.000000
1614475104.948999,2.000000,0.000000,1.334463,8.983312,-25.780512,-33.805290,-9.641657,-14.028937,-5.723492,-10.463420,1.728688,-22.401222,-12.703424,-1.249394,-2.791293,-6.512420,-14.715553,-37.493649,2.644700,-66.645966,35.647804,-7.937752,-14.272671,8.535353,7.935218,-111.171524,-1.779308,-4.957704,8.512925,-8.567930,8.598981,-16.020081,3.319530,-12.980846,0.000000,184.000000,4.000000,,,,0.000000,4.000000,4.000000,4.000000,4.000000,4.000000,4.000000,4.000000,4.000000,4.000000,4.000000,4.000000,4.000000,4.000000,4.000000,4.000000,4.000000,4.000000,4.000000,4.000000,4.000000,4.000000,4.000000,4.000000,4.000000,4.000000,4.000000,4.000000,4.000000,4.000000,4.000000,4.000000,4.000000,100.000000
1614475104.956848,3.000000,0.000000,-7.384820,3.333303,-1.652168,-23.002253,-20.914066,4.446630,5.564282,-14.555520,-22.888426,-8.019848,-26.024054,-9.453273,6.955088,-1.890523,-3.418787,-68.225388,14.436927,-76.322906,33.048054,-7.929814,3.177500,-3.268055,9.978565,-105.932152,-2.290349,-3.414284,12.094156,-20.354235,13.718587,-11.901496,3.316210,-13.480686,0.000000,174.000000,4.000000,,,,0.000000,4.000000,4.000000,4.000000,4.000000,4.000000,4.000000,4.000000,4.000000,4.000000,4.000000,4.000000,4.000000,4.000000,4.000000,4.000000,4.000000,4.000000,4.000000,4.000000,4.000000,4.000000,4.000000,4.000000,4.000000,4.000000,4.000000,4.000000,4.000000,4.000000,4.000000,4.000000,4.000000,100.000000
1614475104.964597,4.000000,0.000000,-2.762050,-19.234133,-14.471029,-31.184378,-25.508537,6.493465,-1.620769,-14.540965,-31.070665,-4.934905,-10.613414,-7.392538,-5.359560,-0.862991,-5.466650,-37.900749,16.473772,-63.426071,34.553467,1.308885,17.020475,1.350598,0.737817,-96.595444,-0.749598,-12.641640,-2.789733,-5.974905,11.653586,-6.761390,15.107766,-12.441565,0.000000,182.000000,4.000000,,,,0.000000,4.000000,4.000000,4.000000,4.000000,4.000000,4.000000,4.000000,4.000000,4.000000,4.000000,4.000000,4.000000,4.000000,4.000000,4.000000,4.000000,4.000000,4.000000,4.000000,4.000000,4.000000,4.000000,4.000000,4.000000,4.000000,4.000000,4.000000,4.000000,4.000000,4.000000,4.000000,4.000000,100.000000
1614475104.972446,5.000000,0.000000,-4.297750,-8.445668,-38.559120,-33.717297,-4.970208,-18.641233,-2.644789,-17.090527,-11.552415,-13.135098,11.448482,-5.333863,-10.995226,-1.374949,-8.538106,-6.067978,4.662427,-45.926746,45.800964,5.922960,4.182943,12.631299,4.326823,-90.857826,6.430639,-9.552074,0.802801,8.390044,12.154754,-5.216167,20.733685,-14.480405,0.000000,191.000000,4.000000,,,,0.000000,4.000000,4.000000,4.000000,4.000000,4.000000,4.000000,4.000000,4.000000,4.000000,4.000000,4.000000,4.000000,4.000000,4.000000,4.000000,4.000000,4.000000,4.000000,4.000000,4.000000,4.000000,4.000000,4.000000,4.000000,4.000000,4.000000,4.000000,4.000000,4.000000,4.000000,4.000000,4.000000,100.000000
1614475104.980195,6.000000,0.000000,1.347574,6.434572,-24.161589,-22.401527,0.162968,-14.520028,6.075804,-11.432410,-4.874196,-9.019399,0.154982,0.312496,6.964488,-1.886395,3.265304,-13.241397,6.709046,-53.060310,51.396191,8.481140,-1.462266,8.003283,26.886599,-90.766968,8.988311,6.354913,19.263536,7.868834,11.629778,5.045460,19.687309,-11.901822,0.000000,174.000000,4.000000,,,,0.000000,4.000000,4.000000,4.000000,4.000000,4.000000,4.000000,4.000000,4.000000,4.000000,4.000000,4.000000,4.000000,4.000000,4.000000,4.000000,4.000000,4.000000,4.000000,4.000000,4.000000,4.000000,4.000000,4.000000,4.000000,4.000000,4.000000,4.000000,4.000000,4.000000,4.000000,4.000000,4.000000,100.000000
1614475104.988044,7.000000,0.000000,9.551354,-8.956477,-2.598965,-20.327845,-16.760273,7.545774,-5.725143,4.989279,-8.459065,-2.856533,-13.691327,3.389107,7.983164,-2.910149,9.928705,-14.253797,11.317722,-46.340580,48.780689,19.754709,7.257145,4.405536,27.372532,-92.214661,11.030604,-2.369390,17.192991,5.296862,11.618149,4.014773,18.641981,2.981875,0.000000,193.000000,4.000000,,,,0.000000,4.000000,4.000000,4.000000,4.000000,4.000000,4.000000,4.000000,4.000000,4.000000,4.000000,4.000000,4.000000,4.000000,4.000000,4.000000,4.000000,4.000000,4.000000,4.000000,4.000000,4.000000,4.000000,4.000000,4.000000,4.000000,4.000000,4.000000,4.000000,4.000000,4.000000,4.000000,4.000000,100.000000
1614475104.995793,8.000000,0.000000,-7.894094,-13.050085,0.993377,-14.666491,-13.153769,-3.231002,-10.334803,-1.169557,-6.912145,-1.828035,-4.959687,-4.819410,-10.999178,2.733787,7.354674,-6.034415,-0.488468,-26.807062,49.757553,15.632391,3.147324,3.375489,9.396442,-90.583984,22.814445,-16.213175,9.483490,2.214642,13.144992,-5.732831,17.597698,14.260944,0.000000,178.000000,4.000000,,,,0.000000,4.000000,4.000000,4.000000,4.000000,4.000000,4.000000,4.000000,4.000000,4.000000,4.000000,4.000000,4.000000,4.000000,4.000000,4.000000,4.000000,4.000000,4.000000,4.000000,4.000000,4.000000,4.000000,4.000000,4.000000,4.000000,4.000000,4.000000,4.000000,4.000000,4.000000,4.000000,4.000000,100.000000
1614475105.003642,9.000000,0.000000,-20.706713,-5.344728,-3.623001,-7.985157,-0.320102,-16.561104,8.649891,-19.629927,-9.982156,1.250716,-2.903445,-0.712027,-15.090743,2.731053,7.347319,-7.566842,-9.205928,-41.652050,51.246254,-2.331959,-3.522490,-4.833014,9.899866,-85.878021,26.381374,-0.299526,15.115032,4.776530,3.901078,8.119055,23.733946,12.708221,0.000000,178.000000,4.000000,,,,0.000000,4.000000,4.000000,4.000000,4.000000,4.000000,4.000000,4.000000,4.000000,4.000000,4.000000,4.000000,4.000000,4.000000,4.000000,4.000000,4.000000,4.000000,4.000000,4.000000,4.000000,4.000000,4.000000,4.000000,4.000000,4.000000,4.000000,4.000000,4.000000,4.000000,4.000000,4.000000,4.000000,100.000000
1614475105.011391,10.000000,0.000000,-3.762930,-9.441947,-17.465532,-21.310507,-3.396705,-6.800954,5.051497,-10.892347,-8.946532,-6.955663,-14.182593,18.263044,-9.434627,-11.630652,2.724587,-2.431070,-7.145440,-53.918091,51.195007,-3.355268,-4.031788,-2.776899,18.095095,-87.843422,17.124224,13.034107,12.535814,7.848677,-6.872054,19.905807,26.274315,9.618590,0.000000,189.000000,4.000000,,,,0.000000,4.000000,4.000000,4.000000,4.000000,4.000000,4.000000,4.000000,4.000000,4.000000,4.000000,4.000000,4.000000,4.000000,4.000000,4.000000,4.000000,4.000000,4.000000,4.000000,4.000000,4.000000,4.000000,4.000000,4.000000,4.000000,4.000000,4.000000,4.000000,4.000000,4.000000,4.000000,4.000000,100.000000
1614475105.019240,11.000000,0.000000,2.394680,-6.355582,-18.473707,-23.340477,-9.034334,-4.742871,-13.415092,-0.625045,-2.270919,-17.205118,-17.245335,11.578115,-8.912372,-11.619022,3.234683,-6.018382,-6.625474,-35.915455,53.195095,2.289113,-12.745705,3.892544,17.051359,-104.165833,13.517357,5.841586,8.933535,-4.979685,0.314305,0.398723,12.401887,9.096151,0.000000,168.000000,4.000000,,,,0.000000,4.000000,4.000000,4.000000,4.000000,4.000000,4.000000,4.000000,4.000000,4.000000,4.000000,4.000000,4.000000,4.000000,2.000000,4.000000,4.000000,4.000000,4.000000,4.000000,4.000000,4.000000,4.000000,4.000000,4.000000,4.000000,4.000000,4.000000,4.000000,4.000000,4.000000,4.000000,4.000000,83.333336
1614475105.026989,12.000000,0.000000,-8.376946,-2.246662,2.570408,-1.265855,-10.563761,-1.148384,-5.709370,-12.419291,-14.063519,-4.880220,-17.740910,-9.459105,-6.339356,5.315674,12.462217,-31.653389,-6.106028,-43.571846,40.834209,-5.405484,-14.784242,-5.342117,17.547129,-115.343719,12.991019,4.297283,17.642550,-16.256756,11.596042,-9.345265,11.363844,10.625517,0.000000,140.000000,4.000000,,,,0.000000,4.000000,4.000000,4.000000,4.000000,4.000000,4.000000,4.000000,4.000000,4.000000,4.000000,4.000000,4.000000,4.000000,2.000000,4.000000,4.000000,4.000000,4.000000,4.000000,4.000000,4.000000,4.000000,4.000000,4.000000,4.000000,4.000000,4.000000,4.000000,4.000000,4.000000,4.000000,4.000000,83.333336
1614475105.034638,13.000000,0.000000,-4.778825,-13.013646,0.516555,3.863616,-5.937812,11.673277,7.116852,-10.868410,-18.664841,4.355429,-15.671886,-4.834261,-6.845838,5.823179,-1.909219,-40.852505,-6.099922,-73.271866,22.331837,-8.477001,-0.923303,-13.541903,11.888555,-110.100174,14.516489,3.780165,13.009523,-1.881525,8.507523,9.125618,32.378120,16.768738,0.000000,188.000000,4.000000,,,,0.000000,4.000000,4.000000,4.000000,4.000000,4.000000,4.000000,4.000000,4.000000,4.000000,4.000000,4.000000,4.000000,4.000000,2.000000,4.000000,4.000000,4.000000,4.000000,4.000000,4.000000,4.000000,4.000000,4.000000,4.000000,4.000000,4.000000,4.000000,4.000000,4.000000,4.000000,4.000000,4.000000,83.333336
1614475105.042388,14.000000,0.000000,1.892620,-4.795505,-12.817295,-2.294094,7.914279,1.918014,6.084095,2.475791,2.379465,-7.443798,-4.374163,9.529548,-6.326171,-3.926234,-21.907310,-21.837294,-8.657925,-67.044746,30.514633,-5.904422,2.154543,-6.348875,3.158718,-100.246483,19.117357,0.186641,6.329847,9.915228,3.883631,16.808800,32.345741,13.675045,0.000000,193.000000,4.000000,,,,0.000000,4.000000,4.000000,4.000000,4.000000,4.000000,4.000000,4.000000,4.000000,4.000000,4.000000,4.000000,4.000000,4.000000,2.000000,4.000000,4.000000,4.000000,4.000000,4.000000,4.000000,4.000000,4.000000,4.000000,4.000000,4.000000,4.000000,4.000000,4.000000,4.000000,4.000000,4.000000,4.000000,83.333336
1614475105.050037,15.000000,0.000000,1.377907,9.055445,-0.496785,-1.778979,5.855083,-8.853135,4.539549,-0.090787,10.069393,-6.923534,-5.908250,9.520018,7.526309,-0.332564,-7.013608,-17.712893,2.632785,-49.028984,53.561043,-8.975441,-4.001458,-1.214321,11.360687,-97.582130,7.303369,8.391582,18.118389,-1.889559,3.879747,9.612504,8.210833,-1.723245,0.000000,154.000000,4.000000,,,,0.000000,4.000000,4.000000,4.000000,4.000000,4.000000,4.000000,4.000000,4.000000,4.000000,4.000000,4.000000,4.000000,4.000000,2.000000,4.000000,4.000000,4.000000,4.000000,4.000000,4.000000,4.000000,4.000000,4.000000,4.000000,4.000000,4.000000,4.000000,4.000000,4.000000,4.000000,4.000000,4.000000,83.333336
1614475105.057786,16.000000,0.000000,5.479093,-7.363867,-3.060391,-18.187456,-12.099490,6.540334,-2.644478,-6.244543,-5.325292,0.262877,-25.389521,5.407934,10.082885,1.206230,-0.339927,-40.259281,15.963486,-63.851749,43.763889,-5.889542,-2.971815,-3.264388,16.990353,-101.587112,-11.678294,5.306268,17.074629,-8.041515,3.875867,6.525969,3.587237,-5.311265,0.000000,184.000000,4.000000,,,,0.000000,4.000000,4.000000,4.000000,4.000000,4.000000,4.000000,4.000000,4.000000,4.000000,4.000000,4.000000,4.000000,4.000000,2.000000,4.000000,4.000000,4.000000,4.000000,4.000000,4.000000,4.000000,4.000000,4.000000,4.000000,4.000000,4.000000,4.000000,4.000000,4.000000,4.000000,4.000000,4.000000,83.333336
1614475105.065435,17.000000,0.000000,1.371050,-16.587273,-26.134254,-28.938499,-10.548929,8.585075,-9.308500,-9.315221,-8.909710,-13.583540,-28.441055,-2.802602,-6.337454,-1.359079,-22.390869,-60.731842,2.614188,-85.839180,11.412434,-8.447755,-4.507305,-2.235483,1.075926,-106.613731,-5.512770,-14.699039,-2.429625,-4.956551,6.948915,1.904058,12.814420,-0.690569,0.000000,186.000000,4.000000,,,,0.000000,4.000000,4.000000,4.000000,4.000000,4.000000,4.000000,4.000000,4.000000,4.000000,4.000000,4.000000,4.000000,4.000000,2.000000,4.000000,4.000000,4.000000,4.000000,4.000000,4.000000,4.000000,4.000000,4.000000,4.000000,4.000000,4.000000,4.000000,4.000000,4.000000,4.000000,4.000000,4.000000,83.333336
1614475105.073184,18.000000,0.000000,-8.886731,-3.237352,-16.364529,-14.037766,2.282133,-10.397869,0.957219,-14.434111,-5.823877,-18.698162,-16.104921,-3.312620,-9.920860,4.283306,-21.855658,-51.953163,-12.773041,-90.881546,7.298458,-28.439308,-9.118182,-2.233247,-9.694381,-102.404556,-0.379052,-13.658698,-8.068221,-4.951594,1.813761,-2.713231,8.186220,-10.433469,0.000000,192.000000,4.000000,,,,0.000000,4.000000,4.000000,4.000000,4.000000,4.000000,4.000000,4.000000,4.000000,4.000000,4.000000,4.000000,4.000000,4.000000,2.000000,4.000000,4.000000,4.000000,4.000000,4.000000,4.000000,4.000000,4.000000,4.000000,4.000000,4.000000,4.000000,4.000000,4.000000,4.000000,4.000000,4.000000,4.000000,83.333336
1614475105.080833,19.000000,0.000000,3.429848,-2.721294,-3.014832,-14.536550,-3.873996,-11.413112,8.648569,-3.650446,-4.279592,-6.884592,-11.986253,19.254795,3.422394,1.714920,-4.910726,-19.080696,2.624347,-76.431686,39.086029,-24.308304,-0.391115,-2.231014,-8.146225,-89.481636,-12.173544,4.816499,-4.983229,5.309767,-10.495746,3.443329,2.537009,-16.064060,0.000000,166.000000,4.000000,,,,0.000000,4.000000,4.000000,4.000000,4.000000,4.000000,4.000000,4.000000,4.000000,4.000000,4.000000,4.000000,4.000000,4.000000,2.000000,4.000000,4.000000,4.000000,4.000000,4.000000,4.000000,4.000000,4.000000,4.000000,4.000000,4.000000,4.000000,4.000000,4.000000,4.000000,4.000000,4.000000,4.000000,83.333336
1614475105.088582,20.000000,0.000000,17.785393,1.896812,-18.909252,-26.829704,-8.485506,-3.196571,3.511716,14.301923,3.416996,-8.416168,-7.871702,27.440668,7.008715,0.687564,1.248031,4.528127,15.442236,-48.150127,58.534122,8.023697,7.301584,1.360960,-4.548335,-87.340874,-2.930602,9.939888,3.739702,15.560868,1.309622,7.029629,10.226779,0.362260,0.000000,165.000000,4.000000,,,,0.000000,4.000000,4.000000,4.000000,4.000000,4.000000,4.000000,4.000000,4.000000,4.000000,4.000000,4.000000,4.000000,4.000000,2.000000,4.000000,4.000000,4.000000,4.000000,4.000000,4.000000,4.000000,4.000000,4.000000,4.000000,4.000000,4.000000,4.000000,4.000000,4.000000,4.000000,4.000000,4.000000,83.333336
1614475105.096232,21.000000,0.000000,4.434273,14.202608,-11.710856,-13.469542,-2.835995,-5.757477,0.431281,5.056851,-1.201806,-6.356470,-0.171523,5.361946,3.411963,17.097134,15.092937,-11.886657,6.708845,-35.794289,55.911488,15.195160,5.755821,-1.204503,10.328009,-94.433022,17.585150,9.417128,21.171860,2.724794,20.795492,2.407215,16.370399,12.156769,0.000000,193.000000,4.000000,,,,0.000000,4.000000,4.000000,4.000000,4.000000,4.000000,4.000000,4.000000,4.000000,4.000000,4.000000,4.000000,4.000000,4.000000,2.000000,4.000000,4.000000,4.000000,4.000000,4.000000,4.000000,4.000000,4.000000,4.000000,4.000000,4.000000,4.000000,4.000000,4.000000,4.000000,4.000000,4.000000,4.000000,83.333336
1614475105.103981,22.000000,0.000000,-11.980417,-1.709031,8.813675,-1.661201,-7.448544,-6.264540,-0.081971,-10.845641,-14.533937,7.496040,-1.196992,-3.874185,-3.258116,19.644138,17.129126,-22.131180,-2.015813,-48.066185,58.932499,3.897914,6.262885,-14.023811,20.061270,-92.287308,16.541924,4.792325,13.971201,-8.559982,7.441363,0.353525,15.841208,8.042048,0.000000,201.000000,4.000000,,,,0.000000,4.000000,4.000000,4.000000,4.000000,4.000000,4.000000,4.000000,4.000000,4.000000,4.000000,4.000000,4.000000,4.000000,2.000000,4.000000,4.000000,4.000000,4.000000,4.000000,4.000000,4.000000,4.000000,4.000000,4.000000,4.000000,4.000000,4.000000,4.000000,4.000000,4.000000,4.000000,4.000000,83.333336
1614475105.111630,23.000000,0.000000,-11.968437,-15.553475,-8.631036,-11.915950,-10.518019,-9.848019,-4.697274,-8.270693,-7.339917,-2.767866,-3.247077,4.847638,-17.101011,-0.375506,-6.990567,-11.339819,-15.347130,-56.736069,54.258183,3.381195,-6.563890,-20.676455,4.656593,-98.861687,11.397177,-7.007339,-7.581232,-1.884755,-10.514796,-0.672469,16.338186,6.495545,0.000000,193.000000,4.000000,,,,0.000000,4.000000,4.000000,4.000000,4.000000,4.000000,4.000000,4.000000,4.000000,4.000000,4.000000,4.000000,4.000000,4.000000,2.000000,4.000000,4.000000,4.000000,4.000000,4.000000,4.000000,4.000000,4.000000,4.000000,4.000000,4.000000,4.000000,4.000000,4.000000,4.000000,4.000000,4.000000,4.000000,83.333336
1614475105.119479,24.000000,0.000000,-9.392365,-0.153307,-26.058302,-17.032238,-2.815193,-19.581760,-6.231038,-7.749602,4.462295,-20.200996,-7.859215,2.791508,-17.596731,-10.118720,-9.034859,-16.969505,-28.152296,-60.269073,28.050077,-7.391417,-30.147070,-18.604496,-0.989089,-120.814102,4.206292,0.691976,2.169940,-2.395691,-4.350435,-2.210258,14.270567,2.386485,0.000000,183.000000,4.000000,,,,0.000000,4.000000,4.000000,4.000000,4.000000,4.000000,4.000000,4.000000,4.000000,4.000000,4.000000,4.000000,4.000000,4.000000,2.000000,4.000000,4.000000,4.000000,4.000000,4.000000,4.000000,4.000000,4.000000,4.000000,4.000000,4.000000,4.000000,4.000000,4.000000,4.000000,4.000000,4.000000,4.000000,83.333336
1614475105.127228,25.000000,0.000000,-4.767589,1.385308,-12.186090,-16.502386,-5.889300,-11.357051,-6.737628,-10.305955,-3.747295,-7.873103,-15.543664,1.250255,-2.707340,-7.544499,7.897254,-28.747406,-11.713887,-58.157524,18.791258,-14.563513,-21.398973,-19.098711,11.832413,-119.667648,-7.592786,10.434875,13.449821,-8.547141,-1.269162,-0.156766,11.692194,-2.231286,0.000000,199.000000,4.000000,,,,0.000000,4.000000,4.000000,4.000000,4.000000,4.000000,4.000000,4.000000,4.000000,4.000000,4.000000,4.000000,4.000000,4.000000,2.000000,4.000000,4.000000,4.000000,4.000000,4.000000,4.000000,4.000000,4.000000,4.000000,4.000000,4.000000,4.000000,4.000000,4.000000,4.000000,4.000000,4.000000,4.000000,83.333336
1614475105.135077,26.000000,0.000000,-3.224360,-12.462231,-3.968776,-13.408960,-11.011617,6.603024,-5.192428,-0.039239,-10.410214,6.493745,-5.271709,0.223363,0.372291,0.668174,4.299613,-21.539173,10.349109,-38.612186,41.849392,8.527974,9.391655,-13.438587,6.179555,-95.958237,6.773781,-7.524279,2.154320,-0.846287,0.270569,-1.182250,17.321527,11.617099,0.000000,211.000000,4.000000,,,,0.000000,4.000000,4.000000,4.000000,4.000000,4.000000,4.000000,4.000000,4.000000,4.000000,4.000000,4.000000,4.000000,4.000000,2.000000,4.000000,4.000000,4.000000,4.000000,4.000000,4.000000,4.000000,4.000000,4.000000,4.000000,4.000000,4.000000,4.000000,4.000000,4.000000,4.000000,4.000000,4.000000,83.333336
1614475105.142826,27.000000,0.000000,-7.836520,-8.347205,-8.067371,-0.062218,-4.333938,4.545139,1.992251,-0.552020,-7.322881,2.384687,7.554075,-9.520450,-5.781928,12.462378,-3.909815,-22.030453,1.620811,-36.009472,56.679337,10.570728,10.407905,-3.681559,-5.108676,-90.221252,21.638802,-14.183421,3.690627,5.821226,8.475427,-2.206709,17.304205,12.631124,0.000000,216.000000,4.000000,,,,0.000000,4.000000,4.000000,4.000000,4.000000,4.000000,4.000000,4.000000,4.000000,4.000000,4.000000,4.000000,4.000000,4.000000,2.000000,4.000000,4.000000,4.000000,4.000000,4.000000,4.000000,4.000000,4.000000,4.000000,4.000000,4.000000,4.000000,4.000000,4.000000,4.000000,4.000000,4.000000,4.000000,83.333336
