title:27, start timestamp:1614475411.957386, stop timestamp:1614475457.768852, headset type:EPOCFLEX, headset serial:F00001ED, headset firmware:f12, subject name:s13, channels:75, sampling rate:128, samples:5913      , version:2.0
Timestamp,EEG.Counter,EEG.Interpolated,EEG.Cz,EEG.Fz,EEG.Fp1,EEG.F7,EEG.F3,EEG.FC1,EEG.C3,EEG.FC5,EEG.FT9,EEG.T7,EEG.TP9,EEG.CP5,EEG.CP1,EEG.P3,EEG.P7,EEG.O1,EEG.Pz,EEG.Oz,EEG.O2,EEG.P8,EEG.P4,EEG.CP2,EEG.CP6,EEG.TP10,EEG.T8,EEG.FT10,EEG.FC6,EEG.C4,EEG.FC2,EEG.F4,EEG.F8,EEG.Fp2,EEG.HighBitFlex,EEG.RawCq,EEG.Battery,MarkerIndex,MarkerType,MarkerValueInt,EEG.MarkerHardware,CQ.Cz,CQ.Fz,CQ.Fp1,CQ.F7,CQ.F3,CQ.FC1,CQ.C3,CQ.FC5,CQ.FT9,CQ.T7,CQ.TP9,CQ.CP5,CQ.CP1,CQ.P3,CQ.P7,CQ.O1,CQ.Pz,CQ.Oz,CQ.O2,CQ.P8,CQ.P4,CQ.CP2,CQ.CP6,CQ.TP10,CQ.T8,CQ.FT10,CQ.FC6,CQ.C4,CQ.FC2,CQ.F4,CQ.F8,CQ.Fp2,CQ.Overall
1614475411.957386,70.000000,0.000000,1.911408,-1.831681,-20.582554,-51.743919,-11.387640,-4.798063,-2.038718,-20.215586,-17.229008,-33.544518,-0.373378,-9.234143,5.444549,-1.224275,-21.869312,-17.217180,0.846610,-28.076441,-28.587456,10.727991,29.051916,-3.568952,-21.560936,-108.052963,54.985935,-2.096545,7.519525,87.633041,29.215195,49.848377,-120.740273,-96.116699,0.000000,173.000000,4.000000,,,,0.000000,4.000000,4.000000,4.000000,4.000000,4.000000,4.000000,4.000000,4.000000,4.000000,4.000000,4.000000,4.000000,4.000000,4.000000,4.000000,4.000000,4.000000,4.000000,4.000000,4.000000,4.000000,4.000000,4.000000,4.000000,4.000000,4.000000,4.000000,4.000000,4.000000,4.000000,4.000000,4.000000,100.000000
1614475411.965035,71.000000,0.000000,1.909496,-1.829850,-21.587612,-57.846020,-10.863432,-0.690701,-4.600782,-16.605627,-17.724600,-28.895590,-1.911466,-7.686447,15.695515,8.007719,-14.155136,-16.687141,3.922687,-25.997082,-28.558868,18.409571,36.715172,0.537181,-8.206040,-105.380806,56.982231,-1.068807,18.794056,87.032593,31.237261,49.798531,-116.516968,-93.456482,0.000000,192.000000,4.000000,,,,0.000000,4.000000,4.000000,4.000000,4.000000,4.000000,4.000000,4.000000,4.000000,4.000000,4.000000,4.000000,4.000000,4.000000,4.000000,4.000000,4.000000,4.000000,4.000000,4.000000,4.000000,4.000000,4.000000,4.000000,4.000000,4.000000,4.000000,4.000000,4.000000,4.000000,4.000000,4.000000,4.000000,100.000000
1614475411.972784,72.000000,0.000000,1.394766,-1.315199,-30.796793,-65.993301,-10.852569,5.976656,-7.160284,-16.589020,-16.681234,-28.353872,-1.909555,-5.627479,16.705460,10.563813,-14.140981,-17.183275,12.636713,-22.894161,-28.530310,26.083469,43.345123,1.562285,-8.710655,-102.711327,55.899609,-4.657482,23.390648,86.945557,30.693203,44.620525,-118.451729,-94.388664,0.000000,176.000000,4.000000,,,,0.000000,4.000000,4.000000,4.000000,4.000000,4.000000,4.000000,4.000000,4.000000,4.000000,4.000000,4.000000,4.000000,4.000000,4.000000,4.000000,4.000000,4.000000,4.000000,4.000000,4.000000,4.000000,4.000000,4.000000,4.000000,4.000000,4.000000,4.000000,4.000000,4.000000,4.000000,4.000000,4.000000,100.000000
1614475411.980434,73.000000,0.000000,1.906192,1.250218,-22.048048,-57.209362,-11.354536,8.534782,-6.640303,-10.931406,-14.100450,-27.812698,-0.369184,-4.596210,15.150293,10.040429,-14.126840,-16.140451,20.316383,-15.178960,-28.501780,31.698412,41.763317,1.560723,-14.342970,-103.634254,56.869350,-5.165645,22.341616,87.371429,31.175331,40.986160,-125.512764,-94.294273,0.000000,201.000000,4.000000,,,,0.000000,4.000000,4.000000,4.000000,4.000000,4.000000,4.000000,4.000000,4.000000,4.000000,4.000000,4.000000,4.000000,4.000000,4.000000,4.000000,4.000000,4.000000,4.000000,4.000000,4.000000,4.000000,4.000000,4.000000,4.000000,4.000000,4.000000,4.000000,4.000000,4.000000,4.000000,4.000000,4.000000,100.000000
1614475411.988183,74.000000,0.000000,1.904286,1.248968,-13.308052,-48.434204,-11.343182,3.398042,-7.659304,-6.305090,-13.060708,-31.374630,-3.958558,-5.617255,16.160784,10.030389,-24.881945,-20.226875,10.552478,-29.009933,-29.498919,25.000046,34.029247,1.559162,-7.149140,-109.684464,54.248379,-4.134838,22.319273,85.232780,29.605694,41.970818,-129.489822,-93.174339,0.000000,164.000000,4.000000,,,,0.000000,4.000000,4.000000,4.000000,4.000000,4.000000,4.000000,4.000000,4.000000,4.000000,4.000000,4.000000,4.000000,4.000000,4.000000,4.000000,4.000000,4.000000,4.000000,4.000000,4.000000,4.000000,4.000000,4.000000,4.000000,4.000000,4.000000,4.000000,4.000000,4.000000,4.000000,4.000000,4.000000,100.000000
1614475411.995832,75.000000,0.000000,1.389561,-0.803563,-32.781921,-59.667820,-11.331839,-3.784843,-11.241388,-13.478271,-13.560468,-44.676590,-9.082805,-5.098817,16.144623,1.302410,-37.164753,-27.898956,-2.278588,-47.442463,-29.469419,15.744277,31.431114,2.070424,-0.988145,-109.574783,49.065926,-4.643524,20.245672,82.070625,24.960703,40.903206,-128.847504,-99.747833,0.000000,169.000000,4.000000,,,,0.000000,4.000000,4.000000,4.000000,4.000000,4.000000,4.000000,4.000000,4.000000,4.000000,4.000000,4.000000,4.000000,4.000000,4.000000,4.000000,4.000000,4.000000,4.000000,4.000000,4.000000,4.000000,4.000000,4.000000,4.000000,4.000000,4.000000,4.000000,4.000000,4.000000,4.000000,4.000000,4.000000,100.000000
1614475412.003581,76.000000,0.000000,4.465095,-1.828400,-54.800423,-72.428665,-11.320507,-6.345160,-11.230146,-21.157101,-13.546907,-52.324219,-10.099363,-5.093719,15.615658,-9.980944,-38.666050,-29.409517,6.954460,-50.471943,-27.388668,15.215713,34.476608,1.555533,-2.525618,-97.670334,47.991219,-4.638880,15.610043,86.091118,22.884460,41.887943,-129.231476,-111.442955,0.000000,179.000000,4.000000,,,,0.000000,4.000000,4.000000,4.000000,4.000000,4.000000,4.000000,4.000000,4.000000,4.000000,4.000000,4.000000,4.000000,4.000000,4.000000,4.000000,4.000000,4.000000,4.000000,4.000000,4.000000,4.000000,4.000000,4.000000,4.000000,4.000000,4.000000,4.000000,4.000000,4.000000,4.000000,4.000000,4.000000,100.000000
1614475412.011230,77.000000,0.000000,9.588835,-4.390675,-47.566135,-65.176750,-11.309186,-6.851636,-10.706096,-20.110304,-13.020540,-48.682152,-10.602084,-5.601445,15.600042,-9.970963,-46.832512,-30.405750,17.716736,-55.549675,-28.899740,15.713317,35.467770,1.553977,-0.471811,-90.393181,47.430408,-4.634242,14.055971,93.184509,23.374397,49.025539,-128.589432,-117.998184,0.000000,188.000000,4.000000,,,,0.000000,4.000000,4.000000,4.000000,4.000000,4.000000,4.000000,4.000000,4.000000,4.000000,4.000000,4.000000,4.000000,4.000000,4.000000,4.000000,4.000000,4.000000,4.000000,4.000000,4.000000,4.000000,4.000000,4.000000,4.000000,4.000000,4.000000,4.000000,4.000000,4.000000,4.000000,4.000000,4.000000,100.000000
1614475412.018979,78.000000,0.000000,9.579246,-8.488848,-30.082672,-51.265419,-11.297877,-6.331964,-11.208211,-20.090193,-13.520340,-45.043724,-16.745329,-5.083024,14.045980,-10.473813,-58.067734,-37.554832,1.288763,-60.109512,-28.870842,14.671963,36.970764,1.552423,4.656867,-92.866890,49.434258,-4.629607,14.554735,94.629791,23.351023,54.104721,-125.383911,-116.341721,0.000000,191.000000,4.000000,,,,0.000000,4.000000,4.000000,4.000000,4.000000,4.000000,4.000000,4.000000,4.000000,4.000000,4.000000,4.000000,4.000000,4.000000,4.000000,4.000000,4.000000,4.000000,4.000000,4.000000,4.000000,4.000000,4.000000,4.000000,4.000000,4.000000,4.000000,4.000000,4.000000,4.000000,4.000000,4.000000,4.000000,100.000000
1614475412.026628,79.000000,0.000000,6.492743,-10.018821,-26.462845,-45.573128,-9.235297,-7.351273,-9.145720,-21.095743,-13.506820,-38.332016,-13.651660,-2.513838,11.980653,-8.412057,-45.701973,-40.081379,-14.609962,-48.767349,-11.918894,20.811136,41.036358,1.550871,6.190671,-87.645813,56.564312,-4.624978,14.027360,95.047981,22.814850,52.512154,-124.745712,-116.225380,0.000000,160.000000,4.000000,,,,0.000000,4.000000,4.000000,4.000000,4.000000,4.000000,4.000000,4.000000,4.000000,4.000000,4.000000,4.000000,4.000000,4.000000,4.000000,4.000000,4.000000,4.000000,4.000000,4.000000,4.000000,4.000000,4.000000,4.000000,4.000000,4.000000,4.000000,4.000000,4.000000,4.000000,4.000000,4.000000,4.000000,100.000000
1614475412.034377,80.000000,0.000000,5.460609,-8.983161,-26.436382,-41.424988,-7.174780,-6.318280,-4.008369,-16.459263,-13.493313,-24.447529,3.285069,-0.972862,11.455852,8.006612,-22.579348,-31.323349,-5.364582,-41.026276,1.939179,30.533915,43.559425,1.549320,5.158839,-79.865860,63.174416,-4.620353,16.577435,98.029854,23.304855,52.972462,-123.595322,-117.134796,0.000000,185.000000,4.000000,,,,0.000000,4.000000,4.000000,4.000000,4.000000,4.000000,4.000000,4.000000,4.000000,4.000000,4.000000,4.000000,4.000000,4.000000,4.000000,4.000000,4.000000,4.000000,4.000000,4.000000,4.000000,4.000000,4.000000,4.000000,4.000000,4.000000,4.000000,4.000000,4.000000,4.000000,4.000000,4.000000,4.000000,100.000000
1614475412.042027,81.000000,0.000000,5.967969,-8.974177,-18.717638,-36.255360,-7.680426,-3.747859,-0.927438,-9.776137,-13.479819,-16.730774,15.076655,-0.971889,11.957216,21.844759,-17.428562,-20.522795,3.871552,-39.959610,-10.883273,30.503382,44.028687,1.547771,4.640860,-84.914200,65.162521,-4.615732,18.612141,95.880539,24.307192,53.432312,-120.394806,-109.838173,0.000000,192.000000,4.000000,,,,0.000000,4.000000,4.000000,4.000000,4.000000,4.000000,4.000000,4.000000,4.000000,4.000000,4.000000,4.000000,4.000000,4.000000,4.000000,4.000000,4.000000,4.000000,4.000000,4.000000,4.000000,4.000000,4.000000,4.000000,4.000000,4.000000,4.000000,4.000000,4.000000,4.000000,4.000000,4.000000,4.000000,100.000000
1614475412.049776,82.000000,0.000000,3.910719,-9.478024,-13.570716,-35.193462,-8.185566,-2.205650,1.637592,-8.227900,-13.979160,-16.201223,13.010297,-1.483738,11.945259,21.310093,-20.488056,-17.938169,1.303577,-30.688879,-24.718544,24.831852,40.394913,1.033402,4.636219,-93.034416,59.969154,-4.611116,15.003784,88.605171,22.744423,49.276314,-123.351334,-99.471924,0.000000,167.000000,4.000000,,,,0.000000,4.000000,4.000000,4.000000,4.000000,4.000000,4.000000,4.000000,4.000000,4.000000,4.000000,4.000000,4.000000,4.000000,4.000000,4.000000,4.000000,4.000000,4.000000,4.000000,4.000000,4.000000,4.000000,4.000000,4.000000,4.000000,4.000000,4.000000,4.000000,4.000000,4.000000,4.000000,4.000000,100.000000
1614475412.057425,83.000000,0.000000,1.855527,-9.468546,-15.095607,-33.619808,-7.151739,-2.203444,-0.415328,-9.245313,-14.478002,-17.210663,8.381902,-0.969434,11.933313,20.263142,-18.416286,-18.433052,2.840735,-22.965883,-19.052799,22.755739,33.687851,2.058010,-1.009443,-91.402916,48.114311,-5.119326,10.373396,85.952469,23.747320,45.124474,-133.997208,-95.782707,0.000000,184.000000,4.000000,,,,0.000000,4.000000,4.000000,4.000000,4.000000,4.000000,4.000000,4.000000,4.000000,4.000000,4.000000,4.000000,4.000000,4.000000,4.000000,4.000000,4.000000,4.000000,4.000000,4.000000,4.000000,4.000000,4.000000,4.000000,4.000000,4.000000,4.000000,4.000000,4.000000,4.000000,4.000000,4.000000,4.000000,100.000000
1614475412.065274,84.000000,0.000000,1.340851,-4.843693,-15.593331,-35.637470,-8.170229,-2.714061,-11.184143,-8.723248,-11.899422,-28.475504,1.194033,-1.481285,11.921380,15.627495,-18.397871,-16.363337,5.914818,-20.891636,-23.649132,23.245804,31.602882,4.620055,-12.803305,-92.849976,39.861069,-2.037283,10.363022,83.815231,28.851778,44.566528,-139.504242,-97.225388,0.000000,164.000000,4.000000,,,,0.000000,4.000000,4.000000,4.000000,4.000000,4.000000,4.000000,4.000000,4.000000,4.000000,4.000000,4.000000,4.000000,4.000000,4.000000,4.000000,4.000000,4.000000,4.000000,4.000000,4.000000,4.000000,4.000000,4.000000,4.000000,4.000000,4.000000,4.000000,4.000000,4.000000,4.000000,4.000000,4.000000,100.000000
1614475412.073023,85.000000,0.000000,1.852330,0.802177,-15.577739,-51.499268,-11.751801,-2.198527,-19.378088,-9.227345,-10.349060,-42.806004,-11.114854,-5.582368,11.909459,-3.362492,-27.097422,-19.936716,1.806339,-23.434847,-42.087021,22.709738,27.981535,5.641076,-17.918707,-111.218666,40.334030,2.067318,11.378301,79.628853,28.822926,45.034782,-138.851913,-96.102524,0.000000,166.000000,4.000000,,,,0.000000,4.000000,4.000000,4.000000,4.000000,4.000000,4.000000,4.000000,4.000000,4.000000,4.000000,4.000000,4.000000,4.000000,4.000000,4.000000,4.000000,4.000000,4.000000,4.000000,4.000000,4.000000,4.000000,4.000000,4.000000,4.000000,4.000000,4.000000,4.000000,4.000000,4.000000,4.000000,4.000000,100.000000
1614475412.080872,86.000000,0.000000,1.850478,2.339836,-16.074982,-61.704182,-11.227229,-2.196328,-18.845888,-9.730938,-10.338711,-44.814480,-20.847328,-8.653708,11.897550,-18.230925,-36.301094,-34.275753,-2.298032,-44.437054,-49.737240,22.174208,17.697144,5.122614,-14.311045,-129.056168,39.780876,2.578071,10.341281,78.010765,21.101795,44.989750,-138.200241,-97.544884,0.000000,210.000000,4.000000,,,,0.000000,4.000000,4.000000,4.000000,4.000000,4.000000,4.000000,4.000000,4.000000,4.000000,4.000000,4.000000,4.000000,4.000000,4.000000,4.000000,4.000000,4.000000,4.000000,4.000000,4.000000,4.000000,4.000000,4.000000,4.000000,4.000000,4.000000,4.000000,4.000000,4.000000,4.000000,4.000000,4.000000,100.000000
1614475412.088621,87.000000,0.000000,1.848627,1.824676,-15.546085,-52.924526,-5.574976,-5.783875,-19.339863,-9.208386,-5.200167,-44.769665,-21.339302,-6.593773,11.885653,-15.648591,-39.341717,-42.446606,-1.782913,-65.931076,-49.687504,22.664852,16.140985,5.117491,-13.783913,-124.824547,40.253914,3.088314,9.818119,78.958389,18.516592,44.431938,-138.574860,-101.037079,0.000000,213.000000,4.000000,,,,0.000000,4.000000,4.000000,4.000000,4.000000,4.000000,4.000000,4.000000,4.000000,4.000000,4.000000,4.000000,4.000000,4.000000,4.000000,4.000000,4.000000,4.000000,4.000000,4.000000,4.000000,4.000000,4.000000,4.000000,4.000000,4.000000,4.000000,4.000000,4.000000,4.000000,4.000000,4.000000,4.000000,100.000000
1614475412.096470,88.000000,0.000000,1.846779,1.822851,-16.556181,-47.743397,-3.005299,-9.880656,-17.269241,-9.711998,0.446058,-46.263355,-13.112834,-5.048717,11.873766,-11.017557,-39.302372,-31.634930,-1.268310,-56.634377,-40.919868,22.642189,21.765869,5.112374,-14.282949,-111.879211,43.290585,5.649328,10.833942,78.879433,20.036535,44.900326,-138.949112,-98.884758,0.000000,159.000000,4.000000,,,,0.000000,4.000000,4.000000,4.000000,4.000000,4.000000,4.000000,4.000000,4.000000,4.000000,4.000000,4.000000,4.000000,4.000000,4.000000,4.000000,4.000000,4.000000,4.000000,4.000000,4.000000,4.000000,4.000000,4.000000,4.000000,4.000000,4.000000,4.000000,4.000000,4.000000,4.000000,4.000000,4.000000,100.000000
1614475412.104219,89.000000,0.000000,1.844932,2.333848,-16.026804,-47.695652,-5.053576,-10.896417,-5.969921,-10.215107,1.471253,-35.447861,-5.920234,-5.043669,11.861893,-9.468079,-38.237431,-16.731499,-2.292682,-37.603382,-16.776384,22.619547,22.769745,5.107261,-9.140462,-105.613480,43.760113,7.182140,11.335929,78.287735,19.503679,46.906708,-137.271698,-96.221771,0.000000,190.000000,4.000000,,,,0.000000,4.000000,4.000000,4.000000,4.000000,4.000000,4.000000,4.000000,4.000000,4.000000,4.000000,4.000000,4.000000,4.000000,4.000000,4.000000,4.000000,4.000000,4.000000,4.000000,4.000000,4.000000,4.000000,4.000000,4.000000,4.000000,4.000000,4.000000,4.000000,4.000000,4.000000,4.000000,4.000000,100.000000
1614475412.112068,90.000000,0.000000,1.843087,1.818694,-6.780008,-29.699240,-4.022882,-10.372700,4.805280,-5.589507,4.033885,-22.591902,-6.427135,-5.038625,11.850031,-7.407328,-38.199192,-18.253229,-1.777569,-38.078602,0.163470,23.622568,32.490566,5.102154,-6.054398,-93.712997,46.280457,6.662138,9.786131,79.235085,18.971355,48.911083,-134.057510,-97.664017,0.000000,203.000000,4.000000,,,,0.000000,4.000000,4.000000,4.000000,4.000000,4.000000,4.000000,4.000000,4.000000,4.000000,4.000000,4.000000,4.000000,4.000000,4.000000,4.000000,4.000000,4.000000,4.000000,4.000000,4.000000,4.000000,4.000000,4.000000,4.000000,4.000000,4.000000,4.000000,4.000000,4.000000,4.000000,4.000000,4.000000,100.000000
1614475412.119817,91.000000,0.000000,1.841244,1.816876,5.021644,-9.669541,1.109347,-7.798224,7.364577,1.595570,8.645235,-20.518026,-10.523272,-5.546407,11.838181,-5.348639,-38.673813,-24.388823,-1.262971,-40.091805,-0.349514,23.598946,51.432434,5.097052,-4.509882,-77.721848,53.926483,5.629834,12.340447,81.719955,21.516485,47.836533,-131.872162,-95.002243,0.000000,194.000000,4.000000,,,,0.000000,4.000000,4.000000,4.000000,4.000000,4.000000,4.000000,4.000000,4.000000,4.000000,4.000000,4.000000,4.000000,4.000000,4.000000,4.000000,4.000000,4.000000,4.000000,4.000000,4.000000,4.000000,4.000000,4.000000,4.000000,4.000000,4.000000,4.000000,4.000000,4.000000,4.000000,4.000000,4.000000,100.000000
1614475412.127666,92.000000,0.000000,2.352223,1.302238,8.606366,-7.095769,3.672340,-3.687862,7.357213,2.106795,6.585308,-13.318022,-7.435825,-4.002399,11.826343,0.810556,-30.430012,-16.159306,-1.774529,-29.795301,5.291861,22.549706,60.098949,5.604775,2.161294,-72.003098,60.026402,6.649845,21.558876,82.663879,23.546251,49.839977,-128.150543,-83.625191,0.000000,192.000000,4.000000,,,,0.000000,4.000000,4.000000,4.000000,4.000000,4.000000,4.000000,4.000000,4.000000,4.000000,4.000000,4.000000,4.000000,4.000000,4.000000,4.000000,4.000000,4.000000,4.000000,4.000000,4.000000,4.000000,4.000000,4.000000,4.000000,4.000000,4.000000,4.000000,4.000000,4.000000,4.000000,4.000000,4.000000,100.000000
1614475412.135415,93.000000,0.000000,0.811410,1.813756,6.546477,-9.139956,3.668668,-1.632892,8.375497,2.104688,5.040261,2.592732,4.366482,0.616988,11.814516,11.066155,-10.912402,1.292751,-1.772754,-14.893711,16.055799,24.578438,58.500389,5.599171,9.851440,-73.982384,60.992020,6.643196,26.665524,82.068390,23.522705,49.277317,-124.432655,-78.926186,0.000000,194.000000,4.000000,,,,0.000000,4.000000,4.000000,4.000000,4.000000,4.000000,4.000000,4.000000,4.000000,4.000000,4.000000,4.000000,4.000000,4.000000,4.000000,4.000000,4.000000,4.000000,4.000000,4.000000,4.000000,4.000000,4.000000,4.000000,4.000000,4.000000,4.000000,4.000000,4.000000,4.000000,4.000000,4.000000,4.000000,100.000000
1614475412.143264,94.000000,0.000000,-1.753504,2.324763,6.027111,-10.669277,3.152179,-2.144079,7.854300,5.692327,5.548041,-0.486784,5.900578,3.693294,12.315522,13.106372,-1.670721,-0.247003,-0.745340,-11.289074,3.732052,23.528217,50.236759,3.029469,7.790308,-86.216087,54.264359,2.021168,20.997831,82.499146,23.499184,35.894707,-131.487717,-82.437004,0.000000,203.000000,4.000000,,,,0.000000,4.000000,4.000000,4.000000,4.000000,4.000000,4.000000,4.000000,4.000000,4.000000,4.000000,4.000000,4.000000,4.000000,4.000000,4.000000,4.000000,4.000000,4.000000,4.000000,4.000000,4.000000,4.000000,4.000000,4.000000,4.000000,4.000000,4.000000,4.000000,4.000000,4.000000,4.000000,4.000000,100.000000
1614475412.151013,95.000000,0.000000,-2.264571,-0.241664,8.585186,-17.325274,2.123385,-2.654756,8.872087,4.148173,-0.611353,-24.076040,-10.515579,1.125498,12.303206,5.913778,-13.976743,-25.887781,-3.308697,-33.329067,-28.579372,12.735458,27.109600,2.000798,-3.499534,-112.796539,44.466507,-1.570597,16.874269,81.903824,22.962864,27.653683,-136.484421,-83.893028,0.000000,183.000000,4.000000,,,,0.000000,4.000000,4.000000,4.000000,4.000000,4.000000,4.000000,4.000000,4.000000,4.000000,4.000000,4.000000,4.000000,4.000000,4.000000,4.000000,4.000000,4.000000,4.000000,4.000000,4.000000,4.000000,4.000000,4.000000,4.000000,4.000000,4.000000,4.000000,4.000000,4.000000,4.000000,4.000000,4.000000,100.000000
1614475412.158862,96.000000,0.000000,0.814616,-1.779884,6.525319,-23.974615,0.069980,-2.139281,7.837574,-4.061103,-5.226126,-40.462219,-20.761475,-5.542294,8.188339,1.292480,-30.373022,-44.323433,-7.920774,-62.526508,-56.755920,1.953493,3.492747,1.998798,-16.829369,-134.222198,40.319473,0.995076,20.447140,78.232178,23.965542,36.343979,-128.655640,-84.321953,8064.000000,0.000000,4.000000,,,,0.000000,4.000000,4.000000,4.000000,4.000000,4.000000,4.000000,4.000000,4.000000,4.000000,4.000000,4.000000,4.000000,4.000000,4.000000,4.000000,4.000000,4.000000,4.000000,4.000000,4.000000,4.000000,4.000000,4.000000,4.000000,4.000000,4.000000,4.000000,4.000000,4.000000,4.000000,4.000000,4.000000,100.000000
1614475412.166611,97.000000,0.000000,1.839443,1.298819,-7.840181,-30.104486,-0.442911,-1.624321,6.804095,-6.621145,1.445767,-39.908939,-14.586866,-5.023931,7.667331,2.316828,-33.932392,-37.612442,-9.964135,-61.438339,-55.673523,-5.740768,-1.126130,-0.054483,-23.479206,-137.164902,37.715054,3.558184,17.349770,75.077019,22.915936,39.897377,-134.680832,-97.058144,8064.000000,0.000000,4.000000,,,,0.000000,4.000000,4.000000,4.000000,4.000000,4.000000,4.000000,4.000000,4.000000,4.000000,4.000000,4.000000,4.000000,4.000000,4.000000,4.000000,4.000000,4.000000,4.000000,4.000000,4.000000,4.000000,4.000000,4.000000,4.000000,4.000000,4.000000,4.000000,4.000000,4.000000,4.000000,4.000000,4.000000,100.000000
1614475412.174260,98.000000,0.000000,2.350424,2.323161,-20.140034,-32.638485,0.583173,-4.699620,8.848574,-4.050421,6.572526,-38.330566,-13.546638,2.673401,12.787868,2.314511,-30.821537,-26.805599,-8.928530,-51.633312,-49.976826,-15.991438,1.439098,-2.105711,-22.430084,-134.463638,31.010672,0.477702,1.947803,73.976303,17.251993,31.652351,-159.161530,-116.448265,8064.000000,0.000000,4.000000,,,,0.000000,4.000000,4.000000,4.000000,4.000000,4.000000,4.000000,4.000000,4.000000,4.000000,4.000000,4.000000,4.000000,4.000000,4.000000,4.000000,4.000000,4.000000,4.000000,4.000000,4.000000,4.000000,4.000000,4.000000,4.000000,4.000000,4.000000,4.000000,4.000000,4.000000,4.000000,4.000000,4.000000,100.000000
1614475412.182010,99.000000,0.000000,2.348073,-2.807367,-16.530149,-30.554565,-1.981513,-11.361587,5.249981,-7.636115,1.950569,-44.446083,-24.302322,-1.431837,7.646875,-8.457034,-41.047127,-31.394178,-8.919601,-67.991936,-62.747360,-25.206215,-1.639264,-2.616426,-20.869194,-135.354813,27.389917,-1.061237,-8.823375,72.876686,12.106536,28.543777,-165.669037,-122.485664,8064.000000,0.000000,4.000000,,,,0.000000,4.000000,4.000000,4.000000,4.000000,4.000000,4.000000,4.000000,4.000000,4.000000,4.000000,4.000000,4.000000,4.000000,4.000000,4.000000,4.000000,4.000000,4.000000,4.000000,4.000000,4.000000,4.000000,4.000000,4.000000,4.000000,4.000000,4.000000,4.000000,4.000000,4.000000,4.000000,4.000000,100.000000
1614475412.189659,100.000000,0.000000,0.294443,-6.394303,-17.539261,-41.806061,-8.646197,-14.427148,-10.139884,-16.859247,-5.743689,-50.555485,-29.406225,-20.917585,-9.283849,-22.294731,-62.031719,-38.542271,-10.961964,-84.334198,-68.838463,-28.257933,-4.201727,-5.690732,-22.899607,-137.270737,28.388168,-1.060176,-8.814551,70.239708,11.581609,31.079336,-156.785416,-118.260612,8064.000000,0.000000,4.000000,,,,0.000000,4.000000,4.000000,4.000000,4.000000,4.000000,4.000000,4.000000,4.000000,4.000000,4.000000,4.000000,4.000000,4.000000,4.000000,4.000000,4.000000,4.000000,4.000000,4.000000,4.000000,4.000000,4.000000,4.000000,4.000000,4.000000,4.000000,4.000000,4.000000,4.000000,4.000000,4.000000,4.000000,100.000000
1614475412.197408,101.000000,0.000000,-2.269954,-4.849448,-27.265310,-57.661690,-15.304218,-13.387080,-18.847692,-21.970592,-9.840509,-51.530567,-27.325537,-30.640257,-16.454052,-22.272436,-70.687637,-39.016548,-12.489463,-77.070381,-51.333725,-23.614290,6.571705,-9.787605,-24.927988,-125.851425,28.872601,-4.648859,-7.267276,70.169464,12.082848,30.535435,-154.064529,-119.167992,8064.000000,0.000000,4.000000,,,,0.000000,4.000000,4.000000,4.000000,4.000000,4.000000,4.000000,4.000000,4.000000,4.000000,4.000000,4.000000,4.000000,4.000000,4.000000,4.000000,4.000000,4.000000,4.000000,4.000000,4.000000,4.000000,4.000000,4.000000,4.000000,4.000000,4.000000,4.000000,4.000000,4.000000,4.000000,4.000000,4.000000,100.000000
1614475412.205057,102.000000,0.000000,-1.754863,-7.408700,-20.571379,-48.373260,-15.288914,-14.399334,-12.162179,-20.922981,-9.830669,-48.914936,-27.811031,-24.968592,-11.822213,-11.480933,-63.437462,-42.567276,-12.989794,-72.890747,-38.461876,-7.180419,28.616415,-9.777818,-23.877420,-99.571724,36.023216,-8.233953,-8.285649,72.663399,11.557944,29.479259,-145.705338,-118.023186,8064.000000,0.000000,4.000000,,,,0.000000,4.000000,4.000000,4.000000,4.000000,4.000000,4.000000,4.000000,4.000000,4.000000,4.000000,4.000000,4.000000,4.000000,4.000000,4.000000,4.000000,4.000000,4.000000,4.000000,4.000000,4.000000,4.000000,4.000000,4.000000,4.000000,4.000000,4.000000,4.000000,4.000000,4.000000,4.000000,4.000000,100.000000
1614475412.212806,103.000000,0.000000,-2.778749,-13.555138,-3.627731,-28.837708,-12.709522,-12.333652,-7.021811,-19.876417,-10.333659,-43.224995,-28.808863,-24.430801,-9.246288,-9.930990,-58.245819,-47.140095,-12.463984,-74.356316,-34.320850,11.288300,44.998055,-8.742399,-19.750978,-83.574715,43.166679,-9.251361,-8.790184,74.129196,11.546387,29.962601,-132.739120,-108.674393,8064.000000,0.000000,4.000000,,,,0.000000,4.000000,4.000000,4.000000,4.000000,4.000000,4.000000,4.000000,4.000000,4.000000,4.000000,4.000000,4.000000,4.000000,4.000000,4.000000,4.000000,4.000000,4.000000,4.000000,4.000000,4.000000,4.000000,4.000000,4.000000,4.000000,4.000000,4.000000,4.000000,4.000000,4.000000,4.000000,4.000000,100.000000
1614475412.220455,104.000000,0.000000,-7.904176,-12.515942,0.478461,-27.270409,-12.183992,-5.141832,-8.553251,-22.420645,-11.348967,-35.489464,-27.754412,-25.944832,-11.801145,-13.510803,-53.572189,-43.503208,-12.964340,-59.410164,-21.978838,19.994961,47.004341,-9.759297,-16.654305,-86.055244,43.636333,-8.729289,-6.730112,74.055069,12.047661,29.419817,-133.119202,-100.360588,8064.000000,0.000000,4.000000,,,,0.000000,4.000000,4.000000,4.000000,4.000000,4.000000,4.000000,4.000000,4.000000,4.000000,4.000000,4.000000,4.000000,4.000000,4.000000,4.000000,4.000000,4.000000,4.000000,4.000000,4.000000,4.000000,4.000000,4.000000,4.000000,4.000000,4.000000,4.000000,4.000000,4.000000,4.000000,4.000000,4.000000,100.000000
1614475412.228204,105.000000,0.000000,-9.434733,-6.862401,-1.060479,-32.884163,-11.146168,-1.546946,-6.493416,-17.270018,-6.209412,-31.351408,-28.239479,-10.021452,-10.250882,-10.420369,-37.621181,-39.869965,-12.951376,-38.325111,-13.238911,24.590349,46.957336,-9.236718,-16.637650,-87.507652,49.746544,-7.694919,-0.569536,73.981018,11.522793,29.903217,-131.447617,-93.593559,8064.000000,0.000000,4.000000,,,,0.000000,4.000000,4.000000,4.000000,4.000000,4.000000,4.000000,4.000000,4.000000,4.000000,4.000000,4.000000,4.000000,4.000000,4.000000,4.000000,4.000000,4.000000,4.000000,4.000000,4.000000,4.000000,4.000000,4.000000,4.000000,4.000000,4.000000,4.000000,4.000000,4.000000,4.000000,4.000000,4.000000,100.000000
1614475412.235853,106.000000,0.000000,-3.784273,-5.317076,4.581607,-31.312819,-8.570919,-2.058220,-3.409999,-1.355312,0.463464,-31.320057,-28.211239,8.450109,-3.573964,-8.871488,-22.198944,-38.804451,-10.374322,-33.671402,-16.302595,26.104221,42.294994,-6.663379,-16.108192,-91.009888,54.312180,-6.661583,6.097701,74.419853,12.024090,31.924597,-124.136681,-84.782021,8064.000000,0.000000,4.000000,,,,0.000000,4.000000,4.000000,4.000000,4.000000,4.000000,4.000000,4.000000,4.000000,4.000000,4.000000,4.000000,4.000000,4.000000,4.000000,4.000000,4.000000,4.000000,4.000000,4.000000,4.000000,4.000000,4.000000,4.000000,4.000000,4.000000,4.000000,4.000000,4.000000,4.000000,4.000000,4.000000,4.000000,100.000000
1614475412.243603,107.000000,0.000000,0.834896,-1.722016,8.166769,-30.255863,-8.049527,-2.568982,-3.406589,9.928094,0.463000,-31.801558,-18.952259,11.005760,4.121917,-7.836975,-17.048540,-29.534878,-8.825486,-36.714653,-17.824755,11.719142,23.791161,-5.118254,-16.604904,-103.739388,42.975819,-3.577998,7.630064,70.242867,12.012066,33.943954,-133.243317,-86.235703,8064.000000,0.000000,4.000000,,,,0.000000,4.000000,4.000000,4.000000,4.000000,4.000000,4.000000,4.000000,4.000000,4.000000,4.000000,4.000000,4.000000,4.000000,4.000000,4.000000,4.000000,4.000000,4.000000,4.000000,4.000000,4.000000,4.000000,4.000000,4.000000,4.000000,4.000000,4.000000,4.000000,4.000000,4.000000,4.000000,4.000000,100.000000
1614475412.251252,108.000000,0.000000,2.372523,6.997655,6.620141,-31.251249,-3.938914,-2.566413,0.186561,9.918166,1.488178,-31.769756,-5.087152,10.481935,5.656257,1.401632,-17.031492,-17.197651,-8.303841,-34.626656,-22.935135,-11.882320,5.818651,-5.113135,-20.690863,-113.892059,31.650789,1.040964,7.109614,67.095703,11.487233,34.935650,-142.853668,-90.764847,8064.000000,0.000000,4.000000,,,,0.000000,4.000000,4.000000,4.000000,4.000000,4.000000,4.000000,4.000000,4.000000,4.000000,4.000000,4.000000,4.000000,4.000000,4.000000,4.000000,4.000000,4.000000,4.000000,4.000000,4.000000,4.000000,4.000000,4.000000,4.000000,4.000000,4.000000,4.000000,4.000000,4.000000,4.000000,4.000000,4.000000,100.000000
1614475412.259001,109.000000,0.000000,4.934253,10.580400,5.587880,-32.245640,2.218871,-2.051026,6.853041,9.908248,8.666178,-31.225166,0.558960,16.625299,4.624959,6.015615,-20.604204,-14.103531,-8.808357,-35.617672,-36.758354,-22.639669,3.761550,-6.133663,-24.259916,-117.367912,31.619139,3.604026,7.615324,69.592712,14.039849,37.464817,-137.582611,-85.033058,8064.000000,0.000000,4.000000,,,,0.000000,4.000000,4.000000,4.000000,4.000000,4.000000,4.000000,4.000000,4.000000,4.000000,4.000000,4.000000,4.000000,4.000000,4.000000,4.000000,4.000000,4.000000,4.000000,4.000000,4.000000,4.000000,4.000000,4.000000,4.000000,4.000000,4.000000,4.000000,4.000000,4.000000,4.000000,4.000000,4.000000,100.000000
1614475412.266650,110.000000,0.000000,5.954959,9.544180,4.043830,-31.700573,4.267935,-2.048975,8.384649,9.385519,13.272896,-32.219582,-2.518522,17.634314,5.133155,0.368573,-27.763086,-20.243273,-9.312369,-46.351284,-44.413902,-23.129850,4.270609,-6.640350,-24.235657,-122.378746,31.587521,2.574781,7.607709,73.112862,18.641193,42.042740,-134.880920,-86.999306,8064.000000,0.000000,4.000000,,,,0.000000,4.000000,4.000000,4.000000,4.000000,4.000000,4.000000,4.000000,4.000000,4.000000,4.000000,4.000000,4.000000,4.000000,4.000000,4.000000,4.000000,4.000000,4.000000,4.000000,4.000000,4.000000,4.000000,4.000000,4.000000,4.000000,4.000000,4.000000,4.000000,4.000000,4.000000,4.000000,4.000000,100.000000
1614475412.274399,111.000000,0.000000,5.949005,9.021814,1.988505,-26.027847,3.238026,-7.175131,7.350624,4.247929,12.233982,-33.213005,-5.080106,10.950013,5.128022,-3.221539,-31.837887,-24.838415,-9.303057,-56.048523,-43.856667,-23.106720,2.215056,-5.608069,-24.211420,-123.794830,34.632854,4.110668,7.087281,74.065392,20.161015,45.077618,-133.207581,-97.681541,8064.000000,0.000000,4.000000,,,,0.000000,4.000000,4.000000,4.000000,4.000000,4.000000,4.000000,4.000000,4.000000,4.000000,4.000000,4.000000,4.000000,4.000000,4.000000,4.000000,4.000000,4.000000,4.000000,4.000000,4.000000,4.000000,4.000000,4.000000,4.000000,4.000000,4.000000,4.000000,4.000000,4.000000,4.000000,4.000000,4.000000,100.000000
1614475412.282048,112.000000,0.000000,5.943056,9.525614,1.986516,-20.360792,3.234788,-6.655136,7.343273,1.166758,12.221748,-29.077227,-4.562205,9.400601,4.610074,-1.167035,-30.267588,-23.787935,-8.780933,-55.479652,-43.299992,-19.493870,9.392328,-7.140923,-22.648748,-120.081291,45.880276,7.183480,7.080194,76.042610,19.115211,44.519722,-120.766678,-92.455650,8064.000000,0.000000,4.000000,,,,0.000000,4.000000,4.000000,4.000000,4.000000,4.000000,4.000000,4.000000,4.000000,4.000000,4.000000,4.000000,4.000000,4.000000,4.000000,4.000000,4.000000,4.000000,4.000000,4.000000,4.000000,4.000000,4.000000,4.000000,4.000000,4.000000,4.000000,4.000000,4.000000,4.000000,4.000000,4.000000,4.000000,100.000000
1614475412.289897,113.000000,0.000000,4.911471,9.516088,1.984529,-20.340433,3.744373,0.531007,7.848751,0.652770,11.696706,-25.458405,-5.583284,7.852740,4.605464,-1.678689,-29.724501,-27.866711,-9.797793,-55.424175,-41.718231,-12.807710,15.023962,-10.723525,-17.497894,-119.448395,51.475418,5.125015,7.073113,77.505028,19.608917,43.962379,-115.004883,-80.568321,8064.000000,0.000000,4.000000,,,,0.000000,4.000000,4.000000,4.000000,4.000000,4.000000,4.000000,4.000000,4.000000,4.000000,4.000000,4.000000,4.000000,4.000000,4.000000,4.000000,4.000000,4.000000,4.000000,4.000000,4.000000,4.000000,4.000000,4.000000,4.000000,4.000000,4.000000,4.000000,4.000000,4.000000,4.000000,4.000000,4.000000,100.000000
1614475412.297646,114.000000,0.000000,2.342457,7.968110,1.982545,-19.807272,3.227808,-1.007986,6.815261,-4.476088,7.069624,-25.945768,-11.731546,2.203861,3.575217,-2.702651,-33.284519,-42.197819,-9.275175,-60.496956,-44.240612,-2.538491,15.008938,-3.533314,-16.967575,-113.687920,50.911121,2.555787,7.066041,76.914703,19.589308,43.918419,-122.069366,-83.564682,8064.000000,0.000000,4.000000,,,,0.000000,4.000000,4.000000,4.000000,4.000000,4.000000,4.000000,4.000000,4.000000,4.000000,4.000000,4.000000,4.000000,4.000000,4.000000,4.000000,4.000000,4.000000,4.000000,4.000000,4.000000,4.000000,4.000000,4.000000,4.000000,4.000000,4.000000,4.000000,4.000000,4.000000,4.000000,4.000000,4.000000,100.000000
1614475412.305495,115.000000,0.000000,1.314474,5.396039,2.493383,-16.710541,3.224581,-2.545439,6.808445,-7.548534,3.985632,-19.253155,-15.309559,-1.900907,3.058821,-1.161487,-28.123030,-44.719723,-1.573592,-50.692867,-40.093807,23.105072,30.378544,13.393296,-16.950607,-90.497307,54.449955,2.040411,7.058974,77.350609,19.056898,43.361679,-123.998581,-87.583679,8064.000000,0.000000,4.000000,,,,0.000000,4.000000,4.000000,4.000000,4.000000,4.000000,4.000000,4.000000,4.000000,4.000000,4.000000,4.000000,4.000000,4.000000,4.000000,4.000000,4.000000,4.000000,4.000000,4.000000,4.000000,4.000000,4.000000,4.000000,4.000000,4.000000,4.000000,4.000000,4.000000,4.000000,4.000000,4.000000,4.000000,100.000000
1614475412.313244,116.000000,0.000000,1.825980,4.877823,1.465248,-16.181009,3.221356,6.175055,7.314457,-4.464063,3.981646,-7.439030,-8.114762,-1.899006,6.132685,1.403777,-10.659009,-26.213465,7.658751,-25.001150,-9.797305,52.825558,56.502010,22.097851,-7.702888,-65.791428,58.498070,0.499909,7.051916,79.837357,19.037842,43.831139,-122.336121,-83.393532,8064.000000,0.000000,4.000000,,,,0.000000,4.000000,4.000000,4.000000,4.000000,4.000000,4.000000,4.000000,4.000000,4.000000,4.000000,4.000000,4.000000,4.000000,4.000000,4.000000,4.000000,4.000000,4.000000,4.000000,4.000000,4.000000,4.000000,4.000000,4.000000,4.000000,4.000000,4.000000,4.000000,4.000000,4.000000,4.000000,4.000000,100.000000
1614475412.321093,117.000000,0.000000,1.311333,5.385766,2.489424,-17.190470,2.705314,4.630418,6.794322,-3.433958,4.490485,-6.918771,-4.516904,3.231098,7.152194,2.428014,-2.443222,-13.366739,7.651092,-11.129995,14.315057,56.362476,60.548073,17.973190,4.612507,-62.648708,57.926750,-1.551873,7.044864,80.783165,19.018805,43.787308,-124.777885,-83.822960,8064.000000,0.000000,4.000000,,,,0.000000,4.000000,4.000000,4.000000,4.000000,4.000000,4.000000,4.000000,4.000000,4.000000,4.000000,4.000000,4.000000,4.000000,4.000000,4.000000,4.000000,4.000000,4.000000,4.000000,4.000000,4.000000,4.000000,4.000000,4.000000,4.000000,4.000000,4.000000,4.000000,4.000000,4.000000,4.000000,4.000000,100.000000
1614475412.328842,118.000000,0.000000,1.310022,4.867559,8.640781,-15.121998,3.215430,-6.656264,6.274708,-1.379242,3.973174,-9.988775,-8.102130,12.971457,7.145041,0.374304,-8.081804,-13.866193,5.079339,-14.195788,1.993049,42.459961,49.718296,13.339831,7.171998,-71.816833,57.868824,-1.550321,7.037819,80.189560,18.999784,42.717876,-126.704391,-86.816055,8064.000000,0.000000,4.000000,,,,0.000000,4.000000,4.000000,4.000000,4.000000,4.000000,4.000000,4.000000,4.000000,4.000000,4.000000,4.000000,4.000000,4.000000,4.000000,4.000000,4.000000,4.000000,4.000000,4.000000,4.000000,4.000000,4.000000,4.000000,4.000000,4.000000,4.000000,4.000000,4.000000,4.000000,4.000000,4.000000,4.000000,100.000000
1614475412.336691,119.000000,0.000000,4.385635,6.913974,10.683422,-12.029952,3.725034,-3.572684,12.422279,5.288804,4.482021,-3.312119,1.136741,21.163614,17.907127,2.425212,0.131406,-4.108737,10.202464,-13.155951,-5.188431,34.212372,46.078835,13.326491,5.113544,-75.334755,57.298134,2.553793,7.543602,80.109367,18.980785,48.316185,-124.013580,-87.754883,8064.000000,0.000000,4.000000,,,,0.000000,4.000000,4.000000,4.000000,4.000000,4.000000,4.000000,4.000000,4.000000,4.000000,4.000000,4.000000,4.000000,4.000000,4.000000,4.000000,4.000000,4.000000,4.000000,4.000000,4.000000,4.000000,4.000000,4.000000,4.000000,4.000000,4.000000,4.000000,4.000000,4.000000,4.000000,4.000000,4.000000,100.000000
1614475412.344441,120.000000,0.000000,8.483813,8.445521,4.006072,-12.530743,3.208489,6.174478,18.563704,10.411720,4.477539,-2.283166,21.648424,24.219374,30.196913,10.115094,12.438967,10.254346,14.294826,-11.604334,6.098809,18.793543,35.776344,12.800344,7.159712,-77.823524,53.138271,10.243547,7.023237,80.029259,18.448984,56.985817,-122.351105,-90.231232,8192.000000,0.000000,4.000000,,,,0.000000,4.000000,4.000000,4.000000,4.000000,4.000000,4.000000,4.000000,4.000000,4.000000,4.000000,4.000000,4.000000,4.000000,4.000000,4.000000,4.000000,4.000000,4.000000,4.000000,4.000000,4.000000,4.000000,4.000000,4.000000,4.000000,4.000000,4.000000,4.000000,4.000000,4.000000,4.000000,4.000000,100.000000
1614475412.352289,121.000000,0.000000,9.500971,8.949897,3.489246,-13.543853,4.743742,5.655483,15.981037,9.375668,4.473062,-9.973191,22.139597,23.682333,29.653894,14.207543,1.144476,5.628707,11.716429,-26.977345,-6.214983,-6.866276,18.817492,11.761904,5.614091,-88.514931,49.495392,13.310226,7.016214,79.949226,18.943356,58.980114,-122.741577,-89.628181,8064.000000,0.000000,4.000000,,,,0.000000,4.000000,4.000000,4.000000,4.000000,4.000000,4.000000,4.000000,4.000000,4.000000,4.000000,4.000000,4.000000,4.000000,4.000000,4.000000,4.000000,4.000000,4.000000,4.000000,4.000000,4.000000,4.000000,4.000000,4.000000,4.000000,4.000000,4.000000,4.000000,4.000000,4.000000,4.000000,4.000000,100.000000
1614475412.360039,122.000000,0.000000,8.978649,10.992229,13.742167,-10.453386,11.405665,3.598546,15.965055,9.366292,4.468589,-5.860653,5.707201,25.709932,26.547318,12.654875,-14.241283,-6.171793,14.268814,-46.950367,-29.285690,-17.115820,13.670468,12.775783,-1.058190,-100.221291,49.445896,11.245634,7.522018,79.869278,22.514156,58.921135,-122.618835,-86.461624,8064.000000,0.000000,4.000000,,,,0.000000,4.000000,4.000000,4.000000,4.000000,4.000000,4.000000,4.000000,4.000000,4.000000,4.000000,4.000000,4.000000,4.000000,4.000000,4.000000,4.000000,4.000000,4.000000,4.000000,4.000000,4.000000,4.000000,4.000000,4.000000,4.000000,4.000000,4.000000,4.000000,4.000000,4.000000,4.000000,4.000000,100.000000
1614475412.367888,123.000000,0.000000,8.969670,6.878672,13.728424,-7.366010,15.496823,5.133409,22.102938,9.869746,4.976941,2.863156,1.086109,24.145761,26.520771,13.667861,-15.765504,-11.806647,13.228905,-48.441879,-33.871788,-16.073063,14.682439,9.173264,-5.159696,-103.197990,49.909271,11.234388,6.488855,79.789413,23.004461,59.375034,-121.983398,-87.400810,8064.000000,0.000000,4.000000,,,,0.000000,4.000000,4.000000,4.000000,4.000000,4.000000,4.000000,4.000000,4.000000,4.000000,4.000000,4.000000,4.000000,4.000000,4.000000,4.000000,4.000000,4.000000,4.000000,4.000000,4.000000,4.000000,4.000000,4.000000,4.000000,4.000000,4.000000,4.000000,4.000000,4.000000,4.000000,4.000000,4.000000,100.000000
1614475412.375637,124.000000,0.000000,6.909419,-8.000001,-1.157099,-15.050951,8.301840,5.128275,15.926988,2.680389,3.433502,-6.370477,3.136305,11.813924,17.776300,13.141373,-22.929226,-25.128174,-5.758683,-43.778053,-37.940483,-16.569811,14.154936,-2.117961,-9.257100,-104.120438,49.346542,7.120590,3.405443,79.196800,21.442995,53.161812,-122.374229,-89.877510,8064.000000,0.000000,4.000000,,,,0.000000,4.000000,4.000000,4.000000,4.000000,4.000000,4.000000,4.000000,4.000000,4.000000,4.000000,4.000000,4.000000,4.000000,4.000000,4.000000,4.000000,4.000000,4.000000,4.000000,4.000000,4.000000,4.000000,4.000000,4.000000,4.000000,4.000000,4.000000,4.000000,4.000000,4.000000,4.000000,4.000000,100.000000
1614475412.383486,125.000000,0.000000,4.851227,-14.658668,-6.796968,-24.779490,-0.424411,4.610326,3.603369,-5.014599,0.353146,-18.671799,-5.584780,-4.608147,5.450833,3.384641,-34.701168,-42.026123,-14.470873,-48.349659,-41.492287,-2.194266,25.422832,-6.218408,-16.427330,-102.990669,49.810013,-3.142941,3.402038,79.630424,27.575399,44.390701,-122.251862,-90.300453,8064.000000,0.000000,4.000000,,,,0.000000,4.000000,4.000000,4.000000,4.000000,4.000000,4.000000,4.000000,4.000000,4.000000,4.000000,4.000000,4.000000,4.000000,4.000000,4.000000,4.000000,4.000000,4.000000,4.000000,4.000000,4.000000,4.000000,4.000000,4.000000,4.000000,4.000000,4.000000,4.000000,4.000000,4.000000,4.000000,4.000000,100.000000
1614475412.391235,126.000000,0.000000,5.359197,-7.977343,-0.123504,-24.241890,-1.449628,4.605716,4.625406,-7.060866,0.352792,-17.627485,-13.784324,-7.167641,2.881279,-2.772590,-35.179287,-45.061020,-0.097428,-47.788490,-29.655920,24.474594,40.782024,-1.596804,-17.436544,-100.836403,49.760204,-5.191080,6.475559,79.550797,33.701672,43.320671,-121.616783,-89.184509,8064.000000,0.000000,4.000000,,,,0.000000,4.000000,4.000000,4.000000,4.000000,4.000000,4.000000,4.000000,4.000000,4.000000,4.000000,4.000000,4.000000,4.000000,4.000000,4.000000,4.000000,4.000000,4.000000,4.000000,4.000000,4.000000,4.000000,4.000000,4.000000,4.000000,4.000000,4.000000,4.000000,4.000000,4.000000,4.000000,4.000000,100.000000
1614475412.398884,127.000000,0.000000,5.353837,-5.405262,-8.328508,-25.243290,0.090283,4.601110,4.620781,-6.540985,0.865260,-19.148319,-15.309001,-6.134833,4.416860,-2.256997,-37.195389,-46.041599,3.492413,-39.535572,-20.908316,35.732170,42.792526,0.456074,-12.290902,-100.735565,49.710445,-4.673068,6.469083,77.419960,30.591045,41.226067,-122.007988,-89.608147,8064.000000,0.000000,4.000000,,,,0.000000,4.000000,4.000000,4.000000,4.000000,4.000000,4.000000,4.000000,4.000000,4.000000,4.000000,4.000000,4.000000,4.000000,4.000000,4.000000,4.000000,4.000000,4.000000,4.000000,4.000000,4.000000,4.000000,4.000000,4.000000,4.000000,4.000000,4.000000,4.000000,4.000000,4.000000,4.000000,4.000000,100.000000
1614475412.406633,0.000000,0.000000,4.835663,-5.912678,-20.627872,-31.371893,-1.961089,5.109330,-5.640250,-3.457521,-0.674067,-28.872761,-21.447538,-8.692801,3.386802,-5.331663,-41.260757,-51.636585,-5.741848,-35.906292,-17.810484,34.670799,42.236912,4.045362,-9.714509,-91.404060,49.660732,-11.335062,6.975435,75.291260,25.945070,34.005356,-124.450089,-89.518539,0.000000,188.000000,4.000000,,,,0.000000,4.000000,4.000000,4.000000,4.000000,4.000000,4.000000,4.000000,4.000000,4.000000,4.000000,4.000000,4.000000,4.000000,4.000000,4.000000,4.000000,4.000000,4.000000,4.000000,4.000000,4.000000,4.000000,4.000000,4.000000,4.000000,4.000000,4.000000,4.000000,4.000000,4.000000,4.000000,4.000000,100.000000
1614475412.414282,1.000000,0.000000,5.856469,2.811183,-10.350834,-24.161034,-0.420666,3.052938,-6.147430,3.725424,3.941992,-25.254145,-25.015835,4.649226,4.409056,-3.787869,-30.450268,-40.302895,1.956201,-29.716539,-5.484982,37.200230,44.758778,11.733624,-5.089410,-71.825478,49.611073,-6.195521,12.096664,78.292892,25.919125,30.381605,-125.864098,-89.429016,0.000000,164.000000,4.000000,,,,0.000000,4.000000,4.000000,4.000000,4.000000,4.000000,4.000000,4.000000,4.000000,4.000000,4.000000,4.000000,4.000000,4.000000,4.000000,4.000000,4.000000,4.000000,4.000000,4.000000,4.000000,4.000000,4.000000,4.000000,4.000000,4.000000,4.000000,4.000000,4.000000,4.000000,4.000000,4.000000,4.000000,100.000000
1614475412.422031,2.000000,0.000000,5.850612,10.500680,6.582593,-8.752256,6.759242,0.998603,4.115127,8.337083,13.681640,-12.921198,-7.554921,29.772781,6.455929,10.062073,-10.932637,-12.570285,14.774757,-10.199644,3.238452,37.163029,44.201199,13.773172,5.684910,-63.035702,49.561462,8.169648,15.674312,80.265884,23.841923,31.889685,-123.174133,-89.339592,0.000000,183.000000,4.000000,,,,0.000000,4.000000,4.000000,4.000000,4.000000,4.000000,4.000000,4.000000,4.000000,4.000000,4.000000,4.000000,4.000000,4.000000,4.000000,4.000000,4.000000,4.000000,4.000000,4.000000,4.000000,4.000000,4.000000,4.000000,4.000000,4.000000,4.000000,4.000000,4.000000,4.000000,4.000000,4.000000,4.000000,100.000000
1614475412.429680,3.000000,0.000000,3.793479,8.951717,5.550370,-4.128120,11.367867,0.484784,8.213576,9.354387,15.719240,-8.805713,14.503917,36.409676,9.013576,20.821241,2.411628,12.057670,13.734342,5.707992,9.901880,33.023304,42.618534,12.733758,14.397174,-65.023949,49.511902,6.110197,13.094535,78.647156,18.689877,32.370617,-121.512497,-89.250252,0.000000,165.000000,4.000000,,,,0.000000,4.000000,4.000000,4.000000,4.000000,4.000000,4.000000,4.000000,4.000000,4.000000,4.000000,4.000000,4.000000,4.000000,4.000000,4.000000,4.000000,4.000000,4.000000,4.000000,4.000000,4.000000,4.000000,4.000000,4.000000,4.000000,4.000000,4.000000,4.000000,4.000000,4.000000,4.000000,4.000000,100.000000
1614475412.437429,4.000000,0.000000,2.251225,9.968407,0.416615,-6.688094,10.843678,0.484299,8.718183,10.883494,12.626597,-8.796907,21.156078,32.270702,11.568665,20.287600,4.973319,24.866125,13.207787,7.240745,17.584286,27.862074,39.498993,13.233845,14.382777,-62.907642,49.462387,0.463061,14.107081,81.132607,17.645546,31.825424,-121.390984,-89.161003,0.000000,168.000000,4.000000,,,,0.000000,4.000000,4.000000,4.000000,4.000000,4.000000,4.000000,4.000000,4.000000,4.000000,4.000000,4.000000,4.000000,4.000000,4.000000,4.000000,4.000000,4.000000,4.000000,4.000000,4.000000,4.000000,4.000000,4.000000,4.000000,4.000000,4.000000,4.000000,4.000000,4.000000,4.000000,4.000000,4.000000,100.000000
1614475412.445079,5.000000,0.000000,1.223332,9.445619,2.980300,-4.117304,10.832835,1.509456,11.786388,4.205944,11.075510,-5.198367,21.647743,33.264072,10.531455,20.267311,-4.775244,18.687412,11.143297,-4.048547,5.259009,11.936776,29.203085,4.502663,8.214548,-68.998581,49.412926,10.206187,18.195538,83.102760,18.653542,35.383343,-118.705490,-89.071838,0.000000,197.000000,4.000000,,,,0.000000,4.000000,4.000000,4.000000,4.000000,4.000000,4.000000,4.000000,4.000000,4.000000,4.000000,4.000000,4.000000,4.000000,4.000000,4.000000,4.000000,4.000000,4.000000,4.000000,4.000000,4.000000,4.000000,4.000000,4.000000,4.000000,4.000000,4.000000,4.000000,4.000000,4.000000,4.000000,4.000000,100.000000
1614475412.452828,6.000000,0.000000,-2.367635,-0.307417,4.002961,-0.523443,11.334823,0.995126,11.261781,-7.593133,9.525972,-4.167527,20.600454,27.076962,6.418359,21.272686,-16.565340,-0.305634,-3.739641,-25.582960,-21.925737,-4.485417,20.968754,-10.373635,3.078128,-90.468040,49.876335,13.785725,14.074779,75.327347,18.634888,43.040268,-117.048325,-89.495590,0.000000,187.000000,4.000000,,,,0.000000,4.000000,4.000000,4.000000,4.000000,4.000000,4.000000,4.000000,4.000000,4.000000,4.000000,4.000000,4.000000,4.000000,4.000000,4.000000,4.000000,4.000000,4.000000,4.000000,4.000000,4.000000,4.000000,4.000000,4.000000,4.000000,4.000000,4.000000,4.000000,4.000000,4.000000,4.000000,4.000000,100.000000
1614475412.460477,7.000000,0.000000,-4.929370,-4.922494,2.460497,-0.522919,10.297847,-0.544330,11.250519,-8.098361,7.977985,-6.214642,14.426008,15.767834,4.873479,20.225771,-19.112877,-13.638661,-12.966671,-33.762505,-27.032017,-2.429650,21.973425,-13.953005,1.023768,-100.121162,49.313637,6.592452,6.881217,67.046890,18.103432,47.612614,-116.418449,-87.867630,0.000000,173.000000,4.000000,,,,0.000000,4.000000,4.000000,4.000000,4.000000,4.000000,4.000000,4.000000,4.000000,4.000000,4.000000,4.000000,4.000000,4.000000,4.000000,4.000000,4.000000,4.000000,4.000000,4.000000,4.000000,4.000000,4.000000,4.000000,4.000000,4.000000,4.000000,4.000000,4.000000,4.000000,4.000000,4.000000,4.000000,100.000000
1614475412.468226,8.000000,0.000000,-3.385979,2.261915,3.483677,-2.060858,11.826011,4.071599,12.777730,-1.936417,8.995648,-4.669966,10.309018,13.700784,7.432708,20.718367,-18.068123,-13.112203,-6.287037,-19.882589,-13.671651,9.367652,25.028376,-5.733924,-0.515717,-91.303093,49.264324,5.047398,13.028181,67.492668,18.598148,45.513718,-113.737930,-85.215660,0.000000,197.000000,4.000000,,,,0.000000,4.000000,4.000000,4.000000,4.000000,4.000000,4.000000,4.000000,4.000000,4.000000,4.000000,4.000000,4.000000,4.000000,4.000000,4.000000,4.000000,4.000000,4.000000,4.000000,4.000000,4.000000,4.000000,4.000000,4.000000,4.000000,4.000000,4.000000,4.000000,4.000000,4.000000,4.000000,4.000000,100.000000
1614475412.475875,9.000000,0.000000,-1.844131,5.849397,8.095578,-1.033156,8.737261,10.734194,4.559824,-1.934480,4.884089,-5.690937,5.683324,3.943493,7.938096,20.184828,-18.562876,-11.560629,-0.639725,-17.298603,-11.606697,11.409566,26.028988,-1.625626,-2.566483,-91.211792,49.727879,6.580812,21.733103,68.450813,23.707756,42.904102,-114.649834,-85.130447,0.000000,185.000000,4.000000,,,,0.000000,4.000000,4.000000,4.000000,4.000000,4.000000,4.000000,4.000000,4.000000,4.000000,4.000000,4.000000,4.000000,4.000000,4.000000,4.000000,4.000000,4.000000,4.000000,4.000000,4.000000,4.000000,4.000000,4.000000,4.000000,4.000000,4.000000,4.000000,4.000000,4.000000,4.000000,4.000000,4.000000,100.000000
1614475412.483624,10.000000,0.000000,-2.355108,1.740983,11.677226,-2.057764,-3.066348,7.646536,-8.778069,-3.471007,-2.813103,-15.428836,-7.655692,-11.445065,6.904517,10.421053,-20.595594,-23.343939,-2.690367,-31.640280,-20.313040,9.859695,25.490139,-2.649641,-3.076738,-102.402634,46.601227,6.061411,20.172907,64.792618,26.760971,42.348377,-119.150566,-85.558136,0.000000,181.000000,4.000000,,,,0.000000,4.000000,4.000000,4.000000,4.000000,4.000000,4.000000,4.000000,4.000000,4.000000,4.000000,4.000000,4.000000,4.000000,4.000000,4.000000,4.000000,4.000000,4.000000,4.000000,4.000000,4.000000,4.000000,4.000000,4.000000,4.000000,4.000000,4.000000,4.000000,4.000000,4.000000,4.000000,4.000000,100.000000
1614475412.491273,11.000000,0.000000,-2.352752,0.713601,4.486062,-14.363399,-9.729948,0.459403,-12.871855,-1.929075,-3.835931,-26.182638,-18.417267,-8.869518,7.923254,-1.897060,-24.164743,-46.397518,-2.687677,-37.762486,-23.369650,15.490861,26.490290,-2.646991,-2.560840,-99.736122,41.939243,6.568170,17.075811,63.702187,24.170107,42.818848,-122.621162,-83.934113,0.000000,187.000000,4.000000,,,,0.000000,4.000000,4.000000,4.000000,4.000000,4.000000,4.000000,4.000000,4.000000,4.000000,4.000000,4.000000,4.000000,4.000000,4.000000,4.000000,4.000000,4.000000,4.000000,4.000000,4.000000,4.000000,4.000000,4.000000,4.000000,4.000000,4.000000,4.000000,4.000000,4.000000,4.000000,4.000000,4.000000,100.000000
1614475412.499023,12.000000,0.000000,-1.837579,2.251349,-8.851758,-31.272112,-7.668936,0.458943,-10.807701,-0.901505,-2.806454,-31.797480,-23.014235,-6.809367,8.940971,-7.536189,-28.243143,-57.120354,-1.146527,-38.750362,-22.833460,21.116396,32.104824,-1.618703,-2.045459,-85.277412,41.384483,2.459038,18.084377,66.715408,22.607475,43.288849,-128.652390,-90.004028,0.000000,185.000000,4.000000,,,,0.000000,4.000000,4.000000,4.000000,4.000000,4.000000,4.000000,4.000000,4.000000,4.000000,4.000000,4.000000,4.000000,4.000000,4.000000,4.000000,4.000000,4.000000,4.000000,4.000000,4.000000,4.000000,4.000000,4.000000,4.000000,4.000000,4.000000,4.000000,4.000000,4.000000,4.000000,4.000000,4.000000,100.000000
1614475412.506672,13.000000,0.000000,1.754002,1.736278,-16.022392,-37.394688,-8.686908,1.484125,-12.335355,-1.926244,-3.829289,-35.868248,-28.632246,-15.520506,6.880748,-9.579935,-30.266182,-45.781181,-1.145381,-43.839817,-23.836267,18.531178,34.636822,-2.129905,-1.530593,-81.602394,41.343098,-1.133165,16.527830,67.674332,24.123329,41.707100,-137.241684,-101.196075,0.000000,179.000000,4.000000,,,,0.000000,4.000000,4.000000,4.000000,4.000000,4.000000,4.000000,4.000000,4.000000,4.000000,4.000000,4.000000,4.000000,4.000000,4.000000,4.000000,4.000000,4.000000,4.000000,4.000000,4.000000,4.000000,4.000000,4.000000,4.000000,4.000000,4.000000,4.000000,4.000000,4.000000,4.000000,4.000000,4.000000,100.000000
1614475412.514421,14.000000,0.000000,7.906094,1.221721,-17.032011,-29.664984,-8.165401,0.457000,-6.681994,-1.924318,-1.774178,-31.216993,-24.501049,0.392451,9.950790,-10.595996,-28.697454,-30.350784,0.907047,-36.616493,-14.068841,18.512646,32.038082,-2.127775,-3.580344,-79.469513,40.276115,3.996173,13.434380,70.683578,20.509462,42.691032,-134.540344,-95.966675,0.000000,177.000000,4.000000,,,,0.000000,4.000000,4.000000,4.000000,4.000000,4.000000,4.000000,4.000000,4.000000,4.000000,4.000000,4.000000,4.000000,4.000000,4.000000,4.000000,4.000000,4.000000,4.000000,4.000000,4.000000,4.000000,4.000000,4.000000,4.000000,4.000000,4.000000,4.000000,4.000000,4.000000,4.000000,4.000000,4.000000,100.000000
1614475412.522070,15.000000,0.000000,8.923829,1.220499,-17.527800,-21.943010,3.637636,0.456543,8.196483,3.205812,4.894263,-17.852444,-6.527831,29.110006,18.658789,-5.457195,-20.976448,-20.576843,5.008704,-22.220901,6.970869,26.186441,37.647072,-2.125648,2.577082,-66.056709,45.364044,9.633203,12.908125,78.818024,17.924850,53.417572,-115.944260,-82.537376,0.000000,176.000000,4.000000,,,,0.000000,4.000000,4.000000,4.000000,4.000000,4.000000,4.000000,4.000000,4.000000,4.000000,4.000000,4.000000,4.000000,4.000000,4.000000,4.000000,4.000000,4.000000,4.000000,4.000000,4.000000,4.000000,4.000000,4.000000,4.000000,4.000000,4.000000,4.000000,4.000000,4.000000,4.000000,4.000000,4.000000,100.000000
1614475412.529919,16.000000,0.000000,6.350802,1.219279,-15.971811,-19.869785,12.351948,0.456087,11.778030,6.279529,8.991933,-11.680745,3.222287,23.952692,16.588848,1.214929,-18.904190,-13.889600,6.542156,-23.737141,8.502359,21.032049,40.173527,-2.123522,11.805274,-65.990654,51.985348,10.136390,14.433679,82.328949,20.471029,61.569283,-103.520622,-82.454834,0.000000,193.000000,4.000000,,,,0.000000,4.000000,4.000000,4.000000,4.000000,4.000000,4.000000,4.000000,4.000000,4.000000,4.000000,4.000000,4.000000,4.000000,4.000000,4.000000,4.000000,4.000000,4.000000,4.000000,4.000000,4.000000,4.000000,4.000000,4.000000,4.000000,4.000000,4.000000,4.000000,4.000000,4.000000,4.000000,4.000000,100.000000
1614475412.537668,17.000000,0.000000,5.318811,1.730880,-16.981480,-20.875557,8.237031,0.968451,2.022662,-0.393417,5.393198,-14.745988,0.142141,3.928739,4.777387,2.752176,-28.116055,-10.798787,3.458691,-27.303148,-12.018963,3.575120,29.364122,-2.121398,7.178084,-85.411842,51.420540,9.613433,12.880783,79.682518,20.450558,56.892330,-112.135048,-89.039047,0.000000,190.000000,4.000000,,,,0.000000,4.000000,4.000000,4.000000,4.000000,4.000000,4.000000,4.000000,4.000000,4.000000,4.000000,4.000000,4.000000,4.000000,4.000000,4.000000,4.000000,4.000000,4.000000,4.000000,4.000000,4.000000,4.000000,4.000000,4.000000,4.000000,4.000000,4.000000,4.000000,4.000000,4.000000,4.000000,4.000000,100.000000
1614475412.545517,18.000000,0.000000,4.287851,1.216328,-15.938858,-20.341862,2.074948,3.018765,-4.133206,-10.136614,-0.766042,-16.782524,-0.370821,0.335067,-0.355595,1.723782,-35.780247,-12.326450,-2.698614,-28.814306,-23.288996,1.520263,25.232193,-2.119277,-5.136786,-98.146942,54.446041,7.552538,9.790979,77.551552,24.532671,53.245693,-117.663940,-85.873085,0.000000,190.000000,4.000000,,,,0.000000,4.000000,4.000000,4.000000,4.000000,4.000000,4.000000,4.000000,4.000000,4.000000,4.000000,4.000000,4.000000,4.000000,4.000000,4.000000,4.000000,4.000000,4.000000,4.000000,4.000000,4.000000,4.000000,4.000000,4.000000,4.000000,4.000000,4.000000,4.000000,4.000000,4.000000,4.000000,4.000000,100.000000
1614475412.553266,19.000000,0.000000,1.719460,1.727933,1.000158,-14.167673,5.149796,4.041387,-3.103432,-8.588016,2.824468,-16.252920,-0.370450,0.334732,0.157581,3.260520,-37.282928,-21.032072,-5.772838,-39.041901,-25.316988,12.800794,34.437729,-2.629978,-7.182931,-97.023155,64.135185,5.493703,12.858111,78.499641,40.918396,58.320652,-102.161659,-74.505165,0.000000,191.000000,4.000000,,,,0.000000,4.000000,4.000000,4.000000,4.000000,4.000000,4.000000,4.000000,4.000000,4.000000,4.000000,4.000000,4.000000,4.000000,4.000000,4.000000,4.000000,4.000000,4.000000,4.000000,4.000000,4.000000,4.000000,4.000000,4.000000,4.000000,4.000000,4.000000,4.000000,4.000000,4.000000,4.000000,4.000000,100.000000
1614475412.561115,20.000000,0.000000,1.717741,5.315948,23.050440,-5.435557,12.836954,6.088627,-0.023406,3.728265,16.667797,-11.108462,-0.882900,1.872858,1.183064,5.821362,-34.168720,-27.164886,-4.741424,-36.951580,-25.804493,15.352096,37.480217,-2.114528,-5.124466,-95.900490,68.686440,12.154876,21.563202,78.421143,50.108246,61.852077,-90.264633,-64.174248,0.000000,201.000000,4.000000,,,,0.000000,4.000000,4.000000,4.000000,4.000000,4.000000,4.000000,4.000000,4.000000,4.000000,4.000000,4.000000,4.000000,4.000000,4.000000,4.000000,4.000000,4.000000,4.000000,4.000000,4.000000,4.000000,4.000000,4.000000,4.000000,4.000000,4.000000,4.000000,4.000000,4.000000,4.000000,4.000000,4.000000,100.000000
1614475412.568864,21.000000,0.000000,4.792946,8.900376,24.053030,-4.917301,15.388220,11.210744,8.181746,11.416844,23.830616,-8.020432,0.143623,6.486370,6.822907,4.789900,-23.365322,-22.009516,-2.172580,-21.017191,-21.163303,18.926487,32.827351,-2.112413,-6.144983,-97.343048,67.592110,17.783747,26.157022,77.829903,45.955574,60.251762,-97.353851,-61.545971,0.000000,189.000000,4.000000,,,,0.000000,4.000000,4.000000,4.000000,4.000000,4.000000,4.000000,4.000000,4.000000,4.000000,4.000000,4.000000,4.000000,4.000000,4.000000,4.000000,4.000000,4.000000,4.000000,4.000000,4.000000,4.000000,4.000000,4.000000,4.000000,4.000000,4.000000,4.000000,4.000000,4.000000,4.000000,4.000000,4.000000,100.000000
1614475412.576713,22.000000,0.000000,5.300974,8.891476,13.259747,-11.579050,12.808729,10.686713,12.276128,5.764402,20.217043,-17.243179,-11.651392,3.402961,11.944289,0.682546,-20.265034,-21.474686,-1.657587,-24.585917,-23.706242,28.138330,32.281704,-3.135942,-5.626018,-99.296989,67.011696,13.663399,25.105225,77.752075,42.832695,60.191513,-104.948807,-61.484425,0.000000,210.000000,4.000000,,,,0.000000,4.000000,4.000000,4.000000,4.000000,4.000000,4.000000,4.000000,4.000000,4.000000,4.000000,4.000000,4.000000,4.000000,4.000000,4.000000,4.000000,4.000000,4.000000,4.000000,4.000000,4.000000,4.000000,4.000000,4.000000,4.000000,4.000000,4.000000,4.000000,4.000000,4.000000,4.000000,4.000000,100.000000
1614475412.584462,23.000000,0.000000,5.295673,9.908225,10.169564,-13.618753,13.308741,4.522180,-1.582302,-1.420850,18.658363,-29.020809,-33.691021,-1.728647,9.368242,-7.523265,-35.116566,-36.837826,-2.168750,-37.894665,-33.426125,27.084551,32.249420,-1.081524,-6.646032,-101.761795,62.329300,14.675377,24.054480,77.161499,44.841145,60.131321,-105.356674,-60.910118,0.000000,204.000000,4.000000,,,,0.000000,4.000000,4.000000,4.000000,4.000000,4.000000,4.000000,4.000000,4.000000,4.000000,4.000000,4.000000,4.000000,4.000000,4.000000,4.000000,4.000000,4.000000,4.000000,4.000000,4.000000,4.000000,4.000000,4.000000,4.000000,4.000000,4.000000,4.000000,4.000000,4.000000,4.000000,4.000000,4.000000,100.000000
1614475412.592311,24.000000,0.000000,6.316018,12.462420,6.569651,-12.066672,15.346714,0.927914,-17.990976,-0.906608,19.665346,-29.504608,-44.426563,-3.265380,7.307592,-21.874716,-50.978882,-47.570221,-2.679402,-40.933693,-29.290136,18.339518,30.165890,4.047763,-4.588104,-100.121567,59.190048,23.378651,25.056065,77.084343,43.770660,60.071190,-109.353882,-67.515877,0.000000,173.000000,4.000000,,,,0.000000,4.000000,4.000000,4.000000,4.000000,4.000000,4.000000,4.000000,4.000000,4.000000,4.000000,4.000000,4.000000,4.000000,4.000000,4.000000,4.000000,4.000000,4.000000,4.000000,4.000000,4.000000,4.000000,4.000000,4.000000,4.000000,4.000000,4.000000,4.000000,4.000000,4.000000,4.000000,4.000000,100.000000
1614475412.600060,25.000000,0.000000,2.207138,13.475598,-1.129226,-15.644350,9.690342,-2.662757,-15.921702,-5.521086,12.466194,-26.911001,-42.843674,-5.826218,7.300284,-25.442585,-54.517647,-47.009830,-1.651081,-54.738914,-29.773666,9.603229,28.084442,5.069356,3.621612,-100.021446,58.618038,23.868092,24.005369,77.520073,37.573044,60.011116,-112.834274,-78.730408,0.000000,201.000000,4.000000,,,,0.000000,4.000000,4.000000,4.000000,4.000000,4.000000,4.000000,4.000000,4.000000,4.000000,4.000000,4.000000,4.000000,4.000000,4.000000,4.000000,4.000000,4.000000,4.000000,4.000000,4.000000,4.000000,4.000000,4.000000,4.000000,4.000000,4.000000,4.000000,4.000000,4.000000,4.000000,4.000000,4.000000,100.000000
1614475412.607909,26.000000,0.000000,-5.487377,11.410840,-3.179379,-19.731270,3.013985,-6.762659,-10.264755,-13.720694,4.761420,-28.935371,-30.493137,1.871917,8.318624,-11.570989,-43.693901,-44.911537,-1.136610,-63.402122,-42.051586,1.388497,24.979435,1.987364,3.617990,-101.459892,49.328648,16.664736,16.801876,77.955376,28.817524,58.412643,-112.208618,-81.215782,0.000000,216.000000,4.000000,,,,0.000000,4.000000,4.000000,4.000000,4.000000,4.000000,4.000000,4.000000,4.000000,4.000000,4.000000,4.000000,4.000000,4.000000,4.000000,4.000000,4.000000,4.000000,4.000000,4.000000,4.000000,4.000000,4.000000,4.000000,4.000000,4.000000,4.000000,4.000000,4.000000,4.000000,4.000000,4.000000,4.000000,100.000000
1614475412.615658,27.000000,0.000000,-6.507530,9.348147,-1.637738,-17.147436,8.651997,-2.653332,-11.792953,-10.630050,3.731018,-25.829514,-6.872901,17.767481,10.874409,-2.328648,-25.701488,-34.097397,-2.161114,-41.287437,-22.009533,6.515314,31.621122,0.959735,-6.642038,-88.025093,46.202396,13.058329,8.579946,77.364601,24.173321,56.302948,-112.096413,-81.134567,0.000000,187.000000,4.000000,,,,0.000000,4.000000,4.000000,4.000000,4.000000,4.000000,4.000000,4.000000,4.000000,4.000000,4.000000,4.000000,4.000000,4.000000,4.000000,4.000000,4.000000,4.000000,4.000000,4.000000,4.000000,4.000000,4.000000,4.000000,4.000000,4.000000,4.000000,4.000000,4.000000,4.000000,4.000000,4.000000,4.000000,100.000000
1614475412.623507,28.000000,0.000000,-3.424100,8.825979,1.440822,-7.386698,17.361294,4.015988,-1.011928,-2.927112,3.727287,-11.957530,9.031407,20.313816,9.837893,0.237783,-17.983479,-12.012015,0.405149,-21.246151,10.832990,23.944696,46.974117,1.984417,-9.712319,-66.398605,60.515171,12.532450,12.161110,80.876976,27.226070,56.246647,-109.420212,-80.027794,0.000000,191.000000,4.000000,,,,0.000000,4.000000,4.000000,4.000000,4.000000,4.000000,4.000000,4.000000,4.000000,4.000000,4.000000,4.000000,4.000000,4.000000,4.000000,4.000000,4.000000,4.000000,4.000000,4.000000,4.000000,4.000000,4.000000,4.000000,4.000000,4.000000,4.000000,4.000000,4.000000,4.000000,4.000000,4.000000,4.000000,100.000000
1614475412.631256,29.000000,0.000000,-1.882214,8.304333,15.798356,3.902740,17.343931,5.037613,21.040365,-2.411364,4.749200,3.439043,14.663402,22.857605,11.879337,20.237545,-11.811649,6.974356,12.199616,-18.147982,11.847797,30.074598,54.619450,1.469612,-3.548760,-59.152721,72.249527,13.545558,24.456640,90.026871,33.865513,58.754501,-99.567200,-67.127251,0.000000,212.000000,4.000000,,,,0.000000,4.000000,4.000000,4.000000,4.000000,4.000000,4.000000,4.000000,4.000000,4.000000,4.000000,4.000000,4.000000,4.000000,4.000000,4.000000,4.000000,4.000000,4.000000,4.000000,4.000000,4.000000,4.000000,4.000000,4.000000,4.000000,4.000000,4.000000,4.000000,4.000000,4.000000,4.000000,4.000000,100.000000
1614475412.639105,30.000000,0.000000,-2.393152,9.321669,32.192814,8.001401,17.839409,6.058217,21.532146,1.693611,10.898297,5.999706,24.905148,31.552696,22.123869,36.114742,8.712983,13.634048,21.931005,-3.770860,1.066719,26.454779,57.128933,0.955322,3.634275,-60.119213,75.767021,17.634577,32.637314,91.475304,38.447029,63.823952,-87.672760,-51.162689,0.000000,192.000000,4.000000,,,,0.000000,4.000000,4.000000,4.000000,4.000000,4.000000,4.000000,4.000000,4.000000,4.000000,4.000000,4.000000,4.000000,4.000000,4.000000,4.000000,4.000000,4.000000,4.000000,4.000000,4.000000,4.000000,4.000000,4.000000,4.000000,4.000000,4.000000,4.000000,4.000000,4.000000,4.000000,4.000000,4.000000,100.000000
1614475412.646854,31.000000,0.000000,-2.390759,8.799527,29.596519,-6.365575,13.719005,8.616261,-2.079130,4.768840,9.348938,-7.339627,16.162294,17.674990,19.537642,19.668373,9.729911,-3.302663,15.755229,-3.254268,-5.601015,25.402683,50.917957,1.980007,10.297308,-67.751404,72.101509,18.642584,32.604675,80.614601,37.895763,62.221668,-87.585091,-51.624344,0.000000,184.000000,4.000000,,,,0.000000,4.000000,4.000000,4.000000,4.000000,4.000000,4.000000,4.000000,4.000000,4.000000,4.000000,4.000000,4.000000,4.000000,4.000000,4.000000,4.000000,4.000000,4.000000,4.000000,4.000000,4.000000,4.000000,4.000000,4.000000,4.000000,4.000000,4.000000,4.000000,4.000000,4.000000,4.000000,4.000000,100.000000
1614475412.654504,32.000000,0.000000,-2.388368,5.200984,11.618204,-26.872030,-3.730611,8.607645,-19.512949,-3.953877,-2.455283,-24.768185,-14.623098,-4.906789,3.107848,-3.941040,-19.510588,-32.530128,3.431782,-33.507423,-32.774902,17.172153,29.841398,1.465207,3.107523,-93.837494,52.542229,14.008555,26.418224,71.303215,35.293766,51.390217,-105.446220,-64.393234,8064.000000,0.000000,4.000000,,,,0.000000,4.000000,4.000000,4.000000,4.000000,4.000000,4.000000,4.000000,4.000000,4.000000,4.000000,4.000000,4.000000,4.000000,4.000000,4.000000,4.000000,4.000000,4.000000,4.000000,4.000000,4.000000,4.000000,4.000000,4.000000,4.000000,4.000000,4.000000,4.000000,4.000000,4.000000,4.000000,4.000000,100.000000
1614475412.662253,33.000000,0.000000,-0.847519,5.708603,0.837355,-30.434902,-12.444830,8.086217,-15.390871,-8.565308,-3.478469,-29.358801,-21.787962,0.739144,5.156022,-8.039662,-29.234667,-35.574524,1.377068,-43.217506,-47.613922,9.975493,20.067968,0.438100,-19.459686,-109.128273,38.130711,10.917624,21.776421,72.770378,32.694370,48.261902,-119.699753,-71.508331,8064.000000,0.000000,4.000000,,,,0.000000,4.000000,4.000000,4.000000,4.000000,4.000000,4.000000,4.000000,4.000000,4.000000,4.000000,4.000000,4.000000,4.000000,4.000000,4.000000,4.000000,4.000000,4.000000,4.000000,4.000000,4.000000,4.000000,4.000000,4.000000,4.000000,4.000000,4.000000,4.000000,4.000000,4.000000,4.000000,4.000000,100.000000
1614475412.669902,34.000000,0.000000,2.230252,11.856741,10.580108,-21.686518,0.900949,8.078130,-2.042147,2.725309,11.909625,-20.611494,-7.920021,18.687122,22.586763,-4.954700,-15.872099,-18.615871,5.478255,-24.712751,-22.950922,24.324492,37.483799,5.565867,-22.004330,-86.455040,52.964375,16.547731,23.293106,78.851448,31.636034,56.931587,-106.759537,-64.257332,8064.000000,0.000000,4.000000,,,,0.000000,4.000000,4.000000,4.000000,4.000000,4.000000,4.000000,4.000000,4.000000,4.000000,4.000000,4.000000,4.000000,4.000000,4.000000,4.000000,4.000000,4.000000,4.000000,4.000000,4.000000,4.000000,4.000000,4.000000,4.000000,4.000000,4.000000,4.000000,4.000000,4.000000,4.000000,4.000000,4.000000,100.000000
1614475412.677651,35.000000,0.000000,2.228022,11.844884,19.287476,-19.100729,14.233381,6.531590,3.600921,9.389250,21.128485,-17.001139,-14.065947,20.719717,20.000074,-5.975386,-20.471611,-20.648537,4.959956,-31.354704,-15.235663,42.248886,47.189903,12.226969,3.145880,-72.009613,67.270386,23.197851,25.321095,83.387985,33.142860,62.515682,-95.370728,-61.116150,8064.000000,0.000000,4.000000,,,,0.000000,4.000000,4.000000,4.000000,4.000000,4.000000,4.000000,4.000000,4.000000,4.000000,4.000000,4.000000,4.000000,4.000000,4.000000,4.000000,4.000000,4.000000,4.000000,4.000000,4.000000,4.000000,4.000000,4.000000,4.000000,4.000000,4.000000,4.000000,4.000000,4.000000,4.000000,4.000000,4.000000,100.000000
1614475412.685300,36.000000,0.000000,0.687332,6.192013,6.960496,-22.158550,13.706327,3.960956,0.520397,3.738835,18.030434,-23.650805,-26.359573,17.622074,4.595459,-11.097616,-35.835754,-32.935581,-0.686030,-57.990017,-34.194786,40.155354,36.886303,10.676280,16.988888,-84.758118,61.049271,24.713116,22.731672,83.817413,31.058434,60.401886,-108.608688,-78.490936,8064.000000,0.000000,4.000000,,,,0.000000,4.000000,4.000000,4.000000,4.000000,4.000000,4.000000,4.000000,4.000000,4.000000,4.000000,4.000000,4.000000,4.000000,4.000000,4.000000,4.000000,4.000000,4.000000,4.000000,4.000000,4.000000,4.000000,4.000000,4.000000,4.000000,4.000000,4.000000,4.000000,4.000000,4.000000,4.000000,4.000000,100.000000
1614475412.693049,37.000000,0.000000,6.327671,7.211462,-5.866977,-20.085110,12.666980,3.956995,8.212184,0.658173,19.550863,-23.627153,-20.692188,19.655735,2.539581,-9.548057,-39.389664,-30.338543,-2.736626,-57.419205,-23.391361,32.935711,34.798134,5.024578,11.843694,-80.570793,57.398476,23.662760,20.657658,83.220779,25.386351,59.315842,-113.628288,-86.617569,8064.000000,0.000000,4.000000,,,,0.000000,4.000000,4.000000,4.000000,4.000000,4.000000,4.000000,4.000000,4.000000,4.000000,4.000000,4.000000,4.000000,4.000000,4.000000,4.000000,4.000000,4.000000,4.000000,4.000000,4.000000,4.000000,4.000000,4.000000,4.000000,4.000000,4.000000,4.000000,4.000000,4.000000,4.000000,4.000000,4.000000,100.000000
1614475412.700698,38.000000,0.000000,9.911086,9.255533,2.344018,-10.321436,14.705595,6.517141,21.537306,2.195977,23.121058,-13.859937,-11.440726,20.661720,8.178067,3.794825,-35.760529,-23.641539,-0.169786,-36.336147,3.811517,33.415596,43.481285,4.506733,12.857491,-58.951759,63.494923,24.664740,21.149820,85.701660,25.873783,59.769348,-97.617226,-67.043770,8064.000000,0.000000,4.000000,,,,0.000000,4.000000,4.000000,4.000000,4.000000,4.000000,4.000000,4.000000,4.000000,4.000000,4.000000,4.000000,4.000000,4.000000,4.000000,4.000000,4.000000,4.000000,4.000000,4.000000,4.000000,4.000000,4.000000,4.000000,4.000000,4.000000,4.000000,4.000000,4.000000,4.000000,4.000000,4.000000,4.000000,100.000000
1614475412.708448,39.000000,0.000000,0.670406,2.579611,13.623726,-0.567524,14.690889,8.049086,16.387562,2.193781,17.456909,-9.230692,-4.762619,19.615417,8.169889,15.585901,-23.417078,-15.925589,1.368845,-25.530579,5.346167,33.895000,44.463444,5.527867,15.408736,-56.841526,63.431431,23.614433,20.615850,86.128777,31.488935,60.735218,-95.468323,-57.745960,8192.000000,0.000000,4.000000,,,,0.000000,4.000000,4.000000,4.000000,4.000000,4.000000,4.000000,4.000000,4.000000,4.000000,4.000000,4.000000,4.000000,4.000000,4.000000,4.000000,4.000000,4.000000,4.000000,4.000000,4.000000,4.000000,4.000000,4.000000,4.000000,4.000000,4.000000,4.000000,4.000000,4.000000,4.000000,4.000000,4.000000,100.000000
1614475412.716097,40.000000,0.000000,-7.022572,-2.551174,15.148563,3.535607,13.650558,7.528216,4.063483,1.165946,9.747146,-7.683000,7.549836,19.082981,6.110437,18.134418,-6.983404,-6.678894,1.880296,-23.453766,2.263898,36.425209,45.957443,5.009519,5.649738,-61.400070,61.829536,16.924152,20.595234,83.991371,32.483089,58.623203,-104.603622,-71.534370,8064.000000,0.000000,4.000000,,,,0.000000,4.000000,4.000000,4.000000,4.000000,4.000000,4.000000,4.000000,4.000000,4.000000,4.000000,4.000000,4.000000,4.000000,4.000000,4.000000,4.000000,4.000000,4.000000,4.000000,4.000000,4.000000,4.000000,4.000000,4.000000,4.000000,4.000000,4.000000,4.000000,4.000000,4.000000,4.000000,4.000000,100.000000
1614475412.723846,41.000000,0.000000,-1.887344,0.528300,13.082132,2.506431,13.636907,10.597610,7.649163,1.677601,6.660475,-4.598393,15.234593,19.576719,8.155609,23.244490,-0.822574,-6.672215,6.493801,-15.738005,9.953942,41.516991,49.501228,4.491689,1.541524,-57.236107,63.818989,10.753382,21.600281,82.881737,31.937784,49.333809,-106.037483,-76.078217,8064.000000,0.000000,4.000000,,,,0.000000,4.000000,4.000000,4.000000,4.000000,4.000000,4.000000,4.000000,4.000000,4.000000,4.000000,4.000000,4.000000,4.000000,4.000000,4.000000,4.000000,4.000000,4.000000,4.000000,4.000000,4.000000,4.000000,4.000000,4.000000,4.000000,4.000000,4.000000,4.000000,4.000000,4.000000,4.000000,4.000000,100.000000
1614475412.731495,42.000000,0.000000,2.729928,2.066234,4.863923,-5.701204,13.623270,13.151115,9.692796,1.675923,0.499969,-12.286102,10.091154,19.557142,10.711556,22.708424,-3.385854,-12.819388,8.538589,-10.594062,-1.850884,28.654959,39.195316,5.000018,6.155367,-69.999382,54.011581,7.665705,16.963295,83.311676,32.931488,39.028065,-115.675034,-78.566246,8064.000000,0.000000,4.000000,,,,0.000000,4.000000,4.000000,4.000000,4.000000,4.000000,4.000000,4.000000,4.000000,4.000000,4.000000,4.000000,4.000000,4.000000,4.000000,4.000000,4.000000,4.000000,4.000000,4.000000,4.000000,4.000000,4.000000,4.000000,4.000000,4.000000,4.000000,4.000000,4.000000,4.000000,4.000000,4.000000,4.000000,100.000000
1614475412.739244,43.000000,0.000000,0.163095,1.038526,-3.346070,-19.028835,13.609647,8.009759,-2.111769,1.674247,-4.115916,-25.607149,-2.739450,18.511944,11.726485,6.275459,-9.536314,-14.857852,4.427486,-25.968082,-32.618263,3.498100,19.156122,5.507838,-6.671301,-95.570412,34.983212,6.119578,7.715563,83.228363,28.283171,35.912113,-138.123459,-98.487679,8064.000000,0.000000,4.000000,,,,0.000000,4.000000,4.000000,4.000000,4.000000,4.000000,4.000000,4.000000,4.000000,4.000000,4.000000,4.000000,4.000000,4.000000,4.000000,4.000000,4.000000,4.000000,4.000000,4.000000,4.000000,4.000000,4.000000,4.000000,4.000000,4.000000,4.000000,4.000000,4.000000,4.000000,4.000000,4.000000,4.000000,100.000000
1614475412.746893,44.000000,0.000000,3.752676,1.550308,-4.881185,-27.214935,14.108857,5.437647,-5.186580,2.185393,-1.034877,-29.171286,-14.018762,15.929330,11.201939,-6.551329,-20.808830,-20.996840,1.858956,-43.890835,-42.842056,-4.197706,11.957479,4.989510,-24.100527,-104.705605,26.230278,5.600638,5.143745,83.145134,21.075401,36.901844,-144.652008,-108.645599,8064.000000,0.000000,4.000000,,,,0.000000,4.000000,4.000000,4.000000,4.000000,4.000000,4.000000,4.000000,4.000000,4.000000,4.000000,4.000000,4.000000,4.000000,4.000000,4.000000,4.000000,4.000000,4.000000,4.000000,4.000000,4.000000,4.000000,4.000000,4.000000,4.000000,4.000000,4.000000,4.000000,4.000000,4.000000,4.000000,4.000000,100.000000
1614475412.754742,45.000000,0.000000,11.954051,2.061579,-10.004509,-27.187721,13.581928,6.970671,-0.053188,1.670387,1.017440,-27.090834,-16.056025,15.400579,11.190737,-6.031957,-25.916225,-26.104048,1.857097,-40.257198,-23.824854,1.960338,14.509624,4.984520,-15.871299,-102.549622,29.280972,5.595037,7.189883,83.061989,20.028685,37.377762,-136.815048,-99.306183,8064.000000,0.000000,4.000000,,,,0.000000,4.000000,4.000000,4.000000,4.000000,4.000000,4.000000,4.000000,4.000000,4.000000,4.000000,4.000000,4.000000,4.000000,4.000000,4.000000,4.000000,4.000000,4.000000,4.000000,4.000000,4.000000,4.000000,4.000000,4.000000,4.000000,4.000000,4.000000,4.000000,4.000000,4.000000,4.000000,4.000000,100.000000
1614475412.762491,46.000000,0.000000,13.993380,2.059517,-14.609889,-27.160532,13.568346,3.373957,-4.668520,-2.433847,-0.009219,-27.576563,-13.475866,16.410820,11.692367,-7.564387,-22.300566,-18.898457,2.880881,-31.498993,-9.442056,-0.092905,12.443832,5.492356,-0.983632,-101.934250,32.328613,5.076622,5.131411,82.978928,21.034298,39.391666,-135.139771,-96.642776,8064.000000,0.000000,4.000000,,,,0.000000,4.000000,4.000000,4.000000,4.000000,4.000000,4.000000,4.000000,4.000000,4.000000,4.000000,4.000000,4.000000,4.000000,4.000000,4.000000,4.000000,4.000000,4.000000,4.000000,4.000000,4.000000,4.000000,4.000000,4.000000,4.000000,4.000000,4.000000,4.000000,4.000000,4.000000,4.000000,4.000000,100.000000
1614475412.770340,47.000000,0.000000,12.440925,2.057457,-11.005536,-27.646193,15.093240,-3.296084,-6.202313,-4.995516,3.067714,-26.010525,-13.462391,15.881589,11.167853,-10.120925,-25.868010,-17.853918,1.852359,-36.082878,-9.945434,-2.656914,12.431389,3.435582,-1.495469,-99.268211,33.834747,7.122827,5.639101,82.895950,20.500443,43.454838,-134.491806,-101.674339,8064.000000,0.000000,4.000000,,,,0.000000,4.000000,4.000000,4.000000,4.000000,4.000000,4.000000,4.000000,4.000000,4.000000,4.000000,4.000000,4.000000,4.000000,4.000000,4.000000,4.000000,4.000000,4.000000,4.000000,4.000000,4.000000,4.000000,4.000000,4.000000,4.000000,4.000000,4.000000,4.000000,4.000000,4.000000,4.000000,4.000000,100.000000
1614475412.778089,48.000000,0.000000,13.966945,1.029759,-9.456069,-26.592905,12.001223,-3.805608,4.573120,-6.528982,4.090287,-23.420412,-13.961749,9.199040,9.618224,-7.033881,-34.560089,-28.605295,-3.790519,-41.687820,-8.909847,2.986768,16.008701,-0.670418,-0.981153,-95.579201,39.441936,3.013140,7.171923,80.761772,20.479942,44.949844,-128.716293,-100.034203,8064.000000,0.000000,4.000000,,,,0.000000,4.000000,4.000000,4.000000,4.000000,4.000000,4.000000,4.000000,4.000000,4.000000,4.000000,4.000000,4.000000,4.000000,4.000000,4.000000,4.000000,4.000000,4.000000,4.000000,4.000000,4.000000,4.000000,4.000000,4.000000,4.000000,4.000000,4.000000,4.000000,4.000000,4.000000,4.000000,4.000000,100.000000
1614475412.785938,49.000000,0.000000,9.850414,-3.073835,-15.087638,-28.104774,4.296914,-2.776162,7.645470,-11.137837,-0.016367,-22.884171,-11.896505,4.061636,6.531683,-6.001206,-37.089630,-34.217716,-8.914933,-44.210236,-8.388117,6.573525,17.018333,-2.721030,3.122392,-92.406700,44.017879,-9.297565,-0.527557,79.142548,20.459461,44.904896,-124.997833,-95.831604,8064.000000,0.000000,4.000000,,,,0.000000,4.000000,4.000000,4.000000,4.000000,4.000000,4.000000,4.000000,4.000000,4.000000,4.000000,4.000000,4.000000,4.000000,4.000000,4.000000,4.000000,4.000000,4.000000,4.000000,4.000000,4.000000,4.000000,4.000000,4.000000,4.000000,4.000000,4.000000,4.000000,4.000000,4.000000,4.000000,4.000000,100.000000
1614475412.793687,50.000000,0.000000,-0.928667,-8.711786,-16.611012,-30.127951,-0.322767,-3.286206,-0.567303,-19.844648,-3.093274,-22.348467,-13.935891,4.570395,1.909766,-4.969564,-36.539722,-38.798882,-10.444480,-51.345512,-17.097677,11.695156,22.642340,-2.205488,-4.060217,-91.288651,43.973862,-16.980576,-8.732158,79.063408,21.464643,45.372810,-126.411293,-95.222954,8064.000000,0.000000,4.000000,,,,0.000000,4.000000,4.000000,4.000000,4.000000,4.000000,4.000000,4.000000,4.000000,4.000000,4.000000,4.000000,4.000000,4.000000,4.000000,4.000000,4.000000,4.000000,4.000000,4.000000,4.000000,4.000000,4.000000,4.000000,4.000000,4.000000,4.000000,4.000000,4.000000,4.000000,4.000000,4.000000,4.000000,100.000000
1614475412.801536,51.000000,0.000000,-7.081585,-13.831280,-15.055940,-30.097824,-3.912188,-1.231638,-4.669300,-23.414547,-8.731206,-23.351759,-17.511698,4.053004,-1.169066,2.214893,-31.887798,-41.324184,-8.382753,-48.217243,-16.054939,29.119358,36.465851,-2.203283,-12.261286,-90.684540,44.442707,-17.476416,-3.082400,78.984344,23.494461,44.814617,-127.310524,-95.640549,8064.000000,0.000000,4.000000,,,,0.000000,4.000000,4.000000,4.000000,4.000000,4.000000,4.000000,4.000000,4.000000,4.000000,4.000000,4.000000,4.000000,4.000000,4.000000,4.000000,4.000000,4.000000,4.000000,4.000000,4.000000,4.000000,4.000000,4.000000,4.000000,4.000000,4.000000,4.000000,4.000000,4.000000,4.000000,4.000000,4.000000,100.000000
1614475412.809285,52.000000,0.000000,-6.048862,-13.817449,-15.553704,-30.580545,-11.087763,0.820876,-3.126169,-13.134723,-15.389142,-23.328407,-8.776238,5.074592,0.370564,8.879345,-16.471294,-22.821323,-3.758986,-21.502359,5.499578,47.038956,46.172977,-2.713900,-13.274665,-80.850266,49.013649,-14.894836,8.202734,78.392532,25.009428,44.256981,-122.567833,-94.006447,8064.000000,0.000000,4.000000,,,,0.000000,4.000000,4.000000,4.000000,4.000000,4.000000,4.000000,4.000000,4.000000,4.000000,4.000000,4.000000,4.000000,4.000000,4.000000,4.000000,4.000000,4.000000,4.000000,4.000000,4.000000,4.000000,4.000000,4.000000,4.000000,4.000000,4.000000,4.000000,4.000000,4.000000,4.000000,4.000000,4.000000,100.000000
1614475412.817134,53.000000,0.000000,-6.555634,-7.649785,-15.538151,-30.549965,-14.153599,1.332875,-4.148685,2.775848,-9.219907,-19.715334,5.591513,12.761826,6.011220,10.921747,-1.583028,0.791242,1.372978,0.570424,20.365873,49.556023,42.537060,-2.198365,-9.671647,-66.410446,51.528740,-11.290198,10.245813,78.826965,24.984419,45.238365,-119.881157,-90.322701,8064.000000,0.000000,4.000000,,,,0.000000,4.000000,4.000000,4.000000,4.000000,4.000000,4.000000,4.000000,4.000000,4.000000,4.000000,4.000000,4.000000,4.000000,4.000000,4.000000,4.000000,4.000000,4.000000,4.000000,4.000000,4.000000,4.000000,4.000000,4.000000,4.000000,4.000000,4.000000,4.000000,4.000000,4.000000,4.000000,4.000000,100.000000
1614475412.824884,54.000000,0.000000,-6.549078,-2.513930,-16.548254,-29.493774,-11.575342,0.818722,-4.657356,5.337175,-3.569661,-22.772543,1.996177,15.313166,10.620593,8.346723,-3.632727,1.816092,2.397246,-5.583992,3.935251,33.609028,30.699650,-2.196167,-5.046591,-74.549164,48.913109,-8.201984,9.722747,76.184036,24.959435,41.603386,-126.427948,-92.283653,8064.000000,0.000000,4.000000,,,,0.000000,4.000000,4.000000,4.000000,4.000000,4.000000,4.000000,4.000000,4.000000,4.000000,4.000000,4.000000,4.000000,4.000000,4.000000,4.000000,4.000000,4.000000,4.000000,4.000000,4.000000,4.000000,4.000000,4.000000,4.000000,4.000000,4.000000,4.000000,4.000000,4.000000,4.000000,4.000000,4.000000,100.000000
1614475412.832732,55.000000,0.000000,-0.901503,-1.485775,-22.685551,-34.079666,-13.102228,0.817903,-4.139878,-4.411752,-9.719937,-35.570282,-14.416075,8.631186,11.122792,-1.918034,-18.500889,-7.416493,1.882028,-24.039948,-24.273813,6.395933,20.925362,-2.193971,-8.631288,-98.064354,42.197529,-8.706603,9.713024,68.928360,21.344730,30.792551,-136.557922,-103.473427,8064.000000,0.000000,4.000000,,,,0.000000,4.000000,4.000000,4.000000,4.000000,4.000000,4.000000,4.000000,4.000000,4.000000,4.000000,4.000000,4.000000,4.000000,4.000000,4.000000,4.000000,4.000000,4.000000,4.000000,4.000000,4.000000,4.000000,4.000000,4.000000,4.000000,4.000000,4.000000,4.000000,4.000000,4.000000,4.000000,4.000000,100.000000
1614475412.840482,56.000000,0.000000,5.253244,-1.997110,-27.278250,-38.148151,-12.063485,0.817086,-4.648559,-9.022725,-8.171756,-38.611637,-16.965761,8.622555,10.598849,-10.121244,-28.738798,-9.460359,1.367326,-31.708214,-31.429026,-6.430976,19.365974,-2.704597,-18.879066,-98.991936,33.437382,-8.697897,5.087926,67.320976,16.708002,25.633553,-139.498291,-110.549438,8064.000000,0.000000,4.000000,,,,0.000000,4.000000,4.000000,4.000000,4.000000,4.000000,4.000000,4.000000,4.000000,4.000000,4.000000,4.000000,4.000000,4.000000,4.000000,4.000000,4.000000,4.000000,4.000000,4.000000,4.000000,4.000000,4.000000,4.000000,4.000000,4.000000,4.000000,4.000000,4.000000,4.000000,4.000000,4.000000,4.000000,100.000000
1614475412.848331,57.000000,0.000000,5.760811,-1.995113,-26.225330,-30.417694,-1.795012,0.816268,-2.592628,-8.500882,5.169749,-30.880716,-4.641104,18.357523,11.101071,-5.495739,-24.607496,-3.809873,0.853138,-28.599583,-16.012981,4.857506,24.987635,-3.214713,-15.783264,-80.944221,33.403946,-8.176378,2.005916,75.458778,16.691294,29.197662,-135.256226,-105.823502,8064.000000,0.000000,4.000000,,,,0.000000,4.000000,4.000000,4.000000,4.000000,4.000000,4.000000,4.000000,4.000000,4.000000,4.000000,4.000000,4.000000,4.000000,4.000000,4.000000,4.000000,4.000000,4.000000,4.000000,4.000000,4.000000,4.000000,4.000000,4.000000,4.000000,4.000000,4.000000,4.000000,4.000000,4.000000,4.000000,4.000000,100.000000
1614475412.856080,58.000000,0.000000,4.729410,-1.480297,-22.609362,-19.105225,6.924732,0.302632,3.563811,-9.005201,9.267143,-25.208811,2.543025,23.980190,11.602791,1.176424,-17.916222,4.911886,2.903567,-28.058163,-4.714918,16.647520,31.116491,-1.673037,-1.408507,-73.170967,45.165413,-8.681023,4.568012,82.562813,17.700243,32.758209,-126.403023,-101.102295,8064.000000,0.000000,4.000000,,,,0.000000,4.000000,4.000000,4.000000,4.000000,4.000000,4.000000,4.000000,4.000000,4.000000,4.000000,4.000000,4.000000,4.000000,4.000000,4.000000,4.000000,4.000000,4.000000,4.000000,4.000000,4.000000,4.000000,4.000000,4.000000,4.000000,4.000000,4.000000,4.000000,4.000000,4.000000,4.000000,4.000000,100.000000
1614475412.863929,59.000000,0.000000,5.237501,-1.478817,-22.586752,-19.598940,8.456269,0.815149,9.201272,-9.509017,4.129671,-22.106678,1.514841,20.879288,10.565547,1.175248,-20.975229,4.906974,0.336561,-32.645489,-7.274305,16.118053,32.111015,-2.184185,3.721107,-76.174721,51.786915,-8.672341,5.076265,82.993065,15.631261,33.751091,-120.122780,-104.078117,8064.000000,0.000000,4.000000,,,,0.000000,4.000000,4.000000,4.000000,4.000000,4.000000,4.000000,4.000000,4.000000,4.000000,4.000000,4.000000,4.000000,4.000000,4.000000,4.000000,4.000000,4.000000,4.000000,4.000000,4.000000,4.000000,4.000000,4.000000,4.000000,4.000000,4.000000,4.000000,4.000000,4.000000,4.000000,4.000000,4.000000,100.000000
1614475412.871678,60.000000,0.000000,5.745084,-2.502979,-23.589808,-22.656265,5.883710,6.455360,10.730533,-9.499508,4.125542,-19.007648,2.538967,18.294306,11.067801,3.225354,-22.492714,-3.303061,-3.766340,-37.228230,-9.831134,10.460909,31.566086,-6.284564,2.178924,-76.098549,47.632561,-8.663669,0.968624,81.884430,19.205374,33.204521,-123.079575,-103.461220,8064.000000,0.000000,4.000000,,,,0.000000,4.000000,4.000000,4.000000,4.000000,4.000000,4.000000,4.000000,4.000000,4.000000,4.000000,4.000000,4.000000,4.000000,4.000000,4.000000,4.000000,4.000000,4.000000,4.000000,4.000000,4.000000,4.000000,4.000000,4.000000,4.000000,4.000000,4.000000,4.000000,4.000000,4.000000,4.000000,4.000000,100.000000
1614475412.879327,61.000000,0.000000,6.764980,-0.962015,-16.386730,-19.556684,6.903468,11.577109,10.719802,-7.951547,5.147057,-18.988640,2.023607,19.814472,14.646478,8.350334,-20.931761,-9.453605,5.981016,-34.114079,-7.770020,17.629934,38.714005,-1.150075,1.663925,-72.432709,49.123390,-8.655005,4.044579,82.315369,30.981039,31.632854,-120.905212,-92.075706,8064.000000,0.000000,4.000000,,,,0.000000,4.000000,4.000000,4.000000,4.000000,4.000000,4.000000,4.000000,4.000000,4.000000,4.000000,4.000000,4.000000,4.000000,4.000000,4.000000,4.000000,4.000000,4.000000,4.000000,4.000000,4.000000,4.000000,4.000000,4.000000,4.000000,4.000000,4.000000,4.000000,4.000000,4.000000,4.000000,4.000000,100.000000
1614475412.887076,62.000000,0.000000,9.835137,1.603050,-4.575471,-17.485846,7.922205,12.591174,11.221903,-5.379492,4.116269,-18.456831,-5.157903,19.794659,18.734394,9.880445,-21.936470,-14.572356,23.410933,-30.490219,-5.198148,41.202049,48.931702,10.645947,2.175081,-70.821808,57.279396,-8.646350,11.732841,82.745872,37.103905,35.190964,-108.476616,-78.137474,8064.000000,0.000000,4.000000,,,,0.000000,4.000000,4.000000,4.000000,4.000000,4.000000,4.000000,4.000000,4.000000,4.000000,4.000000,4.000000,4.000000,4.000000,4.000000,4.000000,4.000000,4.000000,4.000000,4.000000,4.000000,4.000000,4.000000,4.000000,4.000000,4.000000,4.000000,4.000000,4.000000,4.000000,4.000000,4.000000,4.000000,100.000000
1614475412.894725,63.000000,0.000000,12.389405,-1.475476,-2.519614,-23.622208,3.298898,12.578583,10.697861,-4.348472,4.624973,-19.976835,-9.255310,16.697941,19.228481,8.844924,-16.786327,-20.198809,23.387522,-32.511013,-4.680129,56.545464,48.369949,9.096840,8.839573,-70.750992,56.196476,-8.637704,15.310853,80.611847,34.502697,39.771156,-106.829681,-76.008057,8064.000000,0.000000,4.000000,,,,0.000000,4.000000,4.000000,4.000000,4.000000,4.000000,4.000000,4.000000,4.000000,4.000000,4.000000,4.000000,4.000000,4.000000,4.000000,4.000000,4.000000,4.000000,4.000000,4.000000,4.000000,4.000000,4.000000,4.000000,4.000000,4.000000,4.000000,4.000000,4.000000,4.000000,4.000000,4.000000,4.000000,100.000000
1614475412.902474,64.000000,0.000000,10.325734,-5.576565,-11.235043,-33.342175,-5.935170,7.950619,8.123060,-6.395406,2.569066,-24.572245,-9.758875,15.142781,16.645149,8.836079,-2.923388,-16.588867,7.466698,-26.324654,-4.675449,43.155582,38.577991,-1.168667,11.907657,-71.193062,43.832588,-8.629066,13.757080,73.864571,29.339991,33.064720,-122.107468,-82.085892,0.000000,195.000000,4.000000,,,,0.000000,4.000000,4.000000,4.000000,4.000000,4.000000,4.000000,4.000000,4.000000,4.000000,4.000000,4.000000,4.000000,4.000000,4.000000,4.000000,4.000000,4.000000,4.000000,4.000000,4.000000,4.000000,4.000000,4.000000,4.000000,4.000000,4.000000,4.000000,4.000000,4.000000,4.000000,4.000000,4.000000,100.000000
1614475412.910123,65.000000,0.000000,6.212844,-6.083809,-16.864834,-36.898575,-10.544620,-0.775280,6.576475,-8.953113,-3.587349,-27.111774,-9.749116,15.127638,14.577223,8.827243,2.207741,-8.367149,1.305386,-9.375253,-3.645133,26.702171,33.924026,-3.731601,-1.437585,-71.121864,37.122089,-9.133258,12.204862,68.662498,25.208086,25.852169,-130.190491,-83.542267,0.000000,186.000000,4.000000,,,,0.000000,4.000000,4.000000,4.000000,4.000000,4.000000,4.000000,4.000000,4.000000,4.000000,4.000000,4.000000,4.000000,4.000000,4.000000,4.000000,4.000000,4.000000,4.000000,4.000000,4.000000,4.000000,4.000000,4.000000,4.000000,4.000000,4.000000,4.000000,4.000000,4.000000,4.000000,4.000000,4.000000,100.000000
1614475412.917872,66.000000,0.000000,4.668169,-5.564905,-14.796687,-32.759113,-6.431510,-4.364248,7.082719,-8.944160,-2.558121,-27.084663,-6.149623,16.138151,14.562646,9.331236,0.667071,-4.256218,8.996387,-5.776134,-1.590205,32.829315,36.454208,-0.138126,-12.205378,-71.050743,39.649067,-7.585663,14.243938,70.645119,23.644417,34.031445,-124.419266,-84.484367,0.000000,184.000000,4.000000,,,,0.000000,4.000000,4.000000,4.000000,4.000000,4.000000,4.000000,4.000000,4.000000,4.000000,4.000000,4.000000,4.000000,4.000000,4.000000,4.000000,4.000000,4.000000,4.000000,4.000000,4.000000,4.000000,4.000000,4.000000,4.000000,4.000000,4.000000,4.000000,4.000000,4.000000,4.000000,4.000000,4.000000,100.000000
1614475412.925522,67.000000,0.000000,5.176322,-5.559340,-15.807531,-29.136610,-1.296874,-2.821423,6.562816,-7.909575,5.649566,-26.544758,1.036014,16.122013,14.548083,8.809085,-2.410519,0.876243,10.525853,-13.975486,0.975487,34.847767,35.904930,1.913294,-3.988044,-70.466873,42.686340,-4.501154,13.716874,75.702675,24.646414,44.766644,-119.679466,-86.963989,0.000000,194.000000,4.000000,,,,0.000000,4.000000,4.000000,4.000000,4.000000,4.000000,4.000000,4.000000,4.000000,4.000000,4.000000,4.000000,4.000000,4.000000,4.000000,4.000000,4.000000,4.000000,4.000000,4.000000,4.000000,4.000000,4.000000,4.000000,4.000000,4.000000,4.000000,4.000000,4.000000,4.000000,4.000000,4.000000,4.000000,100.000000
1614475412.933271,68.000000,0.000000,5.171145,-5.553780,-22.971210,-30.645935,-2.321218,-3.331422,7.069074,-10.978588,7.182378,-26.518213,4.111901,15.080250,12.995073,6.748993,-14.202980,5.490751,-1.279545,-14.987152,-0.051129,14.300099,28.689539,-0.139901,6.272354,-70.396408,41.105194,-4.496653,4.985209,77.678253,20.519203,44.721878,-122.123886,-88.415482,0.000000,180.000000,4.000000,,,,0.000000,4.000000,4.000000,4.000000,4.000000,4.000000,4.000000,4.000000,4.000000,4.000000,4.000000,4.000000,4.000000,4.000000,4.000000,4.000000,4.000000,4.000000,4.000000,4.000000,4.000000,4.000000,4.000000,4.000000,4.000000,4.000000,4.000000,4.000000,4.000000,4.000000,4.000000,4.000000,4.000000,100.000000
1614475412.940920,69.000000,0.000000,4.653154,-6.061047,-20.896957,-29.589649,-4.370179,-3.328090,12.190210,-16.095814,2.559811,-27.517336,1.543686,16.090811,10.417975,4.690962,-24.445187,0.357055,-8.970572,-17.023447,-9.281847,4.542210,24.558287,-5.267967,6.266082,-71.351654,42.602551,-6.543438,-2.712084,77.600578,16.396120,42.113052,-123.027405,-87.814247,0.000000,192.000000,4.000000,,,,0.000000,4.000000,4.000000,4.000000,4.000000,4.000000,4.000000,4.000000,4.000000,4.000000,4.000000,4.000000,4.000000,4.000000,4.000000,4.000000,4.000000,4.000000,4.000000,4.000000,4.000000,4.000000,4.000000,4.000000,4.000000,4.000000,4.000000,4.000000,4.000000,4.000000,4.000000,4.000000,4.000000,100.000000
1614475412.948669,70.000000,0.000000,4.648501,-5.542165,-6.517086,-21.354931,-3.340168,-0.760660,14.742123,-17.618179,-0.006852,-25.951357,2.054963,16.074720,10.407557,5.199092,-19.805357,-4.258686,-6.397500,-25.724371,-15.939232,24.537668,29.661934,-4.749878,3.182892,-70.254662,52.816357,-1.921510,4.470115,77.522980,20.482288,44.122223,-112.647964,-85.162331,0.000000,187.000000,4.000000,,,,0.000000,4.000000,4.000000,4.000000,4.000000,4.000000,4.000000,4.000000,4.000000,4.000000,4.000000,4.000000,4.000000,4.000000,4.000000,4.000000,4.000000,4.000000,4.000000,4.000000,4.000000,4.000000,4.000000,4.000000,4.000000,4.000000,4.000000,4.000000,4.000000,4.000000,4.000000,4.000000,4.000000,100.000000
1614475412.956318,71.000000,0.000000,5.156673,-2.459700,1.181739,-17.231012,-6.926571,1.291383,14.214560,-15.549280,-1.545306,-20.797199,4.617011,7.853517,10.397150,5.706713,-17.221449,-4.254427,-4.852641,-26.724289,-15.410472,37.846462,32.709194,0.383077,6.256633,-70.697227,61.481491,-0.893948,13.183594,77.958275,25.077190,45.103741,-99.201988,-80.974602,0.000000,213.000000,4.000000,,,,0.000000,4.000000,4.000000,4.000000,4.000000,4.000000,4.000000,4.000000,4.000000,4.000000,4.000000,4.000000,4.000000,4.000000,4.000000,4.000000,4.000000,4.000000,4.000000,4.000000,4.000000,4.000000,4.000000,4.000000,4.000000,4.000000,4.000000,4.000000,4.000000,4.000000,4.000000,4.000000,4.000000,100.000000
1614475412.964167,72.000000,0.000000,4.638696,-2.457240,-1.896366,-23.367626,-17.688875,0.777271,14.200345,-17.585012,-3.595043,-20.776403,-3.592735,-2.410747,10.386753,4.675365,-24.896536,-19.634789,-5.873429,-29.774487,-22.061729,26.526566,29.599562,0.382694,7.276017,-79.857300,57.830265,-12.175105,10.606308,77.367500,23.513651,37.366329,-101.666885,-79.355171,0.000000,212.000000,4.000000,,,,0.000000,4.000000,4.000000,4.000000,4.000000,4.000000,4.000000,4.000000,4.000000,4.000000,4.000000,4.000000,4.000000,4.000000,4.000000,4.000000,4.000000,4.000000,4.000000,4.000000,4.000000,4.000000,4.000000,4.000000,4.000000,4.000000,4.000000,4.000000,4.000000,4.000000,4.000000,4.000000,4.000000,100.000000
1614475412.971916,73.000000,0.000000,4.121236,-1.941963,-0.356008,-26.421183,-20.235289,0.776494,12.647683,-21.669992,-3.591448,-25.883831,-21.025040,-3.946797,10.376367,1.080947,-28.974203,-44.230537,-5.867556,-43.590866,-31.783257,20.859013,28.544321,2.946414,-4.013310,-87.469749,52.131409,-14.727033,8.544419,77.290131,24.515779,31.175116,-112.847275,-79.788635,0.000000,192.000000,4.000000,,,,0.000000,4.000000,4.000000,4.000000,4.000000,4.000000,4.000000,4.000000,4.000000,4.000000,4.000000,4.000000,4.000000,4.000000,4.000000,4.000000,4.000000,4.000000,4.000000,4.000000,4.000000,4.000000,4.000000,4.000000,4.000000,4.000000,4.000000,4.000000,4.000000,4.000000,4.000000,4.000000,4.000000,100.000000
1614475412.979765,74.000000,0.000000,9.245320,2.675364,1.695630,-24.856298,-19.189413,0.775717,8.019650,-16.520117,-4.100677,-26.883589,-24.593758,-3.430030,10.878811,-1.997057,-29.458050,-43.160667,-5.348867,-42.008816,-24.059166,30.068924,31.592701,13.712698,-13.240067,-79.689972,54.130562,-1.891793,13.664080,77.212837,28.081007,40.374710,-113.247246,-79.708847,0.000000,182.000000,4.000000,,,,0.000000,4.000000,4.000000,4.000000,4.000000,4.000000,4.000000,4.000000,4.000000,4.000000,4.000000,4.000000,4.000000,4.000000,4.000000,4.000000,4.000000,4.000000,4.000000,4.000000,4.000000,4.000000,4.000000,4.000000,4.000000,4.000000,4.000000,4.000000,4.000000,4.000000,4.000000,4.000000,4.000000,100.000000
1614475412.987514,75.000000,0.000000,15.389921,5.236791,-7.536835,-30.472469,-21.221506,0.774942,5.960349,-4.195904,-2.045295,-26.856705,-14.825574,-3.426600,13.944855,-2.507881,-28.402950,-23.630327,-5.343519,-21.966806,-5.573568,33.628597,31.561108,16.263088,-5.534518,-70.379509,53.563610,3.238304,13.650415,76.622803,25.488823,48.539463,-113.133995,-79.116318,0.000000,209.000000,4.000000,,,,0.000000,4.000000,4.000000,4.000000,4.000000,4.000000,4.000000,4.000000,4.000000,4.000000,4.000000,4.000000,4.000000,4.000000,4.000000,4.000000,4.000000,4.000000,4.000000,4.000000,4.000000,4.000000,4.000000,4.000000,4.000000,4.000000,4.000000,4.000000,4.000000,4.000000,4.000000,4.000000,4.000000,100.000000
1614475412.995363,76.000000,0.000000,16.400171,5.744375,-9.580581,-32.493279,-12.995155,2.312628,6.980030,0.423676,7.187520,-26.829849,-12.759467,6.833237,18.546295,-2.505373,-17.605316,-16.427210,-5.338175,-16.303814,0.585852,31.030867,30.503904,11.631440,2.163324,-71.334770,50.945942,3.747886,8.508560,77.571823,17.771027,43.362720,-118.149071,-79.550018,0.000000,179.000000,4.000000,,,,0.000000,4.000000,4.000000,4.000000,4.000000,4.000000,4.000000,4.000000,4.000000,4.000000,4.000000,4.000000,4.000000,4.000000,4.000000,4.000000,4.000000,4.000000,4.000000,4.000000,4.000000,4.000000,4.000000,4.000000,4.000000,4.000000,4.000000,4.000000,4.000000,4.000000,4.000000,4.000000,4.000000,100.000000
1614475413.003112,77.000000,0.000000,17.409412,10.354015,3.762334,-21.178734,5.992198,4.361598,9.537152,-1.628029,14.359819,-20.136353,-13.259528,22.211020,22.630312,-3.015688,-5.792840,-14.359500,-5.332837,-24.492638,-1.466016,36.128040,32.524685,14.696732,1.135519,-65.109589,58.074486,13.487728,17.218000,79.545532,15.189153,51.524487,-110.338615,-79.470474,0.000000,185.000000,4.000000,,,,0.000000,4.000000,4.000000,4.000000,4.000000,4.000000,4.000000,4.000000,4.000000,4.000000,4.000000,4.000000,4.000000,4.000000,4.000000,4.000000,4.000000,4.000000,4.000000,4.000000,4.000000,4.000000,4.000000,4.000000,4.000000,4.000000,4.000000,4.000000,4.000000,4.000000,4.000000,4.000000,4.000000,100.000000
1614475413.010961,78.000000,0.000000,19.956106,11.882123,5.297033,-13.978067,13.165693,4.357236,10.553256,-0.600760,15.883922,-12.423908,-2.989858,28.342653,22.607681,0.064251,-5.274227,-2.550268,-5.840324,-23.442503,0.073911,40.707298,35.056263,20.835882,7.288230,-52.736790,65.708717,15.525522,29.508474,81.004448,17.225246,67.370399,-96.382118,-79.390999,0.000000,184.000000,4.000000,,,,0.000000,4.000000,4.000000,4.000000,4.000000,4.000000,4.000000,4.000000,4.000000,4.000000,4.000000,4.000000,4.000000,4.000000,4.000000,4.000000,4.000000,4.000000,4.000000,4.000000,4.000000,4.000000,4.000000,4.000000,4.000000,4.000000,4.000000,4.000000,4.000000,4.000000,4.000000,4.000000,4.000000,100.000000
1614475413.018710,79.000000,0.000000,16.859226,5.203574,-10.605700,-20.630756,8.537143,4.352879,10.542703,-2.651442,15.355217,-10.873022,6.243901,25.750210,17.969690,4.166750,-6.294593,4.631769,-5.834484,-18.803677,3.663581,28.871719,34.508385,16.199661,15.998891,-54.222515,53.335316,4.740767,17.684095,80.410622,16.182379,60.636360,-97.311378,-79.311607,0.000000,199.000000,4.000000,,,,0.000000,4.000000,4.000000,4.000000,4.000000,4.000000,4.000000,4.000000,4.000000,4.000000,4.000000,4.000000,4.000000,4.000000,4.000000,4.000000,4.000000,4.000000,4.000000,4.000000,4.000000,4.000000,4.000000,4.000000,4.000000,4.000000,4.000000,4.000000,4.000000,4.000000,4.000000,4.000000,4.000000,100.000000
1614475413.026559,80.000000,0.000000,10.175701,0.582986,-17.774582,-23.687048,6.477324,4.348526,10.532161,-10.341098,12.775759,-11.887791,6.750478,21.109074,12.310695,5.701045,-5.262658,3.601496,-5.828650,-18.784872,3.659918,12.945412,34.986698,9.003974,10.341866,-62.886238,44.564034,0.633461,0.743334,79.817390,15.653377,43.139824,-101.316628,-79.745117,0.000000,204.000000,4.000000,,,,0.000000,4.000000,4.000000,4.000000,4.000000,4.000000,4.000000,4.000000,4.000000,4.000000,4.000000,4.000000,4.000000,4.000000,4.000000,4.000000,4.000000,4.000000,4.000000,4.000000,4.000000,4.000000,4.000000,4.000000,4.000000,4.000000,4.000000,4.000000,4.000000,4.000000,4.000000,4.000000,4.000000,100.000000
1614475413.034308,81.000000,0.000000,7.601423,1.608044,-10.577320,-19.047977,8.009308,4.344178,10.521628,-13.407680,8.147599,-11.363082,6.743727,16.472580,10.247102,5.182524,-9.872780,4.623536,-6.335642,-18.253267,-1.471948,15.496569,39.567093,7.456509,1.100755,-62.823353,61.442547,2.684110,8.434897,81.276039,19.227467,41.558224,-96.087112,-78.126915,0.000000,188.000000,4.000000,,,,0.000000,4.000000,4.000000,4.000000,4.000000,4.000000,4.000000,4.000000,4.000000,4.000000,4.000000,4.000000,4.000000,4.000000,4.000000,4.000000,4.000000,4.000000,4.000000,4.000000,4.000000,4.000000,4.000000,4.000000,4.000000,4.000000,4.000000,4.000000,4.000000,4.000000,4.000000,4.000000,4.000000,100.000000
1614475413.042157,82.000000,0.000000,8.619462,0.580795,-4.925717,-18.003288,5.950016,4.339833,10.511106,-13.907093,7.113810,-11.351719,5.711342,12.866364,9.724034,4.664521,-13.452651,1.541989,-4.278024,-19.773476,-7.111501,29.840046,43.117271,8.987514,0.586834,-62.247711,75.227257,1.655785,21.246975,83.246048,23.310802,44.080769,-92.401276,-75.484680,0.000000,185.000000,4.000000,,,,0.000000,4.000000,4.000000,4.000000,4.000000,4.000000,4.000000,4.000000,4.000000,4.000000,4.000000,4.000000,4.000000,4.000000,4.000000,4.000000,4.000000,4.000000,4.000000,4.000000,4.000000,4.000000,4.000000,4.000000,4.000000,4.000000,4.000000,4.000000,4.000000,4.000000,4.000000,4.000000,4.000000,100.000000
1614475413.049907,83.000000,0.000000,8.098022,1.093034,-5.433612,-19.010925,2.354323,3.822673,9.987775,-12.354724,7.619517,-11.853188,2.115888,10.802216,10.739951,5.685497,-12.413557,-5.126220,0.341639,-17.189600,-5.053108,34.425591,41.535690,7.952885,1.611888,-64.749565,66.946899,1.654129,20.200089,82.649979,24.825954,41.985405,-94.360161,-75.409195,0.000000,191.000000,4.000000,,,,0.000000,4.000000,4.000000,4.000000,4.000000,4.000000,4.000000,4.000000,4.000000,4.000000,4.000000,4.000000,4.000000,4.000000,4.000000,4.000000,4.000000,4.000000,4.000000,4.000000,4.000000,4.000000,4.000000,4.000000,4.000000,4.000000,4.000000,4.000000,4.000000,4.000000,4.000000,4.000000,4.000000,100.000000
1614475413.057756,84.000000,0.000000,7.577104,9.297070,-4.915358,-19.504736,1.839148,4.844491,9.977787,-9.265447,7.099077,-14.405437,4.165054,10.791413,12.780493,7.218273,-10.349861,2.571214,8.546425,-3.326256,0.592971,33.365524,42.006977,8.457752,0.584635,-62.120712,61.238930,1.139655,19.667067,80.516045,26.339590,41.943420,-95.291443,-75.333786,0.000000,193.000000,4.000000,,,,0.000000,4.000000,4.000000,4.000000,4.000000,4.000000,4.000000,4.000000,4.000000,4.000000,4.000000,4.000000,4.000000,4.000000,4.000000,4.000000,4.000000,4.000000,4.000000,4.000000,4.000000,4.000000,4.000000,4.000000,4.000000,4.000000,4.000000,4.000000,4.000000,4.000000,4.000000,4.000000,4.000000,100.000000
1614475413.065505,85.000000,0.000000,11.159270,16.980080,-1.320699,-18.459589,4.401412,7.403749,10.480630,-6.179258,7.091978,-17.467955,3.135248,11.806263,14.306174,8.749516,-8.801050,8.209669,17.768648,0.266813,-9.664032,36.921902,42.477791,11.526217,0.071230,-65.648338,64.767433,1.138515,27.339708,79.922707,27.851711,41.388657,-97.247429,-72.181534,0.000000,175.000000,4.000000,,,,0.000000,4.000000,4.000000,4.000000,4.000000,4.000000,4.000000,4.000000,4.000000,4.000000,4.000000,4.000000,4.000000,4.000000,4.000000,4.000000,4.000000,4.000000,4.000000,4.000000,4.000000,4.000000,4.000000,4.000000,4.000000,4.000000,4.000000,4.000000,4.000000,4.000000,4.000000,4.000000,4.000000,100.000000
1614475413.073354,86.000000,0.000000,15.763495,16.450279,0.219084,-17.928308,5.935472,8.421987,9.957329,-2.070514,7.084886,-18.988949,-8.662760,10.768816,14.804688,8.740767,-12.381992,-12.824182,20.827803,-25.887299,-29.654367,35.346519,36.794289,12.540333,1.609620,-79.941658,63.164204,9.342505,28.850830,78.817146,27.823860,44.424191,-98.175827,-71.596527,0.000000,195.000000,4.000000,,,,0.000000,4.000000,4.000000,4.000000,4.000000,4.000000,4.000000,4.000000,4.000000,4.000000,4.000000,4.000000,4.000000,4.000000,4.000000,4.000000,4.000000,4.000000,4.000000,4.000000,4.000000,4.000000,4.000000,4.000000,4.000000,4.000000,4.000000,4.000000,4.000000,4.000000,4.000000,4.000000,4.000000,100.000000
1614475413.081103,87.000000,0.000000,18.311834,15.921009,-2.345238,-19.961662,6.955177,7.900744,9.434551,4.085402,8.103442,-20.508421,-13.782302,12.296509,17.866806,8.219206,-18.010635,-34.349819,16.191589,-43.810131,-16.291380,34.285530,35.731853,11.502151,9.813139,-75.759155,63.613861,18.563931,27.283518,83.353714,28.821676,53.097713,-97.564827,-71.524933,0.000000,195.000000,4.000000,,,,0.000000,4.000000,4.000000,4.000000,4.000000,4.000000,4.000000,4.000000,4.000000,4.000000,4.000000,4.000000,4.000000,4.000000,4.000000,4.000000,4.000000,4.000000,4.000000,4.000000,4.000000,4.000000,4.000000,4.000000,4.000000,4.000000,4.000000,4.000000,4.000000,4.000000,4.000000,4.000000,4.000000,100.000000
1614475413.088952,88.000000,0.000000,20.344805,17.443550,1.246851,-17.377600,10.537966,7.380023,12.502039,7.158240,10.146621,-17.923811,-0.435186,21.002161,21.438684,8.723807,-11.325959,-18.930855,16.175398,-20.176577,16.545424,48.097401,44.926888,12.516291,21.085377,-44.401344,71.755371,22.647932,29.307516,96.090874,31.869778,58.172821,-97.467262,-69.914948,0.000000,181.000000,4.000000,,,,0.000000,4.000000,4.000000,4.000000,4.000000,4.000000,4.000000,4.000000,4.000000,4.000000,4.000000,4.000000,4.000000,4.000000,4.000000,4.000000,4.000000,4.000000,4.000000,4.000000,4.000000,4.000000,4.000000,4.000000,4.000000,4.000000,4.000000,4.000000,4.000000,4.000000,4.000000,4.000000,4.000000,100.000000
1614475413.096701,89.000000,0.000000,18.785999,11.272260,5.348168,-7.103811,13.604351,7.885463,19.156204,5.099800,11.674935,-6.111014,12.385762,27.647825,21.930065,10.253545,1.505880,11.857307,20.774609,-1.694861,29.862211,54.715969,49.497349,11.478133,27.218138,-28.459507,72.196442,20.574001,23.124363,98.046066,31.325089,57.601830,-97.882614,-75.486053,0.000000,210.000000,4.000000,,,,0.000000,4.000000,4.000000,4.000000,4.000000,4.000000,4.000000,4.000000,4.000000,4.000000,4.000000,4.000000,4.000000,4.000000,4.000000,4.000000,4.000000,4.000000,4.000000,4.000000,4.000000,4.000000,4.000000,4.000000,4.000000,4.000000,4.000000,4.000000,4.000000,4.000000,4.000000,4.000000,4.000000,100.000000
1614475413.104350,90.000000,0.000000,9.023623,2.030218,0.214615,-2.994143,14.103567,7.877578,22.213970,3.043418,10.637620,-0.976698,13.399017,24.030434,19.344032,11.781753,-2.085370,12.871091,15.112807,-26.308552,0.088760,33.635612,42.781181,2.235886,29.755022,-46.379765,60.842194,13.373940,8.742264,86.153145,24.114277,57.544228,-97.271912,-87.718262,0.000000,212.000000,4.000000,,,,0.000000,4.000000,4.000000,4.000000,4.000000,4.000000,4.000000,4.000000,4.000000,4.000000,4.000000,4.000000,4.000000,4.000000,4.000000,4.000000,4.000000,4.000000,4.000000,4.000000,4.000000,4.000000,4.000000,4.000000,4.000000,4.000000,4.000000,4.000000,4.000000,4.000000,4.000000,4.000000,4.000000,100.000000
1614475413.112099,91.000000,0.000000,2.347933,-0.023094,-3.888164,-9.144995,13.576643,6.844059,20.653296,-0.036549,11.139802,-9.180850,12.359977,18.878199,17.273407,12.282791,-14.390976,-6.116139,4.841284,-39.102757,-17.347227,14.114797,36.584557,-2.381735,23.058599,-63.256462,54.627502,6.181079,4.630957,78.374687,19.474777,55.435402,-96.661819,-87.630547,0.000000,195.000000,4.000000,,,,0.000000,4.000000,4.000000,4.000000,4.000000,4.000000,4.000000,4.000000,4.000000,4.000000,4.000000,4.000000,4.000000,4.000000,4.000000,4.000000,4.000000,4.000000,4.000000,4.000000,4.000000,4.000000,4.000000,4.000000,4.000000,4.000000,4.000000,4.000000,4.000000,4.000000,4.000000,4.000000,4.000000,100.000000
1614475413.119748,92.000000,0.000000,8.499431,1.515390,2.782391,-11.699953,12.024605,8.888497,20.632643,-1.062153,12.154304,-11.222951,13.886079,18.346500,17.768953,14.834611,-12.838124,-3.033100,9.451828,-12.909806,-4.509367,21.792990,38.086433,3.774493,6.112465,-61.141926,57.649799,4.636436,9.754531,79.321953,23.557867,50.764580,-97.590797,-78.824966,0.000000,191.000000,4.000000,,,,0.000000,4.000000,4.000000,4.000000,4.000000,4.000000,4.000000,4.000000,4.000000,4.000000,4.000000,4.000000,4.000000,4.000000,4.000000,4.000000,4.000000,4.000000,4.000000,4.000000,4.000000,4.000000,4.000000,4.000000,4.000000,4.000000,4.000000,4.000000,4.000000,4.000000,4.000000,4.000000,4.000000,100.000000
1614475413.127497,93.000000,0.000000,18.234522,0.488234,7.907814,-10.662612,9.961298,16.059095,22.663292,3.041473,8.552405,-4.545062,13.872192,19.353794,19.802467,16.358238,-3.594517,11.328908,21.750069,-4.691769,-6.556139,34.591709,41.125271,8.898924,-4.150058,-60.567963,59.643433,5.657441,13.334520,79.242630,30.200975,48.662533,-95.954750,-77.720497,0.000000,216.000000,4.000000,,,,0.000000,4.000000,4.000000,4.000000,4.000000,4.000000,4.000000,4.000000,4.000000,4.000000,4.000000,4.000000,4.000000,4.000000,4.000000,4.000000,4.000000,4.000000,4.000000,4.000000,4.000000,4.000000,4.000000,4.000000,4.000000,4.000000,4.000000,4.000000,4.000000,4.000000,4.000000,4.000000,4.000000,100.000000
1614475413.135146,94.000000,0.000000,19.754747,1.000566,6.874265,-12.703231,9.438517,19.632780,18.538065,6.115355,8.031033,-3.002055,10.268577,18.308800,22.346767,15.316239,-1.539640,1.573989,23.779600,-21.097334,-33.216251,34.557117,41.084145,7.864384,-2.607446,-68.199699,58.045326,5.138963,16.398109,78.137749,31.709236,49.639515,-93.294693,-78.155602,0.000000,191.000000,4.000000,,,,0.000000,4.000000,4.000000,4.000000,4.000000,4.000000,4.000000,4.000000,4.000000,4.000000,4.000000,4.000000,4.000000,4.000000,4.000000,4.000000,4.000000,4.000000,4.000000,4.000000,4.000000,4.000000,4.000000,4.000000,4.000000,4.000000,4.000000,4.000000,4.000000,4.000000,4.000000,4.000000,4.000000,100.000000
1614475413.142896,95.000000,0.000000,18.709352,6.640591,6.867391,-15.254630,9.941898,19.100327,13.904141,6.109239,15.715309,-5.563155,8.719847,18.803310,24.375702,15.813744,-3.589382,-8.171175,22.730179,-15.435210,-37.285599,32.471279,40.530239,7.856519,-3.630480,-66.080223,57.987282,5.133824,20.484274,78.572426,30.139065,49.589874,-96.278320,-74.487701,0.000000,199.000000,4.000000,,,,0.000000,4.000000,4.000000,4.000000,4.000000,4.000000,4.000000,4.000000,4.000000,4.000000,4.000000,4.000000,4.000000,4.000000,4.000000,4.000000,4.000000,4.000000,4.000000,4.000000,4.000000,4.000000,4.000000,4.000000,4.000000,4.000000,4.000000,4.000000,4.000000,4.000000,4.000000,4.000000,4.000000,100.000000
1614475413.150545,96.000000,0.000000,19.716284,12.274977,3.270780,-15.239376,9.931956,19.594048,18.505621,5.590310,18.776518,-4.531951,9.223948,21.348610,24.864147,18.362032,-2.560152,6.708791,24.245911,-4.137723,-14.684209,34.490089,41.515350,8.361484,-3.626849,-56.270550,58.954937,5.641511,20.976610,79.006676,31.647387,49.027462,-100.284607,-75.951675,8192.000000,0.000000,4.000000,,,,0.000000,4.000000,4.000000,4.000000,4.000000,4.000000,4.000000,4.000000,4.000000,4.000000,4.000000,4.000000,4.000000,4.000000,4.000000,4.000000,4.000000,4.000000,4.000000,4.000000,4.000000,4.000000,4.000000,4.000000,4.000000,4.000000,4.000000,4.000000,4.000000,4.000000,4.000000,4.000000,4.000000,100.000000
1614475413.158294,97.000000,0.000000,20.209389,11.749881,-2.886338,-14.711316,9.409204,14.959069,24.128141,6.610360,15.680818,-4.014599,5.624980,22.865723,24.839283,19.369310,-2.044771,11.830288,20.631922,-15.928457,-5.438756,38.045341,42.499477,9.891583,4.069085,-58.778381,58.895981,6.148690,20.442814,78.927666,31.615740,49.491257,-100.697144,-81.003929,8192.000000,0.000000,4.000000,,,,0.000000,4.000000,4.000000,4.000000,4.000000,4.000000,4.000000,4.000000,4.000000,4.000000,4.000000,4.000000,4.000000,4.000000,4.000000,4.000000,4.000000,4.000000,4.000000,4.000000,4.000000,4.000000,4.000000,4.000000,4.000000,4.000000,4.000000,4.000000,4.000000,4.000000,4.000000,4.000000,4.000000,100.000000
1614475413.165943,98.000000,0.000000,19.676359,9.686849,-6.986015,-14.696605,10.425436,4.174879,22.052732,6.603750,17.716419,-8.113148,1.516791,22.330036,25.327265,16.785839,-4.606829,2.074868,12.918982,-23.604837,-9.535881,38.007298,40.405693,11.932974,8.680401,-67.950371,57.298622,5.629721,20.422371,79.361565,24.917458,49.954586,-100.083626,-81.948563,8064.000000,0.000000,4.000000,,,,0.000000,4.000000,4.000000,4.000000,4.000000,4.000000,4.000000,4.000000,4.000000,4.000000,4.000000,4.000000,4.000000,4.000000,4.000000,4.000000,4.000000,4.000000,4.000000,4.000000,4.000000,4.000000,4.000000,4.000000,4.000000,4.000000,4.000000,4.000000,4.000000,4.000000,4.000000,4.000000,4.000000,100.000000
1614475413.173692,99.000000,0.000000,19.143862,9.164342,-11.594414,-15.194729,10.927831,-0.444681,20.492218,5.058684,17.185883,-11.694778,4.592197,22.307707,23.763475,15.230592,-6.653504,9.765100,11.367601,-13.837643,0.217244,37.456470,41.903751,11.921041,9.697361,-56.600372,60.831066,5.624091,19.889128,81.846306,19.251514,49.391811,-99.470718,-80.840973,8064.000000,0.000000,4.000000,,,,0.000000,4.000000,4.000000,4.000000,4.000000,4.000000,4.000000,4.000000,4.000000,4.000000,4.000000,4.000000,4.000000,4.000000,4.000000,4.000000,4.000000,4.000000,4.000000,4.000000,4.000000,4.000000,4.000000,4.000000,4.000000,4.000000,4.000000,4.000000,4.000000,4.000000,4.000000,4.000000,4.000000,100.000000
1614475413.181341,100.000000,0.000000,20.150358,7.616716,-16.198204,-14.666714,8.865621,0.581405,19.958904,-0.074579,6.912286,-12.195905,9.715810,22.798220,21.688431,15.728182,-6.134030,17.960464,14.945977,-9.721241,16.114464,42.034397,50.066975,12.934761,15.328690,-36.030952,68.462547,6.131288,20.894880,83.302917,19.232264,49.342419,-96.807144,-81.272957,8064.000000,0.000000,4.000000,,,,0.000000,4.000000,4.000000,4.000000,4.000000,4.000000,4.000000,4.000000,4.000000,4.000000,4.000000,4.000000,4.000000,4.000000,4.000000,4.000000,4.000000,4.000000,4.000000,4.000000,4.000000,4.000000,4.000000,4.000000,4.000000,4.000000,4.000000,4.000000,4.000000,4.000000,4.000000,4.000000,4.000000,100.000000
1614475413.189090,101.000000,0.000000,17.566107,5.557817,-16.182005,-14.139226,7.318294,-0.444817,17.374844,-8.279633,-0.274114,-11.670888,8.167632,20.211319,20.641100,15.712454,-6.640717,8.198914,15.443851,-12.788443,15.585528,44.556465,48.991268,12.921826,20.954386,-39.584663,69.419724,5.099515,18.309883,79.117050,20.238672,50.318718,-95.684700,-81.704506,8064.000000,0.000000,4.000000,,,,0.000000,4.000000,4.000000,4.000000,4.000000,4.000000,4.000000,4.000000,4.000000,4.000000,4.000000,4.000000,4.000000,4.000000,4.000000,4.000000,4.000000,4.000000,4.000000,4.000000,4.000000,4.000000,4.000000,4.000000,4.000000,4.000000,4.000000,4.000000,4.000000,4.000000,4.000000,4.000000,4.000000,100.000000
1614475413.196739,102.000000,0.000000,9.343411,4.013798,-15.140182,-15.150728,7.310976,2.119730,17.357468,-14.425200,-4.376404,-11.659217,4.569721,14.550082,19.081997,15.696741,-6.634076,1.011227,10.813024,-12.262834,1.723789,38.358063,38.173046,4.703776,17.856508,-57.493797,63.196457,0.479031,12.137727,73.909729,19.192793,47.191475,-97.640297,-83.161263,8064.000000,0.000000,4.000000,,,,0.000000,4.000000,4.000000,4.000000,4.000000,4.000000,4.000000,4.000000,4.000000,4.000000,4.000000,4.000000,4.000000,4.000000,4.000000,4.000000,4.000000,4.000000,4.000000,4.000000,4.000000,4.000000,4.000000,4.000000,4.000000,4.000000,4.000000,4.000000,4.000000,4.000000,4.000000,4.000000,4.000000,100.000000
1614475413.204489,103.000000,0.000000,2.154581,-0.092780,-15.637863,-17.699680,-0.901464,8.271457,16.827290,-16.974876,-10.013053,-12.160378,6.103613,10.945788,17.524454,16.193865,-3.037699,-0.015425,8.238108,-9.686468,-6.995884,34.217140,33.006668,-6.070158,12.710447,-61.538868,61.594799,-4.649653,8.535846,70.758896,19.173599,39.964798,-99.593933,-84.103737,8064.000000,0.000000,4.000000,,,,0.000000,4.000000,4.000000,4.000000,4.000000,4.000000,4.000000,4.000000,4.000000,4.000000,4.000000,4.000000,4.000000,4.000000,4.000000,4.000000,4.000000,4.000000,4.000000,4.000000,4.000000,4.000000,4.000000,4.000000,4.000000,4.000000,4.000000,4.000000,4.000000,4.000000,4.000000,4.000000,4.000000,100.000000
1614475413.212138,104.000000,0.000000,0.613965,-2.656790,-15.109405,-18.707621,-13.208255,6.724723,12.707899,-16.445082,-12.054322,-11.635398,6.610330,10.934843,17.506929,14.639210,-4.573123,-5.143615,8.742690,-10.189602,-6.988888,35.208565,33.999302,-7.602550,7.056711,-59.938866,63.071667,-6.183465,8.527309,70.688141,19.667246,37.360729,-99.494339,-84.532455,8064.000000,0.000000,4.000000,,,,0.000000,4.000000,4.000000,4.000000,4.000000,4.000000,4.000000,4.000000,4.000000,4.000000,4.000000,4.000000,4.000000,4.000000,4.000000,4.000000,4.000000,4.000000,4.000000,4.000000,4.000000,4.000000,4.000000,4.000000,4.000000,4.000000,4.000000,4.000000,4.000000,4.000000,4.000000,4.000000,4.000000,100.000000
1614475413.219887,105.000000,0.000000,0.613351,-2.654133,-15.094296,-18.176092,-17.297611,0.564153,10.131088,-16.428637,-11.016626,-11.623762,-0.062947,11.436728,16.976603,12.060468,-10.209575,-4.625650,8.733948,-12.743515,-12.622925,32.096432,29.349916,-6.056486,1.408629,-73.725082,60.444492,-5.151640,8.005961,71.130272,19.647579,38.349010,-99.394852,-84.960747,8064.000000,0.000000,4.000000,,,,0.000000,4.000000,4.000000,4.000000,4.000000,4.000000,4.000000,4.000000,4.000000,4.000000,4.000000,4.000000,4.000000,4.000000,4.000000,4.000000,4.000000,4.000000,4.000000,4.000000,4.000000,4.000000,4.000000,4.000000,4.000000,4.000000,4.000000,4.000000,4.000000,4.000000,4.000000,4.000000,4.000000,100.000000
1614475413.227536,106.000000,0.000000,0.612738,-2.651479,-15.079201,-20.722019,-16.254671,1.589230,8.582496,-17.437849,-11.518431,-12.124959,-6.729551,10.912471,16.959625,11.535586,-6.609622,0.507180,8.212393,-11.192310,-18.764149,25.397671,24.192362,-7.076070,0.381579,-86.984688,57.819946,-5.659309,12.613340,69.520676,19.627932,37.285019,-99.295456,-83.337318,8064.000000,0.000000,4.000000,,,,0.000000,4.000000,4.000000,4.000000,4.000000,4.000000,4.000000,4.000000,4.000000,4.000000,4.000000,4.000000,4.000000,4.000000,4.000000,4.000000,4.000000,4.000000,4.000000,4.000000,4.000000,4.000000,4.000000,4.000000,4.000000,4.000000,4.000000,4.000000,4.000000,4.000000,4.000000,4.000000,4.000000,100.000000
1614475413.235385,107.000000,0.000000,4.201869,-1.623187,-15.064122,-22.239759,-16.238417,5.177384,6.522631,-14.343488,-10.481271,-14.164116,-5.697180,10.901559,21.558050,11.524051,-2.500448,3.583596,11.281104,-13.232400,-13.617179,25.372272,24.680990,-5.530533,1.406839,-83.307961,56.736485,-6.166471,19.267393,70.476799,19.095484,38.273376,-100.734619,-86.330910,8064.000000,0.000000,4.000000,,,,0.000000,4.000000,4.000000,4.000000,4.000000,4.000000,4.000000,4.000000,4.000000,4.000000,4.000000,4.000000,4.000000,4.000000,4.000000,4.000000,4.000000,4.000000,4.000000,4.000000,4.000000,4.000000,4.000000,4.000000,4.000000,4.000000,4.000000,4.000000,4.000000,4.000000,4.000000,4.000000,4.000000,100.000000
1614475413.243134,108.000000,0.000000,8.300231,0.942539,-15.561878,-21.704699,-14.683717,1.069642,6.003288,-9.200939,-10.470790,-15.688414,-5.178662,11.403478,19.998032,5.871501,-12.241537,3.580013,11.269822,-33.731987,-19.244587,26.885363,27.220411,-2.448079,-0.133030,-78.096451,56.679749,-2.057740,19.248127,76.047348,19.589209,41.312027,-103.197990,-94.449707,8064.000000,0.000000,4.000000,,,,0.000000,4.000000,4.000000,4.000000,4.000000,4.000000,4.000000,4.000000,4.000000,4.000000,4.000000,4.000000,4.000000,4.000000,4.000000,4.000000,4.000000,4.000000,4.000000,4.000000,4.000000,4.000000,4.000000,4.000000,4.000000,4.000000,4.000000,4.000000,4.000000,4.000000,4.000000,4.000000,4.000000,100.000000
1614475413.250983,109.000000,0.000000,8.804750,1.454417,-17.084778,-22.708635,-17.233135,-4.059632,5.484465,-9.704558,-11.485960,-16.185545,-9.788868,11.392074,8.695982,-0.288216,-21.972885,-8.731259,6.643168,-57.287998,-44.866367,17.627707,24.629089,-1.932811,1.918385,-83.146561,54.571785,4.098164,16.151955,79.048225,19.569618,41.270714,-102.069145,-93.842438,8064.000000,0.000000,4.000000,,,,0.000000,4.000000,4.000000,4.000000,4.000000,4.000000,4.000000,4.000000,4.000000,4.000000,4.000000,4.000000,4.000000,4.000000,4.000000,4.000000,4.000000,4.000000,4.000000,4.000000,4.000000,4.000000,4.000000,4.000000,4.000000,4.000000,4.000000,4.000000,4.000000,4.000000,4.000000,4.000000,4.000000,100.000000
1614475413.258732,110.000000,0.000000,8.283126,1.452963,-20.144617,-21.147465,-13.113338,-0.978650,7.017441,-9.182034,-5.320628,-14.630898,-6.702157,10.867862,7.148824,0.737713,-19.386810,-15.902016,4.585243,-47.487122,-39.693298,10.943413,27.168562,-2.443698,4.993390,-75.883926,52.465931,6.145348,16.135803,77.430710,19.037230,42.767902,-100.941437,-88.620384,8064.000000,0.000000,4.000000,,,,0.000000,4.000000,4.000000,4.000000,4.000000,4.000000,4.000000,4.000000,4.000000,4.000000,4.000000,4.000000,4.000000,4.000000,4.000000,4.000000,4.000000,4.000000,4.000000,4.000000,4.000000,4.000000,4.000000,4.000000,4.000000,4.000000,4.000000,4.000000,4.000000,4.000000,4.000000,4.000000,4.000000,100.000000
