title:29, start timestamp:1614475565.844267, stop timestamp:1614475611.803364, headset type:EPOCFLEX, headset serial:F00001ED, headset firmware:f12, subject name:s13, channels:75, sampling rate:128, samples:5939      , version:2.0
Timestamp,EEG.Counter,EEG.Interpolated,EEG.Cz,EEG.Fz,EEG.Fp1,EEG.F7,EEG.F3,EEG.FC1,EEG.C3,EEG.FC5,EEG.FT9,EEG.T7,EEG.TP9,EEG.CP5,EEG.CP1,EEG.P3,EEG.P7,EEG.O1,EEG.Pz,EEG.Oz,EEG.O2,EEG.P8,EEG.P4,EEG.CP2,EEG.CP6,EEG.TP10,EEG.T8,EEG.FT10,EEG.FC6,EEG.C4,EEG.FC2,EEG.F4,EEG.F8,EEG.Fp2,EEG.HighBitFlex,EEG.RawCq,EEG.Battery,MarkerIndex,MarkerType,MarkerValueInt,EEG.MarkerHardware,CQ.Cz,CQ.Fz,CQ.Fp1,CQ.F7,CQ.F3,CQ.FC1,CQ.C3,CQ.FC5,CQ.FT9,CQ.T7,CQ.TP9,CQ.CP5,CQ.CP1,CQ.P3,CQ.P7,CQ.O1,CQ.Pz,CQ.Oz,CQ.O2,CQ.P8,CQ.P4,CQ.CP2,CQ.CP6,CQ.TP10,CQ.T8,CQ.FT10,CQ.FC6,CQ.C4,CQ.FC2,CQ.F4,CQ.F8,CQ.Fp2,CQ.Overall
1614475565.844267,87.000000,0.000000,-0.241261,-0.157587,-39.469559,-55.053829,-14.770771,-8.825315,0.149502,-17.975468,-21.768524,11.413410,13.289749,2.612899,3.259654,7.619511,8.369271,13.661063,5.174043,10.582240,4.710271,9.882154,10.570313,12.722660,9.670250,-9.454003,16.382082,11.101303,26.525194,6.802780,4.485184,20.046309,37.617973,-2.067332,0.000000,181.000000,4.000000,,,,0.000000,4.000000,4.000000,4.000000,4.000000,4.000000,4.000000,4.000000,4.000000,4.000000,4.000000,4.000000,4.000000,4.000000,4.000000,4.000000,4.000000,4.000000,4.000000,4.000000,4.000000,4.000000,4.000000,4.000000,4.000000,4.000000,4.000000,4.000000,4.000000,4.000000,4.000000,4.000000,4.000000,100.000000
1614475565.851916,88.000000,0.000000,-0.753840,-1.183071,-39.430088,-55.511597,-18.858564,-6.765208,-1.389109,-18.470312,-22.772396,10.889176,-5.185080,-5.082022,4.282036,4.534968,0.668595,0.314068,1.066305,10.571658,-2.986747,9.359451,10.046923,13.222758,13.250322,-28.418909,11.750315,10.064561,26.498669,4.231874,4.993519,15.923698,36.554714,-3.603726,0.000000,180.000000,4.000000,,,,0.000000,4.000000,4.000000,4.000000,4.000000,4.000000,4.000000,4.000000,4.000000,4.000000,4.000000,4.000000,4.000000,4.000000,4.000000,4.000000,4.000000,4.000000,4.000000,4.000000,4.000000,4.000000,4.000000,4.000000,4.000000,4.000000,4.000000,4.000000,4.000000,4.000000,4.000000,4.000000,4.000000,100.000000
1614475565.859765,89.000000,0.000000,-1.265907,-1.181888,-38.877838,-55.456085,-18.326885,-5.219982,-0.874899,-15.374918,-23.262445,10.878287,-7.231176,-12.256427,2.226472,4.017612,1.180747,4.416318,2.090880,19.791855,-10.676067,9.350092,10.036876,13.209536,8.621688,-28.903309,19.943693,8.516035,26.472170,5.253284,11.142371,12.318030,39.082264,-4.625763,0.000000,169.000000,4.000000,,,,0.000000,4.000000,4.000000,4.000000,4.000000,4.000000,4.000000,4.000000,4.000000,4.000000,4.000000,4.000000,4.000000,4.000000,4.000000,4.000000,4.000000,4.000000,4.000000,4.000000,4.000000,4.000000,4.000000,4.000000,4.000000,4.000000,4.000000,4.000000,4.000000,4.000000,4.000000,4.000000,4.000000,100.000000
1614475565.867514,90.000000,0.000000,2.325102,0.357756,-39.351780,-54.887806,-10.616251,-5.727582,0.664437,-14.333902,-19.136618,10.354589,7.647850,-11.731350,-2.391140,5.039236,1.179566,10.565748,4.652892,21.310526,8.821788,16.007408,10.539660,13.709146,7.587425,-5.284663,27.616056,9.020340,26.958517,12.940338,16.772255,24.613405,41.607285,-6.672419,0.000000,171.000000,4.000000,,,,0.000000,4.000000,4.000000,4.000000,4.000000,4.000000,4.000000,4.000000,4.000000,4.000000,4.000000,4.000000,4.000000,4.000000,4.000000,4.000000,4.000000,4.000000,4.000000,4.000000,4.000000,4.000000,4.000000,4.000000,4.000000,4.000000,4.000000,4.000000,4.000000,4.000000,4.000000,4.000000,4.000000,100.000000
1614475565.875363,91.000000,0.000000,8.989444,-0.155423,-38.799610,-55.345741,-11.118455,-5.209034,-3.951612,-14.832389,-17.579020,6.754490,4.563279,-16.335003,-4.440031,-0.606829,-7.026742,-3.803792,11.827726,16.673830,9.838607,21.632427,13.606043,13.182617,25.528555,-9.381943,21.947414,7.985678,26.418739,13.953039,13.678559,29.204176,41.052856,-3.588824,0.000000,205.000000,4.000000,,,,0.000000,4.000000,4.000000,4.000000,4.000000,4.000000,4.000000,4.000000,4.000000,4.000000,4.000000,4.000000,4.000000,4.000000,4.000000,4.000000,4.000000,4.000000,4.000000,4.000000,4.000000,4.000000,4.000000,4.000000,4.000000,4.000000,4.000000,4.000000,4.000000,4.000000,4.000000,4.000000,4.000000,100.000000
1614475565.883112,92.000000,0.000000,2.313788,-7.334754,-36.196709,-54.777573,-18.286823,-7.255107,-13.691250,-17.894480,-24.740929,3.670813,-6.723336,-23.498156,-11.615078,-7.272889,-13.686382,-18.158962,4.123590,11.528952,-13.760975,16.995409,14.105257,12.143793,34.733795,-27.834099,18.848545,-0.227436,22.289757,8.810881,8.536675,15.841639,40.498981,0.004509,0.000000,182.000000,4.000000,,,,0.000000,4.000000,4.000000,4.000000,4.000000,4.000000,4.000000,4.000000,4.000000,4.000000,4.000000,4.000000,4.000000,4.000000,4.000000,4.000000,4.000000,4.000000,4.000000,4.000000,4.000000,4.000000,4.000000,4.000000,4.000000,4.000000,4.000000,4.000000,4.000000,4.000000,4.000000,4.000000,4.000000,100.000000
1614475565.890961,93.000000,0.000000,-3.329551,-4.250496,-35.134869,-54.209976,-14.678793,-9.299134,-15.216020,-18.902225,-22.664906,3.667142,-6.716613,-19.884914,-13.141924,-7.778437,-13.672695,-16.089521,-10.239508,8.953320,-11.183111,11.337389,10.501409,10.080367,21.365728,-26.267803,17.291235,1.311253,18.677723,7.263608,8.528139,18.389900,40.971302,-4.610880,0.000000,196.000000,4.000000,,,,0.000000,4.000000,4.000000,4.000000,4.000000,4.000000,4.000000,4.000000,4.000000,4.000000,4.000000,4.000000,4.000000,4.000000,4.000000,4.000000,4.000000,4.000000,4.000000,4.000000,4.000000,4.000000,4.000000,4.000000,4.000000,4.000000,4.000000,4.000000,4.000000,4.000000,4.000000,4.000000,4.000000,100.000000
1614475565.898710,94.000000,0.000000,2.827624,8.574266,-34.586914,-56.207047,-7.484627,-4.674450,-13.662342,-13.755119,-10.334548,3.150654,-14.402204,-17.300926,-8.513397,-6.745017,-16.223125,-23.252918,-12.280550,-1.312044,-10.659108,10.300410,6.901163,2.377979,13.139235,-31.882561,10.607277,11.053532,19.171865,4.179421,9.545252,29.140741,41.443153,-8.196013,0.000000,192.000000,4.000000,,,,0.000000,4.000000,4.000000,4.000000,4.000000,4.000000,4.000000,4.000000,4.000000,4.000000,4.000000,4.000000,4.000000,4.000000,4.000000,4.000000,4.000000,4.000000,4.000000,4.000000,4.000000,4.000000,4.000000,4.000000,4.000000,4.000000,4.000000,4.000000,4.000000,4.000000,4.000000,4.000000,4.000000,100.000000
1614475565.906559,95.000000,0.000000,0.773515,6.514410,-35.065147,-53.586739,-6.964322,-3.131314,-12.110219,-7.587518,-9.811393,3.660324,-17.977545,-18.309267,-11.581807,-7.251092,-17.232544,-30.921974,-17.396475,-15.669706,-30.648449,5.161905,4.842980,-7.367989,12.100455,-43.645550,8.545387,5.914273,19.152693,-3.517066,7.484425,17.316729,39.350430,-7.162176,0.000000,186.000000,4.000000,,,,0.000000,4.000000,4.000000,4.000000,4.000000,4.000000,4.000000,4.000000,4.000000,4.000000,4.000000,4.000000,4.000000,4.000000,4.000000,4.000000,4.000000,4.000000,4.000000,4.000000,4.000000,4.000000,4.000000,4.000000,4.000000,4.000000,4.000000,4.000000,4.000000,4.000000,4.000000,4.000000,4.000000,100.000000
1614475565.914308,96.000000,0.000000,-6.406746,-3.748514,-36.568542,-45.840843,-8.495819,-10.820491,-2.354519,-7.067110,-18.006710,8.784869,5.630176,-9.060188,-12.083046,-6.218200,-5.420439,-7.814129,-17.379078,-0.782241,-14.207543,2.592640,3.299675,-10.437544,4.908867,-32.319855,10.075303,-2.809590,18.620720,-5.564830,4.400017,3.966078,35.721333,-9.206296,8064.000000,0.000000,4.000000,,,,0.000000,4.000000,4.000000,4.000000,4.000000,4.000000,4.000000,4.000000,4.000000,4.000000,4.000000,4.000000,4.000000,4.000000,4.000000,4.000000,4.000000,4.000000,4.000000,4.000000,4.000000,4.000000,4.000000,4.000000,4.000000,4.000000,4.000000,4.000000,4.000000,4.000000,4.000000,4.000000,4.000000,100.000000
1614475565.922157,97.000000,0.000000,-2.810596,-2.719125,-32.942230,-44.256542,-12.589888,-11.322491,1.750400,-7.060042,-18.501524,11.340186,20.496342,-2.384461,-2.840194,-3.135059,5.867033,11.168044,3.663942,26.910849,10.934869,9.769535,2.783556,-8.888644,1.827035,-26.646507,8.526767,2.321425,19.627741,-6.072086,4.908438,4.474932,34.147152,-11.248372,8064.000000,0.000000,4.000000,,,,0.000000,4.000000,4.000000,4.000000,4.000000,4.000000,4.000000,4.000000,4.000000,4.000000,4.000000,4.000000,4.000000,4.000000,4.000000,4.000000,4.000000,4.000000,4.000000,4.000000,4.000000,4.000000,4.000000,4.000000,4.000000,4.000000,4.000000,4.000000,4.000000,4.000000,4.000000,4.000000,4.000000,100.000000
1614475565.929906,98.000000,0.000000,-1.269324,-3.229226,-31.370829,-49.340488,-18.731144,-8.234245,-10.559043,-8.078624,-21.559944,8.764744,6.629691,-9.561564,-4.375815,-2.619103,1.245781,-1.663636,8.275662,17.653168,-4.460681,11.811048,-0.808972,-9.392576,5.414952,-35.850632,7.492599,1.293462,17.556831,-7.604475,5.416350,1.393534,32.061722,-10.724303,8064.000000,0.000000,4.000000,,,,0.000000,4.000000,4.000000,4.000000,4.000000,4.000000,4.000000,4.000000,4.000000,4.000000,4.000000,4.000000,4.000000,4.000000,4.000000,4.000000,4.000000,4.000000,4.000000,4.000000,4.000000,4.000000,4.000000,4.000000,4.000000,4.000000,4.000000,4.000000,4.000000,4.000000,4.000000,4.000000,4.000000,100.000000
1614475565.937755,99.000000,0.000000,-8.960362,-10.918304,-43.134331,-52.368073,-19.738054,-15.405498,-13.112586,-14.737211,-28.205051,6.191876,-2.094888,-10.064823,-14.115028,-3.642125,-6.447773,-7.302999,-9.681331,4.302182,-7.020323,3.594108,-4.397906,-9.896004,5.922358,-25.558371,4.921004,-5.887318,10.872607,-4.519948,3.872472,-1.684782,27.927095,-12.252040,8064.000000,0.000000,4.000000,,,,0.000000,4.000000,4.000000,4.000000,4.000000,4.000000,4.000000,4.000000,4.000000,4.000000,4.000000,4.000000,4.000000,4.000000,4.000000,4.000000,4.000000,4.000000,4.000000,4.000000,4.000000,4.000000,4.000000,4.000000,4.000000,4.000000,4.000000,4.000000,4.000000,4.000000,4.000000,4.000000,4.000000,100.000000
1614475565.945504,100.000000,0.000000,-12.541145,-12.958668,-49.757862,-52.315704,-19.718315,-18.979836,-9.509730,-18.312218,-25.099924,7.211326,0.984130,-5.439373,-15.126554,-2.612842,-5.928504,4.499177,-8.646008,20.195316,8.371312,1.026411,-5.419149,-8.860467,5.403615,-9.122555,0.300698,-2.804508,7.271991,-2.464146,1.304497,2.932287,25.335066,-10.188506,8064.000000,0.000000,4.000000,,,,0.000000,4.000000,4.000000,4.000000,4.000000,4.000000,4.000000,4.000000,4.000000,4.000000,4.000000,4.000000,4.000000,4.000000,4.000000,4.000000,4.000000,4.000000,4.000000,4.000000,4.000000,4.000000,4.000000,4.000000,4.000000,4.000000,4.000000,4.000000,4.000000,4.000000,4.000000,4.000000,4.000000,100.000000
1614475565.953353,101.000000,0.000000,-10.990143,-11.920069,-42.015797,-49.186466,-19.185778,-11.781369,-21.295092,-16.242624,-22.510721,8.742576,-1.580957,-12.100601,-14.598608,-2.097409,-5.409755,2.956216,-4.021978,18.636660,-10.098598,2.563846,-5.413730,-9.364428,4.372570,-0.908304,5.428603,-1.776062,8.290360,-6.051425,0.790372,3.954996,25.822552,-7.614215,8064.000000,0.000000,4.000000,,,,0.000000,4.000000,4.000000,4.000000,4.000000,4.000000,4.000000,4.000000,4.000000,4.000000,4.000000,4.000000,4.000000,4.000000,4.000000,4.000000,4.000000,4.000000,4.000000,4.000000,4.000000,4.000000,4.000000,4.000000,4.000000,4.000000,4.000000,4.000000,4.000000,4.000000,4.000000,4.000000,4.000000,100.000000
1614475565.961103,102.000000,0.000000,-10.979153,-10.369687,-38.896858,-47.598816,-16.602489,-9.205485,-29.991745,-14.687920,-25.565134,5.656910,-4.656299,-14.652603,-18.173752,-6.710696,-7.968448,-2.687766,-18.376930,2.207766,-19.832088,1.535642,-3.869855,-9.867884,1.291274,11.913116,13.628302,-5.364030,7.256429,-6.045374,1.302402,2.412579,25.796730,-12.221986,7936.000000,0.000000,4.000000,,,,0.000000,4.000000,4.000000,4.000000,4.000000,4.000000,4.000000,4.000000,4.000000,4.000000,4.000000,4.000000,4.000000,4.000000,4.000000,4.000000,4.000000,4.000000,4.000000,4.000000,4.000000,4.000000,4.000000,4.000000,4.000000,4.000000,4.000000,4.000000,4.000000,4.000000,4.000000,4.000000,4.000000,100.000000
1614475565.968952,103.000000,0.000000,-10.968173,-5.743933,-38.345139,-50.115322,-16.585886,-13.298843,-23.807907,-14.673232,-26.052389,2.574330,-4.651642,-6.432822,-18.668400,-10.293729,-10.524582,-0.120976,-14.768809,12.974789,4.803128,7.175131,2.287861,-7.806733,3.341265,19.080690,15.665956,-0.743281,8.274814,-5.013688,0.788279,3.948628,25.770933,-12.209764,8064.000000,0.000000,4.000000,,,,0.000000,4.000000,4.000000,4.000000,4.000000,4.000000,4.000000,4.000000,4.000000,4.000000,4.000000,4.000000,4.000000,4.000000,4.000000,4.000000,4.000000,4.000000,4.000000,4.000000,4.000000,4.000000,4.000000,4.000000,4.000000,4.000000,4.000000,4.000000,4.000000,4.000000,4.000000,4.000000,4.000000,100.000000
1614475565.976701,104.000000,0.000000,-11.982846,-3.686907,-24.973461,-39.808796,-15.543659,-13.285544,-17.117434,-12.094456,-26.026337,12.315346,-3.621350,-3.862287,-18.136911,-8.232153,-11.026877,-0.633675,3.194677,16.551558,4.798325,17.937187,7.926599,-5.747644,6.927668,23.676994,20.778496,3.360026,13.394744,-2.957392,1.300311,5.483141,25.745161,-0.402682,8064.000000,0.000000,4.000000,,,,0.000000,4.000000,4.000000,4.000000,4.000000,4.000000,4.000000,4.000000,4.000000,4.000000,4.000000,4.000000,4.000000,4.000000,4.000000,4.000000,4.000000,4.000000,4.000000,4.000000,4.000000,4.000000,4.000000,4.000000,4.000000,4.000000,4.000000,4.000000,4.000000,4.000000,4.000000,4.000000,4.000000,100.000000
1614475565.984350,105.000000,0.000000,-10.945222,-4.196040,-17.256180,-23.358730,-8.861449,-12.246618,-9.408009,-10.543900,-25.487490,18.969696,-0.540805,-4.884065,-16.580313,-6.685460,-10.503031,1.931061,2.165841,1.150391,-9.565448,21.508993,9.969954,-3.177794,11.023304,37.499474,25.885921,2.331025,15.945452,5.250694,1.811831,9.067402,26.232237,4.213106,8064.000000,0.000000,4.000000,,,,0.000000,4.000000,4.000000,4.000000,4.000000,4.000000,4.000000,4.000000,4.000000,4.000000,4.000000,4.000000,4.000000,4.000000,4.000000,4.000000,4.000000,4.000000,4.000000,4.000000,4.000000,4.000000,4.000000,4.000000,4.000000,4.000000,4.000000,4.000000,4.000000,4.000000,4.000000,4.000000,4.000000,100.000000
1614475565.992099,106.000000,0.000000,-4.780431,-2.140562,-20.315847,-26.925116,-10.903870,-13.260013,-6.321677,-11.046177,-19.308155,6.643035,-1.053085,-4.879181,-12.973989,-8.217236,-9.979707,6.544514,3.189317,13.456932,2.751810,22.000305,10.472805,4.517691,21.268690,38.487614,20.219009,7.456899,15.416685,5.245443,0.271558,14.699360,26.206005,-0.406492,8064.000000,0.000000,4.000000,,,,0.000000,4.000000,4.000000,4.000000,4.000000,4.000000,4.000000,4.000000,4.000000,4.000000,4.000000,4.000000,4.000000,4.000000,4.000000,4.000000,4.000000,4.000000,4.000000,4.000000,4.000000,4.000000,4.000000,4.000000,4.000000,4.000000,4.000000,4.000000,4.000000,4.000000,4.000000,4.000000,4.000000,100.000000
1614475565.999748,107.000000,0.000000,0.865375,-2.138422,-17.731428,-38.180241,-17.559633,-10.169829,-6.828176,-10.522309,-14.673463,2.533828,0.486430,-5.899943,-10.396912,-2.055172,-10.482548,-0.128697,16.519461,24.725527,10.441366,21.465485,10.975152,12.205482,27.401268,27.167074,16.096228,12.577647,17.452551,-2.452110,2.835389,12.633378,26.692619,2.158017,8064.000000,0.000000,4.000000,,,,0.000000,4.000000,4.000000,4.000000,4.000000,4.000000,4.000000,4.000000,4.000000,4.000000,4.000000,4.000000,4.000000,4.000000,4.000000,4.000000,4.000000,4.000000,4.000000,4.000000,4.000000,4.000000,4.000000,4.000000,4.000000,4.000000,4.000000,4.000000,4.000000,4.000000,4.000000,4.000000,4.000000,100.000000
1614475566.007497,108.000000,0.000000,0.351689,-3.161924,-18.739338,-31.475395,-11.901047,-6.057096,2.409421,-11.024608,-13.633149,18.941551,10.742353,0.259803,-9.873694,7.177652,-10.984886,-4.743953,10.349095,4.187981,-2.389588,12.726070,10.451357,10.141994,23.784124,27.652727,17.105772,13.077890,19.999201,-0.911197,8.473579,10.056643,26.665926,3.694320,8064.000000,0.000000,4.000000,,,,0.000000,4.000000,4.000000,4.000000,4.000000,4.000000,4.000000,4.000000,4.000000,4.000000,4.000000,4.000000,4.000000,4.000000,4.000000,4.000000,4.000000,4.000000,4.000000,4.000000,4.000000,4.000000,4.000000,4.000000,4.000000,4.000000,4.000000,4.000000,4.000000,4.000000,4.000000,4.000000,4.000000,100.000000
1614475566.015146,109.000000,0.000000,-0.161483,-3.671583,-26.925726,-24.777252,-6.248120,-5.025398,8.560858,-11.526403,-11.568233,27.640558,17.398277,11.541595,-8.325359,8.708936,-3.281593,5.004381,-2.994588,5.722254,-6.489763,5.533857,10.440906,5.516467,22.221878,25.573793,13.498922,11.526351,18.440741,2.679458,6.926644,8.508124,25.100800,-4.001682,8064.000000,0.000000,4.000000,,,,0.000000,4.000000,4.000000,4.000000,4.000000,4.000000,4.000000,4.000000,4.000000,4.000000,4.000000,4.000000,4.000000,4.000000,4.000000,4.000000,4.000000,4.000000,4.000000,4.000000,4.000000,4.000000,4.000000,4.000000,4.000000,4.000000,4.000000,4.000000,4.000000,4.000000,4.000000,4.000000,4.000000,100.000000
1614475566.022895,110.000000,0.000000,0.351499,-6.744834,-18.693672,-24.752476,-11.370077,-5.020372,0.347169,-7.412313,-11.043845,25.561634,16.355238,10.504412,-6.265751,8.700227,10.055022,10.640402,2.136612,28.280634,-2.380709,6.553964,9.917644,6.023771,16.045811,14.266168,12.459783,5.360979,13.806914,-4.502708,2.304333,2.345770,24.562878,-6.048962,8064.000000,0.000000,4.000000,,,,0.000000,4.000000,4.000000,4.000000,4.000000,4.000000,4.000000,4.000000,4.000000,4.000000,4.000000,4.000000,4.000000,4.000000,4.000000,4.000000,4.000000,4.000000,4.000000,4.000000,4.000000,4.000000,4.000000,4.000000,4.000000,4.000000,4.000000,4.000000,4.000000,4.000000,4.000000,4.000000,4.000000,100.000000
1614475566.030545,111.000000,0.000000,-0.161673,-6.738090,-6.367287,-20.112339,-9.307425,-6.553813,-4.268563,-3.815157,-10.519980,25.023252,18.390165,2.288779,-6.259486,9.204348,12.609069,8.065660,7.262681,14.919021,-3.403969,2.444846,6.317983,4.992106,1.670790,10.662158,12.447323,2.278694,11.229005,-9.113590,0.763567,4.394706,20.435751,-2.453170,8064.000000,0.000000,4.000000,,,,0.000000,4.000000,4.000000,4.000000,4.000000,4.000000,4.000000,4.000000,4.000000,4.000000,4.000000,4.000000,4.000000,4.000000,4.000000,4.000000,4.000000,4.000000,4.000000,4.000000,4.000000,4.000000,4.000000,4.000000,4.000000,4.000000,4.000000,4.000000,4.000000,4.000000,4.000000,4.000000,4.000000,100.000000
1614475566.038294,112.000000,0.000000,0.351309,-1.603146,-10.976304,-21.630688,-6.221195,-9.111362,-7.341217,-3.298522,-5.894076,15.254640,17.858955,2.286490,-6.766047,4.066938,8.493896,9.083235,3.152854,-4.070257,-4.939027,-2.172984,0.670639,1.910191,0.130657,6.548932,2.691286,6.891800,11.730597,-7.566015,-0.775658,12.082620,8.107623,-7.066101,8064.000000,0.000000,4.000000,,,,0.000000,4.000000,4.000000,4.000000,4.000000,4.000000,4.000000,4.000000,4.000000,4.000000,4.000000,4.000000,4.000000,4.000000,4.000000,4.000000,4.000000,4.000000,4.000000,4.000000,4.000000,4.000000,4.000000,4.000000,4.000000,4.000000,4.000000,4.000000,4.000000,4.000000,4.000000,4.000000,4.000000,100.000000
1614475566.045943,113.000000,0.000000,-1.700324,-3.140005,-13.529430,-25.198801,-10.830359,-8.589430,-14.000543,-4.320864,-4.349720,3.957334,13.225711,3.309845,-6.759281,2.011589,9.511044,9.074151,1.098419,6.703043,-3.908447,4.495856,-1.894134,0.882640,8.848475,0.388537,-0.388329,6.372088,11.718866,-9.609732,-2.313344,4.378229,3.484130,-6.033394,8064.000000,0.000000,4.000000,,,,0.000000,4.000000,4.000000,4.000000,4.000000,4.000000,4.000000,4.000000,4.000000,4.000000,4.000000,4.000000,4.000000,4.000000,4.000000,4.000000,4.000000,4.000000,4.000000,4.000000,4.000000,4.000000,4.000000,4.000000,4.000000,4.000000,4.000000,4.000000,4.000000,4.000000,4.000000,4.000000,4.000000,100.000000
1614475566.053692,114.000000,0.000000,-5.288367,-6.213788,-6.849234,-14.404370,-7.229784,-6.016738,-9.371158,-3.803723,-5.883832,7.030300,12.186844,0.229612,-6.752522,4.060859,8.475891,9.065077,-1.466782,9.260444,-3.391718,3.978540,-1.379419,0.881757,4.737063,6.541995,6.278726,3.801613,11.194326,-11.138583,-1.798210,0.271287,5.531929,3.716229,8064.000000,0.000000,4.000000,,,,0.000000,4.000000,4.000000,4.000000,4.000000,4.000000,4.000000,4.000000,4.000000,4.000000,4.000000,4.000000,4.000000,4.000000,4.000000,4.000000,4.000000,4.000000,4.000000,4.000000,4.000000,4.000000,4.000000,4.000000,4.000000,4.000000,4.000000,4.000000,4.000000,4.000000,4.000000,4.000000,4.000000,100.000000
1614475566.061341,115.000000,0.000000,-1.693336,-0.053728,-12.483411,-14.389966,-3.119990,-6.010722,-6.797684,-3.287099,-4.852307,7.023269,6.533632,-1.309079,-6.745769,-4.661150,-0.763354,11.620114,-4.029418,0.533234,-5.439608,-7.820311,-1.378040,2.419337,-2.959982,7.048273,3.708345,4.823453,11.695953,-12.153086,-6.411797,6.424861,-4.217193,-2.954154,8064.000000,0.000000,4.000000,,,,0.000000,4.000000,4.000000,4.000000,4.000000,4.000000,4.000000,4.000000,4.000000,4.000000,4.000000,4.000000,4.000000,4.000000,4.000000,4.000000,4.000000,4.000000,4.000000,4.000000,4.000000,4.000000,4.000000,4.000000,4.000000,4.000000,4.000000,4.000000,4.000000,4.000000,4.000000,4.000000,4.000000,100.000000
1614475566.069090,116.000000,0.000000,3.436563,1.997608,-21.188875,-24.631987,-7.219434,-4.979070,-11.406271,-4.309453,-5.360275,0.862400,-1.678030,-4.384693,-6.739023,-11.323155,-7.429257,8.531571,-1.974106,9.250649,-7.998271,-3.197106,-0.351021,4.981020,-0.392919,0.374558,3.191816,-1.335217,11.171436,-12.140932,-8.456667,-3.837974,-16.520668,-16.797354,8064.000000,0.000000,4.000000,,,,0.000000,4.000000,4.000000,4.000000,4.000000,4.000000,4.000000,4.000000,4.000000,4.000000,4.000000,4.000000,4.000000,4.000000,4.000000,4.000000,4.000000,4.000000,4.000000,4.000000,4.000000,4.000000,4.000000,4.000000,4.000000,4.000000,4.000000,4.000000,4.000000,4.000000,4.000000,4.000000,4.000000,100.000000
1614475566.076739,117.000000,0.000000,-0.156617,-2.106954,-13.988200,-11.274021,2.531375,-2.409988,1.938469,-3.792323,-6.380556,5.476922,-1.163531,-7.970052,-7.245105,-3.619525,-8.447469,-1.733370,-6.074697,14.369604,-5.426170,10.652246,2.213433,4.463219,2.171576,8.066491,13.445035,-4.410805,9.108983,-2.385202,1.295380,-11.526443,-9.837481,-9.088248,8064.000000,0.000000,4.000000,,,,0.000000,4.000000,4.000000,4.000000,4.000000,4.000000,4.000000,4.000000,4.000000,4.000000,4.000000,4.000000,4.000000,4.000000,4.000000,4.000000,4.000000,4.000000,4.000000,4.000000,4.000000,4.000000,4.000000,4.000000,4.000000,4.000000,4.000000,4.000000,4.000000,4.000000,4.000000,4.000000,4.000000,100.000000
1614475566.084488,118.000000,0.000000,-4.259025,0.459256,-5.256263,3.609047,11.759612,-1.894758,11.167299,-1.224428,-2.271611,10.086830,-6.290573,-7.449261,-6.725039,-2.590264,-10.490304,-7.372663,-7.607083,7.175747,-4.395103,13.205695,5.800963,7.535678,4.220686,18.314835,11.893128,5.337196,7.561412,5.822312,4.371007,4.382519,-2.135336,0.151609,8064.000000,0.000000,4.000000,,,,0.000000,4.000000,4.000000,4.000000,4.000000,4.000000,4.000000,4.000000,4.000000,4.000000,4.000000,4.000000,4.000000,4.000000,4.000000,4.000000,4.000000,4.000000,4.000000,4.000000,4.000000,4.000000,4.000000,4.000000,4.000000,4.000000,4.000000,4.000000,4.000000,4.000000,4.000000,4.000000,4.000000,100.000000
1614475566.092138,119.000000,0.000000,0.873439,3.535720,-7.302289,-6.138151,-2.611121,-0.867222,-7.305406,-0.710383,-1.243699,6.486999,-10.899667,-5.903351,-3.641391,-3.100495,-10.479814,-6.852469,5.733857,15.886520,-4.390708,20.371977,14.000290,17.271732,10.370312,20.347803,5.214568,10.460064,7.553851,0.175464,-1.274389,7.967880,-5.210124,-4.976748,8064.000000,0.000000,4.000000,,,,0.000000,4.000000,4.000000,4.000000,4.000000,4.000000,4.000000,4.000000,4.000000,4.000000,4.000000,4.000000,4.000000,4.000000,4.000000,4.000000,4.000000,4.000000,4.000000,4.000000,4.000000,4.000000,4.000000,4.000000,4.000000,4.000000,4.000000,4.000000,4.000000,4.000000,4.000000,4.000000,4.000000,100.000000
1614475566.099987,120.000000,0.000000,3.949489,0.455261,-6.782166,-8.696115,-5.172613,1.697748,-10.375024,-0.196852,0.808827,12.121538,7.059950,-4.871806,-0.048006,11.774401,-6.879590,-2.230232,18.035816,24.588583,4.844452,27.531092,19.114494,21.869846,12.924045,30.071045,10.850379,14.039348,9.084759,-1.363173,2.316629,0.267605,-4.692093,-2.407668,8064.000000,0.000000,4.000000,,,,0.000000,4.000000,4.000000,4.000000,4.000000,4.000000,4.000000,4.000000,4.000000,4.000000,4.000000,4.000000,4.000000,4.000000,4.000000,4.000000,4.000000,4.000000,4.000000,4.000000,4.000000,4.000000,4.000000,4.000000,4.000000,4.000000,4.000000,4.000000,4.000000,4.000000,4.000000,4.000000,4.000000,100.000000
1614475566.107736,121.000000,0.000000,4.458360,1.993267,-5.236922,-5.610497,5.601790,2.208871,6.045608,-0.196655,11.064428,17.237621,13.719557,-3.841293,0.977683,16.890831,-8.411172,-2.740823,18.017780,9.692199,10.480634,10.067664,8.838970,16.719770,15.475223,29.015331,7.762606,19.153513,5.998751,2.740754,8.468159,3.857080,-6.225863,-1.892440,8064.000000,0.000000,4.000000,,,,0.000000,4.000000,4.000000,4.000000,4.000000,4.000000,4.000000,4.000000,4.000000,4.000000,4.000000,4.000000,4.000000,4.000000,4.000000,4.000000,4.000000,4.000000,4.000000,4.000000,4.000000,4.000000,4.000000,4.000000,4.000000,4.000000,4.000000,4.000000,4.000000,4.000000,4.000000,4.000000,4.000000,100.000000
1614475566.115585,122.000000,0.000000,8.556466,3.016915,-9.847070,-17.399757,-2.608939,1.693841,1.936998,-1.222099,8.489262,11.579358,-3.730060,-6.914375,0.463885,6.617530,-9.941222,-10.943210,16.461300,-1.599545,5.341948,-2.250096,-0.400638,12.087667,15.972569,7.960676,-3.014388,3.236924,-0.673914,-0.338910,4.357126,-0.762161,-19.040150,-15.736701,8064.000000,0.000000,4.000000,,,,0.000000,4.000000,4.000000,4.000000,4.000000,4.000000,4.000000,4.000000,4.000000,4.000000,4.000000,4.000000,4.000000,4.000000,4.000000,4.000000,4.000000,4.000000,4.000000,4.000000,4.000000,4.000000,4.000000,4.000000,4.000000,4.000000,4.000000,4.000000,4.000000,4.000000,4.000000,4.000000,4.000000,100.000000
1614475566.123334,123.000000,0.000000,10.086371,-2.114307,-7.273120,-9.690050,-3.119151,1.692147,-4.218785,0.830405,-4.339741,17.208805,1.401875,-2.292076,0.463421,12.251939,-2.751794,-11.957908,17.470480,5.581542,8.413528,12.623949,5.240788,13.101219,8.264288,4.875792,6.732216,-11.125288,-1.698882,-0.338571,0.763025,-5.889604,-17.482647,-12.131221,8192.000000,0.000000,4.000000,,,,0.000000,4.000000,4.000000,4.000000,4.000000,4.000000,4.000000,4.000000,4.000000,4.000000,4.000000,4.000000,4.000000,4.000000,4.000000,4.000000,4.000000,4.000000,4.000000,4.000000,4.000000,4.000000,4.000000,4.000000,4.000000,4.000000,4.000000,4.000000,4.000000,4.000000,4.000000,4.000000,4.000000,100.000000
1614475566.131183,124.000000,0.000000,8.537823,-4.163475,5.041845,12.370922,16.371147,1.690455,7.067485,8.009062,0.792804,27.960827,18.323551,16.171755,3.027060,19.419174,4.430445,0.361742,19.504292,7.627243,4.302551,14.149786,4.722727,14.113759,9.794485,12.050404,13.904971,6.321735,2.918202,2.225870,0.249442,12.065003,-5.670293,1.727064,8064.000000,0.000000,4.000000,,,,0.000000,4.000000,4.000000,4.000000,4.000000,4.000000,4.000000,4.000000,4.000000,4.000000,4.000000,4.000000,4.000000,4.000000,4.000000,4.000000,4.000000,4.000000,4.000000,4.000000,4.000000,4.000000,4.000000,4.000000,4.000000,4.000000,4.000000,4.000000,4.000000,4.000000,4.000000,4.000000,4.000000,100.000000
1614475566.138932,125.000000,0.000000,7.503644,-4.672132,8.626547,5.691884,14.816315,1.688765,6.034776,11.590796,10.535601,22.291840,14.202662,19.745327,5.075315,8.630524,7.502938,7.028047,14.869403,4.542692,-22.368418,-8.941286,-6.051227,11.022722,21.066742,-11.551391,-4.057652,9.392337,2.402463,-8.032766,-1.289269,14.104220,-12.844110,-6.479791,8064.000000,0.000000,4.000000,,,,0.000000,4.000000,4.000000,4.000000,4.000000,4.000000,4.000000,4.000000,4.000000,4.000000,4.000000,4.000000,4.000000,4.000000,4.000000,4.000000,4.000000,4.000000,4.000000,4.000000,4.000000,4.000000,4.000000,4.000000,4.000000,4.000000,4.000000,4.000000,4.000000,4.000000,4.000000,4.000000,4.000000,100.000000
1614475566.146781,126.000000,0.000000,2.367935,-9.282845,3.489715,-1.493295,0.955345,1.687076,-4.227669,10.553564,5.396860,18.166985,13.675640,3.828145,3.531778,8.109073,8.521076,4.969737,-0.017261,8.640714,-25.422974,-15.599012,-7.070817,3.319392,9.250803,-40.770607,-14.822824,-8.565774,0.348779,-14.691400,-2.826442,-3.345781,-21.036394,-14.165619,8064.000000,0.000000,4.000000,,,,0.000000,4.000000,4.000000,4.000000,4.000000,4.000000,4.000000,4.000000,4.000000,4.000000,4.000000,4.000000,4.000000,4.000000,4.000000,4.000000,4.000000,4.000000,4.000000,4.000000,4.000000,4.000000,4.000000,4.000000,4.000000,4.000000,4.000000,4.000000,4.000000,4.000000,4.000000,4.000000,4.000000,100.000000
1614475566.154530,127.000000,0.000000,-3.275458,-3.632536,6.563148,14.405634,4.031312,1.685389,-4.736261,10.543011,5.904284,24.302664,18.277349,1.260214,0.964144,16.306091,7.999734,5.990408,-5.658270,12.221817,-3.859088,3.390946,-0.909899,1.777611,-8.707166,-45.345222,-3.525950,1.699202,3.938174,-5.445939,-2.823615,3.837052,-11.784589,-2.869402,8064.000000,0.000000,4.000000,,,,0.000000,4.000000,4.000000,4.000000,4.000000,4.000000,4.000000,4.000000,4.000000,4.000000,4.000000,4.000000,4.000000,4.000000,4.000000,4.000000,4.000000,4.000000,4.000000,4.000000,4.000000,4.000000,4.000000,4.000000,4.000000,4.000000,4.000000,4.000000,4.000000,4.000000,4.000000,4.000000,4.000000,100.000000
1614475566.162379,0.000000,0.000000,-1.733721,8.165968,12.710431,14.391229,2.488820,1.683704,-7.295628,11.045288,9.488123,20.175797,9.028302,9.976903,0.450359,5.007735,10.555838,9.574162,-2.062868,11.696774,-9.496255,11.592684,-0.396169,1.775833,0.532311,-46.325520,3.144242,14.518016,5.472697,-0.312288,-2.307971,12.551164,-11.772804,1.748852,0.000000,187.000000,4.000000,,,,0.000000,4.000000,4.000000,4.000000,4.000000,4.000000,4.000000,4.000000,4.000000,4.000000,4.000000,4.000000,4.000000,4.000000,4.000000,4.000000,4.000000,4.000000,4.000000,4.000000,4.000000,4.000000,4.000000,4.000000,4.000000,4.000000,4.000000,4.000000,4.000000,4.000000,4.000000,4.000000,4.000000,100.000000
1614475566.170128,1.000000,0.000000,-2.757628,5.593700,12.184900,6.171709,-3.667515,1.682020,-10.365255,10.521422,5.376071,15.027415,4.403889,3.813080,-1.088553,-8.843427,7.468358,10.590228,-9.753113,11.172257,-24.358553,-11.495832,-1.421414,-7.969532,8.224087,-49.868935,0.064175,-0.881118,-0.686622,-4.414540,-1.792843,-3.358824,-20.478979,-6.458025,0.000000,200.000000,4.000000,,,,0.000000,4.000000,4.000000,4.000000,4.000000,4.000000,4.000000,4.000000,4.000000,4.000000,4.000000,4.000000,4.000000,4.000000,4.000000,4.000000,4.000000,4.000000,4.000000,4.000000,4.000000,4.000000,4.000000,4.000000,4.000000,4.000000,4.000000,4.000000,4.000000,4.000000,4.000000,4.000000,4.000000,100.000000
1614475566.177977,2.000000,0.000000,-4.293333,-1.078560,12.172715,14.883486,0.438716,1.167517,-6.252326,10.510900,6.909156,19.627773,-0.215899,-2.857400,-3.138746,-8.321763,-8.949367,5.964254,-16.410027,7.058521,-13.052144,-29.433054,-1.419992,-15.653871,-5.630291,-47.767784,-2.499992,-5.495621,-5.301320,-4.922946,-3.842332,-4.893926,-15.843117,-7.990029,0.000000,187.000000,4.000000,,,,0.000000,4.000000,4.000000,4.000000,4.000000,4.000000,4.000000,4.000000,4.000000,4.000000,4.000000,4.000000,4.000000,4.000000,4.000000,4.000000,4.000000,4.000000,4.000000,4.000000,4.000000,4.000000,4.000000,4.000000,4.000000,4.000000,4.000000,4.000000,4.000000,4.000000,4.000000,4.000000,4.000000,100.000000
1614475566.185726,3.000000,0.000000,-0.186475,1.486621,11.134902,9.740397,-3.151466,1.679170,-11.374279,10.500390,8.440709,11.915837,-17.138760,-1.828902,-3.135607,-8.313441,-16.119904,-2.759659,-6.650026,3.974539,-8.936527,-11.967724,-0.905752,-8.971550,-10.752867,-46.694378,-5.061594,2.715003,-3.757557,-2.866741,-5.889771,2.803275,-15.827273,-5.930757,0.000000,171.000000,4.000000,,,,0.000000,4.000000,4.000000,4.000000,4.000000,4.000000,4.000000,4.000000,4.000000,4.000000,4.000000,4.000000,4.000000,4.000000,4.000000,4.000000,4.000000,4.000000,4.000000,4.000000,4.000000,4.000000,4.000000,4.000000,4.000000,4.000000,4.000000,4.000000,4.000000,4.000000,4.000000,4.000000,4.000000,100.000000
1614475566.193575,4.000000,0.000000,-2.750391,1.997954,2.405818,-8.730882,-11.353443,2.703132,-18.542391,10.489889,2.791243,-4.506335,-16.608801,-8.493739,-4.158113,-10.356410,-9.437118,-7.885105,0.023290,3.457744,-18.671181,8.557064,6.274641,-3.834373,-2.536985,-42.545116,-6.082174,0.661006,-2.215338,-3.889515,-1.781317,-5.917477,-27.606318,-8.488929,0.000000,189.000000,4.000000,,,,0.000000,4.000000,4.000000,4.000000,4.000000,4.000000,4.000000,4.000000,4.000000,4.000000,4.000000,4.000000,4.000000,4.000000,4.000000,4.000000,4.000000,4.000000,4.000000,4.000000,4.000000,4.000000,4.000000,4.000000,4.000000,4.000000,4.000000,4.000000,4.000000,4.000000,4.000000,4.000000,4.000000,100.000000
1614475566.201324,5.000000,0.000000,-7.363025,-0.568146,-3.750434,-5.132407,-7.752346,0.649147,-11.857183,10.479400,4.839734,-5.527470,-2.746038,-11.049348,-6.205237,-7.269130,-11.478963,-6.338758,-4.592118,0.890184,-11.985843,1.369020,10.370931,-6.394641,-0.483166,-30.707701,-7.101733,7.327011,-2.725943,-3.885626,-0.241075,-2.321816,-28.604353,-11.044542,0.000000,216.000000,4.000000,,,,0.000000,4.000000,4.000000,4.000000,4.000000,4.000000,4.000000,4.000000,4.000000,4.000000,4.000000,4.000000,4.000000,4.000000,4.000000,4.000000,4.000000,4.000000,4.000000,4.000000,4.000000,4.000000,4.000000,4.000000,4.000000,4.000000,4.000000,4.000000,4.000000,4.000000,4.000000,4.000000,4.000000,100.000000
1614475566.208973,6.000000,0.000000,2.387928,4.047807,-1.182581,7.180418,-5.180491,1.674139,-4.153018,10.468921,8.937458,2.170366,-3.768934,0.243752,-7.224673,-4.184938,-14.031587,-3.768317,-1.510602,1.914935,-4.794370,-5.299016,5.745175,-5.362606,-2.533965,-29.138533,-11.197195,12.960710,-3.236038,-3.881740,-1.779295,7.424096,-24.986004,-11.033498,0.000000,182.000000,4.000000,,,,0.000000,4.000000,4.000000,4.000000,4.000000,4.000000,4.000000,4.000000,4.000000,4.000000,4.000000,4.000000,4.000000,4.000000,4.000000,4.000000,4.000000,4.000000,4.000000,4.000000,4.000000,4.000000,4.000000,4.000000,4.000000,4.000000,4.000000,4.000000,4.000000,4.000000,4.000000,4.000000,4.000000,100.000000
1614475566.216722,7.000000,0.000000,7.000924,7.633502,0.357063,4.609135,-6.713772,8.851952,0.979340,10.458451,2.774674,4.732298,2.388682,5.371714,-6.704628,4.537195,-1.197042,-3.764549,6.183216,9.605328,-8.379319,1.885770,2.662507,-1.254679,-1.505790,-36.801701,-8.109075,-2.436866,-2.719981,-3.877858,0.273766,-5.916662,-29.576403,-10.509644,0.000000,193.000000,4.000000,,,,0.000000,4.000000,4.000000,4.000000,4.000000,4.000000,4.000000,4.000000,4.000000,4.000000,4.000000,4.000000,4.000000,4.000000,4.000000,4.000000,4.000000,4.000000,4.000000,4.000000,4.000000,4.000000,4.000000,4.000000,4.000000,4.000000,4.000000,4.000000,4.000000,4.000000,4.000000,4.000000,4.000000,100.000000
1614475566.224371,8.000000,0.000000,-2.236846,6.600228,0.869527,2.040423,0.985250,11.407203,10.721951,10.447993,0.720617,6.266027,12.642703,7.417624,-6.697923,11.199325,3.419540,-1.709502,6.689853,12.159824,-2.217093,-3.244320,1.634203,-1.253424,-1.504284,-38.303360,-3.998402,-4.485711,-2.717261,-3.873981,0.273492,-8.474848,-27.495544,-11.011954,0.000000,208.000000,4.000000,,,,0.000000,4.000000,4.000000,4.000000,4.000000,4.000000,4.000000,4.000000,4.000000,4.000000,4.000000,4.000000,4.000000,4.000000,4.000000,4.000000,4.000000,4.000000,4.000000,4.000000,4.000000,4.000000,4.000000,4.000000,4.000000,4.000000,4.000000,4.000000,4.000000,4.000000,4.000000,4.000000,4.000000,100.000000
1614475566.232121,9.000000,0.000000,0.329493,6.593628,5.484042,2.551203,7.650931,3.703488,15.839434,10.950365,6.360922,6.772582,3.399291,16.640976,-6.691225,4.521459,-0.686444,4.958874,5.657522,11.122024,3.426149,-10.420564,-3.495636,-1.252171,-0.989960,-36.726597,-7.584147,13.467492,-2.714544,-3.870106,-1.778063,9.995166,-20.288563,-10.488122,0.000000,187.000000,4.000000,,,,0.000000,4.000000,4.000000,4.000000,4.000000,4.000000,4.000000,4.000000,4.000000,4.000000,4.000000,4.000000,4.000000,4.000000,4.000000,4.000000,4.000000,4.000000,4.000000,4.000000,4.000000,4.000000,4.000000,4.000000,4.000000,4.000000,4.000000,4.000000,4.000000,4.000000,4.000000,4.000000,4.000000,100.000000
1614475566.239770,10.000000,0.000000,6.483010,7.099854,9.068301,3.574293,6.617639,0.622861,14.797954,10.939415,7.893023,6.765809,1.857430,18.162796,-7.197354,4.004117,6.493730,9.569300,6.164685,12.136542,-2.218302,-2.717835,-4.517782,-1.763739,1.062312,-37.715511,-7.063742,11.402742,-2.711829,-3.866236,3.864741,7.933888,-19.755453,-7.913531,0.000000,173.000000,4.000000,,,,0.000000,4.000000,4.000000,4.000000,4.000000,4.000000,4.000000,4.000000,4.000000,4.000000,4.000000,4.000000,4.000000,4.000000,4.000000,4.000000,4.000000,4.000000,4.000000,4.000000,4.000000,4.000000,4.000000,4.000000,4.000000,4.000000,4.000000,4.000000,4.000000,4.000000,4.000000,4.000000,4.000000,100.000000
1614475566.247519,11.000000,0.000000,0.835501,7.092755,8.033592,7.673283,7.123842,4.724802,14.783155,9.390014,9.423592,9.835966,15.188907,10.965146,-6.677336,12.718061,13.666723,9.046910,6.158521,4.944919,-6.318648,3.438729,0.614941,-1.761975,2.599712,-37.164974,0.122809,-0.403532,-2.709118,-3.862370,7.963440,-1.304814,-18.710056,-6.367157,0.000000,180.000000,4.000000,,,,0.000000,4.000000,4.000000,4.000000,4.000000,4.000000,4.000000,4.000000,4.000000,4.000000,4.000000,4.000000,4.000000,4.000000,4.000000,4.000000,4.000000,4.000000,4.000000,4.000000,4.000000,4.000000,4.000000,4.000000,4.000000,4.000000,4.000000,4.000000,4.000000,4.000000,4.000000,4.000000,4.000000,100.000000
1614475566.255168,12.000000,0.000000,2.885948,7.085662,8.025558,3.050225,2.501333,5.745718,9.127347,10.919086,9.414168,10.338951,7.994230,11.979822,-4.619377,9.115600,12.627416,8.525043,5.639542,-8.393359,-12.978996,2.922470,2.665608,-1.247393,2.084291,-40.717552,0.122686,2.673795,-2.706409,-3.858508,5.904194,3.311875,-16.127243,-6.873610,0.000000,195.000000,4.000000,,,,0.000000,4.000000,4.000000,4.000000,4.000000,4.000000,4.000000,4.000000,4.000000,4.000000,4.000000,4.000000,4.000000,4.000000,4.000000,4.000000,4.000000,4.000000,4.000000,4.000000,4.000000,4.000000,4.000000,4.000000,4.000000,4.000000,4.000000,4.000000,4.000000,4.000000,4.000000,4.000000,4.000000,100.000000
1614475566.262917,13.000000,0.000000,4.934344,6.565756,8.530354,-6.696415,-9.296040,4.714332,3.477194,10.395346,0.686805,7.764509,0.806749,12.480663,-2.563475,3.978279,13.127608,9.029338,6.146722,-10.436248,-26.299351,1.381086,2.150122,-2.784607,2.082207,-46.317860,-2.441539,2.158301,-2.703702,-3.854649,6.411111,-1.306822,-19.188040,-6.866736,0.000000,213.000000,4.000000,,,,0.000000,4.000000,4.000000,4.000000,4.000000,4.000000,4.000000,4.000000,4.000000,4.000000,4.000000,4.000000,4.000000,4.000000,4.000000,4.000000,4.000000,4.000000,4.000000,4.000000,4.000000,4.000000,4.000000,4.000000,4.000000,4.000000,4.000000,4.000000,4.000000,4.000000,4.000000,4.000000,4.000000,100.000000
1614475566.270566,14.000000,0.000000,-6.865462,7.072011,8.521823,0.489769,-11.850846,5.222438,5.524999,1.154181,-4.954907,6.731103,12.087994,6.827157,-3.073732,4.487122,5.934994,8.507488,4.089294,-4.784786,-22.683308,-8.876706,2.147972,-7.910028,2.080125,-46.271542,-0.387816,-1.433601,-2.700998,-3.850795,1.276495,-5.408079,-17.630390,-6.347049,0.000000,185.000000,4.000000,,,,0.000000,4.000000,4.000000,4.000000,4.000000,4.000000,4.000000,4.000000,4.000000,4.000000,4.000000,4.000000,4.000000,4.000000,4.000000,4.000000,4.000000,4.000000,4.000000,4.000000,4.000000,4.000000,4.000000,4.000000,4.000000,4.000000,4.000000,4.000000,4.000000,4.000000,4.000000,4.000000,4.000000,100.000000
1614475566.278315,15.000000,0.000000,-9.422699,7.064939,8.000481,6.643125,-5.685149,5.217216,4.493833,-4.487998,-3.411491,5.698731,10.024623,5.794688,-3.070659,-2.696853,-7.917095,9.524622,2.033922,-3.241540,-11.891394,-12.457573,1.633004,-8.927758,2.078045,-45.199631,-3.977171,-0.406527,-2.698297,-3.846944,-10.519653,-1.300107,-13.510196,-8.391984,0.000000,162.000000,4.000000,,,,0.000000,4.000000,4.000000,4.000000,4.000000,4.000000,4.000000,4.000000,4.000000,4.000000,4.000000,4.000000,4.000000,4.000000,4.000000,4.000000,4.000000,4.000000,4.000000,4.000000,4.000000,4.000000,4.000000,4.000000,4.000000,4.000000,4.000000,4.000000,4.000000,4.000000,4.000000,4.000000,4.000000,100.000000
1614475566.285965,16.000000,0.000000,-2.233789,2.955310,7.992480,0.995456,-4.141003,5.211998,0.386775,1.670336,-5.459362,4.154571,1.296650,2.711971,-3.067588,-3.206977,-9.447639,6.438174,2.031888,-2.212657,-15.982066,1.913859,7.272397,-4.303446,2.075967,-44.641609,-4.998836,-5.021505,-2.695599,-4.355917,-9.483493,-11.042397,-19.137711,-10.434874,0.000000,183.000000,4.000000,,,,0.000000,4.000000,4.000000,4.000000,4.000000,4.000000,4.000000,4.000000,4.000000,4.000000,4.000000,4.000000,4.000000,4.000000,4.000000,4.000000,4.000000,4.000000,4.000000,4.000000,4.000000,4.000000,4.000000,4.000000,4.000000,4.000000,4.000000,4.000000,4.000000,4.000000,4.000000,4.000000,4.000000,100.000000
1614475566.293714,17.000000,0.000000,-4.795658,-0.637389,9.010129,5.097025,-5.162502,5.206787,3.463311,6.796871,-8.018004,5.176058,12.064584,-3.957408,-3.064521,8.078281,-6.874089,1.816352,2.029857,0.353658,-15.453264,8.578612,15.983072,-1.222220,1.048250,-38.443123,1.672830,-9.119047,-2.692904,-3.325920,0.782401,-10.518534,-22.195496,-10.424439,0.000000,185.000000,4.000000,,,,0.000000,4.000000,4.000000,4.000000,4.000000,4.000000,4.000000,4.000000,4.000000,4.000000,4.000000,4.000000,4.000000,4.000000,4.000000,4.000000,4.000000,4.000000,4.000000,4.000000,4.000000,4.000000,4.000000,4.000000,4.000000,4.000000,4.000000,4.000000,4.000000,4.000000,4.000000,4.000000,4.000000,100.000000
1614475566.301363,18.000000,0.000000,-1.201119,-0.123931,6.437016,10.732954,-4.644519,5.201580,7.049592,7.302894,-4.933064,6.709343,18.206366,-2.414989,-3.061456,4.480460,-14.559523,2.840176,1.515006,0.353304,-4.668580,3.954649,17.505550,1.343105,2.072843,-31.225193,1.158337,-4.494544,-2.690211,-0.758492,-0.244023,9.491985,-17.557917,-10.414015,0.000000,180.000000,4.000000,,,,0.000000,4.000000,4.000000,4.000000,4.000000,4.000000,4.000000,4.000000,4.000000,4.000000,4.000000,4.000000,4.000000,4.000000,4.000000,4.000000,4.000000,4.000000,4.000000,4.000000,4.000000,4.000000,4.000000,4.000000,4.000000,4.000000,4.000000,4.000000,4.000000,4.000000,4.000000,4.000000,4.000000,100.000000
1614475566.309112,19.000000,0.000000,8.543673,-2.175090,1.302374,-1.072651,-6.178337,5.196378,7.042542,9.346873,-3.902489,6.189813,12.547133,2.202811,-3.058394,-3.729149,-17.109066,4.888618,3.051953,0.865772,-3.125450,8.053258,17.488045,5.444326,5.147693,-30.168325,-0.894104,-6.541331,-2.687520,0.267908,-3.320702,3.328647,-20.104462,-10.403601,0.000000,194.000000,4.000000,,,,0.000000,4.000000,4.000000,4.000000,4.000000,4.000000,4.000000,4.000000,4.000000,4.000000,4.000000,4.000000,4.000000,4.000000,4.000000,4.000000,4.000000,4.000000,4.000000,4.000000,4.000000,4.000000,4.000000,4.000000,4.000000,4.000000,4.000000,4.000000,4.000000,4.000000,4.000000,4.000000,4.000000,100.000000
1614475566.316761,20.000000,0.000000,5.971026,-7.813940,0.275431,-7.738245,-8.223440,5.191182,6.522679,5.234962,-6.462689,6.696444,15.098689,2.200608,-3.055336,3.966888,-8.374008,3.858088,5.613003,3.429008,0.467419,14.711872,18.496199,6.464523,5.655365,-29.625338,8.337560,-13.714277,-3.197653,-0.245181,-2.291740,-14.623400,-21.622818,-10.393197,0.000000,178.000000,4.000000,,,,0.000000,4.000000,4.000000,4.000000,4.000000,4.000000,4.000000,4.000000,4.000000,4.000000,4.000000,4.000000,4.000000,4.000000,4.000000,4.000000,4.000000,4.000000,4.000000,4.000000,4.000000,4.000000,4.000000,4.000000,4.000000,4.000000,4.000000,4.000000,4.000000,4.000000,4.000000,4.000000,4.000000,100.000000
1614475566.324510,21.000000,0.000000,5.965055,-8.318947,1.300796,-5.166404,-8.728037,3.134708,1.900771,-0.411298,-8.507509,6.176927,15.083591,2.198407,-3.052281,2.937280,-5.288711,8.469615,6.120211,4.451221,9.184900,12.645878,10.785395,5.945238,5.649710,-27.031610,13.970248,-10.110819,-1.655994,0.267885,-4.340730,-6.403648,-14.934528,-10.382804,0.000000,185.000000,4.000000,,,,0.000000,4.000000,4.000000,4.000000,4.000000,4.000000,4.000000,4.000000,4.000000,4.000000,4.000000,4.000000,4.000000,4.000000,4.000000,4.000000,4.000000,4.000000,4.000000,4.000000,4.000000,4.000000,4.000000,4.000000,4.000000,4.000000,4.000000,4.000000,4.000000,4.000000,4.000000,4.000000,4.000000,100.000000
1614475566.332159,22.000000,0.000000,9.548834,-4.720884,-2.803069,-5.674058,-8.719309,1.593112,-0.665232,3.691677,-7.473361,3.093827,4.812097,1.170568,-3.049228,-6.296426,-6.309063,9.486786,5.601270,3.933949,2.509049,9.556309,2.569481,5.939292,12.310727,-27.517399,7.289611,-7.023785,0.396944,-0.758024,-3.310749,-0.756219,-17.483696,-10.372421,0.000000,198.000000,4.000000,,,,0.000000,4.000000,4.000000,4.000000,4.000000,4.000000,4.000000,4.000000,4.000000,4.000000,4.000000,4.000000,4.000000,4.000000,4.000000,4.000000,4.000000,4.000000,4.000000,4.000000,4.000000,4.000000,4.000000,4.000000,4.000000,4.000000,4.000000,4.000000,4.000000,4.000000,4.000000,4.000000,4.000000,100.000000
1614475566.340008,23.000000,0.000000,0.821336,-4.716163,-0.236163,6.126487,-4.608026,1.591519,5.489279,6.764909,-5.414605,4.116374,2.243182,1.682218,-3.559000,1.402178,-3.738652,2.810633,5.595669,3.930015,-11.339614,4.418548,6.669476,3.882071,12.298416,-28.002701,3.692578,-9.580864,-0.629094,-3.321368,3.359229,-4.345206,-19.004675,-10.362048,0.000000,193.000000,4.000000,,,,0.000000,4.000000,4.000000,4.000000,4.000000,4.000000,4.000000,4.000000,4.000000,4.000000,4.000000,4.000000,4.000000,4.000000,4.000000,4.000000,4.000000,4.000000,4.000000,4.000000,4.000000,4.000000,4.000000,4.000000,4.000000,4.000000,4.000000,4.000000,4.000000,4.000000,4.000000,4.000000,4.000000,100.000000
1614475566.347757,24.000000,0.000000,0.820515,-3.685806,8.994843,21.504976,1.550428,1.589928,11.124816,6.758144,-3.870729,9.240463,6.856323,7.834382,-3.042620,11.657186,-1.683631,4.859104,5.590073,4.438905,-10.302633,-0.201256,7.688447,1.314087,1.004067,-18.743929,4.714526,-3.930258,-2.166926,-4.343688,4.894331,3.351447,-12.831823,-10.351686,0.000000,182.000000,4.000000,,,,0.000000,4.000000,4.000000,4.000000,4.000000,4.000000,4.000000,4.000000,4.000000,4.000000,4.000000,4.000000,4.000000,4.000000,4.000000,4.000000,4.000000,4.000000,4.000000,4.000000,4.000000,4.000000,4.000000,4.000000,4.000000,4.000000,4.000000,4.000000,4.000000,4.000000,4.000000,4.000000,4.000000,100.000000
1614475566.355606,25.000000,0.000000,12.101746,-0.092377,8.473027,12.765523,3.600160,1.588338,10.088050,11.366770,-3.866858,10.769684,7.875108,8.339368,-2.013937,10.107067,-1.681947,14.085014,5.584483,4.434466,-5.164125,-1.226695,-0.011549,1.825593,-1.048219,0.249173,3.171350,1.201878,-1.651939,-3.826524,1.812514,-1.267289,-22.049761,-10.341335,0.000000,192.000000,4.000000,,,,0.000000,4.000000,4.000000,4.000000,4.000000,4.000000,4.000000,4.000000,4.000000,4.000000,4.000000,4.000000,4.000000,4.000000,4.000000,4.000000,4.000000,4.000000,4.000000,4.000000,4.000000,4.000000,4.000000,4.000000,4.000000,4.000000,4.000000,4.000000,4.000000,4.000000,4.000000,4.000000,4.000000,100.000000
1614475566.363355,26.000000,0.000000,9.012720,-0.605105,4.874810,4.547629,2.570919,2.099570,10.077962,11.355404,-3.862991,10.246094,6.841592,1.664362,-3.550384,9.584140,-2.705907,10.994006,5.578898,3.917211,-8.235885,-7.892136,-1.037178,1.310947,5.619495,18.710463,0.091256,-4.953170,-6.265672,-4.335518,1.297881,-14.086535,-33.309761,-10.330994,0.000000,192.000000,4.000000,,,,0.000000,4.000000,4.000000,4.000000,4.000000,4.000000,4.000000,4.000000,4.000000,4.000000,4.000000,4.000000,4.000000,4.000000,4.000000,4.000000,4.000000,4.000000,4.000000,4.000000,4.000000,4.000000,4.000000,4.000000,4.000000,4.000000,4.000000,4.000000,4.000000,4.000000,4.000000,4.000000,4.000000,100.000000
1614475566.371204,27.000000,0.000000,4.388323,-1.117320,8.972500,14.286671,2.568348,0.559009,10.580705,4.677382,-1.807846,9.723027,6.321930,8.842184,-3.034013,9.061735,-4.241662,8.931730,4.547679,3.400474,-14.381495,-14.038090,1.527961,1.309636,2.536953,25.358419,-0.421656,-5.973858,-9.336329,-1.254259,0.783762,-1.251935,-18.917479,-10.320662,0.000000,198.000000,4.000000,,,,0.000000,4.000000,4.000000,4.000000,4.000000,4.000000,4.000000,4.000000,4.000000,4.000000,4.000000,4.000000,4.000000,4.000000,4.000000,4.000000,4.000000,4.000000,4.000000,4.000000,4.000000,4.000000,4.000000,4.000000,4.000000,4.000000,4.000000,4.000000,4.000000,4.000000,4.000000,4.000000,4.000000,100.000000
1614475566.378954,28.000000,0.000000,12.076242,6.063284,8.963528,16.323666,2.565779,1.584091,8.006021,3.647063,0.245244,7.662022,6.828428,19.089752,1.584405,8.539852,-0.134856,14.563825,5.055952,3.909894,-16.931215,-3.767641,1.526433,3.359608,-1.055328,26.358702,1.117227,0.185962,-1.634685,3.362380,2.834261,10.544188,-8.642151,-10.310342,0.000000,189.000000,4.000000,,,,0.000000,4.000000,4.000000,4.000000,4.000000,4.000000,4.000000,4.000000,4.000000,4.000000,4.000000,4.000000,4.000000,4.000000,4.000000,4.000000,4.000000,4.000000,4.000000,4.000000,4.000000,4.000000,4.000000,4.000000,4.000000,4.000000,4.000000,4.000000,4.000000,4.000000,4.000000,4.000000,4.000000,100.000000
1614475566.386802,29.000000,0.000000,9.500064,4.518760,5.364820,10.666317,2.563214,5.172250,6.459554,6.720339,2.809101,7.141540,7.847241,7.788611,2.608462,12.121057,-1.160363,5.831312,5.563716,1.854702,-11.786079,7.005357,7.165933,5.407531,4.073933,36.588753,-0.935172,0.698596,0.418232,2.846197,4.882709,-2.799689,-21.966843,-10.300032,0.000000,194.000000,4.000000,,,,0.000000,4.000000,4.000000,4.000000,4.000000,4.000000,4.000000,4.000000,4.000000,4.000000,4.000000,4.000000,4.000000,4.000000,4.000000,4.000000,4.000000,4.000000,4.000000,4.000000,4.000000,4.000000,4.000000,4.000000,4.000000,4.000000,4.000000,4.000000,4.000000,4.000000,4.000000,4.000000,4.000000,100.000000
1614475566.394552,30.000000,0.000000,-0.765847,-8.306273,2.282532,9.117189,2.560651,0.551693,4.401812,6.200798,3.319112,5.595937,6.300932,-6.065331,-5.599275,1.852525,-16.030996,-5.969391,1.968409,-4.300999,-11.774293,0.331685,9.722869,5.914944,4.582679,44.244473,-10.677827,-2.891846,-9.838597,0.279248,-1.276021,-10.489197,-32.201286,-10.289731,0.000000,189.000000,4.000000,,,,0.000000,4.000000,4.000000,4.000000,4.000000,4.000000,4.000000,4.000000,4.000000,4.000000,4.000000,4.000000,4.000000,4.000000,4.000000,4.000000,4.000000,4.000000,4.000000,4.000000,4.000000,4.000000,4.000000,4.000000,4.000000,4.000000,4.000000,4.000000,4.000000,4.000000,4.000000,4.000000,4.000000,100.000000
1614475566.402401,31.000000,0.000000,-1.790722,-8.810786,-2.335135,4.492687,1.532449,-5.602705,1.833308,8.245879,3.315793,-0.563506,6.294631,-5.546445,-9.183419,-10.969840,-20.117531,0.703245,1.453620,-6.860801,-24.070211,-1.719928,4.072121,4.883388,1.501174,44.713047,-15.282534,-3.401774,-14.444143,-0.233852,-4.864488,-10.478708,-33.194725,-10.279442,0.000000,205.000000,4.000000,,,,0.000000,4.000000,4.000000,4.000000,4.000000,4.000000,4.000000,4.000000,4.000000,4.000000,4.000000,4.000000,4.000000,4.000000,4.000000,4.000000,4.000000,4.000000,4.000000,4.000000,4.000000,4.000000,4.000000,4.000000,4.000000,4.000000,4.000000,4.000000,4.000000,4.000000,4.000000,4.000000,4.000000,100.000000
1614475566.410150,32.000000,0.000000,-0.763290,0.941614,9.974893,11.667682,1.530916,2.608027,6.446859,11.314556,6.389400,9.180648,17.057568,-1.951155,-0.456287,4.425745,-0.610233,7.882029,11.708576,2.889650,-21.994860,10.076663,15.862921,6.416966,4.576596,58.514488,-2.959559,-3.398373,-10.839955,-1.259259,1.807043,-15.083614,-31.623068,-10.269162,8064.000000,0.000000,4.000000,,,,0.000000,4.000000,4.000000,4.000000,4.000000,4.000000,4.000000,4.000000,4.000000,4.000000,4.000000,4.000000,4.000000,4.000000,4.000000,4.000000,4.000000,4.000000,4.000000,4.000000,4.000000,4.000000,4.000000,4.000000,4.000000,4.000000,4.000000,4.000000,4.000000,4.000000,4.000000,4.000000,4.000000,100.000000
1614475566.417999,33.000000,0.000000,0.775935,3.504775,30.477737,34.220116,7.170411,13.374649,17.209642,13.867345,10.485576,32.248390,28.322561,11.896950,9.800580,23.908499,15.800633,10.438249,23.491739,14.681632,7.257905,18.784534,34.308598,11.025933,5.084839,84.609818,8.838273,-1.856513,-9.290653,0.793282,6.420620,-4.299300,-22.360676,-7.694790,8192.000000,0.000000,4.000000,,,,0.000000,4.000000,4.000000,4.000000,4.000000,4.000000,4.000000,4.000000,4.000000,4.000000,4.000000,4.000000,4.000000,4.000000,4.000000,4.000000,4.000000,4.000000,4.000000,4.000000,4.000000,4.000000,4.000000,4.000000,4.000000,4.000000,4.000000,4.000000,4.000000,4.000000,4.000000,4.000000,4.000000,100.000000
1614475566.425748,34.000000,0.000000,5.390543,5.039732,25.831875,36.237179,10.240164,11.822813,22.320639,21.545784,11.500731,30.677681,28.807058,29.320950,12.867702,19.782026,16.297653,17.094477,26.032351,19.282335,21.609621,18.765751,25.556339,14.604651,6.105396,88.627777,7.803793,3.273549,-7.230081,0.792489,4.875739,7.499872,-17.210110,-5.635814,8064.000000,0.000000,4.000000,,,,0.000000,4.000000,4.000000,4.000000,4.000000,4.000000,4.000000,4.000000,4.000000,4.000000,4.000000,4.000000,4.000000,4.000000,4.000000,4.000000,4.000000,4.000000,4.000000,4.000000,4.000000,4.000000,4.000000,4.000000,4.000000,4.000000,4.000000,4.000000,4.000000,4.000000,4.000000,4.000000,4.000000,100.000000
1614475566.433597,35.000000,0.000000,4.872333,5.547513,16.575275,24.918890,8.691463,7.708426,20.247036,25.113983,9.950768,14.236746,25.188509,26.214706,11.829193,13.608397,15.255714,15.538921,21.903753,20.288694,7.741858,17.721344,10.658987,13.564405,14.817239,78.795555,4.719067,5.321558,-5.684389,-7.413432,4.870863,0.312885,-18.731361,-6.655819,8192.000000,0.000000,4.000000,,,,0.000000,4.000000,4.000000,4.000000,4.000000,4.000000,4.000000,4.000000,4.000000,4.000000,4.000000,4.000000,4.000000,4.000000,4.000000,4.000000,4.000000,4.000000,4.000000,4.000000,4.000000,4.000000,4.000000,4.000000,4.000000,4.000000,4.000000,4.000000,4.000000,4.000000,4.000000,4.000000,4.000000,100.000000
1614475566.441346,36.000000,0.000000,4.354640,2.977863,31.943316,39.252945,18.426361,9.752000,21.765249,24.576048,11.479280,25.504560,25.676140,21.573107,11.304543,17.184532,16.266100,15.523382,15.728004,19.755585,-0.983833,17.190802,18.853456,9.961098,14.802422,81.793686,4.714347,4.290595,-6.704346,-7.406018,4.865992,-1.225890,-12.045964,-6.649163,8064.000000,0.000000,4.000000,,,,0.000000,4.000000,4.000000,4.000000,4.000000,4.000000,4.000000,4.000000,4.000000,4.000000,4.000000,4.000000,4.000000,4.000000,4.000000,4.000000,4.000000,4.000000,4.000000,4.000000,4.000000,4.000000,4.000000,4.000000,4.000000,4.000000,4.000000,4.000000,4.000000,4.000000,4.000000,4.000000,4.000000,100.000000
1614475566.449195,37.000000,0.000000,11.529772,12.205654,42.167782,56.649590,29.177164,15.896094,25.333229,35.833523,17.108826,42.914955,26.676105,30.269484,12.831700,20.244272,16.249834,29.354013,13.660995,17.684547,8.760741,18.712072,24.475628,10.463957,7.095312,84.275993,5.735274,5.824766,-3.107898,4.909080,5.886767,1.852259,-11.521097,-5.616873,8192.000000,0.000000,4.000000,,,,0.000000,4.000000,4.000000,4.000000,4.000000,4.000000,4.000000,4.000000,4.000000,4.000000,4.000000,4.000000,4.000000,4.000000,4.000000,4.000000,4.000000,4.000000,4.000000,4.000000,4.000000,4.000000,4.000000,4.000000,4.000000,4.000000,4.000000,4.000000,4.000000,4.000000,4.000000,4.000000,4.000000,100.000000
1614475566.456944,38.000000,0.000000,13.569525,17.321653,29.817921,45.310890,20.430038,16.905838,22.230972,42.977177,18.117357,33.128448,23.572506,26.649469,11.793228,19.711206,16.746405,29.837479,13.647333,20.230965,11.828903,15.616438,13.169102,8.915031,10.677959,69.319923,5.216718,2.742018,-2.079149,3.365709,8.444983,-11.995747,-27.919832,-9.713820,8192.000000,0.000000,4.000000,,,,0.000000,4.000000,4.000000,4.000000,4.000000,4.000000,4.000000,4.000000,4.000000,4.000000,4.000000,4.000000,4.000000,4.000000,4.000000,4.000000,4.000000,4.000000,4.000000,4.000000,4.000000,4.000000,4.000000,4.000000,4.000000,4.000000,4.000000,4.000000,4.000000,4.000000,4.000000,4.000000,4.000000,100.000000
1614475566.464593,39.000000,0.000000,7.402109,-1.670027,16.454771,28.342501,6.050634,9.709446,18.618998,26.011124,10.919753,19.249166,15.856626,10.725385,4.601947,9.947906,9.037351,16.474308,3.890096,14.056888,-4.080361,-7.988922,0.335420,-4.427217,8.616000,53.353168,-0.429524,-7.004314,-16.436045,-9.970989,2.795512,-18.650417,-33.532940,-16.883593,8064.000000,0.000000,4.000000,,,,0.000000,4.000000,4.000000,4.000000,4.000000,4.000000,4.000000,4.000000,4.000000,4.000000,4.000000,4.000000,4.000000,4.000000,4.000000,4.000000,4.000000,4.000000,4.000000,4.000000,4.000000,4.000000,4.000000,4.000000,4.000000,4.000000,4.000000,4.000000,4.000000,4.000000,4.000000,4.000000,4.000000,100.000000
1614475566.472342,40.000000,0.000000,5.856245,-10.386306,8.233188,25.750057,5.018943,2.007429,18.087559,11.626138,6.293449,19.742739,8.661283,6.612095,-3.094962,-2.882555,-2.766559,6.201424,-12.011230,-13.649477,-31.255768,-33.621960,-11.972608,-17.243303,-9.854155,42.530582,-9.147043,-11.099874,-27.188839,-13.037942,-5.925232,-4.785614,-27.345560,-18.405172,8064.000000,0.000000,4.000000,,,,0.000000,4.000000,4.000000,4.000000,4.000000,4.000000,4.000000,4.000000,4.000000,4.000000,4.000000,4.000000,4.000000,4.000000,4.000000,4.000000,4.000000,4.000000,4.000000,4.000000,4.000000,4.000000,4.000000,4.000000,4.000000,4.000000,4.000000,4.000000,4.000000,4.000000,4.000000,4.000000,4.000000,100.000000
1614475566.479991,41.000000,0.000000,7.388850,0.906132,13.865980,28.801229,7.065206,0.979780,11.402804,15.204255,6.799976,21.774277,5.575698,9.169585,-1.553406,1.222892,-0.712510,-6.625290,-14.050501,-30.558905,-48.147591,-29.485773,-16.576019,-14.149136,-18.049429,35.308563,-11.189178,-10.063132,-21.007805,-9.947981,-5.406487,-1.703905,-27.318214,-13.258561,8064.000000,0.000000,4.000000,,,,0.000000,4.000000,4.000000,4.000000,4.000000,4.000000,4.000000,4.000000,4.000000,4.000000,4.000000,4.000000,4.000000,4.000000,4.000000,4.000000,4.000000,4.000000,4.000000,4.000000,4.000000,4.000000,4.000000,4.000000,4.000000,4.000000,4.000000,4.000000,4.000000,4.000000,4.000000,4.000000,4.000000,100.000000
1614475566.487740,42.000000,0.000000,6.868641,-1.146056,25.646986,30.310890,5.519679,1.491621,2.673452,18.265974,6.793176,20.726862,7.108583,9.160416,1.012250,13.529361,8.006151,-5.080203,-9.933887,-10.528345,-31.176365,-12.533210,-1.687649,-8.493961,-11.364713,47.068127,-10.152348,-11.591531,-16.884232,-11.476495,0.239946,-8.368868,-29.342178,-13.758123,8064.000000,0.000000,4.000000,,,,0.000000,4.000000,4.000000,4.000000,4.000000,4.000000,4.000000,4.000000,4.000000,4.000000,4.000000,4.000000,4.000000,4.000000,4.000000,4.000000,4.000000,4.000000,4.000000,4.000000,4.000000,4.000000,4.000000,4.000000,4.000000,4.000000,4.000000,4.000000,4.000000,4.000000,4.000000,4.000000,4.000000,100.000000
1614475566.495390,43.000000,0.000000,6.348952,-5.760295,12.800826,25.152374,5.001339,0.464488,6.260522,16.196426,6.273562,17.629211,11.716860,11.202538,-0.014403,14.028652,5.946863,18.001801,-10.436772,12.046286,1.675324,-9.956574,13.698654,-9.511108,-9.814886,66.508240,-10.655016,-14.656862,-21.482733,-9.926557,1.265347,-9.898960,-35.979504,-28.103340,8064.000000,0.000000,4.000000,,,,0.000000,4.000000,4.000000,4.000000,4.000000,4.000000,4.000000,4.000000,4.000000,4.000000,4.000000,4.000000,4.000000,4.000000,4.000000,4.000000,4.000000,4.000000,4.000000,4.000000,4.000000,4.000000,4.000000,4.000000,4.000000,4.000000,4.000000,4.000000,4.000000,4.000000,4.000000,4.000000,4.000000,100.000000
1614475566.503139,44.000000,0.000000,6.855423,2.450593,-2.083770,16.922092,5.509158,2.515306,13.433749,16.693050,5.754468,11.970557,13.756425,11.191335,-0.014389,9.912060,-0.212930,16.445337,-4.272490,7.418855,5.776213,-6.356874,14.197776,-10.014418,-5.702507,66.954552,-11.157182,-14.129385,-19.409967,-7.352527,0.751261,-13.991626,-45.687111,-36.280365,8064.000000,0.000000,4.000000,,,,0.000000,4.000000,4.000000,4.000000,4.000000,4.000000,4.000000,4.000000,4.000000,4.000000,4.000000,4.000000,4.000000,4.000000,4.000000,4.000000,4.000000,4.000000,4.000000,4.000000,4.000000,4.000000,4.000000,4.000000,4.000000,4.000000,4.000000,4.000000,4.000000,4.000000,4.000000,4.000000,4.000000,100.000000
1614475566.510788,45.000000,0.000000,6.848568,0.909681,10.738827,18.443632,5.503649,5.589714,13.933136,16.163536,3.184611,12.471407,11.178566,8.616041,0.498446,10.927789,0.300103,-9.724955,4.962552,-6.434718,-13.203922,2.367431,13.670757,-8.465941,4.046785,61.246571,-9.607563,-13.602435,-13.236712,-6.832354,1.263330,-13.464813,-38.461937,-25.987673,8064.000000,0.000000,4.000000,,,,0.000000,4.000000,4.000000,4.000000,4.000000,4.000000,4.000000,4.000000,4.000000,4.000000,4.000000,4.000000,4.000000,4.000000,4.000000,4.000000,4.000000,4.000000,4.000000,4.000000,4.000000,4.000000,4.000000,4.000000,4.000000,4.000000,4.000000,4.000000,4.000000,4.000000,4.000000,4.000000,4.000000,100.000000
1614475566.518537,46.000000,0.000000,6.841719,-1.142510,14.830652,23.553394,6.523787,3.532842,12.893561,14.096090,2.668606,17.074320,10.141747,9.633066,0.497948,11.942502,1.325444,-5.612666,4.957589,-2.838540,-12.677897,2.365064,13.144266,-8.457476,4.555559,65.287888,-10.110776,-13.588833,-12.710654,-5.287060,1.262067,-6.784682,-28.167067,-16.218096,8064.000000,0.000000,4.000000,,,,0.000000,4.000000,4.000000,4.000000,4.000000,4.000000,4.000000,4.000000,4.000000,4.000000,4.000000,4.000000,4.000000,4.000000,4.000000,4.000000,4.000000,4.000000,4.000000,4.000000,4.000000,4.000000,4.000000,4.000000,4.000000,4.000000,4.000000,4.000000,4.000000,4.000000,4.000000,4.000000,4.000000,100.000000
1614475566.526186,47.000000,0.000000,6.834877,3.474017,0.456847,23.017021,4.978801,1.478027,11.855027,13.056354,5.230040,16.031605,11.157246,12.700356,0.497450,10.904919,0.298478,15.931409,2.901350,12.548914,1.180934,7.490904,10.054199,-8.961839,5.063824,65.735420,-11.126307,-13.575244,-13.210764,-3.743312,1.773625,-7.290718,-31.215822,-17.740339,8064.000000,0.000000,4.000000,,,,0.000000,4.000000,4.000000,4.000000,4.000000,4.000000,4.000000,4.000000,4.000000,4.000000,4.000000,4.000000,4.000000,4.000000,4.000000,4.000000,4.000000,4.000000,4.000000,4.000000,4.000000,4.000000,4.000000,4.000000,4.000000,4.000000,4.000000,4.000000,4.000000,4.000000,4.000000,4.000000,4.000000,100.000000
1614475566.533935,48.000000,0.000000,6.828043,-4.221765,7.635877,27.096567,6.512284,5.579113,10.304710,13.556118,6.250451,20.118137,9.094807,12.687655,0.496953,10.894013,0.811000,11.300093,5.975371,10.997904,-2.922811,19.791105,11.069786,-9.465697,12.238247,62.592762,-4.961334,-14.587310,-10.633451,-3.226748,4.335954,-5.744966,-21.441017,-16.696959,8064.000000,0.000000,4.000000,,,,0.000000,4.000000,4.000000,4.000000,4.000000,4.000000,4.000000,4.000000,4.000000,4.000000,4.000000,4.000000,4.000000,4.000000,4.000000,4.000000,4.000000,4.000000,4.000000,4.000000,4.000000,4.000000,4.000000,4.000000,4.000000,4.000000,4.000000,4.000000,4.000000,4.000000,4.000000,4.000000,4.000000,100.000000
1614475566.541584,49.000000,0.000000,6.821215,-5.756005,21.987215,34.761780,14.198079,9.163278,10.294406,13.542562,8.808303,29.841610,6.521609,12.162148,0.496456,10.883120,-0.215452,-1.018900,2.379653,-6.448992,-15.227580,10.027724,6.956152,-8.943411,11.713188,61.504528,1.197474,-13.034261,-9.084356,-3.223521,5.357259,0.414626,-11.163165,-12.577697,8064.000000,0.000000,4.000000,,,,0.000000,4.000000,4.000000,4.000000,4.000000,4.000000,4.000000,4.000000,4.000000,4.000000,4.000000,4.000000,4.000000,4.000000,4.000000,4.000000,4.000000,4.000000,4.000000,4.000000,4.000000,4.000000,4.000000,4.000000,4.000000,4.000000,4.000000,4.000000,4.000000,4.000000,4.000000,4.000000,4.000000,100.000000
1614475566.549333,50.000000,0.000000,6.814394,9.634367,18.375484,35.752659,17.773624,8.641294,8.745650,13.016198,13.414880,27.247665,6.515087,12.662806,0.495959,10.872236,0.810404,-1.530702,-2.238112,-3.878440,-16.237993,-7.418200,-4.332855,-8.934468,6.573270,52.725075,-2.393467,-9.944304,-9.075272,-4.758759,4.839082,-5.226815,-30.126362,-13.077940,8064.000000,0.000000,4.000000,,,,0.000000,4.000000,4.000000,4.000000,4.000000,4.000000,4.000000,4.000000,4.000000,4.000000,4.000000,4.000000,4.000000,4.000000,4.000000,4.000000,4.000000,4.000000,4.000000,4.000000,4.000000,4.000000,4.000000,4.000000,4.000000,4.000000,4.000000,4.000000,4.000000,4.000000,4.000000,4.000000,4.000000,100.000000
1614475566.556983,51.000000,0.000000,6.807579,9.111912,16.818647,34.178444,13.140467,8.119832,9.249724,13.003182,13.914285,20.553751,6.508572,12.650143,0.495463,10.861364,5.424979,3.086214,1.353870,15.099797,-13.657654,-5.359500,-5.866984,-9.438354,5.028235,40.364658,-7.006458,-10.447180,-10.091837,-3.215539,4.834242,-12.401075,-39.327003,-13.064862,8064.000000,0.000000,4.000000,,,,0.000000,4.000000,4.000000,4.000000,4.000000,4.000000,4.000000,4.000000,4.000000,4.000000,4.000000,4.000000,4.000000,4.000000,4.000000,4.000000,4.000000,4.000000,4.000000,4.000000,4.000000,4.000000,4.000000,4.000000,4.000000,4.000000,4.000000,4.000000,4.000000,4.000000,4.000000,4.000000,4.000000,100.000000
1614475566.564832,52.000000,0.000000,6.800772,0.897672,22.442856,35.169907,13.127326,9.137353,18.471245,13.502999,14.413191,23.097300,7.014884,12.637493,0.494968,10.850503,7.983656,6.672871,3.916619,15.084698,-14.156816,-4.328500,0.292729,-8.403275,1.433463,37.760193,-6.486631,-9.923912,-9.568925,1.403061,4.829408,-3.670725,-21.338959,-7.923592,8064.000000,0.000000,4.000000,,,,0.000000,4.000000,4.000000,4.000000,4.000000,4.000000,4.000000,4.000000,4.000000,4.000000,4.000000,4.000000,4.000000,4.000000,4.000000,4.000000,4.000000,4.000000,4.000000,4.000000,4.000000,4.000000,4.000000,4.000000,4.000000,4.000000,4.000000,4.000000,4.000000,4.000000,4.000000,4.000000,4.000000,100.000000
1614475566.572581,53.000000,0.000000,6.793971,8.076262,20.881950,32.057812,14.652660,8.615396,18.452774,13.489497,17.475700,22.561382,6.495049,12.112035,0.494473,10.326832,7.975672,6.666198,1.861420,5.326023,-16.193941,-8.426736,1.318077,-3.779487,-1.132073,39.773712,-8.018606,-3.247322,-5.456792,0.376017,4.311759,3.512433,-19.266338,-5.864387,8064.000000,0.000000,4.000000,,,,0.000000,4.000000,4.000000,4.000000,4.000000,4.000000,4.000000,4.000000,4.000000,4.000000,4.000000,4.000000,4.000000,4.000000,4.000000,4.000000,4.000000,4.000000,4.000000,4.000000,4.000000,4.000000,4.000000,4.000000,4.000000,4.000000,4.000000,4.000000,4.000000,4.000000,4.000000,4.000000,4.000000,100.000000
1614475566.580430,54.000000,0.000000,6.787177,7.042544,18.809786,26.897551,6.945700,8.606780,5.613808,12.450366,13.355661,21.513180,6.488554,12.099923,0.493978,10.829326,11.557441,9.223635,5.449302,9.936082,-15.152106,4.915025,6.444964,-1.724425,1.945982,39.221119,-5.959306,0.858490,-1.861592,-3.726923,4.820267,-0.080823,-25.400917,-6.371343,8064.000000,0.000000,4.000000,,,,0.000000,4.000000,4.000000,4.000000,4.000000,4.000000,4.000000,4.000000,4.000000,4.000000,4.000000,4.000000,4.000000,4.000000,4.000000,4.000000,4.000000,4.000000,4.000000,4.000000,4.000000,4.000000,4.000000,4.000000,4.000000,4.000000,4.000000,4.000000,4.000000,4.000000,4.000000,4.000000,4.000000,100.000000
1614475566.588179,55.000000,0.000000,6.780390,0.881655,18.790977,26.870653,0.272087,8.598173,4.069732,14.489198,10.265383,26.107050,9.558989,12.600643,0.493484,11.331316,14.109985,21.009283,9.546417,15.567171,-4.880544,11.576777,12.592365,-1.722701,3.995318,40.720360,3.277423,-2.219292,-2.372550,0.379368,4.815447,-2.132025,-18.196030,-5.852151,8064.000000,0.000000,4.000000,,,,0.000000,4.000000,4.000000,4.000000,4.000000,4.000000,4.000000,4.000000,4.000000,4.000000,4.000000,4.000000,4.000000,4.000000,4.000000,4.000000,4.000000,4.000000,4.000000,4.000000,4.000000,4.000000,4.000000,4.000000,4.000000,4.000000,4.000000,4.000000,4.000000,4.000000,4.000000,4.000000,4.000000,100.000000
1614475566.596028,56.000000,0.000000,6.773609,6.521799,15.695263,30.433525,4.374380,8.589575,13.296432,19.602913,15.896143,23.516842,13.651994,12.588042,0.492991,8.755882,12.557414,26.629299,9.536870,14.525963,2.303824,0.795969,8.990029,-0.695337,8.606708,39.141178,8.402350,-2.729893,-2.370178,7.045655,3.784990,-1.104252,-23.818859,-7.897581,8064.000000,0.000000,4.000000,,,,0.000000,4.000000,4.000000,4.000000,4.000000,4.000000,4.000000,4.000000,4.000000,4.000000,4.000000,4.000000,4.000000,4.000000,4.000000,4.000000,4.000000,4.000000,4.000000,4.000000,4.000000,4.000000,4.000000,4.000000,4.000000,4.000000,4.000000,4.000000,4.000000,4.000000,4.000000,4.000000,4.000000,100.000000
1614475566.603777,57.000000,0.000000,7.279656,4.463995,17.218029,30.403091,5.908467,8.580985,12.770315,21.634592,13.828964,18.365120,15.689623,12.062634,0.492498,8.234306,14.596139,24.038567,12.604257,20.665283,4.865623,9.000301,18.724628,-2.745924,14.239127,40.127678,9.932409,-2.727163,0.709115,8.064251,6.345308,-1.615968,-25.846323,-8.915324,8064.000000,0.000000,4.000000,,,,0.000000,4.000000,4.000000,4.000000,4.000000,4.000000,4.000000,4.000000,4.000000,4.000000,4.000000,4.000000,4.000000,4.000000,4.000000,4.000000,4.000000,4.000000,4.000000,4.000000,4.000000,4.000000,4.000000,4.000000,4.000000,4.000000,4.000000,4.000000,4.000000,4.000000,4.000000,4.000000,4.000000,100.000000
1614475566.611626,58.000000,0.000000,6.246736,0.869788,20.277735,29.859869,5.389738,8.572404,8.654981,19.561676,6.635649,23.987780,18.238037,15.127495,-0.020815,11.302995,17.658466,26.578630,16.694216,27.311285,14.091526,30.016941,37.680264,0.333745,15.250528,49.318321,20.178888,-2.724436,1.734047,10.107469,10.441526,-0.588711,-4.282015,-2.752563,8064.000000,0.000000,4.000000,,,,0.000000,4.000000,4.000000,4.000000,4.000000,4.000000,4.000000,4.000000,4.000000,4.000000,4.000000,4.000000,4.000000,4.000000,4.000000,4.000000,4.000000,4.000000,4.000000,4.000000,4.000000,4.000000,4.000000,4.000000,4.000000,4.000000,4.000000,4.000000,4.000000,4.000000,4.000000,4.000000,4.000000,100.000000
1614475566.619375,59.000000,0.000000,7.266130,10.099688,21.283098,32.394112,10.512553,7.025371,9.159145,21.080576,13.295679,25.502253,18.732618,19.727751,2.030488,9.240410,16.102346,22.962309,17.190342,22.668589,15.615896,33.576668,32.001556,10.589822,26.517330,43.627975,26.825375,2.919314,1.219493,11.635822,10.431086,1.463160,2.388934,1.865575,8192.000000,0.000000,4.000000,,,,0.000000,4.000000,4.000000,4.000000,4.000000,4.000000,4.000000,4.000000,4.000000,4.000000,4.000000,4.000000,4.000000,4.000000,4.000000,4.000000,4.000000,4.000000,4.000000,4.000000,4.000000,4.000000,4.000000,4.000000,4.000000,4.000000,4.000000,4.000000,4.000000,4.000000,4.000000,4.000000,4.000000,100.000000
1614475566.627224,60.000000,0.000000,9.310145,8.551126,27.928480,34.412998,11.527681,4.967063,8.124346,25.162060,22.000332,17.784443,18.201065,18.682383,4.592560,7.692708,15.573422,9.606013,17.685972,14.440792,-0.297156,29.440527,17.610582,10.579232,40.849785,21.533066,17.054960,5.993318,1.218273,9.060084,8.369372,2.487338,-15.049353,-0.187573,8064.000000,0.000000,4.000000,,,,0.000000,4.000000,4.000000,4.000000,4.000000,4.000000,4.000000,4.000000,4.000000,4.000000,4.000000,4.000000,4.000000,4.000000,4.000000,4.000000,4.000000,4.000000,4.000000,4.000000,4.000000,4.000000,4.000000,4.000000,4.000000,4.000000,4.000000,4.000000,4.000000,4.000000,4.000000,4.000000,4.000000,100.000000
1614475566.634973,61.000000,0.000000,7.762374,-2.739476,23.797989,34.378586,7.413590,4.449275,6.064939,21.034334,16.337307,15.202557,20.234146,13.535496,2.536685,11.274759,11.455285,8.570766,12.027262,11.862248,3.292885,21.718779,19.131433,-2.251860,26.449963,18.434608,7.807136,1.884760,1.217055,7.512563,8.361003,2.484850,-21.188148,-2.751488,8064.000000,0.000000,4.000000,,,,0.000000,4.000000,4.000000,4.000000,4.000000,4.000000,4.000000,4.000000,4.000000,4.000000,4.000000,4.000000,4.000000,4.000000,4.000000,4.000000,4.000000,4.000000,4.000000,4.000000,4.000000,4.000000,4.000000,4.000000,4.000000,4.000000,4.000000,4.000000,4.000000,4.000000,4.000000,4.000000,4.000000,100.000000
1614475566.642822,62.000000,0.000000,4.164868,3.417109,5.825472,33.831387,8.431817,4.444826,5.033233,13.320992,9.141482,15.187354,14.060066,11.983499,-2.081236,4.083997,0.674599,5.485272,1.246003,2.619617,14.571643,8.876548,15.522558,-6.864993,6.936333,20.980278,7.286509,0.857235,1.215838,6.992229,6.301360,0.943904,-19.628500,-2.748737,8064.000000,0.000000,4.000000,,,,0.000000,4.000000,4.000000,4.000000,4.000000,4.000000,4.000000,4.000000,4.000000,4.000000,4.000000,4.000000,4.000000,4.000000,4.000000,4.000000,4.000000,4.000000,4.000000,4.000000,4.000000,4.000000,4.000000,4.000000,4.000000,4.000000,4.000000,4.000000,4.000000,4.000000,4.000000,4.000000,4.000000,100.000000
1614475566.650571,63.000000,0.000000,2.622242,14.182922,11.460672,33.797554,7.910565,4.953202,2.976918,14.846132,9.132340,12.608064,-4.415532,12.484335,-3.617616,-12.330343,-3.941460,-17.084316,-2.857807,-14.818900,-11.083954,2.201005,1.660881,-4.806846,12.570422,-1.091985,8.304863,0.343557,1.214622,4.421135,4.243776,-1.108322,-22.172974,-2.233167,8064.000000,0.000000,4.000000,,,,0.000000,4.000000,4.000000,4.000000,4.000000,4.000000,4.000000,4.000000,4.000000,4.000000,4.000000,4.000000,4.000000,4.000000,4.000000,4.000000,4.000000,4.000000,4.000000,4.000000,4.000000,4.000000,4.000000,4.000000,4.000000,4.000000,4.000000,4.000000,4.000000,4.000000,4.000000,4.000000,4.000000,100.000000
1614475566.658420,64.000000,0.000000,2.619619,12.117457,30.423571,34.276577,6.877013,6.999531,2.973941,22.523594,10.148849,15.159558,-13.129066,11.959030,-3.101178,-15.394937,-4.450339,-23.221077,-3.880590,-19.932285,-33.124153,-4.980684,-3.981805,-6.340500,11.532210,-18.013969,7.783738,-2.733710,1.213407,2.878252,6.803635,-2.132854,-22.663622,-0.179652,0.000000,185.000000,4.000000,,,,0.000000,4.000000,4.000000,4.000000,4.000000,4.000000,4.000000,4.000000,4.000000,4.000000,4.000000,4.000000,4.000000,4.000000,4.000000,4.000000,4.000000,4.000000,4.000000,4.000000,4.000000,4.000000,4.000000,4.000000,4.000000,4.000000,4.000000,4.000000,4.000000,4.000000,4.000000,4.000000,4.000000,100.000000
1614475566.666169,65.000000,0.000000,4.155461,10.054058,20.649557,33.729481,11.998342,8.530993,5.535070,24.552353,10.138700,16.682859,-12.603116,11.947071,-3.098077,-9.738516,-4.445889,-2.685036,-5.415171,-9.143124,-14.629490,-15.744934,-5.516285,-4.282878,-4.889578,-13.893392,4.699031,3.935691,1.212194,3.388194,7.309652,-1.617901,-26.743521,-2.230754,0.000000,182.000000,4.000000,,,,0.000000,4.000000,4.000000,4.000000,4.000000,4.000000,4.000000,4.000000,4.000000,4.000000,4.000000,4.000000,4.000000,4.000000,4.000000,4.000000,4.000000,4.000000,4.000000,4.000000,4.000000,4.000000,4.000000,4.000000,4.000000,4.000000,4.000000,4.000000,4.000000,4.000000,4.000000,4.000000,4.000000,100.000000
1614475566.673818,66.000000,0.000000,6.715408,5.941440,5.757113,33.182930,10.960702,8.522462,6.042355,23.502159,9.102921,12.563613,-13.616154,11.935124,-1.556518,-6.651854,6.327788,5.522778,-0.281551,-1.441672,-7.948193,-8.549702,-2.946666,0.849610,-8.474432,-11.315396,0.591768,8.034319,1.210982,1.846345,5.251060,-1.616283,-29.280880,-6.331088,0.000000,175.000000,4.000000,,,,0.000000,4.000000,4.000000,4.000000,4.000000,4.000000,4.000000,4.000000,4.000000,4.000000,4.000000,4.000000,4.000000,4.000000,4.000000,4.000000,4.000000,4.000000,4.000000,4.000000,4.000000,4.000000,4.000000,4.000000,4.000000,4.000000,4.000000,4.000000,4.000000,4.000000,4.000000,4.000000,4.000000,100.000000
1614475566.681567,67.000000,0.000000,6.708693,-0.218347,16.520586,35.201031,8.898459,8.513939,6.036313,22.965836,8.068177,15.627973,-1.807666,11.410369,0.496321,2.072747,21.193254,5.004435,4.846936,3.687974,-16.658194,6.843463,7.312691,1.361581,-6.927496,-5.150235,0.078355,0.333977,0.184130,-0.719604,6.271450,-2.127487,-24.123394,-6.837577,0.000000,199.000000,4.000000,,,,0.000000,4.000000,4.000000,4.000000,4.000000,4.000000,4.000000,4.000000,4.000000,4.000000,4.000000,4.000000,4.000000,4.000000,4.000000,4.000000,4.000000,4.000000,4.000000,4.000000,4.000000,4.000000,4.000000,4.000000,4.000000,4.000000,4.000000,4.000000,4.000000,4.000000,4.000000,4.000000,4.000000,100.000000
1614475566.689216,68.000000,0.000000,6.189164,6.448538,27.273296,39.268394,18.120331,8.505425,6.543097,23.455690,17.803698,23.304653,24.347988,14.475882,0.495825,11.301443,24.248985,21.922506,5.867730,15.991979,6.435388,7.862261,13.459225,2.898681,-6.407748,10.752352,-0.434544,0.846464,0.696766,-0.206064,8.829281,-1.612540,-25.637733,-6.830739,0.000000,180.000000,4.000000,,,,0.000000,4.000000,4.000000,4.000000,4.000000,4.000000,4.000000,4.000000,4.000000,4.000000,4.000000,4.000000,4.000000,4.000000,4.000000,4.000000,4.000000,4.000000,4.000000,4.000000,4.000000,4.000000,4.000000,4.000000,4.000000,4.000000,4.000000,4.000000,4.000000,4.000000,4.000000,4.000000,4.000000,100.000000
1614475566.696966,69.000000,0.000000,8.747077,13.621576,25.194742,40.254765,20.666313,8.496920,3.459631,29.073261,28.042305,23.794168,35.092873,19.589611,1.008149,12.315783,22.686274,36.772381,13.041349,25.206757,27.454594,8.880040,14.984227,8.023988,8.470454,16.895445,-0.434109,7.512284,2.234531,2.358244,8.307631,-1.610927,-29.201839,-6.311089,0.000000,212.000000,4.000000,,,,0.000000,4.000000,4.000000,4.000000,4.000000,4.000000,4.000000,4.000000,4.000000,4.000000,4.000000,4.000000,4.000000,4.000000,4.000000,4.000000,4.000000,4.000000,4.000000,4.000000,4.000000,4.000000,4.000000,4.000000,4.000000,4.000000,4.000000,4.000000,4.000000,4.000000,4.000000,4.000000,4.000000,100.000000
1614475566.704615,70.000000,0.000000,9.763971,7.966929,24.143906,41.240154,11.414877,8.488423,3.456171,29.557009,22.886057,23.770374,30.442394,19.570021,0.494321,10.765005,23.176409,33.145863,15.592411,22.617447,15.632267,11.948083,19.584627,9.554425,19.231215,15.340089,7.258633,1.350925,-1.870268,3.894348,7.786503,-2.122137,-20.967508,-3.740675,0.000000,202.000000,4.000000,,,,0.000000,4.000000,4.000000,4.000000,4.000000,4.000000,4.000000,4.000000,4.000000,4.000000,4.000000,4.000000,4.000000,4.000000,4.000000,4.000000,4.000000,4.000000,4.000000,4.000000,4.000000,4.000000,4.000000,4.000000,4.000000,4.000000,4.000000,4.000000,4.000000,4.000000,4.000000,4.000000,4.000000,100.000000
1614475566.712364,71.000000,0.000000,6.677284,5.394859,23.094120,45.814297,13.967565,8.479935,8.068100,25.424887,17.222145,28.874809,29.899130,19.037630,0.493826,11.779881,22.640411,30.548615,7.371690,21.569189,13.052532,13.474596,21.616325,9.544870,14.596600,16.863211,14.943682,-0.188887,-1.355577,3.377633,7.778717,-1.607194,-14.279875,-3.736934,0.000000,183.000000,4.000000,,,,0.000000,4.000000,4.000000,4.000000,4.000000,4.000000,4.000000,4.000000,4.000000,4.000000,4.000000,4.000000,4.000000,4.000000,4.000000,4.000000,4.000000,4.000000,4.000000,4.000000,4.000000,4.000000,4.000000,4.000000,4.000000,4.000000,4.000000,4.000000,4.000000,4.000000,4.000000,4.000000,4.000000,100.000000
1614475566.720013,72.000000,0.000000,7.696248,10.004849,29.737694,48.845406,24.722828,8.984275,10.111314,35.143051,26.948513,32.435677,28.330770,23.633978,3.570256,11.255280,24.156233,32.056526,8.902780,26.675825,22.270248,25.768814,21.081888,15.176352,20.223028,12.743783,15.441559,10.580533,13.004753,3.374255,9.309400,0.958516,-13.239953,-2.194736,0.000000,204.000000,4.000000,,,,0.000000,4.000000,4.000000,4.000000,4.000000,4.000000,4.000000,4.000000,4.000000,4.000000,4.000000,4.000000,4.000000,4.000000,4.000000,4.000000,4.000000,4.000000,4.000000,4.000000,4.000000,4.000000,4.000000,4.000000,4.000000,4.000000,4.000000,4.000000,4.000000,4.000000,4.000000,4.000000,4.000000,100.000000
1614475566.727762,73.000000,0.000000,13.329577,11.533306,40.477188,49.309380,25.210926,9.488111,10.101202,43.313038,32.049770,30.864780,21.122952,26.687267,3.566685,11.244025,21.055153,22.280882,8.381057,16.905560,9.427465,32.409710,22.086447,13.622713,32.510498,6.577193,19.015862,10.569952,19.658415,3.370881,12.377013,2.496019,-7.585688,4.474126,0.000000,208.000000,4.000000,,,,0.000000,4.000000,4.000000,4.000000,4.000000,4.000000,4.000000,4.000000,4.000000,4.000000,4.000000,4.000000,4.000000,4.000000,4.000000,4.000000,4.000000,4.000000,4.000000,4.000000,4.000000,4.000000,4.000000,4.000000,4.000000,4.000000,4.000000,4.000000,4.000000,4.000000,4.000000,4.000000,4.000000,100.000000
1614475566.735411,74.000000,0.000000,14.341888,9.983311,35.308506,48.234432,23.647253,7.427341,13.168024,28.910749,25.351053,30.321095,14.947983,22.045195,-1.565086,10.719961,6.675124,12.515011,-9.576042,-4.136988,-9.556321,13.402943,12.833591,3.352680,29.913885,2.980872,17.458384,3.892715,11.433628,3.367510,11.851816,2.493523,-10.142204,0.879908,0.000000,178.000000,4.000000,,,,0.000000,4.000000,4.000000,4.000000,4.000000,4.000000,4.000000,4.000000,4.000000,4.000000,4.000000,4.000000,4.000000,4.000000,4.000000,4.000000,4.000000,4.000000,4.000000,4.000000,4.000000,4.000000,4.000000,4.000000,4.000000,4.000000,4.000000,4.000000,4.000000,4.000000,4.000000,4.000000,4.000000,100.000000
1614475566.743160,75.000000,0.000000,13.814726,8.947687,31.170631,46.647736,22.085144,7.419914,11.616395,24.266455,23.274420,31.316416,7.753548,18.946226,-3.101983,7.632318,-2.049500,12.502496,-9.053646,-4.132851,-8.521124,1.081848,2.564347,2.323687,22.191664,-4.201596,-2.046255,4.401643,7.832451,3.364143,11.839964,2.491029,-20.388474,-5.787639,0.000000,185.000000,4.000000,,,,0.000000,4.000000,4.000000,4.000000,4.000000,4.000000,4.000000,4.000000,4.000000,4.000000,4.000000,4.000000,4.000000,4.000000,4.000000,4.000000,4.000000,4.000000,4.000000,4.000000,4.000000,4.000000,4.000000,4.000000,4.000000,4.000000,4.000000,4.000000,4.000000,4.000000,4.000000,4.000000,4.000000,100.000000
1614475566.750809,76.000000,0.000000,14.826552,10.990021,44.985615,49.678009,18.986135,11.002237,7.502214,36.549881,24.789608,29.233816,0.053486,19.440102,-0.021958,4.547762,0.516652,2.746404,9.929767,4.076410,-6.461320,4.670510,4.613065,4.372645,17.554087,-12.402523,-13.839080,3.371601,8.337440,3.360779,14.392226,2.488538,-21.393724,3.448918,0.000000,180.000000,4.000000,,,,0.000000,4.000000,4.000000,4.000000,4.000000,4.000000,4.000000,4.000000,4.000000,4.000000,4.000000,4.000000,4.000000,4.000000,4.000000,4.000000,4.000000,4.000000,4.000000,4.000000,4.000000,4.000000,4.000000,4.000000,4.000000,4.000000,4.000000,4.000000,4.000000,4.000000,4.000000,4.000000,4.000000,100.000000
1614475566.758559,77.000000,0.000000,10.709162,9.440570,37.248322,48.089870,18.454329,1.760466,5.956250,27.282560,17.585331,20.999454,-7.126054,15.830917,-1.047577,-1.610631,-4.612070,-19.820446,-0.849394,-18.491770,-21.839474,-7.641853,0.505888,-5.375317,8.818583,-18.031145,-11.773959,-2.785617,-0.901668,3.357418,6.172706,1.973229,-30.090281,0.881367,0.000000,193.000000,4.000000,,,,0.000000,4.000000,4.000000,4.000000,4.000000,4.000000,4.000000,4.000000,4.000000,4.000000,4.000000,4.000000,4.000000,4.000000,4.000000,4.000000,4.000000,4.000000,4.000000,4.000000,4.000000,4.000000,4.000000,4.000000,4.000000,4.000000,4.000000,4.000000,4.000000,4.000000,4.000000,4.000000,4.000000,100.000000
1614475566.766208,78.000000,0.000000,3.518965,-0.825281,4.903381,28.554602,10.743567,-12.087448,1.334909,8.793739,9.362617,13.286147,-10.708672,11.712523,-4.636273,-5.711585,-11.274124,-22.364727,-17.258801,-38.473278,-36.689430,-21.993185,-12.827951,-8.446865,5.220022,-24.166962,-20.992954,-8.423858,-8.080253,3.354060,-5.115518,-2.644129,-52.624294,-27.324642,0.000000,189.000000,4.000000,,,,0.000000,4.000000,4.000000,4.000000,4.000000,4.000000,4.000000,4.000000,4.000000,4.000000,4.000000,4.000000,4.000000,4.000000,4.000000,4.000000,4.000000,4.000000,4.000000,4.000000,4.000000,4.000000,4.000000,4.000000,4.000000,4.000000,4.000000,4.000000,4.000000,4.000000,4.000000,4.000000,4.000000,100.000000
1614475566.773957,79.000000,0.000000,1.976985,-4.927020,10.026683,22.885021,2.527695,-2.844592,-2.256169,18.528536,8.327614,15.324143,0.584088,10.162348,-0.016252,3.524896,0.532022,-5.419286,0.707176,-13.306599,-28.447613,-13.253243,-5.635636,-0.746111,4.189160,-25.681255,-23.536064,-11.492356,-4.482429,3.350706,-1.520659,-11.359433,-51.546028,-28.322960,0.000000,178.000000,4.000000,,,,0.000000,4.000000,4.000000,4.000000,4.000000,4.000000,4.000000,4.000000,4.000000,4.000000,4.000000,4.000000,4.000000,4.000000,4.000000,4.000000,4.000000,4.000000,4.000000,4.000000,4.000000,4.000000,4.000000,4.000000,4.000000,4.000000,4.000000,4.000000,4.000000,4.000000,4.000000,4.000000,4.000000,100.000000
1614475566.781606,80.000000,0.000000,3.000649,3.283035,39.247425,46.451878,13.294398,14.594151,3.899933,35.945904,10.883389,28.129332,18.532223,11.690647,4.599149,15.316243,14.890464,4.329723,14.039803,8.245170,-8.931985,-4.522042,9.241795,0.280277,-1.456054,-21.553011,-4.025348,-7.891120,-2.939485,3.860176,3.609067,-11.860894,-29.443199,-4.704893,0.000000,182.000000,4.000000,,,,0.000000,4.000000,4.000000,4.000000,4.000000,4.000000,4.000000,4.000000,4.000000,4.000000,4.000000,4.000000,4.000000,4.000000,4.000000,4.000000,4.000000,4.000000,4.000000,4.000000,4.000000,4.000000,4.000000,4.000000,4.000000,4.000000,4.000000,4.000000,4.000000,4.000000,4.000000,4.000000,4.000000,100.000000
1614475566.789355,81.000000,0.000000,2.997648,6.356675,31.515869,50.507992,18.922131,12.015453,7.998598,33.858677,12.923787,32.716587,19.539331,17.832802,3.568909,7.608619,15.388394,5.863855,5.307814,-5.096409,-3.282027,-9.132904,0.001783,-5.361029,-0.428957,-24.095560,1.106882,-7.370409,-2.936546,3.343495,-5.625311,-9.797751,-27.362474,-9.828393,0.000000,188.000000,4.000000,,,,0.000000,4.000000,4.000000,4.000000,4.000000,4.000000,4.000000,4.000000,4.000000,4.000000,4.000000,4.000000,4.000000,4.000000,4.000000,4.000000,4.000000,4.000000,4.000000,4.000000,4.000000,4.000000,4.000000,4.000000,4.000000,4.000000,4.000000,4.000000,4.000000,4.000000,4.000000,4.000000,4.000000,100.000000
1614475566.797004,82.000000,0.000000,2.481830,-0.316348,8.920252,30.970304,6.082695,3.285490,5.939317,28.696613,12.398043,24.991564,13.878766,21.404713,5.103801,-0.091297,14.860185,10.473375,4.276865,-2.014390,-3.278745,-9.636592,-9.741808,-6.381310,7.776600,-24.584284,-10.176276,-22.747654,-1.395148,0.776049,-12.286352,-21.582825,-42.206905,-25.716000,0.000000,173.000000,4.000000,,,,0.000000,4.000000,4.000000,4.000000,4.000000,4.000000,4.000000,4.000000,4.000000,4.000000,4.000000,4.000000,4.000000,4.000000,4.000000,4.000000,4.000000,4.000000,4.000000,4.000000,4.000000,4.000000,4.000000,4.000000,4.000000,4.000000,4.000000,4.000000,4.000000,4.000000,4.000000,4.000000,4.000000,100.000000
1614475566.804853,83.000000,0.000000,1.453707,-1.854493,13.013895,40.170101,9.153535,4.820665,11.061583,30.206377,12.385645,30.607597,21.044374,23.434591,10.226903,11.190845,22.537632,19.180851,8.887973,24.654291,5.442482,-2.447468,2.062805,-4.836466,3.666259,-14.303290,-11.191741,-32.468494,-7.034778,-0.763188,-10.222784,-31.817654,-45.241623,-23.126183,0.000000,192.000000,4.000000,,,,0.000000,4.000000,4.000000,4.000000,4.000000,4.000000,4.000000,4.000000,4.000000,4.000000,4.000000,4.000000,4.000000,4.000000,4.000000,4.000000,4.000000,4.000000,4.000000,4.000000,4.000000,4.000000,4.000000,4.000000,4.000000,4.000000,4.000000,4.000000,4.000000,4.000000,4.000000,4.000000,4.000000,100.000000
1614475566.812602,84.000000,0.000000,4.529177,2.249925,19.154728,57.565830,26.580278,6.354306,17.204367,34.278736,19.039927,44.935963,30.254099,33.154747,12.267958,20.410423,27.643301,29.930901,10.930367,31.296305,12.103706,-0.393739,11.291512,1.835037,1.611311,-5.571038,-11.693370,-20.641155,-13.694410,0.263216,-9.699741,-22.042246,-42.119457,-23.103056,0.000000,195.000000,4.000000,,,,0.000000,4.000000,4.000000,4.000000,4.000000,4.000000,4.000000,4.000000,4.000000,4.000000,4.000000,4.000000,4.000000,4.000000,4.000000,4.000000,4.000000,4.000000,4.000000,4.000000,4.000000,4.000000,4.000000,4.000000,4.000000,4.000000,4.000000,4.000000,4.000000,4.000000,4.000000,4.000000,4.000000,100.000000
1614475566.820451,85.000000,0.000000,10.165673,3.786137,17.597111,47.764675,23.989595,4.296670,18.212805,37.834202,27.226015,39.250004,29.711025,38.249798,11.742869,18.338732,26.077196,30.926611,18.098923,22.547058,9.527500,-1.931807,9.228938,10.038330,10.327648,-6.078288,-17.322702,-9.338463,-8.552510,-2.301150,-7.638759,-11.250973,-44.128620,-25.131235,0.000000,168.000000,4.000000,,,,0.000000,4.000000,4.000000,4.000000,4.000000,4.000000,4.000000,4.000000,4.000000,4.000000,4.000000,4.000000,4.000000,4.000000,4.000000,4.000000,4.000000,4.000000,4.000000,4.000000,4.000000,4.000000,4.000000,4.000000,4.000000,4.000000,4.000000,4.000000,4.000000,4.000000,4.000000,4.000000,4.000000,100.000000
1614475566.828200,86.000000,0.000000,7.078585,2.243889,24.246181,46.178448,15.760478,4.292373,17.168949,37.283546,28.224430,29.979982,27.117210,30.006418,10.705485,17.294752,25.538298,20.126453,15.516722,20.473230,7.466691,-1.929875,13.322273,4.387266,9.804501,-7.097850,-9.613071,-9.841946,-2.390112,-4.862951,-3.528556,-12.265363,-43.058849,-17.413795,0.000000,198.000000,4.000000,,,,0.000000,4.000000,4.000000,4.000000,4.000000,4.000000,4.000000,4.000000,4.000000,4.000000,4.000000,4.000000,4.000000,4.000000,4.000000,4.000000,4.000000,4.000000,4.000000,4.000000,4.000000,4.000000,4.000000,4.000000,4.000000,4.000000,4.000000,4.000000,4.000000,4.000000,4.000000,4.000000,4.000000,100.000000
1614475566.836049,87.000000,0.000000,3.481762,2.241645,26.273216,54.337399,18.821642,4.800901,13.562037,37.759083,27.683384,36.103848,29.141376,26.386669,8.643497,17.277456,24.999939,20.106327,3.193513,22.504038,11.048967,0.636158,17.411514,-4.335070,2.615208,-5.552291,1.165772,-8.293642,-4.439004,0.782937,-1.986566,-11.740276,-36.861946,-14.319459,0.000000,173.000000,4.000000,,,,0.000000,4.000000,4.000000,4.000000,4.000000,4.000000,4.000000,4.000000,4.000000,4.000000,4.000000,4.000000,4.000000,4.000000,4.000000,4.000000,4.000000,4.000000,4.000000,4.000000,4.000000,4.000000,4.000000,4.000000,4.000000,4.000000,4.000000,4.000000,4.000000,4.000000,4.000000,4.000000,4.000000,100.000000
1614475566.843798,88.000000,0.000000,9.632127,3.777865,16.503353,37.872803,15.213076,4.796101,6.881809,38.746964,29.194162,32.478001,29.112234,25.847462,8.634854,13.670436,17.795452,24.701605,6.780063,26.584099,13.602021,3.712445,14.830001,1.823111,9.279260,-4.521098,2.703068,-4.695604,-5.460206,3.346257,3.656446,-9.677255,-34.773800,-13.279498,0.000000,156.000000,4.000000,,,,0.000000,4.000000,4.000000,4.000000,4.000000,4.000000,4.000000,4.000000,4.000000,4.000000,4.000000,4.000000,4.000000,4.000000,4.000000,4.000000,4.000000,4.000000,4.000000,4.000000,4.000000,4.000000,4.000000,4.000000,4.000000,4.000000,4.000000,4.000000,4.000000,4.000000,4.000000,4.000000,4.000000,100.000000
1614475566.851647,89.000000,0.000000,14.750700,2.748446,13.409927,27.065701,6.479914,4.791305,4.823645,33.580013,27.113686,18.599371,20.365173,16.078024,7.600578,6.990098,5.982784,7.753827,12.414309,15.275463,11.024316,2.683091,13.276710,2.846929,13.885365,-5.542218,1.161904,-5.203730,-4.941925,-1.785294,7.242533,-11.206038,-36.790310,-6.599552,0.000000,205.000000,4.000000,,,,0.000000,4.000000,4.000000,4.000000,4.000000,4.000000,4.000000,4.000000,4.000000,4.000000,4.000000,4.000000,4.000000,4.000000,4.000000,4.000000,4.000000,4.000000,4.000000,4.000000,4.000000,4.000000,4.000000,4.000000,4.000000,4.000000,4.000000,4.000000,4.000000,4.000000,4.000000,4.000000,4.000000,100.000000
1614475566.859397,90.000000,0.000000,14.223128,-0.331225,16.986261,43.448891,10.063178,4.786513,5.844462,26.879766,24.522470,18.067949,10.088398,14.523484,3.490414,1.342083,1.874238,-7.638542,1.632664,-8.842377,10.500471,2.167588,12.750612,-5.361046,6.691993,-7.075137,1.160742,-6.224167,-9.552368,-2.296329,1.081445,-12.220473,-33.676598,-10.695517,0.000000,211.000000,4.000000,,,,0.000000,4.000000,4.000000,4.000000,4.000000,4.000000,4.000000,4.000000,4.000000,4.000000,4.000000,4.000000,4.000000,4.000000,4.000000,4.000000,4.000000,4.000000,4.000000,4.000000,4.000000,4.000000,4.000000,4.000000,4.000000,4.000000,4.000000,4.000000,4.000000,4.000000,4.000000,4.000000,4.000000,100.000000
1614475566.867245,91.000000,0.000000,14.208905,1.720388,17.482096,52.123390,19.283884,4.781727,5.838618,30.955450,27.062050,23.178087,8.539848,24.765371,5.538206,6.468946,14.180056,3.651148,-3.497174,-3.192508,13.566894,6.267984,11.712221,-0.227480,6.172480,-6.555241,2.185222,-5.192302,-6.978713,-1.268392,-3.022201,-12.208253,-28.001894,-16.838667,0.000000,173.000000,4.000000,,,,0.000000,4.000000,4.000000,4.000000,4.000000,4.000000,4.000000,4.000000,4.000000,4.000000,4.000000,4.000000,4.000000,4.000000,4.000000,4.000000,4.000000,4.000000,4.000000,4.000000,4.000000,4.000000,4.000000,4.000000,4.000000,4.000000,4.000000,4.000000,4.000000,4.000000,4.000000,4.000000,4.000000,100.000000
1614475566.874995,92.000000,0.000000,11.117773,3.769950,22.079998,48.994347,21.315882,5.289765,5.832779,38.616802,25.496527,24.180550,10.582590,22.176504,6.558308,13.129144,26.473568,10.314163,-0.416754,13.220941,4.835379,1.646331,10.674868,3.362491,9.243231,-12.702532,2.183037,-6.725571,-2.356349,-11.010714,-0.967897,-12.196045,-31.050816,-13.232085,0.000000,193.000000,4.000000,,,,0.000000,4.000000,4.000000,4.000000,4.000000,4.000000,4.000000,4.000000,4.000000,4.000000,4.000000,4.000000,4.000000,4.000000,4.000000,4.000000,4.000000,4.000000,4.000000,4.000000,4.000000,4.000000,4.000000,4.000000,4.000000,4.000000,4.000000,4.000000,4.000000,4.000000,4.000000,4.000000,4.000000,100.000000
1614475566.882844,93.000000,0.000000,2.901527,-4.438949,18.980995,41.253044,15.140719,4.258835,3.262844,33.962803,17.265902,22.617908,5.443802,11.897917,-7.807224,4.910886,16.703505,-1.491023,-6.570183,-7.817921,-16.707918,-15.791212,-3.694782,-10.999846,0.516039,-33.715469,-11.152479,-11.847051,-17.225788,-20.230473,-6.095134,-12.183848,-41.276176,-20.911161,0.000000,207.000000,4.000000,,,,0.000000,4.000000,4.000000,4.000000,4.000000,4.000000,4.000000,4.000000,4.000000,4.000000,4.000000,4.000000,4.000000,4.000000,4.000000,4.000000,4.000000,4.000000,4.000000,4.000000,4.000000,4.000000,4.000000,4.000000,4.000000,4.000000,4.000000,4.000000,4.000000,4.000000,4.000000,4.000000,4.000000,100.000000
1614475566.890593,94.000000,0.000000,2.898626,-6.485792,-1.037986,20.698969,4.869169,1.690473,1.721120,20.595505,12.120431,11.826059,0.822974,10.347557,-17.543007,-4.324794,-1.261917,-3.540814,-10.666177,-24.220360,-27.460442,-25.006191,-21.126984,-14.578589,-9.740888,-50.092010,-30.628506,-14.399306,-28.490614,-19.697422,-8.140321,-12.171665,-47.901566,-37.813328,0.000000,188.000000,4.000000,,,,0.000000,4.000000,4.000000,4.000000,4.000000,4.000000,4.000000,4.000000,4.000000,4.000000,4.000000,4.000000,4.000000,4.000000,4.000000,4.000000,4.000000,4.000000,4.000000,4.000000,4.000000,4.000000,4.000000,4.000000,4.000000,4.000000,4.000000,4.000000,4.000000,4.000000,4.000000,4.000000,4.000000,100.000000
1614475566.898442,95.000000,0.000000,5.459830,1.213002,-12.318999,10.934681,0.761736,1.175962,3.257860,11.344140,11.595490,1.557823,8.001638,9.824389,-10.345977,1.833377,-4.337578,4.155035,-2.450383,-5.221781,-19.227852,-18.314518,-11.875088,-4.307600,-10.243967,-41.323971,-31.623520,-12.846445,-19.744175,-17.626442,2.124230,-12.159493,-45.802383,-35.724232,0.000000,195.000000,4.000000,,,,0.000000,4.000000,4.000000,4.000000,4.000000,4.000000,4.000000,4.000000,4.000000,4.000000,4.000000,4.000000,4.000000,4.000000,4.000000,4.000000,4.000000,4.000000,4.000000,4.000000,4.000000,4.000000,4.000000,4.000000,4.000000,4.000000,4.000000,4.000000,4.000000,4.000000,4.000000,4.000000,4.000000,100.000000
1614475566.906191,96.000000,0.000000,-0.699476,-1.865134,-5.640014,21.692976,4.350718,1.174786,0.177679,11.845616,9.532612,3.607547,17.224405,8.788923,-8.284348,9.011031,-1.256317,4.150880,2.167452,-0.601174,-14.080420,-15.219280,4.547043,-6.867395,-8.695262,-27.436493,-24.925228,-13.859240,-20.237251,-19.147276,2.122105,-11.634513,-43.192478,-26.457737,8064.000000,0.000000,4.000000,,,,0.000000,4.000000,4.000000,4.000000,4.000000,4.000000,4.000000,4.000000,4.000000,4.000000,4.000000,4.000000,4.000000,4.000000,4.000000,4.000000,4.000000,4.000000,4.000000,4.000000,4.000000,4.000000,4.000000,4.000000,4.000000,4.000000,4.000000,4.000000,4.000000,4.000000,4.000000,4.000000,4.000000,100.000000
1614475566.914040,97.000000,0.000000,-4.801341,-7.504294,-5.634374,22.184105,5.372008,0.660791,-4.950704,16.961975,9.010259,3.603940,18.232822,14.933981,-7.763244,6.950738,1.309041,6.710831,1.139644,-8.292881,-16.117620,-18.280983,-0.585709,-5.834887,-10.225028,-30.485979,-28.490047,-13.845381,-27.909321,-19.640949,-9.162068,-12.648520,-45.200565,-31.046665,8064.000000,0.000000,4.000000,,,,0.000000,4.000000,4.000000,4.000000,4.000000,4.000000,4.000000,4.000000,4.000000,4.000000,4.000000,4.000000,4.000000,4.000000,4.000000,4.000000,4.000000,4.000000,4.000000,4.000000,4.000000,4.000000,4.000000,4.000000,4.000000,4.000000,4.000000,4.000000,4.000000,4.000000,4.000000,4.000000,4.000000,100.000000
1614475566.921789,98.000000,0.000000,0.331666,-1.342944,-9.731303,17.546535,4.340995,2.198592,-1.868830,18.996296,8.488428,5.651618,16.676128,20.047253,3.526571,6.430966,11.564142,15.422070,5.753889,7.612848,-11.998940,-12.108856,1.978979,6.478640,-9.189161,-27.891392,-23.333353,-5.626407,-13.009617,-13.467463,-9.152905,-12.123051,-39.001518,-28.964336,8064.000000,0.000000,4.000000,,,,0.000000,4.000000,4.000000,4.000000,4.000000,4.000000,4.000000,4.000000,4.000000,4.000000,4.000000,4.000000,4.000000,4.000000,4.000000,4.000000,4.000000,4.000000,4.000000,4.000000,4.000000,4.000000,4.000000,4.000000,4.000000,4.000000,4.000000,4.000000,4.000000,4.000000,4.000000,4.000000,4.000000,100.000000
1614475566.929438,99.000000,0.000000,3.408257,4.812245,4.637402,30.349503,4.849474,4.760496,6.338167,18.464479,8.992761,21.543402,17.685093,19.001564,6.599967,7.962997,17.193604,19.509211,12.414802,18.374466,-0.704889,0.210945,20.951359,3.908059,-7.128691,-12.478885,-2.284378,1.045886,3.413649,-4.223226,0.599837,-8.521184,-21.013800,-13.037935,8064.000000,0.000000,4.000000,,,,0.000000,4.000000,4.000000,4.000000,4.000000,4.000000,4.000000,4.000000,4.000000,4.000000,4.000000,4.000000,4.000000,4.000000,4.000000,4.000000,4.000000,4.000000,4.000000,4.000000,4.000000,4.000000,4.000000,4.000000,4.000000,4.000000,4.000000,4.000000,4.000000,4.000000,4.000000,4.000000,4.000000,100.000000
1614475566.937187,100.000000,0.000000,3.404849,2.756151,16.940456,41.601204,4.844625,2.191633,4.280547,18.446014,12.573511,29.726988,18.180229,18.469742,2.490803,4.878111,11.022564,20.002523,13.428027,12.202246,5.449662,4.313298,18.366306,-4.300977,-5.070280,-10.927944,6.948676,-4.083364,-1.205149,-2.167721,2.137698,-10.051125,-19.454325,-9.435154,8064.000000,0.000000,4.000000,,,,0.000000,4.000000,4.000000,4.000000,4.000000,4.000000,4.000000,4.000000,4.000000,4.000000,4.000000,4.000000,4.000000,4.000000,4.000000,4.000000,4.000000,4.000000,4.000000,4.000000,4.000000,4.000000,4.000000,4.000000,4.000000,4.000000,4.000000,4.000000,4.000000,4.000000,4.000000,4.000000,4.000000,100.000000
1614475566.944836,101.000000,0.000000,5.452726,2.240574,7.179927,37.969860,5.352601,1.163800,-2.903221,19.966030,10.509656,23.543413,15.597945,18.964092,8.129338,0.257848,6.908978,15.879956,12.388959,13.215684,3.392930,2.770523,2.450503,2.369990,-5.578030,-23.224709,-0.237760,-9.720307,-6.844969,-4.216835,0.084279,-18.759022,-36.357948,-20.194950,8064.000000,0.000000,4.000000,,,,0.000000,4.000000,4.000000,4.000000,4.000000,4.000000,4.000000,4.000000,4.000000,4.000000,4.000000,4.000000,4.000000,4.000000,4.000000,4.000000,4.000000,4.000000,4.000000,4.000000,4.000000,4.000000,4.000000,4.000000,4.000000,4.000000,4.000000,4.000000,4.000000,4.000000,4.000000,4.000000,4.000000,100.000000
1614475566.952585,102.000000,0.000000,7.498555,3.263974,2.557362,34.854965,6.885710,4.239559,0.689426,18.920424,5.883761,23.007050,13.531066,18.432308,9.146850,-1.280871,6.389248,6.633307,11.863750,10.125546,5.440819,2.254932,6.550617,8.008646,-7.110913,-21.150202,-3.314445,-10.223407,-5.812483,-2.674157,1.109836,-18.740263,-35.295948,-24.277319,8192.000000,0.000000,4.000000,,,,0.000000,4.000000,4.000000,4.000000,4.000000,4.000000,4.000000,4.000000,4.000000,4.000000,4.000000,4.000000,4.000000,4.000000,4.000000,4.000000,4.000000,4.000000,4.000000,4.000000,4.000000,4.000000,4.000000,4.000000,4.000000,4.000000,4.000000,4.000000,4.000000,4.000000,4.000000,4.000000,4.000000,100.000000
1614475566.960234,103.000000,0.000000,6.465416,3.260710,10.759933,36.871391,8.930106,3.722499,12.483608,18.901503,12.544544,22.984043,13.004714,20.977978,4.522318,-0.253949,6.382859,6.626674,8.774962,2.423112,14.153327,2.765497,15.262015,5.436535,-1.975598,-8.821359,-1.259849,-9.700363,-8.370773,0.405440,1.621546,-8.977933,-21.414499,-23.227400,8064.000000,0.000000,4.000000,,,,0.000000,4.000000,4.000000,4.000000,4.000000,4.000000,4.000000,4.000000,4.000000,4.000000,4.000000,4.000000,4.000000,4.000000,4.000000,4.000000,4.000000,4.000000,4.000000,4.000000,4.000000,4.000000,4.000000,4.000000,4.000000,4.000000,4.000000,4.000000,4.000000,4.000000,4.000000,4.000000,4.000000,100.000000
1614475566.967984,104.000000,0.000000,6.971771,2.744629,13.313276,36.321701,11.998099,5.770059,18.624971,23.497986,20.224308,22.448238,13.504530,22.495462,10.158821,2.823228,16.632887,14.312354,5.176444,9.600176,15.164815,5.326835,11.144189,5.431098,8.282788,-8.299717,-2.284230,-6.100919,-9.388043,-0.107786,1.107104,-3.327929,-22.418726,-21.152891,8064.000000,0.000000,4.000000,,,,0.000000,4.000000,4.000000,4.000000,4.000000,4.000000,4.000000,4.000000,4.000000,4.000000,4.000000,4.000000,4.000000,4.000000,4.000000,4.000000,4.000000,4.000000,4.000000,4.000000,4.000000,4.000000,4.000000,4.000000,4.000000,4.000000,4.000000,4.000000,4.000000,4.000000,4.000000,4.000000,4.000000,100.000000
1614475566.975633,105.000000,0.000000,6.451979,1.716244,19.453808,37.311020,15.063024,18.071981,16.555063,28.089872,20.204082,33.195023,12.978205,21.447325,14.764048,6.410148,31.488049,12.246760,4.658447,10.616217,5.918880,5.321508,7.543301,4.912847,9.812967,-14.445264,-2.794766,-0.453793,-6.814553,-3.697421,1.105997,-4.863063,-23.421947,-11.900969,8064.000000,0.000000,4.000000,,,,0.000000,4.000000,4.000000,4.000000,4.000000,4.000000,4.000000,4.000000,4.000000,4.000000,4.000000,4.000000,4.000000,4.000000,4.000000,4.000000,4.000000,4.000000,4.000000,4.000000,4.000000,4.000000,4.000000,4.000000,4.000000,4.000000,4.000000,4.000000,4.000000,4.000000,4.000000,4.000000,4.000000,100.000000
1614475566.983382,106.000000,0.000000,5.419886,2.740168,29.690765,39.837811,17.099243,21.130833,16.538509,30.625885,25.824905,39.828491,12.452406,29.118185,9.621078,7.429379,34.020664,12.234513,4.653788,3.938934,2.323218,-0.324839,8.561399,1.831011,2.110847,-13.917997,-2.791971,2.623584,-5.269277,-4.206544,0.592070,-4.858200,-14.167756,-5.735222,8064.000000,0.000000,4.000000,,,,0.000000,4.000000,4.000000,4.000000,4.000000,4.000000,4.000000,4.000000,4.000000,4.000000,4.000000,4.000000,4.000000,4.000000,4.000000,4.000000,4.000000,4.000000,4.000000,4.000000,4.000000,4.000000,4.000000,4.000000,4.000000,4.000000,4.000000,4.000000,4.000000,4.000000,4.000000,4.000000,4.000000,100.000000
1614475566.991031,107.000000,0.000000,7.978568,4.275890,25.558510,39.797974,17.082144,13.417394,18.060432,31.620901,28.363182,31.070715,12.952774,37.807014,10.124277,6.909129,32.961002,22.991510,5.161955,16.242687,5.397818,-0.837335,9.065658,2.342000,2.621556,-11.852798,-4.327641,1.595320,-5.776828,-2.663876,0.591478,-3.827701,-18.256153,-11.370512,8064.000000,0.000000,4.000000,,,,0.000000,4.000000,4.000000,4.000000,4.000000,4.000000,4.000000,4.000000,4.000000,4.000000,4.000000,4.000000,4.000000,4.000000,4.000000,4.000000,4.000000,4.000000,4.000000,4.000000,4.000000,4.000000,4.000000,4.000000,4.000000,4.000000,4.000000,4.000000,4.000000,4.000000,4.000000,4.000000,4.000000,100.000000
1614475566.998780,108.000000,0.000000,5.919308,-2.395053,16.815002,39.758175,13.475318,10.839873,15.991089,26.461075,13.975844,24.372978,13.965463,29.051260,9.601333,6.902220,33.953682,18.865953,5.156793,19.303368,0.264215,2.240425,10.082233,0.288376,8.259960,-17.481970,-6.374596,-3.534481,-6.283872,-5.225315,1.103707,-4.849514,-27.468666,-12.897603,8064.000000,0.000000,4.000000,,,,0.000000,4.000000,4.000000,4.000000,4.000000,4.000000,4.000000,4.000000,4.000000,4.000000,4.000000,4.000000,4.000000,4.000000,4.000000,4.000000,4.000000,4.000000,4.000000,4.000000,4.000000,4.000000,4.000000,4.000000,4.000000,4.000000,4.000000,4.000000,4.000000,4.000000,4.000000,4.000000,4.000000,100.000000
1614475567.006429,109.000000,0.000000,-1.266099,-2.905478,20.387932,40.231239,14.487484,12.367496,13.410995,22.332048,7.295202,26.912708,13.438677,19.278620,1.899424,6.895318,28.791523,7.052216,3.613175,-2.767217,-7.428357,-0.325918,7.508049,-2.788836,3.636316,-25.156796,-6.881042,-5.582229,-5.764768,-6.758551,0.589783,-4.844665,-21.800171,-6.730859,8192.000000,0.000000,4.000000,,,,0.000000,4.000000,4.000000,4.000000,4.000000,4.000000,4.000000,4.000000,4.000000,4.000000,4.000000,4.000000,4.000000,4.000000,4.000000,4.000000,4.000000,4.000000,4.000000,4.000000,4.000000,4.000000,4.000000,4.000000,4.000000,4.000000,4.000000,4.000000,4.000000,4.000000,4.000000,4.000000,4.000000,100.000000
1614475567.014178,110.000000,0.000000,4.376193,9.405120,19.854723,37.114082,20.114021,11.329487,12.371943,30.514845,16.518677,27.398615,16.502161,23.874725,2.923165,6.888422,27.737089,21.404139,8.224946,3.902216,1.297020,0.187229,9.039002,4.393441,1.581397,-20.003435,-6.361340,0.577200,-3.194900,-2.649229,0.589193,-4.326999,-16.650166,-6.211308,8064.000000,0.000000,4.000000,,,,0.000000,4.000000,4.000000,4.000000,4.000000,4.000000,4.000000,4.000000,4.000000,4.000000,4.000000,4.000000,4.000000,4.000000,4.000000,4.000000,4.000000,4.000000,4.000000,4.000000,4.000000,4.000000,4.000000,4.000000,4.000000,4.000000,4.000000,4.000000,4.000000,4.000000,4.000000,4.000000,4.000000,100.000000
1614475567.021828,111.000000,0.000000,13.602586,11.959817,11.116920,32.974407,15.478523,14.907901,12.359571,33.048431,15.476517,26.345575,26.229248,25.902132,7.535627,7.394354,32.837559,41.895554,16.934669,33.129082,13.603415,8.392170,19.799194,13.619817,11.836226,-9.727020,-2.252414,-0.961839,-0.627603,0.943164,4.691168,-5.861134,-20.223259,-8.769199,8192.000000,0.000000,4.000000,,,,0.000000,4.000000,4.000000,4.000000,4.000000,4.000000,4.000000,4.000000,4.000000,4.000000,4.000000,4.000000,4.000000,4.000000,4.000000,4.000000,4.000000,4.000000,4.000000,4.000000,4.000000,4.000000,4.000000,4.000000,4.000000,4.000000,4.000000,4.000000,4.000000,4.000000,4.000000,4.000000,4.000000,100.000000
1614475567.029676,112.000000,0.000000,4.871035,3.229908,9.054521,31.915791,6.745096,13.354531,12.860033,19.169231,4.691809,25.806410,28.254301,19.209564,-0.677037,7.386960,25.112413,31.597248,12.815171,22.839544,7.948786,6.332496,20.805035,8.990812,16.952595,-12.281396,0.826761,-6.601902,-2.678257,-0.083420,7.763400,-3.291170,-19.690216,-6.709148,8064.000000,0.000000,4.000000,,,,0.000000,4.000000,4.000000,4.000000,4.000000,4.000000,4.000000,4.000000,4.000000,4.000000,4.000000,4.000000,4.000000,4.000000,4.000000,4.000000,4.000000,4.000000,4.000000,4.000000,4.000000,4.000000,4.000000,4.000000,4.000000,4.000000,4.000000,4.000000,4.000000,4.000000,4.000000,4.000000,4.000000,100.000000
1614475567.037426,113.000000,0.000000,-5.390246,8.354883,12.122390,32.396694,10.328094,5.648870,12.334352,12.483395,3.661477,21.678040,15.405534,18.677534,-3.240463,5.841112,12.779608,12.078472,5.622869,-0.260219,-2.315573,-1.366145,10.527821,5.904898,11.294617,-20.474243,1.338755,2.122648,-1.137118,-0.083337,8.268457,3.891608,-17.106422,-5.676798,8064.000000,0.000000,4.000000,,,,0.000000,4.000000,4.000000,4.000000,4.000000,4.000000,4.000000,4.000000,4.000000,4.000000,4.000000,4.000000,4.000000,4.000000,4.000000,4.000000,4.000000,4.000000,4.000000,4.000000,4.000000,4.000000,4.000000,4.000000,4.000000,4.000000,4.000000,4.000000,4.000000,4.000000,4.000000,4.000000,4.000000,100.000000
1614475567.045275,114.000000,0.000000,1.794631,17.064478,14.674370,31.851479,15.445971,7.694502,10.270736,18.111937,6.734738,19.092258,5.133718,15.581933,5.993547,7.373732,14.818110,10.015112,9.719810,8.457991,0.763666,0.173683,12.055754,11.540019,11.283322,-20.966589,1.850237,11.864115,4.505045,0.429567,11.337112,7.477460,-16.576496,-4.132659,8064.000000,0.000000,4.000000,,,,0.000000,4.000000,4.000000,4.000000,4.000000,4.000000,4.000000,4.000000,4.000000,4.000000,4.000000,4.000000,4.000000,4.000000,4.000000,4.000000,4.000000,4.000000,4.000000,4.000000,4.000000,4.000000,4.000000,4.000000,4.000000,4.000000,4.000000,4.000000,4.000000,4.000000,4.000000,4.000000,4.000000,100.000000
1614475567.053024,115.000000,0.000000,8.459503,10.380746,13.634054,29.255524,12.866423,10.250911,9.234824,16.042543,5.189542,15.996243,5.641405,4.284300,2.910630,7.366358,10.187907,10.517917,4.069065,6.911071,-0.262739,-7.005978,14.607800,7.425915,11.272038,-18.894341,-1.228537,5.698405,-0.114844,-1.622144,10.300134,5.418701,-17.072741,-5.666988,8064.000000,0.000000,4.000000,,,,0.000000,4.000000,4.000000,4.000000,4.000000,4.000000,4.000000,4.000000,4.000000,4.000000,4.000000,4.000000,4.000000,4.000000,4.000000,4.000000,4.000000,4.000000,4.000000,4.000000,4.000000,4.000000,4.000000,4.000000,4.000000,4.000000,4.000000,4.000000,4.000000,4.000000,4.000000,4.000000,4.000000,100.000000
1614475567.060873,116.000000,0.000000,5.886941,4.729340,5.928113,22.046782,12.340736,0.497070,11.276871,9.872655,5.184352,9.826401,6.661405,-1.361010,-6.323050,-0.333316,-4.694075,2.302271,-12.345261,-17.198404,-12.057347,-20.332306,1.772680,-4.889204,3.055639,-24.003651,-10.970898,0.051681,-11.396781,-3.671804,3.110347,2.336359,-23.209515,-15.917731,8064.000000,0.000000,4.000000,,,,0.000000,4.000000,4.000000,4.000000,4.000000,4.000000,4.000000,4.000000,4.000000,4.000000,4.000000,4.000000,4.000000,4.000000,4.000000,4.000000,4.000000,4.000000,4.000000,4.000000,4.000000,4.000000,4.000000,4.000000,4.000000,4.000000,4.000000,4.000000,4.000000,4.000000,4.000000,4.000000,4.000000,100.000000
1614475567.068622,117.000000,0.000000,5.368233,6.263072,2.332441,15.358068,8.225831,-1.041889,12.291235,12.939705,5.691988,7.252472,4.090641,-0.846829,-3.239803,-4.435546,-2.125278,-2.828236,-4.127788,-11.027360,-12.558111,-11.081203,2.796549,-3.858673,-3.101263,-29.107853,-15.575312,1.590091,-14.462307,-4.180953,8.235441,-0.230080,-28.314508,-13.850532,8064.000000,0.000000,4.000000,,,,0.000000,4.000000,4.000000,4.000000,4.000000,4.000000,4.000000,4.000000,4.000000,4.000000,4.000000,4.000000,4.000000,4.000000,4.000000,4.000000,4.000000,4.000000,4.000000,4.000000,4.000000,4.000000,4.000000,4.000000,4.000000,4.000000,4.000000,4.000000,4.000000,4.000000,4.000000,4.000000,4.000000,100.000000
1614475567.076471,118.000000,0.000000,6.901327,6.769629,11.048057,19.958094,2.063759,7.164281,13.817406,15.490868,5.686296,12.373425,5.625011,0.179659,0.866001,3.261197,11.210180,-0.261306,12.799417,13.086232,2.839063,1.750390,15.614264,2.299031,-4.123803,-28.053104,-13.508454,-0.462782,-13.422204,-3.663952,13.868232,-3.819594,-25.209272,-1.528989,8064.000000,0.000000,4.000000,,,,0.000000,4.000000,4.000000,4.000000,4.000000,4.000000,4.000000,4.000000,4.000000,4.000000,4.000000,4.000000,4.000000,4.000000,4.000000,4.000000,4.000000,4.000000,4.000000,4.000000,4.000000,4.000000,4.000000,4.000000,4.000000,4.000000,4.000000,4.000000,4.000000,4.000000,4.000000,4.000000,4.000000,100.000000
1614475567.084220,119.000000,0.000000,6.381605,6.250040,16.678034,29.681726,6.677080,1.516091,15.854870,14.962557,5.680610,15.950794,5.619387,9.923069,0.352314,6.847679,13.763073,4.867161,2.017387,6.919300,9.502891,-7.482129,5.855061,-0.780191,-2.581218,-27.512230,-16.059048,-2.000780,-13.921602,-4.173108,1.033850,-5.354236,-22.107140,-8.194127,8064.000000,0.000000,4.000000,,,,0.000000,4.000000,4.000000,4.000000,4.000000,4.000000,4.000000,4.000000,4.000000,4.000000,4.000000,4.000000,4.000000,4.000000,4.000000,4.000000,4.000000,4.000000,4.000000,4.000000,4.000000,4.000000,4.000000,4.000000,4.000000,4.000000,4.000000,4.000000,4.000000,4.000000,4.000000,4.000000,4.000000,100.000000
1614475567.092069,120.000000,0.000000,6.888044,9.320712,11.020330,30.677685,12.824249,-2.075168,16.351835,19.562979,5.674930,14.909203,4.588126,22.220839,5.992988,6.840832,21.954437,7.426396,-9.266682,-3.856851,1.288259,-8.500288,-2.355922,-0.779410,2.036748,-31.587282,-11.940425,-0.460318,-7.241014,-4.168935,-4.095388,-5.348881,-20.546570,-16.391060,8064.000000,0.000000,4.000000,,,,0.000000,4.000000,4.000000,4.000000,4.000000,4.000000,4.000000,4.000000,4.000000,4.000000,4.000000,4.000000,4.000000,4.000000,4.000000,4.000000,4.000000,4.000000,4.000000,4.000000,4.000000,4.000000,4.000000,4.000000,4.000000,4.000000,4.000000,4.000000,4.000000,4.000000,4.000000,4.000000,4.000000,100.000000
1614475567.099818,121.000000,0.000000,6.881155,10.337032,9.470849,26.544443,10.760142,8.183317,17.361126,23.645979,5.669255,15.407114,10.224564,23.224258,12.653661,15.039119,36.291458,6.393329,4.588739,4.864955,-4.354055,7.918468,14.056690,4.862395,4.598814,-27.965952,4.481771,-1.485499,1.996996,-2.626305,9.242041,-4.317892,-13.859358,-3.041336,8064.000000,0.000000,4.000000,,,,0.000000,4.000000,4.000000,4.000000,4.000000,4.000000,4.000000,4.000000,4.000000,4.000000,4.000000,4.000000,4.000000,4.000000,4.000000,4.000000,4.000000,4.000000,4.000000,4.000000,4.000000,4.000000,4.000000,4.000000,4.000000,4.000000,4.000000,4.000000,4.000000,4.000000,4.000000,4.000000,4.000000,100.000000
1614475567.107667,122.000000,0.000000,5.848633,9.813875,10.487020,26.005079,9.210921,8.687954,21.959148,22.596693,5.663585,16.930168,19.957930,23.201035,11.615367,21.690746,33.691063,8.438217,14.840561,7.424192,1.291325,11.500294,22.247761,4.344712,5.619856,-18.194395,13.195238,-0.458372,2.507820,-4.162140,11.284081,-2.262291,-7.691652,-4.576756,8064.000000,0.000000,4.000000,,,,0.000000,4.000000,4.000000,4.000000,4.000000,4.000000,4.000000,4.000000,4.000000,4.000000,4.000000,4.000000,4.000000,4.000000,4.000000,4.000000,4.000000,4.000000,4.000000,4.000000,4.000000,4.000000,4.000000,4.000000,4.000000,4.000000,4.000000,4.000000,4.000000,4.000000,4.000000,4.000000,4.000000,100.000000
1614475567.115416,123.000000,0.000000,7.381247,10.316882,9.450891,22.902151,6.124787,2.012600,23.988472,23.599737,5.657922,14.861957,21.989254,26.254757,11.603751,18.592133,32.118912,16.634907,13.800079,11.519332,12.572084,10.975973,20.687052,2.801905,14.332185,-15.099278,11.643581,3.131830,1.992492,-3.132337,4.606130,-1.234388,-9.735242,-19.956795,8064.000000,0.000000,4.000000,,,,0.000000,4.000000,4.000000,4.000000,4.000000,4.000000,4.000000,4.000000,4.000000,4.000000,4.000000,4.000000,4.000000,4.000000,4.000000,4.000000,4.000000,4.000000,4.000000,4.000000,4.000000,4.000000,4.000000,4.000000,4.000000,4.000000,4.000000,4.000000,4.000000,4.000000,4.000000,4.000000,4.000000,100.000000
1614475567.123265,124.000000,0.000000,6.861044,9.280924,15.595286,21.340786,1.503278,3.036228,23.964483,23.063316,5.652264,15.872735,20.428802,25.715681,12.617788,18.060720,42.343201,22.772120,16.350382,27.918070,17.174898,20.195766,28.871492,4.850386,23.035801,-15.596999,18.298605,2.103057,5.580243,5.075924,7.678446,-1.233154,-9.212687,-9.167607,8192.000000,0.000000,4.000000,,,,0.000000,4.000000,4.000000,4.000000,4.000000,4.000000,4.000000,4.000000,4.000000,4.000000,4.000000,4.000000,4.000000,4.000000,4.000000,4.000000,4.000000,4.000000,4.000000,4.000000,4.000000,4.000000,4.000000,4.000000,4.000000,4.000000,4.000000,4.000000,4.000000,4.000000,4.000000,4.000000,4.000000,100.000000
1614475567.131014,125.000000,0.000000,-2.889406,6.194720,18.656614,28.498934,5.091518,1.494730,24.453339,15.347945,5.646612,19.959427,21.946835,23.638683,4.400043,18.042660,37.685474,21.210886,13.257108,22.761946,7.414133,13.508904,27.304161,2.281433,25.576868,-17.632685,16.229025,1.588133,5.574662,7.634951,4.081024,-0.719100,-4.588089,5.200534,8064.000000,0.000000,4.000000,,,,0.000000,4.000000,4.000000,4.000000,4.000000,4.000000,4.000000,4.000000,4.000000,4.000000,4.000000,4.000000,4.000000,4.000000,4.000000,4.000000,4.000000,4.000000,4.000000,4.000000,4.000000,4.000000,4.000000,4.000000,4.000000,4.000000,4.000000,4.000000,4.000000,4.000000,4.000000,4.000000,4.000000,100.000000
1614475567.138863,126.000000,0.000000,-12.630107,5.675705,5.817445,22.316587,2.009503,-5.686252,16.223757,11.742854,5.640965,12.247160,19.360786,21.050941,-3.296665,11.357950,24.827276,16.574289,4.013082,0.687902,-5.413794,-8.043067,8.302497,-1.823413,23.500010,-29.409924,-5.838487,0.560904,0.953703,-3.654736,-8.230749,-2.256843,-11.762988,-5.573897,8064.000000,0.000000,4.000000,,,,0.000000,4.000000,4.000000,4.000000,4.000000,4.000000,4.000000,4.000000,4.000000,4.000000,4.000000,4.000000,4.000000,4.000000,4.000000,4.000000,4.000000,4.000000,4.000000,4.000000,4.000000,4.000000,4.000000,4.000000,4.000000,4.000000,4.000000,4.000000,4.000000,4.000000,4.000000,4.000000,4.000000,100.000000
1614475567.146612,127.000000,0.000000,-12.617476,6.182849,-4.957603,3.832733,-9.787378,-7.219027,5.951123,12.243932,5.635324,-3.149703,11.649117,14.876045,-3.806189,7.244028,21.212706,12.967972,1.957786,-3.415350,-7.972483,-14.188869,-0.936575,-2.334410,13.220099,-41.688206,-18.653162,-5.080682,-3.662635,-12.369030,-11.299441,-5.844329,-25.084558,-14.286272,8064.000000,0.000000,4.000000,,,,0.000000,4.000000,4.000000,4.000000,4.000000,4.000000,4.000000,4.000000,4.000000,4.000000,4.000000,4.000000,4.000000,4.000000,4.000000,4.000000,4.000000,4.000000,4.000000,4.000000,4.000000,4.000000,4.000000,4.000000,4.000000,4.000000,4.000000,4.000000,4.000000,4.000000,4.000000,4.000000,4.000000,100.000000
1614475567.154261,0.000000,0.000000,-8.502295,5.663846,-4.952646,0.751977,-8.239129,-6.186167,6.457993,6.590662,5.629689,-6.736297,9.073365,10.758605,-5.340845,5.185502,6.832518,7.313978,-4.198018,-8.540139,-5.913229,-11.610579,2.141285,-3.357717,-1.664916,-42.672157,-11.967841,-2.511499,-7.248716,-9.792558,-10.775321,-4.300024,-29.674858,-13.246345,0.000000,185.000000,4.000000,,,,0.000000,4.000000,4.000000,4.000000,4.000000,4.000000,4.000000,4.000000,4.000000,4.000000,4.000000,4.000000,4.000000,4.000000,4.000000,4.000000,4.000000,4.000000,4.000000,4.000000,4.000000,4.000000,4.000000,4.000000,4.000000,4.000000,4.000000,4.000000,4.000000,4.000000,4.000000,4.000000,4.000000,100.000000
1614475567.162010,1.000000,0.000000,-6.442511,6.683824,-4.947693,6.905071,0.487059,-6.179981,8.502817,0.943046,5.624059,-3.139817,8.551472,11.260667,-6.361145,-1.999171,-7.533288,3.204100,-9.834846,-16.736727,-7.958597,-13.650249,0.600682,-4.892820,-7.304276,-42.629486,-8.878950,6.721782,-4.164545,-6.705842,-9.738905,0.832482,-28.619543,-12.207458,0.000000,168.000000,4.000000,,,,0.000000,4.000000,4.000000,4.000000,4.000000,4.000000,4.000000,4.000000,4.000000,4.000000,4.000000,4.000000,4.000000,4.000000,4.000000,4.000000,4.000000,4.000000,4.000000,4.000000,4.000000,4.000000,4.000000,4.000000,4.000000,4.000000,4.000000,4.000000,4.000000,4.000000,4.000000,4.000000,4.000000,100.000000
1614475567.169659,2.000000,0.000000,-4.897606,9.241242,1.723921,4.334064,-3.103172,-3.096878,5.417391,3.506205,5.618435,-2.623857,6.491638,9.710945,-1.739399,-4.561274,5.807578,3.713717,0.431400,2.767189,-8.976279,-9.021215,0.600082,-0.785363,-6.271331,-42.074036,-11.434175,5.176599,3.019107,-8.237598,0.014424,0.831649,-27.565283,-2.451660,0.000000,185.000000,4.000000,,,,0.000000,4.000000,4.000000,4.000000,4.000000,4.000000,4.000000,4.000000,4.000000,4.000000,4.000000,4.000000,4.000000,4.000000,4.000000,4.000000,4.000000,4.000000,4.000000,4.000000,4.000000,4.000000,4.000000,4.000000,4.000000,4.000000,4.000000,4.000000,4.000000,4.000000,4.000000,4.000000,4.000000,100.000000
