title:12, start timestamp:1615602355.062966, stop timestamp:1615602400.789240, headset type:EPOCFLEX, headset serial:F00001ED, headset firmware:f12, subject name:s18, channels:75, sampling rate:128, samples:5669      , version:2.0
Timestamp,EEG.Counter,EEG.Interpolated,EEG.Cz,EEG.Fz,EEG.Fp1,EEG.AF3,EEG.F7,EEG.F3,EEG.FC1,EEG.C3,EEG.FC5,EEG.T7,EEG.CP5,EEG.CP1,EEG.P3,EEG.P7,EEG.PO3,EEG.O1,EEG.Pz,EEG.Oz,EEG.O2,EEG.PO4,EEG.P8,EEG.P4,EEG.CP2,EEG.CP6,EEG.T8,EEG.FC6,EEG.C4,EEG.FC2,EEG.F4,EEG.F8,EEG.AF4,EEG.Fp2,EEG.HighBitFlex,EEG.RawCq,EEG.Battery,MarkerIndex,MarkerType,MarkerValueInt,EEG.MarkerHardware,CQ.Cz,CQ.Fz,CQ.Fp1,CQ.AF3,CQ.F7,CQ.F3,CQ.FC1,CQ.C3,CQ.FC5,CQ.T7,CQ.CP5,CQ.CP1,CQ.P3,CQ.P7,CQ.PO3,CQ.O1,CQ.Pz,CQ.Oz,CQ.O2,CQ.PO4,CQ.P8,CQ.P4,CQ.CP2,CQ.CP6,CQ.T8,CQ.FC6,CQ.C4,CQ.FC2,CQ.F4,CQ.F8,CQ.AF4,CQ.Fp2,CQ.Overall
1615602355.062966,109.000000,0.000000,5.669394,10.052367,1.951988,1.543498,18.948065,30.651934,13.366275,22.155678,17.203407,37.227043,51.992722,11.739819,27.510883,52.297451,23.256994,60.279873,29.572132,61.251953,15.026869,20.153399,42.879421,20.655859,20.303965,-0.136111,53.033386,35.396729,20.282396,7.461523,6.480500,52.427567,13.892591,2.308307,8192.000000,0.000000,4.000000,,,,0.000000,4.000000,4.000000,4.000000,4.000000,4.000000,4.000000,4.000000,4.000000,4.000000,4.000000,4.000000,4.000000,4.000000,4.000000,4.000000,4.000000,4.000000,4.000000,4.000000,4.000000,4.000000,4.000000,4.000000,4.000000,4.000000,4.000000,4.000000,4.000000,4.000000,4.000000,4.000000,4.000000,100.000000
1615602355.070615,110.000000,0.000000,8.740647,10.042315,4.001318,3.593236,28.159885,30.621281,13.865729,27.261728,19.750307,37.702637,54.504829,15.830643,38.252605,57.886181,22.720917,61.758057,31.593843,55.549675,38.088764,34.492222,46.426285,24.737768,19.770840,8.581974,51.441895,34.335690,20.262114,7.454062,6.986840,50.836678,15.417161,4.357281,8064.000000,0.000000,4.000000,,,,0.000000,4.000000,4.000000,4.000000,4.000000,4.000000,4.000000,4.000000,4.000000,4.000000,4.000000,4.000000,4.000000,4.000000,4.000000,4.000000,4.000000,4.000000,4.000000,4.000000,4.000000,4.000000,4.000000,4.000000,4.000000,4.000000,4.000000,4.000000,4.000000,4.000000,4.000000,4.000000,4.000000,100.000000
1615602355.078264,111.000000,0.000000,7.706266,10.032272,2.971676,3.589643,30.695829,30.590660,13.851864,25.696005,22.807480,34.075191,53.937504,14.276351,43.855377,55.264191,24.236658,61.696297,31.562248,45.750538,27.281445,30.355164,30.482422,11.379697,19.751068,9.086213,51.390450,34.301353,17.164928,7.446608,6.467032,45.657635,14.888923,4.352923,8064.000000,0.000000,4.000000,,,,0.000000,4.000000,4.000000,4.000000,4.000000,4.000000,4.000000,4.000000,4.000000,4.000000,4.000000,4.000000,4.000000,4.000000,4.000000,4.000000,4.000000,4.000000,4.000000,4.000000,4.000000,4.000000,4.000000,4.000000,4.000000,4.000000,4.000000,4.000000,4.000000,4.000000,4.000000,4.000000,4.000000,100.000000
1615602355.086014,112.000000,0.000000,7.698560,10.022240,2.968704,3.586053,26.562569,30.560070,13.325191,26.183128,21.759031,35.579578,51.319466,14.774895,42.785881,55.208927,24.212421,62.660240,31.017866,41.602222,2.125959,26.222244,24.298094,1.111907,18.705677,5.487383,49.287777,33.241413,14.583661,7.439161,4.409283,45.099155,14.874034,3.835750,8064.000000,0.000000,4.000000,,,,0.000000,4.000000,4.000000,4.000000,4.000000,4.000000,4.000000,4.000000,4.000000,4.000000,4.000000,4.000000,4.000000,4.000000,4.000000,4.000000,4.000000,4.000000,4.000000,4.000000,4.000000,4.000000,4.000000,4.000000,4.000000,4.000000,4.000000,4.000000,4.000000,4.000000,4.000000,4.000000,4.000000,100.000000
1615602355.093663,113.000000,0.000000,8.203682,10.012218,3.991377,3.069647,23.971903,31.042330,14.337507,25.131306,19.685989,29.902971,46.652760,15.272941,41.204632,54.640896,23.675388,61.059120,32.525311,41.560619,-5.568475,28.760124,24.273796,1.623616,15.610047,1.892152,43.597466,30.644068,13.543437,7.431722,2.353592,44.028416,14.859160,4.344735,8192.000000,0.000000,4.000000,,,,0.000000,4.000000,4.000000,4.000000,4.000000,4.000000,4.000000,4.000000,4.000000,4.000000,4.000000,4.000000,4.000000,4.000000,4.000000,4.000000,4.000000,4.000000,4.000000,4.000000,4.000000,4.000000,4.000000,4.000000,4.000000,4.000000,4.000000,4.000000,4.000000,4.000000,4.000000,4.000000,4.000000,100.000000
1615602355.101412,114.000000,0.000000,7.682657,10.002206,2.448924,4.092218,21.896650,29.472826,18.938555,23.054892,19.666304,20.129478,47.631748,14.232026,44.240353,55.099079,23.138893,60.998062,34.544067,39.980598,3.667863,27.192904,21.685419,2.134813,15.081617,0.351798,42.528225,30.100605,12.504252,7.424290,2.864059,40.907463,14.844301,4.340390,8064.000000,0.000000,4.000000,,,,0.000000,4.000000,4.000000,4.000000,4.000000,4.000000,4.000000,4.000000,4.000000,4.000000,4.000000,4.000000,4.000000,4.000000,4.000000,4.000000,4.000000,4.000000,4.000000,4.000000,4.000000,4.000000,4.000000,4.000000,4.000000,4.000000,4.000000,4.000000,4.000000,4.000000,4.000000,4.000000,4.000000,100.000000
1615602355.109062,115.000000,0.000000,7.674975,9.992204,-0.117628,3.062485,18.797831,26.879251,21.483719,20.467733,18.620996,18.058067,50.148220,14.217794,39.580727,52.992695,23.628574,61.962704,34.509521,40.453438,8.279580,24.088787,17.048349,0.081396,15.066536,0.351446,43.511341,30.583324,12.491748,7.416866,2.861195,39.840916,14.829456,2.797588,8064.000000,0.000000,4.000000,,,,0.000000,4.000000,4.000000,4.000000,4.000000,4.000000,4.000000,4.000000,4.000000,4.000000,4.000000,4.000000,4.000000,4.000000,4.000000,4.000000,4.000000,4.000000,4.000000,4.000000,4.000000,4.000000,4.000000,4.000000,4.000000,4.000000,4.000000,4.000000,4.000000,4.000000,4.000000,4.000000,4.000000,100.000000
1615602355.116811,116.000000,0.000000,7.667300,9.982211,-1.143151,-3.607244,17.753391,26.339552,20.949413,11.216497,16.551094,19.578470,44.969868,14.203577,25.182171,41.144833,21.553663,52.669971,35.500652,40.925804,5.707198,27.141621,13.441558,0.081314,15.051469,-0.674546,42.442188,30.039921,12.992077,7.409449,2.345513,40.826717,14.814628,0.743508,8064.000000,0.000000,4.000000,,,,0.000000,4.000000,4.000000,4.000000,4.000000,4.000000,4.000000,4.000000,4.000000,4.000000,4.000000,4.000000,4.000000,4.000000,4.000000,4.000000,4.000000,4.000000,4.000000,4.000000,4.000000,4.000000,4.000000,4.000000,4.000000,4.000000,4.000000,4.000000,4.000000,4.000000,4.000000,4.000000,4.000000,100.000000
1615602355.124461,117.000000,0.000000,7.659633,9.972229,-0.629188,-8.731842,18.248459,26.826033,20.928465,1.974512,14.996081,19.046072,38.258228,14.189373,14.387758,27.257532,16.403904,36.207047,34.952332,34.218212,6.727131,21.986275,7.274270,2.132515,15.549238,0.864590,39.322823,30.522701,12.979085,7.402040,2.855988,41.298710,14.799812,-3.359799,8064.000000,0.000000,4.000000,,,,0.000000,4.000000,4.000000,4.000000,4.000000,4.000000,4.000000,4.000000,4.000000,4.000000,4.000000,4.000000,4.000000,4.000000,4.000000,4.000000,4.000000,4.000000,4.000000,4.000000,4.000000,4.000000,4.000000,4.000000,4.000000,4.000000,4.000000,4.000000,4.000000,4.000000,4.000000,4.000000,4.000000,100.000000
1615602355.132210,118.000000,0.000000,7.651973,9.962256,-0.628558,-8.210290,18.230209,26.799206,21.420357,1.972537,13.442623,19.027025,37.194332,14.175183,14.373370,23.127710,10.233655,30.016993,26.199432,26.491686,-4.048827,-0.086994,0.600329,0.591921,14.508048,0.350905,38.770679,30.492178,12.966105,7.394637,2.340312,38.180489,14.785013,-7.971824,8064.000000,0.000000,4.000000,,,,0.000000,4.000000,4.000000,4.000000,4.000000,4.000000,4.000000,4.000000,4.000000,4.000000,4.000000,4.000000,4.000000,4.000000,4.000000,4.000000,4.000000,4.000000,4.000000,4.000000,4.000000,4.000000,4.000000,4.000000,4.000000,4.000000,4.000000,4.000000,4.000000,4.000000,4.000000,4.000000,4.000000,100.000000
1615602355.139859,119.000000,0.000000,7.644321,9.439474,-0.627930,-7.689259,18.211979,26.259586,20.886116,4.534667,12.403540,19.520819,37.669956,14.673829,16.410278,23.104584,11.249063,33.576717,18.993746,24.926733,-21.993496,-9.830497,4.189472,0.591329,17.057642,-4.777651,44.372932,29.948866,13.465960,7.387243,3.363612,38.142307,14.770227,-7.451032,8064.000000,0.000000,4.000000,,,,0.000000,4.000000,4.000000,4.000000,4.000000,4.000000,4.000000,4.000000,4.000000,4.000000,4.000000,4.000000,4.000000,4.000000,4.000000,4.000000,4.000000,4.000000,4.000000,4.000000,4.000000,4.000000,4.000000,4.000000,4.000000,4.000000,4.000000,4.000000,4.000000,4.000000,4.000000,4.000000,4.000000,100.000000
1615602355.147609,120.000000,0.000000,7.636676,10.455676,-0.627302,-8.194390,18.706589,26.746147,20.865229,1.966030,11.878316,18.988478,40.709209,14.659155,16.906689,26.158401,20.981403,34.568783,22.564495,26.440268,-8.638169,7.615232,23.672462,10.334328,24.220072,-4.260053,50.482407,31.970198,16.016596,7.379855,7.462813,46.309292,15.268278,-0.776914,8064.000000,0.000000,4.000000,,,,0.000000,4.000000,4.000000,4.000000,4.000000,4.000000,4.000000,4.000000,4.000000,4.000000,4.000000,4.000000,4.000000,4.000000,4.000000,4.000000,4.000000,4.000000,4.000000,4.000000,4.000000,4.000000,4.000000,4.000000,4.000000,4.000000,4.000000,4.000000,4.000000,4.000000,4.000000,4.000000,4.000000,100.000000
1615602355.155258,121.000000,0.000000,7.629040,13.009322,-0.626675,-5.622093,18.175060,27.232222,20.844364,3.502525,10.840796,20.507952,44.258244,13.618855,19.966705,33.311729,31.729652,39.149597,27.157314,25.901007,15.985854,20.428129,36.469303,19.554762,26.759954,6.000618,50.431923,33.989510,17.026220,7.372476,10.532273,52.416832,14.740190,4.352068,8064.000000,0.000000,4.000000,,,,0.000000,4.000000,4.000000,4.000000,4.000000,4.000000,4.000000,4.000000,4.000000,4.000000,4.000000,4.000000,4.000000,4.000000,4.000000,4.000000,4.000000,4.000000,4.000000,4.000000,4.000000,4.000000,4.000000,4.000000,4.000000,4.000000,4.000000,4.000000,4.000000,4.000000,4.000000,4.000000,4.000000,100.000000
1615602355.163007,122.000000,0.000000,7.621411,14.021955,-1.138868,-4.078010,18.156885,26.179348,20.823521,14.781075,13.906878,23.051546,45.752449,14.118056,22.510841,39.945087,36.313309,46.802757,26.617338,24.336645,0.585253,8.100009,33.355911,17.483925,23.656271,8.045898,50.381493,33.955521,14.445092,7.365103,10.008921,52.877235,14.212628,3.322075,8064.000000,0.000000,4.000000,,,,0.000000,4.000000,4.000000,4.000000,4.000000,4.000000,4.000000,4.000000,4.000000,4.000000,4.000000,4.000000,4.000000,4.000000,4.000000,4.000000,4.000000,4.000000,4.000000,4.000000,4.000000,4.000000,4.000000,4.000000,4.000000,4.000000,4.000000,4.000000,4.000000,4.000000,4.000000,4.000000,4.000000,100.000000
1615602355.170657,123.000000,0.000000,7.613790,13.495111,-0.112088,-4.073932,19.164370,27.178810,20.802696,19.894499,19.021177,23.028494,46.219517,15.129580,24.026793,40.930782,33.200069,44.191853,26.590719,26.876410,-11.723024,-0.626040,32.296913,16.953621,23.119795,4.448109,50.843933,33.921566,12.892185,7.870558,9.998911,52.311535,15.736877,4.857214,8064.000000,0.000000,4.000000,,,,0.000000,4.000000,4.000000,4.000000,4.000000,4.000000,4.000000,4.000000,4.000000,4.000000,4.000000,4.000000,4.000000,4.000000,4.000000,4.000000,4.000000,4.000000,4.000000,4.000000,4.000000,4.000000,4.000000,4.000000,4.000000,4.000000,4.000000,4.000000,4.000000,4.000000,4.000000,4.000000,4.000000,100.000000
1615602355.178406,124.000000,0.000000,6.067714,13.481617,-1.137617,-4.069858,16.068283,27.151630,20.781893,9.618194,14.386771,19.928543,44.634834,8.960604,23.489944,34.223183,25.987383,35.429710,27.076950,29.413637,13.929724,4.502791,31.751795,14.885386,21.558212,4.956482,47.203342,33.887642,12.879293,6.324226,10.501733,48.156662,13.157038,8.442101,8064.000000,0.000000,4.000000,,,,0.000000,4.000000,4.000000,4.000000,4.000000,4.000000,4.000000,4.000000,4.000000,4.000000,4.000000,4.000000,4.000000,4.000000,4.000000,4.000000,4.000000,4.000000,4.000000,4.000000,4.000000,4.000000,4.000000,4.000000,4.000000,4.000000,4.000000,4.000000,4.000000,4.000000,4.000000,4.000000,4.000000,100.000000
1615602355.186055,125.000000,0.000000,3.497544,13.468135,-4.726223,-4.065788,8.359906,20.970633,20.248291,-0.647835,4.628795,17.857332,35.872250,-0.791946,20.902353,23.932550,22.371653,34.368641,27.049873,23.743196,10.838871,0.395724,16.848249,2.562808,16.408449,-0.176680,42.540756,33.853756,12.866414,4.266620,7.927129,41.441837,6.477214,6.382377,8064.000000,0.000000,4.000000,,,,0.000000,4.000000,4.000000,4.000000,4.000000,4.000000,4.000000,4.000000,4.000000,4.000000,4.000000,4.000000,4.000000,4.000000,4.000000,4.000000,4.000000,4.000000,4.000000,4.000000,4.000000,4.000000,4.000000,4.000000,4.000000,4.000000,4.000000,4.000000,4.000000,4.000000,4.000000,4.000000,4.000000,100.000000
1615602355.193805,126.000000,0.000000,4.006867,13.454667,-4.208677,-4.061722,2.710521,15.308638,21.253683,-0.647187,4.111345,15.788193,30.708174,-0.791155,19.342989,19.293234,24.400562,35.872734,27.022823,21.155352,-21.479660,-11.399543,3.498068,-6.157704,16.392042,-12.997016,41.472572,33.819901,12.853548,3.236712,5.867919,39.861935,8.522019,4.324712,8064.000000,0.000000,4.000000,,,,0.000000,4.000000,4.000000,4.000000,4.000000,4.000000,4.000000,4.000000,4.000000,4.000000,4.000000,4.000000,4.000000,4.000000,4.000000,4.000000,4.000000,4.000000,4.000000,4.000000,4.000000,4.000000,4.000000,4.000000,4.000000,4.000000,4.000000,4.000000,4.000000,4.000000,4.000000,4.000000,4.000000,100.000000
1615602355.201454,127.000000,0.000000,6.566962,13.954033,1.436558,-2.006378,3.220631,15.293328,23.796534,0.891922,8.209798,15.259583,33.241570,5.876303,19.323647,20.812403,18.222317,30.195835,26.482979,28.826504,-15.817155,-9.849682,4.520210,-0.510520,19.452572,-16.573763,42.969563,33.786083,12.840694,3.746296,8.938974,40.847713,17.231445,5.858849,8064.000000,0.000000,4.000000,,,,0.000000,4.000000,4.000000,4.000000,4.000000,4.000000,4.000000,4.000000,4.000000,4.000000,4.000000,4.000000,4.000000,4.000000,4.000000,4.000000,4.000000,4.000000,4.000000,4.000000,4.000000,4.000000,4.000000,4.000000,4.000000,4.000000,4.000000,4.000000,4.000000,4.000000,4.000000,4.000000,4.000000,100.000000
1615602355.209204,0.000000,0.000000,8.098857,12.401617,1.435121,-2.004372,5.781513,15.278035,24.285557,-1.673073,8.201589,15.757145,31.157043,7.408888,17.253040,20.278769,2.819479,26.575895,26.969316,23.156651,-2.980825,-7.275730,4.515690,2.054093,17.381838,-11.941804,42.413773,33.752296,12.827853,3.742550,10.468497,39.781223,15.675753,3.288888,0.000000,197.000000,4.000000,,,,0.000000,4.000000,4.000000,4.000000,4.000000,4.000000,4.000000,4.000000,4.000000,4.000000,4.000000,4.000000,4.000000,4.000000,4.000000,4.000000,4.000000,4.000000,4.000000,4.000000,4.000000,4.000000,4.000000,4.000000,4.000000,4.000000,4.000000,4.000000,4.000000,4.000000,4.000000,4.000000,4.000000,100.000000
1615602355.216853,1.000000,0.000000,7.577938,10.337934,-3.694519,-4.053650,6.801373,15.262757,21.697168,-0.132938,6.654925,15.228567,25.484861,5.350198,14.158864,19.232849,-0.260264,32.703167,26.942348,4.671957,-25.541946,-14.447942,-1.642672,0.000756,12.749071,-11.417042,40.832897,33.718544,12.815025,3.738807,7.381105,41.279903,10.531872,0.208676,0.000000,182.000000,4.000000,,,,0.000000,4.000000,4.000000,4.000000,4.000000,4.000000,4.000000,4.000000,4.000000,4.000000,4.000000,4.000000,4.000000,4.000000,4.000000,4.000000,4.000000,4.000000,4.000000,4.000000,4.000000,4.000000,4.000000,4.000000,4.000000,4.000000,4.000000,4.000000,4.000000,4.000000,4.000000,4.000000,4.000000,100.000000
1615602355.224602,2.000000,0.000000,7.570360,9.301954,-2.665184,-4.562417,7.307392,19.862879,20.137011,4.995400,8.699553,15.213339,26.997839,7.908950,16.708807,20.239258,8.457945,33.183285,26.402584,7.744207,-30.131790,-9.818109,2.461535,5.128961,10.685040,-10.892804,44.894630,33.684826,12.802211,3.735069,6.860904,43.802727,14.111084,4.311031,0.000000,209.000000,4.000000,,,,0.000000,4.000000,4.000000,4.000000,4.000000,4.000000,4.000000,4.000000,4.000000,4.000000,4.000000,4.000000,4.000000,4.000000,4.000000,4.000000,4.000000,4.000000,4.000000,4.000000,4.000000,4.000000,4.000000,4.000000,4.000000,4.000000,4.000000,4.000000,4.000000,4.000000,4.000000,4.000000,4.000000,100.000000
1615602355.232252,3.000000,0.000000,7.562789,9.805473,0.414405,-3.532213,9.864187,23.432760,20.629694,7.554507,13.819057,17.762228,30.047764,13.029246,21.820303,20.731838,11.013590,30.585997,27.914644,27.736464,-0.358068,10.191710,16.305227,12.303319,11.187176,-4.728065,52.029221,33.651142,12.789409,3.731333,11.982248,44.271744,19.225178,8.409284,0.000000,221.000000,4.000000,,,,0.000000,4.000000,4.000000,4.000000,4.000000,4.000000,4.000000,4.000000,4.000000,4.000000,4.000000,4.000000,4.000000,4.000000,4.000000,4.000000,4.000000,4.000000,4.000000,4.000000,4.000000,4.000000,4.000000,4.000000,4.000000,4.000000,4.000000,4.000000,4.000000,4.000000,4.000000,4.000000,4.000000,100.000000
1615602355.239901,4.000000,0.000000,7.555227,10.308488,-2.662933,-4.041502,11.392784,22.896507,20.609064,7.546952,16.369341,19.795748,31.043358,15.067499,23.336945,19.685467,13.566678,38.760540,30.450832,34.888214,15.539726,21.463570,21.417128,13.829477,16.304193,1.430509,54.028473,34.130310,13.289439,3.727602,14.534369,44.740295,18.693132,7.375234,0.000000,184.000000,4.000000,,,,0.000000,4.000000,4.000000,4.000000,4.000000,4.000000,4.000000,4.000000,4.000000,4.000000,4.000000,4.000000,4.000000,4.000000,4.000000,4.000000,4.000000,4.000000,4.000000,4.000000,4.000000,4.000000,4.000000,4.000000,4.000000,4.000000,4.000000,4.000000,4.000000,4.000000,4.000000,4.000000,4.000000,100.000000
1615602355.247650,5.000000,0.000000,7.547671,9.785359,-4.711552,-3.011819,10.868571,22.873610,20.588455,7.026585,15.840152,19.775951,32.037956,14.026791,22.800787,22.229883,26.886446,46.414085,30.933201,34.340504,9.370340,18.878002,21.395710,12.277186,21.928915,1.429078,53.461624,33.070538,12.250509,3.211054,13.494193,43.669914,17.648798,7.880679,0.000000,179.000000,4.000000,,,,0.000000,4.000000,4.000000,4.000000,4.000000,4.000000,4.000000,4.000000,4.000000,4.000000,4.000000,4.000000,4.000000,4.000000,4.000000,4.000000,4.000000,4.000000,4.000000,4.000000,4.000000,4.000000,4.000000,4.000000,4.000000,4.000000,4.000000,4.000000,4.000000,4.000000,4.000000,4.000000,4.000000,100.000000
1615602355.255300,6.000000,0.000000,7.532584,9.253490,-5.212903,-0.955542,10.334537,25.391989,20.034477,6.500231,17.860281,18.197958,35.049809,12.974135,22.242901,32.952110,48.870647,54.518742,30.358032,36.836475,4.742378,15.765906,34.686275,10.715721,28.546104,-0.112240,54.893730,32.492638,12.227046,3.205148,12.442603,44.096462,17.101723,10.428515,0.000000,208.000000,4.000000,,,,0.000000,4.000000,4.000000,4.000000,4.000000,4.000000,4.000000,4.000000,4.000000,4.000000,4.000000,4.000000,4.000000,4.000000,4.000000,4.000000,4.000000,4.000000,4.000000,4.000000,4.000000,4.000000,4.000000,4.000000,4.000000,4.000000,4.000000,4.000000,4.000000,4.000000,4.000000,4.000000,4.000000,100.000000
1615602355.263049,7.000000,0.000000,7.525051,9.757057,-2.130767,1.096696,12.888305,27.417879,20.527264,7.006551,21.944986,19.205400,39.117321,13.473982,22.733479,39.073006,48.821777,60.105247,31.866137,38.338100,16.019688,20.365526,49.523384,12.243467,29.030380,1.426334,56.890118,35.537067,16.317383,5.253225,12.942981,51.231853,17.597443,12.469369,0.000000,200.000000,4.000000,,,,0.000000,4.000000,4.000000,4.000000,4.000000,4.000000,4.000000,4.000000,4.000000,4.000000,4.000000,4.000000,4.000000,4.000000,4.000000,4.000000,4.000000,4.000000,4.000000,4.000000,4.000000,4.000000,4.000000,4.000000,4.000000,4.000000,4.000000,4.000000,4.000000,4.000000,4.000000,4.000000,4.000000,100.000000
1615602355.270699,8.000000,0.000000,7.517526,7.183198,-2.128636,1.608420,14.413878,25.339178,21.019558,5.973904,19.871759,19.699017,38.052563,13.460508,22.710745,37.495472,47.747314,65.173347,31.321449,36.248478,10.362642,13.678493,35.627705,10.692761,29.001348,4.501831,56.833229,34.988708,14.762604,7.299254,12.417217,53.744724,16.554203,11.431258,0.000000,192.000000,4.000000,,,,0.000000,4.000000,4.000000,4.000000,4.000000,4.000000,4.000000,4.000000,4.000000,4.000000,4.000000,4.000000,4.000000,4.000000,4.000000,4.000000,4.000000,4.000000,4.000000,4.000000,4.000000,4.000000,4.000000,4.000000,4.000000,4.000000,4.000000,4.000000,4.000000,4.000000,4.000000,4.000000,4.000000,100.000000
1615602355.278548,9.000000,0.000000,7.510008,3.073451,-9.818815,-7.111137,13.886643,20.185635,18.947256,3.403827,12.672400,14.551112,28.783743,12.934227,21.149572,32.842590,38.981617,57.928688,25.649103,34.673767,-12.724644,-2.745442,8.925410,2.476941,20.767220,3.984508,54.725113,28.287054,8.593995,6.779134,12.404800,47.024311,14.486367,4.753160,0.000000,191.000000,4.000000,,,,0.000000,4.000000,4.000000,4.000000,4.000000,4.000000,4.000000,4.000000,4.000000,4.000000,4.000000,4.000000,4.000000,4.000000,4.000000,4.000000,4.000000,4.000000,4.000000,4.000000,4.000000,4.000000,4.000000,4.000000,4.000000,4.000000,4.000000,4.000000,4.000000,4.000000,4.000000,4.000000,4.000000,100.000000
1615602355.286298,10.000000,0.000000,7.502499,1.019095,-15.450022,-14.283514,13.872757,18.114166,17.389847,2.374783,7.018702,11.459638,23.113934,10.870010,17.025860,30.245646,26.634945,47.101528,23.059351,35.664738,-18.865765,-6.332440,0.198536,-3.166562,13.566965,-1.660502,51.080643,23.643381,8.585402,6.772355,12.392395,41.849083,12.933419,0.133023,0.000000,217.000000,4.000000,,,,0.000000,4.000000,4.000000,4.000000,4.000000,4.000000,4.000000,4.000000,4.000000,4.000000,4.000000,4.000000,4.000000,4.000000,4.000000,4.000000,4.000000,4.000000,4.000000,4.000000,4.000000,4.000000,4.000000,4.000000,4.000000,4.000000,4.000000,4.000000,4.000000,4.000000,4.000000,4.000000,4.000000,100.000000
1615602355.294047,11.000000,0.000000,7.494996,3.069358,-4.665341,-8.115384,13.858885,23.224257,19.423738,4.936510,8.037324,19.653307,23.603640,9.320679,13.931911,30.728222,21.992926,37.310837,24.574753,26.911123,-23.462284,-5.813287,0.198338,-4.701857,15.604680,-3.710124,48.465462,25.158199,11.653739,6.765583,12.380003,42.832874,13.946127,7.312377,0.000000,217.000000,4.000000,,,,0.000000,4.000000,4.000000,4.000000,4.000000,4.000000,4.000000,4.000000,4.000000,4.000000,4.000000,4.000000,4.000000,4.000000,4.000000,4.000000,4.000000,4.000000,4.000000,4.000000,4.000000,4.000000,4.000000,4.000000,4.000000,4.000000,4.000000,4.000000,4.000000,4.000000,4.000000,4.000000,4.000000,100.000000
1615602355.301697,12.000000,0.000000,7.487501,5.117571,5.082914,0.610680,13.845025,26.790777,21.455597,6.982856,10.593390,27.838781,24.092855,9.311358,13.917978,30.697493,19.919649,30.606859,17.370691,8.935493,-51.643951,-22.217730,-3.391604,-8.286899,17.127537,-3.193593,48.416996,27.697144,7.539521,6.758817,12.880444,43.302864,17.009104,14.997373,0.000000,176.000000,4.000000,,,,0.000000,4.000000,4.000000,4.000000,4.000000,4.000000,4.000000,4.000000,4.000000,4.000000,4.000000,4.000000,4.000000,4.000000,4.000000,4.000000,4.000000,4.000000,4.000000,4.000000,4.000000,4.000000,4.000000,4.000000,4.000000,4.000000,4.000000,4.000000,4.000000,4.000000,4.000000,4.000000,4.000000,100.000000
1615602355.309446,13.000000,0.000000,7.480013,5.625274,-4.152938,1.122890,13.831181,24.712704,18.870039,5.950232,11.095616,24.734020,24.581585,9.302047,18.006624,29.128334,22.463833,32.627533,11.712295,8.413737,-45.951279,-22.195513,3.791275,-8.278611,17.110409,-6.267322,48.368580,28.182268,3.942238,6.752058,10.816281,42.233917,15.966454,13.443913,0.000000,200.000000,4.000000,,,,0.000000,4.000000,4.000000,4.000000,4.000000,4.000000,4.000000,4.000000,4.000000,4.000000,4.000000,4.000000,4.000000,4.000000,4.000000,4.000000,4.000000,4.000000,4.000000,4.000000,4.000000,4.000000,4.000000,4.000000,4.000000,4.000000,4.000000,4.000000,4.000000,4.000000,4.000000,4.000000,4.000000,100.000000
1615602355.317095,14.000000,0.000000,7.472533,5.619648,-10.302631,-0.416694,13.817349,22.123888,16.799887,5.944282,10.058880,22.145184,29.172386,9.292745,24.142464,30.124847,34.236240,39.261574,24.008274,27.892504,-13.084817,8.083094,19.684919,-2.116487,22.221504,-6.773876,48.320210,28.154085,9.066501,6.745306,8.754183,41.678864,11.335103,9.840726,0.000000,192.000000,4.000000,,,,0.000000,4.000000,4.000000,4.000000,4.000000,4.000000,4.000000,4.000000,4.000000,4.000000,4.000000,4.000000,4.000000,4.000000,4.000000,4.000000,4.000000,4.000000,4.000000,4.000000,4.000000,4.000000,4.000000,4.000000,4.000000,4.000000,4.000000,4.000000,4.000000,4.000000,4.000000,4.000000,4.000000,100.000000
1615602355.324845,15.000000,0.000000,7.465061,5.614029,0.476902,1.122184,13.803532,22.614586,16.783087,6.451158,11.074462,23.148678,31.707317,9.283452,26.682425,30.094721,41.381493,41.273594,31.163754,36.582558,-8.969168,12.177574,25.306261,0.449732,23.224924,-0.613255,48.784710,29.151573,12.647178,6.738561,8.745428,42.150005,9.785306,12.394988,0.000000,183.000000,4.000000,,,,0.000000,4.000000,4.000000,4.000000,4.000000,4.000000,4.000000,4.000000,4.000000,4.000000,4.000000,4.000000,4.000000,4.000000,4.000000,4.000000,4.000000,4.000000,4.000000,4.000000,4.000000,4.000000,4.000000,4.000000,4.000000,4.000000,4.000000,4.000000,4.000000,4.000000,4.000000,4.000000,4.000000,100.000000
1615602355.332494,16.000000,0.000000,7.457596,5.608415,7.143092,1.633882,13.789728,22.591970,16.253483,5.931886,11.063388,21.074247,30.649969,9.274169,25.630100,25.449242,37.750366,41.232319,17.799257,27.828028,-27.421738,-10.911527,23.229671,-0.576358,18.073494,0.925819,46.684643,27.071138,11.608890,6.731822,9.249503,42.620678,10.288342,15.459516,0.000000,183.000000,4.000000,,,,0.000000,4.000000,4.000000,4.000000,4.000000,4.000000,4.000000,4.000000,4.000000,4.000000,4.000000,4.000000,4.000000,4.000000,4.000000,4.000000,4.000000,4.000000,4.000000,4.000000,4.000000,4.000000,4.000000,4.000000,4.000000,4.000000,4.000000,4.000000,4.000000,4.000000,4.000000,4.000000,4.000000,100.000000
1615602355.340243,17.000000,0.000000,6.937318,5.602806,2.007744,0.093787,13.775939,22.056559,16.750051,5.925954,10.026683,18.489071,31.644960,9.264894,25.604471,23.372511,35.661335,40.678268,12.140431,22.671995,-15.599443,-12.439076,23.719263,-0.062962,16.004139,-4.203311,44.073856,24.479965,11.084460,6.725091,8.727433,40.526775,8.739592,14.418415,0.000000,186.000000,4.000000,,,,0.000000,4.000000,4.000000,4.000000,4.000000,4.000000,4.000000,4.000000,4.000000,4.000000,4.000000,4.000000,4.000000,4.000000,4.000000,4.000000,4.000000,4.000000,4.000000,4.000000,4.000000,4.000000,4.000000,4.000000,4.000000,4.000000,4.000000,4.000000,4.000000,4.000000,4.000000,4.000000,4.000000,100.000000
1615602355.347893,18.000000,0.000000,7.956021,5.597204,-0.045546,0.606513,13.762163,24.598604,20.835865,8.996951,12.067939,17.957762,36.741520,9.255630,25.578867,26.938883,36.138493,42.176052,21.871881,25.213427,-13.019741,-5.759971,23.182722,-1.088540,16.500954,-7.788852,44.542603,27.019588,11.073376,6.718365,10.257168,43.050350,11.294954,15.429638,0.000000,183.000000,4.000000,,,,0.000000,4.000000,4.000000,4.000000,4.000000,4.000000,4.000000,4.000000,4.000000,4.000000,4.000000,4.000000,4.000000,4.000000,4.000000,4.000000,4.000000,4.000000,4.000000,4.000000,4.000000,4.000000,4.000000,4.000000,4.000000,4.000000,4.000000,4.000000,4.000000,4.000000,4.000000,4.000000,4.000000,100.000000
1615602355.355642,19.000000,0.000000,9.999348,5.591606,3.544243,6.759753,13.748401,29.189390,24.917593,13.090519,16.671255,18.452625,39.268883,8.220733,25.553288,30.501686,36.102356,50.851822,24.926931,25.188211,-25.827234,-10.369596,23.159540,-0.061810,16.997274,-7.781063,48.087803,31.607952,11.062303,6.711647,13.323833,53.263710,19.488787,21.055233,0.000000,204.000000,4.000000,,,,0.000000,4.000000,4.000000,4.000000,4.000000,4.000000,4.000000,4.000000,4.000000,4.000000,4.000000,4.000000,4.000000,4.000000,4.000000,4.000000,4.000000,4.000000,4.000000,4.000000,4.000000,4.000000,4.000000,4.000000,4.000000,4.000000,4.000000,4.000000,4.000000,4.000000,4.000000,4.000000,4.000000,100.000000
1615602355.363292,20.000000,0.000000,11.527809,5.586015,5.079160,8.804276,13.734653,29.160200,23.354214,14.103069,18.705866,20.998274,38.203972,9.238153,25.527735,32.522469,35.553432,59.518921,21.825083,22.598921,-17.083458,-6.256661,23.649200,5.066457,16.467457,-4.696359,48.039715,32.601986,12.076881,6.704935,11.772048,57.313011,17.930838,20.008537,0.000000,184.000000,4.000000,,,,0.000000,4.000000,4.000000,4.000000,4.000000,4.000000,4.000000,4.000000,4.000000,4.000000,4.000000,4.000000,4.000000,4.000000,4.000000,4.000000,4.000000,4.000000,4.000000,4.000000,4.000000,4.000000,4.000000,4.000000,4.000000,4.000000,4.000000,4.000000,4.000000,4.000000,4.000000,4.000000,4.000000,100.000000
1615602355.371041,21.000000,0.000000,11.003461,5.580429,4.561261,0.590343,13.720918,26.054117,20.766756,13.576145,18.174339,22.002916,38.165768,9.228915,24.476564,36.592510,34.492237,60.485043,22.828897,27.191708,-16.040733,-1.122200,17.471706,6.599852,15.938169,-3.153201,45.940395,31.543743,10.013522,6.698230,4.580789,52.640312,6.630855,11.270580,0.000000,161.000000,4.000000,,,,0.000000,4.000000,4.000000,4.000000,4.000000,4.000000,4.000000,4.000000,4.000000,4.000000,4.000000,4.000000,4.000000,4.000000,4.000000,4.000000,4.000000,4.000000,4.000000,4.000000,4.000000,4.000000,4.000000,4.000000,4.000000,4.000000,4.000000,4.000000,4.000000,4.000000,4.000000,4.000000,4.000000,100.000000
1615602355.378690,22.000000,0.000000,10.479637,5.574848,4.043879,-2.999991,13.707196,25.515244,20.233170,13.562570,18.156166,23.006556,38.640423,7.681225,27.529013,38.094379,36.509026,59.398914,25.370173,39.472206,-25.255463,-0.608257,16.941414,8.131714,20.537615,-4.688509,54.099583,32.025021,12.054790,7.204352,0.473644,57.203056,5.598583,9.720848,0.000000,199.000000,4.000000,,,,0.000000,4.000000,4.000000,4.000000,4.000000,4.000000,4.000000,4.000000,4.000000,4.000000,4.000000,4.000000,4.000000,4.000000,4.000000,4.000000,4.000000,4.000000,4.000000,4.000000,4.000000,4.000000,4.000000,4.000000,4.000000,4.000000,4.000000,4.000000,4.000000,4.000000,4.000000,4.000000,4.000000,100.000000
1615602355.386440,23.000000,0.000000,11.494799,5.569273,4.552655,4.182496,13.693489,26.002548,20.212936,14.061828,18.650829,27.086113,38.088963,11.263288,33.142509,37.030643,41.087902,59.852337,27.908905,47.637863,-6.768669,15.289787,29.232164,15.815889,30.260666,-1.094077,69.430099,32.505814,21.273504,7.197148,3.550093,66.889442,10.208369,16.377794,0.000000,206.000000,4.000000,,,,0.000000,4.000000,4.000000,4.000000,4.000000,4.000000,4.000000,4.000000,4.000000,4.000000,4.000000,4.000000,4.000000,4.000000,4.000000,4.000000,4.000000,4.000000,4.000000,4.000000,4.000000,4.000000,4.000000,4.000000,4.000000,4.000000,4.000000,4.000000,4.000000,4.000000,4.000000,4.000000,4.000000,100.000000
1615602355.394089,24.000000,0.000000,13.534586,5.563704,4.035282,8.793698,13.166975,25.463724,20.192724,13.022124,17.606537,29.110310,37.025230,20.995613,36.699108,36.480793,42.072456,59.279663,33.009201,46.051765,9.648356,28.095011,36.895241,20.928278,35.358612,10.701889,75.001694,31.960489,26.893257,6.677131,5.085005,68.873833,8.146879,18.925518,0.000000,143.000000,4.000000,,,,0.000000,4.000000,4.000000,4.000000,4.000000,4.000000,4.000000,4.000000,4.000000,4.000000,4.000000,4.000000,4.000000,4.000000,4.000000,4.000000,4.000000,4.000000,2.000000,4.000000,4.000000,4.000000,4.000000,4.000000,4.000000,4.000000,4.000000,4.000000,4.000000,4.000000,4.000000,4.000000,4.000000,83.333336
1615602355.401838,25.000000,0.000000,15.059513,6.070961,3.518426,7.246443,13.666629,25.438261,19.659710,13.521923,18.614573,30.106840,38.013847,25.590002,37.175232,36.957130,43.056026,59.220387,39.130039,46.518532,9.638708,27.041275,38.909626,23.984274,35.323254,18.896315,73.388229,31.415707,26.353544,6.670454,4.054279,66.753677,10.702834,17.880953,0.000000,196.000000,4.000000,,,,0.000000,4.000000,4.000000,4.000000,4.000000,4.000000,4.000000,4.000000,4.000000,4.000000,4.000000,4.000000,4.000000,4.000000,4.000000,4.000000,4.000000,4.000000,2.000000,4.000000,4.000000,4.000000,4.000000,4.000000,4.000000,4.000000,4.000000,4.000000,4.000000,4.000000,4.000000,4.000000,4.000000,83.333336
1615602355.409488,26.000000,0.000000,15.044454,4.013608,6.591831,8.777658,13.652963,25.925644,20.665691,14.021221,21.160061,31.102373,39.514294,23.513130,36.112415,37.945816,46.602711,60.186806,42.167831,48.523296,15.270095,28.552694,46.050205,29.601315,36.826389,20.415880,73.827660,32.409931,27.352831,7.689424,5.588686,67.199745,21.974182,17.863071,0.000000,194.000000,4.000000,,,,0.000000,4.000000,4.000000,4.000000,4.000000,4.000000,4.000000,4.000000,4.000000,4.000000,4.000000,4.000000,4.000000,4.000000,4.000000,4.000000,4.000000,4.000000,2.000000,4.000000,4.000000,4.000000,4.000000,4.000000,4.000000,4.000000,4.000000,4.000000,4.000000,4.000000,4.000000,4.000000,4.000000,83.333336
1615602355.417237,27.000000,0.000000,14.003768,1.958312,9.149342,11.845803,13.126489,25.386898,20.645025,11.955918,22.677362,25.943066,36.397858,20.925514,31.460918,36.369408,42.966366,58.588158,37.510277,41.295284,1.408671,15.190808,46.516975,23.417868,31.661360,18.344183,72.215370,32.377522,22.710094,3.066350,5.070277,67.645370,22.465029,18.358028,0.000000,197.000000,4.000000,,,,0.000000,4.000000,4.000000,4.000000,4.000000,4.000000,4.000000,4.000000,4.000000,4.000000,4.000000,4.000000,4.000000,4.000000,4.000000,4.000000,4.000000,4.000000,2.000000,4.000000,4.000000,4.000000,4.000000,4.000000,4.000000,4.000000,4.000000,4.000000,4.000000,4.000000,4.000000,4.000000,4.000000,83.333336
1615602355.424887,28.000000,0.000000,11.425662,1.443533,6.576090,11.833958,16.190285,26.387152,19.598740,10.405500,21.116222,27.968405,38.925564,19.366127,27.326893,36.333038,39.846478,59.555210,29.267639,35.100143,-15.515815,-4.311562,37.239689,14.163680,22.398930,13.197633,67.527771,30.806684,14.482255,-4.116204,4.552386,67.064903,16.288717,19.878132,0.000000,174.000000,4.000000,,,,0.000000,4.000000,4.000000,4.000000,4.000000,4.000000,4.000000,4.000000,4.000000,4.000000,4.000000,4.000000,4.000000,4.000000,4.000000,4.000000,4.000000,4.000000,2.000000,4.000000,4.000000,4.000000,4.000000,4.000000,4.000000,4.000000,4.000000,4.000000,4.000000,4.000000,4.000000,4.000000,4.000000,83.333336
1615602355.432636,29.000000,0.000000,10.388595,1.954910,10.159257,11.309303,20.276659,28.924868,21.117603,14.497660,21.607927,43.325050,53.245609,20.885223,30.376490,46.553116,46.473297,66.675140,31.802475,42.757351,8.089445,11.590185,38.228088,20.303364,26.479094,10.620333,65.921783,32.827160,18.570337,-3.599267,10.701680,66.997833,21.913454,21.909536,0.000000,168.000000,4.000000,,,,0.000000,4.000000,4.000000,4.000000,4.000000,4.000000,4.000000,4.000000,4.000000,4.000000,4.000000,4.000000,4.000000,4.000000,4.000000,4.000000,4.000000,4.000000,2.000000,4.000000,4.000000,4.000000,4.000000,4.000000,4.000000,4.000000,4.000000,4.000000,4.000000,4.000000,4.000000,4.000000,4.000000,83.333336
1615602355.440285,30.000000,0.000000,11.403848,1.440135,20.405508,11.297994,21.794844,29.921583,22.634947,18.585726,25.176064,43.281727,54.218006,19.838697,31.371754,53.686050,46.426823,65.070007,36.386055,45.791519,15.773664,21.322186,35.625759,18.231777,30.042358,12.660995,64.830223,35.871254,21.115870,2.558179,16.844824,65.392380,26.506926,21.887627,0.000000,192.000000,4.000000,,,,0.000000,4.000000,4.000000,4.000000,4.000000,4.000000,4.000000,4.000000,4.000000,4.000000,4.000000,4.000000,4.000000,4.000000,4.000000,4.000000,4.000000,4.000000,2.000000,4.000000,4.000000,4.000000,4.000000,4.000000,4.000000,4.000000,4.000000,4.000000,4.000000,4.000000,4.000000,4.000000,4.000000,83.333336
1615602355.448035,31.000000,0.000000,9.853982,2.464336,20.385103,11.799517,19.208946,29.378841,18.509748,16.003038,24.638065,23.751266,34.676609,8.023987,22.109612,41.324673,33.559883,52.697243,25.067619,34.976494,-16.549803,-9.468368,13.538852,-3.324916,13.089239,4.956026,58.611546,30.707178,8.787061,3.581261,9.648493,63.788525,16.224009,21.865740,0.000000,190.000000,4.000000,,,,0.000000,4.000000,4.000000,4.000000,4.000000,4.000000,4.000000,4.000000,4.000000,4.000000,4.000000,4.000000,4.000000,4.000000,4.000000,4.000000,4.000000,4.000000,2.000000,4.000000,4.000000,4.000000,4.000000,4.000000,4.000000,4.000000,4.000000,4.000000,4.000000,4.000000,4.000000,4.000000,4.000000,83.333336
1615602355.455684,32.000000,0.000000,7.280025,1.949051,12.159590,11.274897,17.651276,29.862282,12.337392,10.858829,16.921120,15.522387,24.898342,-2.240448,17.472118,29.488474,29.423759,45.977879,15.298962,29.300493,-25.251202,-19.202490,3.781723,-12.552361,4.358201,-11.972007,53.937550,23.496984,4.162889,2.552039,0.920895,62.186272,8.002657,21.843874,8064.000000,0.000000,4.000000,,,,0.000000,4.000000,4.000000,4.000000,4.000000,4.000000,4.000000,4.000000,4.000000,4.000000,4.000000,4.000000,4.000000,4.000000,4.000000,4.000000,4.000000,4.000000,2.000000,4.000000,4.000000,4.000000,4.000000,4.000000,4.000000,4.000000,4.000000,4.000000,4.000000,4.000000,4.000000,4.000000,4.000000,83.333336
1615602355.463333,33.000000,0.000000,6.759925,1.434281,11.121789,11.263621,17.120804,29.319599,12.325054,9.309509,13.827276,19.609428,34.104214,2.889998,24.634132,38.689754,34.522541,48.496002,22.463150,33.373756,-3.687489,0.816713,17.624094,-3.309038,22.302561,-15.549779,53.883610,28.088873,15.440778,3.062308,2.971256,62.636909,9.020295,21.822029,8064.000000,0.000000,4.000000,,,,0.000000,4.000000,4.000000,4.000000,4.000000,4.000000,4.000000,4.000000,4.000000,4.000000,4.000000,4.000000,4.000000,4.000000,4.000000,4.000000,4.000000,4.000000,2.000000,4.000000,4.000000,4.000000,4.000000,4.000000,4.000000,4.000000,4.000000,4.000000,4.000000,4.000000,4.000000,4.000000,4.000000,83.333336
1615602355.471083,34.000000,0.000000,7.265985,3.996950,11.623487,11.765179,17.103683,29.803101,13.338370,9.813020,18.941654,18.564178,38.685493,12.630697,30.250525,46.856194,35.513660,48.447510,28.081713,33.853203,-11.888929,0.303076,23.760317,0.796835,36.126411,-2.200896,54.855370,33.701809,20.553543,3.572066,6.045208,64.625549,10.036916,21.800207,8064.000000,0.000000,4.000000,,,,0.000000,4.000000,4.000000,4.000000,4.000000,4.000000,4.000000,4.000000,4.000000,4.000000,4.000000,4.000000,4.000000,4.000000,4.000000,4.000000,4.000000,4.000000,2.000000,4.000000,4.000000,4.000000,4.000000,4.000000,4.000000,4.000000,4.000000,4.000000,4.000000,4.000000,4.000000,4.000000,4.000000,83.333336
1615602355.478832,35.000000,0.000000,7.258719,5.531415,6.483659,10.727772,17.086580,29.773298,12.299391,9.803207,21.999636,17.007153,36.082706,13.130887,27.143351,38.604210,32.401222,43.270855,23.438246,31.255249,-27.261656,-10.979279,17.069889,-1.768065,28.910799,5.493613,53.774872,25.462978,15.404783,3.055673,4.500701,56.355801,8.488418,21.778408,8064.000000,0.000000,4.000000,,,,0.000000,4.000000,4.000000,4.000000,4.000000,4.000000,4.000000,4.000000,4.000000,4.000000,4.000000,4.000000,4.000000,4.000000,4.000000,4.000000,4.000000,4.000000,2.000000,4.000000,4.000000,4.000000,4.000000,4.000000,4.000000,4.000000,4.000000,4.000000,4.000000,4.000000,4.000000,4.000000,4.000000,83.333336
1615602355.486481,36.000000,0.000000,7.251461,-1.140784,3.400252,6.614480,17.069494,26.153780,12.287091,9.280583,21.464815,18.015785,37.072266,11.579295,24.552105,28.822016,30.830360,40.150661,21.876347,30.711172,-24.157471,-13.019581,15.514359,-0.740656,22.728043,0.359914,54.746738,16.719566,13.850917,3.052618,4.496201,42.453289,8.992749,21.756628,8064.000000,0.000000,4.000000,,,,0.000000,4.000000,4.000000,4.000000,4.000000,4.000000,4.000000,4.000000,4.000000,4.000000,4.000000,4.000000,4.000000,4.000000,4.000000,4.000000,4.000000,4.000000,2.000000,4.000000,4.000000,4.000000,4.000000,4.000000,4.000000,4.000000,4.000000,4.000000,4.000000,4.000000,4.000000,4.000000,4.000000,83.333336
1615602355.494231,37.000000,0.000000,7.244209,-6.267848,4.422493,4.043763,15.513963,19.973782,12.787625,10.296944,21.956171,17.997770,38.060833,13.106177,25.553194,28.793194,31.312351,40.110512,23.392931,31.193281,-21.569212,-14.545023,15.498844,0.798547,24.756596,-4.255830,54.691990,19.266951,15.888349,3.049565,5.517345,44.462116,10.009398,22.760513,8064.000000,0.000000,4.000000,,,,0.000000,4.000000,4.000000,4.000000,4.000000,4.000000,4.000000,4.000000,4.000000,4.000000,4.000000,4.000000,4.000000,4.000000,4.000000,4.000000,4.000000,4.000000,2.000000,4.000000,4.000000,4.000000,4.000000,4.000000,4.000000,4.000000,4.000000,4.000000,4.000000,4.000000,4.000000,4.000000,4.000000,83.333336
1615602355.501880,38.000000,0.000000,7.236965,-3.184657,4.930891,4.039720,12.934346,17.389704,12.774837,9.773827,21.421394,14.902849,38.022770,13.605891,25.527641,30.302862,31.793858,40.583221,23.369539,32.187729,-9.239950,-0.171504,18.560268,0.797748,24.731838,-2.713113,54.124477,21.298965,15.359639,3.046515,4.999008,55.186886,9.999389,22.224932,8064.000000,0.000000,4.000000,,,,0.000000,4.000000,4.000000,4.000000,4.000000,4.000000,4.000000,4.000000,4.000000,4.000000,4.000000,4.000000,4.000000,4.000000,4.000000,4.000000,4.000000,4.000000,2.000000,4.000000,4.000000,4.000000,4.000000,4.000000,4.000000,4.000000,4.000000,4.000000,4.000000,4.000000,4.000000,4.000000,4.000000,83.333336
1615602355.509630,39.000000,0.000000,7.229728,-1.130190,3.900319,4.035680,13.947053,18.397955,12.762062,9.764052,21.912794,13.862306,38.497570,12.566645,24.989292,28.734098,30.736423,40.029816,22.833349,30.104259,9.743649,20.854309,31.362221,2.848232,23.681467,-2.710400,55.095997,20.764845,14.318639,3.043469,4.994009,54.618881,8.963748,21.177067,8064.000000,0.000000,4.000000,,,,0.000000,4.000000,4.000000,4.000000,4.000000,4.000000,4.000000,4.000000,4.000000,4.000000,4.000000,4.000000,4.000000,4.000000,4.000000,4.000000,4.000000,4.000000,2.000000,4.000000,4.000000,4.000000,4.000000,4.000000,4.000000,4.000000,4.000000,4.000000,4.000000,4.000000,4.000000,4.000000,4.000000,83.333336
1615602355.517279,40.000000,0.000000,7.222498,-2.154701,4.922060,4.031644,16.497208,18.379559,12.749300,10.267109,22.403702,21.027929,41.023174,12.554078,25.477123,30.756645,31.218508,39.989788,22.810514,22.894669,3.580059,13.653968,34.407784,5.409487,23.657785,-3.733330,54.528080,25.872286,15.329961,3.040425,5.501835,50.974518,9.980425,23.207170,8064.000000,0.000000,4.000000,,,,0.000000,4.000000,4.000000,4.000000,4.000000,4.000000,4.000000,4.000000,4.000000,4.000000,4.000000,4.000000,4.000000,4.000000,4.000000,4.000000,4.000000,4.000000,2.000000,4.000000,4.000000,4.000000,4.000000,4.000000,4.000000,4.000000,4.000000,4.000000,4.000000,4.000000,4.000000,4.000000,4.000000,83.333336
1615602355.524928,41.000000,0.000000,7.728096,-2.152547,4.404317,4.540433,16.480711,17.848358,12.736551,9.744021,16.227451,26.135107,42.007793,13.054344,24.938826,33.802811,34.264214,40.462620,22.274885,19.794851,-11.295316,-1.744302,14.373374,1.814334,21.582846,-3.216777,48.832523,26.872055,13.776170,3.037385,4.983513,51.949184,9.970445,19.081400,8064.000000,0.000000,4.000000,,,,0.000000,4.000000,4.000000,4.000000,4.000000,4.000000,4.000000,4.000000,4.000000,4.000000,4.000000,4.000000,4.000000,4.000000,4.000000,4.000000,4.000000,4.000000,2.000000,4.000000,4.000000,4.000000,4.000000,4.000000,4.000000,4.000000,4.000000,4.000000,4.000000,4.000000,4.000000,4.000000,4.000000,83.333336
1615602355.532678,42.000000,0.000000,6.181907,-1.637573,-0.215472,0.946149,12.361666,15.779227,12.723815,5.118893,7.493275,15.339742,38.376041,11.502829,21.324144,31.204906,35.255589,40.422157,18.150045,22.851978,-10.258379,-3.281019,-1.538435,-7.931070,19.509979,-3.213560,42.117027,17.101593,9.147009,3.034348,2.414427,48.307491,3.293808,5.728985,8064.000000,0.000000,4.000000,,,,0.000000,4.000000,4.000000,4.000000,4.000000,4.000000,4.000000,4.000000,4.000000,4.000000,4.000000,4.000000,4.000000,4.000000,4.000000,4.000000,4.000000,4.000000,2.000000,4.000000,4.000000,4.000000,4.000000,4.000000,4.000000,4.000000,4.000000,4.000000,4.000000,4.000000,4.000000,4.000000,4.000000,83.333336
1615602355.540427,43.000000,0.000000,4.124443,-1.635936,-6.369102,-3.157361,9.785202,14.224987,12.198270,2.036851,5.434500,3.529530,32.183819,8.927223,16.174614,24.507034,33.169052,40.381733,13.516511,18.726563,-17.427608,-8.405943,0.514385,-12.538524,19.490471,-3.210346,42.074909,11.956286,6.573760,3.031313,0.873551,44.669441,-2.350512,-1.456231,8064.000000,0.000000,4.000000,,,,0.000000,4.000000,4.000000,4.000000,4.000000,4.000000,4.000000,4.000000,4.000000,4.000000,4.000000,4.000000,4.000000,4.000000,4.000000,4.000000,4.000000,4.000000,2.000000,4.000000,4.000000,4.000000,4.000000,4.000000,4.000000,4.000000,4.000000,4.000000,4.000000,4.000000,4.000000,4.000000,4.000000,83.333336
1615602355.548076,44.000000,0.000000,3.094677,-1.634300,-7.388374,-3.667024,9.775416,14.723582,12.698893,3.060455,6.967527,4.038821,30.613173,8.405476,14.107158,21.918425,32.110241,40.854172,11.451712,8.964247,-38.948643,-22.756512,1.539512,-10.987524,19.983801,-3.207136,45.109756,13.995612,7.592827,3.028282,1.898318,47.188873,-1.322520,4.699071,8064.000000,0.000000,4.000000,,,,0.000000,4.000000,4.000000,4.000000,4.000000,4.000000,4.000000,4.000000,4.000000,4.000000,4.000000,4.000000,4.000000,4.000000,4.000000,4.000000,4.000000,4.000000,2.000000,4.000000,4.000000,4.000000,4.000000,4.000000,4.000000,4.000000,4.000000,4.000000,4.000000,4.000000,4.000000,4.000000,4.000000,83.333336
1615602355.555726,45.000000,0.000000,2.578762,-2.145486,-6.355345,-3.150537,8.227180,14.708858,13.199014,1.006112,6.447739,1.470679,30.069740,9.422711,14.093051,22.922148,31.052490,40.300499,11.440260,11.006564,-43.012257,-28.374781,-2.051771,-12.514998,19.450996,-3.716749,40.962082,12.955976,7.072413,3.538074,1.383599,47.654503,-2.346839,7.258475,8064.000000,0.000000,4.000000,,,,0.000000,4.000000,4.000000,4.000000,4.000000,4.000000,4.000000,4.000000,4.000000,4.000000,4.000000,4.000000,4.000000,4.000000,4.000000,4.000000,4.000000,4.000000,2.000000,4.000000,4.000000,4.000000,4.000000,4.000000,4.000000,4.000000,4.000000,4.000000,4.000000,4.000000,4.000000,4.000000,4.000000,83.333336
1615602355.563475,46.000000,0.000000,4.627465,-1.117700,-7.374630,-3.147386,6.167670,14.694150,11.647353,-2.071817,6.441291,0.443568,29.014029,8.387648,13.566137,20.847944,30.508617,39.234554,11.428820,20.739147,-24.507708,-18.602816,5.642588,-9.425560,19.944365,-6.789956,37.844196,15.507122,7.578161,3.021716,1.895036,48.632492,-0.806030,6.225575,8064.000000,0.000000,4.000000,,,,0.000000,4.000000,4.000000,4.000000,4.000000,4.000000,4.000000,4.000000,4.000000,4.000000,4.000000,4.000000,4.000000,4.000000,4.000000,4.000000,4.000000,4.000000,2.000000,4.000000,4.000000,4.000000,4.000000,4.000000,4.000000,4.000000,4.000000,4.000000,4.000000,4.000000,4.000000,4.000000,4.000000,83.333336
1615602355.571125,47.000000,0.000000,8.725402,1.447521,-5.828794,-1.605777,5.648682,14.679456,12.661347,2.545640,9.511773,15.314919,39.241425,9.404901,13.552571,22.878378,34.067852,41.759422,13.468674,24.820972,-9.098583,-4.225239,20.508741,1.353096,21.462883,-7.808807,50.626865,27.286488,12.698789,3.018694,11.123911,55.763344,13.040930,15.450119,8064.000000,0.000000,4.000000,,,,0.000000,4.000000,4.000000,4.000000,4.000000,4.000000,4.000000,4.000000,4.000000,4.000000,4.000000,4.000000,4.000000,4.000000,4.000000,4.000000,4.000000,4.000000,2.000000,4.000000,4.000000,4.000000,4.000000,4.000000,4.000000,4.000000,4.000000,4.000000,4.000000,4.000000,4.000000,4.000000,4.000000,83.333336
1615602355.578874,48.000000,0.000000,11.280779,2.471714,-0.694760,0.959931,6.155854,14.664776,18.802532,7.158479,11.040723,25.043194,48.432953,11.959599,14.564660,29.522165,31.469681,43.768948,16.019308,24.283331,-6.525383,2.445653,27.667719,8.018410,24.005522,-3.698434,60.832649,34.438686,15.250193,6.092598,17.266632,57.758865,20.207376,22.101336,8064.000000,0.000000,4.000000,,,,0.000000,4.000000,4.000000,4.000000,4.000000,4.000000,4.000000,4.000000,4.000000,4.000000,4.000000,4.000000,4.000000,4.000000,4.000000,4.000000,4.000000,4.000000,2.000000,4.000000,4.000000,4.000000,4.000000,4.000000,4.000000,4.000000,4.000000,4.000000,4.000000,4.000000,4.000000,4.000000,4.000000,83.333336
1615602355.586523,49.000000,0.000000,11.269499,1.956422,1.870037,0.958971,6.149698,14.650111,18.270908,3.561576,10.004041,16.813023,35.564007,11.434818,11.985992,23.338799,18.617699,36.545689,13.952005,21.182125,-7.544498,1.930387,25.588770,7.497571,23.981516,0.407829,47.438484,27.737581,14.722121,5.060864,5.967315,50.521618,11.982040,15.412567,8192.000000,0.000000,4.000000,,,,0.000000,4.000000,4.000000,4.000000,4.000000,4.000000,4.000000,4.000000,4.000000,4.000000,4.000000,4.000000,4.000000,4.000000,4.000000,4.000000,4.000000,4.000000,2.000000,4.000000,4.000000,4.000000,4.000000,4.000000,4.000000,4.000000,4.000000,4.000000,4.000000,4.000000,4.000000,4.000000,4.000000,83.333336
1615602355.594273,50.000000,0.000000,9.719768,1.954465,1.355346,-2.631732,6.143548,14.635461,9.534689,-2.083011,7.429934,10.642364,18.605366,8.859281,6.332981,8.956485,11.932415,31.380939,10.861131,16.545557,-5.998492,1.928456,22.999079,6.977253,21.393433,0.920241,34.057713,18.479074,14.707399,-3.149324,-6.859165,46.368534,5.816212,10.268950,8064.000000,0.000000,4.000000,,,,0.000000,4.000000,4.000000,4.000000,4.000000,4.000000,4.000000,4.000000,4.000000,4.000000,4.000000,4.000000,4.000000,4.000000,4.000000,4.000000,4.000000,4.000000,2.000000,4.000000,4.000000,4.000000,4.000000,4.000000,4.000000,4.000000,4.000000,4.000000,4.000000,4.000000,4.000000,4.000000,4.000000,83.333336
1615602355.601922,51.000000,0.000000,7.145945,1.952511,1.353991,-5.193202,6.137405,14.620826,8.499514,0.995995,6.396863,10.118900,18.073940,8.337601,8.377930,6.383426,17.048687,35.452122,14.952834,18.580294,-5.992494,2.439348,22.976078,7.483096,19.833578,0.406501,40.177502,16.409313,14.692692,-8.787201,-6.852306,47.860626,5.297575,11.284322,8064.000000,0.000000,4.000000,,,,0.000000,4.000000,4.000000,4.000000,4.000000,4.000000,4.000000,4.000000,4.000000,4.000000,4.000000,4.000000,4.000000,4.000000,4.000000,4.000000,4.000000,4.000000,2.000000,4.000000,4.000000,4.000000,4.000000,4.000000,4.000000,4.000000,4.000000,4.000000,4.000000,4.000000,4.000000,4.000000,4.000000,83.333336
1615602355.609671,52.000000,0.000000,7.138799,1.950558,1.352637,-4.162368,6.131268,14.606205,15.670502,5.610384,6.903287,9.083140,22.671251,8.842084,15.549039,12.018067,22.159843,37.980774,21.091726,24.715561,-7.012142,1.411268,22.440283,6.962792,19.300924,0.918915,43.727066,16.905725,14.165178,-5.701490,-5.306993,47.812763,2.728175,9.221756,8064.000000,0.000000,4.000000,,,,0.000000,4.000000,4.000000,4.000000,4.000000,4.000000,4.000000,4.000000,4.000000,4.000000,4.000000,4.000000,4.000000,4.000000,4.000000,4.000000,4.000000,4.000000,2.000000,4.000000,4.000000,4.000000,4.000000,4.000000,4.000000,4.000000,4.000000,4.000000,4.000000,4.000000,4.000000,4.000000,4.000000,83.333336
1615602355.617321,53.000000,0.000000,10.208584,1.948608,0.325643,-2.619744,6.637957,14.591599,16.680471,6.630414,9.460486,11.125340,21.622938,8.833241,17.584772,14.057332,31.368454,39.994076,23.121918,27.254948,-8.543591,0.897036,21.905022,6.443009,19.281622,0.405175,41.632057,16.375999,14.663834,-3.644507,-7.352967,47.252132,3.238267,8.186893,8064.000000,0.000000,4.000000,,,,0.000000,4.000000,4.000000,4.000000,4.000000,4.000000,4.000000,4.000000,4.000000,4.000000,4.000000,4.000000,4.000000,4.000000,4.000000,4.000000,4.000000,4.000000,2.000000,4.000000,4.000000,4.000000,4.000000,4.000000,4.000000,4.000000,4.000000,4.000000,4.000000,4.000000,4.000000,4.000000,4.000000,83.333336
1615602355.625070,54.000000,0.000000,10.711195,1.433839,-3.777246,-3.129945,6.118498,14.577007,13.586868,5.598143,10.476666,14.703958,21.601316,8.824409,16.541546,21.222761,43.644775,50.210491,22.585976,27.227692,-7.509407,0.383319,21.370296,6.949387,19.775162,-0.108050,49.282734,19.949368,14.136350,-4.666503,-5.294333,46.692059,5.799132,12.794090,8064.000000,0.000000,4.000000,,,,0.000000,4.000000,4.000000,4.000000,4.000000,4.000000,4.000000,4.000000,4.000000,4.000000,4.000000,4.000000,4.000000,4.000000,4.000000,4.000000,4.000000,4.000000,2.000000,4.000000,4.000000,4.000000,4.000000,4.000000,4.000000,4.000000,4.000000,4.000000,4.000000,4.000000,4.000000,4.000000,4.000000,83.333336
1615602355.632720,55.000000,0.000000,10.700484,2.458046,-8.388854,-3.639636,5.086739,14.562430,12.034820,5.592545,10.466190,12.125151,22.605356,8.302764,18.063467,31.457949,45.652416,56.314125,21.537748,26.687643,-5.450615,-2.693988,21.861746,6.429617,22.319489,0.404878,57.951401,26.596085,14.122213,-4.661837,-0.160833,48.183830,5.793333,14.832579,8064.000000,0.000000,4.000000,,,,0.000000,4.000000,4.000000,4.000000,4.000000,4.000000,4.000000,4.000000,4.000000,4.000000,4.000000,4.000000,4.000000,4.000000,4.000000,4.000000,4.000000,4.000000,2.000000,4.000000,4.000000,4.000000,4.000000,4.000000,4.000000,4.000000,4.000000,4.000000,4.000000,4.000000,4.000000,4.000000,4.000000,83.333336
1615602355.640469,56.000000,0.000000,13.253886,5.019691,-10.431746,-3.123175,3.030370,14.547868,12.535605,6.099773,10.455724,10.061744,22.069929,8.807281,17.019762,33.990593,42.529839,54.719349,24.593134,29.225060,-8.522088,-2.178473,22.865526,7.448828,25.374092,-0.108347,57.893448,28.620770,17.697834,-4.144355,1.890610,50.699749,5.787539,12.253643,8064.000000,0.000000,4.000000,,,,0.000000,4.000000,4.000000,4.000000,4.000000,4.000000,4.000000,4.000000,4.000000,4.000000,4.000000,4.000000,4.000000,4.000000,4.000000,4.000000,4.000000,4.000000,2.000000,4.000000,4.000000,4.000000,4.000000,4.000000,4.000000,4.000000,4.000000,4.000000,4.000000,4.000000,4.000000,4.000000,4.000000,83.333336
1615602355.648118,57.000000,0.000000,17.327393,8.596835,-11.947304,-2.604625,-1.076200,14.518786,13.022855,6.599887,10.434823,9.018041,23.564787,11.353266,17.499586,34.432903,43.986359,60.765350,37.361408,47.112793,-8.501975,4.492035,24.870073,14.099579,30.961319,-0.107618,56.752079,29.587147,26.889637,-3.623762,5.474523,53.672756,8.340073,8.129148,8064.000000,0.000000,4.000000,,,,0.000000,4.000000,4.000000,4.000000,4.000000,4.000000,4.000000,4.000000,4.000000,4.000000,4.000000,4.000000,4.000000,4.000000,4.000000,4.000000,4.000000,4.000000,2.000000,4.000000,4.000000,4.000000,4.000000,4.000000,4.000000,4.000000,4.000000,4.000000,4.000000,4.000000,4.000000,4.000000,4.000000,83.333336
1615602355.655768,58.000000,0.000000,16.797243,8.075418,-12.448177,-2.602020,-3.126406,14.504268,15.061113,6.080467,9.911568,9.009023,27.643785,12.880374,28.764137,35.424110,51.121861,75.576378,45.016354,66.552856,10.993706,14.743954,29.973408,21.777788,33.494461,5.533515,59.259430,29.557560,29.426849,-3.620139,7.520330,53.106262,9.870194,8.121019,8192.000000,0.000000,4.000000,,,,0.000000,4.000000,4.000000,4.000000,4.000000,4.000000,4.000000,4.000000,4.000000,4.000000,4.000000,4.000000,4.000000,4.000000,4.000000,4.000000,4.000000,4.000000,2.000000,4.000000,4.000000,4.000000,4.000000,4.000000,4.000000,4.000000,4.000000,4.000000,4.000000,4.000000,4.000000,4.000000,4.000000,83.333336
1615602355.663617,59.000000,0.000000,16.780447,8.580163,-12.435729,-2.599418,-2.097639,14.489763,17.097334,6.587207,10.927297,9.000013,29.667423,12.867494,35.914860,35.901508,50.557919,69.346962,44.458515,65.460663,22.777584,22.934338,36.610104,23.294472,33.973785,10.656187,59.712990,30.040823,29.397423,-3.616518,8.025631,55.617260,9.347504,8.625719,8192.000000,0.000000,4.000000,,,,0.000000,4.000000,4.000000,4.000000,4.000000,4.000000,4.000000,4.000000,4.000000,4.000000,4.000000,4.000000,4.000000,4.000000,4.000000,4.000000,4.000000,4.000000,2.000000,4.000000,4.000000,4.000000,4.000000,4.000000,4.000000,4.000000,4.000000,4.000000,4.000000,4.000000,4.000000,4.000000,4.000000,83.333336
1615602355.671367,60.000000,0.000000,16.763666,8.058763,-11.397653,-2.596818,0.468561,14.475274,16.054596,11.196004,12.967651,8.478193,29.124935,12.854626,29.212278,34.327145,40.250950,45.175049,40.311493,44.369564,2.754807,16.244738,38.624775,20.707073,33.426991,11.158351,57.089172,29.497961,28.855204,-3.612902,6.991964,57.100105,8.825336,8.104273,8064.000000,0.000000,4.000000,,,,0.000000,4.000000,4.000000,4.000000,4.000000,4.000000,4.000000,4.000000,4.000000,4.000000,4.000000,4.000000,4.000000,4.000000,4.000000,4.000000,4.000000,4.000000,2.000000,4.000000,4.000000,4.000000,4.000000,4.000000,4.000000,4.000000,4.000000,4.000000,4.000000,4.000000,4.000000,4.000000,4.000000,83.333336
1615602355.679117,61.000000,0.000000,16.746902,4.973781,-13.950357,-2.594222,0.468093,14.460798,12.448798,14.261731,13.467505,9.495356,28.070169,12.841771,22.516399,34.805637,30.979931,35.899101,37.194260,29.966219,-18.786409,3.407979,37.560509,18.635084,33.393566,10.634373,56.519264,29.468464,27.287888,-4.122109,6.984972,56.530186,9.329330,3.993604,8192.000000,0.000000,4.000000,,,,0.000000,4.000000,4.000000,4.000000,4.000000,4.000000,4.000000,4.000000,4.000000,4.000000,4.000000,4.000000,4.000000,4.000000,4.000000,4.000000,4.000000,4.000000,2.000000,4.000000,4.000000,4.000000,4.000000,4.000000,4.000000,4.000000,4.000000,4.000000,4.000000,4.000000,4.000000,4.000000,4.000000,83.333336
1615602355.686866,62.000000,0.000000,16.730156,4.968807,-14.449227,-3.104448,-0.045196,14.446338,13.461990,14.247470,14.479678,11.537143,30.093382,13.341750,26.083628,39.386215,30.436131,43.555511,35.618603,31.474714,-6.459931,11.096879,38.035767,19.129271,33.360172,11.136559,56.975567,29.438995,25.209318,-1.553885,7.490808,56.986473,9.320002,1.425508,8064.000000,0.000000,4.000000,,,,0.000000,4.000000,4.000000,4.000000,4.000000,4.000000,4.000000,4.000000,4.000000,4.000000,4.000000,4.000000,4.000000,4.000000,4.000000,4.000000,4.000000,4.000000,2.000000,4.000000,4.000000,4.000000,4.000000,4.000000,4.000000,4.000000,4.000000,4.000000,4.000000,4.000000,4.000000,4.000000,4.000000,83.333336
1615602355.694716,63.000000,0.000000,16.713425,8.040761,-8.793753,-2.075702,2.006131,14.431891,16.012630,13.720402,17.029301,13.064067,33.653030,15.379690,27.596004,42.936573,30.918514,44.537598,36.095806,36.058624,9.956785,23.906296,38.510551,19.110142,33.326809,10.612601,56.405769,29.409555,25.184109,2.550233,5.432035,56.929489,8.797861,2.962544,8064.000000,0.000000,4.000000,,,,0.000000,4.000000,4.000000,4.000000,4.000000,4.000000,4.000000,4.000000,4.000000,4.000000,4.000000,4.000000,4.000000,4.000000,4.000000,4.000000,4.000000,4.000000,2.000000,4.000000,4.000000,4.000000,4.000000,4.000000,4.000000,4.000000,4.000000,4.000000,4.000000,4.000000,4.000000,4.000000,4.000000,83.333336
1615602355.702465,64.000000,0.000000,16.696712,8.545541,-3.656754,-0.022345,4.055407,14.417459,16.509439,13.706681,17.012272,12.538182,37.209122,16.389952,26.542768,41.355175,28.836313,44.493061,35.546890,34.484104,-5.950607,10.036235,34.882298,16.014109,33.293484,10.601989,56.349365,29.380146,25.158924,4.086144,2.349680,56.359737,9.814704,3.985222,0.000000,202.000000,4.000000,,,,0.000000,4.000000,4.000000,4.000000,4.000000,4.000000,4.000000,4.000000,4.000000,4.000000,4.000000,4.000000,4.000000,4.000000,4.000000,4.000000,4.000000,4.000000,2.000000,4.000000,4.000000,4.000000,4.000000,4.000000,4.000000,4.000000,4.000000,4.000000,4.000000,4.000000,4.000000,4.000000,4.000000,83.333336
1615602355.710315,65.000000,0.000000,16.680016,8.024175,-4.678738,1.516139,4.564172,15.941504,18.544212,13.692975,18.533722,12.012824,39.223194,15.860741,30.105968,40.800999,39.063889,62.397285,34.998524,35.988083,-30.560041,-6.896878,33.821774,11.382710,33.260189,10.591387,56.805836,29.350765,25.133766,3.569238,4.911433,57.841839,12.368992,8.596622,0.000000,183.000000,4.000000,,,,0.000000,4.000000,4.000000,4.000000,4.000000,4.000000,4.000000,4.000000,4.000000,4.000000,4.000000,4.000000,4.000000,4.000000,4.000000,4.000000,4.000000,4.000000,2.000000,4.000000,4.000000,4.000000,4.000000,4.000000,4.000000,4.000000,4.000000,4.000000,4.000000,4.000000,4.000000,4.000000,4.000000,83.333336
1615602355.718164,66.000000,0.000000,16.663336,8.016150,-5.186880,1.001802,4.046788,17.976845,23.653872,14.192102,23.130571,13.026452,40.209614,16.357700,34.691246,43.837124,52.870979,75.155403,36.501984,41.080299,-24.888456,-3.813058,34.300774,10.858506,33.226929,10.580795,54.697746,29.834236,25.108631,3.565669,10.034726,60.860920,13.895084,15.767512,0.000000,217.000000,4.000000,,,,0.000000,4.000000,4.000000,4.000000,4.000000,4.000000,4.000000,4.000000,4.000000,4.000000,4.000000,4.000000,4.000000,4.000000,4.000000,4.000000,4.000000,4.000000,2.000000,4.000000,4.000000,4.000000,4.000000,4.000000,4.000000,4.000000,4.000000,4.000000,4.000000,4.000000,4.000000,4.000000,4.000000,83.333336
1615602355.725914,67.000000,0.000000,16.646671,6.469673,-4.156052,1.000801,4.042741,17.958868,24.655859,12.639448,23.107441,12.500605,40.169403,16.854164,32.605274,38.665081,48.202721,64.823837,35.952663,39.500755,-5.376388,-1.757963,30.163910,12.386108,33.193703,10.570215,52.591766,29.804401,25.596344,4.074924,11.050332,59.261597,11.829907,11.136360,0.000000,174.000000,4.000000,,,,0.000000,4.000000,4.000000,4.000000,4.000000,4.000000,4.000000,4.000000,4.000000,4.000000,4.000000,4.000000,4.000000,4.000000,4.000000,4.000000,4.000000,4.000000,2.000000,4.000000,4.000000,4.000000,4.000000,4.000000,4.000000,4.000000,4.000000,4.000000,4.000000,4.000000,4.000000,4.000000,4.000000,83.333336
1615602355.733763,68.000000,0.000000,16.613396,2.868535,-4.148769,0.998800,4.034659,17.922968,21.528624,9.025977,17.933044,10.937668,39.576286,15.281498,26.388302,24.746763,31.187902,40.089123,33.830025,31.731026,17.691795,0.294782,21.389765,10.821349,32.614529,11.061906,50.437405,28.719181,25.544664,4.066265,11.540038,55.042110,7.192926,-0.676158,0.000000,161.000000,4.000000,,,,0.000000,4.000000,4.000000,4.000000,4.000000,4.000000,4.000000,4.000000,4.000000,4.000000,4.000000,4.000000,4.000000,4.000000,4.000000,4.000000,4.000000,4.000000,2.000000,4.000000,4.000000,4.000000,4.000000,4.000000,4.000000,4.000000,4.000000,4.000000,4.000000,4.000000,4.000000,4.000000,4.000000,83.333336
1615602355.741612,69.000000,0.000000,16.596783,2.352846,-3.118980,0.997801,4.030625,17.905045,20.994274,10.042592,16.376650,14.003653,39.536709,18.343140,28.926016,31.901503,34.746460,41.074677,38.411579,39.391602,22.802309,13.115000,26.496580,13.887451,32.581913,9.512382,50.386967,30.228924,26.031939,4.062199,11.528498,54.987068,7.185733,3.427083,0.000000,179.000000,4.000000,,,,0.000000,4.000000,4.000000,4.000000,4.000000,4.000000,4.000000,4.000000,4.000000,4.000000,4.000000,4.000000,4.000000,4.000000,4.000000,4.000000,4.000000,4.000000,2.000000,4.000000,4.000000,4.000000,4.000000,4.000000,4.000000,4.000000,4.000000,4.000000,4.000000,4.000000,4.000000,4.000000,4.000000,83.333336
1615602355.749362,70.000000,0.000000,16.580185,2.863314,-0.551758,0.996803,4.026594,17.887140,21.998920,11.571012,17.898735,19.117855,38.471531,23.965822,35.563755,46.741398,36.250175,46.674625,45.039833,47.044518,29.958994,20.281372,30.572649,20.540230,33.574974,11.041331,50.849403,31.737156,25.493088,4.058136,12.029790,53.906437,7.691368,7.013399,0.000000,192.000000,4.000000,,,,0.000000,4.000000,4.000000,4.000000,4.000000,4.000000,4.000000,4.000000,4.000000,4.000000,4.000000,4.000000,4.000000,4.000000,4.000000,4.000000,4.000000,4.000000,2.000000,4.000000,4.000000,4.000000,4.000000,4.000000,4.000000,4.000000,4.000000,4.000000,4.000000,4.000000,4.000000,4.000000,4.000000,83.333336
1615602355.757211,71.000000,0.000000,16.050785,2.860451,-1.576847,1.508627,3.509747,17.869253,17.874359,8.995337,17.880836,18.073095,36.381779,19.326471,32.964088,46.181835,20.829308,40.986927,36.276844,34.176960,13.005958,8.466219,22.336946,11.801741,32.515759,11.030290,50.798553,26.577213,22.390671,4.054078,12.017760,49.237148,6.658035,-0.173102,0.000000,176.000000,4.000000,,,,0.000000,4.000000,4.000000,4.000000,4.000000,4.000000,4.000000,4.000000,4.000000,4.000000,4.000000,4.000000,4.000000,4.000000,4.000000,4.000000,4.000000,4.000000,2.000000,4.000000,4.000000,4.000000,4.000000,4.000000,4.000000,4.000000,4.000000,4.000000,4.000000,4.000000,4.000000,4.000000,4.000000,83.333336
1615602355.764961,72.000000,0.000000,16.547554,2.857590,-2.600912,0.994298,4.019058,17.851383,13.753920,7.960701,17.350134,16.003740,34.806934,13.666120,27.290100,36.904884,14.654633,32.740810,25.984158,30.553040,3.762183,8.457752,21.801790,3.071990,32.483242,4.352593,50.234932,20.909611,18.265717,4.050024,10.467280,47.136627,3.574454,-5.813954,0.000000,198.000000,4.000000,,,,0.000000,4.000000,4.000000,4.000000,4.000000,4.000000,4.000000,4.000000,4.000000,4.000000,4.000000,4.000000,4.000000,4.000000,4.000000,4.000000,4.000000,4.000000,2.000000,4.000000,4.000000,4.000000,4.000000,4.000000,4.000000,4.000000,4.000000,4.000000,4.000000,4.000000,4.000000,4.000000,4.000000,83.333336
1615602355.772811,73.000000,0.000000,18.582289,2.854733,-1.059849,0.993304,6.066321,17.833532,13.227345,11.029663,16.819963,18.039019,36.310589,20.831940,32.903835,36.355160,33.101517,42.451660,38.778687,54.625050,31.963549,29.474936,36.651783,14.863791,38.604603,0.245676,51.723160,21.401522,17.734631,4.045974,8.405531,47.089493,3.570880,0.345706,0.000000,197.000000,4.000000,,,,0.000000,4.000000,4.000000,4.000000,4.000000,4.000000,4.000000,4.000000,4.000000,4.000000,4.000000,4.000000,4.000000,4.000000,4.000000,4.000000,4.000000,4.000000,2.000000,4.000000,4.000000,4.000000,4.000000,4.000000,4.000000,4.000000,4.000000,4.000000,4.000000,4.000000,4.000000,4.000000,4.000000,83.333336
1615602355.780560,74.000000,0.000000,20.102167,2.851878,-0.033148,1.505131,7.598716,17.815699,13.214118,13.069916,17.828785,19.559441,40.889664,25.426493,40.050419,40.421368,45.888927,55.229721,50.021961,56.621708,32.444405,30.471102,40.717697,23.566875,43.694206,6.912097,54.748360,24.457045,18.229715,4.041928,7.884305,47.555222,4.592950,8.037668,0.000000,190.000000,4.000000,,,,0.000000,4.000000,4.000000,4.000000,4.000000,4.000000,4.000000,4.000000,4.000000,4.000000,4.000000,4.000000,4.000000,4.000000,4.000000,4.000000,4.000000,4.000000,2.000000,4.000000,4.000000,4.000000,4.000000,4.000000,4.000000,4.000000,4.000000,4.000000,4.000000,4.000000,4.000000,4.000000,4.000000,83.333336
1615602355.788410,75.000000,0.000000,20.082066,3.361846,0.479705,0.477985,7.591117,17.797882,13.713724,11.005564,17.298136,18.514240,43.412876,20.272861,32.830883,36.791203,37.125092,49.533466,35.612965,28.872780,0.104269,1.209861,28.882107,14.825359,39.547947,12.033390,51.616688,25.458227,17.698666,3.525066,6.337959,46.994846,0.998613,6.491168,0.000000,171.000000,4.000000,,,,0.000000,4.000000,4.000000,4.000000,4.000000,4.000000,4.000000,4.000000,4.000000,4.000000,4.000000,4.000000,4.000000,4.000000,4.000000,4.000000,4.000000,4.000000,2.000000,4.000000,4.000000,4.000000,4.000000,4.000000,4.000000,4.000000,4.000000,4.000000,4.000000,4.000000,4.000000,4.000000,4.000000,83.333336
1615602355.796159,76.000000,0.000000,20.061983,1.820023,-2.597697,-4.137878,7.583526,17.780085,15.751293,8.430456,11.639812,17.982906,40.805359,19.739769,26.644205,29.574924,26.831554,38.714703,27.372221,25.254162,1.129806,-8.534938,24.237839,14.297714,35.918655,9.457254,43.872765,25.432770,17.680967,4.034361,3.767519,46.947853,-5.669052,-0.694810,0.000000,178.000000,4.000000,,,,0.000000,4.000000,4.000000,4.000000,4.000000,4.000000,4.000000,4.000000,4.000000,4.000000,4.000000,4.000000,4.000000,4.000000,4.000000,4.000000,4.000000,4.000000,2.000000,4.000000,4.000000,4.000000,4.000000,4.000000,4.000000,4.000000,4.000000,4.000000,4.000000,4.000000,4.000000,4.000000,4.000000,83.333336
1615602355.804009,77.000000,0.000000,20.041922,-0.233079,-11.825869,-8.236304,5.524661,17.762304,17.786823,8.422026,6.499967,12.836718,35.636349,20.232849,28.668842,24.929964,24.240622,36.111885,34.011517,41.639164,33.949188,5.832571,25.239243,20.437262,36.395557,6.883694,41.264790,25.407337,18.176105,4.543147,3.763752,47.413723,-8.740306,-4.283858,0.000000,200.000000,4.000000,,,,0.000000,4.000000,4.000000,4.000000,4.000000,4.000000,4.000000,4.000000,4.000000,4.000000,4.000000,4.000000,4.000000,4.000000,4.000000,4.000000,4.000000,4.000000,2.000000,4.000000,4.000000,4.000000,4.000000,4.000000,4.000000,4.000000,4.000000,4.000000,4.000000,4.000000,4.000000,4.000000,4.000000,83.333336
1615602355.811758,78.000000,0.000000,20.021879,-1.258487,-16.942247,-10.792171,2.442213,17.744541,17.256216,7.900783,4.442185,7.182856,30.985329,14.571590,24.024788,23.366573,25.754843,34.024490,27.823658,34.418037,20.581905,-2.378390,13.419131,15.288620,34.820702,3.287067,43.274807,25.381929,18.157930,1.974501,4.272808,47.366310,-7.705925,-5.305215,0.000000,195.000000,4.000000,,,,0.000000,4.000000,4.000000,4.000000,4.000000,4.000000,4.000000,4.000000,4.000000,4.000000,4.000000,4.000000,4.000000,4.000000,4.000000,4.000000,4.000000,4.000000,2.000000,4.000000,4.000000,4.000000,4.000000,4.000000,4.000000,4.000000,4.000000,4.000000,4.000000,4.000000,4.000000,4.000000,4.000000,83.333336
1615602355.819608,79.000000,0.000000,20.001858,-0.744408,-8.207357,-10.268558,5.003873,17.213978,16.726139,7.892882,7.001845,11.278237,32.492805,14.044198,19.898199,27.958591,33.934216,38.605850,20.103527,23.101568,-11.746368,-22.376011,-0.440442,7.581024,32.221775,-2.357246,42.718712,25.356548,17.626951,0.946886,3.755715,47.318943,-7.185398,-4.787090,0.000000,181.000000,4.000000,,,,0.000000,4.000000,4.000000,4.000000,4.000000,4.000000,4.000000,4.000000,4.000000,4.000000,4.000000,4.000000,4.000000,4.000000,4.000000,4.000000,4.000000,4.000000,2.000000,4.000000,4.000000,4.000000,4.000000,4.000000,4.000000,4.000000,4.000000,4.000000,4.000000,4.000000,4.000000,4.000000,4.000000,83.333336
1615602355.827357,80.000000,0.000000,19.981855,-0.743664,4.108542,-3.078802,11.665536,18.222404,17.222235,14.038836,15.712792,20.497728,40.152618,21.722462,30.647532,37.674221,42.618229,49.336475,29.314194,38.463081,-6.093596,-11.071584,4.688204,7.573442,32.189556,-3.893350,41.137531,25.331190,18.122145,2.997221,4.777600,47.271626,-8.203854,2.910005,0.000000,183.000000,4.000000,,,,0.000000,4.000000,4.000000,4.000000,4.000000,4.000000,4.000000,4.000000,4.000000,4.000000,4.000000,4.000000,4.000000,4.000000,4.000000,4.000000,4.000000,4.000000,2.000000,4.000000,4.000000,4.000000,4.000000,4.000000,4.000000,4.000000,4.000000,4.000000,4.000000,4.000000,4.000000,4.000000,4.000000,83.333336
1615602355.835207,81.000000,0.000000,19.961874,-0.742920,14.360844,6.155046,15.756434,20.255465,19.256294,21.717104,25.953489,23.554153,45.753494,24.777662,42.924576,43.790394,44.626892,53.389702,36.464367,55.347698,26.733011,19.708719,23.145054,14.745357,32.670185,-5.940739,43.660496,25.305861,20.668125,4.532685,7.336925,47.224354,-8.195650,9.573762,0.000000,197.000000,4.000000,,,,0.000000,4.000000,4.000000,4.000000,4.000000,4.000000,4.000000,4.000000,4.000000,4.000000,4.000000,4.000000,4.000000,4.000000,4.000000,4.000000,4.000000,4.000000,2.000000,4.000000,4.000000,4.000000,4.000000,4.000000,4.000000,4.000000,4.000000,4.000000,4.000000,4.000000,4.000000,4.000000,4.000000,83.333336
1615602355.842956,82.000000,0.000000,19.941912,-0.742177,23.064432,8.712994,17.279140,21.773670,20.775499,23.746670,28.491638,21.992138,46.733379,23.727243,43.907295,43.746605,43.043804,51.285030,35.402260,54.266708,51.321663,35.073624,36.455242,24.474201,32.124695,-3.370695,50.796322,25.280554,22.185919,4.015332,8.355229,47.177132,-1.520788,10.077008,0.000000,167.000000,4.000000,,,,0.000000,4.000000,4.000000,4.000000,4.000000,4.000000,4.000000,4.000000,4.000000,4.000000,4.000000,4.000000,4.000000,4.000000,4.000000,4.000000,4.000000,4.000000,2.000000,4.000000,4.000000,4.000000,4.000000,4.000000,4.000000,4.000000,4.000000,4.000000,4.000000,4.000000,4.000000,4.000000,4.000000,83.333336
1615602355.850806,83.000000,0.000000,19.921970,-0.741435,27.143932,9.729921,18.287502,21.239075,20.754723,23.210102,27.950327,24.534248,46.173824,23.703516,41.812103,43.190037,44.026402,52.259388,37.418140,49.597057,44.603672,31.961628,36.931606,27.526649,32.605392,10.478829,54.335270,25.255274,21.650913,4.011317,8.346874,47.129951,6.685861,19.810520,0.000000,206.000000,4.000000,,,,0.000000,4.000000,4.000000,4.000000,4.000000,4.000000,4.000000,4.000000,4.000000,4.000000,4.000000,4.000000,4.000000,4.000000,4.000000,4.000000,4.000000,4.000000,2.000000,4.000000,4.000000,4.000000,4.000000,4.000000,4.000000,4.000000,4.000000,4.000000,4.000000,4.000000,4.000000,4.000000,4.000000,83.333336
1615602355.858555,84.000000,0.000000,19.902048,-0.740694,26.603968,12.797115,18.782034,21.217836,20.733969,22.674070,28.435196,26.560995,46.640472,22.654171,42.795933,43.659668,43.982376,52.207127,37.893543,55.188484,38.918045,25.775820,36.381855,23.909380,32.572784,16.622196,54.280933,25.230019,21.629261,4.007306,7.312886,46.570004,8.730457,31.585583,0.000000,183.000000,4.000000,,,,0.000000,4.000000,4.000000,4.000000,4.000000,4.000000,4.000000,4.000000,4.000000,4.000000,4.000000,4.000000,4.000000,4.000000,4.000000,4.000000,4.000000,4.000000,2.000000,4.000000,4.000000,4.000000,4.000000,4.000000,4.000000,4.000000,4.000000,4.000000,4.000000,4.000000,4.000000,4.000000,4.000000,83.333336
1615602355.866405,85.000000,0.000000,19.882147,-1.252773,22.987619,11.245856,18.250433,21.196619,20.713234,18.036013,28.406761,26.021614,46.593834,20.067415,44.291599,43.616009,43.938393,52.154919,35.804367,61.799965,35.802204,20.109018,39.935219,24.398291,32.540211,8.913267,53.713833,25.204788,21.607632,4.003298,5.254291,47.036251,6.157624,24.374510,0.000000,167.000000,4.000000,,,,0.000000,4.000000,4.000000,4.000000,4.000000,4.000000,4.000000,4.000000,4.000000,4.000000,4.000000,4.000000,4.000000,4.000000,4.000000,4.000000,4.000000,4.000000,2.000000,4.000000,4.000000,4.000000,4.000000,4.000000,4.000000,4.000000,4.000000,4.000000,4.000000,4.000000,4.000000,4.000000,4.000000,83.333336
1615602355.874154,86.000000,0.000000,19.862265,-0.738700,16.810785,5.593585,18.232182,21.175423,20.692522,14.941053,27.865534,25.995592,46.547237,20.047348,41.683205,43.572392,43.894455,52.615585,35.768562,47.892010,13.715119,5.217115,31.690153,22.835430,32.507671,7.365892,51.096016,25.179583,21.586025,4.512115,4.736217,47.502037,4.613005,11.016802,0.000000,199.000000,4.000000,,,,0.000000,4.000000,4.000000,4.000000,4.000000,4.000000,4.000000,4.000000,4.000000,4.000000,4.000000,4.000000,4.000000,4.000000,4.000000,4.000000,4.000000,4.000000,2.000000,4.000000,4.000000,4.000000,4.000000,4.000000,4.000000,4.000000,4.000000,4.000000,4.000000,4.000000,4.000000,4.000000,4.000000,83.333336
1615602355.882004,87.000000,0.000000,19.842402,-0.737961,13.204231,3.536709,18.213949,21.154247,20.671829,15.438933,27.837669,24.431135,44.962231,20.027300,32.410751,39.426254,42.824921,49.998867,31.117409,29.382580,-6.811417,-10.172717,9.607182,13.581826,31.962343,6.332885,46.429535,25.154404,21.564440,2.969142,4.731480,44.890434,3.582751,10.492965,0.000000,202.000000,4.000000,,,,0.000000,4.000000,4.000000,4.000000,4.000000,4.000000,4.000000,4.000000,4.000000,4.000000,4.000000,4.000000,4.000000,4.000000,4.000000,4.000000,4.000000,4.000000,2.000000,4.000000,4.000000,4.000000,4.000000,4.000000,4.000000,4.000000,4.000000,4.000000,4.000000,4.000000,4.000000,4.000000,4.000000,83.333336
1615602355.889753,88.000000,0.000000,19.822559,-1.250044,14.216668,4.558814,18.195736,21.133093,20.651157,13.372212,27.809832,22.355423,41.840343,20.007273,26.737316,39.386829,43.807735,48.923229,28.009369,38.071144,9.605651,-0.418955,2.930908,8.952860,32.956024,-2.904217,45.357464,25.129250,21.542875,0.914891,2.675467,40.230156,3.579169,11.508113,0.000000,143.000000,4.000000,,,,0.000000,4.000000,4.000000,4.000000,4.000000,4.000000,4.000000,4.000000,4.000000,4.000000,4.000000,4.000000,4.000000,4.000000,4.000000,4.000000,4.000000,4.000000,2.000000,4.000000,4.000000,4.000000,4.000000,4.000000,4.000000,4.000000,4.000000,4.000000,4.000000,4.000000,4.000000,4.000000,4.000000,83.333336
1615602355.897603,89.000000,0.000000,19.802736,1.828129,14.202452,6.092716,18.177540,21.111959,20.630507,11.820378,27.782021,22.845888,43.849785,20.500086,29.787502,46.526928,44.789570,48.874306,33.622387,47.776665,22.416559,14.453259,12.158746,8.431087,32.410248,-0.337210,46.850571,25.616941,21.521332,-0.111665,6.775355,39.164288,3.575589,8.932502,0.000000,201.000000,4.000000,,,,0.000000,4.000000,4.000000,4.000000,4.000000,4.000000,4.000000,4.000000,4.000000,4.000000,4.000000,4.000000,4.000000,4.000000,4.000000,4.000000,4.000000,4.000000,2.000000,4.000000,4.000000,4.000000,4.000000,4.000000,4.000000,4.000000,4.000000,4.000000,4.000000,4.000000,4.000000,4.000000,4.000000,83.333336
1615602355.905352,90.000000,0.000000,20.295755,6.441686,13.675428,7.625085,18.672182,21.090847,21.122696,14.372661,28.267059,24.874323,45.857220,18.941124,30.783356,43.916298,37.052471,40.107483,30.511841,28.754528,-1.195602,-2.484271,9.069664,2.268809,28.275272,5.304152,46.290897,24.052862,21.499811,0.914087,11.383965,39.637943,4.084834,11.487672,0.000000,204.000000,4.000000,,,,0.000000,4.000000,4.000000,4.000000,4.000000,4.000000,4.000000,4.000000,4.000000,4.000000,4.000000,4.000000,4.000000,4.000000,4.000000,4.000000,4.000000,4.000000,2.000000,4.000000,4.000000,4.000000,4.000000,4.000000,4.000000,4.000000,4.000000,4.000000,4.000000,4.000000,4.000000,4.000000,4.000000,83.333336
1615602355.913202,91.000000,0.000000,18.736998,6.948064,14.687394,8.130280,18.140690,21.069757,20.075932,13.332646,26.187511,26.900732,41.708797,16.870901,27.162828,30.026230,26.246189,29.298143,21.250559,13.341159,-12.989278,-17.353582,-0.682995,-2.861665,25.682894,-6.496024,45.731785,21.977528,21.478310,0.400353,1.116170,37.034203,3.567929,8.399261,0.000000,185.000000,4.000000,,,,0.000000,4.000000,4.000000,4.000000,4.000000,4.000000,4.000000,4.000000,4.000000,4.000000,4.000000,4.000000,4.000000,4.000000,4.000000,4.000000,4.000000,4.000000,2.000000,4.000000,4.000000,4.000000,4.000000,4.000000,4.000000,4.000000,4.000000,4.000000,4.000000,4.000000,4.000000,4.000000,4.000000,83.333336
1615602355.920951,92.000000,0.000000,16.666979,6.428296,13.647066,7.609330,16.584087,21.048687,20.055857,11.780852,24.110041,25.335369,38.077343,16.341209,26.622845,22.816715,23.655840,28.756025,23.793411,21.532946,8.049353,-1.951613,5.471534,1.756581,27.708494,-16.233118,46.711697,20.929909,21.456833,0.399953,-6.577254,34.945885,3.051540,-4.429651,0.000000,196.000000,4.000000,,,,0.000000,4.000000,4.000000,4.000000,4.000000,4.000000,4.000000,4.000000,4.000000,4.000000,4.000000,4.000000,4.000000,4.000000,4.000000,4.000000,4.000000,4.000000,2.000000,4.000000,4.000000,4.000000,4.000000,4.000000,4.000000,4.000000,4.000000,4.000000,4.000000,4.000000,4.000000,4.000000,4.000000,83.333336
1615602355.928801,93.000000,0.000000,15.624670,7.447509,9.530854,8.114541,15.541862,21.027637,21.574263,12.281892,23.573111,17.104906,38.039268,14.786407,27.621862,22.793900,25.170645,28.727268,29.923464,28.178080,17.272072,8.819570,16.235292,5.857389,28.706427,-8.011756,45.639343,21.421799,21.435375,0.399553,1.121631,35.423759,4.586950,-8.014965,0.000000,193.000000,4.000000,,,,0.000000,4.000000,4.000000,4.000000,4.000000,4.000000,4.000000,4.000000,4.000000,4.000000,4.000000,4.000000,4.000000,4.000000,4.000000,4.000000,4.000000,4.000000,2.000000,4.000000,4.000000,4.000000,4.000000,4.000000,4.000000,4.000000,4.000000,4.000000,4.000000,4.000000,4.000000,4.000000,4.000000,83.333336
1615602355.936650,94.000000,0.000000,14.070584,2.311856,4.905939,8.106426,11.423757,21.006611,17.450123,5.602944,23.036716,9.908314,34.924305,12.720339,26.055780,20.207003,21.555731,21.006233,25.278156,25.072979,5.459929,1.631263,14.167776,4.825891,28.164900,-1.849898,40.465500,20.887556,21.413940,-0.626488,2.658971,35.388336,0.992620,0.710999,0.000000,193.000000,4.000000,,,,0.000000,4.000000,4.000000,4.000000,4.000000,4.000000,4.000000,4.000000,4.000000,4.000000,4.000000,4.000000,4.000000,4.000000,4.000000,4.000000,4.000000,4.000000,2.000000,4.000000,4.000000,4.000000,4.000000,4.000000,4.000000,4.000000,4.000000,4.000000,4.000000,4.000000,4.000000,4.000000,4.000000,83.333336
1615602355.944400,95.000000,0.000000,12.005232,-4.869943,2.849751,7.585499,6.796948,20.985603,12.817289,0.469136,23.526501,10.411225,33.863739,12.194798,22.952801,19.673975,20.508535,16.882664,22.175955,20.945341,0.326263,-6.575497,10.563865,4.821064,28.649555,-4.412150,35.296829,21.379490,21.392527,-2.677144,-2.471893,35.352947,-6.187860,2.248749,0.000000,187.000000,4.000000,,,,0.000000,4.000000,4.000000,4.000000,4.000000,4.000000,4.000000,4.000000,4.000000,4.000000,4.000000,4.000000,4.000000,4.000000,4.000000,4.000000,4.000000,4.000000,2.000000,4.000000,4.000000,4.000000,4.000000,4.000000,4.000000,4.000000,4.000000,4.000000,4.000000,4.000000,4.000000,4.000000,4.000000,83.333336
1615602355.952149,96.000000,0.000000,11.993226,-3.326612,2.846901,8.090734,10.892715,20.964619,16.907036,10.212256,28.118359,11.426455,36.906799,11.669783,23.442669,20.167122,25.616232,22.506805,23.692240,21.437216,1.351578,-11.697126,11.066121,5.329064,26.569622,-4.920559,34.235889,20.332470,21.371134,-3.700107,3.171605,35.317596,-5.156031,-0.830423,8064.000000,0.000000,4.000000,,,,0.000000,4.000000,4.000000,4.000000,4.000000,4.000000,4.000000,4.000000,4.000000,4.000000,4.000000,4.000000,4.000000,4.000000,4.000000,4.000000,4.000000,4.000000,2.000000,4.000000,4.000000,4.000000,4.000000,4.000000,4.000000,4.000000,4.000000,4.000000,4.000000,4.000000,4.000000,4.000000,4.000000,83.333336
1615602355.959999,97.000000,0.000000,12.494054,2.317741,2.844054,10.133925,16.522848,20.943653,23.556795,19.945633,31.679985,9.363747,36.869892,12.683754,28.547430,22.198236,29.180359,32.227890,24.181368,34.749111,2.888688,-6.557224,11.567876,5.323735,25.004591,-3.377177,34.201653,20.824957,21.349762,-3.696407,8.296638,35.795097,1.002971,4.298613,8064.000000,0.000000,4.000000,,,,0.000000,4.000000,4.000000,4.000000,4.000000,4.000000,4.000000,4.000000,4.000000,4.000000,4.000000,4.000000,4.000000,4.000000,4.000000,4.000000,4.000000,4.000000,2.000000,4.000000,4.000000,4.000000,4.000000,4.000000,4.000000,4.000000,4.000000,4.000000,4.000000,4.000000,4.000000,4.000000,4.000000,83.333336
1615602355.967748,98.000000,0.000000,11.968739,3.341064,3.866852,11.149433,17.531967,20.922710,24.558880,18.900047,31.135483,12.431306,39.909946,19.337736,31.082987,33.970909,28.638357,36.811047,23.131546,47.534878,10.578107,4.731384,11.043488,6.856873,29.082151,-3.886620,33.654633,24.906696,21.328413,-1.128608,9.826803,41.400330,3.053250,10.448160,8064.000000,0.000000,4.000000,,,,0.000000,4.000000,4.000000,4.000000,4.000000,4.000000,4.000000,4.000000,4.000000,4.000000,4.000000,4.000000,4.000000,4.000000,4.000000,4.000000,4.000000,4.000000,2.000000,4.000000,4.000000,4.000000,4.000000,4.000000,4.000000,4.000000,4.000000,4.000000,4.000000,4.000000,4.000000,4.000000,4.000000,83.333336
1615602355.975598,99.000000,0.000000,12.469591,2.312082,10.529652,11.651104,24.693922,20.901787,25.559961,19.393967,32.642811,22.162464,49.613625,23.933784,31.051903,46.244633,28.096899,36.774235,23.621235,42.359135,15.695734,1.136909,11.032444,8.901298,32.642811,-4.395554,35.159439,27.445892,21.307085,3.487905,16.483643,49.051235,9.204043,13.001815,8064.000000,0.000000,4.000000,,,,0.000000,4.000000,4.000000,4.000000,4.000000,4.000000,4.000000,4.000000,4.000000,4.000000,4.000000,4.000000,4.000000,4.000000,4.000000,4.000000,4.000000,4.000000,2.000000,4.000000,4.000000,4.000000,4.000000,4.000000,4.000000,4.000000,4.000000,4.000000,4.000000,4.000000,4.000000,4.000000,4.000000,83.333336
1615602355.983447,100.000000,0.000000,11.944301,2.309770,19.749891,12.152273,32.361534,20.880886,28.098505,23.477139,35.174271,27.268507,53.153755,23.397030,30.508030,44.147106,29.094442,36.737461,23.597614,37.188572,15.680038,-3.479612,10.508591,8.892397,32.097351,-4.391159,34.611458,28.956907,20.772957,4.510058,18.005621,50.540646,18.425608,15.040095,8064.000000,0.000000,4.000000,,,,0.000000,4.000000,4.000000,4.000000,4.000000,4.000000,4.000000,4.000000,4.000000,4.000000,4.000000,4.000000,4.000000,4.000000,4.000000,4.000000,4.000000,4.000000,2.000000,4.000000,4.000000,4.000000,4.000000,4.000000,4.000000,4.000000,4.000000,4.000000,4.000000,4.000000,4.000000,4.000000,4.000000,83.333336
1615602355.991197,101.000000,0.000000,12.445177,3.845922,22.807064,10.601660,28.739431,20.860004,28.070406,22.940840,35.139095,25.702778,49.510857,23.886454,30.990343,38.461933,28.552528,36.187904,23.574017,45.356510,20.279743,7.805919,10.498082,8.883504,31.552431,-1.822665,33.551205,33.030514,21.265003,3.479907,15.936334,49.464466,17.381542,12.973773,8064.000000,0.000000,4.000000,,,,0.000000,4.000000,4.000000,4.000000,4.000000,4.000000,4.000000,4.000000,4.000000,4.000000,4.000000,4.000000,4.000000,4.000000,4.000000,4.000000,4.000000,4.000000,2.000000,4.000000,4.000000,4.000000,4.000000,4.000000,4.000000,4.000000,4.000000,4.000000,4.000000,4.000000,4.000000,4.000000,4.000000,83.333336
1615602355.999046,102.000000,0.000000,14.484014,5.893358,21.245796,13.155160,27.172230,20.839144,27.529514,22.917900,34.078316,25.164253,48.435707,26.939489,32.497814,39.961933,28.523975,36.664536,23.550442,47.362438,17.695360,8.823754,13.051686,8.874620,32.546520,-0.282381,43.774067,36.074409,23.807842,3.989248,18.997320,55.056026,14.287237,16.037722,8064.000000,0.000000,4.000000,,,,0.000000,4.000000,4.000000,4.000000,4.000000,4.000000,4.000000,4.000000,4.000000,4.000000,4.000000,4.000000,4.000000,4.000000,4.000000,4.000000,4.000000,4.000000,2.000000,4.000000,4.000000,4.000000,4.000000,4.000000,4.000000,4.000000,4.000000,4.000000,4.000000,4.000000,4.000000,4.000000,4.000000,83.333336
1615602356.006796,103.000000,0.000000,16.007992,6.913105,22.250191,20.321493,31.760443,20.818306,27.501986,25.971905,34.557056,26.677551,49.412910,27.425371,34.516598,43.511715,28.495451,41.756077,23.526892,41.161228,13.575101,4.199546,14.577097,8.865746,32.001152,0.230722,59.114906,36.038334,27.373777,6.549361,18.978323,62.180458,17.862694,27.303736,8192.000000,0.000000,4.000000,,,,0.000000,4.000000,4.000000,4.000000,4.000000,4.000000,4.000000,4.000000,4.000000,4.000000,4.000000,4.000000,4.000000,4.000000,4.000000,4.000000,4.000000,4.000000,2.000000,4.000000,4.000000,4.000000,4.000000,4.000000,4.000000,4.000000,4.000000,4.000000,4.000000,4.000000,4.000000,4.000000,4.000000,83.333336
1615602356.014645,104.000000,0.000000,15.991983,6.393372,20.689480,20.813992,28.651758,20.284666,27.474483,23.894650,35.035320,25.112411,48.850677,27.397945,34.482082,42.442562,28.466955,44.278423,23.503365,44.709812,29.971783,19.579962,14.049699,8.856880,31.969152,3.307415,57.517330,34.976654,28.884865,8.081273,11.779857,58.015713,13.229446,25.225151,8064.000000,0.000000,4.000000,,,,0.000000,4.000000,4.000000,4.000000,4.000000,4.000000,4.000000,4.000000,4.000000,4.000000,4.000000,4.000000,4.000000,4.000000,4.000000,4.000000,4.000000,4.000000,2.000000,4.000000,4.000000,4.000000,4.000000,4.000000,4.000000,4.000000,4.000000,4.000000,4.000000,4.000000,4.000000,4.000000,4.000000,83.333336
1615602356.022395,105.000000,0.000000,15.975991,6.386979,15.540585,15.152152,20.930799,20.777203,27.447008,18.742550,32.949005,22.010376,48.289005,25.832087,34.447601,41.887299,27.925669,43.208504,23.479860,48.767666,41.736683,26.739868,18.138214,10.899305,31.937183,6.893851,46.177761,35.454498,28.343161,7.560371,10.229616,49.239750,2.959806,10.840951,8064.000000,0.000000,4.000000,,,,0.000000,4.000000,4.000000,4.000000,4.000000,4.000000,4.000000,4.000000,4.000000,4.000000,4.000000,4.000000,4.000000,4.000000,4.000000,4.000000,4.000000,4.000000,2.000000,4.000000,4.000000,4.000000,4.000000,4.000000,4.000000,4.000000,4.000000,4.000000,4.000000,4.000000,4.000000,4.000000,4.000000,83.333336
1615602356.030244,106.000000,0.000000,15.960015,6.380591,12.960941,14.111359,20.397047,20.756426,27.419561,18.210987,30.864773,21.988367,48.753536,23.754972,34.413151,42.358231,28.410563,48.293499,23.456381,45.129154,26.310329,11.328513,24.786741,12.939688,31.905245,7.399777,44.080303,35.931866,28.314817,7.552811,11.245028,53.805893,3.469667,9.291648,8064.000000,0.000000,4.000000,,,,0.000000,4.000000,4.000000,4.000000,4.000000,4.000000,4.000000,4.000000,4.000000,4.000000,4.000000,4.000000,4.000000,4.000000,4.000000,4.000000,4.000000,4.000000,2.000000,4.000000,4.000000,4.000000,4.000000,4.000000,4.000000,4.000000,4.000000,4.000000,4.000000,4.000000,4.000000,4.000000,4.000000,83.333336
1615602356.037994,107.000000,0.000000,15.944056,6.374211,13.460801,15.635709,21.402292,20.222849,27.392143,18.705597,30.833908,25.043301,48.704784,23.218395,35.404381,42.828693,30.946255,52.347771,24.458567,44.058384,15.514790,2.599236,26.813236,12.926748,31.873341,6.879557,46.600323,35.383110,28.799322,7.545258,10.720962,63.495678,9.620044,16.461843,8064.000000,0.000000,4.000000,,,,0.000000,4.000000,4.000000,4.000000,4.000000,4.000000,4.000000,4.000000,4.000000,4.000000,4.000000,4.000000,4.000000,4.000000,4.000000,4.000000,4.000000,4.000000,2.000000,4.000000,4.000000,4.000000,4.000000,4.000000,4.000000,4.000000,4.000000,4.000000,4.000000,4.000000,4.000000,4.000000,4.000000,83.333336
1615602356.045843,108.000000,0.000000,15.928111,5.855016,13.960160,15.107252,21.380890,20.715446,27.364750,18.174070,30.803074,25.531078,48.656078,23.195177,33.830513,42.273045,30.915310,44.603115,21.357183,44.014324,14.986454,-3.557209,25.247963,12.401001,31.328646,7.385498,45.015263,34.322086,28.257702,7.537713,15.838446,64.457825,11.661706,17.983843,8064.000000,0.000000,4.000000,,,,0.000000,4.000000,4.000000,4.000000,4.000000,4.000000,4.000000,4.000000,4.000000,4.000000,4.000000,4.000000,4.000000,4.000000,4.000000,4.000000,4.000000,4.000000,2.000000,4.000000,4.000000,4.000000,4.000000,4.000000,4.000000,4.000000,4.000000,4.000000,4.000000,4.000000,4.000000,4.000000,4.000000,83.333336
1615602356.053693,109.000000,0.000000,15.399363,6.874802,15.997482,14.579325,23.410791,22.746012,27.337385,20.207178,30.259451,25.505547,48.094604,22.146341,32.771042,42.230770,28.320292,38.917484,18.771725,38.842106,2.150955,-17.399805,24.709894,12.388600,31.810139,6.865292,44.457428,38.390331,28.229445,7.530175,21.976454,63.367722,12.675685,18.991501,8064.000000,0.000000,4.000000,,,,0.000000,4.000000,4.000000,4.000000,4.000000,4.000000,4.000000,4.000000,4.000000,4.000000,4.000000,4.000000,4.000000,4.000000,4.000000,4.000000,4.000000,4.000000,2.000000,4.000000,4.000000,4.000000,4.000000,4.000000,4.000000,4.000000,4.000000,4.000000,4.000000,4.000000,4.000000,4.000000,4.000000,83.333336
1615602356.061443,110.000000,0.000000,15.896784,9.432030,17.519947,15.077566,24.925840,24.261728,27.310049,22.751074,31.254831,25.992863,48.559330,24.175478,36.328014,42.701363,28.804792,44.006775,23.368338,37.264801,3.687265,-11.228559,26.223646,12.376211,31.778328,5.832786,46.977070,42.454502,28.714035,7.522645,22.467297,63.817177,14.714292,18.459688,8064.000000,0.000000,4.000000,,,,0.000000,4.000000,4.000000,4.000000,4.000000,4.000000,4.000000,4.000000,4.000000,4.000000,4.000000,4.000000,4.000000,4.000000,4.000000,4.000000,4.000000,4.000000,2.000000,4.000000,4.000000,4.000000,4.000000,4.000000,4.000000,4.000000,4.000000,4.000000,4.000000,4.000000,4.000000,4.000000,4.000000,83.333336
1615602356.069292,111.000000,0.000000,15.880887,9.935418,18.015247,15.062489,25.413736,24.237467,27.282738,21.189861,29.685116,20.838665,47.997948,22.100019,31.676302,41.633018,27.237526,39.860203,21.293688,39.791641,22.145117,4.167284,23.120499,11.851015,27.643986,6.852594,48.981377,38.309486,27.659681,7.515122,21.419189,57.599514,14.699577,11.774562,8064.000000,0.000000,4.000000,,,,0.000000,4.000000,4.000000,4.000000,4.000000,4.000000,4.000000,4.000000,4.000000,4.000000,4.000000,4.000000,4.000000,4.000000,4.000000,4.000000,4.000000,4.000000,2.000000,4.000000,4.000000,4.000000,4.000000,4.000000,4.000000,4.000000,4.000000,4.000000,4.000000,4.000000,4.000000,4.000000,4.000000,83.333336
1615602356.077042,112.000000,0.000000,13.813724,9.925483,17.484411,15.047426,24.875502,24.213228,27.255455,18.604568,25.552866,13.125518,41.796104,14.385612,18.311293,37.488823,20.030800,28.538292,12.554444,36.162106,18.020407,0.573373,15.405070,8.249420,24.539419,7.871382,48.932396,35.194252,25.067919,6.994787,22.423410,51.900887,14.172057,9.711506,8064.000000,0.000000,4.000000,,,,0.000000,4.000000,4.000000,4.000000,4.000000,4.000000,4.000000,4.000000,4.000000,4.000000,4.000000,4.000000,4.000000,4.000000,4.000000,4.000000,4.000000,4.000000,2.000000,4.000000,4.000000,4.000000,4.000000,4.000000,4.000000,4.000000,4.000000,4.000000,4.000000,4.000000,4.000000,4.000000,4.000000,83.333336
1615602356.084891,113.000000,0.000000,12.774269,11.966840,16.954107,15.032378,20.235241,24.189016,26.715380,18.073145,22.450390,14.138033,37.651745,13.345585,19.831444,34.374409,22.062052,32.612316,19.721376,32.536198,11.335720,4.675364,14.364024,7.728350,28.104624,4.273767,48.370644,37.723160,24.017210,7.500612,22.400988,56.977192,14.157885,15.342820,8192.000000,0.000000,4.000000,,,,0.000000,4.000000,4.000000,4.000000,4.000000,4.000000,4.000000,4.000000,4.000000,4.000000,4.000000,4.000000,4.000000,4.000000,4.000000,4.000000,4.000000,4.000000,2.000000,4.000000,4.000000,4.000000,4.000000,4.000000,4.000000,4.000000,4.000000,4.000000,4.000000,4.000000,4.000000,4.000000,4.000000,83.333336
1615602356.092641,114.000000,0.000000,14.812778,14.006155,17.962793,14.504525,17.138083,23.652006,27.714306,18.567892,22.940760,20.277742,41.203838,21.024548,35.709049,34.340034,32.809219,44.374577,37.137554,34.554943,28.247461,23.132227,22.554789,14.387289,31.666262,4.269494,48.835091,39.736721,23.993193,10.057215,21.865767,63.586880,14.143727,17.891579,8064.000000,0.000000,4.000000,,,,0.000000,4.000000,4.000000,4.000000,4.000000,4.000000,4.000000,4.000000,4.000000,4.000000,4.000000,4.000000,4.000000,4.000000,4.000000,4.000000,4.000000,4.000000,2.000000,4.000000,4.000000,4.000000,4.000000,4.000000,4.000000,4.000000,4.000000,4.000000,4.000000,4.000000,4.000000,4.000000,4.000000,83.333336
1615602356.100490,115.000000,0.000000,16.336426,13.479328,17.432011,14.490021,17.633766,24.141174,26.660950,18.549324,23.430639,19.744642,44.752377,24.080446,35.673340,34.818516,32.263592,42.278919,36.587597,34.007568,28.732035,19.006531,26.634798,18.988285,31.634596,14.008814,48.273438,38.671341,23.969200,11.585619,21.843901,64.036118,14.129583,16.848047,8064.000000,0.000000,4.000000,,,,0.000000,4.000000,4.000000,4.000000,4.000000,4.000000,4.000000,4.000000,4.000000,4.000000,4.000000,4.000000,4.000000,4.000000,4.000000,4.000000,4.000000,4.000000,2.000000,4.000000,4.000000,4.000000,4.000000,4.000000,4.000000,4.000000,4.000000,4.000000,4.000000,4.000000,4.000000,4.000000,4.000000,83.333336
1615602356.108240,116.000000,0.000000,15.807269,13.465849,10.235091,15.501172,16.077671,23.091393,21.506084,18.017954,22.894388,14.596693,42.656342,22.517904,26.406897,31.193953,24.539019,34.031513,26.807419,29.870998,4.600738,0.013165,21.479958,15.379554,31.090141,16.558908,48.225163,36.581387,24.458050,11.061213,21.822056,62.433617,14.115454,17.344019,8064.000000,0.000000,4.000000,,,,0.000000,4.000000,4.000000,4.000000,4.000000,4.000000,4.000000,4.000000,4.000000,4.000000,4.000000,4.000000,4.000000,4.000000,4.000000,4.000000,4.000000,4.000000,2.000000,4.000000,4.000000,4.000000,4.000000,4.000000,4.000000,4.000000,4.000000,4.000000,4.000000,4.000000,4.000000,4.000000,4.000000,83.333336
1615602356.116089,117.000000,0.000000,15.791462,13.452383,5.096651,13.434389,14.523131,19.991379,18.920475,18.512756,22.871494,13.556456,41.075226,23.008207,26.380489,27.573015,23.488840,31.946199,25.754969,27.277023,-3.608991,-6.653515,17.355913,11.261610,31.571871,6.285939,48.689758,32.442242,23.920773,11.050151,21.800234,60.832722,14.101338,17.326675,8064.000000,0.000000,4.000000,,,,0.000000,4.000000,4.000000,4.000000,4.000000,4.000000,4.000000,4.000000,4.000000,4.000000,4.000000,4.000000,4.000000,4.000000,4.000000,4.000000,4.000000,4.000000,2.000000,4.000000,4.000000,4.000000,4.000000,4.000000,4.000000,4.000000,4.000000,4.000000,4.000000,4.000000,4.000000,4.000000,4.000000,83.333336
1615602356.123839,118.000000,0.000000,15.775670,13.438931,10.219759,11.369673,20.662455,20.484207,21.978477,18.494244,26.438366,16.619822,41.546970,23.498018,27.379749,27.032621,25.516632,32.939896,27.780497,30.326670,5.625388,-3.569938,20.928301,13.301631,31.540298,1.664268,48.641068,30.358519,24.409672,11.039101,21.778435,60.259068,14.087237,17.309349,8192.000000,0.000000,4.000000,,,,0.000000,4.000000,4.000000,4.000000,4.000000,4.000000,4.000000,4.000000,4.000000,4.000000,4.000000,4.000000,4.000000,4.000000,4.000000,4.000000,4.000000,4.000000,2.000000,4.000000,4.000000,4.000000,4.000000,4.000000,4.000000,4.000000,4.000000,4.000000,4.000000,4.000000,4.000000,4.000000,4.000000,83.333336
1615602356.131688,119.000000,0.000000,15.744135,13.924887,23.014715,12.374637,31.897047,26.083773,27.059671,18.457273,34.587055,21.198908,40.950584,23.450533,28.349632,29.543200,25.976395,33.385841,30.799835,45.134766,25.604912,6.690532,28.062363,18.914015,31.477249,-0.898546,48.031013,30.299883,27.950108,11.017034,22.247719,59.113483,13.546256,19.326029,8064.000000,0.000000,4.000000,,,,0.000000,4.000000,4.000000,4.000000,4.000000,4.000000,4.000000,4.000000,4.000000,4.000000,4.000000,4.000000,4.000000,4.000000,4.000000,4.000000,4.000000,4.000000,2.000000,4.000000,4.000000,4.000000,4.000000,4.000000,4.000000,4.000000,4.000000,4.000000,4.000000,4.000000,4.000000,4.000000,4.000000,83.333336
1615602356.139538,120.000000,0.000000,16.241211,13.910962,22.991699,16.464827,31.352329,28.621790,26.519791,18.438816,34.039646,23.228991,44.499378,23.939903,33.449490,36.180325,26.976059,32.839634,31.794676,54.833221,30.707512,10.273584,30.598404,22.484844,31.445772,-1.410468,51.059906,32.320866,32.024723,11.518837,22.225471,58.541550,14.558351,21.357985,8192.000000,0.000000,4.000000,,,,0.000000,4.000000,4.000000,4.000000,4.000000,4.000000,4.000000,4.000000,4.000000,4.000000,4.000000,4.000000,4.000000,4.000000,4.000000,4.000000,4.000000,4.000000,2.000000,4.000000,4.000000,4.000000,4.000000,4.000000,4.000000,4.000000,4.000000,4.000000,4.000000,4.000000,4.000000,4.000000,4.000000,83.333336
1615602356.147288,121.000000,0.000000,16.224970,12.871409,21.943068,14.909900,30.808157,28.080349,25.980450,18.420378,31.441505,23.205761,45.993340,22.890322,34.441681,38.195423,30.026005,33.832436,32.275703,48.624542,18.881933,-0.505920,27.490883,22.462360,31.414328,-0.383417,52.547310,32.801365,33.531158,11.507318,21.690426,59.508648,16.595074,21.336628,8064.000000,0.000000,4.000000,,,,0.000000,4.000000,4.000000,4.000000,4.000000,4.000000,4.000000,4.000000,4.000000,4.000000,4.000000,4.000000,4.000000,4.000000,4.000000,4.000000,4.000000,4.000000,2.000000,4.000000,4.000000,4.000000,4.000000,4.000000,4.000000,4.000000,4.000000,4.000000,4.000000,4.000000,4.000000,4.000000,4.000000,83.333336
1615602356.155137,122.000000,0.000000,12.619001,13.884179,22.946764,12.330888,31.290169,28.052269,26.467291,18.401957,30.384422,21.644094,34.152473,19.790508,27.227751,30.464922,30.508801,33.798603,33.269066,39.345146,8.606641,-5.120799,16.694160,16.286051,31.382912,1.668249,45.828094,32.768562,29.395063,10.470170,22.181557,57.397858,18.116941,19.776829,8064.000000,0.000000,4.000000,,,,0.000000,4.000000,4.000000,4.000000,4.000000,4.000000,4.000000,4.000000,4.000000,4.000000,4.000000,4.000000,4.000000,4.000000,4.000000,4.000000,4.000000,4.000000,2.000000,4.000000,4.000000,4.000000,4.000000,4.000000,4.000000,4.000000,4.000000,4.000000,4.000000,4.000000,4.000000,4.000000,4.000000,83.333336
1615602356.162887,123.000000,0.000000,12.606382,14.383116,22.410997,12.831377,31.258879,28.024216,26.953644,18.896376,28.815577,21.109629,22.836269,19.770720,23.097960,26.844713,29.965471,29.662243,31.184517,39.305801,11.162136,4.627912,6.421056,8.577457,31.864349,-1.923163,37.064320,32.735794,25.775925,11.485341,19.082451,50.673794,17.586004,17.705770,8064.000000,0.000000,4.000000,,,,0.000000,4.000000,4.000000,4.000000,4.000000,4.000000,4.000000,4.000000,4.000000,4.000000,4.000000,4.000000,4.000000,4.000000,4.000000,4.000000,4.000000,4.000000,2.000000,4.000000,4.000000,4.000000,4.000000,4.000000,4.000000,4.000000,4.000000,4.000000,4.000000,4.000000,4.000000,4.000000,4.000000,83.333336
1615602356.170737,124.000000,0.000000,13.106596,8.727707,20.337305,13.331367,31.227621,28.509012,25.901049,17.851839,26.222658,20.062878,26.403177,20.776588,24.613323,26.817869,29.935505,26.042835,26.537947,39.266495,9.612513,5.136105,4.876173,6.004778,31.319666,-5.510983,36.514431,33.215881,24.724508,11.473856,10.345420,47.033375,16.029957,15.123962,8064.000000,0.000000,4.000000,,,,0.000000,4.000000,4.000000,4.000000,4.000000,4.000000,4.000000,4.000000,4.000000,4.000000,4.000000,4.000000,4.000000,4.000000,4.000000,4.000000,4.000000,4.000000,2.000000,4.000000,4.000000,4.000000,4.000000,4.000000,4.000000,4.000000,4.000000,4.000000,4.000000,4.000000,4.000000,4.000000,4.000000,83.333336
1615602356.178487,125.000000,0.000000,5.401182,2.565133,18.265686,11.779573,29.145111,27.967682,23.311045,15.269884,26.196436,17.478714,31.504980,15.627607,23.563068,15.508999,29.905569,24.991152,25.485769,39.227230,16.269567,3.592507,7.948220,6.511593,27.698603,-4.992652,37.503559,31.644201,23.161322,5.308536,3.668408,47.499165,12.937003,13.570376,8064.000000,0.000000,4.000000,,,,0.000000,4.000000,4.000000,4.000000,4.000000,4.000000,4.000000,4.000000,4.000000,4.000000,4.000000,4.000000,4.000000,4.000000,4.000000,4.000000,4.000000,4.000000,2.000000,4.000000,4.000000,4.000000,4.000000,4.000000,4.000000,4.000000,4.000000,4.000000,4.000000,4.000000,4.000000,4.000000,4.000000,83.333336
1615602356.186336,126.000000,0.000000,-2.296527,1.536927,16.196138,9.716512,24.500582,25.375612,22.262093,14.228973,26.683060,16.948414,29.422192,8.945313,20.462582,7.801182,29.875664,22.914879,24.434641,39.188004,28.560989,7.178658,8.965913,7.530723,22.542698,-4.987659,36.953236,27.509995,21.086878,-0.337798,3.151919,47.451664,10.359963,13.043985,8064.000000,0.000000,4.000000,,,,0.000000,4.000000,4.000000,4.000000,4.000000,4.000000,4.000000,4.000000,4.000000,4.000000,4.000000,4.000000,4.000000,4.000000,4.000000,4.000000,4.000000,4.000000,2.000000,4.000000,4.000000,4.000000,4.000000,4.000000,4.000000,4.000000,4.000000,4.000000,4.000000,4.000000,4.000000,4.000000,4.000000,83.333336
1615602356.194186,127.000000,0.000000,-0.755769,3.073852,14.641479,8.681154,22.424799,23.811775,22.752651,14.727565,26.143557,17.444286,28.879950,7.910727,19.416479,21.126715,29.845789,21.353502,18.256361,31.456507,5.968326,-11.290059,3.828742,4.446269,20.468874,-4.982672,36.403461,24.918381,20.552971,-0.850281,2.635947,47.917034,9.836782,13.543762,8064.000000,0.000000,4.000000,,,,0.000000,4.000000,4.000000,4.000000,4.000000,4.000000,4.000000,4.000000,4.000000,4.000000,4.000000,4.000000,4.000000,4.000000,4.000000,4.000000,4.000000,4.000000,2.000000,4.000000,4.000000,4.000000,4.000000,4.000000,4.000000,4.000000,4.000000,4.000000,4.000000,4.000000,4.000000,4.000000,4.000000,83.333336
1615602356.201936,0.000000,0.000000,1.809090,2.045137,14.626839,9.185293,23.428015,24.300783,22.729898,15.225657,26.117413,16.914021,32.953632,8.928457,20.422703,30.336357,29.815943,22.357790,13.109900,24.245564,-17.627386,-30.765949,1.260811,-4.788946,19.935585,-6.516150,36.879879,24.893463,20.532417,-0.336610,3.658952,50.433220,9.826946,13.017398,0.000000,196.000000,4.000000,,,,0.000000,4.000000,4.000000,4.000000,4.000000,4.000000,4.000000,4.000000,4.000000,4.000000,4.000000,4.000000,4.000000,4.000000,4.000000,4.000000,4.000000,4.000000,2.000000,4.000000,4.000000,4.000000,4.000000,4.000000,4.000000,4.000000,4.000000,4.000000,4.000000,4.000000,4.000000,4.000000,4.000000,83.333336
1615602356.209786,1.000000,0.000000,0.268819,1.530271,14.612211,9.176108,23.404587,24.276484,22.707169,12.646329,26.604116,16.897108,34.459141,8.406708,20.402281,21.588072,29.786127,21.822613,13.609610,30.375164,9.569729,-13.812105,12.541601,-2.732875,19.915649,-11.125019,37.355820,25.381390,21.024706,-0.849094,8.270678,49.869965,9.817120,13.004380,0.000000,169.000000,4.000000,,,,0.000000,4.000000,4.000000,4.000000,4.000000,4.000000,4.000000,4.000000,4.000000,4.000000,4.000000,4.000000,4.000000,4.000000,4.000000,4.000000,4.000000,4.000000,2.000000,4.000000,4.000000,4.000000,4.000000,4.000000,4.000000,4.000000,4.000000,4.000000,4.000000,4.000000,4.000000,4.000000,4.000000,83.333336
1615602356.217535,2.000000,0.000000,0.781371,2.041561,14.597599,6.602829,20.817080,21.688105,22.684462,11.608042,26.577511,17.393030,32.886223,8.398301,19.869059,20.028023,29.756340,21.800789,13.596001,34.960175,25.970415,0.047860,18.170086,11.116012,20.408554,-12.652355,36.805641,25.356009,21.003681,0.177396,11.339330,47.768814,10.320123,13.504196,0.000000,199.000000,4.000000,,,,0.000000,4.000000,4.000000,4.000000,4.000000,4.000000,4.000000,4.000000,4.000000,4.000000,4.000000,4.000000,4.000000,4.000000,4.000000,4.000000,4.000000,4.000000,2.000000,4.000000,4.000000,4.000000,4.000000,4.000000,4.000000,4.000000,4.000000,4.000000,4.000000,4.000000,4.000000,4.000000,4.000000,83.333336
1615602356.225385,3.000000,0.000000,0.780589,3.065161,14.583002,1.980842,19.770620,20.127954,22.661777,13.647716,26.550934,16.862818,34.391796,8.389903,20.874830,31.802866,29.213764,27.420013,13.582404,31.848289,-1.747863,-12.772700,8.408325,11.104896,20.388145,-9.562780,36.768837,24.305012,20.469856,-0.335602,10.815170,47.208221,9.796982,13.490692,0.000000,171.000000,4.000000,,,,0.000000,4.000000,4.000000,4.000000,4.000000,4.000000,4.000000,4.000000,4.000000,4.000000,4.000000,4.000000,4.000000,4.000000,4.000000,4.000000,4.000000,4.000000,2.000000,4.000000,4.000000,4.000000,4.000000,4.000000,4.000000,4.000000,4.000000,4.000000,4.000000,4.000000,4.000000,4.000000,4.000000,83.333336
1615602356.233135,4.000000,0.000000,0.266988,1.523634,14.568419,0.953220,19.238029,20.620647,22.639116,15.172530,26.524384,17.358774,41.536892,8.894334,22.905237,35.873627,29.184549,32.520798,17.671387,37.457466,-1.746115,-7.631722,10.451200,2.888662,19.342115,-9.040397,38.783352,25.819168,21.475029,0.177554,10.804355,46.648193,10.812826,12.964381,0.000000,167.000000,4.000000,,,,0.000000,4.000000,4.000000,4.000000,4.000000,4.000000,4.000000,4.000000,4.000000,4.000000,4.000000,4.000000,4.000000,4.000000,4.000000,4.000000,4.000000,4.000000,2.000000,4.000000,4.000000,4.000000,4.000000,4.000000,4.000000,4.000000,4.000000,4.000000,4.000000,4.000000,4.000000,4.000000,4.000000,83.333336
1615602356.240984,5.000000,0.000000,6.933388,3.060572,17.117952,5.567651,19.218792,20.600027,22.616476,14.131716,26.497858,19.905519,45.597919,10.936721,23.907972,33.273651,31.206648,33.513920,21.243458,48.702061,27.999222,15.452832,27.363825,8.526799,22.912518,-9.544177,40.795849,29.895912,26.068937,8.382504,11.306371,48.140007,14.904577,13.977057,0.000000,179.000000,4.000000,,,,0.000000,4.000000,4.000000,4.000000,4.000000,4.000000,4.000000,4.000000,4.000000,4.000000,4.000000,4.000000,4.000000,4.000000,4.000000,4.000000,4.000000,4.000000,2.000000,4.000000,4.000000,4.000000,4.000000,4.000000,4.000000,4.000000,4.000000,4.000000,4.000000,4.000000,4.000000,4.000000,4.000000,83.333336
1615602356.248734,6.000000,0.000000,15.644403,10.236999,21.716219,10.690289,21.763676,20.066607,22.593861,14.630405,26.471361,21.424074,44.526680,12.977067,23.884066,33.240379,33.226723,32.967587,21.222216,50.704639,28.484043,20.052765,33.490307,15.697760,28.017809,-1.842325,40.755054,32.942940,28.606972,15.553610,10.782244,50.143150,18.479416,16.527184,0.000000,190.000000,4.000000,,,,0.000000,4.000000,4.000000,4.000000,4.000000,4.000000,4.000000,4.000000,4.000000,4.000000,4.000000,4.000000,4.000000,4.000000,4.000000,4.000000,4.000000,4.000000,2.000000,4.000000,4.000000,4.000000,4.000000,4.000000,4.000000,4.000000,4.000000,4.000000,4.000000,4.000000,4.000000,4.000000,4.000000,83.333336
1615602356.256584,7.000000,0.000000,16.654400,14.842146,22.720144,13.243701,26.357296,20.559361,22.571266,14.615774,26.444889,20.889830,44.482155,12.964089,23.860180,34.232777,33.706318,32.934616,20.688171,46.551373,9.994020,12.340404,28.328611,12.605139,24.400049,6.877466,40.201477,32.397175,28.065544,10.922671,10.258641,48.041725,16.409655,17.023478,0.000000,177.000000,4.000000,,,,0.000000,4.000000,4.000000,4.000000,4.000000,4.000000,4.000000,4.000000,4.000000,4.000000,4.000000,4.000000,4.000000,4.000000,4.000000,4.000000,4.000000,4.000000,2.000000,4.000000,4.000000,4.000000,4.000000,4.000000,4.000000,4.000000,4.000000,4.000000,4.000000,4.000000,4.000000,4.000000,4.000000,83.333336
1615602356.264334,8.000000,0.000000,12.535181,9.699099,21.671783,12.717637,27.356581,20.538801,22.035875,12.037056,26.418444,20.868940,44.950493,11.925485,23.323500,33.685726,33.159790,33.414505,20.667484,42.402256,5.881462,7.712679,29.838745,15.156636,20.785904,6.357768,40.674095,32.364780,28.037477,3.219441,10.761203,47.993683,12.803501,17.519274,0.000000,199.000000,4.000000,,,,0.000000,4.000000,4.000000,4.000000,4.000000,4.000000,4.000000,4.000000,4.000000,4.000000,4.000000,4.000000,4.000000,4.000000,4.000000,4.000000,4.000000,4.000000,2.000000,4.000000,4.000000,4.000000,4.000000,4.000000,4.000000,4.000000,4.000000,4.000000,4.000000,4.000000,4.000000,4.000000,4.000000,83.333336
1615602356.272183,9.000000,0.000000,12.009826,5.586836,22.162931,12.704920,26.816402,20.518261,22.526659,12.537840,26.392027,20.848072,44.392719,13.452021,25.351458,33.652039,33.126629,39.022114,24.749380,42.872673,25.875580,13.345992,38.014034,26.936352,28.457426,2.248846,42.684704,32.845234,28.522261,3.216221,12.801724,53.073895,15.354800,19.553036,0.000000,198.000000,4.000000,,,,0.000000,4.000000,4.000000,4.000000,4.000000,4.000000,4.000000,4.000000,4.000000,4.000000,4.000000,4.000000,4.000000,4.000000,4.000000,4.000000,4.000000,4.000000,2.000000,4.000000,4.000000,4.000000,4.000000,4.000000,4.000000,4.000000,4.000000,4.000000,4.000000,4.000000,4.000000,4.000000,4.000000,83.333336
1615602356.279933,10.000000,0.000000,12.510636,6.094069,21.627949,12.692215,26.789587,19.472103,24.555414,16.627867,25.852814,20.314404,44.348328,16.002670,30.454311,33.618385,33.093502,45.136940,31.904118,48.983646,55.080475,29.230082,40.027302,32.037621,36.121277,5.836341,44.180481,32.299568,27.980919,4.238646,14.840204,53.533642,23.031754,21.071945,0.000000,188.000000,4.000000,,,,0.000000,4.000000,4.000000,4.000000,4.000000,4.000000,4.000000,4.000000,4.000000,4.000000,4.000000,4.000000,4.000000,4.000000,4.000000,4.000000,4.000000,4.000000,2.000000,4.000000,4.000000,4.000000,4.000000,4.000000,4.000000,4.000000,4.000000,4.000000,4.000000,4.000000,4.000000,4.000000,4.000000,83.333336
1615602356.287783,11.000000,0.000000,11.985305,6.600796,22.119141,12.679523,26.762796,20.478271,26.069321,18.662519,26.339781,21.319729,44.816799,15.473847,30.936678,33.584770,33.573231,44.578979,35.974777,46.370564,46.820267,24.585466,32.807789,22.774813,34.033875,10.445889,43.623482,32.267269,27.952938,3.208766,14.312544,50.403183,25.572824,20.538052,0.000000,187.000000,4.000000,,,,0.000000,4.000000,4.000000,4.000000,4.000000,4.000000,4.000000,4.000000,4.000000,4.000000,4.000000,4.000000,4.000000,4.000000,4.000000,4.000000,4.000000,4.000000,2.000000,4.000000,4.000000,4.000000,4.000000,4.000000,4.000000,4.000000,4.000000,4.000000,4.000000,4.000000,4.000000,4.000000,4.000000,83.333336
1615602356.295533,12.000000,0.000000,11.973320,5.568554,25.173944,12.666842,27.248856,21.483435,26.043251,18.131037,26.313442,20.785589,43.233521,12.894272,27.315998,33.551186,30.975555,38.893375,35.938805,32.478039,14.465753,-1.592965,24.569851,12.495628,30.410095,6.845700,43.579857,32.235004,27.924984,3.205558,14.298231,50.352779,24.008789,20.517515,0.000000,197.000000,4.000000,,,,0.000000,4.000000,4.000000,4.000000,4.000000,4.000000,4.000000,4.000000,4.000000,4.000000,4.000000,4.000000,4.000000,4.000000,4.000000,4.000000,4.000000,4.000000,2.000000,4.000000,4.000000,4.000000,4.000000,4.000000,4.000000,4.000000,4.000000,4.000000,4.000000,4.000000,4.000000,4.000000,4.000000,83.333336
1615602356.303382,13.000000,0.000000,11.961347,5.562985,25.148771,12.141356,26.708786,18.897848,26.017208,17.600086,25.774307,19.739162,40.626186,11.855736,26.775862,33.517632,26.329195,35.777561,35.390045,28.342995,14.451286,-7.232398,24.545282,9.919030,31.405327,-0.853454,44.049099,32.202766,27.897060,3.715173,14.283933,49.789608,24.497602,20.496998,0.000000,196.000000,4.000000,,,,0.000000,4.000000,4.000000,4.000000,4.000000,4.000000,4.000000,4.000000,4.000000,4.000000,4.000000,4.000000,4.000000,4.000000,4.000000,4.000000,4.000000,4.000000,2.000000,4.000000,4.000000,4.000000,4.000000,4.000000,4.000000,4.000000,4.000000,4.000000,4.000000,4.000000,4.000000,4.000000,4.000000,83.333336
1615602356.311132,14.000000,0.000000,11.949385,5.557423,25.636442,13.154855,25.656435,21.955873,25.991190,15.018383,26.261354,25.360449,40.072739,12.869521,27.774727,33.996937,25.277224,37.280243,35.867474,37.545422,39.052219,5.595348,23.495096,10.421931,31.373922,-2.391062,42.979408,32.170567,27.869164,3.711457,14.269649,47.175716,24.985924,20.476500,0.000000,183.000000,4.000000,,,,0.000000,4.000000,4.000000,4.000000,4.000000,4.000000,4.000000,4.000000,4.000000,4.000000,4.000000,4.000000,4.000000,4.000000,4.000000,4.000000,4.000000,4.000000,2.000000,4.000000,4.000000,4.000000,4.000000,4.000000,4.000000,4.000000,4.000000,4.000000,4.000000,4.000000,4.000000,4.000000,4.000000,83.333336
1615602356.318982,15.000000,0.000000,11.937436,8.115968,30.739012,16.731443,29.220524,32.190327,25.965200,17.054647,29.312016,32.001755,40.545486,12.343831,27.746952,34.475758,26.277588,36.217323,36.344429,39.559158,34.397781,8.153855,17.830574,9.898689,31.342548,-0.850209,44.474892,32.138393,27.841293,3.707746,14.255380,46.615719,24.960939,20.456024,0.000000,196.000000,4.000000,,,,0.000000,4.000000,4.000000,4.000000,4.000000,4.000000,4.000000,4.000000,4.000000,4.000000,4.000000,4.000000,4.000000,4.000000,4.000000,4.000000,4.000000,4.000000,2.000000,4.000000,4.000000,4.000000,4.000000,4.000000,4.000000,4.000000,4.000000,4.000000,4.000000,4.000000,4.000000,4.000000,4.000000,83.333336
1615602356.326832,16.000000,0.000000,11.925498,10.159134,32.759556,19.278814,32.268227,32.158138,25.939234,21.140156,30.308344,28.892830,41.017761,11.818667,26.693563,32.902821,25.738491,27.463156,34.256802,31.827291,23.081335,6.607240,20.376846,9.375970,31.311205,-1.362179,49.045799,32.106255,27.813452,3.704038,14.241124,47.081924,24.423157,20.435568,0.000000,184.000000,4.000000,,,,0.000000,4.000000,4.000000,4.000000,4.000000,4.000000,4.000000,4.000000,4.000000,4.000000,4.000000,4.000000,4.000000,4.000000,4.000000,4.000000,4.000000,4.000000,2.000000,4.000000,4.000000,4.000000,4.000000,4.000000,4.000000,4.000000,4.000000,4.000000,4.000000,4.000000,4.000000,4.000000,4.000000,83.333336
1615602356.334581,17.000000,0.000000,11.913573,9.123334,27.598589,20.285177,29.159035,21.356749,25.913296,20.606195,29.765215,24.248552,39.951103,12.319669,27.179691,33.382740,25.199932,25.384411,32.171261,26.667259,20.494150,3.523709,27.535957,10.392235,30.254253,-1.873638,51.560856,32.074150,27.785639,3.700334,14.226883,47.034843,24.398733,20.415133,0.000000,212.000000,4.000000,,,,0.000000,4.000000,4.000000,4.000000,4.000000,4.000000,4.000000,4.000000,4.000000,4.000000,4.000000,4.000000,4.000000,4.000000,4.000000,4.000000,4.000000,4.000000,2.000000,4.000000,4.000000,4.000000,4.000000,4.000000,4.000000,4.000000,4.000000,4.000000,4.000000,4.000000,4.000000,4.000000,4.000000,83.333336
1615602356.342331,18.000000,0.000000,12.414480,11.165492,25.006889,20.264893,25.540133,18.771290,25.887383,19.047127,30.761091,25.762766,40.423973,12.820169,28.178152,35.400639,26.713192,32.025692,32.139091,28.691874,12.268528,-6.223404,28.021242,10.894663,31.762461,-1.358943,51.509296,32.042076,28.783495,3.696634,14.212656,47.500629,24.887156,20.394716,0.000000,194.000000,4.000000,,,,0.000000,4.000000,4.000000,4.000000,4.000000,4.000000,4.000000,4.000000,4.000000,4.000000,4.000000,4.000000,4.000000,4.000000,4.000000,4.000000,4.000000,4.000000,2.000000,4.000000,4.000000,4.000000,4.000000,4.000000,4.000000,4.000000,4.000000,4.000000,4.000000,4.000000,4.000000,4.000000,4.000000,83.333336
1615602356.350181,19.000000,0.000000,11.376424,16.795353,25.494701,18.706165,26.540232,21.316620,25.861494,15.951158,29.191870,19.583157,41.409191,11.268888,24.047411,26.647289,24.635197,28.403925,28.517208,28.663181,22.512671,-4.165899,25.429117,10.370948,31.217876,-0.844764,50.944965,30.471571,27.729069,3.692937,14.711264,46.427486,23.836628,20.374323,0.000000,201.000000,4.000000,,,,0.000000,4.000000,4.000000,4.000000,4.000000,4.000000,4.000000,4.000000,4.000000,4.000000,4.000000,4.000000,4.000000,4.000000,4.000000,4.000000,4.000000,4.000000,2.000000,4.000000,4.000000,4.000000,4.000000,4.000000,4.000000,4.000000,4.000000,4.000000,4.000000,4.000000,4.000000,4.000000,4.000000,83.333336
1615602356.357931,20.000000,0.000000,8.800945,16.265736,25.469208,16.636177,27.026512,20.269663,25.835632,7.217257,22.496010,7.768702,36.752396,8.693517,14.792593,10.723207,18.456717,18.119110,21.309204,19.403749,41.977337,1.479293,21.813946,10.873398,21.443069,-1.356740,46.278637,27.876997,22.573135,3.689244,13.158091,46.381058,20.735868,19.841127,0.000000,216.000000,4.000000,,,,0.000000,4.000000,4.000000,4.000000,4.000000,4.000000,4.000000,4.000000,4.000000,4.000000,4.000000,4.000000,4.000000,4.000000,4.000000,4.000000,4.000000,4.000000,2.000000,4.000000,4.000000,4.000000,4.000000,4.000000,4.000000,4.000000,4.000000,4.000000,4.000000,4.000000,4.000000,4.000000,4.000000,83.333336
1615602356.365780,21.000000,0.000000,8.279324,13.172547,25.443739,16.106720,25.973845,19.223753,25.809797,2.081835,17.858130,7.760933,30.048977,8.684823,11.700878,9.686842,14.335695,17.075350,16.672510,10.153577,29.627666,-7.752955,12.048542,10.349704,11.678037,-1.355383,39.052872,28.361940,21.012100,3.685555,11.093651,47.873138,17.638208,17.770004,0.000000,194.000000,4.000000,,,,0.000000,4.000000,4.000000,4.000000,4.000000,4.000000,4.000000,4.000000,4.000000,4.000000,4.000000,4.000000,4.000000,4.000000,4.000000,4.000000,4.000000,4.000000,2.000000,4.000000,4.000000,4.000000,4.000000,4.000000,4.000000,4.000000,4.000000,4.000000,4.000000,4.000000,4.000000,4.000000,4.000000,83.333336
1615602356.373530,22.000000,0.000000,8.783865,14.185017,24.905474,15.064973,26.460691,20.230169,25.783987,5.156676,18.353092,12.368557,28.480467,9.188959,12.714818,17.369463,13.808539,17.058275,16.655838,9.117782,8.059578,-16.975971,5.882647,5.723969,11.666359,-0.841207,34.911255,28.333580,20.991089,4.194690,10.569736,43.209881,17.620571,15.188131,0.000000,215.000000,4.000000,,,,0.000000,4.000000,4.000000,4.000000,4.000000,4.000000,4.000000,4.000000,4.000000,4.000000,4.000000,4.000000,4.000000,4.000000,4.000000,4.000000,4.000000,4.000000,2.000000,4.000000,4.000000,4.000000,4.000000,4.000000,4.000000,4.000000,4.000000,4.000000,4.000000,4.000000,4.000000,4.000000,4.000000,83.333336
1615602356.381380,23.000000,0.000000,6.723799,11.606729,20.778004,10.947344,26.434231,20.209940,25.758204,7.715622,18.847559,12.869009,28.964806,7.128488,11.163642,17.352093,14.307551,17.041216,16.639181,7.057382,7.538698,-15.933355,4.851123,-0.435601,13.193154,-3.404469,31.799419,25.741142,14.816252,2.139213,9.533526,33.423080,16.577309,13.634481,0.000000,205.000000,4.000000,,,,0.000000,4.000000,4.000000,4.000000,4.000000,4.000000,4.000000,4.000000,4.000000,4.000000,4.000000,4.000000,4.000000,4.000000,4.000000,4.000000,4.000000,4.000000,4.000000,4.000000,4.000000,4.000000,4.000000,4.000000,4.000000,4.000000,4.000000,4.000000,4.000000,4.000000,4.000000,4.000000,4.000000,100.000000
1615602356.389130,24.000000,0.000000,4.152973,6.466917,17.680304,8.885115,26.920618,20.189730,26.245266,6.682266,18.315891,15.933063,29.448662,4.557257,12.690940,21.950127,16.857346,28.819048,16.622543,11.152889,7.018338,-16.430243,4.846272,-2.486447,11.641500,-9.042089,31.254799,24.176941,9.673230,0.085792,6.959890,31.851196,11.945347,13.108027,0.000000,157.000000,4.000000,,,,0.000000,4.000000,4.000000,4.000000,4.000000,4.000000,4.000000,4.000000,4.000000,4.000000,4.000000,4.000000,4.000000,4.000000,4.000000,4.000000,4.000000,4.000000,4.000000,4.000000,4.000000,4.000000,4.000000,4.000000,4.000000,4.000000,4.000000,4.000000,4.000000,4.000000,4.000000,4.000000,4.000000,100.000000
