title:18, start timestamp:1615602792.849397, stop timestamp:1615602838.736807, headset type:EPOCFLEX, headset serial:F00001ED, headset firmware:f12, subject name:s18, channels:75, sampling rate:128, samples:5923      , version:2.0
Timestamp,EEG.Counter,EEG.Interpolated,EEG.Cz,EEG.Fz,EEG.Fp1,EEG.AF3,EEG.F7,EEG.F3,EEG.FC1,EEG.C3,EEG.FC5,EEG.T7,EEG.CP5,EEG.CP1,EEG.P3,EEG.P7,EEG.PO3,EEG.O1,EEG.Pz,EEG.Oz,EEG.O2,EEG.PO4,EEG.P8,EEG.P4,EEG.CP2,EEG.CP6,EEG.T8,EEG.FC6,EEG.C4,EEG.FC2,EEG.F4,EEG.F8,EEG.AF4,EEG.Fp2,EEG.HighBitFlex,EEG.RawCq,EEG.Battery,MarkerIndex,MarkerType,MarkerValueInt,EEG.MarkerHardware,CQ.Cz,CQ.Fz,CQ.Fp1,CQ.AF3,CQ.F7,CQ.F3,CQ.FC1,CQ.C3,CQ.FC5,CQ.T7,CQ.CP5,CQ.CP1,CQ.P3,CQ.P7,CQ.PO3,CQ.O1,CQ.Pz,CQ.Oz,CQ.O2,CQ.PO4,CQ.P8,CQ.P4,CQ.CP2,CQ.CP6,CQ.T8,CQ.FC6,CQ.C4,CQ.FC2,CQ.F4,CQ.F8,CQ.AF4,CQ.Fp2,CQ.Overall
1615602792.849397,14.000000,0.000000,-11.817695,15.548486,-12.161058,24.214994,21.265232,18.833397,10.810869,-1.741155,14.934773,22.975283,-5.655158,-15.578342,-31.308424,-1.634505,-9.719578,7.757165,-15.927202,-24.138449,79.552521,-13.878122,-41.293499,-21.203644,-13.348262,-10.077660,4.724628,15.870029,-1.550711,0.592671,23.980978,8.968528,23.326387,-35.205345,0.000000,203.000000,4.000000,,,,0.000000,4.000000,4.000000,4.000000,4.000000,4.000000,4.000000,4.000000,4.000000,4.000000,4.000000,4.000000,4.000000,4.000000,4.000000,4.000000,4.000000,4.000000,4.000000,4.000000,4.000000,4.000000,4.000000,4.000000,4.000000,4.000000,4.000000,4.000000,4.000000,4.000000,4.000000,4.000000,4.000000,100.000000
1615602792.857046,15.000000,0.000000,-11.293056,15.532937,-16.764282,21.113855,21.243967,19.327383,10.800058,-1.739414,14.919838,22.952307,-4.111041,-8.896097,-31.277115,-13.940562,-13.812422,-11.737772,-14.885633,-22.575848,83.062706,-14.377065,-45.354767,-27.849106,-12.309273,-18.272711,4.719904,14.828518,-3.600442,0.592079,24.469818,8.446738,17.149214,-41.323986,0.000000,213.000000,4.000000,,,,0.000000,4.000000,4.000000,4.000000,4.000000,4.000000,4.000000,4.000000,4.000000,4.000000,4.000000,4.000000,4.000000,4.000000,4.000000,4.000000,4.000000,4.000000,4.000000,4.000000,4.000000,4.000000,4.000000,4.000000,4.000000,4.000000,4.000000,4.000000,4.000000,4.000000,4.000000,4.000000,4.000000,100.000000
1615602792.864796,16.000000,0.000000,-11.281763,15.517405,-28.542389,13.913255,21.222723,15.718312,10.789259,-1.224854,14.904919,22.929354,-4.619750,-3.246176,-27.143274,-15.977904,-12.772968,-18.905521,-11.793825,-18.450708,102.466827,-8.721662,-44.796593,-20.641769,-6.143117,-21.331360,4.202363,15.326510,-3.596842,0.591486,20.342785,3.822907,7.388475,-53.590351,0.000000,181.000000,4.000000,,,,0.000000,4.000000,4.000000,4.000000,4.000000,4.000000,4.000000,4.000000,4.000000,4.000000,4.000000,4.000000,4.000000,4.000000,4.000000,4.000000,4.000000,4.000000,4.000000,4.000000,4.000000,4.000000,4.000000,4.000000,4.000000,4.000000,4.000000,4.000000,4.000000,4.000000,4.000000,4.000000,4.000000,100.000000
1615602792.872546,17.000000,0.000000,-11.783301,16.014708,-32.103592,11.335238,21.714321,11.600030,10.778469,-1.736450,15.402834,22.906425,-4.615130,-3.242929,-20.449463,-13.910645,-15.324298,-10.681488,-10.243569,-23.047642,91.082306,-15.379607,-50.392822,-18.569845,-5.111333,-21.310030,4.710982,15.311184,-4.106065,0.590895,16.732698,0.742161,7.381087,-55.075222,0.000000,198.000000,4.000000,,,,0.000000,4.000000,4.000000,4.000000,4.000000,4.000000,4.000000,4.000000,4.000000,4.000000,4.000000,4.000000,4.000000,4.000000,4.000000,4.000000,4.000000,4.000000,4.000000,4.000000,4.000000,4.000000,4.000000,4.000000,4.000000,4.000000,4.000000,4.000000,4.000000,4.000000,4.000000,4.000000,4.000000,100.000000
1615602792.880195,18.000000,0.000000,-10.745877,14.460231,-27.456102,12.862365,20.666965,11.075610,10.767691,-1.221893,14.361791,22.883518,-0.507951,-1.701225,-16.326450,-5.691605,-10.693589,-0.927216,-3.566659,-26.614338,73.042511,-18.441151,-44.701405,-22.141020,-5.106222,-21.288719,4.193450,15.295873,-3.076318,0.590304,16.203144,0.741419,11.476270,-47.840660,0.000000,208.000000,4.000000,,,,0.000000,4.000000,4.000000,4.000000,4.000000,4.000000,4.000000,4.000000,4.000000,4.000000,4.000000,4.000000,4.000000,4.000000,4.000000,4.000000,4.000000,4.000000,4.000000,4.000000,4.000000,4.000000,4.000000,4.000000,4.000000,4.000000,4.000000,4.000000,4.000000,4.000000,4.000000,4.000000,4.000000,100.000000
1615602792.887944,19.000000,0.000000,-6.119747,12.394489,-29.992748,10.798221,21.159119,11.577354,10.756923,1.343432,15.885890,22.860636,3.082300,0.864579,-14.771662,13.288445,2.137617,5.740377,1.052292,-20.433878,82.713058,-8.166299,-24.143881,-12.375289,-0.485731,-17.677687,4.189257,15.280577,-0.509139,0.076893,16.699762,0.740678,7.362230,-47.792820,0.000000,199.000000,4.000000,,,,0.000000,4.000000,4.000000,4.000000,4.000000,4.000000,4.000000,4.000000,4.000000,4.000000,4.000000,4.000000,4.000000,4.000000,4.000000,4.000000,4.000000,4.000000,4.000000,4.000000,4.000000,4.000000,4.000000,4.000000,4.000000,4.000000,4.000000,4.000000,4.000000,4.000000,4.000000,4.000000,4.000000,100.000000
1615602792.895594,20.000000,0.000000,-3.036704,11.356453,-26.373013,12.838704,23.189243,12.078598,10.746166,2.880550,23.049492,22.324953,3.592039,0.350894,-7.064583,26.608490,11.366249,10.862843,0.538419,-13.746778,102.117523,0.046996,-9.760763,1.483240,3.104498,-11.506163,7.774811,15.265296,0.517011,0.589637,17.708704,4.329680,7.354867,-47.232208,0.000000,198.000000,4.000000,,,,0.000000,4.000000,4.000000,4.000000,4.000000,4.000000,4.000000,4.000000,4.000000,4.000000,4.000000,4.000000,4.000000,4.000000,4.000000,4.000000,4.000000,4.000000,4.000000,4.000000,4.000000,4.000000,4.000000,4.000000,4.000000,4.000000,4.000000,4.000000,4.000000,4.000000,4.000000,4.000000,4.000000,100.000000
1615602792.903243,21.000000,0.000000,-4.059309,11.857918,-12.500485,21.543814,23.678873,14.117802,10.735420,2.364849,27.129005,23.328270,5.126908,-0.162278,0.634790,23.504959,11.867703,12.390441,0.537881,-6.553543,117.400017,7.226436,-4.622797,3.533039,2.588573,-5.340811,11.869600,15.250031,0.003673,2.640329,20.255098,8.427915,15.552641,-38.467026,0.000000,194.000000,4.000000,,,,0.000000,4.000000,4.000000,4.000000,4.000000,4.000000,4.000000,4.000000,4.000000,4.000000,4.000000,4.000000,4.000000,4.000000,4.000000,4.000000,4.000000,4.000000,4.000000,4.000000,4.000000,4.000000,4.000000,4.000000,4.000000,4.000000,4.000000,4.000000,4.000000,4.000000,4.000000,4.000000,4.000000,100.000000
1615602792.910993,22.000000,0.000000,-4.055249,11.846060,-12.487985,21.522270,21.603912,15.642145,10.724685,2.362484,24.537775,25.869043,7.685884,-0.162115,1.146975,19.378889,13.907117,12.890871,0.537343,7.299164,130.615952,21.578184,-0.515611,4.042326,2.073164,3.382479,12.883372,15.234781,0.003670,4.688971,20.747663,8.932307,17.588369,-35.351635,0.000000,208.000000,4.000000,,,,0.000000,4.000000,4.000000,4.000000,4.000000,4.000000,4.000000,4.000000,4.000000,4.000000,4.000000,4.000000,4.000000,4.000000,4.000000,4.000000,4.000000,4.000000,4.000000,4.000000,4.000000,4.000000,4.000000,4.000000,4.000000,4.000000,4.000000,4.000000,4.000000,4.000000,4.000000,4.000000,4.000000,100.000000
1615602792.918643,23.000000,0.000000,-3.538373,11.834213,-22.731907,13.295620,20.556667,15.113683,10.713960,2.360121,21.949135,26.868816,7.165377,-0.161953,0.633008,20.897972,14.406031,11.852339,0.536805,10.368788,133.562256,28.223272,2.561828,10.192130,2.583911,10.558583,12.870488,15.219546,0.516486,4.171462,20.214094,8.410555,15.006680,-40.957310,0.000000,210.000000,4.000000,,,,0.000000,4.000000,4.000000,4.000000,4.000000,4.000000,4.000000,4.000000,4.000000,4.000000,4.000000,4.000000,4.000000,4.000000,4.000000,4.000000,4.000000,4.000000,4.000000,4.000000,4.000000,4.000000,4.000000,4.000000,4.000000,4.000000,4.000000,4.000000,4.000000,4.000000,4.000000,4.000000,4.000000,100.000000
1615602792.926392,24.000000,0.000000,-4.047656,11.822379,-23.221996,10.718222,21.048931,15.098569,10.703246,2.357761,22.952826,26.329126,6.645391,-0.161791,-0.393266,17.287331,9.263419,11.840487,0.536269,-0.923632,127.274849,22.041203,-2.568939,6.079374,2.068507,9.009563,11.831977,15.204327,0.515970,4.167290,20.706701,8.402144,18.581415,-43.993275,0.000000,166.000000,4.000000,,,,0.000000,4.000000,4.000000,4.000000,4.000000,4.000000,4.000000,4.000000,4.000000,4.000000,4.000000,4.000000,4.000000,4.000000,4.000000,4.000000,4.000000,4.000000,4.000000,4.000000,4.000000,4.000000,4.000000,4.000000,4.000000,4.000000,4.000000,4.000000,4.000000,4.000000,4.000000,4.000000,4.000000,100.000000
1615602792.934042,25.000000,0.000000,-4.043608,11.810556,-20.634672,12.758786,21.540703,15.083470,10.692543,2.355404,22.929873,26.815619,7.151567,-0.161630,-4.495437,12.141838,6.690053,13.367107,-2.028370,-3.999631,119.968086,16.890957,-16.925344,-6.234398,2.066438,2.846708,8.743222,15.189122,-1.023008,4.163123,20.173174,8.906563,22.665400,-42.923641,0.000000,194.000000,4.000000,,,,0.000000,4.000000,4.000000,4.000000,4.000000,4.000000,4.000000,4.000000,4.000000,4.000000,4.000000,4.000000,4.000000,4.000000,4.000000,4.000000,4.000000,4.000000,4.000000,4.000000,4.000000,4.000000,4.000000,4.000000,4.000000,4.000000,4.000000,4.000000,4.000000,4.000000,4.000000,4.000000,4.000000,100.000000
1615602792.941791,26.000000,0.000000,-4.039564,12.311566,-23.690960,12.233207,21.006342,15.068387,10.681850,2.353048,22.394123,26.275982,6.631595,-0.161468,-7.055044,11.104055,3.093620,6.174253,-6.641726,-5.021273,113.181458,10.207398,-33.831497,-9.817907,2.064372,-2.797165,3.606274,15.173933,-3.586087,4.158960,20.153000,8.897656,22.129913,-43.393539,0.000000,209.000000,4.000000,,,,0.000000,4.000000,4.000000,4.000000,4.000000,4.000000,4.000000,4.000000,4.000000,4.000000,4.000000,4.000000,4.000000,4.000000,4.000000,4.000000,4.000000,4.000000,4.000000,4.000000,4.000000,4.000000,4.000000,4.000000,4.000000,4.000000,4.000000,4.000000,4.000000,4.000000,4.000000,4.000000,4.000000,100.000000
1615602792.949441,27.000000,0.000000,-4.035525,10.760794,-25.205730,12.220973,18.934053,15.053318,10.671168,2.350695,22.371729,23.685604,4.060860,-0.161306,-11.150554,0.836541,-9.729986,-5.626792,-8.173547,-17.323944,112.042633,-0.059219,-40.977150,-7.756807,2.062308,-7.409752,-2.551179,15.158759,-4.095322,4.667621,20.645668,7.350297,21.594963,-43.862965,0.000000,193.000000,4.000000,,,,0.000000,4.000000,4.000000,4.000000,4.000000,4.000000,4.000000,4.000000,4.000000,4.000000,4.000000,4.000000,4.000000,4.000000,4.000000,4.000000,4.000000,4.000000,4.000000,4.000000,4.000000,4.000000,4.000000,4.000000,4.000000,4.000000,4.000000,4.000000,4.000000,4.000000,4.000000,4.000000,4.000000,100.000000
1615602792.957191,28.000000,0.000000,-3.518669,8.185930,-24.667704,10.670291,16.863838,15.038265,10.660497,2.348345,22.349358,22.123457,2.518338,-0.161145,-18.318890,-14.548911,-18.438206,-8.185268,-7.139732,-23.973286,110.904945,-2.110442,-40.423355,-8.261870,2.060245,-9.966445,-6.651192,15.656421,-3.578406,3.124492,18.573740,4.778844,20.034906,-43.819103,0.000000,198.000000,4.000000,,,,0.000000,4.000000,4.000000,4.000000,4.000000,4.000000,4.000000,4.000000,4.000000,4.000000,4.000000,4.000000,4.000000,4.000000,4.000000,4.000000,4.000000,4.000000,4.000000,4.000000,4.000000,4.000000,4.000000,4.000000,4.000000,4.000000,4.000000,4.000000,4.000000,4.000000,4.000000,4.000000,4.000000,100.000000
1615602792.964840,29.000000,0.000000,-5.053612,7.664924,-27.207138,12.710902,16.846973,15.023227,10.649837,2.345996,22.327007,22.614153,3.028640,-0.160984,-22.915956,-15.560003,-17.394127,-7.151442,-7.645412,-22.923672,85.665840,-4.672434,-41.408573,-8.766429,2.058185,-9.956478,-6.644541,13.589482,-3.574827,1.070086,16.503885,4.774065,17.963589,-43.262463,0.000000,211.000000,4.000000,,,,0.000000,4.000000,4.000000,4.000000,4.000000,4.000000,4.000000,4.000000,4.000000,4.000000,4.000000,4.000000,4.000000,4.000000,4.000000,4.000000,4.000000,4.000000,4.000000,4.000000,4.000000,4.000000,4.000000,4.000000,4.000000,4.000000,4.000000,4.000000,4.000000,4.000000,4.000000,4.000000,4.000000,100.000000
1615602792.972590,30.000000,0.000000,-7.612660,8.170079,-28.205572,17.826397,17.342947,15.008204,10.639187,2.343650,22.304680,22.591539,3.025611,-0.160823,-23.918680,-11.954700,-18.402372,-7.657111,-8.150588,-23.926390,62.503250,-7.231864,-40.854343,-8.757663,2.056127,-9.433702,-6.637896,11.524611,-3.571253,0.043374,16.487381,5.282112,17.945625,-42.706379,0.000000,193.000000,4.000000,,,,0.000000,4.000000,4.000000,4.000000,4.000000,4.000000,4.000000,4.000000,4.000000,4.000000,4.000000,4.000000,4.000000,4.000000,4.000000,4.000000,4.000000,4.000000,4.000000,4.000000,4.000000,4.000000,4.000000,4.000000,4.000000,4.000000,4.000000,4.000000,4.000000,4.000000,4.000000,4.000000,4.000000,100.000000
1615602792.980239,31.000000,0.000000,-8.117868,8.161909,-27.664547,16.270109,16.812784,14.993196,10.628548,2.341306,21.769556,23.081768,3.022586,-0.160662,-21.330660,-11.429924,-12.230124,-0.982787,-4.552693,-16.722977,85.004852,7.134342,-31.069899,-7.723264,2.054071,-9.937088,-6.118438,11.513086,-3.567681,0.556152,14.419611,2.199906,17.927679,-43.176495,0.000000,194.000000,4.000000,,,,0.000000,4.000000,4.000000,4.000000,4.000000,4.000000,4.000000,4.000000,4.000000,4.000000,4.000000,4.000000,4.000000,4.000000,4.000000,4.000000,4.000000,4.000000,4.000000,4.000000,4.000000,4.000000,4.000000,4.000000,4.000000,4.000000,4.000000,4.000000,4.000000,4.000000,4.000000,4.000000,4.000000,100.000000
1615602792.987989,32.000000,0.000000,-7.596930,8.153748,-27.636883,12.151275,19.360073,14.978202,10.617919,2.338965,22.773426,25.109968,3.019563,-0.160502,-9.514457,3.453300,6.243644,10.300247,0.067244,-4.911381,112.099335,19.947721,-21.295238,-5.151438,2.564837,-8.901510,-1.496935,11.501574,-3.564114,0.555595,14.405191,1.172065,17.396931,-43.133316,8064.000000,0.000000,4.000000,,,,0.000000,4.000000,4.000000,4.000000,4.000000,4.000000,4.000000,4.000000,4.000000,4.000000,4.000000,4.000000,4.000000,4.000000,4.000000,4.000000,4.000000,4.000000,4.000000,4.000000,4.000000,4.000000,4.000000,4.000000,4.000000,4.000000,4.000000,4.000000,4.000000,4.000000,4.000000,4.000000,4.000000,100.000000
1615602792.995639,33.000000,0.000000,-7.589333,8.145594,-27.609245,15.728867,24.468918,14.963223,10.607301,2.336626,24.801935,26.623320,3.016544,-0.160341,0.238647,25.501129,14.442529,12.854049,0.579997,-8.496213,94.038513,5.055978,-23.325226,-6.171928,2.049452,-6.841327,2.094306,11.490071,-3.560549,0.555040,17.980530,3.734996,20.456457,-40.013260,8064.000000,0.000000,4.000000,,,,0.000000,4.000000,4.000000,4.000000,4.000000,4.000000,4.000000,4.000000,4.000000,4.000000,4.000000,4.000000,4.000000,4.000000,4.000000,4.000000,4.000000,4.000000,4.000000,4.000000,4.000000,4.000000,4.000000,4.000000,4.000000,4.000000,4.000000,4.000000,4.000000,4.000000,4.000000,4.000000,4.000000,100.000000
1615602793.003388,34.000000,0.000000,-7.581744,8.137448,-28.094456,20.841343,25.470091,14.948260,10.596694,2.334290,24.777134,26.083876,3.013527,-0.160181,-1.812873,24.449987,10.325522,11.302733,-0.959044,-15.667205,80.098320,-7.769591,-28.430105,-8.729858,-0.003880,-5.296024,1.066571,11.478581,-3.556989,0.554485,21.039473,3.731261,21.461643,-39.973248,8064.000000,0.000000,4.000000,,,,0.000000,4.000000,4.000000,4.000000,4.000000,4.000000,4.000000,4.000000,4.000000,4.000000,4.000000,4.000000,4.000000,4.000000,4.000000,4.000000,4.000000,4.000000,4.000000,4.000000,4.000000,4.000000,4.000000,4.000000,4.000000,4.000000,4.000000,4.000000,4.000000,4.000000,4.000000,4.000000,4.000000,100.000000
1615602793.011038,35.000000,0.000000,-7.574162,8.129311,-27.553541,17.743578,23.393339,14.933312,10.586097,2.331955,22.188253,24.519331,3.010514,-0.160021,-2.836702,10.579383,10.315197,11.804252,0.580376,-10.523332,106.684891,2.494589,-28.914495,-7.695487,-2.055158,-5.803548,1.065504,10.441462,-3.553432,0.553930,19.992792,1.163427,15.799155,-46.087120,8064.000000,0.000000,4.000000,,,,0.000000,4.000000,4.000000,4.000000,4.000000,4.000000,4.000000,4.000000,4.000000,4.000000,4.000000,4.000000,4.000000,4.000000,4.000000,4.000000,4.000000,4.000000,4.000000,4.000000,4.000000,4.000000,4.000000,4.000000,4.000000,4.000000,4.000000,4.000000,4.000000,4.000000,4.000000,4.000000,4.000000,100.000000
1615602793.018787,36.000000,0.000000,-7.566588,7.608361,-26.500347,15.674553,21.318663,14.918379,11.088331,2.329623,21.653244,22.956350,3.007503,-0.159861,-3.859506,6.979060,8.253599,11.279627,0.579796,-6.410244,118.885895,7.107479,-27.859940,-9.739074,-1.027462,-5.797745,1.577259,8.379739,-3.549879,0.553376,19.972799,1.675084,10.655150,-50.143597,8064.000000,0.000000,4.000000,,,,0.000000,4.000000,4.000000,4.000000,4.000000,4.000000,4.000000,4.000000,4.000000,4.000000,4.000000,4.000000,4.000000,4.000000,4.000000,4.000000,4.000000,4.000000,4.000000,4.000000,4.000000,4.000000,4.000000,4.000000,4.000000,4.000000,4.000000,4.000000,4.000000,4.000000,4.000000,4.000000,4.000000,100.000000
1615602793.026437,37.000000,0.000000,-7.559021,8.626393,-29.550770,15.658878,17.707602,14.903461,10.051602,2.327294,22.144413,21.907753,3.004496,-0.159701,-13.599236,9.023363,-4.062346,8.191423,-7.113091,-9.993578,93.125984,-4.694500,-28.857721,-16.908823,-2.052075,-5.279126,-0.475600,7.345718,-3.546329,0.552823,20.465647,0.647768,9.618855,-50.606274,8064.000000,0.000000,4.000000,,,,0.000000,4.000000,4.000000,4.000000,4.000000,4.000000,4.000000,4.000000,4.000000,4.000000,4.000000,4.000000,4.000000,4.000000,4.000000,4.000000,4.000000,4.000000,4.000000,4.000000,4.000000,4.000000,4.000000,4.000000,4.000000,4.000000,4.000000,4.000000,4.000000,4.000000,4.000000,4.000000,4.000000,100.000000
1615602793.034187,38.000000,0.000000,-7.551462,11.181870,-31.059681,15.643220,13.587329,14.888557,7.477448,2.324966,22.122269,22.398664,3.001491,-0.159541,-17.688202,6.963058,-11.237771,5.619130,-6.593158,-12.034866,78.161064,-5.202626,-29.341684,-18.943195,-1.537203,-5.786668,-2.526407,7.851192,-3.542782,0.552270,19.932362,-1.916982,11.147697,-49.530029,8064.000000,0.000000,4.000000,,,,0.000000,4.000000,4.000000,4.000000,4.000000,4.000000,4.000000,4.000000,4.000000,4.000000,4.000000,4.000000,4.000000,4.000000,4.000000,4.000000,4.000000,4.000000,4.000000,4.000000,4.000000,4.000000,4.000000,4.000000,4.000000,4.000000,4.000000,4.000000,4.000000,4.000000,4.000000,4.000000,4.000000,100.000000
1615602793.041836,39.000000,0.000000,-7.543911,12.709149,-25.900415,16.140396,13.060922,14.873669,6.444330,2.322641,22.100145,24.427549,2.998490,-0.159381,-12.542308,6.956095,-9.688072,4.075049,5.721128,-12.022832,92.954697,12.238474,-29.825163,-12.257586,3.592540,-5.780881,-2.523880,7.843341,-3.539240,0.551718,20.425249,-2.427886,11.136550,-47.942036,8064.000000,0.000000,4.000000,,,,0.000000,4.000000,4.000000,4.000000,4.000000,4.000000,4.000000,4.000000,4.000000,4.000000,4.000000,4.000000,4.000000,4.000000,4.000000,4.000000,4.000000,4.000000,4.000000,4.000000,4.000000,4.000000,4.000000,4.000000,4.000000,4.000000,4.000000,4.000000,4.000000,4.000000,4.000000,4.000000,4.000000,100.000000
1615602793.049586,40.000000,0.000000,-7.536367,12.183619,-25.361694,14.585795,13.560681,14.858795,6.950706,2.320319,22.078045,26.454403,2.995491,-0.159222,-10.991303,6.949139,-9.678384,3.558154,10.330791,-10.472347,103.630974,21.969826,-29.282516,-7.629943,5.640229,-5.775100,-2.008536,7.835498,-3.535700,0.551166,19.379183,-4.989561,5.997208,-49.432556,8064.000000,0.000000,4.000000,,,,0.000000,4.000000,4.000000,4.000000,4.000000,4.000000,4.000000,4.000000,4.000000,4.000000,4.000000,4.000000,4.000000,4.000000,4.000000,4.000000,4.000000,4.000000,4.000000,4.000000,4.000000,4.000000,4.000000,4.000000,4.000000,4.000000,4.000000,4.000000,4.000000,4.000000,4.000000,4.000000,4.000000,100.000000
1615602793.057236,41.000000,0.000000,-7.528831,11.658616,-32.515820,8.417363,13.034300,14.843936,6.943755,2.317998,22.055967,25.915129,2.992496,-0.159063,-10.980312,3.865267,-10.181526,3.554595,2.115332,-8.410593,90.706833,12.717086,-28.227594,-8.135134,0.506384,-5.769325,-3.544989,7.827662,-3.532165,0.550615,16.282881,-8.574314,-0.162636,-53.485687,8064.000000,0.000000,4.000000,,,,0.000000,4.000000,4.000000,4.000000,4.000000,4.000000,4.000000,4.000000,4.000000,4.000000,4.000000,4.000000,4.000000,4.000000,4.000000,4.000000,4.000000,4.000000,4.000000,4.000000,4.000000,4.000000,4.000000,4.000000,4.000000,4.000000,4.000000,4.000000,4.000000,4.000000,4.000000,4.000000,4.000000,100.000000
1615602793.064985,42.000000,0.000000,-7.521302,12.159778,-35.047405,4.306382,13.021265,14.829092,6.936811,2.315681,22.033911,25.889214,2.989503,-0.158904,-7.892409,6.938324,-5.555960,4.063861,-0.963707,-10.966285,74.205872,-0.628964,-30.250648,-8.639819,-1.032584,-5.763556,-6.105546,7.819835,-3.528632,0.550064,16.266598,-7.540099,1.888809,-53.945023,8064.000000,0.000000,4.000000,,,,0.000000,4.000000,4.000000,4.000000,4.000000,4.000000,4.000000,4.000000,4.000000,4.000000,4.000000,4.000000,4.000000,4.000000,4.000000,4.000000,4.000000,4.000000,4.000000,4.000000,4.000000,4.000000,4.000000,4.000000,4.000000,4.000000,4.000000,4.000000,4.000000,4.000000,4.000000,4.000000,4.000000,100.000000
1615602793.072635,43.000000,0.000000,-7.513780,11.121977,-31.422617,6.866178,13.521065,15.327084,7.442695,2.313365,22.011877,27.401785,2.986514,-0.671565,-8.910158,12.059591,-1.960660,4.059797,1.088539,-16.083523,80.798332,-4.218079,-27.656296,-7.605538,1.532551,-5.757792,-6.099441,7.812015,-3.525104,0.549514,16.763151,-5.994098,7.527946,-52.865437,8064.000000,0.000000,4.000000,,,,0.000000,4.000000,4.000000,4.000000,4.000000,4.000000,4.000000,4.000000,4.000000,4.000000,4.000000,4.000000,4.000000,4.000000,4.000000,4.000000,4.000000,4.000000,4.000000,4.000000,4.000000,4.000000,4.000000,4.000000,4.000000,4.000000,4.000000,4.000000,4.000000,4.000000,4.000000,4.000000,4.000000,100.000000
1615602793.080384,44.000000,0.000000,-7.506267,5.469829,-33.955296,8.397773,13.507544,13.773295,6.922432,2.311051,21.989866,22.246180,2.983527,-0.158073,-10.439709,8.457788,-0.933059,3.030097,-0.451011,-13.503338,109.435478,8.606652,-12.756844,-7.597933,2.556660,-5.752035,-5.580521,7.804203,-3.521579,0.548965,13.669465,-5.988103,5.981956,-55.889492,8064.000000,0.000000,4.000000,,,,0.000000,4.000000,4.000000,4.000000,4.000000,4.000000,4.000000,4.000000,4.000000,4.000000,4.000000,4.000000,4.000000,4.000000,4.000000,4.000000,4.000000,4.000000,4.000000,4.000000,4.000000,4.000000,4.000000,4.000000,4.000000,4.000000,4.000000,4.000000,4.000000,4.000000,4.000000,4.000000,4.000000,100.000000
1615602793.088034,45.000000,0.000000,-7.498760,-0.176666,-39.049545,7.876555,13.494036,11.195419,7.428330,2.308740,21.967876,15.557266,2.980544,1.893367,-5.813885,11.013433,0.606336,4.565528,1.087902,-6.310347,126.761940,23.469841,-1.462036,-8.103156,3.066923,-5.746283,-6.600582,7.283578,-3.518057,0.548416,9.040411,-3.930833,2.899051,-56.346424,8064.000000,0.000000,4.000000,,,,0.000000,4.000000,4.000000,4.000000,4.000000,4.000000,4.000000,4.000000,4.000000,4.000000,4.000000,4.000000,4.000000,4.000000,4.000000,4.000000,4.000000,4.000000,4.000000,4.000000,4.000000,4.000000,4.000000,4.000000,4.000000,4.000000,4.000000,4.000000,4.000000,4.000000,4.000000,4.000000,4.000000,100.000000
1615602793.095783,46.000000,0.000000,-7.491261,0.336331,-39.010498,9.919960,13.480542,10.671403,7.420901,2.306432,21.945908,15.541709,2.977563,3.942755,-2.731148,23.310112,2.657012,9.689168,6.215019,-3.739934,114.840309,15.754063,-2.999035,-8.095053,3.576677,-5.740536,-6.081161,8.301936,-3.514539,0.547867,8.518551,-1.875620,2.896152,-51.674694,8064.000000,0.000000,4.000000,,,,0.000000,4.000000,4.000000,4.000000,4.000000,4.000000,4.000000,4.000000,4.000000,4.000000,4.000000,4.000000,4.000000,4.000000,4.000000,4.000000,4.000000,4.000000,4.000000,4.000000,4.000000,4.000000,4.000000,4.000000,4.000000,4.000000,4.000000,4.000000,4.000000,4.000000,4.000000,4.000000,4.000000,100.000000
1615602793.103432,47.000000,0.000000,-7.996591,4.951379,-35.381741,12.474143,13.467062,11.173553,4.336557,2.304125,21.923962,19.115910,2.974586,3.425992,-3.754058,22.261160,1.628714,10.192299,3.644701,-4.249015,96.776749,-1.697589,-8.637062,-8.086957,2.034639,-5.221975,-6.075079,7.780813,-3.511024,0.547320,9.022852,-2.386565,4.431718,-48.546097,8064.000000,0.000000,4.000000,,,,0.000000,4.000000,4.000000,4.000000,4.000000,4.000000,4.000000,4.000000,4.000000,4.000000,4.000000,4.000000,4.000000,4.000000,4.000000,4.000000,4.000000,4.000000,4.000000,4.000000,4.000000,4.000000,4.000000,4.000000,4.000000,4.000000,4.000000,4.000000,4.000000,4.000000,4.000000,4.000000,4.000000,100.000000
1615602793.111182,48.000000,0.000000,-7.475774,8.023351,-33.807899,12.461669,13.453594,11.162379,-0.283164,2.301821,21.902039,18.583975,2.971611,3.422566,-3.750304,10.956848,1.627085,8.130825,0.051313,-4.244766,96.167152,0.868211,-16.320732,-8.078871,2.032604,-7.268035,-8.120286,4.696109,-3.507514,0.546772,8.501009,-2.384179,6.478568,-49.523190,8064.000000,0.000000,4.000000,,,,0.000000,4.000000,4.000000,4.000000,4.000000,4.000000,4.000000,4.000000,4.000000,4.000000,4.000000,4.000000,4.000000,4.000000,4.000000,4.000000,4.000000,4.000000,4.000000,4.000000,4.000000,4.000000,4.000000,4.000000,4.000000,4.000000,4.000000,4.000000,4.000000,4.000000,4.000000,4.000000,4.000000,100.000000
1615602793.118831,49.000000,0.000000,-7.468298,8.015327,-35.825375,11.423566,13.440141,10.638396,-0.795701,2.299519,19.828854,17.539749,2.968639,3.419144,-3.746553,9.920250,1.625458,10.173976,2.102544,-3.214880,100.686371,13.175035,-26.560822,-8.070791,2.030571,-9.312049,-8.624987,5.204234,-3.504006,0.546225,8.492508,-2.381794,6.984910,-49.986488,8064.000000,0.000000,4.000000,,,,0.000000,4.000000,4.000000,4.000000,4.000000,4.000000,4.000000,4.000000,4.000000,4.000000,4.000000,4.000000,4.000000,4.000000,4.000000,4.000000,4.000000,4.000000,4.000000,4.000000,4.000000,4.000000,4.000000,4.000000,4.000000,4.000000,4.000000,4.000000,4.000000,4.000000,4.000000,4.000000,4.000000,100.000000
1615602793.126481,50.000000,0.000000,-7.973650,8.007312,-34.251087,11.924963,13.426701,11.140578,-0.282085,2.297220,18.270563,18.035030,2.965671,3.415725,-3.742807,12.474433,0.085371,9.138161,3.638903,-5.262947,95.457481,10.084937,-31.149645,-8.062721,1.515720,-9.302737,-6.565079,10.327234,-3.500502,0.545679,8.996836,-3.405054,6.977925,-49.423679,8064.000000,0.000000,4.000000,,,,0.000000,4.000000,4.000000,4.000000,4.000000,4.000000,4.000000,4.000000,4.000000,4.000000,4.000000,4.000000,4.000000,4.000000,4.000000,4.000000,4.000000,4.000000,4.000000,4.000000,4.000000,4.000000,4.000000,4.000000,4.000000,4.000000,4.000000,4.000000,4.000000,4.000000,4.000000,4.000000,4.000000,100.000000
1615602793.134230,51.000000,0.000000,-5.914394,8.512125,-27.037348,11.913038,12.900454,11.129437,-0.281803,2.294923,17.739473,18.529816,2.449884,3.412309,-3.739064,5.795291,-1.453176,3.487997,4.148084,-5.257684,97.926125,6.997930,-29.580034,-8.054658,4.591128,-9.293434,-6.045694,12.368190,-3.497001,0.545134,8.987839,-0.837546,6.970947,-49.374256,8064.000000,0.000000,4.000000,,,,0.000000,4.000000,4.000000,4.000000,4.000000,4.000000,4.000000,4.000000,4.000000,4.000000,4.000000,4.000000,4.000000,4.000000,4.000000,4.000000,4.000000,4.000000,4.000000,4.000000,4.000000,4.000000,4.000000,4.000000,4.000000,4.000000,4.000000,4.000000,4.000000,4.000000,4.000000,4.000000,4.000000,100.000000
1615602793.141880,52.000000,0.000000,-1.293095,7.990793,-23.420567,11.388305,12.887553,10.605488,-0.794341,2.292628,17.721733,17.998465,2.960255,3.408896,-4.248146,3.225394,-2.990185,3.484509,8.246500,-0.637042,108.084610,13.144777,-29.037634,-8.046603,9.201921,-9.796962,-5.526828,10.817360,-3.493505,0.544588,8.466031,0.701753,6.451156,-50.350525,8064.000000,0.000000,4.000000,,,,0.000000,4.000000,4.000000,4.000000,4.000000,4.000000,4.000000,4.000000,4.000000,4.000000,4.000000,4.000000,4.000000,4.000000,4.000000,4.000000,4.000000,4.000000,4.000000,4.000000,4.000000,4.000000,4.000000,4.000000,4.000000,4.000000,4.000000,4.000000,4.000000,4.000000,4.000000,4.000000,4.000000,100.000000
1615602793.149630,53.000000,0.000000,0.246659,8.495623,-23.909967,11.889737,13.387486,11.620523,-0.793547,1.777514,20.268114,17.980467,2.957295,3.405488,-3.731077,8.350373,-2.474374,2.968204,8.751075,-4.226148,95.156006,4.926505,-30.547058,-8.551377,9.705540,-9.274344,-2.957198,11.319363,-3.490011,0.544044,11.021667,0.188231,7.470345,-48.248890,8064.000000,0.000000,4.000000,,,,0.000000,4.000000,4.000000,4.000000,4.000000,4.000000,4.000000,4.000000,4.000000,4.000000,4.000000,4.000000,4.000000,4.000000,4.000000,4.000000,4.000000,4.000000,4.000000,4.000000,4.000000,4.000000,4.000000,4.000000,4.000000,4.000000,4.000000,4.000000,4.000000,4.000000,4.000000,4.000000,4.000000,100.000000
1615602793.157279,54.000000,0.000000,-0.779228,10.538409,-16.706570,13.416308,14.399739,16.224287,-0.279933,2.288558,24.350410,24.116333,1.928697,3.402082,-1.676064,10.906125,2.143485,1.426774,4.126939,-11.401409,75.060852,-7.898935,-26.926767,-8.542826,9.183014,-9.265070,-1.928600,11.820864,-3.486521,0.030679,16.138851,5.316247,12.078260,-41.021156,8064.000000,0.000000,4.000000,,,,0.000000,4.000000,4.000000,4.000000,4.000000,4.000000,4.000000,4.000000,4.000000,4.000000,4.000000,4.000000,4.000000,4.000000,4.000000,4.000000,4.000000,4.000000,4.000000,4.000000,4.000000,4.000000,4.000000,4.000000,4.000000,4.000000,4.000000,4.000000,4.000000,4.000000,4.000000,4.000000,4.000000,100.000000
1615602793.165029,55.000000,0.000000,-0.265629,10.015050,-7.971914,15.454174,18.487904,18.772165,-0.279653,3.824730,25.864521,32.297344,3.978050,3.398680,-0.135926,11.408040,7.782367,14.245860,2.584350,2.456146,92.934509,5.955118,-12.028046,-4.944540,9.173831,-9.768625,-2.439492,11.296223,-3.995855,0.543469,19.712456,14.028880,15.143105,-37.390392,8064.000000,0.000000,4.000000,,,,0.000000,4.000000,4.000000,4.000000,4.000000,4.000000,4.000000,4.000000,4.000000,4.000000,4.000000,4.000000,4.000000,4.000000,4.000000,4.000000,4.000000,4.000000,4.000000,4.000000,4.000000,4.000000,4.000000,4.000000,4.000000,4.000000,4.000000,4.000000,4.000000,4.000000,4.000000,4.000000,4.000000,100.000000
1615602793.172679,56.000000,0.000000,0.760278,7.953753,-7.451122,15.438720,23.597622,18.240572,-1.305014,5.872188,25.325836,33.803509,9.102277,3.395281,2.428312,17.550478,10.338688,35.257256,4.120227,27.069075,125.662086,30.051727,1.830136,-0.324210,9.677478,-7.194754,-0.898591,11.284926,-3.479038,1.055746,19.692743,16.578953,14.102321,-38.378643,8064.000000,0.000000,4.000000,,,,0.000000,4.000000,4.000000,4.000000,4.000000,4.000000,4.000000,4.000000,4.000000,4.000000,4.000000,4.000000,4.000000,4.000000,4.000000,4.000000,4.000000,4.000000,4.000000,4.000000,4.000000,4.000000,4.000000,4.000000,4.000000,4.000000,4.000000,4.000000,4.000000,4.000000,4.000000,4.000000,4.000000,100.000000
1615602793.180428,57.000000,0.000000,-0.778944,7.432979,-8.982132,15.423282,25.112486,18.222332,0.747573,6.379136,25.300510,32.744064,10.631637,3.904707,4.477166,25.738056,9.302708,38.811741,4.116107,27.042006,121.946686,26.431932,-0.735796,-0.323886,9.667800,-2.572175,1.153590,11.273642,-0.911457,-0.483771,20.185871,16.049555,14.601039,-38.340263,8064.000000,0.000000,4.000000,,,,0.000000,4.000000,4.000000,4.000000,4.000000,4.000000,4.000000,4.000000,4.000000,4.000000,4.000000,4.000000,4.000000,4.000000,4.000000,4.000000,4.000000,4.000000,4.000000,4.000000,4.000000,4.000000,4.000000,4.000000,4.000000,4.000000,4.000000,4.000000,4.000000,4.000000,4.000000,4.000000,4.000000,100.000000
1615602793.188078,58.000000,0.000000,-0.265344,8.964007,-8.460330,15.407858,24.061731,18.716930,5.362210,5.859936,25.788031,33.224140,11.133825,2.875161,3.447048,26.225138,8.780584,35.696007,3.599171,19.835476,110.542686,15.636269,-7.401727,-0.836383,9.658133,1.020141,1.665257,11.262368,0.627916,1.055174,22.729788,19.110428,17.150541,-37.789101,8064.000000,0.000000,4.000000,,,,0.000000,4.000000,4.000000,4.000000,4.000000,4.000000,4.000000,4.000000,4.000000,4.000000,4.000000,4.000000,4.000000,4.000000,4.000000,4.000000,4.000000,4.000000,4.000000,4.000000,4.000000,4.000000,4.000000,4.000000,4.000000,4.000000,4.000000,4.000000,4.000000,4.000000,4.000000,4.000000,4.000000,100.000000
1615602793.195827,59.000000,0.000000,4.350306,11.006325,-8.451869,14.879630,24.550489,18.185392,7.920950,5.854076,25.249422,33.190914,13.173973,3.897927,4.469242,25.173271,17.489752,50.019287,7.698135,38.277180,131.970612,26.902683,-5.343044,4.805479,9.135653,1.531942,1.150771,11.251105,0.114468,6.182324,23.732698,18.578497,18.159031,-37.751312,8064.000000,0.000000,4.000000,,,,0.000000,4.000000,4.000000,4.000000,4.000000,4.000000,4.000000,4.000000,4.000000,4.000000,4.000000,4.000000,4.000000,4.000000,4.000000,4.000000,4.000000,4.000000,4.000000,4.000000,4.000000,4.000000,4.000000,4.000000,4.000000,4.000000,4.000000,4.000000,4.000000,4.000000,4.000000,4.000000,4.000000,100.000000
1615602793.203477,60.000000,0.000000,6.910058,11.508140,-7.930597,15.377571,24.525940,18.167208,6.887388,5.848222,25.224173,33.157726,13.673620,6.970952,11.131439,28.737843,28.754314,60.225677,14.869925,49.008133,153.889923,38.670654,-5.850521,8.903238,9.639338,2.043230,1.149620,11.239855,0.114353,7.714603,23.196146,16.508636,18.140871,-38.226383,8064.000000,0.000000,4.000000,,,,0.000000,4.000000,4.000000,4.000000,4.000000,4.000000,4.000000,4.000000,4.000000,4.000000,4.000000,4.000000,4.000000,4.000000,4.000000,4.000000,4.000000,4.000000,4.000000,4.000000,4.000000,4.000000,4.000000,4.000000,4.000000,4.000000,4.000000,4.000000,4.000000,4.000000,4.000000,4.000000,4.000000,100.000000
1615602793.211227,61.000000,0.000000,2.287763,11.496632,-9.461128,15.875013,22.450132,18.149040,6.880501,5.842374,25.198948,32.098927,10.583023,5.425519,11.633128,28.709105,19.494791,43.242374,13.829413,22.805279,133.736023,21.708906,-17.126722,1.202027,9.116879,2.554008,1.661291,11.228615,0.114239,4.117145,23.172949,15.979307,17.097090,-38.188156,8064.000000,0.000000,4.000000,,,,0.000000,4.000000,4.000000,4.000000,4.000000,4.000000,4.000000,4.000000,4.000000,4.000000,4.000000,4.000000,4.000000,4.000000,4.000000,4.000000,4.000000,4.000000,4.000000,4.000000,4.000000,4.000000,4.000000,4.000000,4.000000,4.000000,4.000000,4.000000,4.000000,4.000000,4.000000,4.000000,4.000000,100.000000
1615602793.218876,62.000000,0.000000,-1.304268,11.485134,-12.015769,14.320677,20.376400,18.130892,7.386441,5.836532,25.173748,27.964264,3.905773,0.291889,2.903547,17.911165,-4.114448,19.609388,2.020712,1.244012,101.294594,-2.415367,-26.340364,-8.542765,5.005198,-1.551111,3.710912,11.217386,0.114125,3.600208,23.149776,10.835123,15.028710,-38.149967,8064.000000,0.000000,4.000000,,,,0.000000,4.000000,4.000000,4.000000,4.000000,4.000000,4.000000,4.000000,4.000000,4.000000,4.000000,4.000000,4.000000,4.000000,4.000000,4.000000,4.000000,4.000000,4.000000,4.000000,4.000000,4.000000,4.000000,4.000000,4.000000,4.000000,4.000000,4.000000,4.000000,4.000000,4.000000,4.000000,4.000000,100.000000
1615602793.226626,63.000000,0.000000,-0.277323,11.473649,-12.003754,15.844818,19.843203,18.112761,6.866234,5.830695,25.148575,24.859375,-2.764799,-1.246865,-4.278844,9.688126,-10.264179,11.384650,-3.622334,7.909434,98.116379,-0.361670,-25.801203,-6.482940,1.410449,-6.677765,5.245663,11.206168,0.114010,6.673531,23.126627,4.670442,13.475221,-37.598995,8064.000000,0.000000,4.000000,,,,0.000000,4.000000,4.000000,4.000000,4.000000,4.000000,4.000000,4.000000,4.000000,4.000000,4.000000,4.000000,4.000000,4.000000,4.000000,4.000000,4.000000,4.000000,4.000000,4.000000,4.000000,4.000000,4.000000,4.000000,4.000000,4.000000,4.000000,4.000000,4.000000,4.000000,4.000000,4.000000,4.000000,100.000000
1615602793.234275,64.000000,0.000000,0.235775,11.462175,-12.504570,21.982819,20.336180,18.094648,6.859367,5.824864,25.123426,25.347338,-5.326137,0.292844,-4.274565,9.678437,-6.151351,9.834805,-1.054609,8.927166,111.864418,11.433563,-24.749762,-0.835431,1.409038,-5.132626,5.240417,11.707783,0.113896,8.205318,23.616322,3.640130,14.487387,-39.099861,0.000000,202.000000,4.000000,,,,0.000000,4.000000,4.000000,4.000000,4.000000,4.000000,4.000000,4.000000,4.000000,4.000000,4.000000,4.000000,4.000000,4.000000,4.000000,4.000000,4.000000,4.000000,4.000000,4.000000,4.000000,4.000000,4.000000,4.000000,4.000000,4.000000,4.000000,4.000000,4.000000,4.000000,4.000000,4.000000,4.000000,100.000000
1615602793.242025,65.000000,0.000000,-0.790102,11.450713,-19.158733,21.960836,20.828665,18.589373,6.852508,5.819040,25.098303,25.834810,-4.807990,-0.220270,-3.757470,10.181580,-7.683661,10.337790,-0.540734,-2.363813,109.188454,6.293925,-25.750652,-2.885878,1.920450,-1.537749,4.722356,11.696075,0.113782,7.684292,23.592705,3.123669,13.960078,-41.624863,0.000000,189.000000,4.000000,,,,0.000000,4.000000,4.000000,4.000000,4.000000,4.000000,4.000000,4.000000,4.000000,4.000000,4.000000,4.000000,4.000000,4.000000,4.000000,4.000000,4.000000,4.000000,4.000000,4.000000,4.000000,4.000000,4.000000,4.000000,4.000000,4.000000,4.000000,4.000000,4.000000,4.000000,4.000000,4.000000,4.000000,100.000000
1615602793.249675,66.000000,0.000000,-0.276491,11.439263,-24.267778,16.297850,20.295015,18.057964,6.845655,5.813221,25.073204,24.783335,-4.803182,-0.732870,-4.266533,14.786782,0.529151,18.532579,0.485448,1.741115,105.489517,1.672246,-23.673620,-4.421454,1.405709,-4.613134,2.153531,9.120276,0.113669,7.676608,23.056292,0.556443,13.433298,-41.070415,0.000000,196.000000,4.000000,,,,0.000000,4.000000,4.000000,4.000000,4.000000,4.000000,4.000000,4.000000,4.000000,4.000000,4.000000,4.000000,4.000000,4.000000,4.000000,4.000000,4.000000,4.000000,4.000000,4.000000,4.000000,4.000000,4.000000,4.000000,4.000000,4.000000,4.000000,4.000000,4.000000,4.000000,4.000000,4.000000,4.000000,100.000000
1615602793.257424,67.000000,0.000000,-0.276215,11.427824,-23.217871,16.281551,20.274721,16.501444,6.838810,5.807407,25.048132,25.271372,-4.285558,-0.219316,-4.262267,22.977123,16.426058,25.180714,7.664450,15.585528,117.691719,8.850061,-20.573023,-1.340109,1.917124,-5.121342,1.125736,7.572695,0.113555,7.668931,24.058876,0.555887,14.445505,-41.029346,0.000000,194.000000,4.000000,,,,0.000000,4.000000,4.000000,4.000000,4.000000,4.000000,4.000000,4.000000,4.000000,4.000000,4.000000,4.000000,4.000000,4.000000,4.000000,4.000000,4.000000,4.000000,4.000000,4.000000,4.000000,4.000000,4.000000,4.000000,4.000000,4.000000,4.000000,4.000000,4.000000,4.000000,4.000000,4.000000,4.000000,100.000000
1615602793.265074,68.000000,0.000000,-0.275939,11.416396,-22.681831,13.188348,21.792908,14.946481,6.831971,5.801600,23.997442,26.271742,-1.204350,-0.219097,-3.745184,24.492607,16.922451,25.155533,11.759349,18.646866,123.215057,12.430955,-21.065271,-0.825949,1.915207,0.011985,1.124611,7.565122,0.113441,7.661263,23.009176,0.555331,13.405419,-46.116524,0.000000,196.000000,4.000000,,,,0.000000,4.000000,4.000000,4.000000,4.000000,4.000000,4.000000,4.000000,4.000000,4.000000,4.000000,4.000000,4.000000,4.000000,4.000000,4.000000,4.000000,4.000000,4.000000,4.000000,4.000000,4.000000,4.000000,4.000000,4.000000,4.000000,4.000000,4.000000,4.000000,4.000000,4.000000,4.000000,4.000000,100.000000
1615602793.272823,69.000000,0.000000,-0.275663,11.404980,-27.274534,-1.183815,19.719831,13.393073,6.825139,5.795798,20.383701,23.681368,-0.177504,-0.731699,-3.741439,21.391191,8.700401,25.130379,10.721949,17.089758,122.066200,13.956985,-21.557026,-0.312302,1.913291,0.524793,0.097845,6.019095,0.113328,7.653602,16.832321,0.554775,8.776629,-49.147327,0.000000,184.000000,4.000000,,,,0.000000,4.000000,4.000000,4.000000,4.000000,4.000000,4.000000,4.000000,4.000000,4.000000,4.000000,4.000000,4.000000,4.000000,4.000000,4.000000,4.000000,4.000000,4.000000,4.000000,4.000000,4.000000,4.000000,4.000000,4.000000,4.000000,4.000000,4.000000,4.000000,4.000000,4.000000,4.000000,4.000000,100.000000
1615602793.280473,70.000000,0.000000,-0.275387,11.393575,-32.375465,-8.874939,9.956523,11.328398,6.818314,5.790003,17.799215,18.016661,-1.202968,-0.218146,-3.737697,20.856981,8.178880,25.618069,11.736868,16.559847,125.533875,15.481490,-19.997007,0.200831,1.911378,-2.552655,1.123388,3.961794,0.113215,7.645948,11.687284,1.579862,5.690929,-49.611000,0.000000,162.000000,4.000000,,,,0.000000,4.000000,4.000000,4.000000,4.000000,4.000000,4.000000,4.000000,4.000000,4.000000,4.000000,4.000000,4.000000,4.000000,4.000000,4.000000,4.000000,4.000000,4.000000,4.000000,4.000000,4.000000,4.000000,4.000000,4.000000,4.000000,4.000000,4.000000,4.000000,4.000000,4.000000,4.000000,4.000000,100.000000
1615602793.288223,71.000000,0.000000,-0.275112,11.382181,-34.907192,-3.225039,3.792720,10.291429,6.811496,5.271392,17.268595,16.973001,-1.201765,-0.217928,-3.733960,21.348944,10.221983,25.079630,9.161029,9.876620,106.433983,1.107034,-24.592396,-9.030139,1.396646,-1.524461,3.173547,3.445012,0.113102,7.638302,11.675596,-2.011462,6.710879,-54.176777,0.000000,170.000000,4.000000,,,,0.000000,4.000000,4.000000,4.000000,4.000000,4.000000,4.000000,4.000000,4.000000,4.000000,4.000000,4.000000,4.000000,4.000000,4.000000,4.000000,4.000000,4.000000,4.000000,4.000000,4.000000,4.000000,4.000000,4.000000,4.000000,4.000000,4.000000,4.000000,4.000000,4.000000,4.000000,4.000000,4.000000,100.000000
1615602793.295872,72.000000,0.000000,-0.787657,11.370799,-33.846645,0.367930,5.327389,10.793958,6.804684,5.778941,17.251328,17.981670,-0.687743,-1.756172,-3.730226,21.327595,8.673300,25.054550,1.459560,2.687257,76.071136,-14.278688,-32.772930,-19.277519,1.908070,-6.138321,-0.419370,2.928746,-0.399832,7.630663,11.663920,-6.112014,6.704168,-56.686703,0.000000,199.000000,4.000000,,,,0.000000,4.000000,4.000000,4.000000,4.000000,4.000000,4.000000,4.000000,4.000000,4.000000,4.000000,4.000000,4.000000,4.000000,4.000000,4.000000,4.000000,4.000000,4.000000,4.000000,4.000000,4.000000,4.000000,4.000000,4.000000,4.000000,4.000000,4.000000,4.000000,4.000000,4.000000,4.000000,4.000000,100.000000
1615602793.303622,73.000000,0.000000,-0.274049,11.359427,-32.274334,0.367562,4.296420,10.270343,6.797880,5.773162,17.746897,16.425226,-1.712696,0.296866,-4.239316,20.793447,8.151806,24.516674,0.432459,0.120467,82.661736,-8.623384,-30.688875,-13.617216,4.470264,-14.850132,-1.444592,6.002741,0.626209,7.623033,12.677897,0.047944,6.184644,-50.988991,0.000000,229.000000,4.000000,,,,0.000000,4.000000,4.000000,4.000000,4.000000,4.000000,4.000000,4.000000,4.000000,4.000000,4.000000,4.000000,4.000000,4.000000,4.000000,4.000000,4.000000,4.000000,4.000000,4.000000,4.000000,4.000000,4.000000,4.000000,4.000000,4.000000,4.000000,4.000000,4.000000,4.000000,4.000000,4.000000,4.000000,100.000000
1615602793.311271,74.000000,0.000000,2.290328,11.348068,-30.703600,5.495400,6.343406,10.772893,6.791082,5.254569,20.293251,18.972904,0.340299,6.963236,-3.722256,20.772654,8.656475,23.979338,6.073052,2.171628,103.091896,0.103188,-22.965879,-4.372830,6.004256,-11.245538,5.223519,13.176225,3.189685,7.615410,15.229322,8.253024,6.691280,-45.296974,0.000000,187.000000,4.000000,,,,0.000000,4.000000,4.000000,4.000000,4.000000,4.000000,4.000000,4.000000,4.000000,4.000000,4.000000,4.000000,4.000000,4.000000,4.000000,4.000000,4.000000,4.000000,4.000000,4.000000,4.000000,4.000000,4.000000,4.000000,4.000000,4.000000,4.000000,4.000000,4.000000,4.000000,4.000000,4.000000,4.000000,100.000000
1615602793.319021,75.000000,0.000000,3.313679,11.336720,-25.544691,11.643750,22.234499,13.326223,8.322752,5.762135,21.811420,29.723162,5.980984,10.546017,-4.231354,25.367266,8.647819,26.519461,7.605441,13.964329,106.578545,0.615905,-20.378811,-4.881278,5.485431,-2.516344,8.808040,16.239971,4.212136,7.607794,16.239735,8.757591,6.684588,-41.661934,0.000000,188.000000,4.000000,,,,0.000000,4.000000,4.000000,4.000000,4.000000,4.000000,4.000000,4.000000,4.000000,4.000000,4.000000,4.000000,4.000000,4.000000,4.000000,4.000000,4.000000,4.000000,4.000000,4.000000,4.000000,4.000000,4.000000,4.000000,4.000000,4.000000,4.000000,4.000000,4.000000,4.000000,4.000000,4.000000,4.000000,100.000000
1615602793.326670,76.000000,0.000000,3.823185,11.325383,-19.365301,15.221850,35.032776,16.902639,10.365711,10.371758,21.276789,36.360107,11.103209,11.048291,-3.714303,31.495745,8.126350,29.057045,6.572195,21.642672,115.189919,10.358879,-18.307150,-4.363576,5.479946,-1.488186,9.312052,14.685270,3.695104,7.600187,15.710673,7.723193,6.677904,-35.979248,0.000000,210.000000,4.000000,,,,0.000000,4.000000,4.000000,4.000000,4.000000,4.000000,4.000000,4.000000,4.000000,4.000000,4.000000,4.000000,4.000000,4.000000,4.000000,4.000000,4.000000,4.000000,4.000000,4.000000,4.000000,4.000000,4.000000,4.000000,4.000000,4.000000,4.000000,4.000000,4.000000,4.000000,4.000000,4.000000,4.000000,100.000000
1615602793.334419,77.000000,0.000000,6.383465,11.314058,-18.320293,16.232269,36.023384,18.424200,10.355346,13.438309,21.255512,36.323746,13.656208,15.652627,-0.633665,33.002708,8.631044,27.489525,7.078443,15.980003,129.433701,22.143393,-12.134996,1.794634,8.551389,-2.512339,14.430945,15.696226,3.691409,7.592587,15.694963,8.741111,8.722508,-32.866344,0.000000,197.000000,4.000000,,,,0.000000,4.000000,4.000000,4.000000,4.000000,4.000000,4.000000,4.000000,4.000000,4.000000,4.000000,4.000000,4.000000,4.000000,4.000000,4.000000,4.000000,4.000000,4.000000,4.000000,4.000000,4.000000,4.000000,4.000000,4.000000,4.000000,4.000000,4.000000,4.000000,4.000000,4.000000,4.000000,4.000000,100.000000
1615602793.342069,78.000000,0.000000,5.864261,11.302744,-19.327614,13.651935,35.474541,18.405775,10.344991,12.912049,21.234257,35.774601,16.719475,18.713898,2.956712,32.456886,10.160874,31.051779,7.584185,20.066587,131.355545,23.659710,-9.045938,4.356942,10.081299,0.567096,14.416514,14.142069,3.687717,7.584994,15.679268,8.732369,10.765067,-32.833477,0.000000,199.000000,4.000000,,,,0.000000,4.000000,4.000000,4.000000,4.000000,4.000000,4.000000,4.000000,4.000000,4.000000,4.000000,4.000000,4.000000,4.000000,4.000000,4.000000,4.000000,4.000000,4.000000,4.000000,4.000000,4.000000,4.000000,4.000000,4.000000,4.000000,4.000000,4.000000,4.000000,4.000000,4.000000,4.000000,4.000000,100.000000
1615602793.349718,79.000000,0.000000,3.294294,9.240159,-18.795467,9.535719,31.849323,16.336086,10.334645,12.899137,21.213022,36.251648,16.702755,16.131081,4.492217,28.834686,12.201996,37.174576,7.063780,31.328573,132.762650,24.148870,-9.549713,2.814123,5.968654,2.617811,4.658508,8.999722,3.684030,7.577409,15.663589,8.210816,8.703020,-33.313465,0.000000,210.000000,4.000000,,,,0.000000,4.000000,4.000000,4.000000,4.000000,4.000000,4.000000,4.000000,4.000000,4.000000,4.000000,4.000000,4.000000,4.000000,4.000000,4.000000,4.000000,4.000000,4.000000,4.000000,4.000000,4.000000,4.000000,4.000000,4.000000,4.000000,4.000000,4.000000,4.000000,4.000000,4.000000,4.000000,4.000000,100.000000
1615602793.357468,80.000000,0.000000,2.778179,7.692458,-18.776670,7.474901,21.048243,14.268469,10.324310,13.399059,21.191809,36.215397,14.121950,13.550848,2.436443,20.087904,12.189794,29.445091,7.056716,17.963911,124.424767,20.534979,-10.052984,2.811309,1.860121,1.589552,-0.474356,6.939439,3.680346,7.569831,15.647925,8.202606,6.643035,-35.331432,0.000000,183.000000,4.000000,,,,0.000000,4.000000,4.000000,4.000000,4.000000,4.000000,4.000000,4.000000,4.000000,4.000000,4.000000,4.000000,4.000000,4.000000,4.000000,4.000000,4.000000,4.000000,4.000000,4.000000,4.000000,4.000000,4.000000,4.000000,4.000000,4.000000,4.000000,4.000000,4.000000,4.000000,4.000000,4.000000,4.000000,100.000000
1615602793.365118,81.000000,0.000000,3.801042,6.659124,-19.270716,7.980247,15.386168,14.254201,10.313987,12.872839,21.170616,35.666359,13.082187,14.050117,-0.130096,16.990892,11.664783,18.646416,7.049660,2.561331,103.274696,5.129828,-9.530110,3.321318,1.345440,1.587963,0.551759,6.932500,3.676665,7.562262,15.632277,8.194404,6.123572,-38.373024,0.000000,217.000000,4.000000,,,,0.000000,4.000000,4.000000,4.000000,4.000000,4.000000,4.000000,4.000000,4.000000,4.000000,4.000000,4.000000,4.000000,4.000000,4.000000,4.000000,4.000000,4.000000,4.000000,4.000000,4.000000,4.000000,4.000000,4.000000,4.000000,4.000000,4.000000,4.000000,4.000000,4.000000,4.000000,4.000000,4.000000,100.000000
1615602793.372867,82.000000,0.000000,3.284420,7.165286,-19.251444,7.972266,15.370783,14.239946,10.303673,12.859966,21.149446,35.630692,13.581925,14.036067,0.895675,22.102106,12.165939,23.243155,7.042610,16.917744,103.684242,2.047775,-10.033401,2.292356,1.344095,1.586375,1.064028,6.925568,3.160168,7.554699,15.616645,8.186209,6.630269,-36.796192,0.000000,227.000000,4.000000,,,,0.000000,4.000000,4.000000,4.000000,4.000000,4.000000,4.000000,4.000000,4.000000,4.000000,4.000000,4.000000,4.000000,4.000000,4.000000,4.000000,4.000000,4.000000,4.000000,4.000000,4.000000,4.000000,4.000000,4.000000,4.000000,4.000000,4.000000,4.000000,4.000000,4.000000,4.000000,4.000000,4.000000,100.000000
1615602793.380517,83.000000,0.000000,3.281136,7.670941,-19.232193,7.451473,15.355412,14.225706,10.293368,12.847107,21.128296,35.595062,14.081163,13.509211,5.510164,25.156927,14.205055,29.886578,6.522747,32.285442,124.606201,17.943163,-10.023367,3.315705,3.906853,1.584789,0.037323,10.508386,3.669828,7.547145,15.088207,7.665202,6.623639,-37.785034,0.000000,199.000000,4.000000,,,,0.000000,4.000000,4.000000,4.000000,4.000000,4.000000,4.000000,4.000000,4.000000,4.000000,4.000000,4.000000,4.000000,4.000000,4.000000,4.000000,4.000000,4.000000,4.000000,4.000000,4.000000,4.000000,4.000000,4.000000,4.000000,4.000000,4.000000,4.000000,4.000000,4.000000,4.000000,4.000000,4.000000,100.000000
1615602793.388266,84.000000,0.000000,3.277855,6.637629,-19.212961,7.956842,19.955441,13.698660,10.283075,12.834259,21.107168,35.046646,15.605544,14.008522,7.555935,24.106129,15.729312,25.754128,7.029045,25.073669,126.020058,25.104708,-10.526164,5.363671,8.005510,1.583204,-0.988355,14.600441,3.666158,7.026777,15.585940,8.170358,6.104194,-45.439556,0.000000,200.000000,4.000000,,,,0.000000,4.000000,4.000000,4.000000,4.000000,4.000000,4.000000,4.000000,4.000000,4.000000,4.000000,4.000000,4.000000,4.000000,4.000000,4.000000,4.000000,4.000000,4.000000,4.000000,4.000000,4.000000,4.000000,4.000000,4.000000,4.000000,4.000000,4.000000,4.000000,4.000000,4.000000,4.000000,4.000000,100.000000
1615602793.395916,85.000000,0.000000,3.274577,7.143812,-19.193748,7.948885,26.089333,13.684961,10.272792,12.308604,20.060421,34.498779,16.615580,13.994514,6.009918,23.569202,15.200762,22.651449,6.509195,18.381929,115.124802,18.925756,-11.541279,5.871128,8.510325,1.581621,2.089556,14.073020,2.636851,8.045391,15.057533,7.649367,6.610910,-48.471043,0.000000,217.000000,4.000000,,,,0.000000,4.000000,4.000000,4.000000,4.000000,4.000000,4.000000,4.000000,4.000000,4.000000,4.000000,4.000000,4.000000,4.000000,4.000000,4.000000,4.000000,4.000000,4.000000,4.000000,4.000000,4.000000,4.000000,4.000000,4.000000,4.000000,4.000000,4.000000,4.000000,4.000000,4.000000,4.000000,4.000000,100.000000
1615602793.403666,86.000000,0.000000,3.271302,14.828976,-19.174555,7.940937,27.601704,14.184097,10.262520,12.809116,20.553181,34.977100,17.111784,13.980519,6.516729,24.571274,15.698381,24.167259,6.502686,19.902008,121.676346,19.419651,-10.504097,6.378078,9.527456,0.554398,10.292595,14.058948,3.659856,10.601448,15.042476,7.128897,9.681223,-41.243084,0.000000,199.000000,4.000000,,,,0.000000,4.000000,4.000000,4.000000,4.000000,4.000000,4.000000,4.000000,4.000000,4.000000,4.000000,4.000000,4.000000,4.000000,4.000000,4.000000,4.000000,4.000000,4.000000,4.000000,4.000000,4.000000,4.000000,4.000000,4.000000,4.000000,4.000000,4.000000,4.000000,4.000000,4.000000,4.000000,4.000000,100.000000
1615602793.411315,87.000000,0.000000,2.755211,22.506454,-19.155380,7.932996,27.574102,14.169913,10.252257,12.796308,21.558268,35.967766,17.607492,13.966538,7.535853,24.546703,15.682683,25.168734,10.085927,20.907747,134.375183,27.605360,-9.980772,5.858879,15.158955,1.066664,11.820764,15.070529,7.245939,11.616488,17.591536,11.224332,12.748465,-35.560814,0.000000,201.000000,4.000000,,,,0.000000,4.000000,4.000000,4.000000,4.000000,4.000000,4.000000,4.000000,4.000000,4.000000,4.000000,4.000000,4.000000,4.000000,4.000000,4.000000,4.000000,4.000000,4.000000,4.000000,4.000000,4.000000,4.000000,4.000000,4.000000,4.000000,4.000000,4.000000,4.000000,4.000000,4.000000,4.000000,4.000000,100.000000
1615602793.419065,88.000000,0.000000,3.265276,22.996769,-19.136225,7.412242,27.033709,13.642922,9.729184,11.757870,19.485428,33.880516,15.538604,13.952572,5.989856,22.983696,15.154181,24.117924,13.152764,23.450943,137.830551,31.167498,-12.022074,5.853020,16.169436,1.578418,12.321764,13.004177,6.725873,11.092052,22.702150,14.802852,13.761357,-37.576534,0.000000,168.000000,4.000000,,,,0.000000,4.000000,4.000000,4.000000,4.000000,4.000000,4.000000,4.000000,4.000000,4.000000,4.000000,4.000000,4.000000,4.000000,4.000000,4.000000,4.000000,4.000000,4.000000,4.000000,4.000000,4.000000,4.000000,4.000000,4.000000,4.000000,4.000000,4.000000,4.000000,4.000000,4.000000,4.000000,4.000000,100.000000
1615602793.426714,89.000000,0.000000,5.826113,21.948132,-19.117088,8.943292,27.519495,15.167741,10.232276,13.797395,22.542866,37.949200,19.112808,13.938620,7.522327,25.524815,17.190308,23.068165,14.165252,27.017235,135.128616,29.597870,-7.394667,11.488193,17.178907,0.038378,24.104313,17.093737,7.231967,11.080959,25.243549,15.300869,15.798878,-37.538960,0.000000,218.000000,4.000000,,,,0.000000,4.000000,4.000000,4.000000,4.000000,4.000000,4.000000,4.000000,4.000000,4.000000,4.000000,4.000000,4.000000,4.000000,4.000000,4.000000,4.000000,4.000000,4.000000,4.000000,4.000000,4.000000,4.000000,4.000000,4.000000,4.000000,4.000000,4.000000,4.000000,4.000000,4.000000,4.000000,4.000000,100.000000
1615602793.434464,90.000000,0.000000,8.897210,22.951824,-19.097971,11.498451,32.107361,19.767958,12.786146,18.398981,34.828014,51.757404,29.862926,13.924681,14.181472,36.268520,21.788502,32.275867,18.253651,28.015860,131.403748,30.593912,7.997343,19.681833,24.341217,3.628083,35.875080,28.871515,15.942684,11.582699,26.756767,18.875311,17.834360,-33.911678,0.000000,217.000000,4.000000,,,,0.000000,4.000000,4.000000,4.000000,4.000000,4.000000,4.000000,4.000000,4.000000,4.000000,4.000000,4.000000,4.000000,4.000000,4.000000,4.000000,4.000000,4.000000,4.000000,4.000000,4.000000,4.000000,4.000000,4.000000,4.000000,4.000000,4.000000,4.000000,4.000000,4.000000,4.000000,4.000000,4.000000,100.000000
1615602793.442114,91.000000,0.000000,10.939595,21.390409,-19.078873,11.999773,35.152176,22.312292,13.286180,20.944685,39.921391,58.885136,30.858706,13.910756,18.782675,43.411739,23.817995,43.012821,22.337961,32.603226,130.759521,30.050497,16.707294,21.713432,27.393799,15.419327,39.428951,33.970848,22.080587,11.058295,26.730011,25.523104,17.816526,-32.339302,0.000000,183.000000,4.000000,,,,0.000000,4.000000,4.000000,4.000000,4.000000,4.000000,4.000000,4.000000,4.000000,4.000000,4.000000,4.000000,4.000000,4.000000,4.000000,4.000000,4.000000,4.000000,4.000000,4.000000,4.000000,4.000000,4.000000,4.000000,4.000000,4.000000,4.000000,4.000000,4.000000,4.000000,4.000000,4.000000,4.000000,100.000000
1615602793.449863,92.000000,0.000000,10.928656,19.317738,-19.059793,11.474953,29.475998,20.238699,10.708792,20.410919,31.676342,51.133942,22.109898,13.896845,18.251072,41.829865,23.281357,39.892883,20.777163,35.647549,136.269791,29.507627,16.690588,21.691719,22.751020,21.044933,37.338238,33.424057,18.468763,11.047237,26.190460,24.471939,18.311531,-34.871067,0.000000,198.000000,4.000000,,,,0.000000,4.000000,4.000000,4.000000,4.000000,4.000000,4.000000,4.000000,4.000000,4.000000,4.000000,4.000000,4.000000,4.000000,4.000000,4.000000,4.000000,4.000000,4.000000,4.000000,4.000000,4.000000,4.000000,4.000000,4.000000,4.000000,4.000000,4.000000,4.000000,4.000000,4.000000,4.000000,4.000000,100.000000
1615602793.457513,93.000000,0.000000,7.840804,17.247137,-18.527914,11.463478,23.805496,17.654358,9.672441,19.364868,27.542103,42.364857,20.036505,13.882949,17.719999,39.223934,21.719614,32.160683,18.705103,31.509336,136.133514,32.042221,17.699537,21.157207,20.164165,17.946964,29.095772,32.364990,14.860551,11.036190,26.677092,19.319262,17.780399,-36.887478,0.000000,196.000000,4.000000,,,,0.000000,4.000000,4.000000,4.000000,4.000000,4.000000,4.000000,4.000000,4.000000,4.000000,4.000000,4.000000,4.000000,4.000000,4.000000,4.000000,4.000000,4.000000,4.000000,4.000000,4.000000,4.000000,4.000000,4.000000,4.000000,4.000000,4.000000,4.000000,4.000000,4.000000,4.000000,4.000000,4.000000,100.000000
1615602793.465262,94.000000,0.000000,3.730399,13.127327,-19.535027,11.452014,22.756050,17.636703,10.175590,16.268579,29.565842,42.322495,21.554930,14.381886,18.727921,39.184708,19.133793,32.641346,17.660757,27.375261,118.561485,25.343513,9.476710,13.443742,17.067080,17.416197,19.835907,24.640320,12.794409,11.025154,25.624773,18.274302,12.121593,-36.850590,0.000000,180.000000,4.000000,,,,0.000000,4.000000,4.000000,4.000000,4.000000,4.000000,4.000000,4.000000,4.000000,4.000000,4.000000,4.000000,4.000000,4.000000,4.000000,4.000000,4.000000,4.000000,4.000000,4.000000,4.000000,4.000000,4.000000,4.000000,4.000000,4.000000,4.000000,4.000000,4.000000,4.000000,4.000000,4.000000,4.000000,100.000000
1615602793.472912,95.000000,0.000000,2.701027,10.550097,-21.566774,11.440562,24.271755,18.131887,10.165414,13.175388,26.459352,44.844273,19.482094,13.854684,17.683552,40.683987,20.140299,32.608704,12.002070,27.347887,98.955750,6.343811,-5.917382,1.122606,12.947448,15.860320,17.251968,12.307986,7.653409,8.962847,21.496584,20.307310,5.955625,-37.839382,0.000000,187.000000,4.000000,,,,0.000000,4.000000,4.000000,4.000000,4.000000,4.000000,4.000000,4.000000,4.000000,4.000000,4.000000,4.000000,4.000000,4.000000,4.000000,4.000000,4.000000,4.000000,4.000000,4.000000,4.000000,4.000000,4.000000,4.000000,4.000000,4.000000,4.000000,4.000000,4.000000,4.000000,4.000000,4.000000,4.000000,100.000000
1615602793.480662,96.000000,0.000000,3.211147,11.052367,-22.058027,11.941942,24.760303,17.088114,10.155249,12.136572,23.868792,37.619942,16.385689,14.353649,14.076125,39.104839,20.120159,31.550453,6.349042,27.833359,99.882431,-0.842021,-10.014029,-1.955440,12.421679,6.613690,18.773178,9.218756,6.620114,7.415422,18.910984,18.748541,5.949669,-40.365643,8064.000000,0.000000,4.000000,,,,0.000000,4.000000,4.000000,4.000000,4.000000,4.000000,4.000000,4.000000,4.000000,4.000000,4.000000,4.000000,4.000000,4.000000,4.000000,4.000000,4.000000,4.000000,4.000000,4.000000,4.000000,4.000000,4.000000,4.000000,4.000000,4.000000,4.000000,4.000000,4.000000,4.000000,4.000000,4.000000,4.000000,100.000000
1615602793.488311,97.000000,0.000000,3.207936,10.528494,-24.087252,11.930000,16.017595,14.506923,10.145094,10.585974,25.383385,22.710527,14.318021,14.339295,8.933844,27.270864,14.459013,33.057365,6.342693,27.292706,108.500496,4.799847,-13.593759,-1.953484,8.819514,1.478872,18.241585,10.747998,7.639135,7.408007,18.379253,17.191330,6.969361,-40.838100,8064.000000,0.000000,4.000000,,,,0.000000,4.000000,4.000000,4.000000,4.000000,4.000000,4.000000,4.000000,4.000000,4.000000,4.000000,4.000000,4.000000,4.000000,4.000000,4.000000,4.000000,4.000000,4.000000,4.000000,4.000000,4.000000,4.000000,4.000000,4.000000,4.000000,4.000000,4.000000,4.000000,4.000000,4.000000,4.000000,4.000000,100.000000
1615602793.496061,98.000000,0.000000,2.691907,11.543607,-28.165728,11.405250,3.181064,13.466775,10.134949,8.524106,19.204155,15.508329,12.252420,10.735213,3.283884,14.935901,9.316349,25.331999,5.823530,24.701311,100.699692,-2.897260,-28.451960,-6.054095,2.144028,0.451752,18.223343,9.198789,3.528932,7.400599,18.873693,16.148499,5.936750,-38.745979,8064.000000,0.000000,4.000000,,,,0.000000,4.000000,4.000000,4.000000,4.000000,4.000000,4.000000,4.000000,4.000000,4.000000,4.000000,4.000000,4.000000,4.000000,4.000000,4.000000,4.000000,4.000000,4.000000,4.000000,4.000000,4.000000,4.000000,4.000000,4.000000,4.000000,4.000000,4.000000,4.000000,4.000000,4.000000,4.000000,4.000000,100.000000
1615602793.503711,99.000000,0.000000,3.202036,14.608986,-29.676023,11.906665,-0.411860,13.966128,10.637634,9.028402,10.467001,17.544104,9.676065,6.621913,-0.309143,9.792760,6.742930,8.896411,3.766425,21.086866,91.368217,-14.689235,-37.141457,-11.689066,0.603423,-7.241008,19.743582,6.625487,-0.577161,7.393198,18.854820,12.029785,6.443634,-40.758514,8064.000000,0.000000,4.000000,,,,0.000000,4.000000,4.000000,4.000000,4.000000,4.000000,4.000000,4.000000,4.000000,4.000000,4.000000,4.000000,4.000000,4.000000,4.000000,4.000000,4.000000,4.000000,4.000000,4.000000,4.000000,4.000000,4.000000,4.000000,4.000000,4.000000,4.000000,4.000000,4.000000,4.000000,4.000000,4.000000,4.000000,100.000000
1615602793.511460,100.000000,0.000000,3.198834,12.030274,-32.723270,11.894758,1.639834,13.952163,10.114176,9.532194,10.969355,14.962457,3.512543,6.615292,-3.385757,0.552198,0.069521,0.169566,2.737017,15.424753,95.379417,-6.982238,-36.591496,-13.728660,1.115640,-13.900434,18.698196,6.106041,-0.576584,7.385805,18.835966,5.351089,6.437191,-45.333141,8064.000000,0.000000,4.000000,,,,0.000000,4.000000,4.000000,4.000000,4.000000,4.000000,4.000000,4.000000,4.000000,4.000000,4.000000,4.000000,4.000000,4.000000,4.000000,4.000000,4.000000,4.000000,4.000000,4.000000,4.000000,4.000000,4.000000,4.000000,4.000000,4.000000,4.000000,4.000000,4.000000,4.000000,4.000000,4.000000,4.000000,100.000000
1615602793.519110,101.000000,0.000000,3.195635,6.890039,-36.793114,6.754658,0.612553,13.425390,10.104062,8.497021,13.522489,12.383391,-1.106354,6.095856,-4.920833,-6.627842,-5.058754,0.682216,1.708639,10.281123,97.335320,5.845257,-36.554901,-8.586725,1.627345,-11.322431,18.679499,10.715320,-0.063187,6.865599,18.817129,3.294456,6.430753,-47.339088,8064.000000,0.000000,4.000000,,,,0.000000,4.000000,4.000000,4.000000,4.000000,4.000000,4.000000,4.000000,4.000000,4.000000,4.000000,4.000000,4.000000,4.000000,4.000000,4.000000,4.000000,4.000000,4.000000,4.000000,4.000000,4.000000,4.000000,4.000000,4.000000,4.000000,4.000000,4.000000,4.000000,4.000000,4.000000,4.000000,4.000000,100.000000
1615602793.526859,102.000000,0.000000,3.705260,6.883149,-37.269138,0.594058,0.611940,13.924785,10.606778,10.026985,10.432042,18.524855,-1.105248,6.602581,-3.377451,2.096735,-1.463951,7.861022,5.809494,16.937510,99.289268,9.429155,-29.851681,0.652631,6.753922,-8.747005,20.199280,15.319989,-0.575944,7.884374,18.798313,4.316803,6.937143,-48.830212,8064.000000,0.000000,4.000000,,,,0.000000,4.000000,4.000000,4.000000,4.000000,4.000000,4.000000,4.000000,4.000000,4.000000,4.000000,4.000000,4.000000,4.000000,4.000000,4.000000,4.000000,4.000000,4.000000,4.000000,4.000000,4.000000,4.000000,4.000000,4.000000,4.000000,4.000000,4.000000,4.000000,4.000000,4.000000,4.000000,4.000000,100.000000
1615602793.534509,103.000000,0.000000,3.188734,7.901907,-39.283154,-0.432177,1.636969,14.423681,10.596171,8.478498,8.883149,18.506329,-3.668245,7.621619,-3.886894,4.145920,-4.539411,8.365981,6.829326,19.484674,105.856644,7.368444,-24.180803,3.728901,8.798450,-9.763900,13.512415,11.714926,-0.062547,8.389310,19.292336,4.312486,6.417385,-55.448048,8064.000000,0.000000,4.000000,,,,0.000000,4.000000,4.000000,4.000000,4.000000,4.000000,4.000000,4.000000,4.000000,4.000000,4.000000,4.000000,4.000000,4.000000,4.000000,4.000000,4.000000,4.000000,4.000000,4.000000,4.000000,4.000000,4.000000,4.000000,4.000000,4.000000,4.000000,4.000000,4.000000,4.000000,4.000000,4.000000,4.000000,100.000000
1615602793.542258,104.000000,0.000000,0.621443,5.329903,-43.346432,0.593896,1.122512,12.357975,5.970191,1.803352,9.899907,6.180131,-10.844064,4.024254,-12.088135,-9.704380,-16.842564,-4.975718,-2.921093,-2.073272,93.443092,-0.844053,-32.361752,-1.403033,3.148627,-9.241315,1.191210,4.523724,-0.062485,3.765536,18.247402,3.795352,3.846865,-61.546448,8064.000000,0.000000,4.000000,,,,0.000000,4.000000,4.000000,4.000000,4.000000,4.000000,4.000000,4.000000,4.000000,4.000000,4.000000,4.000000,4.000000,4.000000,4.000000,4.000000,4.000000,4.000000,4.000000,4.000000,4.000000,4.000000,4.000000,4.000000,4.000000,4.000000,4.000000,4.000000,4.000000,4.000000,4.000000,4.000000,4.000000,100.000000
1615602793.549908,105.000000,0.000000,-0.917640,3.273291,-44.841549,0.080481,2.659851,10.294335,2.374477,-2.301016,9.377187,0.020105,-13.397323,-0.082335,-13.101687,-4.053650,-12.723157,-4.457922,-6.507915,-14.378891,74.888115,-10.073977,-31.303749,-4.478553,1.607016,-9.232074,-3.938187,2.467918,-0.062422,0.172027,15.152231,4.304378,1.791736,-62.510540,8064.000000,0.000000,4.000000,,,,0.000000,4.000000,4.000000,4.000000,4.000000,4.000000,4.000000,4.000000,4.000000,4.000000,4.000000,4.000000,4.000000,4.000000,4.000000,4.000000,4.000000,4.000000,4.000000,4.000000,4.000000,4.000000,4.000000,4.000000,4.000000,4.000000,4.000000,4.000000,4.000000,4.000000,4.000000,4.000000,4.000000,100.000000
1615602793.557657,106.000000,0.000000,-0.403902,3.270017,-44.283886,-0.432420,7.272575,9.771220,2.372102,-2.298714,9.880630,4.635469,-11.845464,4.020312,-4.883458,13.899122,2.674182,11.956792,4.780644,3.071385,86.095276,-3.910058,-15.375009,-3.448434,4.682333,-7.684380,-0.344505,4.003911,1.988922,2.735958,14.624258,4.812894,2.302765,-61.422390,8064.000000,0.000000,4.000000,,,,0.000000,4.000000,4.000000,4.000000,4.000000,4.000000,4.000000,4.000000,4.000000,4.000000,4.000000,4.000000,4.000000,4.000000,4.000000,4.000000,4.000000,4.000000,4.000000,4.000000,4.000000,4.000000,4.000000,4.000000,4.000000,4.000000,4.000000,4.000000,4.000000,4.000000,4.000000,4.000000,4.000000,100.000000
1615602793.565307,107.000000,0.000000,-0.403498,3.266747,-43.726784,0.593654,9.829406,10.274269,1.344089,-3.834877,9.870749,7.194936,-12.346438,6.067574,-6.929857,7.731377,2.158687,3.739707,6.827145,12.811903,106.009178,9.940006,-16.898096,-3.957806,3.139189,-5.625414,1.194301,3.487087,4.038215,1.707581,15.122455,3.269619,2.813283,-61.873787,8064.000000,0.000000,4.000000,,,,0.000000,4.000000,4.000000,4.000000,4.000000,4.000000,4.000000,4.000000,4.000000,4.000000,4.000000,4.000000,4.000000,4.000000,4.000000,4.000000,4.000000,4.000000,4.000000,4.000000,4.000000,4.000000,4.000000,4.000000,4.000000,4.000000,4.000000,4.000000,4.000000,4.000000,4.000000,4.000000,4.000000,100.000000
1615602793.573056,108.000000,0.000000,-0.403095,4.289122,-44.708694,0.593060,7.255474,10.263995,-1.221357,-5.882325,6.783955,7.187741,-12.846912,0.933301,-17.692158,-5.096868,-9.125523,-16.264032,-4.461733,2.542681,107.441635,7.878784,-32.778633,-8.056412,2.110408,-6.645429,-1.370996,2.970779,2.495715,-3.935153,13.056050,0.702247,1.784829,-62.324734,8064.000000,0.000000,4.000000,,,,0.000000,4.000000,4.000000,4.000000,4.000000,4.000000,4.000000,4.000000,4.000000,4.000000,4.000000,4.000000,4.000000,4.000000,4.000000,4.000000,4.000000,4.000000,4.000000,4.000000,4.000000,4.000000,4.000000,4.000000,4.000000,4.000000,4.000000,4.000000,4.000000,4.000000,4.000000,4.000000,4.000000,100.000000
1615602793.580705,109.000000,0.000000,-0.402692,5.823294,-43.638348,-0.433174,4.171295,10.253731,-1.220136,-6.389263,8.315633,12.821579,-10.269963,-1.631735,-19.725748,-0.989207,-10.654859,-9.581101,-9.585477,-1.049605,98.103424,-7.513710,-36.848419,-18.817587,0.569836,-8.690066,-3.420907,3.480629,-0.070883,-3.931217,11.504533,0.188724,3.834326,-60.211128,8064.000000,0.000000,4.000000,,,,0.000000,4.000000,4.000000,4.000000,4.000000,4.000000,4.000000,4.000000,4.000000,4.000000,4.000000,4.000000,4.000000,4.000000,4.000000,4.000000,4.000000,4.000000,4.000000,4.000000,4.000000,4.000000,4.000000,4.000000,4.000000,4.000000,4.000000,4.000000,4.000000,4.000000,4.000000,4.000000,4.000000,100.000000
1615602793.588455,110.000000,0.000000,-0.402289,8.894394,-37.953682,2.131362,6.731226,10.243478,1.858007,-4.844412,15.486804,21.526707,-8.208411,-0.604462,-17.654739,4.652808,-9.105742,3.761813,-7.524609,1.515547,85.697624,-16.224146,-36.298748,-27.516718,-4.558939,-10.732658,-3.417486,2.964328,-0.070812,-1.363184,13.544311,2.752638,11.522799,-57.073994,8064.000000,0.000000,4.000000,,,,0.000000,4.000000,4.000000,4.000000,4.000000,4.000000,4.000000,4.000000,4.000000,4.000000,4.000000,4.000000,4.000000,4.000000,4.000000,4.000000,4.000000,4.000000,4.000000,4.000000,4.000000,4.000000,4.000000,4.000000,4.000000,4.000000,4.000000,4.000000,4.000000,4.000000,4.000000,4.000000,4.000000,100.000000
1615602793.596104,111.000000,0.000000,-0.401887,12.988064,-32.787525,8.795897,11.339880,10.233234,4.933072,-2.788285,18.035419,25.094923,-8.200203,-0.603858,-18.662725,2.596873,-10.122278,3.758051,-7.004264,3.565314,86.124748,-13.643818,-41.390656,-24.925098,-2.503098,-15.337310,-2.901248,3.474184,-0.070741,0.689462,15.582047,3.775527,18.177942,-53.939995,8064.000000,0.000000,4.000000,,,,0.000000,4.000000,4.000000,4.000000,4.000000,4.000000,4.000000,4.000000,4.000000,4.000000,4.000000,4.000000,4.000000,4.000000,4.000000,4.000000,4.000000,4.000000,4.000000,4.000000,4.000000,4.000000,4.000000,4.000000,4.000000,4.000000,4.000000,4.000000,4.000000,4.000000,4.000000,4.000000,4.000000,100.000000
1615602793.603754,112.000000,0.000000,-0.401485,15.539178,-32.241917,12.376844,12.354180,10.223001,6.466600,-1.247036,16.991743,24.557007,-8.192002,-1.116074,-17.618422,1.568635,-10.112156,4.779934,-8.535721,1.510466,95.782211,-14.142995,-41.349266,-21.823250,7.242995,-16.860434,-3.411167,3.470710,-0.070670,5.816977,17.104927,4.797392,17.646944,-53.373238,8064.000000,0.000000,4.000000,,,,0.000000,4.000000,4.000000,4.000000,4.000000,4.000000,4.000000,4.000000,4.000000,4.000000,4.000000,4.000000,4.000000,4.000000,4.000000,4.000000,4.000000,4.000000,4.000000,4.000000,4.000000,4.000000,4.000000,4.000000,4.000000,4.000000,4.000000,4.000000,4.000000,4.000000,4.000000,4.000000,4.000000,100.000000
1615602793.611503,113.000000,0.000000,-0.401083,15.010818,-32.722496,11.338827,11.829006,9.699957,6.460134,-2.271430,16.974752,24.019630,-7.670990,-1.114958,-15.549521,2.079887,-11.127685,3.236692,-8.527185,-6.183352,87.994125,-17.205774,-32.589966,-18.724504,9.287034,-15.305112,-0.330833,2.441598,-0.583420,11.452186,18.626284,6.331056,17.116478,-54.858326,8064.000000,0.000000,4.000000,,,,0.000000,4.000000,4.000000,4.000000,4.000000,4.000000,4.000000,4.000000,4.000000,4.000000,4.000000,4.000000,4.000000,4.000000,4.000000,4.000000,4.000000,4.000000,4.000000,4.000000,4.000000,4.000000,4.000000,4.000000,4.000000,4.000000,4.000000,4.000000,4.000000,4.000000,4.000000,4.000000,4.000000,100.000000
1615602793.619153,114.000000,0.000000,-0.400682,14.482987,-32.689774,11.327488,14.894100,10.203078,6.453674,-2.269158,16.957777,24.508430,-9.714602,-0.088202,-13.995510,5.667551,-9.065275,4.259097,-4.928915,6.643344,91.495872,0.760149,-20.249685,-1.269882,9.277747,-13.751346,4.797703,5.516080,-0.070016,11.953554,19.120478,7.863187,17.612181,-54.290646,8064.000000,0.000000,4.000000,,,,0.000000,4.000000,4.000000,4.000000,4.000000,4.000000,4.000000,4.000000,4.000000,4.000000,4.000000,4.000000,4.000000,4.000000,4.000000,4.000000,4.000000,4.000000,4.000000,4.000000,4.000000,4.000000,4.000000,4.000000,4.000000,4.000000,4.000000,4.000000,4.000000,4.000000,4.000000,4.000000,4.000000,100.000000
1615602793.626903,115.000000,0.000000,-0.400281,14.468504,-33.169903,11.828981,16.417667,12.244157,6.960041,0.297214,17.453640,23.971102,-7.653605,1.963168,-7.827669,12.328550,0.174560,18.100992,2.255501,31.252085,124.224892,26.400414,-9.460205,17.705748,15.422316,-6.045287,8.382649,12.177231,-0.069946,10.915959,20.639820,9.906606,15.543287,-51.159431,8064.000000,0.000000,4.000000,,,,0.000000,4.000000,4.000000,4.000000,4.000000,4.000000,4.000000,4.000000,4.000000,4.000000,4.000000,4.000000,4.000000,4.000000,4.000000,4.000000,4.000000,4.000000,4.000000,4.000000,4.000000,4.000000,4.000000,4.000000,4.000000,4.000000,4.000000,4.000000,4.000000,4.000000,4.000000,4.000000,4.000000,100.000000
1615602793.634552,116.000000,0.000000,-0.399881,14.454036,-29.546989,11.304332,14.862788,13.770374,5.927440,1.835378,19.487469,23.434311,-0.466464,2.986846,-3.717277,13.854683,5.302590,24.236736,4.304528,24.041346,130.254517,28.425297,-8.425104,16.149580,14.894073,6.781271,7.861446,14.729156,-1.095517,11.417864,22.670462,11.947981,12.963641,-50.595451,8064.000000,0.000000,4.000000,,,,0.000000,4.000000,4.000000,4.000000,4.000000,4.000000,4.000000,4.000000,4.000000,4.000000,4.000000,4.000000,4.000000,4.000000,4.000000,4.000000,4.000000,4.000000,4.000000,4.000000,4.000000,4.000000,4.000000,4.000000,4.000000,4.000000,4.000000,4.000000,4.000000,4.000000,4.000000,4.000000,4.000000,100.000000
1615602793.642302,117.000000,0.000000,-0.912302,14.439582,-25.414877,11.293027,17.412027,13.756604,5.921512,0.807902,19.980801,23.923697,2.610926,2.471038,-3.713560,12.302367,4.784467,17.545834,3.274582,10.171151,114.226822,24.294306,-9.442320,9.979584,9.238153,10.877054,6.315123,14.201606,-0.068781,10.893626,22.134970,10.910392,13.463498,-50.544857,8064.000000,0.000000,4.000000,,,,0.000000,4.000000,4.000000,4.000000,4.000000,4.000000,4.000000,4.000000,4.000000,4.000000,4.000000,4.000000,4.000000,4.000000,4.000000,4.000000,4.000000,4.000000,4.000000,4.000000,4.000000,4.000000,4.000000,4.000000,4.000000,4.000000,4.000000,4.000000,4.000000,4.000000,4.000000,4.000000,4.000000,100.000000
1615602793.649952,118.000000,0.000000,-0.398569,13.912321,-25.902283,10.768913,25.086924,13.742847,8.479693,2.858376,22.012102,23.386953,3.633956,2.981388,-1.145744,17.418270,10.420709,23.169313,3.271308,20.930210,124.881828,27.859756,-3.791852,10.995246,10.254556,9.327716,11.437013,14.187405,4.546673,11.395553,22.625656,12.437943,13.450034,-39.212261,8064.000000,0.000000,4.000000,,,,0.000000,4.000000,4.000000,4.000000,4.000000,4.000000,4.000000,4.000000,4.000000,4.000000,4.000000,4.000000,4.000000,4.000000,4.000000,4.000000,4.000000,4.000000,4.000000,4.000000,4.000000,4.000000,4.000000,4.000000,4.000000,4.000000,4.000000,4.000000,4.000000,4.000000,4.000000,4.000000,4.000000,100.000000
1615602793.657701,119.000000,0.000000,-0.398170,13.898409,-24.337919,11.783786,27.625940,13.216284,10.522495,8.496543,24.041372,25.414848,8.758527,2.465586,-0.631777,24.067518,17.076954,34.941017,3.780857,18.857998,118.603096,14.498563,-6.864983,8.420148,13.321224,9.831208,20.656345,14.173217,7.106228,11.896977,24.141493,17.553711,12.923764,-24.301252,8064.000000,0.000000,4.000000,,,,0.000000,4.000000,4.000000,4.000000,4.000000,4.000000,4.000000,4.000000,4.000000,4.000000,4.000000,4.000000,4.000000,4.000000,4.000000,4.000000,4.000000,4.000000,4.000000,4.000000,4.000000,4.000000,4.000000,4.000000,4.000000,4.000000,4.000000,4.000000,4.000000,4.000000,4.000000,4.000000,4.000000,100.000000
1615602793.665351,120.000000,0.000000,-0.910593,16.961433,-19.185377,14.336104,26.572672,13.715888,9.486332,9.513687,24.017332,30.517637,13.877974,2.463120,-0.118325,25.069092,15.521416,34.906075,3.777076,6.531448,88.740906,-1.413372,-21.217093,2.770702,12.795083,8.282916,23.712612,14.671865,7.611943,10.346619,26.168633,19.587439,13.936481,-24.276951,8064.000000,0.000000,4.000000,,,,0.000000,4.000000,4.000000,4.000000,4.000000,4.000000,4.000000,4.000000,4.000000,4.000000,4.000000,4.000000,4.000000,4.000000,4.000000,4.000000,4.000000,4.000000,4.000000,4.000000,4.000000,4.000000,4.000000,4.000000,4.000000,4.000000,4.000000,4.000000,4.000000,4.000000,4.000000,4.000000,4.000000,100.000000
1615602793.673100,121.000000,0.000000,2.167241,21.047037,-18.140551,14.834589,26.546101,16.779095,13.066589,8.991353,26.044596,34.589684,14.376916,8.101683,12.702306,24.531202,18.069998,31.794245,5.311760,18.832609,104.549599,15.511119,-22.221516,4.306393,11.756647,5.710530,22.663258,18.759756,10.681253,11.361914,28.706566,18.542210,16.486647,-27.842419,8064.000000,0.000000,4.000000,,,,0.000000,4.000000,4.000000,4.000000,4.000000,4.000000,4.000000,4.000000,4.000000,4.000000,4.000000,4.000000,4.000000,4.000000,4.000000,4.000000,4.000000,4.000000,4.000000,4.000000,4.000000,4.000000,4.000000,4.000000,4.000000,4.000000,4.000000,4.000000,4.000000,4.000000,4.000000,4.000000,4.000000,100.000000
1615602793.680750,122.000000,0.000000,8.318920,22.051630,-16.583948,15.332575,27.032373,21.377701,20.233009,12.572105,30.633936,35.067917,13.336898,13.734607,21.920372,24.506670,23.180132,28.685528,6.844910,28.044546,137.265564,29.854582,-11.430064,6.866189,12.257710,8.781743,23.153416,22.330740,14.773137,14.427475,28.165039,19.036489,17.495802,-26.788935,8192.000000,0.000000,4.000000,,,,0.000000,4.000000,4.000000,4.000000,4.000000,4.000000,4.000000,4.000000,4.000000,4.000000,4.000000,4.000000,4.000000,4.000000,4.000000,4.000000,4.000000,4.000000,4.000000,4.000000,4.000000,4.000000,4.000000,4.000000,4.000000,4.000000,4.000000,4.000000,4.000000,4.000000,4.000000,4.000000,4.000000,100.000000
1615602793.688499,123.000000,0.000000,11.900345,21.516758,-11.951980,17.881346,26.492521,23.920425,20.725597,17.174917,31.628942,34.520027,11.785100,13.720872,14.718966,23.969343,15.977465,25.579920,7.863707,16.734449,120.205223,9.824727,-18.598122,1.731118,12.245453,8.260140,19.027699,21.282768,14.758364,9.284842,24.034309,17.991812,16.965485,-31.890350,8064.000000,0.000000,4.000000,,,,0.000000,4.000000,4.000000,4.000000,4.000000,4.000000,4.000000,4.000000,4.000000,4.000000,4.000000,4.000000,4.000000,4.000000,4.000000,4.000000,4.000000,4.000000,4.000000,4.000000,4.000000,4.000000,4.000000,4.000000,4.000000,4.000000,4.000000,4.000000,4.000000,4.000000,4.000000,4.000000,4.000000,100.000000
1615602793.696149,124.000000,0.000000,9.324342,21.495241,-12.452848,17.350643,26.466028,24.409327,16.089487,16.644922,28.520391,34.485508,8.696392,14.732792,11.114503,23.945374,6.217897,25.041519,3.753279,3.897202,87.777321,-15.826123,-40.117985,-14.168050,12.233208,-0.978889,9.777901,18.184563,14.230784,0.557609,21.446173,14.896896,16.948521,-41.602051,8064.000000,0.000000,4.000000,,,,0.000000,4.000000,4.000000,4.000000,4.000000,4.000000,4.000000,4.000000,4.000000,4.000000,4.000000,4.000000,4.000000,4.000000,4.000000,4.000000,4.000000,4.000000,4.000000,4.000000,4.000000,4.000000,4.000000,4.000000,4.000000,4.000000,4.000000,4.000000,4.000000,4.000000,4.000000,4.000000,4.000000,100.000000
1615602793.703899,125.000000,0.000000,4.699633,21.986567,-13.978857,14.769190,26.439564,24.897738,13.509295,12.525714,25.927769,34.963840,9.713336,12.153957,9.052106,24.434250,1.596295,15.785708,-4.968423,-14.055413,55.381855,-29.656450,-43.667610,-30.051317,10.169692,-7.644577,6.178380,18.166378,14.216554,-1.494231,21.937548,14.881999,16.931572,-44.124550,8064.000000,0.000000,4.000000,,,,0.000000,4.000000,4.000000,4.000000,4.000000,4.000000,4.000000,4.000000,4.000000,4.000000,4.000000,4.000000,4.000000,4.000000,4.000000,4.000000,4.000000,4.000000,4.000000,4.000000,4.000000,4.000000,4.000000,4.000000,4.000000,4.000000,4.000000,4.000000,4.000000,4.000000,4.000000,4.000000,4.000000,100.000000
1615602793.711548,126.000000,0.000000,3.156471,21.451759,-13.452058,14.754420,24.874662,24.360018,13.495786,8.923444,24.363379,34.416058,10.216443,1.885393,-7.367202,17.230328,-7.636070,2.949410,-8.553199,-22.759306,48.659805,-32.703716,-29.264969,-25.405882,8.108240,-9.688214,7.710663,18.148212,14.202337,0.558545,22.428431,16.918400,17.940281,-42.541965,8064.000000,0.000000,4.000000,,,,0.000000,4.000000,4.000000,4.000000,4.000000,4.000000,4.000000,4.000000,4.000000,4.000000,4.000000,4.000000,4.000000,4.000000,4.000000,4.000000,4.000000,4.000000,4.000000,4.000000,4.000000,4.000000,4.000000,4.000000,4.000000,4.000000,4.000000,4.000000,4.000000,4.000000,4.000000,4.000000,4.000000,100.000000
1615602793.719298,127.000000,0.000000,3.153315,21.430307,-20.618093,13.201204,22.798506,24.335659,13.482290,8.401700,23.313374,33.355999,7.642125,-0.680595,-15.564963,9.007970,-9.166896,10.125947,-3.929261,-1.710906,81.431656,-12.158194,-17.953651,-3.842014,8.612952,-10.191346,7.190132,16.078781,14.188135,-0.467654,21.893181,9.721993,16.383879,-42.499424,8064.000000,0.000000,4.000000,,,,0.000000,4.000000,4.000000,4.000000,4.000000,4.000000,4.000000,4.000000,4.000000,4.000000,4.000000,4.000000,4.000000,4.000000,4.000000,4.000000,4.000000,4.000000,4.000000,4.000000,4.000000,4.000000,4.000000,4.000000,4.000000,4.000000,4.000000,4.000000,4.000000,4.000000,4.000000,4.000000,4.000000,100.000000
1615602793.726948,0.000000,0.000000,1.611700,21.408878,-24.700039,10.623901,23.801348,24.311323,12.955987,8.906119,23.290062,35.886745,12.762688,9.063675,-1.190424,11.563064,6.739707,23.449154,6.331079,17.777985,114.170738,18.110374,-12.807493,8.982341,10.142801,-7.617052,7.695762,14.011421,14.173947,-0.980007,19.307186,-1.569780,13.290572,-42.969746,0.000000,212.000000,4.000000,,,,0.000000,4.000000,4.000000,4.000000,4.000000,4.000000,4.000000,4.000000,4.000000,4.000000,4.000000,4.000000,4.000000,4.000000,4.000000,4.000000,4.000000,4.000000,4.000000,4.000000,4.000000,4.000000,4.000000,4.000000,4.000000,4.000000,4.000000,4.000000,4.000000,4.000000,4.000000,4.000000,4.000000,100.000000
1615602793.734697,1.000000,0.000000,4.174191,21.900290,-14.931748,10.613277,26.341648,24.287012,12.943031,8.384393,23.779591,40.466244,25.570438,14.182817,8.041535,21.295090,19.553480,24.451347,21.196543,20.324308,124.825798,38.605083,-3.051096,13.075923,11.671120,-1.968410,13.329092,13.997409,14.159773,0.046614,18.775059,-4.645133,13.790102,-42.413952,0.000000,197.000000,4.000000,,,,0.000000,4.000000,4.000000,4.000000,4.000000,4.000000,4.000000,4.000000,4.000000,4.000000,4.000000,4.000000,4.000000,4.000000,4.000000,4.000000,4.000000,4.000000,4.000000,4.000000,4.000000,4.000000,4.000000,4.000000,4.000000,4.000000,4.000000,4.000000,4.000000,4.000000,4.000000,4.000000,4.000000,100.000000
1615602793.742347,2.000000,0.000000,10.323863,20.852749,-11.839894,11.115484,25.802486,24.262724,13.442909,8.376008,23.242990,41.964241,26.057688,13.655813,7.007853,24.863539,19.533926,23.914074,27.329193,26.970652,132.906097,45.233147,6.182724,19.729513,13.710731,6.238687,15.879866,12.444950,14.145614,0.559388,18.243464,-2.589206,12.750670,-41.858719,0.000000,172.000000,4.000000,,,,0.000000,4.000000,4.000000,4.000000,4.000000,4.000000,4.000000,4.000000,4.000000,4.000000,4.000000,4.000000,4.000000,4.000000,4.000000,4.000000,4.000000,4.000000,4.000000,4.000000,4.000000,4.000000,4.000000,4.000000,4.000000,4.000000,4.000000,4.000000,4.000000,4.000000,4.000000,4.000000,4.000000,100.000000
1615602793.750096,3.000000,0.000000,7.236616,16.729332,-20.546003,11.104369,18.597197,24.238462,13.429466,8.880452,23.732569,41.409454,17.313681,14.154978,10.077768,22.274572,19.001572,23.377340,16.532633,21.302656,120.978325,29.290478,-0.490125,15.607220,10.107277,11.873474,13.812703,9.355582,14.131468,0.046008,13.609835,-3.099437,6.071253,-42.842503,0.000000,214.000000,4.000000,,,,0.000000,4.000000,4.000000,4.000000,4.000000,4.000000,4.000000,4.000000,4.000000,4.000000,4.000000,4.000000,4.000000,4.000000,4.000000,4.000000,4.000000,4.000000,4.000000,4.000000,4.000000,4.000000,4.000000,4.000000,4.000000,4.000000,4.000000,4.000000,4.000000,4.000000,4.000000,4.000000,4.000000,100.000000
1615602793.757746,4.000000,0.000000,2.101174,14.661320,-23.089560,11.093265,4.732446,24.214224,13.416037,8.871572,23.708836,41.368046,15.757906,13.115182,11.093331,24.816401,20.008211,24.379604,11.900715,9.486481,91.626579,11.312469,-12.284507,3.796741,7.533067,10.323139,11.747608,10.884688,14.117336,-0.466859,11.544943,-4.121978,1.449798,-44.850941,0.000000,191.000000,4.000000,,,,0.000000,4.000000,4.000000,4.000000,4.000000,4.000000,4.000000,4.000000,4.000000,4.000000,4.000000,4.000000,4.000000,4.000000,4.000000,4.000000,4.000000,4.000000,4.000000,4.000000,4.000000,4.000000,4.000000,4.000000,4.000000,4.000000,4.000000,4.000000,4.000000,4.000000,4.000000,4.000000,4.000000,100.000000
1615602793.765496,5.000000,0.000000,8.765739,14.133838,-20.502367,11.082171,-8.092799,24.190010,13.402620,8.862700,23.685127,41.326679,18.306252,16.178989,12.620700,30.945431,20.501024,37.688557,20.606764,25.887251,117.688797,25.660131,-5.092735,11.485251,18.294764,5.184611,13.274323,13.437906,14.616039,2.610531,18.712885,-3.092216,1.961168,-45.831730,0.000000,178.000000,4.000000,,,,0.000000,4.000000,4.000000,4.000000,4.000000,4.000000,4.000000,4.000000,4.000000,4.000000,4.000000,4.000000,4.000000,4.000000,4.000000,4.000000,4.000000,4.000000,4.000000,4.000000,4.000000,4.000000,4.000000,4.000000,4.000000,4.000000,4.000000,4.000000,4.000000,4.000000,4.000000,4.000000,4.000000,100.000000
1615602793.773145,6.000000,0.000000,15.423640,12.068422,-21.507505,11.071089,-11.161630,24.165819,13.389217,8.853838,23.661442,41.285351,16.236662,20.265375,17.223463,31.940126,23.557446,43.804714,27.765644,42.271622,150.391617,38.454983,2.604666,22.242998,25.968777,8.256350,15.312330,13.937289,15.114244,4.146382,23.309557,-3.089123,2.472028,-45.785900,0.000000,186.000000,4.000000,,,,0.000000,4.000000,4.000000,4.000000,4.000000,4.000000,4.000000,4.000000,4.000000,4.000000,4.000000,4.000000,4.000000,4.000000,4.000000,4.000000,4.000000,4.000000,4.000000,4.000000,4.000000,4.000000,4.000000,4.000000,4.000000,4.000000,4.000000,4.000000,4.000000,4.000000,4.000000,4.000000,4.000000,100.000000
1615602793.780795,7.000000,0.000000,7.203089,10.005072,-21.485998,11.060018,-8.073545,24.141653,13.375829,8.844984,23.637781,41.244064,16.220427,14.604084,14.129317,30.882545,19.944145,30.940397,23.635313,22.229349,117.933533,11.749863,-15.859478,3.759216,14.660757,11.325016,15.297018,13.923351,12.022206,-0.985969,20.722145,-3.598855,2.469556,-45.740112,0.000000,213.000000,4.000000,,,,0.000000,4.000000,4.000000,4.000000,4.000000,4.000000,4.000000,4.000000,4.000000,4.000000,4.000000,4.000000,4.000000,4.000000,4.000000,4.000000,4.000000,4.000000,4.000000,4.000000,4.000000,4.000000,4.000000,4.000000,4.000000,4.000000,4.000000,4.000000,4.000000,4.000000,4.000000,4.000000,4.000000,100.000000
1615602793.788544,8.000000,0.000000,-1.522063,9.995067,-22.490154,11.048958,-7.552651,24.117512,13.362453,8.836139,23.614143,41.202820,16.717026,6.384352,5.910059,31.877304,11.206252,22.704329,11.816807,5.796863,85.507912,-14.415733,-37.382080,-19.834288,2.851225,2.082922,13.230439,14.422249,10.471723,-2.010624,18.650141,-2.569615,5.031188,-45.694374,0.000000,216.000000,4.000000,,,,0.000000,4.000000,4.000000,4.000000,4.000000,4.000000,4.000000,4.000000,4.000000,4.000000,4.000000,4.000000,4.000000,4.000000,4.000000,4.000000,4.000000,4.000000,4.000000,4.000000,4.000000,4.000000,4.000000,4.000000,4.000000,4.000000,4.000000,4.000000,4.000000,4.000000,4.000000,4.000000,4.000000,100.000000
1615602793.796294,9.000000,0.000000,-1.007720,10.497892,-24.518946,11.037909,-9.596380,24.093393,13.349091,8.827303,23.590528,41.161617,15.161847,5.865147,1.288765,26.717222,8.118123,19.604702,0.522938,13.996194,89.524963,-10.811574,-40.421619,-20.840094,4.386835,-9.201213,9.627465,12.869365,10.974072,3.632412,17.605848,-0.515763,6.051798,-45.648678,0.000000,200.000000,4.000000,,,,0.000000,4.000000,4.000000,4.000000,4.000000,4.000000,4.000000,4.000000,4.000000,4.000000,4.000000,4.000000,4.000000,4.000000,4.000000,4.000000,4.000000,4.000000,4.000000,4.000000,4.000000,4.000000,4.000000,4.000000,4.000000,4.000000,4.000000,4.000000,4.000000,4.000000,4.000000,4.000000,4.000000,100.000000
1615602793.803943,10.000000,0.000000,-0.493892,10.487394,-25.520067,11.026871,-10.099605,24.069302,13.335741,8.818476,23.054117,41.120457,13.095404,2.782359,-6.917652,14.382812,2.468979,7.277405,-2.041687,15.520659,98.666214,-5.672558,-38.842739,-19.793613,5.408089,-10.217652,6.540914,9.779572,5.322072,4.141600,15.024140,-0.002427,6.045747,-47.654312,0.000000,182.000000,4.000000,,,,0.000000,4.000000,4.000000,4.000000,4.000000,4.000000,4.000000,4.000000,4.000000,4.000000,4.000000,4.000000,4.000000,4.000000,4.000000,4.000000,4.000000,4.000000,4.000000,4.000000,4.000000,4.000000,4.000000,4.000000,4.000000,4.000000,4.000000,4.000000,4.000000,4.000000,4.000000,4.000000,4.000000,100.000000
1615602793.811693,11.000000,0.000000,-1.006219,10.476907,-26.007368,11.015844,-10.089505,24.045231,13.322406,8.809657,23.031063,40.566517,12.056667,-0.810167,-12.551760,6.676121,-7.277080,-0.935001,-1.526825,7.812831,88.823952,-8.743808,-35.214149,-21.312281,3.864220,-9.181793,7.047194,9.256972,-1.349917,3.111817,13.983476,0.510396,6.039701,-50.683582,0.000000,188.000000,4.000000,,,,0.000000,4.000000,4.000000,4.000000,4.000000,4.000000,4.000000,4.000000,4.000000,4.000000,4.000000,4.000000,4.000000,4.000000,4.000000,4.000000,4.000000,4.000000,4.000000,4.000000,4.000000,4.000000,4.000000,4.000000,4.000000,4.000000,4.000000,4.000000,4.000000,4.000000,4.000000,4.000000,4.000000,100.000000
1615602793.819342,12.000000,0.000000,3.610172,9.953609,-24.955719,10.492008,-9.053774,24.021187,13.309083,8.800847,23.520853,41.038769,12.557431,5.857309,-3.821259,10.772009,-0.090316,4.706960,-2.038119,5.753736,95.914619,-3.606859,-20.819963,-6.931994,3.860355,-11.223894,7.552967,10.273356,5.830920,8.236911,14.482312,0.509886,5.520841,-48.068794,0.000000,210.000000,4.000000,,,,0.000000,4.000000,4.000000,4.000000,4.000000,4.000000,4.000000,4.000000,4.000000,4.000000,4.000000,4.000000,4.000000,4.000000,4.000000,4.000000,4.000000,4.000000,4.000000,4.000000,4.000000,4.000000,4.000000,4.000000,4.000000,4.000000,4.000000,4.000000,4.000000,4.000000,4.000000,4.000000,4.000000,100.000000
1615602793.827091,13.000000,0.000000,7.196305,10.456476,-22.879482,11.507156,-6.993439,23.997166,13.295774,8.792047,22.471691,40.997730,15.108976,13.543760,5.413331,19.992006,15.807211,19.574047,4.630586,8.312085,116.844345,12.294184,-10.029912,11.536477,4.369316,-5.571644,6.006953,9.750262,15.055859,9.767136,14.467831,-1.029086,6.028141,-45.969444,0.000000,192.000000,4.000000,,,,0.000000,4.000000,4.000000,4.000000,4.000000,4.000000,4.000000,4.000000,4.000000,4.000000,4.000000,4.000000,4.000000,4.000000,4.000000,4.000000,4.000000,4.000000,4.000000,4.000000,4.000000,4.000000,4.000000,4.000000,4.000000,4.000000,4.000000,4.000000,4.000000,4.000000,4.000000,4.000000,4.000000,100.000000
1615602793.834741,14.000000,0.000000,6.676289,10.446020,-21.830961,13.546931,-5.960804,23.973167,13.282478,8.783255,23.474861,40.443913,18.170790,14.043036,8.484840,28.689962,19.893967,36.477551,12.318263,15.996080,132.624939,27.666504,-13.609626,15.627504,6.929049,4.690338,8.565048,9.227692,11.963880,4.116343,14.453362,4.612969,10.637497,-46.436295,0.000000,211.000000,4.000000,,,,0.000000,4.000000,4.000000,4.000000,4.000000,4.000000,4.000000,4.000000,4.000000,4.000000,4.000000,4.000000,4.000000,4.000000,4.000000,4.000000,4.000000,4.000000,4.000000,4.000000,4.000000,4.000000,4.000000,4.000000,4.000000,4.000000,4.000000,4.000000,4.000000,4.000000,4.000000,4.000000,4.000000,100.000000
1615602793.842390,15.000000,0.000000,7.182433,9.922753,-18.732206,15.071846,-1.852279,23.949194,13.269196,8.774471,29.605232,40.916290,20.716722,13.003352,13.604561,37.892044,22.438175,41.569279,14.870048,28.800596,141.210266,32.254223,-11.031914,17.150339,11.024684,5.711288,15.735970,13.833849,10.413454,3.086585,14.438910,15.890408,13.703782,-40.236012,0.000000,231.000000,4.000000,,,,0.000000,4.000000,4.000000,4.000000,4.000000,4.000000,4.000000,4.000000,4.000000,4.000000,4.000000,4.000000,4.000000,4.000000,4.000000,4.000000,4.000000,4.000000,4.000000,4.000000,4.000000,4.000000,4.000000,4.000000,4.000000,4.000000,4.000000,2.000000,4.000000,4.000000,4.000000,4.000000,4.000000,83.333336
1615602793.850140,16.000000,0.000000,10.252173,10.938472,-11.021167,16.595236,4.303419,23.925245,12.743106,8.765697,34.703831,43.439476,25.311390,14.015990,18.719162,50.161842,32.672150,43.578991,18.444921,34.412823,142.094696,30.683508,5.389375,22.261393,13.064941,6.731218,19.309978,20.486681,19.633810,6.673242,14.424470,20.489901,13.690079,-28.913725,0.000000,152.000000,4.000000,,,,0.000000,4.000000,4.000000,4.000000,4.000000,4.000000,4.000000,4.000000,4.000000,4.000000,4.000000,4.000000,4.000000,4.000000,4.000000,4.000000,4.000000,4.000000,4.000000,4.000000,4.000000,4.000000,4.000000,4.000000,4.000000,4.000000,4.000000,2.000000,4.000000,4.000000,4.000000,4.000000,4.000000,83.333336
1615602793.857790,17.000000,0.000000,10.754742,13.491635,-6.394762,18.629923,6.350398,23.901320,13.243183,8.756931,34.669128,44.934498,28.875822,14.001974,18.700443,58.829628,38.793324,54.304642,24.580322,36.942513,141.439774,33.216927,18.717319,23.264772,15.103158,13.903974,18.265028,22.517477,23.203920,7.692210,14.410046,18.930950,13.163568,-25.295069,0.000000,222.000000,4.000000,,,,0.000000,4.000000,4.000000,4.000000,4.000000,4.000000,4.000000,4.000000,4.000000,4.000000,4.000000,4.000000,4.000000,4.000000,4.000000,4.000000,4.000000,4.000000,4.000000,4.000000,4.000000,4.000000,4.000000,4.000000,4.000000,4.000000,4.000000,2.000000,4.000000,4.000000,4.000000,4.000000,4.000000,83.333336
1615602793.865539,18.000000,0.000000,10.231167,14.503785,-5.875546,18.098473,5.318407,23.877419,15.281222,8.748174,34.121639,44.889565,27.308485,13.475152,18.681742,55.693878,39.780170,54.763157,26.094204,43.572235,144.375259,36.773453,16.134499,21.703047,16.626516,17.479813,18.246761,19.930857,19.078152,6.658877,14.395636,18.912020,14.176045,-27.833876,0.000000,204.000000,4.000000,,,,0.000000,4.000000,4.000000,4.000000,4.000000,4.000000,4.000000,4.000000,4.000000,4.000000,4.000000,4.000000,4.000000,4.000000,4.000000,4.000000,4.000000,4.000000,4.000000,4.000000,4.000000,4.000000,4.000000,4.000000,4.000000,4.000000,4.000000,2.000000,4.000000,4.000000,4.000000,4.000000,4.000000,83.333336
1615602793.873189,19.000000,0.000000,10.220936,14.489281,-4.844029,18.593195,5.825909,24.366362,16.804403,8.739426,34.087517,44.331852,28.306818,13.461677,16.098957,47.945877,32.560902,39.836601,18.888622,39.938919,129.871902,25.454628,2.272211,12.450574,12.507326,17.462334,19.254156,17.859644,17.520613,7.165038,14.381240,19.405928,13.136229,-26.267580,0.000000,173.000000,4.000000,,,,0.000000,4.000000,4.000000,4.000000,4.000000,4.000000,4.000000,4.000000,4.000000,4.000000,4.000000,4.000000,4.000000,4.000000,4.000000,4.000000,4.000000,4.000000,4.000000,4.000000,4.000000,4.000000,4.000000,4.000000,4.000000,4.000000,4.000000,2.000000,4.000000,4.000000,4.000000,4.000000,4.000000,83.333336
1615602793.880938,20.000000,0.000000,10.723535,14.474792,-9.454570,18.574602,4.281621,22.803534,16.787598,8.730686,34.566250,43.774700,28.278511,13.961036,7.364910,41.744083,15.605265,32.617275,7.074862,21.437443,97.434341,-2.263134,-13.114676,-6.536235,8.905075,14.880769,17.183620,17.328964,15.964630,7.157873,14.366858,19.386522,13.635913,-26.241312,0.000000,200.000000,4.000000,,,,0.000000,4.000000,4.000000,4.000000,4.000000,4.000000,4.000000,4.000000,4.000000,4.000000,4.000000,4.000000,4.000000,4.000000,4.000000,4.000000,4.000000,4.000000,4.000000,4.000000,4.000000,4.000000,4.000000,4.000000,4.000000,4.000000,4.000000,2.000000,4.000000,4.000000,4.000000,4.000000,4.000000,83.333336
1615602793.888588,21.000000,0.000000,9.687170,13.947496,-18.675884,14.966283,-0.338045,21.242270,16.770811,8.721956,35.044502,45.269386,16.455360,12.408613,0.178058,30.420288,3.794788,32.071838,-1.137341,9.621134,79.901016,-21.235229,-27.973356,-17.298929,7.870529,5.122298,15.115154,17.311634,10.307639,7.150715,14.352492,17.315853,13.622277,-30.317635,0.000000,219.000000,4.000000,,,,0.000000,4.000000,4.000000,4.000000,4.000000,4.000000,4.000000,4.000000,4.000000,4.000000,4.000000,4.000000,4.000000,4.000000,4.000000,4.000000,4.000000,4.000000,4.000000,4.000000,4.000000,4.000000,4.000000,4.000000,4.000000,4.000000,4.000000,2.000000,4.000000,4.000000,4.000000,4.000000,4.000000,83.333336
1615602793.896338,22.000000,0.000000,7.113381,15.472011,-22.246952,10.335932,-2.388989,19.682566,16.754040,8.713234,30.394075,42.147194,5.156853,10.344922,-1.360582,18.594995,3.278172,27.424383,-2.161845,11.149974,98.282646,-15.060149,-33.586411,-16.768810,5.811377,-3.600773,14.074398,17.294323,6.194768,7.143565,14.338140,11.144691,10.018911,-34.389881,0.000000,179.000000,4.000000,,,,0.000000,4.000000,4.000000,4.000000,4.000000,4.000000,4.000000,4.000000,4.000000,4.000000,4.000000,4.000000,4.000000,4.000000,4.000000,4.000000,4.000000,4.000000,4.000000,4.000000,4.000000,4.000000,4.000000,4.000000,4.000000,4.000000,4.000000,2.000000,4.000000,4.000000,4.000000,4.000000,4.000000,83.333336
1615602793.903987,23.000000,0.000000,6.080626,13.405256,-22.737526,10.838417,-2.386600,16.073139,16.737286,8.704520,23.697014,32.874279,4.126055,9.308936,-0.846401,17.550760,3.787715,26.371317,-1.134042,11.651645,112.543343,-6.327140,-22.783592,-17.264862,3.754283,-3.084352,14.060324,17.277029,6.188573,7.136421,14.836622,6.518162,3.855046,-35.893955,0.000000,201.000000,4.000000,,,,0.000000,4.000000,4.000000,4.000000,4.000000,4.000000,4.000000,4.000000,4.000000,4.000000,4.000000,4.000000,4.000000,4.000000,4.000000,4.000000,4.000000,4.000000,4.000000,4.000000,4.000000,4.000000,4.000000,4.000000,4.000000,4.000000,4.000000,2.000000,4.000000,4.000000,4.000000,4.000000,4.000000,83.333336
1615602793.911737,24.000000,0.000000,6.587366,3.648262,-25.791712,10.314757,-2.384213,12.467322,16.720549,8.695816,22.134855,29.251661,5.147571,9.812448,-0.845554,21.122953,2.245466,23.268023,-2.671370,8.050249,104.225670,-6.320813,-8.914655,-11.093751,4.263349,-2.568447,14.046264,16.746931,6.695205,7.129285,12.770503,7.024464,1.799909,-36.883701,0.000000,169.000000,4.000000,,,,0.000000,4.000000,4.000000,4.000000,4.000000,4.000000,4.000000,4.000000,4.000000,4.000000,4.000000,4.000000,4.000000,4.000000,4.000000,4.000000,4.000000,4.000000,4.000000,4.000000,4.000000,4.000000,4.000000,4.000000,4.000000,4.000000,4.000000,2.000000,4.000000,4.000000,4.000000,4.000000,4.000000,83.333336
1615602793.919386,25.000000,0.000000,6.580779,-0.970771,-25.765921,7.740340,-2.381829,12.454855,16.703829,8.687120,23.138361,34.863434,5.655243,9.802635,1.206573,25.204393,6.345784,22.731934,-0.104596,16.247328,111.813751,5.993200,-4.803176,6.353240,4.771906,-3.078699,14.545038,17.243006,6.175689,7.122155,10.706450,7.017440,2.310930,-40.436562,0.000000,198.000000,4.000000,,,,0.000000,4.000000,4.000000,4.000000,4.000000,4.000000,4.000000,4.000000,4.000000,4.000000,4.000000,4.000000,4.000000,4.000000,4.000000,4.000000,4.000000,4.000000,4.000000,4.000000,4.000000,4.000000,4.000000,4.000000,4.000000,4.000000,4.000000,2.000000,4.000000,4.000000,4.000000,4.000000,4.000000,83.333336
1615602793.927136,26.000000,0.000000,6.574198,2.107122,-24.714514,6.706959,-2.379447,12.955221,16.687124,8.678433,22.602404,37.392673,10.264973,9.792832,5.820752,34.922779,17.108669,39.119457,8.613458,35.205441,137.342957,31.628233,-0.695809,18.141758,3.741493,-1.024338,14.017673,17.225761,6.682334,7.115033,10.695745,7.010422,2.308619,-47.062790,0.000000,184.000000,4.000000,,,,0.000000,4.000000,4.000000,4.000000,4.000000,4.000000,4.000000,4.000000,4.000000,4.000000,4.000000,4.000000,4.000000,4.000000,4.000000,4.000000,4.000000,4.000000,4.000000,4.000000,4.000000,4.000000,4.000000,4.000000,4.000000,4.000000,4.000000,2.000000,4.000000,4.000000,4.000000,4.000000,4.000000,83.333336
1615602793.934786,27.000000,0.000000,6.567624,1.079374,-25.715439,7.213073,-2.377068,12.429445,16.670437,8.156935,22.579800,35.304001,12.818810,9.783040,9.917495,44.118626,25.296688,55.490597,14.758691,46.452286,141.308182,42.365837,6.484374,18.636436,6.814675,1.027969,14.516475,14.644434,6.675652,7.107918,11.197869,7.003412,1.793489,-49.067009,0.000000,178.000000,4.000000,,,,0.000000,4.000000,4.000000,4.000000,4.000000,4.000000,4.000000,4.000000,4.000000,4.000000,4.000000,4.000000,4.000000,4.000000,4.000000,4.000000,4.000000,4.000000,4.000000,4.000000,4.000000,4.000000,4.000000,4.000000,4.000000,4.000000,4.000000,2.000000,4.000000,4.000000,4.000000,4.000000,4.000000,83.333336
1615602793.942535,28.000000,0.000000,6.561056,-0.460167,-22.099981,7.205860,-2.374691,12.417016,16.653767,8.661598,23.070042,37.319977,13.318812,9.773257,10.933218,45.612968,26.809853,53.383823,17.308035,45.893013,132.448929,39.246548,8.529172,19.130621,11.423245,3.078223,19.117344,14.629789,6.668976,7.100811,10.161030,6.996408,2.304516,-44.402557,0.000000,198.000000,4.000000,,,,0.000000,4.000000,4.000000,4.000000,4.000000,4.000000,4.000000,4.000000,4.000000,4.000000,4.000000,4.000000,4.000000,4.000000,4.000000,4.000000,4.000000,4.000000,4.000000,4.000000,4.000000,4.000000,4.000000,4.000000,4.000000,4.000000,4.000000,2.000000,4.000000,4.000000,4.000000,4.000000,4.000000,83.333336
1615602793.950185,29.000000,0.000000,6.554495,4.668499,-15.411214,7.198654,-2.372316,12.917419,16.637114,10.191398,23.046970,42.923683,15.356775,9.763484,10.922285,45.054535,26.783043,48.202232,18.316368,44.821480,133.342117,37.156017,5.956540,19.111490,13.463104,7.690529,25.252071,19.743364,7.175128,7.093709,11.176510,10.579156,2.302212,-40.768414,0.000000,199.000000,4.000000,,,,0.000000,4.000000,4.000000,4.000000,4.000000,4.000000,4.000000,4.000000,4.000000,4.000000,4.000000,4.000000,4.000000,4.000000,4.000000,4.000000,4.000000,4.000000,4.000000,4.000000,4.000000,4.000000,4.000000,4.000000,4.000000,4.000000,4.000000,2.000000,4.000000,4.000000,4.000000,4.000000,4.000000,83.333336
1615602793.957934,30.000000,0.000000,6.547941,7.227933,-12.831700,7.191455,-2.369944,12.904502,16.620476,12.232489,23.023924,44.419220,16.367060,9.753720,10.398542,45.522301,26.243441,48.666851,16.759590,44.776657,133.208771,34.041939,5.950583,16.528276,11.398358,9.734120,27.278103,21.262083,6.655132,7.086616,13.729436,15.183961,2.299910,-41.240463,0.000000,173.000000,4.000000,,,,0.000000,4.000000,4.000000,4.000000,4.000000,4.000000,4.000000,4.000000,4.000000,4.000000,4.000000,4.000000,4.000000,4.000000,4.000000,4.000000,4.000000,4.000000,4.000000,4.000000,4.000000,4.000000,4.000000,4.000000,4.000000,4.000000,4.000000,2.000000,4.000000,4.000000,4.000000,4.000000,4.000000,83.333336
1615602793.965584,31.000000,0.000000,6.541393,7.220705,-13.331689,7.184264,-2.367574,12.891597,16.603855,12.220256,23.000900,43.861980,16.350693,9.743966,10.388144,44.451138,26.217197,48.105366,17.255650,43.193417,135.639679,34.520718,5.431813,18.563030,11.386960,8.698746,23.148260,20.728001,6.135656,7.079529,12.690065,14.143136,2.297610,-41.199223,0.000000,179.000000,4.000000,,,,0.000000,4.000000,4.000000,4.000000,4.000000,4.000000,4.000000,4.000000,4.000000,4.000000,4.000000,4.000000,4.000000,4.000000,4.000000,4.000000,4.000000,4.000000,4.000000,4.000000,4.000000,4.000000,4.000000,4.000000,4.000000,4.000000,4.000000,2.000000,4.000000,4.000000,4.000000,4.000000,4.000000,83.333336
1615602793.973334,32.000000,0.000000,6.534852,9.264767,-14.343998,7.177079,-1.852386,12.878706,16.587252,12.208035,22.977900,43.818119,16.334341,9.734222,10.377756,44.919506,25.678160,45.493156,18.776855,33.919456,138.580948,29.357992,-1.240286,12.903441,13.426855,9.715688,17.484085,21.220093,6.642341,7.072450,10.626094,11.564890,2.295312,-41.670845,8064.000000,0.000000,4.000000,,,,0.000000,4.000000,4.000000,4.000000,4.000000,4.000000,4.000000,4.000000,4.000000,4.000000,4.000000,4.000000,4.000000,4.000000,4.000000,4.000000,4.000000,4.000000,4.000000,4.000000,4.000000,4.000000,4.000000,4.000000,4.000000,4.000000,4.000000,2.000000,4.000000,4.000000,4.000000,4.000000,4.000000,83.333336
1615602793.980983,33.000000,0.000000,6.528316,11.306784,-16.893757,7.169902,-2.363354,12.865827,17.083485,12.708648,22.954922,43.261482,12.728264,9.724488,8.316096,43.848946,19.498634,33.652790,5.424746,19.013741,109.724426,2.661967,-16.623661,-10.186385,7.772403,6.629049,12.338397,18.634769,5.097237,7.065377,10.615467,11.040505,2.293017,-44.193275,8192.000000,0.000000,4.000000,,,,0.000000,4.000000,4.000000,4.000000,4.000000,4.000000,4.000000,4.000000,4.000000,4.000000,4.000000,4.000000,4.000000,4.000000,4.000000,4.000000,4.000000,4.000000,4.000000,4.000000,4.000000,4.000000,4.000000,4.000000,4.000000,4.000000,4.000000,2.000000,4.000000,4.000000,4.000000,4.000000,4.000000,83.333336
1615602793.988733,34.000000,0.000000,6.521788,10.269835,-20.466606,7.162733,-2.360991,12.852962,16.040760,12.183119,22.931967,39.628475,9.125792,9.201943,5.743677,36.112789,7.684264,16.696062,-8.939653,12.840881,84.486496,-14.263772,-30.453192,-27.612095,-0.440498,-3.121170,4.120930,10.923827,-0.548886,7.058312,10.092031,9.491003,2.290724,-44.661903,8064.000000,0.000000,4.000000,,,,0.000000,4.000000,4.000000,4.000000,4.000000,4.000000,4.000000,4.000000,4.000000,4.000000,4.000000,4.000000,4.000000,4.000000,4.000000,4.000000,4.000000,4.000000,4.000000,4.000000,4.000000,4.000000,4.000000,4.000000,4.000000,4.000000,4.000000,2.000000,4.000000,4.000000,4.000000,4.000000,4.000000,83.333336
1615602793.996383,35.000000,0.000000,6.515266,10.259566,-21.471781,7.668390,-0.307348,12.840108,13.460617,12.170936,22.909035,40.101669,12.706409,9.705562,7.789216,29.922831,6.138118,16.679367,0.812876,15.904963,106.453293,6.263312,-26.320173,-14.763971,6.226610,-10.810356,-1.524217,7.323160,-1.061157,7.051253,11.107580,6.917409,2.288433,-44.617241,8064.000000,0.000000,4.000000,,,,0.000000,4.000000,4.000000,4.000000,4.000000,4.000000,4.000000,4.000000,4.000000,4.000000,4.000000,4.000000,4.000000,4.000000,4.000000,4.000000,4.000000,4.000000,4.000000,4.000000,4.000000,4.000000,4.000000,4.000000,4.000000,4.000000,4.000000,2.000000,4.000000,4.000000,4.000000,4.000000,4.000000,83.333336
1615602794.004032,36.000000,0.000000,6.508751,10.249307,-20.424667,6.635081,1.744242,13.340089,12.421515,12.671585,23.398947,44.164131,18.334728,11.747138,12.909632,33.482651,17.414032,29.483200,19.273602,17.940340,120.705811,28.308331,-6.293854,11.404639,20.579357,-10.799546,5.656795,12.444042,5.606571,7.044202,15.711858,8.961774,2.798965,-44.059803,8064.000000,0.000000,4.000000,,,,0.000000,4.000000,4.000000,4.000000,4.000000,4.000000,4.000000,4.000000,4.000000,4.000000,4.000000,4.000000,4.000000,4.000000,4.000000,4.000000,4.000000,4.000000,4.000000,4.000000,4.000000,4.000000,4.000000,4.000000,4.000000,4.000000,4.000000,2.000000,4.000000,4.000000,4.000000,4.000000,4.000000,83.333336
1615602794.011782,37.000000,0.000000,5.989422,10.239057,-19.891422,4.577164,-0.308785,11.788287,12.921914,11.120452,21.837086,41.555862,20.367676,13.273852,14.948004,37.551735,25.601746,34.069099,22.331251,20.486504,104.687668,28.792843,6.020133,23.700928,24.148521,-2.070798,16.933189,19.611086,10.729169,7.037158,18.260248,11.004094,2.283346,-45.041386,8064.000000,0.000000,4.000000,,,,0.000000,4.000000,4.000000,4.000000,4.000000,4.000000,4.000000,4.000000,4.000000,4.000000,4.000000,4.000000,4.000000,4.000000,4.000000,4.000000,4.000000,4.000000,4.000000,4.000000,4.000000,4.000000,4.000000,4.000000,4.000000,4.000000,4.000000,2.000000,4.000000,4.000000,4.000000,4.000000,4.000000,83.333336
1615602794.019531,38.000000,0.000000,6.496253,10.228818,-22.435635,3.546945,-2.359758,9.212396,12.908992,9.058050,18.225506,34.847641,19.834488,13.260579,12.881774,36.488541,25.576143,32.496571,20.257639,25.081402,110.224007,32.353794,4.988472,25.215687,22.073092,9.213325,18.967539,20.617115,10.205620,7.030121,18.241987,11.505911,2.281062,-49.611729,8064.000000,0.000000,4.000000,,,,0.000000,4.000000,4.000000,4.000000,4.000000,4.000000,4.000000,4.000000,4.000000,4.000000,4.000000,4.000000,4.000000,4.000000,4.000000,4.000000,4.000000,4.000000,4.000000,4.000000,4.000000,4.000000,4.000000,4.000000,4.000000,4.000000,4.000000,2.000000,4.000000,4.000000,4.000000,4.000000,4.000000,83.333336
1615602794.027181,39.000000,0.000000,8.541039,10.218589,-23.951660,3.543398,-2.357398,8.690363,12.896083,7.510530,15.643177,32.248692,18.789013,13.247318,10.304790,35.939232,25.037746,32.976894,21.775843,26.081961,127.036865,41.039391,11.137329,24.677650,23.076658,13.819495,17.410109,18.032396,10.195414,7.535911,18.736567,12.007225,3.304422,-51.613400,8064.000000,0.000000,4.000000,,,,0.000000,4.000000,4.000000,4.000000,4.000000,4.000000,4.000000,4.000000,4.000000,4.000000,4.000000,4.000000,4.000000,4.000000,4.000000,4.000000,4.000000,4.000000,4.000000,4.000000,4.000000,4.000000,4.000000,4.000000,4.000000,4.000000,4.000000,2.000000,4.000000,4.000000,4.000000,4.000000,4.000000,83.333336
1615602794.034930,40.000000,0.000000,10.583779,10.208370,-23.927708,4.052676,-1.842220,9.707314,11.344726,5.451738,15.114714,31.703621,16.718941,13.234071,10.294485,37.441753,26.551170,33.969559,21.754066,26.568699,133.576492,42.536812,25.997986,26.191435,23.566402,12.780035,18.931160,17.501543,10.698039,10.092478,14.615266,9.431115,1.249836,-51.048965,8064.000000,0.000000,4.000000,,,,0.000000,4.000000,4.000000,4.000000,4.000000,4.000000,4.000000,4.000000,4.000000,4.000000,4.000000,4.000000,4.000000,4.000000,4.000000,4.000000,4.000000,4.000000,4.000000,4.000000,4.000000,4.000000,4.000000,4.000000,4.000000,4.000000,4.000000,2.000000,4.000000,4.000000,4.000000,4.000000,4.000000,83.333336
1615602794.042579,41.000000,0.000000,10.573196,10.198162,-31.596088,3.022982,-1.840378,8.671966,9.282099,4.420645,15.612419,26.543713,16.189402,13.733658,13.361114,38.429955,27.550261,36.499691,22.245132,31.670336,144.724960,42.494274,25.459167,27.190886,23.542837,12.767255,16.860947,15.945580,10.174520,11.108027,7.421164,4.293479,-3.366799,-54.074841,8064.000000,0.000000,4.000000,,,,0.000000,4.000000,4.000000,4.000000,4.000000,4.000000,4.000000,4.000000,4.000000,4.000000,4.000000,4.000000,4.000000,4.000000,4.000000,4.000000,4.000000,4.000000,4.000000,4.000000,4.000000,4.000000,4.000000,4.000000,4.000000,4.000000,4.000000,2.000000,4.000000,4.000000,4.000000,4.000000,4.000000,83.333336
1615602794.050329,42.000000,0.000000,10.049802,8.136682,-43.359364,-1.082605,-2.864178,4.560730,8.759996,4.929045,15.596807,24.465887,16.686033,13.719924,15.399035,37.878704,25.984249,39.540115,20.171606,34.202766,135.349472,34.246651,10.049093,19.471386,21.980831,14.805770,14.279984,13.365531,10.164346,9.558457,5.875281,3.263545,-5.927535,-58.636150,8192.000000,0.000000,4.000000,,,,0.000000,4.000000,4.000000,4.000000,4.000000,4.000000,4.000000,4.000000,4.000000,4.000000,4.000000,4.000000,4.000000,4.000000,4.000000,4.000000,4.000000,4.000000,4.000000,4.000000,4.000000,4.000000,4.000000,4.000000,4.000000,4.000000,4.000000,2.000000,4.000000,4.000000,4.000000,4.000000,4.000000,83.333336
1615602794.057978,43.000000,0.000000,10.552573,5.564443,-47.418568,-6.209728,-5.425417,0.966425,8.751236,4.924116,15.068389,24.954243,15.643706,12.680563,12.306712,35.276722,25.445444,41.039036,10.407844,33.655746,112.650017,18.827789,2.346737,4.067299,17.856287,12.226861,14.778524,13.864986,10.154181,6.984796,6.895046,3.260281,-4.895966,-61.141617,8192.000000,0.000000,4.000000,,,,0.000000,4.000000,4.000000,4.000000,4.000000,4.000000,4.000000,4.000000,4.000000,4.000000,4.000000,4.000000,4.000000,4.000000,4.000000,4.000000,4.000000,4.000000,4.000000,4.000000,4.000000,4.000000,4.000000,4.000000,4.000000,4.000000,4.000000,2.000000,4.000000,4.000000,4.000000,4.000000,4.000000,83.333336
1615602794.065628,44.000000,0.000000,10.542021,6.584519,-46.345509,-7.229159,-6.445632,1.478279,9.255305,3.893551,15.053321,22.365185,16.140882,13.693523,10.243123,37.292728,26.958460,42.023640,5.269231,33.622089,123.306602,15.219218,-1.245354,-2.603435,19.376892,5.547968,10.661181,11.799839,8.092746,6.977811,6.375331,0.180098,-4.378249,-61.593296,8064.000000,0.000000,4.000000,,,,0.000000,4.000000,4.000000,4.000000,4.000000,4.000000,4.000000,4.000000,4.000000,4.000000,4.000000,4.000000,4.000000,4.000000,4.000000,4.000000,4.000000,4.000000,4.000000,4.000000,4.000000,4.000000,4.000000,4.000000,4.000000,4.000000,4.000000,2.000000,4.000000,4.000000,4.000000,4.000000,4.000000,83.333336
1615602794.073377,45.000000,0.000000,7.967376,6.577935,-46.299164,-7.734750,-5.926366,1.989621,11.810153,4.402478,15.551088,20.804358,16.124743,13.167009,11.258521,36.229794,18.726374,35.314949,6.289603,30.511543,124.721756,5.973230,-20.218468,-4.139293,19.357515,0.927035,3.471033,6.659834,6.033370,6.970833,6.368956,-5.973928,-6.425153,-62.557343,8064.000000,0.000000,4.000000,,,,0.000000,4.000000,4.000000,4.000000,4.000000,4.000000,4.000000,4.000000,4.000000,4.000000,4.000000,4.000000,4.000000,4.000000,4.000000,4.000000,4.000000,4.000000,4.000000,4.000000,4.000000,4.000000,4.000000,4.000000,4.000000,4.000000,4.000000,2.000000,4.000000,4.000000,4.000000,4.000000,4.000000,83.333336
1615602794.081027,46.000000,0.000000,6.420947,5.032895,-46.252865,-7.727015,-5.920440,0.961991,12.823983,5.423716,15.022717,21.809195,11.493233,7.512816,2.529314,15.167922,0.246109,19.895018,1.667929,24.327187,92.289345,-16.084026,-39.685429,-13.365923,8.568927,-5.227738,-0.635002,5.114713,6.027337,6.451042,6.362586,-9.044878,-7.957190,-64.033249,8064.000000,0.000000,4.000000,,,,0.000000,4.000000,4.000000,4.000000,4.000000,4.000000,4.000000,4.000000,4.000000,4.000000,4.000000,4.000000,4.000000,4.000000,4.000000,4.000000,4.000000,4.000000,4.000000,4.000000,4.000000,4.000000,4.000000,4.000000,4.000000,4.000000,4.000000,2.000000,4.000000,4.000000,4.000000,4.000000,4.000000,83.333336
1615602794.088777,47.000000,0.000000,6.414526,9.643247,-46.719433,-4.642365,-6.427340,5.063593,12.811159,3.879831,15.007694,20.248924,5.327893,1.864278,-11.832190,-5.360066,-8.984906,10.131533,-1.923483,22.764397,91.171410,-8.888454,-30.927794,-12.326916,1.893691,-14.453279,-2.172828,5.622419,6.021310,6.957411,6.356224,-3.907628,-4.872309,-59.353828,8064.000000,0.000000,4.000000,,,,0.000000,4.000000,4.000000,4.000000,4.000000,4.000000,4.000000,4.000000,4.000000,4.000000,4.000000,4.000000,4.000000,4.000000,4.000000,4.000000,4.000000,4.000000,4.000000,4.000000,4.000000,4.000000,4.000000,4.000000,4.000000,4.000000,4.000000,2.000000,4.000000,4.000000,4.000000,4.000000,4.000000,83.333336
1615602794.096426,48.000000,0.000000,5.895291,18.864372,-45.134251,-0.022339,-3.343990,11.725196,14.849630,5.927233,18.069609,22.792778,5.835386,1.349593,-9.256255,7.978627,-4.360537,9.608581,4.745107,20.177530,123.900749,21.889666,-8.845584,5.634129,8.558464,-12.900365,0.906268,5.616796,6.528109,9.001736,9.426791,4.814229,-0.764873,-51.602165,8064.000000,0.000000,4.000000,,,,0.000000,4.000000,4.000000,4.000000,4.000000,4.000000,4.000000,4.000000,4.000000,4.000000,4.000000,4.000000,4.000000,4.000000,4.000000,4.000000,4.000000,4.000000,4.000000,4.000000,4.000000,4.000000,4.000000,4.000000,4.000000,4.000000,4.000000,2.000000,4.000000,4.000000,4.000000,4.000000,4.000000,83.333336
1615602794.104176,49.000000,0.000000,6.915037,22.435253,-37.909630,0.490504,0.761918,13.764752,16.886063,15.152075,22.154104,32.000755,10.444935,3.912346,6.137617,33.098854,5.387414,14.727178,9.355747,16.054789,122.751213,29.047262,1.932492,16.910547,13.165291,3.522792,11.161772,9.200923,8.060042,11.044017,13.007108,7.373517,-0.764108,-51.037743,8064.000000,0.000000,4.000000,,,,0.000000,4.000000,4.000000,4.000000,4.000000,4.000000,4.000000,4.000000,4.000000,4.000000,4.000000,4.000000,4.000000,4.000000,4.000000,4.000000,4.000000,4.000000,4.000000,4.000000,4.000000,4.000000,4.000000,4.000000,4.000000,4.000000,4.000000,2.000000,4.000000,4.000000,4.000000,4.000000,4.000000,83.333336
1615602794.111826,50.000000,0.000000,11.523506,20.874355,-31.205053,-0.022807,2.299618,12.725347,16.356356,20.777948,23.157591,37.609779,12.485772,7.498178,11.772505,38.193958,18.202539,30.609886,11.910494,27.320786,116.987434,32.607960,12.186970,25.098764,13.152125,15.314141,19.355738,15.858389,10.616085,13.597075,14.019741,7.878964,-1.276164,-49.961067,8064.000000,0.000000,4.000000,,,,0.000000,4.000000,4.000000,4.000000,4.000000,4.000000,4.000000,4.000000,4.000000,4.000000,4.000000,4.000000,4.000000,4.000000,4.000000,4.000000,4.000000,4.000000,4.000000,4.000000,4.000000,4.000000,4.000000,4.000000,4.000000,4.000000,4.000000,2.000000,4.000000,4.000000,4.000000,4.000000,4.000000,83.333336
1615602794.119575,51.000000,0.000000,14.588906,21.366302,-30.661028,0.490037,0.758857,13.225442,16.340000,17.680248,22.621613,36.546528,12.473287,12.618884,9.709450,35.591663,29.466387,46.476711,19.078070,42.165260,143.537109,52.575352,24.995296,37.894176,15.703075,19.914211,21.900484,17.893812,12.656751,14.609118,15.544184,12.486470,-0.762068,-40.167515,8064.000000,0.000000,4.000000,,,,0.000000,4.000000,4.000000,4.000000,4.000000,4.000000,4.000000,4.000000,4.000000,4.000000,4.000000,4.000000,4.000000,4.000000,4.000000,4.000000,4.000000,4.000000,4.000000,4.000000,4.000000,4.000000,4.000000,4.000000,4.000000,4.000000,4.000000,2.000000,4.000000,4.000000,4.000000,4.000000,4.000000,83.333336
1615602794.127225,52.000000,0.000000,13.548676,19.806475,-31.143187,0.489547,1.270918,13.212216,16.836481,15.098465,22.598991,35.997162,11.947992,13.631907,10.212562,38.120174,27.898460,42.327671,21.110273,35.969250,152.624344,49.958672,23.431839,37.343464,14.661732,26.048143,22.391405,17.363098,14.182556,14.081689,17.067101,15.038086,-0.761306,-37.050423,8064.000000,0.000000,4.000000,,,,0.000000,4.000000,4.000000,4.000000,4.000000,4.000000,4.000000,4.000000,4.000000,4.000000,4.000000,4.000000,4.000000,4.000000,4.000000,4.000000,4.000000,4.000000,4.000000,4.000000,4.000000,4.000000,4.000000,4.000000,4.000000,4.000000,4.000000,2.000000,4.000000,4.000000,4.000000,4.000000,4.000000,83.333336
1615602794.134974,53.000000,0.000000,13.535128,17.222565,-30.599224,-0.023763,3.320930,13.199004,16.306824,16.109007,22.576391,36.986805,12.961686,13.105454,11.740810,38.082054,24.793638,32.541756,16.986599,28.240971,136.061462,27.857431,17.767382,26.024069,12.595788,24.483633,22.369013,17.345736,13.655553,14.580428,18.588495,11.946125,-1.273365,-44.705681,8064.000000,0.000000,4.000000,,,,0.000000,4.000000,4.000000,4.000000,4.000000,4.000000,4.000000,4.000000,4.000000,4.000000,4.000000,4.000000,4.000000,4.000000,4.000000,4.000000,4.000000,4.000000,4.000000,4.000000,4.000000,4.000000,4.000000,4.000000,4.000000,4.000000,4.000000,2.000000,4.000000,4.000000,4.000000,4.000000,4.000000,83.333336
1615602794.142624,54.000000,0.000000,13.008772,17.205341,-30.568624,-0.023740,5.368891,12.672985,16.803337,16.092897,23.066635,36.949818,15.000006,16.169271,10.703428,37.531151,31.948332,41.227161,20.046535,42.571705,134.899765,24.752651,19.288076,24.972404,15.147295,14.715561,22.859465,17.328390,13.641897,14.053027,18.057087,10.395717,-1.784912,-45.686615,8064.000000,0.000000,4.000000,,,,0.000000,4.000000,4.000000,4.000000,4.000000,4.000000,4.000000,4.000000,4.000000,4.000000,4.000000,4.000000,4.000000,4.000000,4.000000,4.000000,4.000000,4.000000,4.000000,4.000000,4.000000,4.000000,4.000000,4.000000,4.000000,4.000000,4.000000,2.000000,4.000000,4.000000,4.000000,4.000000,4.000000,83.333336
1615602794.150374,55.000000,0.000000,9.406019,16.162497,-31.050877,-0.023716,5.363522,10.609030,15.248073,15.051165,22.530748,34.861588,16.523468,16.665922,8.641443,37.493622,31.916384,48.878242,21.052132,44.580414,134.764862,20.112514,5.935454,17.767944,13.593686,12.136743,20.272503,17.311060,14.141076,9.423590,14.449286,11.410962,-1.270307,-39.999905,8064.000000,0.000000,4.000000,,,,0.000000,4.000000,4.000000,4.000000,4.000000,4.000000,4.000000,4.000000,4.000000,4.000000,4.000000,4.000000,4.000000,4.000000,4.000000,4.000000,4.000000,4.000000,4.000000,4.000000,4.000000,4.000000,4.000000,4.000000,4.000000,4.000000,4.000000,2.000000,4.000000,4.000000,4.000000,4.000000,4.000000,83.333336
1615602794.158023,56.000000,0.000000,6.832510,12.043769,-31.019825,-0.023692,4.845338,8.547139,10.104619,15.036113,20.456936,31.236982,14.455662,12.033873,6.581520,28.738178,14.961390,30.880646,12.313130,16.843527,106.937790,-4.522983,-20.737148,-3.788285,6.400605,10.586144,11.021461,14.729648,12.588473,6.337243,10.332272,11.912372,-1.269036,-39.447083,8064.000000,0.000000,4.000000,,,,0.000000,4.000000,4.000000,4.000000,4.000000,4.000000,4.000000,4.000000,4.000000,4.000000,4.000000,4.000000,4.000000,4.000000,4.000000,4.000000,4.000000,4.000000,4.000000,4.000000,4.000000,4.000000,4.000000,4.000000,4.000000,4.000000,4.000000,2.000000,4.000000,4.000000,4.000000,4.000000,4.000000,83.333336
