title:25, start timestamp:1615603821.896967, stop timestamp:1615603867.793872, headset type:EPOCFLEX, headset serial:F00001ED, headset firmware:f12, subject name:s18, channels:75, sampling rate:128, samples:5926      , version:2.0
Timestamp,EEG.Counter,EEG.Interpolated,EEG.Cz,EEG.Fz,EEG.Fp1,EEG.AF3,EEG.F7,EEG.F3,EEG.FC1,EEG.C3,EEG.FC5,EEG.T7,EEG.CP5,EEG.CP1,EEG.P3,EEG.P7,EEG.PO3,EEG.O1,EEG.Pz,EEG.Oz,EEG.O2,EEG.PO4,EEG.P8,EEG.P4,EEG.CP2,EEG.CP6,EEG.T8,EEG.FC6,EEG.C4,EEG.FC2,EEG.F4,EEG.F8,EEG.AF4,EEG.Fp2,EEG.HighBitFlex,EEG.RawCq,EEG.Battery,MarkerIndex,MarkerType,MarkerValueInt,EEG.MarkerHardware,CQ.Cz,CQ.Fz,CQ.Fp1,CQ.AF3,CQ.F7,CQ.F3,CQ.FC1,CQ.C3,CQ.FC5,CQ.T7,CQ.CP5,CQ.CP1,CQ.P3,CQ.P7,CQ.PO3,CQ.O1,CQ.Pz,CQ.Oz,CQ.O2,CQ.PO4,CQ.P8,CQ.P4,CQ.CP2,CQ.CP6,CQ.T8,CQ.FC6,CQ.C4,CQ.FC2,CQ.F4,CQ.F8,CQ.AF4,CQ.Fp2,CQ.Overall
1615603821.896967,39.000000,0.000000,-0.322141,-0.164589,-3.931735,0.941129,-4.937301,-4.607865,-3.319378,3.710574,8.430849,5.917874,5.885257,-1.492149,-6.324649,22.046509,17.989016,27.702795,3.429929,18.375477,27.772772,-18.344486,8.970397,6.106373,5.616883,3.886139,-5.011398,-0.346056,2.078825,-2.444475,5.027624,11.491480,4.370284,15.769656,8064.000000,0.000000,4.000000,,,,0.000000,4.000000,4.000000,4.000000,4.000000,4.000000,4.000000,4.000000,4.000000,4.000000,4.000000,4.000000,4.000000,4.000000,4.000000,4.000000,4.000000,4.000000,4.000000,4.000000,4.000000,4.000000,4.000000,4.000000,4.000000,4.000000,4.000000,4.000000,4.000000,4.000000,4.000000,4.000000,4.000000,100.000000
1615603821.904617,40.000000,0.000000,-0.321819,-0.164424,-2.902163,1.453008,-4.932364,-4.090436,-3.316058,3.194043,8.422419,5.911957,5.366551,-3.029119,-3.241401,14.844975,13.868464,12.290478,0.862397,19.382742,29.796280,-10.633835,9.987068,6.613088,5.611266,1.830971,2.173101,4.269675,2.589567,-1.929210,-2.156890,11.479988,2.314631,14.215425,8064.000000,0.000000,4.000000,,,,0.000000,4.000000,4.000000,4.000000,4.000000,4.000000,4.000000,4.000000,4.000000,4.000000,4.000000,4.000000,4.000000,4.000000,4.000000,4.000000,4.000000,4.000000,4.000000,4.000000,4.000000,4.000000,4.000000,4.000000,4.000000,4.000000,4.000000,4.000000,4.000000,4.000000,4.000000,4.000000,4.000000,100.000000
1615603821.912366,41.000000,0.000000,-0.321497,-1.702721,-2.899260,0.425914,-4.927431,-4.086346,-3.312742,3.190849,8.413996,6.418865,6.386826,-3.026089,1.377225,12.266027,10.264852,10.739725,0.861535,17.312077,23.099817,-10.623201,6.900158,6.093654,5.605655,7.470166,3.709389,8.880790,2.586977,-1.927280,-0.616272,11.981329,2.825137,11.124287,8064.000000,0.000000,4.000000,,,,0.000000,4.000000,4.000000,4.000000,4.000000,4.000000,4.000000,4.000000,4.000000,4.000000,4.000000,4.000000,4.000000,4.000000,4.000000,4.000000,4.000000,4.000000,4.000000,4.000000,4.000000,4.000000,4.000000,4.000000,4.000000,4.000000,4.000000,4.000000,4.000000,4.000000,4.000000,4.000000,4.000000,100.000000
1615603821.920016,42.000000,0.000000,-0.321176,-3.239480,-3.409182,-4.702717,-6.973786,-6.133542,-2.796609,3.700479,6.354300,4.873985,3.816337,-3.023063,1.375848,10.202479,10.254586,16.882832,1.373494,17.807585,22.563898,-20.868988,3.303514,5.574740,5.600049,13.616542,-8.602013,2.718063,2.584390,-1.925353,3.486908,10.430886,0.771030,7.523419,8064.000000,0.000000,4.000000,,,,0.000000,4.000000,4.000000,4.000000,4.000000,4.000000,4.000000,4.000000,4.000000,4.000000,4.000000,4.000000,4.000000,4.000000,4.000000,4.000000,4.000000,4.000000,4.000000,4.000000,4.000000,4.000000,4.000000,4.000000,4.000000,4.000000,4.000000,4.000000,4.000000,4.000000,4.000000,4.000000,4.000000,100.000000
1615603821.927765,43.000000,0.000000,-0.320855,-5.287522,-5.457055,-9.826220,-9.018094,-8.691510,-4.845095,2.671137,4.809484,2.817829,-0.802864,-3.020040,0.348831,0.448687,11.269973,11.737744,1.372120,18.815418,25.618258,-23.925043,1.761749,6.594806,5.594449,12.064464,-12.183154,-2.412861,2.581806,-1.923428,2.970601,11.446096,-0.768203,7.003075,8064.000000,0.000000,4.000000,,,,0.000000,4.000000,4.000000,4.000000,4.000000,4.000000,4.000000,4.000000,4.000000,4.000000,4.000000,4.000000,4.000000,4.000000,4.000000,4.000000,4.000000,4.000000,4.000000,4.000000,4.000000,4.000000,4.000000,4.000000,4.000000,4.000000,4.000000,4.000000,4.000000,4.000000,4.000000,4.000000,4.000000,100.000000
1615603821.935414,44.000000,0.000000,-0.320534,-3.743773,-6.477239,-9.816393,-8.496255,-6.631537,-6.891531,0.104364,4.804675,1.789370,-2.340523,-3.017020,1.886944,-3.654325,10.745882,8.649083,0.857927,18.283783,18.925972,-13.131886,0.734346,6.588212,5.588855,8.975476,-3.453022,4.769040,2.579224,-1.921504,8.608656,16.050034,4.873591,17.765303,8064.000000,0.000000,4.000000,,,,0.000000,4.000000,4.000000,4.000000,4.000000,4.000000,4.000000,4.000000,4.000000,4.000000,4.000000,4.000000,4.000000,4.000000,4.000000,4.000000,4.000000,4.000000,4.000000,4.000000,4.000000,4.000000,4.000000,4.000000,4.000000,4.000000,4.000000,4.000000,4.000000,4.000000,4.000000,4.000000,4.000000,100.000000
1615603821.943164,45.000000,0.000000,-0.320213,3.439458,-4.419479,-7.242475,-4.898015,-0.983880,-7.397460,-0.921382,4.799870,2.300401,-1.825362,-3.014003,4.449159,6.092918,10.222316,14.794280,1.369890,18.265499,15.317303,-3.887985,3.810535,5.555982,5.583266,9.479321,-0.372646,13.482219,5.140748,-1.919583,13.215432,11.418600,12.561026,22.875742,8064.000000,0.000000,4.000000,,,,0.000000,4.000000,4.000000,4.000000,4.000000,4.000000,4.000000,4.000000,4.000000,4.000000,4.000000,4.000000,4.000000,4.000000,4.000000,4.000000,4.000000,4.000000,4.000000,4.000000,4.000000,4.000000,4.000000,4.000000,4.000000,4.000000,4.000000,4.000000,4.000000,4.000000,4.000000,4.000000,4.000000,100.000000
1615603821.950813,46.000000,0.000000,-0.319893,8.051403,-2.363778,-6.209591,-5.405938,-0.982896,-6.877243,-0.407640,4.795070,2.298101,-1.310716,-3.010989,4.444710,12.753492,11.237735,17.856409,3.419802,19.272875,30.686600,-6.961020,11.499032,6.576067,5.577682,9.982662,-2.936376,11.930275,7.186889,-1.917663,9.099652,1.663592,14.086926,9.519533,8064.000000,0.000000,4.000000,,,,0.000000,4.000000,4.000000,4.000000,4.000000,4.000000,4.000000,4.000000,4.000000,4.000000,4.000000,4.000000,4.000000,4.000000,4.000000,4.000000,4.000000,4.000000,4.000000,4.000000,4.000000,4.000000,4.000000,4.000000,4.000000,4.000000,4.000000,4.000000,4.000000,4.000000,4.000000,4.000000,4.000000,100.000000
1615603821.958562,47.000000,0.000000,-0.319573,6.504890,-3.387055,-6.716202,-10.528737,-6.110118,-7.383186,-0.407232,4.790275,0.757341,-1.309405,-3.007978,1.876163,12.227919,10.713676,16.812912,4.442023,16.176680,37.835400,-12.595085,14.051636,7.082312,6.084926,9.459859,-2.420619,5.251678,4.615599,-2.428566,6.013629,4.738851,13.560019,2.843347,8064.000000,0.000000,4.000000,,,,0.000000,4.000000,4.000000,4.000000,4.000000,4.000000,4.000000,4.000000,4.000000,4.000000,4.000000,4.000000,4.000000,4.000000,4.000000,4.000000,4.000000,4.000000,4.000000,4.000000,4.000000,4.000000,4.000000,4.000000,4.000000,4.000000,4.000000,4.000000,4.000000,4.000000,4.000000,4.000000,4.000000,100.000000
1615603821.966212,48.000000,0.000000,-0.319254,8.036846,-3.383668,-6.196665,-13.082311,-8.155290,-6.862982,-0.406825,4.785485,-1.294698,-4.385019,-3.004970,0.848646,10.164409,6.087578,15.770457,1.360658,11.545117,20.361668,-13.608131,5.832456,0.408563,5.566020,9.450399,-1.392557,-0.394599,-0.004401,-1.913317,6.520436,10.887959,14.059278,10.019991,8064.000000,0.000000,4.000000,,,,0.000000,4.000000,4.000000,4.000000,4.000000,4.000000,4.000000,4.000000,4.000000,4.000000,4.000000,4.000000,4.000000,4.000000,4.000000,4.000000,4.000000,4.000000,4.000000,4.000000,4.000000,4.000000,4.000000,4.000000,4.000000,4.000000,4.000000,4.000000,4.000000,4.000000,4.000000,4.000000,4.000000,100.000000
1615603821.973961,49.000000,0.000000,-0.318934,13.157015,-0.816182,-6.190468,-12.043588,-7.121494,-4.292017,-0.406418,4.780699,-1.806224,-8.996018,-3.001965,1.360617,6.564500,3.004567,12.677764,-2.230446,10.507932,14.700281,-10.004779,2.236880,-5.745692,3.509172,9.440948,-1.903985,-1.932666,-2.055679,0.139878,6.513916,7.800147,14.045219,11.548432,8064.000000,0.000000,4.000000,,,,0.000000,4.000000,4.000000,4.000000,4.000000,4.000000,4.000000,4.000000,4.000000,4.000000,4.000000,4.000000,4.000000,4.000000,4.000000,4.000000,4.000000,4.000000,4.000000,4.000000,4.000000,4.000000,4.000000,4.000000,4.000000,4.000000,4.000000,4.000000,4.000000,4.000000,4.000000,4.000000,4.000000,100.000000
1615603821.981611,50.000000,0.000000,-0.318615,15.195140,0.723096,-6.184278,-12.031544,-8.652834,-2.749263,-0.406012,4.775918,-1.291597,-10.525484,-3.511784,0.846436,4.506654,3.001563,9.588163,-3.253856,10.497423,29.557375,-15.122979,9.926950,-1.124562,1.967201,9.431508,-2.414902,0.120549,0.510480,2.191020,9.584325,8.305167,13.518353,9.998423,8064.000000,0.000000,4.000000,,,,0.000000,4.000000,4.000000,4.000000,4.000000,4.000000,4.000000,4.000000,4.000000,4.000000,4.000000,4.000000,4.000000,4.000000,4.000000,4.000000,4.000000,4.000000,4.000000,4.000000,4.000000,4.000000,4.000000,4.000000,4.000000,4.000000,4.000000,4.000000,4.000000,4.000000,4.000000,4.000000,4.000000,100.000000
1615603821.989360,51.000000,0.000000,-0.831117,14.154304,0.722373,-6.690914,-12.532333,-7.618540,-3.259334,-0.918426,4.771143,-1.290306,-9.489318,-2.995451,0.845590,3.989327,2.485741,9.065755,-2.224962,7.410003,23.886793,-29.979652,12.481126,4.004768,1.452414,9.422076,-2.925308,1.146069,2.561251,1.163188,12.651664,17.014811,13.504835,12.552526,8064.000000,0.000000,4.000000,,,,0.000000,4.000000,4.000000,4.000000,4.000000,4.000000,4.000000,4.000000,4.000000,4.000000,4.000000,4.000000,4.000000,4.000000,4.000000,4.000000,4.000000,4.000000,4.000000,4.000000,4.000000,4.000000,4.000000,4.000000,4.000000,4.000000,4.000000,4.000000,4.000000,4.000000,4.000000,4.000000,4.000000,100.000000
1615603821.997009,52.000000,0.000000,-0.317466,13.627329,0.208830,-5.658582,-12.006980,-2.995537,-3.768895,-1.430328,4.766372,-1.801836,-8.967008,-3.505276,0.844744,0.395594,2.996075,8.543868,-2.222737,6.376952,1.811623,-29.949673,2.212235,-2.153083,1.450961,9.412654,-0.358280,-0.393538,2.045870,1.674846,10.587730,20.074720,13.491331,13.565616,8064.000000,0.000000,4.000000,,,,0.000000,4.000000,4.000000,4.000000,4.000000,4.000000,4.000000,4.000000,4.000000,4.000000,4.000000,4.000000,4.000000,4.000000,4.000000,4.000000,4.000000,4.000000,4.000000,4.000000,4.000000,4.000000,4.000000,4.000000,4.000000,4.000000,4.000000,4.000000,4.000000,4.000000,4.000000,4.000000,4.000000,100.000000
1615603822.004759,53.000000,0.000000,-0.829969,14.126522,-0.304199,-3.601642,-11.994973,-0.428439,-2.739486,0.109563,4.761605,-2.312855,-10.496502,-3.501771,0.843899,1.420839,2.993079,9.048145,-4.271796,9.447498,3.861094,-14.535107,-4.969464,-4.715033,1.449510,7.351960,2.206181,0.632496,3.069465,4.750094,9.551501,18.003363,13.477839,15.603332,8064.000000,0.000000,4.000000,,,,0.000000,4.000000,4.000000,4.000000,4.000000,4.000000,4.000000,4.000000,4.000000,4.000000,4.000000,4.000000,4.000000,4.000000,4.000000,4.000000,4.000000,4.000000,4.000000,4.000000,4.000000,4.000000,4.000000,4.000000,4.000000,4.000000,4.000000,4.000000,4.000000,4.000000,4.000000,4.000000,4.000000,100.000000
1615603822.012408,54.000000,0.000000,-0.829139,14.112395,2.260208,-3.085219,-11.982978,0.084810,-0.685464,-0.403367,4.756844,-0.259260,-8.434724,0.604295,3.919979,9.111726,1.451625,11.090379,-1.190601,10.976512,26.421335,-12.982110,2.214992,6.058913,1.960881,5.293325,0.152693,5.760069,5.630498,5.258164,10.567591,18.498180,13.464361,16.100550,8064.000000,0.000000,4.000000,,,,0.000000,4.000000,4.000000,4.000000,4.000000,4.000000,4.000000,4.000000,4.000000,4.000000,4.000000,4.000000,4.000000,4.000000,4.000000,4.000000,4.000000,4.000000,4.000000,4.000000,4.000000,4.000000,4.000000,4.000000,4.000000,4.000000,4.000000,4.000000,4.000000,4.000000,4.000000,4.000000,4.000000,100.000000
1615603822.020258,55.000000,0.000000,1.735793,13.585463,6.360511,-2.056493,-11.970995,2.136008,0.853683,-1.941425,4.752087,1.792282,1.317301,6.244716,7.505802,12.179538,8.116839,13.130570,8.041359,11.478356,31.523119,-17.071692,12.982008,14.770803,1.446100,5.288032,2.716643,8.318412,6.650508,5.252906,10.044203,18.992502,12.938077,14.545987,8064.000000,0.000000,4.000000,,,,0.000000,4.000000,4.000000,4.000000,4.000000,4.000000,4.000000,4.000000,4.000000,4.000000,4.000000,4.000000,4.000000,4.000000,4.000000,4.000000,4.000000,4.000000,4.000000,4.000000,4.000000,4.000000,4.000000,4.000000,4.000000,4.000000,4.000000,4.000000,4.000000,4.000000,4.000000,4.000000,4.000000,100.000000
1615603822.028007,56.000000,0.000000,5.323801,14.084698,7.892612,-1.541616,-11.959024,3.672333,0.340009,6.265645,4.747334,1.790489,10.033932,8.289753,13.652143,12.167357,20.929235,17.220005,13.161523,15.056622,26.876211,2.945379,17.071590,13.730392,2.470295,5.282744,12.457516,8.822913,6.131037,8.324576,10.546979,18.460690,13.950780,20.685287,8064.000000,0.000000,4.000000,,,,0.000000,4.000000,4.000000,4.000000,4.000000,4.000000,4.000000,4.000000,4.000000,4.000000,4.000000,4.000000,4.000000,4.000000,4.000000,4.000000,4.000000,4.000000,4.000000,4.000000,4.000000,4.000000,4.000000,4.000000,4.000000,4.000000,4.000000,4.000000,4.000000,4.000000,4.000000,4.000000,4.000000,100.000000
1615603822.035857,57.000000,0.000000,7.369759,16.121895,10.448822,1.536849,-11.947065,3.668661,0.339669,20.105534,4.742588,5.378442,10.023898,8.281464,23.382080,16.257755,27.574974,24.382271,13.148361,18.118488,45.310875,24.480896,18.592979,12.691020,7.596030,6.815923,17.060444,12.403834,6.124906,12.418816,13.100534,17.929407,16.500931,31.433832,8064.000000,0.000000,4.000000,,,,0.000000,4.000000,4.000000,4.000000,4.000000,4.000000,4.000000,4.000000,4.000000,4.000000,4.000000,4.000000,4.000000,4.000000,4.000000,4.000000,4.000000,4.000000,4.000000,4.000000,4.000000,4.000000,4.000000,4.000000,4.000000,4.000000,4.000000,4.000000,4.000000,4.000000,4.000000,4.000000,4.000000,100.000000
1615603822.043606,58.000000,0.000000,7.362389,17.644234,17.105040,7.176337,-11.935119,3.152172,0.339329,19.572607,4.737845,12.039731,8.475412,8.273182,22.845879,19.831240,26.008936,31.537376,15.699315,19.638830,65.265564,17.276928,20.625669,14.729610,9.639715,10.398850,13.453639,16.493994,6.118781,12.919218,13.600255,18.424299,17.510071,33.453682,8192.000000,0.000000,4.000000,,,,0.000000,4.000000,4.000000,4.000000,4.000000,4.000000,4.000000,4.000000,4.000000,4.000000,4.000000,4.000000,4.000000,4.000000,4.000000,4.000000,4.000000,4.000000,4.000000,4.000000,4.000000,4.000000,4.000000,4.000000,4.000000,4.000000,4.000000,4.000000,4.000000,4.000000,4.000000,4.000000,4.000000,100.000000
1615603822.051456,59.000000,0.000000,7.355027,17.626591,18.113577,12.297366,-11.923183,3.149019,0.338990,8.783804,4.733107,14.078973,10.005399,4.675165,7.951237,20.324230,21.367542,32.018658,17.222076,18.593552,45.713120,-2.740349,20.092222,11.637959,7.065973,12.952555,11.901724,15.964680,6.112662,12.393477,13.586655,20.457157,16.979740,31.368944,8064.000000,0.000000,4.000000,,,,0.000000,4.000000,4.000000,4.000000,4.000000,4.000000,4.000000,4.000000,4.000000,4.000000,4.000000,4.000000,4.000000,4.000000,4.000000,4.000000,4.000000,4.000000,4.000000,4.000000,4.000000,4.000000,4.000000,4.000000,4.000000,4.000000,4.000000,4.000000,4.000000,4.000000,4.000000,4.000000,4.000000,100.000000
1615603822.059205,60.000000,0.000000,5.809210,17.608963,16.044180,12.285069,-12.424081,4.171511,0.338651,5.698097,4.728374,13.039253,9.482573,0.567926,0.763798,18.252623,13.653868,26.345615,12.076651,9.344188,17.462276,-7.865814,20.072130,5.985295,5.007625,13.452422,12.915463,14.923075,6.106550,12.381084,13.573068,21.975161,16.962761,32.363216,8064.000000,0.000000,4.000000,,,,0.000000,4.000000,4.000000,4.000000,4.000000,4.000000,4.000000,4.000000,4.000000,4.000000,4.000000,4.000000,4.000000,4.000000,4.000000,4.000000,4.000000,4.000000,4.000000,4.000000,4.000000,4.000000,4.000000,4.000000,4.000000,4.000000,4.000000,4.000000,4.000000,4.000000,4.000000,4.000000,4.000000,100.000000
1615603822.067055,61.000000,0.000000,3.239298,17.591354,20.130701,11.247143,-12.924477,6.731442,0.338312,7.743680,4.723646,13.026214,8.960270,0.054538,7.429701,12.080524,9.537650,23.755167,7.962009,4.719460,29.752506,2.911283,20.564878,4.953668,6.028259,12.926149,12.902548,15.933792,6.100443,12.368703,13.046675,21.953186,16.945799,32.843674,8064.000000,0.000000,4.000000,,,,0.000000,4.000000,4.000000,4.000000,4.000000,4.000000,4.000000,4.000000,4.000000,4.000000,4.000000,4.000000,4.000000,4.000000,4.000000,4.000000,4.000000,4.000000,4.000000,4.000000,4.000000,4.000000,4.000000,4.000000,4.000000,4.000000,4.000000,4.000000,4.000000,4.000000,4.000000,4.000000,4.000000,100.000000
1615603822.074804,62.000000,0.000000,2.723239,17.573763,23.187492,12.261537,-11.885911,7.237532,0.337974,6.710296,4.718922,13.526008,8.951309,0.567304,7.422272,7.453060,10.553753,25.269873,8.466867,9.330125,44.594547,2.395551,15.928929,6.487176,5.509410,12.913223,12.376824,16.430679,6.094343,12.356335,14.059269,21.931232,17.441673,32.298012,8064.000000,0.000000,4.000000,,,,0.000000,4.000000,4.000000,4.000000,4.000000,4.000000,4.000000,4.000000,4.000000,4.000000,4.000000,4.000000,4.000000,4.000000,4.000000,4.000000,4.000000,4.000000,4.000000,4.000000,4.000000,4.000000,4.000000,4.000000,4.000000,4.000000,4.000000,4.000000,4.000000,4.000000,4.000000,4.000000,4.000000,100.000000
1615603822.082654,63.000000,0.000000,3.233336,17.556190,20.600203,11.736454,-12.386846,6.717474,0.337636,6.190765,4.714203,12.999661,8.942358,0.053916,0.235362,7.445606,10.030379,17.039474,8.458401,7.782333,21.473032,-25.299152,9.246334,3.916586,5.503901,13.413131,12.364448,15.388607,6.088249,12.343978,16.609312,22.422123,17.424231,31.752892,8064.000000,0.000000,4.000000,,,,0.000000,4.000000,4.000000,4.000000,4.000000,4.000000,4.000000,4.000000,4.000000,4.000000,4.000000,4.000000,4.000000,4.000000,4.000000,4.000000,4.000000,4.000000,4.000000,4.000000,4.000000,4.000000,4.000000,4.000000,4.000000,4.000000,4.000000,4.000000,4.000000,4.000000,4.000000,4.000000,4.000000,100.000000
1615603822.090403,64.000000,0.000000,3.230103,17.538633,18.015501,11.724718,-12.887280,6.710756,0.337298,6.697395,4.709489,12.986662,8.933415,0.053862,1.773588,6.925340,10.020349,9.330128,5.373020,3.159166,-0.086903,-39.632828,7.698626,0.835747,5.498396,12.886897,12.352083,15.373219,6.082160,12.331635,17.618343,21.886879,16.381166,31.721138,0.000000,174.000000,4.000000,,,,0.000000,4.000000,4.000000,4.000000,4.000000,4.000000,4.000000,4.000000,4.000000,4.000000,4.000000,4.000000,4.000000,4.000000,4.000000,4.000000,4.000000,4.000000,4.000000,4.000000,4.000000,4.000000,4.000000,4.000000,4.000000,4.000000,4.000000,4.000000,4.000000,4.000000,4.000000,4.000000,4.000000,100.000000
1615603822.098253,65.000000,0.000000,3.226872,17.521095,18.510305,13.764276,-6.720546,6.704045,0.336961,7.203518,4.704779,12.973675,8.924482,0.566629,7.925661,10.508159,10.523149,18.551567,4.342006,8.284212,15.810619,-9.849606,8.716568,4.937475,6.005719,12.874010,12.852551,16.896307,6.076078,12.832123,17.087904,22.890635,17.390427,33.227879,0.000000,193.000000,4.000000,,,,0.000000,4.000000,4.000000,4.000000,4.000000,4.000000,4.000000,4.000000,4.000000,4.000000,4.000000,4.000000,4.000000,4.000000,4.000000,4.000000,4.000000,4.000000,4.000000,4.000000,4.000000,4.000000,4.000000,4.000000,4.000000,4.000000,4.000000,4.000000,4.000000,4.000000,4.000000,4.000000,4.000000,100.000000
1615603822.106002,66.000000,0.000000,3.223646,17.503574,19.004616,15.288973,4.055405,6.697341,0.336624,6.683494,4.700074,13.473522,9.428378,0.566062,9.456197,17.677137,10.512626,28.789425,5.363305,11.352851,35.794807,10.160245,10.759134,12.624846,6.512534,15.938059,11.814058,12.264026,6.070002,12.306471,17.583637,20.816462,17.885857,28.579268,0.000000,182.000000,4.000000,,,,0.000000,4.000000,4.000000,4.000000,4.000000,4.000000,4.000000,4.000000,4.000000,4.000000,4.000000,4.000000,4.000000,4.000000,4.000000,4.000000,4.000000,4.000000,4.000000,4.000000,4.000000,4.000000,4.000000,4.000000,4.000000,4.000000,4.000000,4.000000,4.000000,4.000000,4.000000,4.000000,4.000000,100.000000
1615603822.113852,67.000000,0.000000,3.220422,17.486071,18.985611,15.786504,7.641093,7.203465,0.336287,6.676811,4.695374,13.460049,8.906130,0.565496,8.421100,20.223562,13.066216,27.222176,4.845121,10.315857,31.656450,-8.824275,11.774015,14.663503,5.480380,17.973402,9.750962,0.969711,7.089573,10.242882,16.540413,15.154619,12.226945,18.807098,0.000000,181.000000,4.000000,,,,0.000000,4.000000,4.000000,4.000000,4.000000,4.000000,4.000000,4.000000,4.000000,4.000000,4.000000,4.000000,4.000000,4.000000,4.000000,4.000000,4.000000,4.000000,4.000000,4.000000,4.000000,4.000000,4.000000,4.000000,4.000000,4.000000,4.000000,4.000000,4.000000,4.000000,4.000000,4.000000,4.000000,100.000000
1615603822.121601,68.000000,0.000000,3.730022,17.468584,17.428164,15.257897,6.607811,6.683440,0.335951,7.695775,4.690679,12.933768,9.410044,0.564930,8.412679,19.177698,17.668533,28.220594,4.840276,17.997849,29.060692,-6.764168,13.300703,13.110377,5.474900,14.878507,9.228391,-4.159464,5.031201,8.694178,14.472590,11.549721,6.060872,16.224188,0.000000,197.000000,4.000000,,,,0.000000,4.000000,4.000000,4.000000,4.000000,4.000000,4.000000,4.000000,4.000000,4.000000,4.000000,4.000000,4.000000,4.000000,4.000000,4.000000,4.000000,4.000000,4.000000,4.000000,4.000000,4.000000,4.000000,4.000000,4.000000,4.000000,4.000000,4.000000,4.000000,4.000000,4.000000,4.000000,4.000000,100.000000
1615603822.129451,69.000000,0.000000,3.213471,17.451115,13.820992,11.652896,7.626844,6.676757,0.848436,5.123976,4.685988,11.895193,9.400634,0.564365,9.429907,19.158520,19.702148,27.679552,5.861076,17.467030,41.339321,20.422083,14.825864,13.097267,7.520707,13.837987,8.193521,-2.104023,2.974888,8.172663,11.894015,9.999709,5.541990,18.259247,0.000000,186.000000,4.000000,,,,0.000000,4.000000,4.000000,4.000000,4.000000,4.000000,4.000000,4.000000,4.000000,4.000000,4.000000,4.000000,4.000000,4.000000,4.000000,4.000000,4.000000,4.000000,4.000000,4.000000,4.000000,4.000000,4.000000,4.000000,4.000000,4.000000,4.000000,4.000000,4.000000,4.000000,4.000000,4.000000,4.000000,100.000000
1615603822.137200,70.000000,0.000000,2.697438,17.433664,11.755889,7.538679,2.491012,7.182900,-0.690874,-1.547814,4.681302,7.267913,5.801490,0.563801,8.394835,15.549619,15.579882,13.805719,1.239831,-3.576078,35.144138,8.606789,6.093090,7.443144,1.872160,14.336969,3.057122,-3.127560,2.971913,5.600388,8.292377,8.451248,3.485166,13.112782,0.000000,188.000000,4.000000,,,,0.000000,4.000000,4.000000,4.000000,4.000000,4.000000,4.000000,4.000000,4.000000,4.000000,4.000000,4.000000,4.000000,4.000000,4.000000,4.000000,4.000000,4.000000,4.000000,4.000000,4.000000,4.000000,4.000000,4.000000,4.000000,4.000000,4.000000,4.000000,4.000000,4.000000,4.000000,4.000000,4.000000,100.000000
1615603822.144850,71.000000,0.000000,3.720381,17.416231,9.692851,8.043961,-8.793530,4.611615,-3.254286,-4.623189,4.676621,0.081158,-0.358158,0.563237,4.283877,7.841761,11.461738,5.586785,-5.428076,-11.777630,6.903865,-23.709511,-12.887362,-6.410453,-9.924583,5.604684,-6.689524,-7.739817,-0.107982,0.466582,6.232803,4.853053,-1.133704,4.381720,0.000000,218.000000,4.000000,,,,0.000000,4.000000,4.000000,4.000000,4.000000,4.000000,4.000000,4.000000,4.000000,4.000000,4.000000,4.000000,4.000000,4.000000,4.000000,4.000000,4.000000,4.000000,4.000000,4.000000,4.000000,4.000000,4.000000,4.000000,4.000000,4.000000,4.000000,4.000000,4.000000,4.000000,4.000000,4.000000,4.000000,100.000000
1615603822.152599,72.000000,0.000000,3.716661,17.398815,5.580594,8.035916,-13.400121,-0.008381,-3.251032,-4.105746,4.671945,-5.047128,-5.998826,0.562674,0.689849,4.244176,9.911814,8.145301,-6.961109,2.080302,-3.359449,-23.685801,-22.618065,-16.660452,-14.530044,-7.221434,-15.913604,-10.296180,-6.774540,-2.610807,3.662468,-0.792825,-2.158211,0.274774,0.000000,224.000000,4.000000,,,,0.000000,4.000000,4.000000,4.000000,4.000000,4.000000,4.000000,4.000000,4.000000,4.000000,4.000000,4.000000,4.000000,4.000000,4.000000,4.000000,4.000000,4.000000,4.000000,4.000000,4.000000,4.000000,4.000000,4.000000,4.000000,4.000000,4.000000,4.000000,4.000000,4.000000,4.000000,4.000000,4.000000,100.000000
1615603822.160249,73.000000,0.000000,-1.415261,17.381416,3.010911,4.950957,-12.361080,-1.546834,-3.760601,-4.614460,4.154452,-6.580543,-10.095390,0.562111,0.689160,2.188650,3.235236,3.521771,-6.441328,0.026939,4.849038,-4.687756,-21.569805,-17.669434,-12.464231,-13.368058,-18.461794,-10.285883,-9.844689,-2.608197,0.581882,-6.433058,-1.130412,-0.751142,0.000000,173.000000,4.000000,,,,0.000000,4.000000,4.000000,4.000000,4.000000,4.000000,4.000000,4.000000,4.000000,4.000000,4.000000,4.000000,4.000000,4.000000,4.000000,4.000000,4.000000,4.000000,4.000000,4.000000,4.000000,4.000000,4.000000,4.000000,4.000000,4.000000,4.000000,4.000000,4.000000,4.000000,4.000000,4.000000,4.000000,100.000000
1615603822.167998,74.000000,0.000000,-3.465128,17.364035,3.520720,3.920366,-13.374360,-0.519646,-3.756840,-4.609846,4.150298,-6.061141,-10.598116,0.561549,1.201291,0.647999,-7.537230,-3.661238,-6.947707,-18.434626,6.895471,-6.734350,-22.061056,-16.113302,-13.477408,-13.354691,-16.392050,-9.249956,-7.783562,-2.092768,-1.469982,-7.965087,-1.642102,-1.263211,0.000000,187.000000,4.000000,,,,0.000000,4.000000,4.000000,4.000000,4.000000,4.000000,4.000000,4.000000,4.000000,4.000000,4.000000,4.000000,4.000000,4.000000,4.000000,4.000000,4.000000,4.000000,4.000000,4.000000,4.000000,4.000000,4.000000,4.000000,4.000000,4.000000,4.000000,4.000000,4.000000,4.000000,4.000000,4.000000,4.000000,100.000000
1615603822.175648,75.000000,0.000000,1.153722,17.346670,4.030020,4.429265,-9.771242,-0.519127,-2.727443,-2.553954,6.710250,-5.029439,-9.049056,0.560988,0.687269,-0.891110,-9.580976,-0.067833,-4.376657,-18.929012,13.042422,-15.958385,-21.013355,-16.097189,-12.438290,-12.315695,-17.914118,-10.779168,-5.211676,-2.603496,-1.468512,-6.931480,-1.127639,-4.338871,0.000000,186.000000,4.000000,,,,0.000000,4.000000,4.000000,4.000000,4.000000,4.000000,4.000000,4.000000,4.000000,4.000000,4.000000,4.000000,4.000000,4.000000,4.000000,4.000000,4.000000,4.000000,4.000000,4.000000,4.000000,4.000000,4.000000,4.000000,4.000000,4.000000,4.000000,4.000000,4.000000,4.000000,4.000000,4.000000,4.000000,100.000000
1615603822.183397,76.000000,0.000000,4.229491,17.329323,3.513170,4.424837,-5.146086,-0.518608,-4.775997,-0.500118,8.754822,-6.562871,-11.091290,0.560427,1.199402,-4.992783,-8.032932,0.957876,-2.320998,-4.551109,20.208866,-6.198837,-16.889776,-18.132374,-9.861749,-11.790559,-17.383385,-9.742747,-5.206464,-2.088072,-0.954223,-7.950190,-1.126512,-4.847353,0.000000,200.000000,4.000000,,,,0.000000,4.000000,4.000000,4.000000,4.000000,4.000000,4.000000,4.000000,4.000000,4.000000,4.000000,4.000000,4.000000,4.000000,4.000000,4.000000,4.000000,4.000000,4.000000,4.000000,4.000000,4.000000,4.000000,4.000000,4.000000,4.000000,4.000000,4.000000,4.000000,4.000000,4.000000,4.000000,4.000000,100.000000
1615603822.191046,77.000000,0.000000,3.199621,17.311995,4.022477,4.420412,-6.679401,-0.518089,-5.796862,-0.499618,6.181964,-6.043488,-9.541737,0.559866,1.198203,-2.936508,-10.589003,0.956918,-3.857138,0.068827,16.086094,13.294541,-9.693400,-15.037318,-8.826246,-8.701845,-7.109591,-4.604800,-4.175617,-2.085984,-1.466089,-7.429420,-1.638206,-4.329685,0.000000,203.000000,4.000000,,,,0.000000,4.000000,4.000000,4.000000,4.000000,4.000000,4.000000,4.000000,4.000000,4.000000,4.000000,4.000000,4.000000,4.000000,4.000000,4.000000,4.000000,4.000000,4.000000,4.000000,4.000000,4.000000,4.000000,4.000000,4.000000,4.000000,4.000000,4.000000,4.000000,4.000000,4.000000,4.000000,4.000000,100.000000
1615603822.198796,78.000000,0.000000,2.683601,17.294682,6.582557,4.415991,-0.518876,-0.517571,-0.150040,1.552164,6.688603,4.218966,5.339600,0.559306,1.197005,10.399761,-0.834824,17.879038,2.813385,0.068758,25.300777,23.537657,7.752191,-2.714589,-5.740497,3.101729,2.128289,-2.036093,-1.607339,-2.083898,-0.951802,-3.319426,-0.098106,-5.863816,0.000000,188.000000,4.000000,,,,0.000000,4.000000,4.000000,4.000000,4.000000,4.000000,4.000000,4.000000,4.000000,4.000000,4.000000,4.000000,4.000000,4.000000,4.000000,4.000000,4.000000,4.000000,4.000000,4.000000,4.000000,4.000000,4.000000,4.000000,4.000000,4.000000,4.000000,4.000000,4.000000,4.000000,4.000000,4.000000,4.000000,100.000000
1615603822.206445,79.000000,0.000000,3.706558,17.277388,8.114436,4.411575,10.250874,-0.004233,4.978315,3.601893,10.784478,16.522440,20.206055,0.558747,1.195808,20.645773,21.217293,38.373978,14.605444,10.837920,45.788296,19.924376,24.667515,7.544536,-1.632192,15.919140,2.638981,-2.034056,-0.580090,-2.081814,-0.950851,-0.239183,2.466095,-0.729748,0.000000,196.000000,4.000000,,,,0.000000,4.000000,4.000000,4.000000,4.000000,4.000000,4.000000,4.000000,4.000000,4.000000,4.000000,4.000000,4.000000,4.000000,4.000000,4.000000,4.000000,4.000000,4.000000,4.000000,4.000000,4.000000,4.000000,4.000000,4.000000,4.000000,4.000000,4.000000,4.000000,4.000000,4.000000,4.000000,4.000000,100.000000
1615603822.214194,80.000000,0.000000,3.190031,17.260111,7.593501,4.407164,7.163700,-1.542690,4.460516,3.598292,12.824976,16.505917,20.185850,0.558188,1.194612,19.599485,30.426846,40.899708,17.154942,20.570673,44.204048,17.340349,24.642849,7.024171,-1.117740,18.980145,1.097880,-2.544843,-0.579510,-2.079732,-0.949900,1.299517,2.976449,13.629956,0.000000,181.000000,4.000000,,,,0.000000,4.000000,4.000000,4.000000,4.000000,4.000000,4.000000,4.000000,4.000000,4.000000,4.000000,4.000000,4.000000,4.000000,4.000000,4.000000,4.000000,4.000000,4.000000,4.000000,4.000000,4.000000,4.000000,4.000000,4.000000,4.000000,4.000000,4.000000,4.000000,4.000000,4.000000,4.000000,4.000000,100.000000
1615603822.221844,81.000000,0.000000,3.186841,17.242849,7.585907,4.402756,3.566792,-4.105250,3.943236,3.081873,11.786510,13.925308,16.063099,0.557630,1.193417,18.041424,25.781034,37.269066,15.599324,17.473179,35.954716,25.015316,20.515640,5.478685,-0.603801,16.909882,2.635244,-2.029478,-1.604572,-2.077652,-0.948950,2.836679,2.460652,18.744532,0.000000,206.000000,4.000000,,,,0.000000,4.000000,4.000000,4.000000,4.000000,4.000000,4.000000,4.000000,4.000000,4.000000,4.000000,4.000000,4.000000,4.000000,4.000000,4.000000,4.000000,4.000000,4.000000,4.000000,4.000000,4.000000,4.000000,4.000000,4.000000,4.000000,4.000000,4.000000,4.000000,4.000000,4.000000,4.000000,4.000000,100.000000
1615603822.229593,82.000000,0.000000,3.183654,17.225607,7.578321,4.398354,13.306815,-4.613965,4.452113,3.078791,11.774723,19.039587,17.072678,0.557073,1.192224,20.074665,25.755253,40.821541,16.609365,13.353141,36.944401,24.477480,22.033587,7.011668,1.960905,16.892971,2.632609,-2.540268,-0.577326,-2.075575,-0.948001,4.372304,2.458192,12.571941,0.000000,195.000000,4.000000,,,,0.000000,4.000000,4.000000,4.000000,4.000000,4.000000,4.000000,4.000000,4.000000,4.000000,4.000000,4.000000,4.000000,4.000000,4.000000,4.000000,4.000000,4.000000,4.000000,4.000000,4.000000,4.000000,4.000000,4.000000,4.000000,4.000000,4.000000,4.000000,4.000000,4.000000,4.000000,4.000000,4.000000,100.000000
1615603822.237243,83.000000,0.000000,3.180470,17.208382,7.570744,4.393955,16.370432,-4.096531,4.447661,3.075712,12.275769,19.533369,16.029964,0.556515,1.191032,19.541769,25.729498,37.190975,13.515834,15.903891,26.138226,2.914541,12.780785,5.979015,0.933303,17.901720,1.091514,-2.537728,1.987354,-2.073499,-0.947053,4.880753,2.455733,9.995267,0.000000,198.000000,4.000000,,,,0.000000,4.000000,4.000000,4.000000,4.000000,4.000000,4.000000,4.000000,4.000000,4.000000,4.000000,4.000000,4.000000,4.000000,4.000000,4.000000,4.000000,4.000000,4.000000,4.000000,4.000000,4.000000,4.000000,4.000000,4.000000,4.000000,4.000000,4.000000,4.000000,4.000000,4.000000,4.000000,4.000000,100.000000
1615603822.244992,84.000000,0.000000,3.177290,17.191174,7.563173,4.389561,7.636113,-4.092434,4.443213,3.072636,12.263494,11.821527,10.885729,0.555959,0.677020,12.342741,16.473000,20.743526,6.322831,9.221320,11.240293,-14.524270,-4.155074,5.973037,-1.631733,16.345356,2.116064,-2.535191,1.985366,-2.071425,-0.946106,4.875872,2.453278,11.010912,0.000000,208.000000,4.000000,,,,0.000000,4.000000,4.000000,4.000000,4.000000,4.000000,4.000000,4.000000,4.000000,4.000000,4.000000,4.000000,4.000000,4.000000,4.000000,4.000000,4.000000,4.000000,4.000000,4.000000,4.000000,4.000000,4.000000,4.000000,4.000000,4.000000,4.000000,4.000000,4.000000,4.000000,4.000000,4.000000,4.000000,100.000000
1615603822.252641,85.000000,0.000000,3.174113,17.173983,7.555609,4.897992,4.551553,-4.088342,0.849026,2.556743,11.225589,7.707142,8.310740,0.555403,0.676343,7.202193,9.277039,9.953552,3.752405,-3.608414,8.664949,-12.971285,-11.843226,5.967063,-3.168563,9.662345,1.088307,-2.532655,-0.580722,-2.069354,-0.945160,-0.257209,2.450824,10.999902,0.000000,193.000000,4.000000,,,,0.000000,4.000000,4.000000,4.000000,4.000000,4.000000,4.000000,4.000000,4.000000,4.000000,4.000000,4.000000,4.000000,4.000000,4.000000,4.000000,4.000000,4.000000,4.000000,4.000000,4.000000,4.000000,4.000000,4.000000,4.000000,4.000000,4.000000,4.000000,4.000000,4.000000,4.000000,4.000000,4.000000,100.000000
1615603822.260491,86.000000,0.000000,3.170938,17.156809,7.548054,2.841812,6.598284,-4.084253,-3.254387,3.067007,11.727183,9.237897,8.302429,0.042027,1.188487,7.194991,9.267761,10.969240,3.235832,0.497758,9.681926,-12.958313,-12.344203,4.935455,-5.216676,1.447554,-4.040987,-2.530123,-1.605782,-2.067285,-1.457035,-6.923619,2.448374,9.963261,0.000000,204.000000,4.000000,,,,0.000000,4.000000,4.000000,4.000000,4.000000,4.000000,4.000000,4.000000,4.000000,4.000000,4.000000,4.000000,4.000000,4.000000,4.000000,4.000000,4.000000,4.000000,4.000000,4.000000,4.000000,4.000000,4.000000,4.000000,4.000000,4.000000,4.000000,4.000000,4.000000,4.000000,4.000000,4.000000,4.000000,100.000000
1615603822.268240,87.000000,0.000000,3.167768,17.139650,7.540506,0.787688,6.591686,-4.080169,-3.763953,3.576761,14.279559,9.228659,8.806948,1.067626,2.212940,6.674975,10.284135,15.573655,6.822340,18.445978,24.544039,-13.970996,-5.152372,6.981802,-5.211460,-0.605176,-6.601048,-2.527593,-0.578535,-2.065217,-0.429937,-7.942336,2.445925,5.850733,0.000000,209.000000,4.000000,,,,0.000000,4.000000,4.000000,4.000000,4.000000,4.000000,4.000000,4.000000,4.000000,4.000000,4.000000,4.000000,4.000000,4.000000,4.000000,4.000000,4.000000,4.000000,4.000000,4.000000,4.000000,4.000000,4.000000,4.000000,4.000000,4.000000,4.000000,4.000000,4.000000,4.000000,4.000000,4.000000,4.000000,100.000000
1615603822.276090,88.000000,0.000000,3.164600,17.122511,7.532965,0.274080,5.559453,-4.076089,-3.247369,2.034722,14.778100,8.706610,8.798141,3.117841,5.287650,8.206761,12.837954,23.763210,16.046288,26.119841,49.647701,2.966052,14.852780,13.641487,-0.590863,6.574917,-0.953421,-2.525065,-1.603598,-2.063152,-1.967969,-6.908753,2.443479,2.255139,0.000000,186.000000,4.000000,,,,0.000000,4.000000,4.000000,4.000000,4.000000,4.000000,4.000000,4.000000,4.000000,4.000000,4.000000,4.000000,4.000000,4.000000,4.000000,4.000000,4.000000,4.000000,4.000000,4.000000,4.000000,4.000000,4.000000,4.000000,4.000000,4.000000,4.000000,4.000000,4.000000,4.000000,4.000000,4.000000,4.000000,100.000000
1615603822.283839,89.000000,0.000000,3.161435,17.105389,7.525432,0.786627,4.528253,-4.072013,-3.756942,3.571149,12.199220,8.697903,8.789343,4.653184,12.461849,14.865222,17.440500,35.021500,21.158445,26.093719,56.264717,25.527189,28.684082,18.243231,2.486650,14.260650,2.124455,-2.522540,-0.576353,-2.061089,-4.530103,-7.927485,2.441036,2.252884,0.000000,217.000000,4.000000,,,,0.000000,4.000000,4.000000,4.000000,4.000000,4.000000,4.000000,4.000000,4.000000,4.000000,4.000000,4.000000,4.000000,4.000000,4.000000,4.000000,4.000000,4.000000,4.000000,4.000000,4.000000,4.000000,4.000000,4.000000,4.000000,4.000000,4.000000,4.000000,4.000000,4.000000,4.000000,4.000000,4.000000,100.000000
1615603822.291689,90.000000,0.000000,3.158274,17.088284,7.517907,0.785840,2.472442,-4.067941,-1.189082,8.695783,11.161379,9.202025,8.780553,7.212634,19.116055,19.465740,18.448700,39.601860,20.624468,26.580446,50.567429,29.091404,28.142576,18.224987,2.484164,17.323313,1.609510,-2.520017,1.988326,-2.059028,-2.474291,-5.355455,2.438595,2.763451,0.000000,202.000000,4.000000,,,,0.000000,4.000000,4.000000,4.000000,4.000000,4.000000,4.000000,4.000000,4.000000,4.000000,4.000000,4.000000,4.000000,4.000000,4.000000,4.000000,4.000000,4.000000,4.000000,4.000000,4.000000,4.000000,4.000000,4.000000,4.000000,4.000000,4.000000,4.000000,4.000000,4.000000,4.000000,4.000000,4.000000,100.000000
1615603822.299438,91.000000,0.000000,3.155116,17.071196,8.023210,0.272234,2.469970,-4.063873,0.350568,9.712729,11.663038,9.705644,9.284594,8.231062,19.609758,19.446276,17.404612,38.536617,19.578201,25.015406,47.952759,19.831545,31.191357,19.745224,1.456039,17.305988,4.684824,-2.517497,3.011979,-2.056969,2.143568,-0.221895,2.436156,2.760688,0.000000,185.000000,4.000000,,,,0.000000,4.000000,4.000000,4.000000,4.000000,4.000000,4.000000,4.000000,4.000000,4.000000,4.000000,4.000000,4.000000,4.000000,4.000000,4.000000,4.000000,4.000000,4.000000,4.000000,4.000000,4.000000,4.000000,4.000000,4.000000,4.000000,4.000000,4.000000,4.000000,4.000000,4.000000,4.000000,4.000000,100.000000
1615603822.307288,92.000000,0.000000,3.151960,17.054125,6.476725,0.784782,1.954679,-4.059809,-1.701064,6.626092,11.651375,7.644656,8.249667,3.607446,19.590149,18.914009,18.412848,38.498081,19.045803,26.528851,44.827881,18.273251,36.288372,22.289581,2.480224,16.263042,9.295524,-2.514980,2.496146,-2.054912,3.167065,1.316789,2.433720,5.322030,0.000000,218.000000,4.000000,,,,0.000000,4.000000,4.000000,4.000000,4.000000,4.000000,4.000000,4.000000,4.000000,4.000000,4.000000,4.000000,4.000000,4.000000,4.000000,4.000000,4.000000,4.000000,4.000000,4.000000,4.000000,4.000000,4.000000,4.000000,4.000000,4.000000,4.000000,4.000000,4.000000,4.000000,4.000000,4.000000,4.000000,100.000000
1615603822.315037,93.000000,0.000000,3.148808,17.037069,4.418966,0.783997,2.465545,-4.055749,-3.750645,6.619466,11.639724,5.585730,6.190136,0.014095,20.596199,17.869453,17.368793,38.459583,18.001116,30.092066,44.783054,20.819080,23.944391,14.574984,2.990564,16.759600,9.286228,-2.512465,2.493650,-2.052857,2.651078,0.289831,2.431286,6.855169,0.000000,193.000000,4.000000,,,,0.000000,4.000000,4.000000,4.000000,4.000000,4.000000,4.000000,4.000000,4.000000,4.000000,4.000000,4.000000,4.000000,4.000000,4.000000,4.000000,4.000000,4.000000,4.000000,4.000000,4.000000,4.000000,4.000000,4.000000,4.000000,4.000000,4.000000,4.000000,4.000000,4.000000,4.000000,4.000000,4.000000,100.000000
1615603822.322887,94.000000,0.000000,3.145660,17.020033,3.388906,0.270393,2.463079,-4.051693,-3.234074,7.638488,11.628084,5.580144,4.645484,0.526902,12.883296,16.313122,9.146297,30.215996,9.265166,12.113256,28.840836,1.311082,-1.207759,-5.439591,-0.602170,18.281301,4.148736,-1.997132,2.491156,-2.050804,3.161247,0.802362,2.428855,6.848314,0.000000,190.000000,4.000000,,,,0.000000,4.000000,4.000000,4.000000,4.000000,4.000000,4.000000,4.000000,4.000000,4.000000,4.000000,4.000000,4.000000,4.000000,4.000000,4.000000,4.000000,4.000000,4.000000,4.000000,4.000000,4.000000,4.000000,4.000000,4.000000,4.000000,4.000000,4.000000,4.000000,4.000000,4.000000,4.000000,4.000000,100.000000
1615603822.330636,95.000000,0.000000,3.142514,17.003014,3.898338,0.782943,-0.103486,-4.047642,-3.230840,5.066747,11.103636,6.087384,5.153659,-2.037728,-1.488562,11.168604,-1.119260,15.313985,-9.718458,-14.565524,-3.495697,-30.997921,-20.180910,-21.844408,-5.216953,10.057892,-5.086182,-3.533596,2.488665,-2.048753,3.158086,0.801559,2.426426,6.328645,0.000000,200.000000,4.000000,,,,0.000000,4.000000,4.000000,4.000000,4.000000,4.000000,4.000000,4.000000,4.000000,4.000000,4.000000,4.000000,4.000000,4.000000,4.000000,4.000000,4.000000,4.000000,4.000000,4.000000,4.000000,4.000000,4.000000,4.000000,4.000000,4.000000,4.000000,4.000000,4.000000,4.000000,4.000000,4.000000,4.000000,100.000000
1615603822.338486,96.000000,0.000000,3.139371,16.473190,3.894439,2.320621,-2.667485,-4.043594,-3.227609,2.497578,12.118173,4.030015,5.148506,-2.548511,-3.538355,2.439487,-5.733526,6.580722,-15.349765,-6.858651,-6.569125,-34.556667,-21.699190,-19.258461,-5.211736,-7.388064,-11.234941,-6.094165,1.973356,-2.559525,2.642107,-0.737704,2.424000,5.809496,8064.000000,0.000000,4.000000,,,,0.000000,4.000000,4.000000,4.000000,4.000000,4.000000,4.000000,4.000000,4.000000,4.000000,4.000000,4.000000,4.000000,4.000000,4.000000,4.000000,4.000000,4.000000,4.000000,4.000000,4.000000,4.000000,4.000000,4.000000,4.000000,4.000000,4.000000,4.000000,4.000000,4.000000,4.000000,4.000000,4.000000,100.000000
1615603822.346235,97.000000,0.000000,3.136232,16.969538,3.377724,4.369583,2.463387,-4.039551,-3.224381,2.495080,14.157337,0.949062,4.630537,4.120705,5.695952,-2.178337,-5.727792,6.574142,-1.488262,17.250772,26.257957,-1.701598,-10.395440,-4.880229,-2.642421,-9.431958,-6.095501,-6.600892,1.971383,-0.505684,3.152286,0.801496,2.934396,6.829328,8064.000000,0.000000,4.000000,,,,0.000000,4.000000,4.000000,4.000000,4.000000,4.000000,4.000000,4.000000,4.000000,4.000000,4.000000,4.000000,4.000000,4.000000,4.000000,4.000000,4.000000,4.000000,4.000000,4.000000,4.000000,4.000000,4.000000,4.000000,4.000000,4.000000,4.000000,4.000000,4.000000,4.000000,4.000000,4.000000,4.000000,100.000000
1615603822.354085,98.000000,0.000000,3.133096,16.952568,3.887167,4.878034,7.076309,-4.035511,-3.221157,3.005405,14.143180,1.460933,5.138727,9.244789,7.741539,-0.124877,-4.696424,8.618850,9.282457,11.592496,32.898365,12.146257,-3.205558,2.304139,-1.101317,4.423628,-3.012483,-5.568650,2.482232,2.058925,2.636313,0.800694,1.905821,5.796857,8064.000000,0.000000,4.000000,,,,0.000000,4.000000,4.000000,4.000000,4.000000,4.000000,4.000000,4.000000,4.000000,4.000000,4.000000,4.000000,4.000000,4.000000,4.000000,4.000000,4.000000,4.000000,4.000000,4.000000,4.000000,4.000000,4.000000,4.000000,4.000000,4.000000,4.000000,4.000000,4.000000,4.000000,4.000000,4.000000,4.000000,100.000000
1615603822.361834,99.000000,0.000000,3.129963,12.833051,3.883280,4.360335,1.941027,-4.544296,-3.217936,3.002400,11.564934,1.972293,4.620767,6.158621,2.092772,-0.124752,-5.204547,6.558949,6.709072,-6.880635,5.173160,-12.994094,-4.740814,-0.775088,-2.125857,8.008948,-8.650496,-6.588722,1.454109,-0.507237,0.069574,-5.866773,-1.173008,-0.875606,8064.000000,0.000000,4.000000,,,,0.000000,4.000000,4.000000,4.000000,4.000000,4.000000,4.000000,4.000000,4.000000,4.000000,4.000000,4.000000,4.000000,4.000000,4.000000,4.000000,4.000000,4.000000,4.000000,4.000000,4.000000,4.000000,4.000000,4.000000,4.000000,4.000000,4.000000,4.000000,4.000000,4.000000,4.000000,4.000000,4.000000,100.000000
1615603822.369484,100.000000,0.000000,3.126833,9.743295,2.853755,3.843154,2.964727,-4.539752,-3.214718,1.973757,11.040548,0.431859,4.616147,3.075539,0.039397,-2.175909,-6.224984,6.552390,3.625440,1.331374,5.680807,-20.673407,1.930594,-0.774313,-2.636552,-1.742651,-7.103384,-7.094954,1.965475,-2.045191,-1.468957,-4.835266,-2.197476,0.150910,8064.000000,0.000000,4.000000,,,,0.000000,4.000000,4.000000,4.000000,4.000000,4.000000,4.000000,4.000000,4.000000,4.000000,4.000000,4.000000,4.000000,4.000000,4.000000,4.000000,4.000000,4.000000,4.000000,4.000000,4.000000,4.000000,4.000000,4.000000,4.000000,4.000000,4.000000,4.000000,4.000000,4.000000,4.000000,4.000000,4.000000,100.000000
1615603822.377233,101.000000,0.000000,3.123706,11.784833,4.902184,4.352132,12.705352,-1.458289,-3.724324,3.510244,12.055149,2.995530,7.688454,4.610925,4.654742,5.005754,3.012010,18.853529,7.724379,21.842863,27.726408,10.629317,21.415842,3.329025,-0.069813,-4.305011,5.211412,-2.985295,8.117355,2.572239,-0.954668,8.502903,0.368824,10.919991,8064.000000,0.000000,4.000000,,,,0.000000,4.000000,4.000000,4.000000,4.000000,4.000000,4.000000,4.000000,4.000000,4.000000,4.000000,4.000000,4.000000,4.000000,4.000000,4.000000,4.000000,4.000000,4.000000,4.000000,4.000000,4.000000,4.000000,4.000000,4.000000,4.000000,4.000000,4.000000,4.000000,4.000000,4.000000,4.000000,4.000000,100.000000
1615603822.384882,102.000000,0.000000,3.120582,12.798690,8.487025,4.860600,10.641365,0.081631,-2.694958,8.122119,11.530273,10.172021,11.783329,6.657597,10.291113,18.334082,20.957716,35.757751,14.896142,27.462046,49.237144,34.208431,32.163658,3.325696,4.545642,6.468525,10.334406,2.145896,13.750264,6.159410,-0.953713,16.699528,2.932558,14.498814,8064.000000,0.000000,4.000000,,,,0.000000,4.000000,4.000000,4.000000,4.000000,4.000000,4.000000,4.000000,4.000000,4.000000,4.000000,4.000000,4.000000,4.000000,4.000000,4.000000,4.000000,4.000000,4.000000,4.000000,4.000000,4.000000,4.000000,4.000000,4.000000,4.000000,4.000000,4.000000,4.000000,4.000000,4.000000,4.000000,4.000000,100.000000
1615603822.392632,103.000000,0.000000,3.117462,9.708967,6.940077,3.317278,1.912775,-1.456912,-3.205084,11.190920,11.518743,13.751593,12.797187,7.676580,12.332104,23.956774,30.167528,39.824558,15.906886,24.357660,68.162262,23.917812,33.157135,2.296729,6.592378,18.769749,8.785609,1.118109,14.249334,5.127610,-0.952759,14.631547,1.391164,12.433033,8064.000000,0.000000,4.000000,,,,0.000000,4.000000,4.000000,4.000000,4.000000,4.000000,4.000000,4.000000,4.000000,4.000000,4.000000,4.000000,4.000000,4.000000,4.000000,4.000000,4.000000,4.000000,4.000000,4.000000,4.000000,4.000000,4.000000,4.000000,4.000000,4.000000,4.000000,4.000000,4.000000,4.000000,4.000000,4.000000,4.000000,100.000000
1615603822.400281,104.000000,0.000000,3.114344,9.186439,7.445957,5.365242,10.628811,1.621468,-4.740340,10.154088,11.507224,12.199380,12.271569,7.668903,11.294130,21.881535,27.060436,35.169350,8.711493,23.820482,53.735130,2.355434,32.098335,2.807253,5.560145,21.827902,11.340926,1.116991,13.209444,4.609662,1.099476,16.155376,3.441054,21.138548,8064.000000,0.000000,4.000000,,,,0.000000,4.000000,4.000000,4.000000,4.000000,4.000000,4.000000,4.000000,4.000000,4.000000,4.000000,4.000000,4.000000,4.000000,4.000000,4.000000,4.000000,4.000000,4.000000,4.000000,4.000000,4.000000,4.000000,4.000000,4.000000,4.000000,4.000000,4.000000,4.000000,4.000000,4.000000,4.000000,4.000000,100.000000
1615603822.408031,105.000000,0.000000,3.111230,12.254175,17.182100,17.154749,24.464336,9.312154,-0.633036,10.143933,11.495717,12.700001,12.259297,7.661234,11.795657,21.859653,24.982094,33.595718,4.087396,21.745380,21.373701,-5.339230,25.399572,1.778805,5.554585,18.216331,13.380868,7.269720,13.196235,5.630693,2.636838,18.703323,11.129921,27.784077,8064.000000,0.000000,4.000000,,,,0.000000,4.000000,4.000000,4.000000,4.000000,4.000000,4.000000,4.000000,4.000000,4.000000,4.000000,4.000000,4.000000,4.000000,4.000000,4.000000,4.000000,4.000000,4.000000,4.000000,4.000000,4.000000,4.000000,4.000000,4.000000,4.000000,4.000000,4.000000,4.000000,4.000000,4.000000,4.000000,4.000000,100.000000
1615603822.415680,106.000000,0.000000,3.108119,11.729100,23.831585,23.291441,24.952692,11.354124,4.495802,10.646610,11.484221,15.764224,12.247038,7.653573,12.809503,23.376255,25.469933,35.613407,6.647411,18.133890,25.454891,-2.256967,17.681864,1.777026,6.061851,17.685293,10.290564,8.800912,14.208679,5.112242,2.634201,18.684620,14.195714,24.166550,8064.000000,0.000000,4.000000,,,,0.000000,4.000000,4.000000,4.000000,4.000000,4.000000,4.000000,4.000000,4.000000,4.000000,4.000000,4.000000,4.000000,4.000000,4.000000,4.000000,4.000000,4.000000,4.000000,4.000000,4.000000,4.000000,4.000000,4.000000,4.000000,4.000000,4.000000,4.000000,4.000000,4.000000,4.000000,4.000000,4.000000,100.000000
1615603822.423429,107.000000,0.000000,3.105011,9.666089,15.089806,12.498919,18.773893,7.753026,-0.636899,8.584682,11.472737,16.774101,12.234791,7.645920,10.745411,20.275955,21.854719,31.988049,8.692046,16.577295,37.737129,-7.382915,8.946234,3.313710,5.542968,16.641968,8.228992,1.612623,12.656009,5.107130,3.144387,19.691578,9.053313,20.552639,8064.000000,0.000000,4.000000,,,,0.000000,4.000000,4.000000,4.000000,4.000000,4.000000,4.000000,4.000000,4.000000,4.000000,4.000000,4.000000,4.000000,4.000000,4.000000,4.000000,4.000000,4.000000,4.000000,4.000000,4.000000,4.000000,4.000000,4.000000,4.000000,4.000000,4.000000,4.000000,4.000000,4.000000,4.000000,4.000000,4.000000,100.000000
1615603822.431079,108.000000,0.000000,3.101906,9.143602,6.356767,3.768471,13.114094,6.206811,-7.302928,6.524815,10.948443,16.244507,12.222556,7.638274,8.170563,17.178757,17.217480,24.263752,7.657713,13.996615,12.571187,-19.170404,-11.062713,-0.792167,5.537425,7.394557,8.733582,-4.030015,7.515148,5.102022,2.115602,14.030860,5.967337,17.967983,8064.000000,0.000000,4.000000,,,,0.000000,4.000000,4.000000,4.000000,4.000000,4.000000,4.000000,4.000000,4.000000,4.000000,4.000000,4.000000,4.000000,4.000000,4.000000,4.000000,4.000000,4.000000,4.000000,4.000000,4.000000,4.000000,4.000000,4.000000,4.000000,4.000000,4.000000,4.000000,4.000000,4.000000,4.000000,4.000000,4.000000,100.000000
1615603822.438828,109.000000,0.000000,2.585983,9.647280,7.888872,7.867267,10.024056,7.226246,-1.141779,6.005469,11.450315,16.228262,12.210334,7.630635,10.726495,20.238501,15.661801,22.188208,7.650055,11.931336,3.840667,-13.510208,-23.359343,-5.406760,5.019067,-2.869248,8.724849,-2.487523,4.430710,5.096920,-0.450616,4.786060,5.961370,10.770529,8064.000000,0.000000,4.000000,,,,0.000000,4.000000,4.000000,4.000000,4.000000,4.000000,4.000000,4.000000,4.000000,4.000000,4.000000,4.000000,4.000000,4.000000,4.000000,4.000000,4.000000,4.000000,4.000000,4.000000,4.000000,4.000000,4.000000,4.000000,4.000000,4.000000,4.000000,4.000000,4.000000,4.000000,4.000000,4.000000,4.000000,100.000000
1615603822.446477,110.000000,0.000000,3.609038,9.637632,11.470726,12.474784,11.039673,7.219019,5.526029,6.512285,13.490148,16.212034,12.198124,7.623005,15.331153,22.782364,18.723063,25.755762,10.206508,15.509149,36.657341,6.503302,-6.925726,-0.273148,5.526869,-1.327918,8.716125,1.104708,9.041663,5.091823,-1.475807,5.806915,5.955408,9.221296,8064.000000,0.000000,4.000000,,,,0.000000,4.000000,4.000000,4.000000,4.000000,4.000000,4.000000,4.000000,4.000000,4.000000,4.000000,4.000000,4.000000,4.000000,4.000000,4.000000,4.000000,4.000000,4.000000,4.000000,4.000000,4.000000,4.000000,4.000000,4.000000,4.000000,4.000000,4.000000,4.000000,4.000000,4.000000,4.000000,4.000000,100.000000
1615603822.454227,111.000000,0.000000,5.656711,9.627995,10.433615,11.436668,12.054275,6.698980,3.982041,6.505772,15.527940,16.708641,12.185925,7.615382,16.341463,17.118557,15.627417,26.242826,12.247583,16.519281,47.389912,10.599362,10.517097,9.470716,7.572624,4.827257,8.707408,4.180526,13.648006,5.086731,-0.961511,14.006236,5.436632,14.340281,8064.000000,0.000000,4.000000,,,,0.000000,4.000000,4.000000,4.000000,4.000000,4.000000,4.000000,4.000000,4.000000,4.000000,4.000000,4.000000,4.000000,4.000000,4.000000,4.000000,4.000000,4.000000,4.000000,4.000000,4.000000,4.000000,4.000000,4.000000,4.000000,4.000000,4.000000,4.000000,4.000000,4.000000,4.000000,4.000000,4.000000,100.000000
1615603822.461876,112.000000,0.000000,7.189516,9.618366,10.423181,10.912411,9.478118,6.692281,3.465239,6.499267,14.999591,16.179113,12.173739,7.607767,13.761019,10.434772,2.791276,22.114019,12.235336,13.938659,23.239958,1.357994,11.019401,10.999706,9.616333,5.335250,8.698701,5.201987,13.121538,5.081645,-0.960549,15.530691,5.944016,17.402863,8064.000000,0.000000,4.000000,,,,0.000000,4.000000,4.000000,4.000000,4.000000,4.000000,4.000000,4.000000,4.000000,4.000000,4.000000,4.000000,4.000000,4.000000,4.000000,4.000000,4.000000,4.000000,4.000000,4.000000,4.000000,4.000000,4.000000,4.000000,4.000000,4.000000,4.000000,4.000000,4.000000,4.000000,4.000000,4.000000,4.000000,100.000000
1615603822.469626,113.000000,0.000000,6.669506,9.608748,11.438398,11.927139,8.955819,7.198409,5.000235,6.492767,14.984591,16.162933,12.674386,7.600159,12.208797,10.424336,-4.903823,22.091906,10.171819,18.540106,18.601334,8.023303,17.675047,9.450245,9.606717,4.304274,9.715643,5.196785,12.595596,6.102204,-0.959588,13.976699,5.938072,16.872641,8064.000000,0.000000,4.000000,,,,0.000000,4.000000,4.000000,4.000000,4.000000,4.000000,4.000000,4.000000,4.000000,4.000000,4.000000,4.000000,4.000000,4.000000,4.000000,4.000000,4.000000,4.000000,4.000000,4.000000,4.000000,4.000000,4.000000,4.000000,4.000000,4.000000,4.000000,4.000000,4.000000,4.000000,4.000000,4.000000,4.000000,100.000000
1615603822.477275,114.000000,0.000000,6.662837,9.599139,10.401320,9.863930,9.459683,6.165570,2.943953,6.486274,14.969606,17.172411,12.661712,7.592558,11.683767,11.439553,1.767748,27.710840,8.623185,28.265154,32.428886,17.246048,29.965065,10.979256,9.597111,8.402534,9.705927,5.191588,14.634282,6.096102,-0.958629,14.475543,5.932134,17.368587,8064.000000,0.000000,4.000000,,,,0.000000,4.000000,4.000000,4.000000,4.000000,4.000000,4.000000,4.000000,4.000000,4.000000,4.000000,4.000000,4.000000,4.000000,4.000000,4.000000,4.000000,4.000000,4.000000,4.000000,4.000000,4.000000,4.000000,4.000000,4.000000,4.000000,4.000000,4.000000,4.000000,4.000000,4.000000,4.000000,4.000000,100.000000
1615603822.485024,115.000000,0.000000,6.656174,9.589540,7.826815,6.264323,9.450224,3.595302,0.376906,6.479788,14.954638,14.591137,11.110589,7.584966,11.672083,10.402472,7.407005,33.836975,7.588921,29.775351,32.909279,4.408290,30.960741,13.019559,9.074693,13.009516,6.619298,5.186397,16.670931,3.525903,-0.957670,14.973887,5.926202,16.325579,8064.000000,0.000000,4.000000,,,,0.000000,4.000000,4.000000,4.000000,4.000000,4.000000,4.000000,4.000000,4.000000,4.000000,4.000000,4.000000,4.000000,4.000000,4.000000,4.000000,4.000000,4.000000,4.000000,4.000000,4.000000,4.000000,4.000000,4.000000,4.000000,4.000000,4.000000,4.000000,4.000000,4.000000,4.000000,4.000000,4.000000,100.000000
1615603822.492674,116.000000,0.000000,6.649518,9.579950,6.793347,4.206776,9.440774,2.566065,-0.136291,6.473309,14.939682,7.909879,12.637939,7.577381,11.660411,10.392070,5.861137,32.777496,8.094152,25.643011,29.799446,-3.801247,28.365677,14.545001,9.065618,12.996506,5.587038,5.181210,16.654259,6.086480,-0.956713,14.958914,5.920276,17.847713,8064.000000,0.000000,4.000000,,,,0.000000,4.000000,4.000000,4.000000,4.000000,4.000000,4.000000,4.000000,4.000000,4.000000,4.000000,4.000000,4.000000,4.000000,4.000000,4.000000,4.000000,4.000000,4.000000,4.000000,4.000000,4.000000,4.000000,4.000000,4.000000,4.000000,4.000000,4.000000,4.000000,4.000000,4.000000,4.000000,4.000000,100.000000
1615603822.500523,117.000000,0.000000,6.642868,10.083191,7.299375,4.202569,7.892872,3.076320,0.376666,6.466835,14.924743,4.825046,13.650943,7.569804,11.648750,10.894499,6.368096,27.103693,8.598879,23.566086,32.333748,4.407683,25.260389,10.940712,10.082193,12.983509,5.068631,4.150388,17.150425,9.157316,-0.955756,14.431134,3.863074,16.804226,8064.000000,0.000000,4.000000,,,,0.000000,4.000000,4.000000,4.000000,4.000000,4.000000,4.000000,4.000000,4.000000,4.000000,4.000000,4.000000,4.000000,4.000000,4.000000,4.000000,4.000000,4.000000,4.000000,4.000000,4.000000,4.000000,4.000000,4.000000,4.000000,4.000000,4.000000,4.000000,4.000000,4.000000,4.000000,4.000000,4.000000,100.000000
1615603822.508273,118.000000,0.000000,6.636225,8.534646,7.292075,4.198367,5.833697,3.073243,0.376289,6.460368,14.909818,5.333041,5.432164,7.562234,12.662743,11.396424,5.336087,22.461206,7.051818,18.414316,23.070646,-5.853135,7.286410,-0.865100,4.943906,12.970526,-4.167207,-0.469147,15.594813,-2.133892,-0.954800,11.852601,2.320749,7.556652,8064.000000,0.000000,4.000000,,,,0.000000,4.000000,4.000000,4.000000,4.000000,4.000000,4.000000,4.000000,4.000000,4.000000,4.000000,4.000000,4.000000,4.000000,4.000000,4.000000,4.000000,4.000000,4.000000,4.000000,4.000000,4.000000,4.000000,4.000000,4.000000,4.000000,4.000000,4.000000,4.000000,4.000000,4.000000,4.000000,4.000000,100.000000
1615603822.516122,119.000000,0.000000,6.629589,6.474830,7.284783,4.194169,5.315042,3.070170,0.375913,6.966728,15.407729,5.840529,-2.265576,8.067492,12.650080,12.410669,4.305110,21.925924,3.967844,14.293337,6.637319,-30.462667,-12.720876,-12.146287,-1.727705,8.342171,-13.906630,-3.032781,9.938193,-14.439450,-1.466666,10.815107,2.318428,1.395249,8064.000000,0.000000,4.000000,,,,0.000000,4.000000,4.000000,4.000000,4.000000,4.000000,4.000000,4.000000,4.000000,4.000000,4.000000,4.000000,4.000000,4.000000,4.000000,4.000000,4.000000,4.000000,4.000000,4.000000,4.000000,4.000000,4.000000,4.000000,4.000000,4.000000,4.000000,4.000000,4.000000,4.000000,4.000000,4.000000,4.000000,100.000000
1615603822.523872,120.000000,0.000000,6.622959,5.442714,7.790319,4.189974,5.822548,2.554280,0.888357,6.959762,15.392321,7.885971,4.403356,8.059424,11.098969,11.372618,6.352087,23.442459,4.989517,15.304685,7.143502,-28.380922,-15.272258,-13.672602,-0.700336,2.179982,-13.379903,-2.516927,6.338511,-5.194242,-0.439558,10.804292,1.803289,7.034879,8064.000000,0.000000,4.000000,,,,0.000000,4.000000,4.000000,4.000000,4.000000,4.000000,4.000000,4.000000,4.000000,4.000000,4.000000,4.000000,4.000000,4.000000,4.000000,4.000000,4.000000,4.000000,4.000000,4.000000,4.000000,4.000000,4.000000,4.000000,4.000000,4.000000,4.000000,4.000000,4.000000,4.000000,4.000000,4.000000,4.000000,100.000000
1615603822.531721,121.000000,0.000000,6.103516,5.950092,7.269708,4.185784,5.816725,3.064546,0.374649,6.439981,14.351288,12.493469,7.988696,7.025724,12.626331,10.335604,4.294453,21.367735,8.061450,9.135533,11.751743,-15.532028,-15.256986,-12.633288,4.428570,1.152161,-10.289599,-2.514410,8.383454,9.169927,2.124984,10.793488,3.852768,13.181690,8064.000000,0.000000,4.000000,,,,0.000000,4.000000,4.000000,4.000000,4.000000,4.000000,4.000000,4.000000,4.000000,4.000000,4.000000,4.000000,4.000000,4.000000,4.000000,4.000000,4.000000,4.000000,4.000000,4.000000,4.000000,4.000000,4.000000,4.000000,4.000000,4.000000,4.000000,4.000000,4.000000,4.000000,4.000000,4.000000,4.000000,100.000000
1615603822.539471,122.000000,0.000000,6.097412,5.944141,6.749618,4.181599,5.298088,6.138404,0.374274,7.459182,14.849757,13.506617,-0.737241,8.044339,11.075243,11.863729,0.700415,16.730982,1.899543,-3.694115,2.509222,-22.183163,-15.754549,-14.671937,5.449782,1.663830,-9.766490,-3.024717,9.400712,8.135116,3.148500,10.782695,8.977120,13.168509,8064.000000,0.000000,4.000000,,,,0.000000,4.000000,4.000000,4.000000,4.000000,4.000000,4.000000,4.000000,4.000000,4.000000,4.000000,4.000000,4.000000,4.000000,4.000000,4.000000,4.000000,4.000000,4.000000,4.000000,4.000000,4.000000,4.000000,4.000000,4.000000,4.000000,4.000000,4.000000,4.000000,4.000000,4.000000,4.000000,4.000000,100.000000
1615603822.547320,123.000000,0.000000,7.116956,5.938198,7.768509,4.177417,5.292790,6.132266,0.886720,4.887621,13.809266,5.800802,-3.813427,8.036295,-0.730704,5.185200,-1.864388,14.150149,-5.794664,-9.844267,-2.108672,-31.391748,-7.533666,-12.093163,4.931512,1.662166,-9.756723,-3.021692,8.878491,4.024416,2.632531,10.259091,9.993784,13.155340,8064.000000,0.000000,4.000000,,,,0.000000,4.000000,4.000000,4.000000,4.000000,4.000000,4.000000,4.000000,4.000000,4.000000,4.000000,4.000000,4.000000,4.000000,4.000000,4.000000,4.000000,4.000000,4.000000,4.000000,4.000000,4.000000,4.000000,4.000000,4.000000,4.000000,4.000000,4.000000,4.000000,4.000000,4.000000,4.000000,4.000000,100.000000
1615603822.555070,124.000000,0.000000,5.571377,5.932259,5.709459,4.173240,5.800318,1.510749,-1.678269,-2.809575,8.154431,-7.025511,-3.809614,-1.715331,-14.576127,-14.307165,-10.067652,14.648820,-6.301691,-9.321602,3.534463,-28.796255,-3.936389,-9.004147,5.439401,1.147683,-10.259787,-2.505850,9.382433,5.558854,2.629899,7.684730,6.906868,12.116544,8064.000000,0.000000,4.000000,,,,0.000000,4.000000,4.000000,4.000000,4.000000,4.000000,4.000000,4.000000,4.000000,4.000000,4.000000,4.000000,4.000000,4.000000,4.000000,4.000000,4.000000,4.000000,4.000000,4.000000,4.000000,4.000000,4.000000,4.000000,4.000000,4.000000,4.000000,4.000000,4.000000,4.000000,4.000000,4.000000,4.000000,100.000000
1615603822.562919,125.000000,0.000000,3.514524,5.926327,0.062724,4.169066,5.794518,-1.054864,-6.804796,-7.422150,1.992431,-11.633870,-9.959650,-12.482846,-16.100012,-25.574909,-15.185789,11.557247,-8.859491,-5.722537,3.018108,-17.485407,-2.393991,-10.020783,4.921141,1.659356,-9.223886,-2.503344,8.860230,6.066115,3.140089,6.651404,5.361499,10.053145,8064.000000,0.000000,4.000000,,,,0.000000,4.000000,4.000000,4.000000,4.000000,4.000000,4.000000,4.000000,4.000000,4.000000,4.000000,4.000000,4.000000,4.000000,4.000000,4.000000,4.000000,4.000000,4.000000,4.000000,4.000000,4.000000,4.000000,4.000000,4.000000,4.000000,4.000000,4.000000,4.000000,4.000000,4.000000,4.000000,4.000000,100.000000
1615603822.570669,126.000000,0.000000,6.075112,5.920401,0.575481,4.164897,4.763082,-0.540989,-7.310812,-4.337804,4.554541,-2.391467,-7.898408,-6.829338,-6.853143,-12.216002,-4.914193,10.007229,-3.722427,2.488314,14.297141,2.019258,19.146864,-0.267173,7.480322,1.657697,-2.547996,-3.013661,9.877011,5.034408,2.624129,9.208855,6.381778,11.068733,8064.000000,0.000000,4.000000,,,,0.000000,4.000000,4.000000,4.000000,4.000000,4.000000,4.000000,4.000000,4.000000,4.000000,4.000000,4.000000,4.000000,4.000000,4.000000,4.000000,4.000000,4.000000,4.000000,4.000000,4.000000,4.000000,4.000000,4.000000,4.000000,4.000000,4.000000,4.000000,4.000000,4.000000,4.000000,4.000000,4.000000,100.000000
1615603822.578518,127.000000,0.000000,10.171601,5.914480,6.215931,4.160732,8.348063,-0.540448,-4.226578,0.281918,14.806396,9.405796,6.468464,5.485184,4.948582,9.334677,6.885592,16.151068,15.255654,8.126851,38.385406,9.709546,38.614899,19.733095,12.088226,1.656039,2.582757,-1.985006,14.995339,5.029374,2.108684,11.250928,5.862576,13.621767,8064.000000,0.000000,4.000000,,,,0.000000,4.000000,4.000000,4.000000,4.000000,4.000000,4.000000,4.000000,4.000000,4.000000,4.000000,4.000000,4.000000,4.000000,4.000000,4.000000,4.000000,4.000000,4.000000,4.000000,4.000000,4.000000,4.000000,4.000000,4.000000,4.000000,4.000000,4.000000,4.000000,4.000000,4.000000,4.000000,4.000000,100.000000
1615603822.586268,0.000000,0.000000,11.187071,5.908566,7.748177,4.156572,12.955099,-1.052728,-2.683890,2.332918,22.483898,13.498954,14.154304,8.556622,14.174402,19.581753,10.981271,23.314404,21.394245,6.580263,35.270100,-3.120676,26.781410,24.328747,11.563318,1.654383,2.067354,0.581081,16.005985,5.024344,3.132216,10.726856,5.343893,13.095325,0.000000,178.000000,4.000000,,,,0.000000,4.000000,4.000000,4.000000,4.000000,4.000000,4.000000,4.000000,4.000000,4.000000,4.000000,4.000000,4.000000,4.000000,4.000000,4.000000,4.000000,4.000000,4.000000,4.000000,4.000000,4.000000,4.000000,4.000000,4.000000,4.000000,4.000000,4.000000,4.000000,4.000000,4.000000,4.000000,4.000000,100.000000
1615603822.594117,1.000000,0.000000,9.124601,5.902657,7.740429,4.152415,10.890862,-0.538855,-3.194026,2.843406,19.897312,12.459814,12.601687,7.009604,16.211510,19.049351,14.047213,23.291090,7.526697,7.599324,15.234829,-6.194479,11.370013,15.073648,8.987652,1.652729,1.552466,1.606141,10.861773,5.019320,1.590622,10.716130,5.851370,12.569409,0.000000,191.000000,4.000000,,,,0.000000,4.000000,4.000000,4.000000,4.000000,4.000000,4.000000,4.000000,4.000000,4.000000,4.000000,4.000000,4.000000,4.000000,4.000000,4.000000,4.000000,4.000000,4.000000,4.000000,4.000000,4.000000,4.000000,4.000000,4.000000,4.000000,4.000000,4.000000,4.000000,4.000000,4.000000,4.000000,4.000000,100.000000
1615603822.601867,2.000000,0.000000,6.551374,5.896755,7.732688,4.148263,5.751766,-0.538316,-3.703653,2.840562,14.749208,12.960175,12.589086,8.028234,16.195299,16.979019,11.981884,21.729338,2.903786,7.591724,21.373440,3.555306,15.974029,10.443190,9.491485,1.651076,2.576555,1.091715,8.799630,5.014301,-0.975071,10.705414,5.845518,13.069660,0.000000,202.000000,4.000000,,,,0.000000,4.000000,4.000000,4.000000,4.000000,4.000000,4.000000,4.000000,4.000000,4.000000,4.000000,4.000000,4.000000,4.000000,4.000000,4.000000,4.000000,4.000000,4.000000,4.000000,4.000000,4.000000,4.000000,4.000000,4.000000,4.000000,4.000000,4.000000,4.000000,4.000000,4.000000,4.000000,4.000000,100.000000
1615603822.609516,3.000000,0.000000,7.057643,5.890858,2.596751,4.144114,5.233193,-1.050598,-2.674308,3.350542,14.734460,14.485676,13.089317,8.533028,17.204744,16.962040,7.354517,24.784531,8.541907,4.507210,29.557196,-9.781583,16.470875,4.791721,8.456352,1.649425,1.035517,1.090623,9.816471,5.009286,1.590007,10.694708,5.839673,13.056590,0.000000,172.000000,4.000000,,,,0.000000,4.000000,4.000000,4.000000,4.000000,4.000000,4.000000,4.000000,4.000000,4.000000,4.000000,4.000000,4.000000,4.000000,4.000000,4.000000,4.000000,4.000000,4.000000,4.000000,4.000000,4.000000,4.000000,4.000000,4.000000,4.000000,4.000000,4.000000,4.000000,4.000000,4.000000,4.000000,4.000000,100.000000
1615603822.617266,4.000000,0.000000,7.050586,5.884967,-3.559692,4.139970,6.253602,-0.023906,0.405289,3.347192,15.745366,10.881447,13.076228,4.421930,14.110617,15.406616,6.834342,19.118721,5.456443,3.477061,16.194305,-31.310263,5.172353,-5.469481,5.883793,1.647775,-2.042442,1.089532,9.293835,5.004277,5.690981,10.684013,5.833833,13.043534,0.000000,195.000000,4.000000,,,,0.000000,4.000000,4.000000,4.000000,4.000000,4.000000,4.000000,4.000000,4.000000,4.000000,4.000000,4.000000,4.000000,4.000000,4.000000,4.000000,4.000000,4.000000,4.000000,4.000000,4.000000,4.000000,4.000000,4.000000,4.000000,4.000000,4.000000,4.000000,4.000000,4.000000,4.000000,4.000000,4.000000,100.000000
1615603822.624915,5.000000,0.000000,2.428150,5.879082,-4.581773,4.648651,5.734527,2.540220,-1.646398,1.292562,13.678339,6.255181,8.447767,0.314944,6.917019,6.673261,2.724944,2.689345,-0.190039,2.447943,14.639649,-19.996901,0.038975,-10.079396,5.365089,1.646128,-2.553220,1.088443,8.771720,4.999273,5.172470,10.160509,5.827999,13.030490,0.000000,162.000000,4.000000,,,,0.000000,4.000000,4.000000,4.000000,4.000000,4.000000,4.000000,4.000000,4.000000,4.000000,4.000000,4.000000,4.000000,4.000000,4.000000,4.000000,4.000000,4.000000,4.000000,4.000000,4.000000,4.000000,4.000000,4.000000,4.000000,4.000000,4.000000,4.000000,4.000000,4.000000,4.000000,4.000000,4.000000,100.000000
1615603822.632665,6.000000,0.000000,-1.164021,5.873203,-3.551551,2.592720,5.215972,3.563321,-6.772957,-0.247192,11.100558,4.710464,-1.304270,-0.198191,0.756256,-3.589823,-4.457268,-3.980011,-0.189849,-4.221171,20.266035,-8.182033,-3.037987,-15.710342,4.334083,1.644481,-1.525026,1.087354,9.275768,4.994274,2.090374,10.663169,5.822171,13.017460,0.000000,163.000000,4.000000,,,,0.000000,4.000000,4.000000,4.000000,4.000000,4.000000,4.000000,4.000000,4.000000,4.000000,4.000000,4.000000,4.000000,4.000000,4.000000,4.000000,4.000000,4.000000,4.000000,4.000000,4.000000,4.000000,4.000000,4.000000,4.000000,4.000000,4.000000,4.000000,4.000000,4.000000,4.000000,4.000000,4.000000,100.000000
1615603822.640314,7.000000,0.000000,1.914066,5.867330,-4.060820,0.026025,2.133833,2.534117,-5.740543,-1.272585,10.576637,3.680113,-7.456812,0.314827,-3.859885,-5.637515,-6.504093,2.177815,0.835982,-9.857976,-1.805513,-31.250774,-10.214437,-20.822838,2.278467,1.642837,-3.061962,1.086267,9.266493,4.989279,2.601104,12.703788,5.816349,13.004442,0.000000,217.000000,4.000000,,,,0.000000,4.000000,4.000000,4.000000,4.000000,4.000000,4.000000,4.000000,4.000000,4.000000,4.000000,4.000000,4.000000,4.000000,4.000000,4.000000,4.000000,4.000000,4.000000,4.000000,4.000000,4.000000,4.000000,4.000000,4.000000,4.000000,4.000000,4.000000,4.000000,4.000000,4.000000,4.000000,4.000000,100.000000
1615603822.648063,8.000000,0.000000,1.399331,5.348642,-4.056759,0.025999,-1.458044,2.531582,-2.657879,-4.861056,11.078880,2.137971,-6.423714,0.314512,-7.445769,-3.067775,-3.933486,4.739740,0.835146,-5.745553,-19.752426,-45.065678,-10.717042,-13.622527,1.250547,1.641194,-1.520439,1.085181,9.257226,4.984290,5.162605,14.742366,5.810533,12.991438,0.000000,222.000000,4.000000,,,,0.000000,4.000000,4.000000,4.000000,4.000000,4.000000,4.000000,4.000000,4.000000,4.000000,4.000000,4.000000,4.000000,4.000000,4.000000,4.000000,4.000000,4.000000,4.000000,4.000000,4.000000,4.000000,4.000000,4.000000,4.000000,4.000000,4.000000,4.000000,4.000000,4.000000,4.000000,4.000000,4.000000,100.000000
1615603822.655713,9.000000,0.000000,-4.243094,6.368934,-4.052702,0.538793,-2.482227,5.605974,-3.168042,-8.958759,11.067801,1.110192,-6.417291,0.314198,-7.438323,-5.628810,-6.493656,1.145257,0.321490,-1.124424,-2.809596,-20.918047,-5.065300,-4.890956,1.762117,1.639553,4.122108,1.084095,9.247970,4.979306,6.183084,14.727624,5.291902,12.978447,0.000000,170.000000,4.000000,,,,0.000000,4.000000,4.000000,4.000000,4.000000,4.000000,4.000000,4.000000,4.000000,4.000000,4.000000,4.000000,4.000000,4.000000,4.000000,4.000000,4.000000,4.000000,4.000000,4.000000,4.000000,4.000000,4.000000,4.000000,4.000000,4.000000,4.000000,4.000000,4.000000,4.000000,4.000000,4.000000,4.000000,100.000000
1615603822.663462,10.000000,0.000000,-4.751671,8.926668,-4.048649,-0.487386,-1.454104,9.702932,-3.677694,-7.411339,11.056734,0.083441,-6.923694,0.313884,-4.866782,-4.084720,-8.538444,1.144112,0.833989,-0.610479,16.680393,-0.384308,-3.008952,1.267781,1.760355,1.637913,4.630806,1.083011,9.238721,4.974327,6.176901,14.200076,5.799430,12.965468,0.000000,186.000000,4.000000,,,,0.000000,4.000000,4.000000,4.000000,4.000000,4.000000,4.000000,4.000000,4.000000,4.000000,4.000000,4.000000,4.000000,4.000000,4.000000,4.000000,4.000000,4.000000,4.000000,4.000000,4.000000,4.000000,4.000000,4.000000,4.000000,4.000000,4.000000,4.000000,4.000000,4.000000,4.000000,4.000000,4.000000,100.000000
1615603822.671112,11.000000,0.000000,-1.157176,9.943382,0.057963,1.051563,0.598632,10.718870,-0.597094,-2.788543,11.045677,4.185922,0.775538,0.313570,-2.297813,9.765519,0.188043,6.783993,2.371616,4.518337,25.894482,-2.435206,1.096621,14.087027,1.758595,1.636275,1.036431,1.081928,9.742303,4.969352,6.170724,14.185876,5.793631,12.952502,0.000000,203.000000,4.000000,,,,0.000000,4.000000,4.000000,4.000000,4.000000,4.000000,4.000000,4.000000,4.000000,4.000000,4.000000,4.000000,4.000000,4.000000,4.000000,4.000000,4.000000,4.000000,4.000000,4.000000,4.000000,4.000000,4.000000,4.000000,4.000000,4.000000,4.000000,4.000000,4.000000,4.000000,4.000000,4.000000,4.000000,100.000000
1615603822.678861,12.000000,0.000000,-0.130378,9.420618,4.160470,3.614614,2.136495,10.195331,0.941965,-0.734473,11.034632,12.386864,9.492711,0.826077,1.807049,23.089087,15.572471,13.956697,4.933347,11.693306,41.253204,-4.484053,10.326294,22.278067,1.756836,1.634639,2.573857,1.080846,7.681279,4.964383,6.164553,14.684510,4.762196,12.939550,0.000000,197.000000,4.000000,,,,0.000000,4.000000,4.000000,4.000000,4.000000,4.000000,4.000000,4.000000,4.000000,4.000000,4.000000,4.000000,4.000000,4.000000,4.000000,4.000000,4.000000,4.000000,4.000000,4.000000,4.000000,4.000000,4.000000,4.000000,4.000000,4.000000,4.000000,4.000000,4.000000,4.000000,4.000000,4.000000,4.000000,100.000000
1615603822.686510,13.000000,0.000000,-1.155888,9.411198,3.643489,4.636640,2.134359,10.185135,0.941023,-0.733738,11.023597,10.323195,10.508859,-1.226031,4.882165,22.040356,17.608181,15.994021,5.441235,9.117510,39.673489,-0.377005,13.905711,13.025021,1.755080,1.633005,2.058462,1.079766,5.622315,5.472239,6.158389,14.669826,6.295896,12.926611,0.000000,199.000000,4.000000,,,,0.000000,4.000000,4.000000,4.000000,4.000000,4.000000,4.000000,4.000000,4.000000,4.000000,4.000000,4.000000,4.000000,4.000000,4.000000,4.000000,4.000000,4.000000,4.000000,4.000000,4.000000,4.000000,4.000000,4.000000,4.000000,4.000000,4.000000,4.000000,4.000000,4.000000,4.000000,4.000000,4.000000,100.000000
1615603822.694260,14.000000,0.000000,-0.641912,9.401787,3.639845,6.683285,3.157865,10.174951,-0.085559,-0.733004,11.012573,4.671846,5.882966,-3.276087,4.877283,18.941393,3.744418,14.952387,3.897332,-0.635197,19.120995,-2.940730,11.840523,1.729944,1.753324,2.144192,-6.148725,1.078686,5.103873,3.928305,6.152230,10.552592,10.392164,12.913684,0.000000,166.000000,4.000000,,,,0.000000,4.000000,4.000000,4.000000,4.000000,4.000000,4.000000,4.000000,4.000000,4.000000,4.000000,4.000000,4.000000,4.000000,4.000000,4.000000,4.000000,4.000000,4.000000,4.000000,4.000000,4.000000,4.000000,4.000000,4.000000,4.000000,4.000000,4.000000,4.000000,4.000000,4.000000,4.000000,4.000000,100.000000
1615603822.701909,15.000000,0.000000,-0.641270,9.392385,8.251590,10.266346,5.205989,11.190416,0.427347,-0.219451,11.001561,13.385123,5.877083,-3.785632,5.385226,20.973734,-0.874711,16.988716,4.919075,-4.737126,20.640335,-13.194200,13.367144,2.241035,1.751571,2.142048,-8.706678,1.590428,5.611589,1.873095,6.146078,6.952296,13.458694,13.413590,0.000000,191.000000,4.000000,,,,0.000000,4.000000,4.000000,4.000000,4.000000,4.000000,4.000000,4.000000,4.000000,4.000000,4.000000,4.000000,4.000000,4.000000,4.000000,4.000000,4.000000,4.000000,4.000000,4.000000,4.000000,4.000000,4.000000,4.000000,4.000000,4.000000,4.000000,4.000000,4.000000,4.000000,4.000000,4.000000,4.000000,100.000000
1615603822.709658,16.000000,0.000000,-0.640629,9.382993,11.320261,11.794540,6.226425,12.717688,2.991022,-0.732052,10.990560,20.551226,5.871205,-3.269026,4.867020,11.209170,3.228728,13.894804,5.939797,-4.219569,30.876104,-22.411776,6.174290,3.264434,1.749820,1.627085,-3.569767,1.076017,5.605978,0.845581,6.139932,10.022266,13.445236,12.887357,0.000000,197.000000,4.000000,,,,0.000000,4.000000,4.000000,4.000000,4.000000,4.000000,4.000000,4.000000,4.000000,4.000000,4.000000,4.000000,4.000000,4.000000,4.000000,4.000000,4.000000,4.000000,4.000000,4.000000,4.000000,4.000000,4.000000,4.000000,4.000000,4.000000,4.000000,4.000000,4.000000,4.000000,4.000000,4.000000,4.000000,100.000000
1615603822.717308,17.000000,0.000000,-0.639988,9.373610,11.308941,12.295567,5.707377,14.243431,3.500852,-0.731320,10.979568,11.299905,-1.314153,-3.265757,-1.291693,-6.750757,-3.953988,-0.478065,-2.784091,-5.240990,4.178562,-27.517569,-17.421629,-10.584984,1.748070,2.138279,-6.643120,1.074941,4.061910,0.844735,6.133792,11.550706,12.406150,12.361649,0.000000,192.000000,4.000000,,,,0.000000,4.000000,4.000000,4.000000,4.000000,4.000000,4.000000,4.000000,4.000000,4.000000,4.000000,4.000000,4.000000,4.000000,4.000000,4.000000,4.000000,4.000000,4.000000,4.000000,4.000000,4.000000,4.000000,4.000000,4.000000,4.000000,4.000000,4.000000,4.000000,4.000000,4.000000,4.000000,4.000000,100.000000
1615603822.725157,18.000000,0.000000,-1.152169,9.364236,10.271991,10.744810,4.163208,14.742008,0.933248,-1.243409,10.455769,3.596297,-10.543608,-4.288132,-7.957068,-10.333750,-16.770548,-8.169894,-14.063358,-6.261390,-25.569206,-31.592615,-31.250360,-25.959015,1.233501,0.084858,-13.303144,1.586686,1.493746,1.356711,6.127658,6.410950,12.906564,13.887749,0.000000,191.000000,4.000000,,,,0.000000,4.000000,4.000000,4.000000,4.000000,4.000000,4.000000,4.000000,4.000000,4.000000,4.000000,4.000000,4.000000,4.000000,4.000000,4.000000,4.000000,4.000000,4.000000,4.000000,4.000000,4.000000,4.000000,4.000000,4.000000,4.000000,4.000000,4.000000,4.000000,4.000000,4.000000,4.000000,4.000000,100.000000
1615603822.732907,19.000000,0.000000,-0.638196,9.354872,10.774540,6.118680,2.107764,10.624702,-0.093326,-0.729345,10.958134,5.643983,-11.045885,-3.771023,-7.436290,-6.733672,-15.728135,-4.059160,-13.536474,-3.691026,-5.543638,-33.612305,-16.347315,-17.215107,1.745088,-6.069073,-11.238558,-2.004644,1.492252,0.329713,6.634351,2.814795,13.406478,10.796938,0.000000,213.000000,4.000000,,,,0.000000,4.000000,4.000000,4.000000,4.000000,4.000000,4.000000,4.000000,4.000000,4.000000,4.000000,4.000000,4.000000,4.000000,4.000000,4.000000,4.000000,4.000000,4.000000,4.000000,4.000000,4.000000,4.000000,4.000000,4.000000,4.000000,4.000000,4.000000,4.000000,4.000000,4.000000,4.000000,4.000000,100.000000
1615603822.740756,20.000000,0.000000,-0.637558,9.345516,11.276586,3.548459,1.592835,3.947411,0.419588,-0.728616,10.947175,2.048595,-9.496377,-2.741611,-6.403213,-19.034632,-11.097023,-6.106383,-9.420374,-5.225797,22.667034,-29.476128,2.643391,0.238006,1.743343,-9.139927,-9.176038,-8.156486,2.516401,-3.260360,4.576435,2.811980,11.854610,3.606654,0.000000,199.000000,4.000000,,,,0.000000,4.000000,4.000000,4.000000,4.000000,4.000000,4.000000,4.000000,4.000000,4.000000,4.000000,4.000000,4.000000,4.000000,4.000000,4.000000,4.000000,4.000000,4.000000,4.000000,4.000000,4.000000,4.000000,4.000000,4.000000,4.000000,4.000000,4.000000,4.000000,4.000000,4.000000,4.000000,4.000000,100.000000
1615603822.748506,21.000000,0.000000,-1.662561,9.336171,9.726848,4.057731,2.104063,3.943464,0.419168,-1.240708,9.910587,-4.107300,-11.025343,-4.790152,-7.935271,-27.220724,-13.650028,-12.254123,-12.487877,-6.246212,17.516163,-18.164600,7.256132,1.776230,0.715959,-8.105145,-9.166862,-8.661150,-0.050218,-2.744279,2.007756,2.809169,9.278653,2.577406,0.000000,189.000000,4.000000,,,,0.000000,4.000000,4.000000,4.000000,4.000000,4.000000,4.000000,4.000000,4.000000,4.000000,4.000000,4.000000,4.000000,4.000000,4.000000,4.000000,4.000000,4.000000,4.000000,4.000000,4.000000,4.000000,4.000000,4.000000,4.000000,4.000000,4.000000,4.000000,4.000000,4.000000,4.000000,4.000000,4.000000,100.000000
1615603822.756355,22.000000,0.000000,-0.122437,9.326835,10.742762,4.053673,4.153241,7.016443,1.957211,1.324636,12.464779,0.512192,-5.886112,-1.708438,-2.799131,-7.193504,-7.995352,1.091464,-6.321542,6.580547,22.626852,-3.787461,9.812979,5.364197,2.253704,-7.071400,-3.516669,-2.498642,-0.562989,3.925132,3.031389,4.344821,10.807836,8.215855,0.000000,197.000000,4.000000,,,,0.000000,4.000000,4.000000,4.000000,4.000000,4.000000,4.000000,4.000000,4.000000,4.000000,4.000000,4.000000,4.000000,4.000000,4.000000,4.000000,4.000000,4.000000,4.000000,4.000000,4.000000,4.000000,4.000000,4.000000,4.000000,4.000000,4.000000,4.000000,4.000000,4.000000,4.000000,4.000000,4.000000,100.000000
1615603822.764105,23.000000,0.000000,7.057172,9.317508,15.347404,3.536799,5.687549,6.496606,4.006536,5.425875,20.144623,10.255270,4.889005,10.088141,11.049822,19.480356,12.012643,26.731400,14.710420,24.522684,54.399097,3.908634,18.008293,22.281910,6.866835,0.627980,2.127873,1.606421,5.078600,9.049412,8.156563,8.443040,15.412413,10.258921,0.000000,221.000000,4.000000,,,,0.000000,4.000000,4.000000,4.000000,4.000000,4.000000,4.000000,4.000000,4.000000,4.000000,4.000000,4.000000,4.000000,4.000000,4.000000,4.000000,4.000000,4.000000,4.000000,4.000000,4.000000,4.000000,4.000000,4.000000,4.000000,4.000000,4.000000,4.000000,4.000000,4.000000,4.000000,4.000000,4.000000,100.000000
1615603822.771954,24.000000,0.000000,11.665500,9.308190,17.383339,4.046083,5.681861,5.977289,4.002529,7.471731,22.688580,13.321938,10.012321,16.744720,20.269541,27.153183,26.359604,39.012360,24.952120,23.985342,52.806236,-4.300403,22.605671,24.310909,9.424071,13.960685,2.125746,1.091994,9.688906,9.040362,10.712509,10.998700,16.935461,8.710200,0.000000,160.000000,4.000000,,,,0.000000,4.000000,4.000000,4.000000,4.000000,4.000000,4.000000,4.000000,4.000000,4.000000,4.000000,4.000000,4.000000,4.000000,4.000000,4.000000,4.000000,4.000000,4.000000,4.000000,4.000000,4.000000,4.000000,4.000000,4.000000,4.000000,4.000000,4.000000,4.000000,4.000000,4.000000,4.000000,4.000000,100.000000
1615603822.779704,25.000000,0.000000,9.089732,9.298882,14.801852,4.042037,5.676180,6.996953,3.998527,6.438618,20.101789,12.282974,8.976667,11.599771,19.736452,26.100389,26.846066,37.947704,16.209219,15.243407,20.445736,-11.988410,18.480501,10.953265,8.901826,18.562109,1.610799,1.090902,9.679217,8.518501,8.137693,10.987701,16.405706,9.214311,0.000000,199.000000,4.000000,,,,0.000000,4.000000,4.000000,4.000000,4.000000,4.000000,4.000000,4.000000,4.000000,4.000000,4.000000,4.000000,4.000000,4.000000,4.000000,4.000000,4.000000,4.000000,4.000000,4.000000,4.000000,4.000000,4.000000,4.000000,4.000000,4.000000,4.000000,4.000000,4.000000,4.000000,4.000000,4.000000,4.000000,100.000000
1615603822.787553,26.000000,0.000000,7.029360,9.289583,13.248589,4.037995,6.183324,6.477135,3.994528,6.432180,18.543226,12.270692,8.967690,6.972786,18.178253,26.074289,24.255117,36.884117,11.577625,24.971754,21.963753,2.382552,18.974840,8.891030,10.944206,15.979445,2.122009,1.602631,9.156717,9.022803,6.078274,9.951073,16.389299,9.717916,0.000000,195.000000,4.000000,,,,0.000000,4.000000,4.000000,4.000000,4.000000,4.000000,4.000000,4.000000,4.000000,4.000000,4.000000,4.000000,4.000000,4.000000,4.000000,4.000000,4.000000,4.000000,4.000000,4.000000,4.000000,4.000000,4.000000,4.000000,4.000000,4.000000,4.000000,4.000000,4.000000,4.000000,4.000000,4.000000,4.000000,100.000000
1615603822.795303,27.000000,0.000000,9.073613,9.280293,15.286622,4.033957,5.664320,6.470658,3.990533,9.502670,18.011862,13.284062,8.958723,7.991455,21.749819,27.073856,25.769323,39.411335,17.719894,37.254475,54.762302,16.739143,25.622532,14.010345,12.984545,16.476286,1.607066,1.088208,9.660381,9.013781,6.072196,10.453941,16.372911,8.682558,0.000000,185.000000,4.000000,,,,0.000000,4.000000,4.000000,4.000000,4.000000,4.000000,4.000000,4.000000,4.000000,4.000000,4.000000,4.000000,4.000000,4.000000,4.000000,4.000000,4.000000,4.000000,4.000000,4.000000,4.000000,4.000000,4.000000,4.000000,4.000000,4.000000,4.000000,4.000000,4.000000,4.000000,4.000000,4.000000,4.000000,100.000000
1615603822.803152,28.000000,0.000000,10.603001,9.271013,14.245695,4.029923,5.658656,6.977008,3.986543,11.031630,18.506670,15.834881,9.462584,7.983463,23.779350,27.559603,26.256374,37.320644,20.779097,29.012091,47.528053,1.850610,18.930243,11.945052,12.458739,16.972630,4.682383,1.087120,9.650721,8.491946,6.066123,13.520411,16.356537,8.673875,0.000000,198.000000,4.000000,,,,0.000000,4.000000,4.000000,4.000000,4.000000,4.000000,4.000000,4.000000,4.000000,4.000000,4.000000,4.000000,4.000000,4.000000,4.000000,4.000000,4.000000,4.000000,4.000000,4.000000,4.000000,4.000000,4.000000,4.000000,4.000000,4.000000,4.000000,4.000000,4.000000,4.000000,4.000000,4.000000,4.000000,100.000000
1615603822.810902,29.000000,0.000000,10.079577,9.261743,9.616064,4.025893,5.652997,4.918749,3.982556,7.430854,17.975344,14.280584,8.940302,6.949839,17.088905,19.326914,20.589092,25.488449,17.681395,14.624105,15.172832,-18.664061,0.962595,8.856184,12.446280,15.930016,5.703341,1.086033,9.128249,8.483455,6.060057,14.019711,16.340181,9.690843,0.000000,195.000000,4.000000,,,,0.000000,4.000000,4.000000,4.000000,4.000000,4.000000,4.000000,4.000000,4.000000,4.000000,4.000000,4.000000,4.000000,4.000000,4.000000,4.000000,4.000000,4.000000,4.000000,4.000000,4.000000,4.000000,4.000000,4.000000,4.000000,4.000000,4.000000,4.000000,4.000000,4.000000,4.000000,4.000000,4.000000,100.000000
1615603822.818751,30.000000,0.000000,10.069497,9.252481,6.529525,4.021867,2.057601,2.862548,3.978574,3.320859,8.726599,8.112457,1.751874,6.942889,10.917970,6.487075,11.337734,15.206552,15.099611,12.045379,19.260223,-11.465910,1.987273,8.847327,10.895372,14.375625,0.056612,1.084947,9.119122,8.474971,6.053997,11.441588,14.785379,8.142690,0.000000,190.000000,4.000000,,,,0.000000,4.000000,4.000000,4.000000,4.000000,4.000000,4.000000,4.000000,4.000000,4.000000,4.000000,4.000000,4.000000,4.000000,4.000000,4.000000,4.000000,4.000000,4.000000,4.000000,4.000000,4.000000,4.000000,4.000000,4.000000,4.000000,4.000000,4.000000,4.000000,4.000000,4.000000,4.000000,4.000000,100.000000
1615603822.826501,31.000000,0.000000,10.059428,9.243228,6.522995,4.017845,-0.508560,2.346865,3.974595,2.291898,-2.051359,4.514601,-5.942185,7.448766,10.394232,0.839562,7.223832,12.114422,15.084511,14.084615,43.343529,1.366069,16.344261,8.838480,7.807554,11.797146,-1.481906,1.083862,9.110003,8.466496,6.047943,10.404506,12.719312,10.185829,0.000000,187.000000,4.000000,,,,0.000000,4.000000,4.000000,4.000000,4.000000,4.000000,4.000000,4.000000,4.000000,4.000000,4.000000,4.000000,4.000000,4.000000,4.000000,4.000000,4.000000,4.000000,4.000000,4.000000,4.000000,4.000000,4.000000,4.000000,4.000000,4.000000,4.000000,4.000000,4.000000,4.000000,4.000000,4.000000,4.000000,100.000000
1615603822.834150,32.000000,0.000000,10.049369,9.233985,7.029293,4.013827,0.517590,2.857339,3.970621,2.289606,4.104539,4.510087,-6.961884,7.441318,10.383837,1.864364,11.319173,13.127949,14.556606,13.557710,42.787361,-1.199400,19.404839,10.368103,8.825388,12.298169,3.647781,1.082778,9.100892,8.458030,6.041895,13.471025,12.193772,19.406412,8064.000000,0.000000,4.000000,,,,0.000000,4.000000,4.000000,4.000000,4.000000,4.000000,4.000000,4.000000,4.000000,4.000000,4.000000,4.000000,4.000000,4.000000,4.000000,4.000000,4.000000,4.000000,4.000000,4.000000,4.000000,4.000000,4.000000,4.000000,4.000000,4.000000,4.000000,4.000000,4.000000,4.000000,4.000000,4.000000,4.000000,100.000000
1615603822.841900,33.000000,0.000000,10.039319,9.224751,6.509443,4.009813,2.568355,2.854481,3.966650,3.312957,16.408127,5.018397,-5.929281,7.433876,12.937556,7.503525,15.410418,21.832769,15.567691,15.595434,38.129192,1.365902,20.923897,15.485940,14.457588,14.849974,6.208236,0.568875,9.091791,7.936751,6.035853,14.483194,12.694399,25.028032,8064.000000,0.000000,4.000000,,,,0.000000,4.000000,4.000000,4.000000,4.000000,4.000000,4.000000,4.000000,4.000000,4.000000,4.000000,4.000000,4.000000,4.000000,4.000000,4.000000,4.000000,4.000000,4.000000,4.000000,4.000000,4.000000,4.000000,4.000000,4.000000,4.000000,4.000000,4.000000,4.000000,4.000000,4.000000,4.000000,4.000000,100.000000
1615603822.849549,34.000000,0.000000,8.490818,9.215527,6.502934,4.005804,1.540145,2.851627,3.962683,7.925029,15.878898,8.603123,-6.948993,7.426442,22.668207,18.778072,16.933468,34.631451,18.116226,18.143942,44.757729,12.133767,29.620920,17.521736,15.981592,16.373585,5.689207,1.081126,9.082700,9.467276,6.029818,13.955891,12.681705,20.387619,8064.000000,0.000000,4.000000,,,,0.000000,4.000000,4.000000,4.000000,4.000000,4.000000,4.000000,4.000000,4.000000,4.000000,4.000000,4.000000,4.000000,4.000000,4.000000,4.000000,4.000000,4.000000,4.000000,4.000000,4.000000,4.000000,4.000000,4.000000,4.000000,4.000000,4.000000,4.000000,4.000000,4.000000,4.000000,4.000000,4.000000,100.000000
1615603822.857298,35.000000,0.000000,6.431046,9.206311,7.009252,4.001798,-1.025498,2.848775,3.958721,9.968386,9.196352,12.697083,-5.916403,7.419016,27.260925,26.964422,20.506279,37.673740,18.610929,16.587336,44.200150,10.070352,29.591299,16.478573,12.375867,16.357212,5.170697,1.080045,9.073617,7.919347,6.023788,13.941935,12.669023,15.239026,8064.000000,0.000000,4.000000,,,,0.000000,4.000000,4.000000,4.000000,4.000000,4.000000,4.000000,4.000000,4.000000,4.000000,4.000000,4.000000,4.000000,4.000000,4.000000,4.000000,4.000000,4.000000,4.000000,4.000000,4.000000,4.000000,4.000000,4.000000,4.000000,4.000000,4.000000,4.000000,4.000000,4.000000,4.000000,4.000000,4.000000,100.000000
1615603822.864948,36.000000,0.000000,5.911794,9.197104,7.002242,5.536258,-1.537293,2.845927,3.954762,6.881494,10.725617,11.145925,-3.346384,7.411597,26.208023,25.911818,27.152439,36.610428,19.105139,16.570749,47.745693,7.496179,26.484785,17.487736,12.363491,15.828034,5.165526,0.053324,9.064543,4.834505,6.017764,13.927993,12.143534,16.762249,8064.000000,0.000000,4.000000,,,,0.000000,4.000000,4.000000,4.000000,4.000000,4.000000,4.000000,4.000000,4.000000,4.000000,4.000000,4.000000,4.000000,4.000000,4.000000,4.000000,4.000000,4.000000,4.000000,4.000000,4.000000,4.000000,4.000000,4.000000,4.000000,4.000000,4.000000,4.000000,4.000000,4.000000,4.000000,4.000000,4.000000,100.000000
1615603822.872697,37.000000,0.000000,6.418703,9.187907,7.508060,8.094824,-1.535755,2.843081,3.950807,6.361792,14.817456,8.570676,-1.804576,7.404185,26.694635,24.860264,28.150928,37.599457,19.598854,19.118280,54.877434,17.745092,26.971121,17.470249,13.376768,15.812206,7.724463,3.643014,9.055479,7.393773,6.011746,14.426886,13.157031,19.309589,8064.000000,0.000000,4.000000,,,,0.000000,4.000000,4.000000,4.000000,4.000000,4.000000,4.000000,4.000000,4.000000,4.000000,4.000000,4.000000,4.000000,4.000000,4.000000,4.000000,4.000000,4.000000,4.000000,4.000000,4.000000,4.000000,4.000000,4.000000,4.000000,4.000000,4.000000,4.000000,4.000000,4.000000,4.000000,4.000000,4.000000,100.000000
1615603822.880347,38.000000,0.000000,6.412284,9.178720,6.474912,8.086729,-1.534220,2.840237,3.946856,6.868251,14.802638,8.562105,-2.315592,7.396781,23.078197,27.399508,20.430470,31.920832,13.938231,12.432495,33.796917,12.086322,15.662099,8.734830,9.260828,17.334856,8.742380,10.818858,9.046423,11.488943,6.005734,13.899638,15.707976,19.803101,8064.000000,0.000000,4.000000,,,,0.000000,4.000000,4.000000,4.000000,4.000000,4.000000,4.000000,4.000000,4.000000,4.000000,4.000000,4.000000,4.000000,4.000000,4.000000,4.000000,4.000000,4.000000,4.000000,4.000000,4.000000,4.000000,4.000000,4.000000,4.000000,4.000000,4.000000,4.000000,4.000000,4.000000,4.000000,4.000000,4.000000,100.000000
1615603822.888096,39.000000,0.000000,6.405872,9.169540,6.981257,7.053001,-1.532685,2.837397,3.430089,6.348562,13.249374,8.553543,-2.313276,7.389384,13.311529,24.295185,15.281834,25.222244,4.693523,0.625191,8.634914,-13.566790,-3.840743,-1.017495,4.636182,13.727777,2.066971,11.320860,9.037376,6.862069,5.999729,13.372918,16.717909,20.296118,8064.000000,0.000000,4.000000,,,,0.000000,4.000000,4.000000,4.000000,4.000000,4.000000,4.000000,4.000000,4.000000,4.000000,4.000000,4.000000,4.000000,4.000000,4.000000,4.000000,4.000000,4.000000,4.000000,4.000000,4.000000,4.000000,4.000000,4.000000,4.000000,4.000000,4.000000,4.000000,4.000000,4.000000,4.000000,4.000000,4.000000,100.000000
1615603822.895745,40.000000,0.000000,6.399466,9.160371,7.487096,8.071589,-1.531153,2.834560,2.913838,6.342214,14.774587,8.544990,-2.310963,7.381995,10.221294,13.501658,17.317833,24.684200,2.637547,7.291233,21.959614,-19.707069,-9.990748,-3.067760,4.118725,2.431998,-2.037660,5.668514,9.028339,0.701361,5.993729,14.385186,16.188372,20.275822,8064.000000,0.000000,4.000000,,,,0.000000,4.000000,4.000000,4.000000,4.000000,4.000000,4.000000,4.000000,4.000000,4.000000,4.000000,4.000000,4.000000,4.000000,4.000000,4.000000,4.000000,4.000000,4.000000,4.000000,4.000000,4.000000,4.000000,4.000000,4.000000,4.000000,4.000000,4.000000,4.000000,4.000000,4.000000,4.000000,4.000000,100.000000
1615603822.903495,41.000000,0.000000,6.393066,9.151211,3.377045,8.576338,-1.529621,2.831725,3.936566,5.823051,14.759811,8.536445,-2.308652,7.374613,11.749535,5.795849,17.300516,23.633877,6.224653,22.155737,37.835091,-5.328388,-3.314091,-1.526230,5.140248,-3.211460,0.528480,4.124383,9.019311,0.700660,5.987735,14.370801,16.172182,14.101700,8064.000000,0.000000,4.000000,,,,0.000000,4.000000,4.000000,4.000000,4.000000,4.000000,4.000000,4.000000,4.000000,4.000000,4.000000,4.000000,4.000000,4.000000,4.000000,4.000000,4.000000,4.000000,4.000000,4.000000,4.000000,4.000000,4.000000,4.000000,4.000000,4.000000,4.000000,4.000000,4.000000,4.000000,4.000000,4.000000,4.000000,100.000000
1615603822.911144,42.000000,0.000000,6.386673,9.142059,-0.216075,3.439557,-1.528092,2.828894,2.906988,3.253125,9.616847,6.476626,-2.819164,7.367238,9.686503,6.302874,6.001164,18.482037,7.244070,11.364349,28.566484,2.369248,4.381531,-3.063166,4.622287,2.432777,2.066413,5.145900,9.010292,1.725600,5.981748,9.741046,16.156010,6.395290,8064.000000,0.000000,4.000000,,,,0.000000,4.000000,4.000000,4.000000,4.000000,4.000000,4.000000,4.000000,4.000000,4.000000,4.000000,4.000000,4.000000,4.000000,4.000000,4.000000,4.000000,4.000000,4.000000,4.000000,4.000000,4.000000,4.000000,4.000000,4.000000,4.000000,4.000000,4.000000,4.000000,4.000000,4.000000,4.000000,4.000000,100.000000
1615603822.918893,43.000000,0.000000,6.380287,9.645739,5.425166,0.359194,-2.039384,2.826065,2.904081,2.224231,7.555948,4.931688,-2.303524,7.359871,7.112714,6.809391,-2.209965,16.412273,7.749646,-1.980348,30.589201,-1.222865,6.941252,-1.008820,4.617665,6.020088,1.038706,4.627934,9.001282,0.698233,5.975766,6.141561,16.139854,4.337613,8064.000000,0.000000,4.000000,,,,0.000000,4.000000,4.000000,4.000000,4.000000,4.000000,4.000000,4.000000,4.000000,4.000000,4.000000,4.000000,4.000000,4.000000,4.000000,4.000000,4.000000,4.000000,4.000000,4.000000,4.000000,4.000000,4.000000,4.000000,4.000000,4.000000,4.000000,4.000000,4.000000,4.000000,4.000000,4.000000,4.000000,100.000000
1615603822.926543,44.000000,0.000000,6.373906,8.610452,13.624869,4.974220,-1.524524,2.823239,11.106305,2.734828,12.163776,6.978039,-0.249939,7.352511,7.105601,6.289762,5.484552,17.934322,10.305999,13.919068,49.532970,-1.734462,10.524055,9.761419,6.151509,3.449965,1.037667,4.110486,8.992280,0.697535,5.969790,8.699522,16.123714,5.358916,8064.000000,0.000000,4.000000,,,,0.000000,4.000000,4.000000,4.000000,4.000000,4.000000,4.000000,4.000000,4.000000,4.000000,4.000000,4.000000,4.000000,4.000000,4.000000,4.000000,4.000000,4.000000,4.000000,4.000000,4.000000,4.000000,4.000000,4.000000,4.000000,4.000000,4.000000,4.000000,4.000000,4.000000,4.000000,4.000000,4.000000,100.000000
1615603822.934392,45.000000,0.000000,6.367532,7.063379,14.636886,8.046168,1.041103,2.820415,21.864429,2.732093,15.228536,9.022343,1.801593,7.857979,7.611316,9.873216,16.248299,21.506132,11.834154,32.366688,56.662926,9.549323,24.359684,20.008068,9.222281,4.984977,2.062271,5.132016,9.496108,1.209658,6.989461,11.254925,14.569129,5.353557,8064.000000,0.000000,4.000000,,,,0.000000,4.000000,4.000000,4.000000,4.000000,4.000000,4.000000,4.000000,4.000000,4.000000,4.000000,4.000000,4.000000,4.000000,4.000000,4.000000,4.000000,4.000000,4.000000,4.000000,4.000000,4.000000,4.000000,4.000000,4.000000,4.000000,4.000000,4.000000,4.000000,4.000000,4.000000,4.000000,4.000000,100.000000
1615603822.942142,46.000000,0.000000,6.361165,5.517855,14.109428,4.448379,2.578523,2.817595,23.381027,2.729361,14.187667,9.013320,1.799792,7.337301,8.116526,11.914624,17.770512,25.587189,11.309500,27.206116,58.144722,23.385927,34.591736,22.552162,9.725879,11.646659,2.573029,5.639704,9.486612,1.721269,5.956831,8.166747,12.503278,5.348204,8064.000000,0.000000,4.000000,,,,0.000000,4.000000,4.000000,4.000000,4.000000,4.000000,4.000000,4.000000,4.000000,4.000000,4.000000,4.000000,4.000000,4.000000,4.000000,4.000000,4.000000,4.000000,4.000000,4.000000,4.000000,4.000000,4.000000,4.000000,4.000000,4.000000,4.000000,4.000000,4.000000,4.000000,4.000000,4.000000,4.000000,100.000000
1615603822.949891,47.000000,0.000000,6.354804,4.486696,15.633780,3.418289,2.575945,2.814777,21.306364,2.726631,13.660658,9.004307,0.772351,7.842784,7.595588,8.825787,15.701459,25.048782,11.298190,19.999422,49.881451,21.311260,25.839195,18.427046,8.690512,14.199115,2.057635,4.608424,8.964305,1.719548,3.899592,6.107298,13.003595,5.342855,8064.000000,0.000000,4.000000,,,,0.000000,4.000000,4.000000,4.000000,4.000000,4.000000,4.000000,4.000000,4.000000,4.000000,4.000000,4.000000,4.000000,4.000000,4.000000,4.000000,4.000000,4.000000,4.000000,4.000000,4.000000,4.000000,4.000000,4.000000,4.000000,4.000000,4.000000,4.000000,4.000000,4.000000,4.000000,4.000000,4.000000,100.000000
1615603822.957541,48.000000,0.000000,6.348449,7.046311,11.002762,4.440512,2.573369,2.811963,23.336340,3.236725,15.185459,7.456841,1.797220,8.347761,7.587993,4.201576,18.249861,25.536554,11.286892,20.492243,24.703363,6.930974,17.608227,16.357338,9.707462,12.133634,1.029937,5.116636,9.468162,1.205008,3.382872,8.152472,13.503412,5.850333,8064.000000,0.000000,4.000000,,,,0.000000,4.000000,4.000000,4.000000,4.000000,4.000000,4.000000,4.000000,4.000000,4.000000,4.000000,4.000000,4.000000,4.000000,4.000000,4.000000,4.000000,4.000000,4.000000,4.000000,4.000000,4.000000,4.000000,4.000000,4.000000,4.000000,4.000000,4.000000,4.000000,4.000000,4.000000,4.000000,4.000000,100.000000
1615603822.965390,49.000000,0.000000,6.854921,8.577726,4.837913,2.897610,1.545154,3.321971,20.236080,3.233488,14.657454,5.910923,2.308243,4.236850,8.093225,3.171733,18.231611,27.049479,11.275605,20.471752,19.037634,2.308659,15.026516,14.802518,9.184934,13.659962,3.080189,6.137160,9.971514,2.229444,-0.723075,3.528936,11.951447,5.331662,8064.000000,0.000000,4.000000,,,,0.000000,4.000000,4.000000,4.000000,4.000000,4.000000,4.000000,4.000000,4.000000,4.000000,4.000000,4.000000,4.000000,4.000000,4.000000,4.000000,4.000000,4.000000,4.000000,4.000000,4.000000,4.000000,4.000000,4.000000,4.000000,4.000000,4.000000,4.000000,4.000000,4.000000,4.000000,4.000000,4.000000,100.000000
1615603822.973140,50.000000,0.000000,5.309605,1.902482,3.294613,-0.695031,-0.507673,1.780188,12.523536,0.153332,11.053052,5.392191,-3.335091,0.642869,5.521029,0.604459,10.008250,19.330122,11.264330,17.374357,40.557060,5.383273,1.165336,6.069767,1.996262,13.133481,0.000185,1.002818,3.294876,0.688753,-4.824916,-5.705362,10.913855,1.223767,8064.000000,0.000000,4.000000,,,,0.000000,4.000000,4.000000,4.000000,4.000000,4.000000,4.000000,4.000000,4.000000,4.000000,4.000000,4.000000,4.000000,4.000000,4.000000,4.000000,4.000000,4.000000,4.000000,4.000000,4.000000,4.000000,4.000000,4.000000,4.000000,4.000000,4.000000,4.000000,4.000000,4.000000,4.000000,4.000000,4.000000,100.000000
1615603822.980989,51.000000,0.000000,3.253013,-6.304548,1.752857,-3.258439,-2.045627,-0.272875,9.434090,-4.462206,4.888153,0.258594,-9.998423,0.129406,1.412944,-8.114094,1.793114,5.977458,11.253065,2.485188,36.413937,-6.929802,-14.220445,-4.192713,-5.185222,-0.212986,-14.871610,-9.254595,-4.913548,-5.465782,-4.820091,-8.776580,6.800377,-3.905662,8064.000000,0.000000,4.000000,,,,0.000000,4.000000,4.000000,4.000000,4.000000,4.000000,4.000000,4.000000,4.000000,4.000000,4.000000,4.000000,4.000000,4.000000,4.000000,4.000000,4.000000,4.000000,4.000000,4.000000,4.000000,4.000000,4.000000,4.000000,4.000000,4.000000,4.000000,4.000000,4.000000,4.000000,4.000000,4.000000,4.000000,100.000000
1615603822.988739,52.000000,0.000000,2.224119,-6.298244,-3.377101,-3.768001,-4.094863,-1.298243,10.450296,-5.483385,2.319162,-5.382690,-10.501245,-2.947647,-0.639751,-16.311108,0.765680,0.843275,11.241813,-15.978836,4.069831,-30.512617,-16.257507,-6.752623,-6.718498,-14.571747,-26.138790,-14.373546,-6.447095,-10.588521,-8.405015,-7.742162,-2.437193,-5.953039,8064.000000,0.000000,4.000000,,,,0.000000,4.000000,4.000000,4.000000,4.000000,4.000000,4.000000,4.000000,4.000000,4.000000,4.000000,4.000000,4.000000,4.000000,4.000000,4.000000,4.000000,4.000000,4.000000,4.000000,4.000000,4.000000,4.000000,4.000000,4.000000,4.000000,4.000000,4.000000,4.000000,4.000000,4.000000,4.000000,4.000000,100.000000
1615603822.996588,53.000000,0.000000,2.734715,-5.266304,-5.425006,-3.764233,-5.629230,-1.296944,10.439846,-4.965081,2.829664,-4.351666,-8.952282,-7.047263,-0.639111,-19.371719,2.303376,2.380893,10.717750,-10.834652,-5.165008,-30.994925,-15.728429,-5.720229,-5.686138,-19.685381,-21.497267,-13.846352,-5.927828,-10.065112,-16.088917,-9.272882,-10.127063,-5.434265,8064.000000,0.000000,4.000000,,,,0.000000,4.000000,4.000000,4.000000,4.000000,4.000000,4.000000,4.000000,4.000000,4.000000,4.000000,4.000000,4.000000,4.000000,4.000000,4.000000,4.000000,4.000000,4.000000,4.000000,4.000000,4.000000,4.000000,4.000000,4.000000,4.000000,4.000000,4.000000,4.000000,4.000000,4.000000,4.000000,4.000000,100.000000
1615603823.004338,54.000000,0.000000,2.731981,-6.286679,-3.881119,-3.760469,-5.623600,-0.782827,10.429406,-4.960116,3.339654,-2.296033,-10.481791,-5.501754,0.387169,-19.352348,1.788252,5.455436,11.219852,5.073618,16.378618,-2.245981,-10.071674,-5.714509,-6.193273,-16.588772,-13.783461,-13.319685,-4.896259,-9.029407,-16.072828,-12.340532,-10.116936,-5.428831,8064.000000,0.000000,4.000000,,,,0.000000,4.000000,4.000000,4.000000,4.000000,4.000000,4.000000,4.000000,4.000000,4.000000,4.000000,4.000000,4.000000,4.000000,4.000000,4.000000,4.000000,4.000000,4.000000,4.000000,4.000000,4.000000,4.000000,4.000000,4.000000,4.000000,4.000000,4.000000,4.000000,4.000000,4.000000,4.000000,4.000000,100.000000
1615603823.012187,55.000000,0.000000,2.729249,-5.254752,-3.877238,-3.243888,-5.617977,-1.294865,10.418977,-4.955156,2.310674,-3.319378,-10.471310,-3.444970,-0.126039,-18.820175,0.760823,5.449980,11.208632,3.017263,30.208393,12.628060,6.861474,-1.093410,-6.699900,-9.392696,-13.256857,-13.819185,-0.788799,-10.558839,-9.390089,-11.815371,-7.029896,-5.936223,8064.000000,0.000000,4.000000,,,,0.000000,4.000000,4.000000,4.000000,4.000000,4.000000,4.000000,4.000000,4.000000,4.000000,4.000000,4.000000,4.000000,4.000000,4.000000,4.000000,4.000000,4.000000,4.000000,4.000000,4.000000,4.000000,4.000000,4.000000,4.000000,4.000000,4.000000,4.000000,4.000000,4.000000,4.000000,4.000000,4.000000,100.000000
1615603823.019937,56.000000,0.000000,2.726519,-6.275138,-4.386181,-4.266285,-5.099539,-1.293570,10.921378,-5.463021,3.846825,-1.264776,-5.845453,-2.928705,-1.151554,-19.314177,2.298523,5.444530,10.684604,-3.139601,25.049980,1.846201,19.162306,5.061530,-4.641918,-2.716637,-9.653856,-13.805367,2.288913,-9.009818,-7.842237,-9.239453,-6.510046,-5.930286,8064.000000,0.000000,4.000000,,,,0.000000,4.000000,4.000000,4.000000,4.000000,4.000000,4.000000,4.000000,4.000000,4.000000,4.000000,4.000000,4.000000,4.000000,4.000000,4.000000,4.000000,4.000000,4.000000,4.000000,4.000000,4.000000,4.000000,4.000000,4.000000,4.000000,4.000000,4.000000,4.000000,4.000000,4.000000,4.000000,4.000000,100.000000
1615603823.027786,57.000000,0.000000,2.723793,-5.243222,-4.381795,-4.262019,-2.530336,0.759006,13.474560,-1.354994,7.945542,0.787770,-1.737044,-1.387315,3.977803,-18.269220,9.988533,15.695496,11.186740,8.658411,25.537750,5.946919,20.168783,6.082109,-0.021891,-2.201100,-2.977536,-13.791561,1.773804,-3.872603,-8.860036,-7.178932,-3.426613,-5.411536,8064.000000,0.000000,4.000000,,,,0.000000,4.000000,4.000000,4.000000,4.000000,4.000000,4.000000,4.000000,4.000000,4.000000,4.000000,4.000000,4.000000,4.000000,4.000000,4.000000,4.000000,4.000000,4.000000,4.000000,4.000000,4.000000,4.000000,4.000000,4.000000,4.000000,4.000000,4.000000,4.000000,4.000000,4.000000,4.000000,4.000000,100.000000
1615603823.035536,58.000000,0.000000,2.721069,3.479970,-4.377413,0.870449,-0.989345,4.860811,14.999547,6.851489,11.527340,1.812624,-2.760948,0.665355,16.281517,-9.020183,19.209312,28.500313,14.252476,21.470264,44.486572,31.069178,20.148615,7.101668,2.542233,0.365204,-0.410456,-13.264949,1.772030,-1.304628,-8.338356,-7.684573,0.679378,-5.406124,8064.000000,0.000000,4.000000,,,,0.000000,4.000000,4.000000,4.000000,4.000000,4.000000,4.000000,4.000000,4.000000,4.000000,4.000000,4.000000,4.000000,4.000000,4.000000,4.000000,4.000000,4.000000,4.000000,4.000000,4.000000,4.000000,4.000000,4.000000,4.000000,4.000000,4.000000,4.000000,4.000000,4.000000,4.000000,4.000000,4.000000,100.000000
1615603823.043385,59.000000,0.000000,2.718348,10.655977,-3.860215,4.972142,-1.501176,6.907232,14.471726,11.460022,11.002992,7.451837,-1.732546,0.664689,20.880621,1.758069,21.241386,25.907711,15.776685,20.423153,55.724136,34.627853,16.025902,9.658669,1.514050,8.057146,-1.435686,-13.251684,2.283078,-2.328964,-8.330017,-7.676888,2.217160,-5.913538,8192.000000,0.000000,4.000000,,,,0.000000,4.000000,4.000000,4.000000,4.000000,4.000000,4.000000,4.000000,4.000000,4.000000,4.000000,4.000000,4.000000,4.000000,4.000000,4.000000,4.000000,4.000000,4.000000,4.000000,4.000000,4.000000,4.000000,4.000000,4.000000,4.000000,4.000000,4.000000,4.000000,4.000000,4.000000,4.000000,4.000000,100.000000
1615603823.051135,60.000000,0.000000,2.715630,8.081219,-3.856355,2.915888,-1.499675,6.900325,14.970076,10.422921,9.453527,13.598231,5.448674,0.664025,15.731535,4.833234,20.194504,22.292059,14.735268,16.812986,38.745335,12.541942,9.856030,10.161831,1.512536,10.613192,-1.947071,-13.751253,1.767975,-2.839456,-7.808867,-3.566648,2.214943,-4.369164,8064.000000,0.000000,4.000000,,,,0.000000,4.000000,4.000000,4.000000,4.000000,4.000000,4.000000,4.000000,4.000000,4.000000,4.000000,4.000000,4.000000,4.000000,4.000000,4.000000,4.000000,4.000000,4.000000,4.000000,4.000000,4.000000,4.000000,4.000000,4.000000,4.000000,4.000000,4.000000,4.000000,4.000000,4.000000,4.000000,4.000000,100.000000
1615603823.058984,61.000000,0.000000,2.712914,6.021856,-1.801217,7.528357,-1.498175,6.380604,14.442285,9.899677,11.495356,12.558991,10.058610,0.150540,14.690163,2.777118,21.712770,27.910793,14.720532,17.821815,25.373257,4.837092,7.794892,6.049105,2.536664,6.500015,-1.945124,-11.686219,1.766207,-1.298155,-3.185673,1.565124,4.264010,1.276232,8064.000000,0.000000,4.000000,,,,0.000000,4.000000,4.000000,4.000000,4.000000,4.000000,4.000000,4.000000,4.000000,4.000000,4.000000,4.000000,4.000000,4.000000,4.000000,4.000000,4.000000,4.000000,4.000000,4.000000,4.000000,4.000000,4.000000,4.000000,4.000000,4.000000,4.000000,4.000000,4.000000,4.000000,4.000000,4.000000,4.000000,100.000000
1615603823.066734,62.000000,0.000000,2.710201,9.092757,2.815969,17.777239,-1.496677,6.887044,14.427842,11.428240,16.099245,8.443869,9.535730,0.150390,16.726755,0.723059,19.639776,24.805960,14.705812,14.214250,40.219677,13.550204,3.684533,-0.623611,0.995666,3.416591,-1.430359,-6.546328,1.764441,0.754425,-0.105565,2.589200,5.798208,6.403161,8064.000000,0.000000,4.000000,,,,0.000000,4.000000,4.000000,4.000000,4.000000,4.000000,4.000000,4.000000,4.000000,4.000000,4.000000,4.000000,4.000000,4.000000,4.000000,4.000000,4.000000,4.000000,4.000000,4.000000,4.000000,4.000000,4.000000,4.000000,4.000000,4.000000,4.000000,4.000000,4.000000,4.000000,4.000000,4.000000,4.000000,100.000000
1615603823.074383,63.000000,0.000000,2.707491,10.622126,6.915717,17.759462,-0.982360,6.880157,15.439055,8.852709,15.570326,8.435425,7.987733,1.175880,7.479259,-5.944330,12.440649,11.960640,5.973157,9.071830,40.179459,-0.822320,-4.011459,-10.366577,-1.569432,6.490098,-3.480210,-5.001320,1.762676,1.779312,-1.131100,0.022508,5.279589,6.396757,8064.000000,0.000000,4.000000,,,,0.000000,4.000000,4.000000,4.000000,4.000000,4.000000,4.000000,4.000000,4.000000,4.000000,4.000000,4.000000,4.000000,4.000000,4.000000,4.000000,4.000000,4.000000,4.000000,4.000000,4.000000,4.000000,4.000000,4.000000,4.000000,4.000000,4.000000,4.000000,4.000000,4.000000,4.000000,4.000000,4.000000,100.000000
1615603823.082133,64.000000,0.000000,2.704783,9.073042,7.934443,9.536573,-2.007018,5.847636,12.346694,2.690010,10.939370,9.965451,2.851541,-3.953501,-6.374375,-15.681976,6.274362,8.358935,-8.391790,8.549938,7.831587,-33.129192,-9.135653,-19.074160,-3.619145,3.919505,-7.066473,-6.534781,1.760913,1.264712,-1.129969,-0.490335,5.274310,3.313437,0.000000,188.000000,4.000000,,,,0.000000,4.000000,4.000000,4.000000,4.000000,4.000000,4.000000,4.000000,4.000000,4.000000,4.000000,4.000000,4.000000,4.000000,4.000000,4.000000,4.000000,4.000000,4.000000,4.000000,4.000000,4.000000,4.000000,4.000000,4.000000,4.000000,4.000000,4.000000,4.000000,4.000000,4.000000,4.000000,4.000000,100.000000
1615603823.089782,65.000000,0.000000,2.702079,7.012687,5.875226,5.937294,-4.569114,3.277685,5.667680,-1.415244,9.902790,6.365742,-6.382080,-11.129034,-7.906462,-19.768858,5.242447,10.401859,-12.485963,9.054209,-2.432655,-32.583241,-8.100876,-13.926880,-5.153987,-7.366466,-2.956843,-5.502605,1.759153,1.776268,-0.616018,0.022976,5.269035,1.771662,0.000000,191.000000,4.000000,,,,0.000000,4.000000,4.000000,4.000000,4.000000,4.000000,4.000000,4.000000,4.000000,4.000000,4.000000,4.000000,4.000000,4.000000,4.000000,4.000000,4.000000,4.000000,4.000000,4.000000,4.000000,4.000000,4.000000,4.000000,4.000000,4.000000,4.000000,4.000000,4.000000,4.000000,4.000000,4.000000,4.000000,100.000000
1615603823.097531,66.000000,0.000000,2.699377,5.980033,3.818069,2.341613,-5.590186,2.248767,2.585089,-1.413829,9.380067,-0.820111,-10.478262,-8.040982,-0.719068,-18.723448,5.750025,9.365816,-3.755528,9.045155,23.210804,0.269855,2.676455,3.522944,-5.661654,-5.307817,5.764062,-2.420179,2.270214,0.748851,-2.666684,0.022953,5.263766,3.308352,0.000000,210.000000,4.000000,,,,0.000000,4.000000,4.000000,4.000000,4.000000,4.000000,4.000000,4.000000,4.000000,4.000000,4.000000,4.000000,4.000000,4.000000,4.000000,4.000000,4.000000,4.000000,4.000000,4.000000,4.000000,4.000000,4.000000,4.000000,4.000000,4.000000,4.000000,4.000000,4.000000,4.000000,4.000000,4.000000,4.000000,100.000000
1615603823.105181,67.000000,0.000000,2.696677,4.435592,3.814251,-3.301754,-4.558954,2.759339,3.608145,-1.412415,6.806584,-3.383394,-9.442143,-0.340634,-0.205529,-18.704725,4.205813,13.459014,0.350791,9.036109,31.392721,11.551637,14.468651,14.288652,-6.168813,13.159029,4.219837,-1.392118,1.755123,-1.816001,-4.715300,-0.489890,5.258502,-0.797520,0.000000,191.000000,4.000000,,,,0.000000,4.000000,4.000000,4.000000,4.000000,4.000000,4.000000,4.000000,4.000000,4.000000,4.000000,4.000000,4.000000,4.000000,4.000000,4.000000,4.000000,4.000000,4.000000,4.000000,4.000000,4.000000,4.000000,4.000000,4.000000,4.000000,4.000000,4.000000,4.000000,4.000000,4.000000,4.000000,4.000000,100.000000
1615603823.112930,68.000000,0.000000,2.693980,2.379874,3.810436,-4.324094,-5.580037,2.756579,3.604537,-0.898182,6.286957,-0.303087,-9.432701,0.685348,-0.205323,-19.198841,5.740069,20.625042,-1.188021,9.027073,23.669022,-9.485556,16.505465,13.248723,-5.137003,16.735615,-1.938229,-2.929187,1.753368,-2.327005,-4.710585,-0.489400,5.253244,-5.924928,0.000000,191.000000,4.000000,,,,0.000000,4.000000,4.000000,4.000000,4.000000,4.000000,4.000000,4.000000,4.000000,4.000000,4.000000,4.000000,4.000000,4.000000,4.000000,4.000000,4.000000,4.000000,4.000000,4.000000,4.000000,4.000000,4.000000,4.000000,4.000000,4.000000,4.000000,4.000000,4.000000,4.000000,4.000000,4.000000,4.000000,100.000000
1615603823.120580,69.000000,0.000000,3.204107,1.351853,3.293805,-0.730026,-4.548815,2.753823,3.088112,1.666818,6.793491,1.235678,-9.936089,-0.340978,7.487190,-14.564257,13.939457,22.655699,5.992654,12.607790,41.081249,0.780340,15.976138,13.748295,0.509160,7.488109,2.679094,-1.387797,2.777256,-2.324678,-4.193053,0.023910,5.247991,2.286125,0.000000,195.000000,4.000000,,,,0.000000,4.000000,4.000000,4.000000,4.000000,4.000000,4.000000,4.000000,4.000000,4.000000,4.000000,4.000000,4.000000,4.000000,4.000000,4.000000,4.000000,4.000000,4.000000,4.000000,4.000000,4.000000,4.000000,4.000000,4.000000,4.000000,4.000000,4.000000,4.000000,4.000000,4.000000,4.000000,4.000000,100.000000
1615603823.128329,70.000000,0.000000,3.200903,1.863322,3.803332,0.296345,-0.954523,2.751069,3.597845,3.203613,6.786697,0.721621,-9.413332,0.685004,12.095087,-6.344564,18.540903,21.607403,15.217431,19.261848,65.655556,33.087254,17.498623,15.273007,1.534292,13.121647,5.753338,1.690514,1.748837,-2.322354,-4.701681,-1.001755,5.242743,8.950506,0.000000,184.000000,4.000000,,,,0.000000,4.000000,4.000000,4.000000,4.000000,4.000000,4.000000,4.000000,4.000000,4.000000,4.000000,4.000000,4.000000,4.000000,4.000000,4.000000,4.000000,4.000000,4.000000,4.000000,4.000000,4.000000,4.000000,4.000000,4.000000,4.000000,4.000000,4.000000,4.000000,4.000000,4.000000,4.000000,4.000000,100.000000
1615603823.135978,71.000000,0.000000,2.684881,1.861458,2.773888,-0.216772,-1.979210,2.748318,3.594247,2.687589,6.779911,1.233720,-9.916739,0.684319,11.570171,-0.184374,14.932618,25.175539,14.176573,21.293869,62.512974,26.900318,9.275997,10.642350,-4.108268,21.826473,-4.508826,-3.439381,-3.381116,-2.320031,-4.696979,-3.052036,5.237500,-2.340496,0.000000,210.000000,4.000000,,,,0.000000,4.000000,4.000000,4.000000,4.000000,4.000000,4.000000,4.000000,4.000000,4.000000,4.000000,4.000000,4.000000,4.000000,4.000000,4.000000,4.000000,4.000000,4.000000,4.000000,4.000000,4.000000,4.000000,4.000000,4.000000,4.000000,4.000000,4.000000,4.000000,4.000000,4.000000,4.000000,4.000000,100.000000
1615603823.143728,72.000000,0.000000,3.195017,1.859597,-1.331450,0.296265,-6.592615,2.745569,3.590652,3.197722,6.773130,1.232487,-9.394002,0.683634,11.558601,1.867093,17.994608,33.868313,12.111114,20.246933,49.629948,4.309316,-0.989689,3.965041,-5.642622,10.522596,-13.735086,-13.179532,-5.941838,-3.856173,-4.179462,-4.587445,5.232263,-9.517643,0.000000,204.000000,4.000000,,,,0.000000,4.000000,4.000000,4.000000,4.000000,4.000000,4.000000,4.000000,4.000000,4.000000,4.000000,4.000000,4.000000,4.000000,4.000000,4.000000,4.000000,4.000000,4.000000,4.000000,4.000000,4.000000,4.000000,4.000000,4.000000,4.000000,4.000000,4.000000,4.000000,4.000000,4.000000,4.000000,4.000000,100.000000
1615603823.151377,73.000000,0.000000,2.679002,1.857737,-5.432683,0.295969,-9.662946,2.742824,3.587062,1.656063,6.766357,1.231254,-8.871787,0.170130,11.034223,-1.724518,23.617640,31.270342,10.047721,20.226686,37.272625,2.766545,-5.091264,-5.269693,-6.662620,-2.821260,-13.721352,-14.704814,-5.423076,-5.903599,-4.175282,-4.070037,5.227030,-1.302997,0.000000,183.000000,4.000000,,,,0.000000,4.000000,4.000000,4.000000,4.000000,4.000000,4.000000,4.000000,4.000000,4.000000,4.000000,4.000000,4.000000,4.000000,4.000000,4.000000,4.000000,4.000000,4.000000,4.000000,4.000000,4.000000,4.000000,4.000000,4.000000,4.000000,4.000000,4.000000,4.000000,4.000000,4.000000,4.000000,4.000000,100.000000
1615603823.159126,74.000000,0.000000,-1.426242,1.855880,-4.401609,0.295673,-9.140462,2.740081,3.070654,-0.909696,6.759591,0.717202,-12.452660,-1.881322,6.407804,-8.902281,9.747868,11.751891,-3.295660,16.103895,9.030225,-6.979812,-16.881044,-23.725962,-13.322624,-3.844080,-13.707630,-13.664468,-8.494576,-6.410516,-6.735209,-4.578788,5.221803,3.826511,0.000000,187.000000,4.000000,,,,0.000000,4.000000,4.000000,4.000000,4.000000,4.000000,4.000000,4.000000,4.000000,4.000000,4.000000,4.000000,4.000000,4.000000,4.000000,4.000000,4.000000,4.000000,4.000000,4.000000,4.000000,4.000000,4.000000,4.000000,4.000000,4.000000,4.000000,4.000000,4.000000,4.000000,4.000000,4.000000,4.000000,100.000000
1615603823.166776,75.000000,0.000000,-5.527380,1.854024,-3.371567,0.295378,-8.618501,2.737341,3.580404,-1.421607,6.752831,0.716485,-13.978668,-3.417902,3.324473,-11.970302,-9.236239,0.970909,-11.497493,7.882664,-13.542908,-29.536934,-28.146215,-29.856083,-12.796481,-6.404338,-13.181102,-13.650804,-8.998901,-5.891284,-8.779757,-4.061388,5.216581,-0.792700,0.000000,202.000000,4.000000,,,,0.000000,4.000000,4.000000,4.000000,4.000000,4.000000,4.000000,4.000000,4.000000,4.000000,4.000000,4.000000,4.000000,4.000000,4.000000,4.000000,4.000000,4.000000,4.000000,4.000000,4.000000,4.000000,4.000000,4.000000,4.000000,4.000000,4.000000,4.000000,4.000000,4.000000,4.000000,4.000000,4.000000,100.000000
1615603823.174525,76.000000,0.000000,-5.009032,1.852170,-5.419477,0.295082,-9.635524,2.734604,4.089644,-0.907365,6.746078,1.741410,-5.759561,-3.927305,3.321148,-10.932691,-4.611618,13.790451,-2.768047,4.797858,-0.196032,-23.353552,-11.707812,-11.877508,-3.552915,-11.013319,-13.680741,-13.124332,-2.836056,-5.885393,-8.258156,-1.493224,4.698544,-3.356009,0.000000,186.000000,4.000000,,,,0.000000,4.000000,4.000000,4.000000,4.000000,4.000000,4.000000,4.000000,4.000000,4.000000,4.000000,4.000000,4.000000,4.000000,4.000000,4.000000,4.000000,4.000000,4.000000,4.000000,4.000000,4.000000,4.000000,4.000000,4.000000,4.000000,4.000000,4.000000,4.000000,4.000000,4.000000,4.000000,4.000000,100.000000
1615603823.182174,77.000000,0.000000,-1.927099,1.850318,-2.849955,0.294787,-9.113068,2.731869,3.059914,-0.906457,6.739333,3.278130,1.425686,-3.410557,3.830647,-11.434578,8.726327,22.494610,4.414208,6.844342,20.829805,1.285187,13.432101,4.544626,-0.472439,-4.848459,-13.154240,-11.059926,-1.807579,-6.392328,-7.737077,-0.466090,5.719487,-1.301372,0.000000,199.000000,4.000000,,,,0.000000,4.000000,4.000000,4.000000,4.000000,4.000000,4.000000,4.000000,4.000000,4.000000,4.000000,4.000000,4.000000,4.000000,4.000000,4.000000,4.000000,4.000000,4.000000,4.000000,4.000000,4.000000,4.000000,4.000000,4.000000,4.000000,4.000000,4.000000,4.000000,4.000000,4.000000,4.000000,4.000000,100.000000
1615603823.190024,78.000000,0.000000,-0.899531,1.848467,5.358023,0.294492,-5.514211,2.729137,3.569674,-0.905551,6.219773,4.813313,1.937080,-1.868685,3.313996,-9.884682,9.230421,18.882370,3.896974,8.888780,25.424360,11.540312,21.623796,6.078543,-1.497608,6.438441,-3.397496,-4.895020,-1.292951,-5.873116,-8.754981,0.560017,7.765049,3.315315,0.000000,193.000000,4.000000,,,,0.000000,4.000000,4.000000,4.000000,4.000000,4.000000,4.000000,4.000000,4.000000,4.000000,4.000000,4.000000,4.000000,4.000000,4.000000,4.000000,4.000000,4.000000,4.000000,4.000000,4.000000,4.000000,4.000000,4.000000,4.000000,4.000000,4.000000,4.000000,4.000000,4.000000,4.000000,4.000000,4.000000,100.000000
1615603823.197774,79.000000,0.000000,-1.411452,1.846619,12.019332,0.294198,-1.406133,2.726408,8.694309,-0.904645,6.726374,8.911064,8.601810,0.184466,3.823503,-1.156849,10.246832,28.607079,12.611026,16.572199,40.270729,13.580053,30.832943,16.328875,2.606454,14.124310,13.528978,9.468850,11.528854,-3.815960,-4.130842,2.610739,9.295746,5.876101,0.000000,197.000000,4.000000,,,,0.000000,4.000000,4.000000,4.000000,4.000000,4.000000,4.000000,4.000000,4.000000,4.000000,4.000000,4.000000,4.000000,4.000000,4.000000,4.000000,4.000000,4.000000,4.000000,4.000000,4.000000,4.000000,4.000000,4.000000,4.000000,4.000000,4.000000,4.000000,4.000000,4.000000,4.000000,4.000000,4.000000,100.000000
1615603823.205623,80.000000,0.000000,-0.384400,-0.719330,11.494492,0.293904,-0.891906,2.723681,10.736897,-0.903741,9.283750,13.004717,17.311157,0.697102,3.819679,7.049437,19.980175,46.014370,24.393286,28.350498,68.435585,22.797243,42.596981,30.671520,7.732053,24.366596,20.182116,15.613227,16.132710,-1.760862,3.565597,3.633769,8.773629,4.331764,0.000000,173.000000,4.000000,,,,0.000000,4.000000,4.000000,4.000000,4.000000,4.000000,4.000000,4.000000,4.000000,4.000000,4.000000,4.000000,4.000000,4.000000,4.000000,4.000000,4.000000,4.000000,4.000000,4.000000,4.000000,4.000000,4.000000,4.000000,4.000000,4.000000,4.000000,4.000000,4.000000,4.000000,4.000000,4.000000,4.000000,100.000000
1615603823.213373,81.000000,0.000000,-1.409656,-2.257073,7.893254,0.293610,-1.403834,2.720958,7.136417,-0.902837,10.812927,10.427609,13.191281,0.183584,3.815860,8.580849,25.088400,43.917072,20.779150,31.911892,68.879974,28.928291,33.836437,28.076746,5.160218,30.496075,12.469626,3.289922,0.219142,-2.271922,2.023570,3.117315,8.764856,5.353073,0.000000,189.000000,4.000000,,,,0.000000,4.000000,4.000000,4.000000,4.000000,4.000000,4.000000,4.000000,4.000000,4.000000,4.000000,4.000000,4.000000,4.000000,4.000000,4.000000,4.000000,4.000000,4.000000,4.000000,4.000000,4.000000,4.000000,4.000000,4.000000,4.000000,4.000000,4.000000,4.000000,4.000000,4.000000,4.000000,4.000000,100.000000
1615603823.221222,82.000000,0.000000,-6.023632,-1.741995,4.295617,0.293316,-0.889610,2.718237,3.026716,-0.901934,10.289294,5.288977,5.485783,0.696221,3.812044,7.033806,21.473568,31.052643,8.963498,28.290236,41.631607,22.232697,13.802599,13.689694,-5.101352,19.696348,-1.901818,-11.072343,-10.550308,-2.269650,-9.260506,3.114198,8.756091,6.886182,0.000000,211.000000,4.000000,,,,0.000000,4.000000,4.000000,4.000000,4.000000,4.000000,4.000000,4.000000,4.000000,4.000000,4.000000,4.000000,4.000000,4.000000,4.000000,4.000000,4.000000,4.000000,4.000000,4.000000,4.000000,4.000000,4.000000,4.000000,4.000000,4.000000,4.000000,4.000000,4.000000,4.000000,4.000000,4.000000,4.000000,100.000000
1615603823.228972,83.000000,0.000000,-8.581710,-2.765894,2.752860,0.293023,-0.888721,2.715519,3.536510,-0.901032,10.279005,4.258047,4.454656,0.182704,4.321053,4.462670,19.400812,26.406204,1.775048,27.236305,23.128435,7.851490,-2.108639,1.881133,-13.301379,2.240755,-15.233249,-13.625373,-9.001296,-1.754560,-12.328168,3.111084,8.747334,1.751091,0.000000,216.000000,4.000000,,,,0.000000,4.000000,4.000000,4.000000,4.000000,4.000000,4.000000,4.000000,4.000000,4.000000,4.000000,4.000000,4.000000,4.000000,4.000000,4.000000,4.000000,4.000000,4.000000,4.000000,4.000000,4.000000,4.000000,4.000000,4.000000,4.000000,4.000000,4.000000,4.000000,4.000000,4.000000,4.000000,4.000000,100.000000
