title:28, start timestamp:1615604040.893700, stop timestamp:1615604086.853214, headset type:EPOCFLEX, headset serial:F00001ED, headset firmware:f12, subject name:s18, channels:75, sampling rate:128, samples:5930      , version:2.0
Timestamp,EEG.Counter,EEG.Interpolated,EEG.Cz,EEG.Fz,EEG.Fp1,EEG.AF3,EEG.F7,EEG.F3,EEG.FC1,EEG.C3,EEG.FC5,EEG.T7,EEG.CP5,EEG.CP1,EEG.P3,EEG.P7,EEG.PO3,EEG.O1,EEG.Pz,EEG.Oz,EEG.O2,EEG.PO4,EEG.P8,EEG.P4,EEG.CP2,EEG.CP6,EEG.T8,EEG.FC6,EEG.C4,EEG.FC2,EEG.F4,EEG.F8,EEG.AF4,EEG.Fp2,EEG.HighBitFlex,EEG.RawCq,EEG.Battery,MarkerIndex,MarkerType,MarkerValueInt,EEG.MarkerHardware,CQ.Cz,CQ.Fz,CQ.Fp1,CQ.AF3,CQ.F7,CQ.F3,CQ.FC1,CQ.C3,CQ.FC5,CQ.T7,CQ.CP5,CQ.CP1,CQ.P3,CQ.P7,CQ.PO3,CQ.O1,CQ.Pz,CQ.Oz,CQ.O2,CQ.PO4,CQ.P8,CQ.P4,CQ.CP2,CQ.CP6,CQ.T8,CQ.FC6,CQ.C4,CQ.FC2,CQ.F4,CQ.F8,CQ.AF4,CQ.Fp2,CQ.Overall
1615604040.893700,4.000000,0.000000,1.492112,-3.719746,5.288408,0.878759,5.729677,-0.308126,-3.850398,-1.831928,-3.810395,23.268429,16.666651,0.455052,-4.421647,5.048963,12.497599,19.463743,-11.953284,-10.140414,66.406410,18.791977,7.233075,13.288887,-2.238102,-0.586825,-0.326161,-1.936239,-3.339541,2.219167,4.177822,-17.833500,0.921921,-47.419590,0.000000,191.000000,4.000000,,,,0.000000,4.000000,4.000000,4.000000,4.000000,4.000000,4.000000,4.000000,4.000000,4.000000,4.000000,4.000000,4.000000,4.000000,4.000000,4.000000,4.000000,4.000000,2.000000,4.000000,4.000000,4.000000,4.000000,4.000000,4.000000,4.000000,4.000000,4.000000,4.000000,4.000000,4.000000,4.000000,4.000000,83.333336
1615604040.901553,5.000000,0.000000,0.977799,-3.203205,5.795940,6.518906,6.749588,-0.307817,-3.846547,0.221186,-3.293764,26.322084,21.265369,0.967418,-8.006968,4.018272,14.536384,17.392998,-15.531075,-16.284121,50.442570,-2.765277,4.661739,4.557650,-3.261505,0.439403,0.186985,-2.447123,-1.797740,2.216948,12.378773,-10.636179,2.972281,-42.243965,0.000000,180.000000,4.000000,,,,0.000000,4.000000,4.000000,4.000000,4.000000,4.000000,4.000000,4.000000,4.000000,4.000000,4.000000,4.000000,4.000000,4.000000,4.000000,4.000000,4.000000,4.000000,2.000000,4.000000,4.000000,4.000000,4.000000,4.000000,4.000000,4.000000,4.000000,4.000000,4.000000,4.000000,4.000000,4.000000,4.000000,83.333336
1615604040.909305,6.000000,0.000000,-3.125742,-3.712823,5.790144,5.486746,7.255660,0.205311,-3.842701,-2.855958,-3.290471,17.577814,6.885129,-6.725857,-15.178449,-2.652412,7.342360,5.580732,-29.361698,-28.575529,33.469048,-17.121487,-4.060871,-16.472549,-6.847987,-0.586677,0.699619,-3.983137,-2.308763,2.214731,11.340753,-10.112722,4.507770,-43.227360,0.000000,165.000000,4.000000,,,,0.000000,4.000000,4.000000,4.000000,4.000000,4.000000,4.000000,4.000000,4.000000,4.000000,4.000000,4.000000,4.000000,4.000000,4.000000,4.000000,4.000000,4.000000,2.000000,4.000000,4.000000,4.000000,4.000000,4.000000,4.000000,4.000000,4.000000,4.000000,4.000000,4.000000,4.000000,4.000000,4.000000,83.333336
1615604040.917157,7.000000,0.000000,-6.712360,-2.683469,2.707431,5.481260,2.120199,-0.820535,-3.838858,-6.442845,-3.287180,10.380749,-2.352525,-14.924259,-17.727373,-8.803606,-2.921393,-9.296643,-40.614388,-34.700798,31.384296,-18.642826,-16.877323,-25.174025,-10.430882,-8.791219,-2.890824,-6.543257,-2.306454,2.212516,9.278130,-15.230815,1.939160,-45.748238,0.000000,197.000000,4.000000,,,,0.000000,4.000000,4.000000,4.000000,4.000000,4.000000,4.000000,4.000000,4.000000,4.000000,4.000000,4.000000,4.000000,4.000000,4.000000,4.000000,4.000000,4.000000,2.000000,4.000000,4.000000,4.000000,4.000000,4.000000,4.000000,4.000000,4.000000,4.000000,4.000000,4.000000,4.000000,4.000000,4.000000,83.333336
1615604040.924910,8.000000,0.000000,-7.218469,-0.116683,-1.910661,4.962958,-4.548588,-3.383817,-3.835019,-6.436403,-3.283893,9.344727,-0.811711,-12.858053,-16.684004,-10.333264,-5.482574,-11.851449,-40.573772,-33.640457,22.634964,-22.213926,-35.834805,-22.071928,-10.420452,-19.038837,-10.067421,-6.536714,-2.816968,1.697483,9.781672,-16.754045,-0.114061,-42.625565,0.000000,199.000000,4.000000,,,,0.000000,4.000000,4.000000,4.000000,4.000000,4.000000,4.000000,4.000000,4.000000,4.000000,4.000000,4.000000,4.000000,4.000000,4.000000,4.000000,4.000000,4.000000,2.000000,4.000000,4.000000,4.000000,4.000000,4.000000,4.000000,4.000000,4.000000,4.000000,4.000000,4.000000,4.000000,4.000000,4.000000,83.333336
1615604040.932762,9.000000,0.000000,-6.698430,0.909075,-1.908751,2.906713,-5.569681,-3.893254,-3.318364,-5.917146,-3.280609,10.361023,-1.323720,-7.204170,-16.667320,-10.322931,-1.887348,-4.660110,-29.251148,-33.606815,5.689252,-20.140430,-46.568199,-23.075497,-10.410031,-20.045441,-12.621456,-5.504536,-2.301331,2.208606,6.182147,-14.686009,0.398873,-41.044479,0.000000,197.000000,4.000000,,,,0.000000,4.000000,4.000000,4.000000,4.000000,4.000000,4.000000,4.000000,4.000000,4.000000,4.000000,4.000000,4.000000,4.000000,4.000000,4.000000,4.000000,4.000000,2.000000,4.000000,4.000000,4.000000,4.000000,4.000000,4.000000,4.000000,4.000000,4.000000,4.000000,4.000000,4.000000,4.000000,4.000000,83.333336
1615604040.940515,10.000000,0.000000,-6.178911,0.395345,-0.881201,1.878165,-4.025650,-5.427823,-5.366327,-6.424049,-3.277328,10.350662,-1.835216,-7.709786,-18.189116,-10.312608,-4.449563,-5.168271,-18.452665,-34.598850,7.734845,-10.889522,-43.957531,-24.078062,-10.912442,-18.999754,-11.070373,-6.524672,-2.299030,2.206398,2.586221,-15.696964,0.911295,-44.080357,0.000000,185.000000,4.000000,,,,0.000000,4.000000,4.000000,4.000000,4.000000,4.000000,4.000000,4.000000,4.000000,4.000000,4.000000,4.000000,4.000000,4.000000,4.000000,4.000000,4.000000,4.000000,2.000000,4.000000,4.000000,4.000000,4.000000,4.000000,4.000000,4.000000,4.000000,4.000000,4.000000,4.000000,4.000000,4.000000,4.000000,83.333336
1615604040.948367,11.000000,0.000000,-7.198373,0.907771,-3.957243,0.337825,-5.047265,-7.473677,-7.925064,-5.904805,-3.786871,3.160824,-1.833381,-8.214896,-18.683746,-11.840756,-8.547677,-9.265667,-16.895752,-34.564251,26.188648,-4.724786,-38.272549,-16.361677,-9.363068,-21.544857,-12.597764,-6.005327,-3.835192,1.691371,4.122097,-16.194088,0.397563,-46.087559,0.000000,185.000000,4.000000,,,,0.000000,4.000000,4.000000,4.000000,4.000000,4.000000,4.000000,4.000000,4.000000,4.000000,4.000000,4.000000,4.000000,4.000000,4.000000,4.000000,4.000000,4.000000,2.000000,4.000000,4.000000,4.000000,4.000000,4.000000,4.000000,4.000000,4.000000,4.000000,4.000000,4.000000,4.000000,4.000000,4.000000,83.333336
1615604040.956119,12.000000,0.000000,-7.191174,0.394042,-4.978927,-1.200974,-5.042218,-7.979023,-6.891498,-6.924541,-3.783085,-2.483362,-1.831548,-1.027195,-14.562498,-11.316095,-3.923745,2.025650,-14.827574,-32.991226,37.444511,-0.104676,-25.926582,-4.037623,-5.763961,-16.395105,-11.559525,-1.896757,0.271207,3.228141,6.169257,-15.665073,0.397166,-46.041470,0.000000,197.000000,4.000000,,,,0.000000,4.000000,4.000000,4.000000,4.000000,4.000000,4.000000,4.000000,4.000000,4.000000,4.000000,4.000000,4.000000,4.000000,4.000000,4.000000,4.000000,4.000000,2.000000,4.000000,4.000000,4.000000,4.000000,4.000000,4.000000,4.000000,4.000000,4.000000,4.000000,4.000000,4.000000,4.000000,4.000000,83.333336
1615604040.963972,13.000000,0.000000,-0.004496,0.906469,0.154257,0.338689,-5.037175,-7.971045,-3.807683,-6.404796,-3.266481,8.288352,6.375412,8.717422,-8.906910,-5.663754,-1.868539,14.844137,-7.120439,-30.394133,33.817322,-1.130213,-5.387835,4.684363,0.908469,-4.583839,-4.368478,1.694883,11.552987,5.789015,5.137446,-15.649408,0.909589,-45.482609,0.000000,190.000000,4.000000,,,,0.000000,4.000000,4.000000,4.000000,4.000000,4.000000,4.000000,4.000000,4.000000,4.000000,4.000000,4.000000,4.000000,4.000000,4.000000,4.000000,4.000000,4.000000,2.000000,4.000000,4.000000,4.000000,4.000000,4.000000,4.000000,4.000000,4.000000,4.000000,4.000000,4.000000,4.000000,4.000000,4.000000,83.333336
1615604040.971724,14.000000,0.000000,8.200637,0.905562,3.743847,1.876811,-4.519318,-7.450253,-3.291055,-0.757365,-3.776035,23.664679,18.676729,13.836910,-5.308259,-3.606808,-1.353850,13.290832,-4.549216,-25.235533,39.424530,-4.206006,11.027809,11.346346,9.112689,-0.476691,1.789736,1.693188,17.695280,4.244765,5.645129,-15.633759,0.395859,-45.437126,0.000000,177.000000,4.000000,,,,0.000000,4.000000,4.000000,4.000000,4.000000,4.000000,4.000000,4.000000,4.000000,4.000000,4.000000,4.000000,4.000000,4.000000,4.000000,4.000000,4.000000,4.000000,2.000000,4.000000,4.000000,4.000000,4.000000,4.000000,4.000000,4.000000,4.000000,4.000000,4.000000,4.000000,4.000000,4.000000,4.000000,83.333336
1615604040.979576,15.000000,0.000000,9.218077,-1.659446,-0.875282,2.387755,-4.001978,-6.417161,-3.800584,3.858777,-2.746618,25.692297,22.247795,14.848714,5.979100,0.499363,15.570580,15.328823,-4.031846,-11.364144,68.103058,12.721277,21.786013,21.078588,13.718961,0.036606,5.377690,0.665854,14.087841,2.189238,5.639484,-15.618125,-2.168640,-46.417328,0.000000,194.000000,4.000000,,,,0.000000,4.000000,4.000000,4.000000,4.000000,4.000000,4.000000,4.000000,4.000000,4.000000,4.000000,4.000000,4.000000,4.000000,4.000000,4.000000,4.000000,4.000000,2.000000,4.000000,4.000000,4.000000,4.000000,4.000000,4.000000,4.000000,4.000000,4.000000,4.000000,4.000000,4.000000,4.000000,4.000000,83.333336
1615604040.987329,16.000000,0.000000,8.183218,-6.273171,-1.900048,5.462290,-5.536438,-8.974847,-3.796783,4.367739,1.871513,24.128141,20.687086,14.833865,21.870556,21.524504,34.529369,29.672468,2.638853,7.108758,86.496490,35.272659,28.943714,26.185715,12.679602,6.703236,11.013338,1.690829,12.022471,2.187049,5.121024,-15.602507,-3.192112,-43.806808,0.000000,199.000000,4.000000,,,,0.000000,4.000000,4.000000,4.000000,4.000000,4.000000,4.000000,4.000000,4.000000,4.000000,4.000000,4.000000,4.000000,4.000000,4.000000,4.000000,4.000000,4.000000,2.000000,4.000000,4.000000,4.000000,4.000000,4.000000,4.000000,4.000000,4.000000,4.000000,4.000000,4.000000,4.000000,4.000000,4.000000,83.333336
1615604040.994981,17.000000,0.000000,8.687856,-7.292539,8.358263,8.533751,-3.479619,-4.350488,-3.792987,8.465935,6.997847,28.206577,21.179220,14.819032,29.540995,42.015800,37.571762,35.283821,6.738778,12.229855,80.768967,40.365593,29.940411,26.159529,11.641280,10.799097,15.104889,5.278882,12.523270,2.184862,6.654365,-15.586905,-3.188920,-37.609158,0.000000,215.000000,4.000000,,,,0.000000,4.000000,4.000000,4.000000,4.000000,4.000000,4.000000,4.000000,4.000000,4.000000,4.000000,4.000000,4.000000,4.000000,4.000000,4.000000,4.000000,4.000000,2.000000,4.000000,4.000000,4.000000,4.000000,4.000000,4.000000,4.000000,4.000000,4.000000,4.000000,4.000000,4.000000,4.000000,4.000000,83.333336
1615604041.002733,18.000000,0.000000,8.679168,-6.772426,15.529391,11.089320,6.780271,6.423094,-3.789194,16.149776,8.016490,29.716833,21.670860,14.804213,28.485811,39.409683,36.508549,33.710075,5.706398,8.115061,82.226662,46.991894,29.910471,26.646191,13.168100,11.301118,15.602604,8.863346,12.510746,2.695497,9.211813,-15.571318,-3.185731,-33.468983,0.000000,193.000000,4.000000,,,,0.000000,4.000000,4.000000,4.000000,4.000000,4.000000,4.000000,4.000000,4.000000,4.000000,4.000000,4.000000,4.000000,4.000000,4.000000,4.000000,4.000000,4.000000,2.000000,4.000000,4.000000,4.000000,4.000000,4.000000,4.000000,4.000000,4.000000,4.000000,4.000000,4.000000,4.000000,4.000000,4.000000,83.333336
1615604041.010386,19.000000,0.000000,8.157668,-6.765653,9.872837,9.026949,10.363235,3.339747,-3.785404,16.133627,6.982832,28.661476,21.136370,14.789409,23.329121,31.677965,33.395119,33.676365,6.213512,8.106946,81.631615,49.509003,26.290815,24.055443,12.129292,16.418022,14.561360,8.854483,11.985415,2.692802,9.715422,-15.555746,-3.182545,-33.435516,0.000000,198.000000,4.000000,,,,0.000000,4.000000,4.000000,4.000000,4.000000,4.000000,4.000000,4.000000,4.000000,4.000000,4.000000,4.000000,4.000000,4.000000,4.000000,4.000000,4.000000,4.000000,2.000000,4.000000,4.000000,4.000000,4.000000,4.000000,4.000000,4.000000,4.000000,4.000000,4.000000,4.000000,4.000000,4.000000,4.000000,83.333336
1615604041.018138,20.000000,0.000000,8.149510,-6.758888,2.170656,-1.238489,3.173384,-13.073849,-3.781619,8.425185,4.924568,29.145634,20.602413,14.261799,15.100663,31.133467,22.079672,31.078587,4.156016,6.047557,52.832035,22.792828,9.854269,15.826259,5.963316,16.914425,7.880133,8.332808,11.973430,-0.899635,9.705707,-15.540191,-3.179363,-36.479004,0.000000,215.000000,4.000000,,,,0.000000,4.000000,4.000000,4.000000,4.000000,4.000000,4.000000,4.000000,4.000000,4.000000,4.000000,4.000000,4.000000,4.000000,4.000000,4.000000,4.000000,4.000000,2.000000,4.000000,4.000000,4.000000,4.000000,4.000000,4.000000,4.000000,4.000000,4.000000,4.000000,4.000000,4.000000,4.000000,4.000000,83.333336
1615604041.025790,21.000000,0.000000,8.141360,-6.752129,2.168485,-8.929558,-0.932354,-20.240261,-3.777838,3.801376,2.355541,27.578028,20.581810,14.247537,10.470179,24.948486,16.416567,26.944944,2.100579,-1.650798,38.420227,-1.845350,-6.053021,9.656586,0.316327,7.666741,0.179945,8.837296,11.961456,-1.411556,9.183180,-15.011829,-3.176183,-40.545086,0.000000,192.000000,4.000000,,,,0.000000,4.000000,4.000000,4.000000,4.000000,4.000000,4.000000,4.000000,4.000000,4.000000,4.000000,4.000000,4.000000,4.000000,4.000000,4.000000,4.000000,4.000000,2.000000,4.000000,4.000000,4.000000,4.000000,4.000000,4.000000,4.000000,4.000000,4.000000,4.000000,4.000000,4.000000,4.000000,4.000000,83.333336
1615604041.033542,22.000000,0.000000,8.133220,-6.232556,2.679137,-6.356526,-0.418601,-17.655920,-3.774060,5.336036,0.814723,23.447886,21.586870,14.746110,13.023810,19.282513,17.425791,23.328257,4.149760,-4.726070,58.381809,-0.817864,-6.046968,10.159750,-0.196810,2.018049,0.179765,6.777176,12.462316,1.666779,9.686817,-15.509639,-3.173007,-42.043003,0.000000,201.000000,4.000000,,,,0.000000,4.000000,4.000000,4.000000,4.000000,4.000000,4.000000,4.000000,4.000000,4.000000,4.000000,4.000000,4.000000,4.000000,4.000000,4.000000,4.000000,4.000000,2.000000,4.000000,4.000000,4.000000,4.000000,4.000000,4.000000,4.000000,4.000000,4.000000,4.000000,4.000000,4.000000,4.000000,4.000000,83.333336
1615604041.041194,23.000000,0.000000,8.125086,-6.226324,-0.913285,-4.811707,-4.520746,-18.663904,-3.770286,5.330700,0.301088,20.860334,19.001181,13.705723,10.959505,18.237589,11.767340,16.638262,3.119969,-5.746985,59.349068,-4.406790,-2.451178,10.662411,0.829028,2.528851,3.256508,4.719117,10.911391,-0.386170,9.677131,-16.006948,-3.169834,-41.488140,0.000000,203.000000,4.000000,,,,0.000000,4.000000,4.000000,4.000000,4.000000,4.000000,4.000000,4.000000,4.000000,4.000000,4.000000,4.000000,4.000000,4.000000,4.000000,4.000000,4.000000,4.000000,4.000000,4.000000,4.000000,4.000000,4.000000,4.000000,4.000000,4.000000,4.000000,4.000000,4.000000,4.000000,4.000000,4.000000,4.000000,100.000000
1615604041.048947,24.000000,0.000000,8.116961,-6.732918,-2.450834,-6.345357,-9.131610,-19.158060,-3.766515,0.709985,-0.212033,17.249731,10.777051,11.640735,1.204956,6.424479,5.088905,13.544700,-2.011356,-10.356623,38.776897,-7.992126,-2.448726,9.113287,0.315379,2.526322,3.253252,4.714398,7.310737,-5.001168,7.103351,-14.965302,-2.653844,-41.446651,0.000000,160.000000,4.000000,,,,0.000000,4.000000,4.000000,4.000000,4.000000,4.000000,4.000000,4.000000,4.000000,4.000000,4.000000,4.000000,4.000000,4.000000,4.000000,4.000000,4.000000,4.000000,4.000000,4.000000,4.000000,4.000000,4.000000,4.000000,4.000000,4.000000,4.000000,4.000000,4.000000,4.000000,4.000000,4.000000,4.000000,100.000000
1615604041.056599,25.000000,0.000000,8.108844,-6.213365,-1.422742,-1.210807,-8.609658,-14.010697,-3.762749,-2.880469,0.300999,11.078635,5.125248,10.090632,-2.898813,-7.940919,7.647919,13.531155,-3.034986,-12.397549,37.712479,10.477405,-2.446278,7.565712,0.315063,2.010975,2.737178,3.684043,4.739323,-3.457705,1.455222,-15.975977,-2.651190,-41.918026,0.000000,200.000000,4.000000,,,,0.000000,4.000000,4.000000,4.000000,4.000000,4.000000,4.000000,4.000000,4.000000,4.000000,4.000000,4.000000,4.000000,4.000000,4.000000,4.000000,4.000000,4.000000,4.000000,4.000000,4.000000,4.000000,4.000000,4.000000,4.000000,4.000000,4.000000,4.000000,4.000000,4.000000,4.000000,4.000000,4.000000,100.000000
1615604041.064351,26.000000,0.000000,8.100735,-6.207151,-0.908498,1.867327,-8.088228,-9.894123,-3.758986,-2.877589,0.813519,9.016274,4.607303,10.080542,2.745111,-6.394517,8.665913,7.876598,-3.031951,-11.359510,45.879894,25.338722,-2.443831,5.506864,0.314748,2.008965,3.247261,1.116256,4.221763,-0.890145,-1.623156,-19.549746,-3.161359,-41.363289,0.000000,197.000000,4.000000,,,,0.000000,4.000000,4.000000,4.000000,4.000000,4.000000,4.000000,4.000000,4.000000,4.000000,4.000000,4.000000,4.000000,4.000000,4.000000,4.000000,4.000000,4.000000,4.000000,4.000000,4.000000,4.000000,4.000000,4.000000,4.000000,4.000000,4.000000,4.000000,4.000000,4.000000,4.000000,4.000000,4.000000,100.000000
1615604041.072003,27.000000,0.000000,8.092634,-8.252226,-1.420410,-2.749925,-8.080139,-10.397049,-3.755227,-2.361891,-3.289859,10.032899,6.653977,10.583282,7.870571,-0.234276,9.682887,10.432824,-1.490457,-11.860971,49.423759,24.800562,1.148356,8.065459,1.340075,2.519776,4.269655,1.115140,4.730362,-1.402076,-1.621533,-18.504555,-2.645377,-40.809105,0.000000,190.000000,4.000000,,,,0.000000,4.000000,4.000000,4.000000,4.000000,4.000000,4.000000,4.000000,4.000000,4.000000,4.000000,4.000000,4.000000,4.000000,4.000000,4.000000,4.000000,4.000000,4.000000,4.000000,4.000000,4.000000,4.000000,4.000000,4.000000,4.000000,4.000000,4.000000,4.000000,4.000000,4.000000,4.000000,4.000000,100.000000
1615604041.079755,28.000000,0.000000,8.084542,-10.295256,-0.906169,-5.311278,-8.072060,-10.899473,-3.751472,-2.359529,-6.876313,10.022866,6.647323,12.623981,8.375521,4.381343,16.339870,25.294186,7.228982,-10.823469,61.682026,23.237301,7.301054,15.236881,3.902837,2.517256,3.752565,1.626845,4.725632,-1.400674,-1.107091,-12.845024,-1.617091,-40.255474,0.000000,208.000000,4.000000,,,,0.000000,4.000000,4.000000,4.000000,4.000000,4.000000,4.000000,4.000000,4.000000,4.000000,4.000000,4.000000,4.000000,4.000000,4.000000,4.000000,4.000000,4.000000,4.000000,4.000000,4.000000,4.000000,4.000000,4.000000,4.000000,4.000000,4.000000,4.000000,4.000000,4.000000,4.000000,4.000000,4.000000,100.000000
1615604041.087407,29.000000,0.000000,8.076457,-10.284961,-1.418084,-5.305966,-8.063988,-9.862932,-3.747720,0.206933,-4.818154,11.551305,4.589394,14.662639,10.931248,17.197474,21.451736,31.422739,13.888420,-7.735723,66.748550,18.598679,10.370676,19.324209,4.924575,3.540380,3.235992,0.599577,4.208086,-1.399273,-1.618805,-10.780896,-6.230859,-41.240860,0.000000,193.000000,4.000000,,,,0.000000,4.000000,4.000000,4.000000,4.000000,4.000000,4.000000,4.000000,4.000000,4.000000,4.000000,4.000000,4.000000,4.000000,4.000000,4.000000,4.000000,4.000000,4.000000,4.000000,4.000000,4.000000,4.000000,4.000000,4.000000,4.000000,4.000000,4.000000,4.000000,4.000000,4.000000,4.000000,4.000000,100.000000
1615604041.095159,30.000000,0.000000,8.068380,-10.274675,-2.442307,-9.403225,-8.055923,-12.929993,-3.743973,1.745188,-2.762054,16.667959,10.738650,14.135156,12.971599,23.846943,23.481567,29.852854,13.361711,-8.240808,58.476673,10.887772,11.385946,18.279243,4.406830,6.100942,6.822499,2.137439,5.229518,-1.397874,-2.130006,-11.795756,-13.404115,-41.199619,0.000000,192.000000,4.000000,,,,0.000000,4.000000,4.000000,4.000000,4.000000,4.000000,4.000000,4.000000,4.000000,4.000000,4.000000,4.000000,4.000000,4.000000,4.000000,4.000000,4.000000,4.000000,4.000000,4.000000,4.000000,4.000000,4.000000,4.000000,4.000000,4.000000,4.000000,4.000000,4.000000,4.000000,4.000000,4.000000,4.000000,100.000000
1615604041.102811,31.000000,0.000000,8.060312,-10.264400,-4.491147,-12.470744,-8.047868,-17.019627,-3.740229,1.743443,-3.272113,19.215393,23.035604,14.633841,13.471448,17.669250,30.124752,30.848642,13.861170,-10.283849,64.572044,11.389705,7.271996,18.773785,4.915244,6.607662,6.815677,1.109661,5.224289,-0.370835,-1.102235,-11.271140,-14.929173,-40.132778,0.000000,193.000000,4.000000,,,,0.000000,4.000000,4.000000,4.000000,4.000000,4.000000,4.000000,4.000000,4.000000,4.000000,4.000000,4.000000,4.000000,4.000000,4.000000,4.000000,4.000000,4.000000,4.000000,4.000000,4.000000,4.000000,4.000000,4.000000,4.000000,4.000000,4.000000,4.000000,4.000000,4.000000,4.000000,4.000000,4.000000,100.000000
1615604041.110563,32.000000,0.000000,8.565073,-10.254136,-10.127681,-13.996736,-7.526999,-19.053888,-3.736488,1.228879,-2.756020,12.529511,17.884363,13.080746,10.893874,12.523376,32.658730,23.125486,10.770386,-9.247924,69.122856,11.378315,-7.607071,15.678088,3.884688,6.601054,-3.447549,-7.609397,1.116501,-3.447387,-1.101133,-11.259870,-14.914243,-45.220852,8064.000000,0.000000,4.000000,,,,0.000000,4.000000,4.000000,4.000000,4.000000,4.000000,4.000000,4.000000,4.000000,4.000000,4.000000,4.000000,4.000000,4.000000,4.000000,4.000000,4.000000,4.000000,4.000000,4.000000,4.000000,4.000000,4.000000,4.000000,4.000000,4.000000,4.000000,4.000000,4.000000,4.000000,4.000000,4.000000,4.000000,100.000000
1615604041.118215,33.000000,0.000000,7.018046,-10.756702,-15.758579,-15.521200,-8.032292,-18.522015,-3.732752,-2.874914,-6.343008,1.747751,-0.595059,8.965100,2.165031,8.408289,24.420942,9.256207,0.503205,-9.751496,48.028091,11.879757,-19.394335,3.354717,1.316700,3.517530,-11.649230,-14.781276,-2.474360,-8.059324,-7.253878,-15.351173,-20.027534,-56.970501,8064.000000,0.000000,4.000000,,,,0.000000,4.000000,4.000000,4.000000,4.000000,4.000000,4.000000,4.000000,4.000000,4.000000,4.000000,4.000000,4.000000,4.000000,4.000000,4.000000,4.000000,4.000000,4.000000,4.000000,4.000000,4.000000,4.000000,4.000000,4.000000,4.000000,4.000000,4.000000,4.000000,4.000000,4.000000,4.000000,4.000000,100.000000
1615604041.126067,34.000000,0.000000,4.959746,-10.233126,-17.281282,-13.454396,-8.024261,-15.939390,-3.729019,-5.948962,-10.439229,-4.407843,-5.722669,6.392033,-5.016621,-2.369350,9.524727,0.016181,-7.702427,-15.895591,31.569807,13.406339,-20.913403,-7.417868,-0.735898,-3.152654,-12.663221,-13.740853,-2.984706,-9.076906,-12.887650,-18.925566,-22.058788,-59.477634,8064.000000,0.000000,4.000000,,,,0.000000,4.000000,4.000000,4.000000,4.000000,4.000000,4.000000,4.000000,4.000000,4.000000,4.000000,4.000000,4.000000,4.000000,4.000000,4.000000,4.000000,4.000000,4.000000,4.000000,4.000000,4.000000,4.000000,4.000000,4.000000,4.000000,4.000000,4.000000,4.000000,4.000000,4.000000,4.000000,4.000000,100.000000
1615604041.133819,35.000000,0.000000,3.929145,-8.171611,-14.699898,-9.851199,-7.503416,-12.333707,-3.725290,-5.943013,-11.454431,-4.916256,-7.768229,6.385641,-7.062887,-11.597751,-14.587362,-10.240246,-14.874211,-29.213028,29.486956,-1.478862,-21.405310,-14.077117,-2.786445,-7.764886,-15.727481,-13.214292,-2.468900,-9.067829,-8.772198,-19.932281,-16.395704,-51.725849,8064.000000,0.000000,4.000000,,,,0.000000,4.000000,4.000000,4.000000,4.000000,4.000000,4.000000,4.000000,4.000000,4.000000,4.000000,4.000000,4.000000,4.000000,4.000000,4.000000,4.000000,4.000000,4.000000,4.000000,4.000000,4.000000,4.000000,4.000000,4.000000,4.000000,4.000000,4.000000,4.000000,4.000000,4.000000,4.000000,4.000000,100.000000
1615604041.141672,36.000000,0.000000,3.925216,-6.112157,-10.582634,-8.815706,-10.060015,-10.270091,-3.721565,-6.962711,-11.442976,-5.424160,-15.965589,5.866435,-8.081465,-13.124614,-29.444569,-11.768467,-19.474722,-35.337662,25.867725,-18.913280,-15.230059,-12.011758,-4.322120,-9.808403,-19.814318,-13.713898,-2.466432,-8.545940,-2.096759,-18.373888,-9.712642,-47.571560,8064.000000,0.000000,4.000000,,,,0.000000,4.000000,4.000000,4.000000,4.000000,4.000000,4.000000,4.000000,4.000000,4.000000,4.000000,4.000000,4.000000,4.000000,4.000000,4.000000,4.000000,4.000000,4.000000,4.000000,4.000000,4.000000,4.000000,4.000000,4.000000,4.000000,4.000000,4.000000,4.000000,4.000000,4.000000,4.000000,4.000000,100.000000
1615604041.149424,37.000000,0.000000,5.459753,-6.106045,-8.007949,-9.319712,-12.614058,-11.285462,-4.230664,-5.930108,-9.893071,-4.393095,-10.308598,9.963133,-4.483640,-6.957644,-11.979227,6.704840,-4.583452,-19.404888,45.329037,-2.996932,3.759531,8.000254,-1.753695,-9.285774,-15.691939,-10.110440,0.100137,-3.922010,-1.069022,-16.304232,-6.626006,-48.549629,8064.000000,0.000000,4.000000,,,,0.000000,4.000000,4.000000,4.000000,4.000000,4.000000,4.000000,4.000000,4.000000,4.000000,4.000000,4.000000,4.000000,4.000000,4.000000,4.000000,4.000000,4.000000,4.000000,4.000000,4.000000,4.000000,4.000000,4.000000,4.000000,4.000000,4.000000,4.000000,4.000000,4.000000,4.000000,4.000000,4.000000,100.000000
1615604041.157276,38.000000,0.000000,9.044036,-6.612759,-10.051223,-9.823212,-9.011700,-11.274177,-2.687972,0.229669,-4.754973,2.277965,7.137609,16.619837,3.213152,7.408288,15.212239,22.595572,16.959593,-0.411124,78.104218,25.724014,16.063463,30.556356,3.376264,0.467101,-5.932658,-5.997766,1.638499,2.235758,-1.580773,-15.262286,-6.619380,-48.501080,8064.000000,0.000000,4.000000,,,,0.000000,4.000000,4.000000,4.000000,4.000000,4.000000,4.000000,4.000000,4.000000,4.000000,4.000000,4.000000,4.000000,4.000000,4.000000,4.000000,4.000000,4.000000,4.000000,4.000000,4.000000,4.000000,4.000000,4.000000,4.000000,4.000000,4.000000,4.000000,4.000000,4.000000,4.000000,4.000000,4.000000,100.000000
1615604041.165029,39.000000,0.000000,12.111916,-6.606146,-9.015531,-8.274927,-3.874483,-9.724441,-0.121181,5.357644,0.377987,13.044918,15.335599,18.654499,4.748400,17.144470,21.350872,22.572975,20.532377,0.614928,72.897911,25.185469,13.996118,32.577084,4.398529,12.774326,0.739941,-5.478948,1.124040,2.746343,-1.066372,-15.247025,-6.612761,-48.452576,8064.000000,0.000000,4.000000,,,,0.000000,4.000000,4.000000,4.000000,4.000000,4.000000,4.000000,4.000000,4.000000,4.000000,4.000000,4.000000,4.000000,4.000000,4.000000,4.000000,4.000000,4.000000,4.000000,4.000000,4.000000,4.000000,4.000000,4.000000,4.000000,4.000000,4.000000,4.000000,4.000000,4.000000,4.000000,4.000000,4.000000,100.000000
1615604041.172881,40.000000,0.000000,11.586983,-6.086720,-1.314207,-1.087165,0.231956,-6.124973,0.391761,6.377928,4.480173,18.672899,15.833084,17.610203,4.743652,15.588864,22.355164,28.191429,15.896460,4.204057,54.876297,18.493618,13.982121,28.441940,5.419771,15.325654,-0.286439,-5.986289,1.122916,2.230776,-1.578126,-15.231777,-6.606148,-45.327202,8064.000000,0.000000,4.000000,,,,0.000000,4.000000,4.000000,4.000000,4.000000,4.000000,4.000000,4.000000,4.000000,4.000000,4.000000,4.000000,4.000000,4.000000,4.000000,4.000000,4.000000,4.000000,4.000000,4.000000,4.000000,4.000000,4.000000,4.000000,4.000000,4.000000,4.000000,4.000000,4.000000,4.000000,4.000000,4.000000,4.000000,100.000000
1615604041.180634,41.000000,0.000000,12.088217,-6.080633,5.353774,6.606230,5.359929,0.034998,-0.121452,7.910011,7.552616,17.628584,17.868532,17.592592,12.431215,16.086096,31.563578,39.958107,22.547230,18.046007,75.847061,41.552048,22.686089,36.105808,13.106659,13.259047,0.226667,-5.467483,1.121793,2.741366,-1.063727,-15.216545,-6.086721,-41.179310,8064.000000,0.000000,4.000000,,,,0.000000,4.000000,4.000000,4.000000,4.000000,4.000000,4.000000,4.000000,4.000000,4.000000,4.000000,4.000000,4.000000,4.000000,4.000000,4.000000,4.000000,4.000000,4.000000,4.000000,4.000000,4.000000,4.000000,4.000000,4.000000,4.000000,4.000000,4.000000,4.000000,4.000000,4.000000,4.000000,4.000000,100.000000
1615604041.188486,42.000000,0.000000,12.076128,-7.100194,7.399702,10.189367,9.969954,7.727271,-0.121330,9.440563,8.570704,17.610956,17.850664,18.087820,21.136734,16.582830,33.070477,35.302765,26.627247,17.515141,95.258392,63.561775,21.124941,35.044060,17.708937,14.271429,1.764902,-5.462015,1.120671,2.738624,-1.062664,-14.688508,-7.619096,-41.138130,8064.000000,0.000000,4.000000,,,,0.000000,4.000000,4.000000,4.000000,4.000000,4.000000,4.000000,4.000000,4.000000,4.000000,4.000000,4.000000,4.000000,4.000000,4.000000,4.000000,4.000000,4.000000,4.000000,4.000000,4.000000,4.000000,4.000000,4.000000,4.000000,4.000000,4.000000,4.000000,4.000000,4.000000,4.000000,4.000000,4.000000,100.000000
1615604041.196238,43.000000,0.000000,8.987129,-5.041811,11.494866,15.820203,11.498446,11.822107,-0.121209,8.918302,7.536492,18.618986,17.319994,18.069733,20.602776,8.873940,23.806635,15.780284,13.780107,-6.092119,67.983650,44.011036,1.616636,17.060297,11.024561,14.769978,-3.877888,-5.969373,1.119550,2.223065,-2.600062,-12.622538,-6.073015,-38.020069,8064.000000,0.000000,4.000000,,,,0.000000,4.000000,4.000000,4.000000,4.000000,4.000000,4.000000,4.000000,4.000000,4.000000,4.000000,4.000000,4.000000,4.000000,4.000000,4.000000,4.000000,4.000000,4.000000,4.000000,4.000000,4.000000,4.000000,4.000000,4.000000,4.000000,4.000000,4.000000,4.000000,4.000000,4.000000,4.000000,4.000000,100.000000
1615604041.204090,44.000000,0.000000,4.362757,0.091436,16.611576,21.958229,10.974126,11.297465,-0.121088,8.909384,8.041777,17.061905,17.302673,16.513201,15.453968,1.172758,15.577701,1.918350,-1.105468,-29.675770,35.607971,11.659332,-15.308057,4.735545,4.859691,9.627003,-13.617600,-5.963404,1.118431,2.220842,0.479461,-11.071454,0.086904,-28.238459,8064.000000,0.000000,4.000000,,,,0.000000,4.000000,4.000000,4.000000,4.000000,4.000000,4.000000,4.000000,4.000000,4.000000,4.000000,4.000000,4.000000,4.000000,4.000000,4.000000,4.000000,4.000000,4.000000,4.000000,4.000000,4.000000,4.000000,4.000000,4.000000,4.000000,4.000000,4.000000,4.000000,4.000000,4.000000,4.000000,4.000000,100.000000
1615604041.211843,45.000000,0.000000,3.845574,0.604165,19.159067,16.808065,8.399050,10.773347,-0.120967,7.874833,7.520914,17.557665,15.234089,13.932586,13.387232,-0.366876,14.023662,3.967713,-3.668465,-37.338402,26.854414,-0.147199,-16.831211,4.217989,4.342010,2.437889,-16.168085,-5.957441,1.117312,2.218621,5.094366,-11.573203,5.215022,-24.107656,8064.000000,0.000000,4.000000,,,,0.000000,4.000000,4.000000,4.000000,4.000000,4.000000,4.000000,4.000000,4.000000,4.000000,4.000000,4.000000,4.000000,4.000000,4.000000,4.000000,4.000000,4.000000,4.000000,4.000000,4.000000,4.000000,4.000000,4.000000,4.000000,4.000000,4.000000,4.000000,4.000000,4.000000,4.000000,4.000000,4.000000,100.000000
1615604041.219495,46.000000,0.000000,4.354549,-2.473362,16.575806,9.611771,3.775266,11.275394,-0.120846,5.302855,7.513393,17.540106,13.167572,13.405832,10.296922,1.171952,12.983996,11.143232,-1.613515,-34.224140,29.391663,1.391410,-17.327200,3.188130,2.799207,-1.667113,-14.613456,-5.951483,1.116195,2.216403,3.037989,-11.561629,5.209807,-26.647652,8064.000000,0.000000,4.000000,,,,0.000000,4.000000,4.000000,4.000000,4.000000,4.000000,4.000000,4.000000,4.000000,4.000000,4.000000,4.000000,4.000000,4.000000,4.000000,4.000000,4.000000,4.000000,4.000000,4.000000,4.000000,4.000000,4.000000,4.000000,4.000000,4.000000,4.000000,4.000000,4.000000,4.000000,4.000000,4.000000,4.000000,100.000000
1615604041.227247,47.000000,0.000000,4.350194,-3.496530,9.379743,9.089338,0.694568,10.751298,-0.120725,4.271912,7.505880,11.368720,12.641584,13.905247,2.081497,0.657960,6.304346,2.926961,-3.150363,-34.702736,26.798168,-5.789469,-20.899616,-2.968904,-0.280515,-1.152626,-15.111663,-6.458352,0.602258,2.214186,-1.580433,-11.037248,3.153315,-30.723568,8064.000000,0.000000,4.000000,,,,0.000000,4.000000,4.000000,4.000000,4.000000,4.000000,4.000000,4.000000,4.000000,4.000000,4.000000,4.000000,4.000000,4.000000,4.000000,4.000000,4.000000,4.000000,4.000000,4.000000,4.000000,4.000000,4.000000,4.000000,4.000000,4.000000,4.000000,4.000000,4.000000,4.000000,4.000000,4.000000,4.000000,100.000000
1615604041.234899,48.000000,0.000000,3.833024,-2.467392,4.242158,6.516146,-0.844588,10.740547,-0.633425,4.267640,7.498374,4.690685,13.141764,13.378521,-4.074431,-2.419621,-1.394266,-14.511863,-4.172853,-36.719318,23.694447,-11.424705,-22.417179,-11.171063,0.232586,-2.689935,-16.635012,-6.451894,0.088836,1.699152,-2.091673,-11.539031,1.098880,-33.256947,8064.000000,0.000000,4.000000,,,,0.000000,4.000000,4.000000,4.000000,4.000000,4.000000,4.000000,4.000000,4.000000,4.000000,4.000000,4.000000,4.000000,4.000000,4.000000,4.000000,4.000000,4.000000,4.000000,4.000000,4.000000,4.000000,4.000000,4.000000,4.000000,4.000000,4.000000,4.000000,4.000000,4.000000,4.000000,4.000000,4.000000,100.000000
1615604041.242652,49.000000,0.000000,4.342011,-2.977746,5.776377,1.381425,-1.356564,10.729807,-0.119971,4.776193,7.490876,5.198814,13.128621,13.365143,-3.557536,-8.571048,-2.418513,-20.138376,-2.117399,-30.015930,28.798958,-2.695331,-20.343479,-9.108610,0.745174,-6.276989,-14.567095,-5.419801,1.627208,2.210273,-1.576761,-11.527492,1.097781,-33.223690,8064.000000,0.000000,4.000000,,,,0.000000,4.000000,4.000000,4.000000,4.000000,4.000000,4.000000,4.000000,4.000000,4.000000,4.000000,4.000000,4.000000,4.000000,4.000000,4.000000,4.000000,4.000000,4.000000,4.000000,4.000000,4.000000,4.000000,4.000000,4.000000,4.000000,4.000000,4.000000,4.000000,4.000000,4.000000,4.000000,4.000000,100.000000
1615604041.250304,50.000000,0.000000,4.337669,-2.974768,3.719319,0.867223,-1.355208,10.719077,0.392970,4.771417,7.996205,6.732077,13.115493,13.864598,-3.041158,-10.100939,-2.416094,-19.092598,-1.602461,-25.883350,32.872723,2.435569,-15.194930,0.644088,-0.281213,-5.245070,-14.552528,-7.978484,0.599940,0.669601,-1.062364,-11.515965,-0.954599,-33.703289,8064.000000,0.000000,4.000000,,,,0.000000,4.000000,4.000000,4.000000,4.000000,4.000000,4.000000,4.000000,4.000000,4.000000,4.000000,4.000000,4.000000,4.000000,4.000000,4.000000,4.000000,4.000000,4.000000,4.000000,4.000000,4.000000,4.000000,4.000000,4.000000,4.000000,4.000000,4.000000,4.000000,4.000000,4.000000,4.000000,4.000000,100.000000
1615604041.258056,51.000000,0.000000,3.820511,-2.971793,-6.027990,0.866356,-0.841032,11.221178,-1.145885,3.741004,6.962568,4.161242,13.102378,12.825092,-1.499655,-9.065196,1.688886,-18.047863,-2.626499,-26.370287,29.762926,-2.182251,-14.154095,2.181906,2.283171,-2.162902,-15.050797,-9.508966,-3.503224,-2.407991,-1.574122,-11.504448,-5.056209,-41.874714,8064.000000,0.000000,4.000000,,,,0.000000,4.000000,4.000000,4.000000,4.000000,4.000000,4.000000,4.000000,4.000000,4.000000,4.000000,4.000000,4.000000,4.000000,4.000000,4.000000,4.000000,4.000000,4.000000,4.000000,4.000000,4.000000,4.000000,4.000000,4.000000,4.000000,4.000000,4.000000,4.000000,4.000000,4.000000,4.000000,4.000000,100.000000
1615604041.265708,52.000000,0.000000,4.329511,-2.968821,-7.047603,1.891131,-1.353012,10.697137,0.393723,6.814186,7.468426,9.798107,13.602096,14.863549,11.322357,-8.030490,19.635916,0.944543,3.529974,-7.369558,46.143421,14.230187,-9.011735,8.846390,6.383452,-2.160739,-8.881899,-2.319971,2.141305,-0.867122,-3.623830,-11.492944,-6.589614,-44.909760,8064.000000,0.000000,4.000000,,,,0.000000,4.000000,4.000000,4.000000,4.000000,4.000000,4.000000,4.000000,4.000000,4.000000,4.000000,4.000000,4.000000,4.000000,4.000000,4.000000,4.000000,4.000000,4.000000,4.000000,4.000000,4.000000,4.000000,4.000000,4.000000,4.000000,4.000000,4.000000,4.000000,4.000000,4.000000,4.000000,4.000000,100.000000
1615604041.273460,53.000000,0.000000,6.889284,-1.427391,5.779957,10.094368,0.186803,11.199260,8.085637,16.550962,10.025060,26.711386,16.665417,19.464071,29.259752,5.310874,39.616280,30.687187,17.372597,17.766016,78.917793,47.036469,12.535738,33.452927,8.428350,4.508088,6.511598,7.938760,17.010958,4.261950,3.046461,-9.942989,-4.018922,-34.608440,8064.000000,0.000000,4.000000,,,,0.000000,4.000000,4.000000,4.000000,4.000000,4.000000,4.000000,4.000000,4.000000,4.000000,4.000000,4.000000,4.000000,4.000000,4.000000,4.000000,4.000000,4.000000,4.000000,4.000000,4.000000,4.000000,4.000000,4.000000,4.000000,4.000000,4.000000,4.000000,4.000000,4.000000,4.000000,4.000000,4.000000,100.000000
1615604041.281112,54.000000,0.000000,10.472138,0.625319,17.056229,16.750940,2.237898,12.213701,12.180115,20.124155,9.502214,33.864162,17.674393,21.495888,31.794596,18.638897,38.038200,32.707783,19.919327,7.491840,82.428612,48.527897,25.343716,40.086143,8.419922,18.349733,14.710215,11.007744,21.096512,6.308970,12.274183,-7.881764,-1.963621,-24.830242,8064.000000,0.000000,4.000000,,,,0.000000,4.000000,4.000000,4.000000,4.000000,4.000000,4.000000,4.000000,4.000000,4.000000,4.000000,4.000000,4.000000,4.000000,4.000000,4.000000,4.000000,4.000000,4.000000,4.000000,4.000000,4.000000,4.000000,4.000000,4.000000,4.000000,4.000000,4.000000,4.000000,4.000000,4.000000,4.000000,4.000000,100.000000
1615604041.288864,55.000000,0.000000,12.000128,1.137514,17.039173,16.734190,3.261301,6.047642,7.039730,13.950184,4.877328,22.548246,13.554153,20.961573,14.326903,3.748462,19.025805,15.239178,4.514792,-19.182318,50.551315,17.710136,9.420936,17.994774,6.873041,20.382666,3.926274,6.381351,11.844646,5.789841,9.184986,-7.361062,-2.987298,-25.318232,8064.000000,0.000000,4.000000,,,,0.000000,4.000000,4.000000,4.000000,4.000000,4.000000,4.000000,4.000000,4.000000,4.000000,4.000000,4.000000,4.000000,4.000000,4.000000,4.000000,4.000000,4.000000,4.000000,4.000000,4.000000,4.000000,4.000000,4.000000,4.000000,4.000000,4.000000,4.000000,4.000000,4.000000,4.000000,4.000000,4.000000,100.000000
1615604041.296516,56.000000,0.000000,11.475307,0.623556,15.483671,15.691813,2.232399,-4.727637,2.930126,7.269567,2.821168,12.782108,9.950856,20.940611,0.466423,-13.178363,6.186265,11.634195,-6.258953,-22.240059,40.244354,7.436016,-3.921819,6.694728,5.327706,11.644335,-9.923806,0.221124,8.243057,5.784051,6.611699,-7.866521,-4.009952,-26.831375,8064.000000,0.000000,4.000000,,,,0.000000,4.000000,4.000000,4.000000,4.000000,4.000000,4.000000,4.000000,4.000000,4.000000,4.000000,4.000000,4.000000,4.000000,4.000000,4.000000,4.000000,4.000000,4.000000,4.000000,4.000000,4.000000,4.000000,4.000000,4.000000,4.000000,4.000000,4.000000,4.000000,4.000000,4.000000,4.000000,4.000000,100.000000
1615604041.304268,57.000000,0.000000,11.976652,0.622932,17.006649,16.701763,2.742987,-8.825473,3.440017,5.211016,3.843988,12.256506,8.402444,21.432491,0.465956,-5.472877,5.667259,12.135382,-5.739873,-20.679358,40.716930,7.428580,-5.969179,5.662392,6.348020,10.607049,-8.888242,-2.343200,9.260456,6.291088,14.297395,-7.858655,0.096622,-24.753262,8064.000000,0.000000,4.000000,,,,0.000000,4.000000,4.000000,4.000000,4.000000,4.000000,4.000000,4.000000,4.000000,4.000000,4.000000,4.000000,4.000000,4.000000,4.000000,4.000000,4.000000,4.000000,4.000000,4.000000,4.000000,4.000000,4.000000,4.000000,4.000000,4.000000,4.000000,4.000000,4.000000,4.000000,4.000000,4.000000,4.000000,100.000000
1615604041.311920,58.000000,0.000000,10.939034,0.622309,16.989643,16.685061,2.740244,-7.791007,3.949397,4.692984,3.840144,10.705788,3.778656,20.898237,1.491131,-1.364840,5.661592,-4.799831,-7.272595,-30.402267,18.624931,-15.142951,-18.783722,-6.650962,7.880133,9.057981,-7.340892,-2.340857,2.584528,5.771976,12.744636,-7.337976,1.634987,-27.292612,8064.000000,0.000000,4.000000,,,,0.000000,4.000000,4.000000,4.000000,4.000000,4.000000,4.000000,4.000000,4.000000,4.000000,4.000000,4.000000,4.000000,4.000000,4.000000,4.000000,4.000000,4.000000,4.000000,4.000000,4.000000,4.000000,4.000000,4.000000,4.000000,4.000000,4.000000,4.000000,4.000000,4.000000,4.000000,4.000000,4.000000,100.000000
1615604041.319773,59.000000,0.000000,8.363993,0.621687,14.921371,15.642735,1.711863,-7.783216,2.919806,4.688291,3.323483,7.618159,0.697955,20.877338,-1.074462,-13.671167,3.091827,-18.641186,-10.342246,-23.705198,18.606306,-21.281654,-27.995708,-12.285337,7.872253,-4.797231,-14.000217,-4.389798,-4.084723,5.766204,2.475481,-9.381920,-6.058956,-33.419167,8064.000000,0.000000,4.000000,,,,0.000000,4.000000,4.000000,4.000000,4.000000,4.000000,4.000000,4.000000,4.000000,4.000000,4.000000,4.000000,4.000000,4.000000,4.000000,4.000000,4.000000,4.000000,4.000000,4.000000,4.000000,4.000000,4.000000,4.000000,4.000000,4.000000,4.000000,4.000000,4.000000,4.000000,4.000000,4.000000,4.000000,100.000000
1615604041.327526,60.000000,0.000000,7.329988,0.621065,17.983374,16.139914,3.761433,-6.236971,2.916887,4.170782,3.832981,10.687464,2.235718,20.856462,2.003535,-10.580573,6.165658,-10.930236,-6.229339,-2.655853,51.408211,8.483217,-17.711302,-4.067924,8.377201,-12.997562,-13.473397,-6.949511,-1.003715,5.760438,0.934544,-11.936641,-9.642640,-32.872925,8064.000000,0.000000,4.000000,,,,0.000000,4.000000,4.000000,4.000000,4.000000,4.000000,4.000000,4.000000,4.000000,4.000000,4.000000,4.000000,4.000000,4.000000,4.000000,4.000000,4.000000,4.000000,4.000000,4.000000,4.000000,4.000000,4.000000,4.000000,4.000000,4.000000,4.000000,4.000000,4.000000,4.000000,4.000000,4.000000,4.000000,100.000000
1615604041.335378,61.000000,0.000000,7.835478,0.620444,25.657698,18.687876,8.885877,-3.666631,3.426790,4.679432,3.829148,15.804981,4.284765,20.835606,5.591275,-0.826403,9.749236,-1.688537,-1.607725,-2.140377,60.587574,30.526016,-8.975642,-0.986933,7.856004,-8.882000,-3.203513,-5.916920,4.125494,5.754677,1.446430,-11.411883,-2.453510,-25.147745,8064.000000,0.000000,4.000000,,,,0.000000,4.000000,4.000000,4.000000,4.000000,4.000000,4.000000,4.000000,4.000000,4.000000,4.000000,4.000000,4.000000,4.000000,4.000000,4.000000,4.000000,4.000000,4.000000,4.000000,4.000000,4.000000,4.000000,4.000000,4.000000,4.000000,4.000000,4.000000,4.000000,4.000000,4.000000,4.000000,4.000000,100.000000
1615604041.343130,62.000000,0.000000,7.827643,0.619824,28.708961,19.694828,10.928273,-3.662965,3.423364,4.674753,3.312498,17.327639,5.818942,20.814770,1.483120,-4.928141,6.149744,-2.712489,-2.118938,-11.369005,49.244934,32.033951,-5.889743,1.578157,5.284045,-5.796195,1.415075,-6.423823,4.121368,5.748923,2.470624,-8.323548,1.651507,-20.507212,8064.000000,0.000000,4.000000,,,,0.000000,4.000000,4.000000,4.000000,4.000000,4.000000,4.000000,4.000000,4.000000,4.000000,4.000000,4.000000,4.000000,4.000000,4.000000,4.000000,4.000000,4.000000,4.000000,4.000000,4.000000,4.000000,4.000000,4.000000,4.000000,4.000000,4.000000,4.000000,4.000000,4.000000,4.000000,4.000000,4.000000,100.000000
1615604041.350983,63.000000,0.000000,7.306995,0.619204,27.141792,19.675135,9.891704,-3.659302,3.419940,4.157257,4.334826,16.797489,9.915687,20.793955,1.481637,-1.333469,7.682055,6.520993,-2.629640,-0.075585,55.349537,30.976276,5.911018,12.345809,7.842864,-3.226296,-0.124802,-6.417399,6.681350,5.743174,10.673282,-7.289584,1.137035,-19.461065,8064.000000,0.000000,4.000000,,,,0.000000,4.000000,4.000000,4.000000,4.000000,4.000000,4.000000,4.000000,4.000000,4.000000,4.000000,4.000000,4.000000,4.000000,4.000000,4.000000,4.000000,4.000000,4.000000,4.000000,4.000000,4.000000,4.000000,4.000000,4.000000,4.000000,4.000000,4.000000,4.000000,4.000000,4.000000,4.000000,4.000000,100.000000
1615604041.358735,64.000000,0.000000,7.812508,0.618585,27.114651,19.655458,10.394632,-3.655643,3.416520,4.665920,6.381773,16.780693,13.495515,20.773161,11.736566,15.590941,24.084629,24.463190,-2.114190,13.257824,61.448032,24.791454,14.623055,18.487310,11.424765,5.494879,-0.124677,-2.308418,11.290053,5.737431,16.303635,-7.795115,5.238462,-18.415962,0.000000,189.000000,4.000000,,,,0.000000,4.000000,4.000000,4.000000,4.000000,4.000000,4.000000,4.000000,4.000000,4.000000,4.000000,4.000000,4.000000,4.000000,4.000000,4.000000,4.000000,4.000000,4.000000,4.000000,4.000000,4.000000,4.000000,4.000000,4.000000,4.000000,4.000000,4.000000,4.000000,4.000000,4.000000,4.000000,4.000000,100.000000
1615604041.366587,65.000000,0.000000,7.291875,0.617966,28.113176,19.122982,9.358597,-3.651987,3.413104,4.661254,7.913854,17.789553,13.482019,21.265209,19.929956,20.190735,38.419518,30.079752,-2.624896,11.706104,59.848122,21.689739,14.608433,18.468822,7.823596,10.617589,0.901089,1.283634,12.817225,5.731693,14.236049,-7.787320,7.797327,-17.371904,0.000000,191.000000,4.000000,,,,0.000000,4.000000,4.000000,4.000000,4.000000,4.000000,4.000000,4.000000,4.000000,4.000000,4.000000,4.000000,4.000000,4.000000,4.000000,4.000000,4.000000,4.000000,4.000000,4.000000,4.000000,4.000000,4.000000,4.000000,4.000000,4.000000,4.000000,4.000000,4.000000,4.000000,4.000000,4.000000,4.000000,100.000000
1615604041.374340,66.000000,0.000000,7.797404,0.617348,24.495319,17.052578,4.221033,-3.648335,3.409691,3.630952,7.393119,17.771763,12.955716,19.705482,19.397207,15.042339,38.893921,25.947107,-2.109451,11.694398,65.942123,26.283434,16.132286,19.475994,4.738849,10.606971,0.900188,-0.256111,11.778767,6.238782,13.196172,-7.266712,5.225427,-18.892996,0.000000,206.000000,4.000000,,,,0.000000,4.000000,4.000000,4.000000,4.000000,4.000000,4.000000,4.000000,4.000000,4.000000,4.000000,4.000000,4.000000,4.000000,4.000000,4.000000,4.000000,4.000000,4.000000,4.000000,4.000000,4.000000,4.000000,4.000000,4.000000,4.000000,4.000000,4.000000,4.000000,4.000000,4.000000,4.000000,4.000000,100.000000
1615604041.382192,67.000000,0.000000,10.353709,0.616731,19.855440,15.497064,1.652709,-3.644686,3.406281,6.191424,7.385726,16.215530,13.455582,17.634495,18.864988,15.027297,35.265282,25.408340,-1.594521,11.682704,55.619770,14.462279,9.449487,11.764211,3.708469,11.109185,-0.126353,-3.332778,12.279808,5.719723,10.618873,-7.772265,3.681740,-21.951025,0.000000,176.000000,4.000000,,,,0.000000,4.000000,4.000000,4.000000,4.000000,4.000000,4.000000,4.000000,4.000000,4.000000,4.000000,4.000000,4.000000,4.000000,4.000000,4.000000,4.000000,4.000000,4.000000,4.000000,4.000000,4.000000,4.000000,4.000000,4.000000,4.000000,4.000000,4.000000,4.000000,4.000000,4.000000,4.000000,4.000000,100.000000
1615604041.389945,68.000000,0.000000,11.368997,0.616114,19.322763,15.994388,2.676698,-3.641042,3.402875,11.313437,7.378340,17.224955,13.442125,16.591219,19.871765,16.550732,31.127453,21.280369,-3.131387,-1.662312,27.359020,0.601663,-5.944578,3.547318,3.191940,5.969871,-1.151868,-1.790984,12.267529,6.226823,8.556972,-7.764493,4.190878,-21.929073,0.000000,198.000000,4.000000,,,,0.000000,4.000000,4.000000,4.000000,4.000000,4.000000,4.000000,4.000000,4.000000,4.000000,4.000000,4.000000,4.000000,4.000000,4.000000,4.000000,4.000000,4.000000,4.000000,4.000000,4.000000,4.000000,4.000000,4.000000,4.000000,4.000000,4.000000,4.000000,4.000000,4.000000,4.000000,4.000000,4.000000,100.000000
1615604041.397797,69.000000,0.000000,11.870448,0.615498,19.816261,16.491213,2.674021,-3.637401,3.912292,12.327765,7.370962,18.233372,12.915863,17.087448,19.339073,13.970078,25.455301,13.566780,0.461487,-8.327316,35.023968,21.113882,-9.528377,7.133515,9.855415,2.886977,1.413386,3.851833,11.742440,9.297520,14.189441,-7.756729,5.725149,-19.343042,0.000000,166.000000,4.000000,,,,0.000000,4.000000,4.000000,4.000000,4.000000,4.000000,4.000000,4.000000,4.000000,4.000000,4.000000,4.000000,4.000000,4.000000,4.000000,4.000000,4.000000,4.000000,4.000000,4.000000,4.000000,4.000000,4.000000,4.000000,4.000000,4.000000,4.000000,4.000000,4.000000,4.000000,4.000000,4.000000,4.000000,100.000000
1615604041.405549,70.000000,0.000000,11.345757,0.614882,19.283625,14.936260,2.158526,-3.633763,2.882739,11.802617,7.876411,10.522830,12.902947,17.070360,19.319733,10.366364,24.917025,13.040393,8.666154,-1.139502,60.117149,40.067127,-10.544490,9.177664,12.922482,8.525116,-2.177771,5.386442,12.243518,9.288222,13.149611,-7.748972,6.745065,-18.298058,0.000000,193.000000,4.000000,,,,0.000000,4.000000,4.000000,4.000000,4.000000,4.000000,4.000000,4.000000,4.000000,4.000000,4.000000,4.000000,4.000000,4.000000,4.000000,4.000000,4.000000,4.000000,4.000000,4.000000,4.000000,4.000000,4.000000,4.000000,4.000000,4.000000,4.000000,4.000000,4.000000,4.000000,4.000000,4.000000,4.000000,100.000000
1615604041.413402,71.000000,0.000000,7.744668,0.614268,19.264341,12.870042,2.669188,-3.630130,0.315754,12.816455,6.330073,2.307179,12.890044,17.053289,17.249132,7.279075,19.251081,14.052994,6.093385,-6.779388,41.595493,15.924496,-24.892920,-0.575104,3.165971,5.439668,-15.508926,0.765671,11.205633,4.663549,3.392871,-8.254044,2.635756,-18.792582,0.000000,218.000000,4.000000,,,,0.000000,4.000000,4.000000,4.000000,4.000000,4.000000,4.000000,4.000000,4.000000,4.000000,4.000000,4.000000,4.000000,4.000000,4.000000,4.000000,4.000000,4.000000,4.000000,4.000000,4.000000,4.000000,4.000000,4.000000,4.000000,4.000000,4.000000,4.000000,4.000000,4.000000,4.000000,4.000000,4.000000,100.000000
1615604041.421154,72.000000,0.000000,4.147179,0.613653,19.245077,11.831532,2.666519,-3.626499,-0.710203,8.188254,4.272461,7.433077,12.877154,15.497775,13.129318,7.271796,3.334395,6.346632,-4.169118,-18.567480,21.553900,-8.193993,-27.432129,-2.625811,-2.991042,-8.924747,-16.519058,-2.824838,8.630325,1.581963,4.415119,-7.732969,0.069017,-17.748148,0.000000,228.000000,4.000000,,,,0.000000,4.000000,4.000000,4.000000,4.000000,4.000000,4.000000,4.000000,4.000000,4.000000,4.000000,4.000000,4.000000,4.000000,4.000000,4.000000,4.000000,4.000000,4.000000,4.000000,4.000000,4.000000,4.000000,4.000000,4.000000,4.000000,4.000000,4.000000,4.000000,4.000000,4.000000,4.000000,4.000000,100.000000
1615604041.429006,73.000000,0.000000,4.143032,0.100219,19.738653,12.332520,2.663853,-3.622873,-0.196672,1.513399,3.242548,12.553849,12.351457,13.430996,11.064907,7.264524,1.279778,0.699260,-7.241872,-10.343785,47.686192,0.019329,-6.379056,4.043481,3.165796,-14.044026,-4.194847,-3.334834,8.108874,2.093201,12.615832,-3.622672,3.145871,-17.730398,0.000000,188.000000,4.000000,,,,0.000000,4.000000,4.000000,4.000000,4.000000,4.000000,4.000000,4.000000,4.000000,4.000000,4.000000,4.000000,4.000000,4.000000,4.000000,4.000000,4.000000,4.000000,4.000000,4.000000,4.000000,4.000000,4.000000,4.000000,4.000000,4.000000,4.000000,4.000000,4.000000,4.000000,4.000000,4.000000,4.000000,100.000000
1615604041.436758,74.000000,0.000000,3.626069,1.125760,19.206093,12.320188,2.661189,-3.619250,-0.196476,4.075988,3.752126,9.464372,13.364746,12.904744,11.566663,5.718798,15.124653,8.903689,-4.670528,0.948610,62.510300,6.685977,6.447836,5.577899,5.726732,-8.388957,0.424732,-0.767396,8.100766,2.091108,13.628858,-0.029306,4.681187,-18.225489,0.000000,186.000000,4.000000,,,,0.000000,4.000000,4.000000,4.000000,4.000000,4.000000,4.000000,4.000000,4.000000,4.000000,4.000000,4.000000,4.000000,4.000000,4.000000,4.000000,4.000000,4.000000,4.000000,4.000000,4.000000,4.000000,4.000000,4.000000,4.000000,4.000000,4.000000,4.000000,4.000000,4.000000,4.000000,4.000000,4.000000,100.000000
1615604041.444411,75.000000,0.000000,4.135263,3.175916,19.186888,12.307867,2.145707,-4.128451,-0.196279,8.687297,3.748374,12.531831,15.402663,13.404660,11.042275,11.866925,20.750553,18.638376,-6.717139,-1.616441,51.165737,8.217752,6.441388,10.700527,3.669724,-0.175440,1.449949,2.823115,8.092665,1.576196,12.589587,-0.029276,3.650865,-17.694443,0.000000,208.000000,4.000000,,,,0.000000,4.000000,4.000000,4.000000,4.000000,4.000000,4.000000,4.000000,4.000000,4.000000,4.000000,4.000000,4.000000,4.000000,4.000000,4.000000,4.000000,4.000000,4.000000,4.000000,4.000000,4.000000,4.000000,4.000000,4.000000,4.000000,4.000000,4.000000,4.000000,4.000000,4.000000,4.000000,4.000000,100.000000
1615604041.452163,76.000000,0.000000,7.720871,4.711202,21.218983,12.295560,4.194844,-3.611502,-0.708903,8.165790,3.744625,19.698786,16.925722,13.391255,11.544054,23.649931,19.704163,23.235121,-3.633499,10.692868,73.165855,35.389023,15.152895,25.561621,4.178874,9.568326,9.653627,5.384394,8.084572,2.087441,11.551356,-0.542068,4.160035,-18.702389,0.000000,196.000000,4.000000,,,,0.000000,4.000000,4.000000,4.000000,4.000000,4.000000,4.000000,4.000000,4.000000,4.000000,4.000000,4.000000,4.000000,4.000000,4.000000,4.000000,4.000000,4.000000,4.000000,4.000000,4.000000,4.000000,4.000000,4.000000,4.000000,4.000000,4.000000,4.000000,4.000000,4.000000,4.000000,4.000000,4.000000,100.000000
1615604041.459815,77.000000,0.000000,5.661869,4.193670,23.249044,12.283264,6.241931,-1.556609,-0.195374,9.696085,3.740881,21.730370,16.395975,13.890684,14.096612,27.728844,27.889585,29.878553,8.165007,29.143713,102.836281,62.533119,23.342871,29.638624,3.149055,17.763885,10.669615,5.891830,8.076488,2.085353,7.437241,-0.028705,4.155875,-24.324713,0.000000,194.000000,4.000000,,,,0.000000,4.000000,4.000000,4.000000,4.000000,4.000000,4.000000,4.000000,4.000000,4.000000,4.000000,4.000000,4.000000,4.000000,4.000000,4.000000,4.000000,4.000000,4.000000,4.000000,4.000000,4.000000,4.000000,4.000000,4.000000,4.000000,4.000000,4.000000,4.000000,4.000000,4.000000,4.000000,4.000000,100.000000
1615604041.467567,78.000000,0.000000,-2.036101,4.189476,23.225796,12.270981,6.748509,-0.016591,0.317642,11.737671,3.224319,21.195818,16.379580,13.876794,15.620977,26.162653,33.502724,33.951241,8.156841,17.319698,70.425751,42.470589,14.088758,18.326933,1.607444,19.284584,3.992278,5.373118,6.017129,1.570447,4.865701,-0.541497,4.151719,-29.428593,0.000000,183.000000,4.000000,,,,0.000000,4.000000,4.000000,4.000000,4.000000,4.000000,4.000000,4.000000,4.000000,4.000000,4.000000,4.000000,4.000000,4.000000,4.000000,4.000000,4.000000,4.000000,4.000000,4.000000,4.000000,4.000000,4.000000,4.000000,4.000000,4.000000,4.000000,4.000000,4.000000,4.000000,4.000000,4.000000,4.000000,100.000000
1615604041.475220,79.000000,0.000000,-4.085347,3.672467,22.689751,11.745890,6.228940,-0.529395,-2.246778,7.623369,3.221095,18.097700,16.363201,12.324455,15.092536,26.649311,27.828194,32.891647,-5.184649,-5.261724,38.047630,10.120424,5.356721,9.077838,0.067375,14.649914,2.962645,1.265181,2.934189,2.081697,4.860836,-0.540955,4.147567,-29.911985,0.000000,218.000000,4.000000,,,,0.000000,4.000000,4.000000,4.000000,4.000000,4.000000,4.000000,4.000000,4.000000,4.000000,4.000000,4.000000,4.000000,4.000000,4.000000,4.000000,4.000000,4.000000,4.000000,4.000000,4.000000,4.000000,4.000000,4.000000,4.000000,4.000000,4.000000,4.000000,4.000000,4.000000,4.000000,4.000000,4.000000,100.000000
1615604041.482972,80.000000,0.000000,-2.542800,4.181614,22.667061,12.246964,4.684250,-0.016045,-3.782993,5.051643,3.730695,11.925756,16.346838,13.850593,15.590263,25.597021,24.210623,33.371574,-2.102541,-4.230822,45.701893,0.366714,7.402647,10.607222,-4.035256,8.994238,4.498144,-2.838649,0.879973,2.592436,4.855975,-0.540414,3.117778,-29.369253,0.000000,182.000000,4.000000,,,,0.000000,4.000000,4.000000,4.000000,4.000000,4.000000,4.000000,4.000000,4.000000,4.000000,4.000000,4.000000,4.000000,4.000000,4.000000,4.000000,4.000000,4.000000,4.000000,4.000000,4.000000,4.000000,4.000000,4.000000,4.000000,4.000000,4.000000,4.000000,4.000000,4.000000,4.000000,4.000000,4.000000,100.000000
1615604041.490624,81.000000,0.000000,-3.053078,4.177433,23.157213,11.721896,2.115463,-0.016029,-1.727928,3.508130,3.726964,8.324086,16.330490,14.862383,16.087494,19.417578,23.673592,30.261280,8.155972,2.440076,75.399780,11.135578,2.267039,12.135076,-6.082503,5.908321,2.442364,-2.322989,-1.172189,0.025741,4.851119,-3.103976,4.140302,-28.827063,0.000000,189.000000,4.000000,,,,0.000000,4.000000,4.000000,4.000000,4.000000,4.000000,4.000000,4.000000,4.000000,4.000000,4.000000,4.000000,4.000000,4.000000,4.000000,4.000000,4.000000,4.000000,4.000000,4.000000,4.000000,4.000000,4.000000,4.000000,4.000000,4.000000,4.000000,4.000000,4.000000,4.000000,4.000000,4.000000,4.000000,100.000000
1615604041.498376,82.000000,0.000000,-3.562845,2.634794,23.134056,11.710175,2.113348,-1.041654,-0.187739,0.940519,2.697596,8.828583,16.314159,5.103931,11.968843,12.218674,19.547354,17.410507,-3.647056,-4.741851,69.170532,10.098802,-12.607023,2.892171,-3.512318,2.825490,-0.637002,-3.859128,-2.709479,-1.512746,4.333447,-5.664975,6.700264,-26.746954,0.000000,196.000000,4.000000,,,,0.000000,4.000000,4.000000,4.000000,4.000000,4.000000,4.000000,4.000000,4.000000,4.000000,4.000000,4.000000,4.000000,4.000000,4.000000,4.000000,4.000000,4.000000,4.000000,4.000000,4.000000,4.000000,4.000000,4.000000,4.000000,4.000000,4.000000,4.000000,4.000000,4.000000,4.000000,4.000000,4.000000,100.000000
1615604041.506028,83.000000,0.000000,-3.046462,5.196262,22.085281,14.775388,6.213799,5.113234,-0.700371,2.478040,8.335924,8.819755,16.297846,-0.029378,6.828669,6.052608,15.938062,9.700788,-16.976742,-9.352494,46.537262,7.011779,-18.748262,-8.905593,-4.021626,-1.279900,-0.636365,-6.419371,-3.219590,0.027228,5.354755,-3.095207,7.206384,-23.130463,0.000000,198.000000,4.000000,,,,0.000000,4.000000,4.000000,4.000000,4.000000,4.000000,4.000000,4.000000,4.000000,4.000000,4.000000,4.000000,4.000000,4.000000,4.000000,4.000000,4.000000,4.000000,4.000000,4.000000,4.000000,4.000000,4.000000,4.000000,4.000000,4.000000,4.000000,4.000000,4.000000,4.000000,4.000000,4.000000,4.000000,100.000000
1615604041.513781,84.000000,0.000000,-3.043416,14.421835,24.627298,18.863176,10.310148,15.364532,2.890073,7.603767,18.071178,11.375037,16.281548,9.201420,7.847481,3.995274,15.922124,10.716728,-8.754638,-7.291860,42.388161,17.261177,-15.139771,-4.794123,-0.940682,-2.304261,-0.122908,-4.361670,-3.216370,2.591304,11.503246,2.036093,8.224819,-14.389384,0.000000,200.000000,4.000000,,,,0.000000,4.000000,4.000000,4.000000,4.000000,4.000000,4.000000,4.000000,4.000000,4.000000,4.000000,4.000000,4.000000,4.000000,4.000000,4.000000,4.000000,4.000000,4.000000,4.000000,4.000000,4.000000,4.000000,4.000000,4.000000,4.000000,4.000000,4.000000,4.000000,4.000000,4.000000,4.000000,4.000000,100.000000
1615604041.521433,85.000000,0.000000,-3.040372,20.048439,29.218056,19.869953,9.787018,17.913269,4.425644,6.057702,15.489004,12.902123,16.265266,13.807604,8.352454,2.965638,11.290817,5.577807,-6.694601,-8.310208,49.012440,28.013147,-13.586169,2.390158,5.726925,-1.789136,-0.635606,-2.306026,-2.700333,2.075892,16.619947,3.059698,12.319158,-7.708328,0.000000,184.000000,4.000000,,,,0.000000,4.000000,4.000000,4.000000,4.000000,4.000000,4.000000,4.000000,4.000000,4.000000,4.000000,4.000000,4.000000,4.000000,4.000000,4.000000,4.000000,4.000000,4.000000,4.000000,4.000000,4.000000,4.000000,4.000000,4.000000,4.000000,4.000000,4.000000,4.000000,4.000000,4.000000,4.000000,4.000000,100.000000
1615604041.529185,86.000000,0.000000,-4.062973,18.489929,30.727299,18.824444,9.264410,14.818433,-0.706987,3.487542,6.755566,10.837939,15.223360,6.101488,1.677435,-1.652713,1.535937,-2.120079,-13.354573,-12.404463,48.450603,25.933851,-14.085403,-2.740437,2.131455,-0.761706,-1.660611,-2.816541,-1.159171,1.560995,15.577687,3.056638,15.383762,-8.213440,0.000000,201.000000,4.000000,,,,0.000000,4.000000,4.000000,4.000000,4.000000,4.000000,4.000000,4.000000,4.000000,4.000000,4.000000,4.000000,4.000000,4.000000,4.000000,4.000000,4.000000,4.000000,4.000000,4.000000,4.000000,4.000000,4.000000,4.000000,4.000000,4.000000,4.000000,4.000000,4.000000,4.000000,4.000000,4.000000,4.000000,100.000000
1615604041.536837,87.000000,0.000000,-2.520448,17.958618,29.670931,19.318439,11.819248,14.290794,1.857823,4.509696,11.877016,15.442486,16.233778,4.556925,-0.375525,-3.702342,0.508760,-0.066677,-7.187372,-12.392058,46.863693,18.728432,-10.994395,-4.276158,-2.486061,2.828799,-0.120489,1.288840,0.893270,2.072255,17.100571,5.104864,16.906839,-5.128304,0.000000,199.000000,4.000000,,,,0.000000,4.000000,4.000000,4.000000,4.000000,4.000000,4.000000,4.000000,4.000000,4.000000,4.000000,4.000000,4.000000,4.000000,4.000000,4.000000,4.000000,4.000000,4.000000,4.000000,4.000000,4.000000,4.000000,4.000000,4.000000,4.000000,4.000000,4.000000,4.000000,4.000000,4.000000,4.000000,4.000000,100.000000
1615604041.544589,88.000000,0.000000,-0.466646,18.966301,30.154081,19.811941,13.858711,14.789324,13.138017,3.479545,22.121550,23.119350,16.217545,7.116471,5.265876,-0.621717,-0.004569,5.574416,-4.103262,-11.354025,48.355289,9.478933,-8.419298,3.420426,0.080528,6.415714,-0.633189,5.902936,0.892377,2.070183,20.160393,7.151041,18.428394,-2.046252,0.000000,166.000000,4.000000,,,,0.000000,4.000000,4.000000,4.000000,4.000000,4.000000,4.000000,4.000000,4.000000,4.000000,4.000000,4.000000,4.000000,4.000000,4.000000,4.000000,4.000000,4.000000,4.000000,4.000000,4.000000,4.000000,4.000000,4.000000,4.000000,4.000000,4.000000,4.000000,4.000000,4.000000,4.000000,4.000000,4.000000,100.000000
1615604041.552241,89.000000,0.000000,0.046641,17.921694,30.123926,18.766489,13.332032,14.261714,12.612058,5.014527,20.048145,21.557770,14.662865,4.545252,6.286252,-1.646736,-0.004565,5.056021,-9.227364,-11.855492,47.794113,4.341249,-9.949341,7.006749,-1.970835,5.896478,-2.171017,4.871392,0.378664,1.042471,18.601772,7.143889,18.409966,-12.813437,0.000000,185.000000,4.000000,,,,0.000000,4.000000,4.000000,4.000000,4.000000,4.000000,4.000000,4.000000,4.000000,4.000000,4.000000,4.000000,4.000000,4.000000,4.000000,4.000000,4.000000,4.000000,4.000000,4.000000,4.000000,4.000000,4.000000,4.000000,4.000000,4.000000,4.000000,4.000000,4.000000,4.000000,4.000000,4.000000,4.000000,100.000000
1615604041.560094,90.000000,0.000000,1.585056,18.416592,30.093803,18.747723,12.293059,13.734632,6.445600,13.727461,19.002457,21.536213,19.263586,8.643270,10.382529,2.970295,15.892876,12.230452,0.525454,-4.664149,54.412987,18.695883,-4.811186,9.563845,-1.456044,4.352120,6.036282,5.379341,0.891106,2.579890,21.660093,9.188027,20.442839,-16.390368,0.000000,169.000000,4.000000,,,,0.000000,4.000000,4.000000,4.000000,4.000000,4.000000,4.000000,4.000000,4.000000,4.000000,4.000000,4.000000,4.000000,4.000000,4.000000,4.000000,4.000000,4.000000,4.000000,4.000000,4.000000,4.000000,4.000000,4.000000,4.000000,4.000000,4.000000,4.000000,4.000000,4.000000,4.000000,4.000000,4.000000,100.000000
1615604041.567846,91.000000,0.000000,6.198856,20.962278,32.627811,20.780256,15.870510,14.233718,14.131462,19.867580,29.239864,30.745445,30.013554,20.942320,27.808044,21.941685,39.466728,28.628477,15.909543,16.366156,78.461136,42.779751,12.629522,18.272230,12.391566,9.475973,19.876400,10.502167,4.479958,7.192695,31.382023,10.204481,25.037781,0.549100,0.000000,180.000000,4.000000,,,,0.000000,4.000000,4.000000,4.000000,4.000000,4.000000,4.000000,4.000000,4.000000,4.000000,4.000000,4.000000,4.000000,4.000000,4.000000,4.000000,4.000000,4.000000,4.000000,4.000000,4.000000,4.000000,4.000000,4.000000,4.000000,4.000000,4.000000,4.000000,4.000000,4.000000,4.000000,4.000000,4.000000,100.000000
1615604041.575599,92.000000,0.000000,8.756760,22.479776,34.133644,22.810759,20.470024,14.219483,17.707073,19.847712,34.851650,35.330086,35.624565,26.562403,39.062286,38.329998,48.145206,37.830620,17.944916,36.349789,96.331398,50.942101,22.873304,22.869343,19.558662,18.184446,23.446266,13.055767,8.065222,9.749605,31.863461,10.194276,26.551203,7.728038,0.000000,217.000000,4.000000,,,,0.000000,4.000000,4.000000,4.000000,4.000000,4.000000,4.000000,4.000000,4.000000,4.000000,4.000000,4.000000,4.000000,4.000000,4.000000,4.000000,4.000000,4.000000,4.000000,4.000000,4.000000,4.000000,4.000000,4.000000,4.000000,4.000000,4.000000,4.000000,4.000000,4.000000,4.000000,4.000000,4.000000,100.000000
1615604041.583251,93.000000,0.000000,8.235183,21.944477,33.586693,23.300768,21.475195,14.205264,7.432956,19.315044,29.175772,31.705011,35.076122,22.433277,37.997585,39.317310,43.481678,36.767147,16.901331,35.287800,97.773529,50.891155,21.311968,21.308012,16.462179,21.756004,19.320257,12.017071,8.569977,9.227035,24.139290,11.209723,26.011831,-2.536100,0.000000,168.000000,4.000000,,,,0.000000,4.000000,4.000000,4.000000,4.000000,4.000000,4.000000,4.000000,4.000000,4.000000,4.000000,4.000000,4.000000,4.000000,4.000000,4.000000,4.000000,4.000000,4.000000,4.000000,4.000000,4.000000,4.000000,4.000000,4.000000,4.000000,4.000000,4.000000,4.000000,4.000000,4.000000,4.000000,4.000000,100.000000
1615604041.591103,94.000000,0.000000,8.226947,21.922533,33.553104,22.764647,20.428078,14.191059,1.271677,15.705985,24.531212,30.134844,32.989761,20.872381,37.959587,35.688248,36.258709,34.166279,15.858788,19.355076,99.214211,50.327446,22.316298,22.312344,14.907256,20.195787,17.762474,12.517874,8.561407,9.217808,22.063869,9.660051,25.985821,-8.687410,0.000000,190.000000,4.000000,,,,0.000000,4.000000,4.000000,4.000000,4.000000,4.000000,4.000000,4.000000,4.000000,4.000000,4.000000,4.000000,4.000000,4.000000,4.000000,4.000000,4.000000,4.000000,4.000000,4.000000,4.000000,4.000000,4.000000,4.000000,4.000000,4.000000,4.000000,4.000000,4.000000,4.000000,4.000000,4.000000,4.000000,100.000000
1615604041.598856,95.000000,0.000000,6.680259,21.900610,33.519550,22.741882,20.920471,14.176867,3.834508,11.587715,25.532322,31.643171,25.777287,21.364330,36.383167,39.242306,32.119888,33.619289,8.663442,7.540849,95.012436,33.866863,18.191418,20.238750,12.328246,21.201233,17.231892,12.505356,8.552846,9.721411,23.580267,10.163212,25.959835,-6.627440,0.000000,197.000000,4.000000,,,,0.000000,4.000000,4.000000,4.000000,4.000000,4.000000,4.000000,4.000000,4.000000,4.000000,4.000000,4.000000,4.000000,4.000000,4.000000,4.000000,4.000000,4.000000,4.000000,4.000000,4.000000,4.000000,4.000000,4.000000,4.000000,4.000000,4.000000,4.000000,4.000000,4.000000,4.000000,4.000000,4.000000,100.000000
1615604041.606708,96.000000,0.000000,4.622296,22.391529,33.998852,23.231960,21.412371,14.675511,3.317853,12.088948,26.019609,32.124348,20.110483,19.804504,29.680115,38.690243,32.087769,31.534389,5.065035,0.866641,70.814857,15.371456,0.224508,12.013383,8.213354,19.128750,14.650558,11.467210,8.544292,9.198869,23.556686,16.306894,26.446695,-5.082352,8064.000000,0.000000,4.000000,,,,0.000000,4.000000,4.000000,4.000000,4.000000,4.000000,4.000000,4.000000,4.000000,4.000000,4.000000,4.000000,4.000000,4.000000,4.000000,4.000000,4.000000,4.000000,4.000000,4.000000,4.000000,4.000000,4.000000,4.000000,4.000000,4.000000,4.000000,4.000000,4.000000,4.000000,4.000000,4.000000,4.000000,100.000000
1615604041.614461,97.000000,0.000000,4.104854,21.856318,31.400751,21.670267,18.314035,13.122375,2.801715,11.051218,21.891026,26.964020,19.577551,17.733418,19.906845,22.241295,26.927475,22.784906,3.521508,-6.313713,52.795326,11.253521,-15.160332,4.309062,7.179500,11.930133,11.046163,12.994204,8.535748,9.189670,23.020309,14.239306,23.343325,-9.692654,8064.000000,0.000000,4.000000,,,,0.000000,4.000000,4.000000,4.000000,4.000000,4.000000,4.000000,4.000000,4.000000,4.000000,4.000000,4.000000,4.000000,4.000000,4.000000,4.000000,4.000000,4.000000,4.000000,4.000000,4.000000,4.000000,4.000000,4.000000,4.000000,4.000000,4.000000,4.000000,4.000000,4.000000,4.000000,4.000000,4.000000,100.000000
1615604041.622313,98.000000,0.000000,2.562287,19.270359,25.728325,19.084494,12.141875,10.545150,3.824554,3.860679,15.715289,18.219107,16.481050,12.587479,4.502324,2.219054,12.541573,13.531352,-2.635859,-9.384322,58.896378,8.678164,-18.734915,2.253471,4.608218,6.277177,6.932553,10.929928,7.501572,9.180480,18.381905,1.917375,15.114854,-20.452192,8064.000000,0.000000,4.000000,,,,0.000000,4.000000,4.000000,4.000000,4.000000,4.000000,4.000000,4.000000,4.000000,4.000000,4.000000,4.000000,4.000000,4.000000,4.000000,4.000000,4.000000,4.000000,4.000000,4.000000,4.000000,4.000000,4.000000,4.000000,4.000000,4.000000,4.000000,4.000000,4.000000,4.000000,4.000000,4.000000,4.000000,100.000000
1615604041.630065,99.000000,0.000000,0.508443,17.712627,22.112852,18.552589,8.539989,10.021784,0.743807,-0.245745,13.135471,14.611144,9.797903,6.421045,-7.297050,-1.885730,6.375185,9.415257,-6.735788,-8.349297,55.247738,0.977179,-15.126437,2.764038,-0.011775,5.245259,5.899979,1.175408,3.391506,9.171300,12.209676,-0.648645,9.971534,-26.072765,8064.000000,0.000000,4.000000,,,,0.000000,4.000000,4.000000,4.000000,4.000000,4.000000,4.000000,4.000000,4.000000,4.000000,4.000000,4.000000,4.000000,4.000000,4.000000,4.000000,4.000000,4.000000,4.000000,4.000000,4.000000,4.000000,4.000000,4.000000,4.000000,4.000000,4.000000,4.000000,4.000000,4.000000,4.000000,4.000000,4.000000,100.000000
1615604041.637918,100.000000,0.000000,0.507934,17.694914,22.090740,18.534037,9.557091,10.524583,0.230242,0.267321,13.635157,16.134995,7.736824,4.876163,-8.828215,-0.858203,7.394450,7.867380,-7.754693,-8.340947,34.166847,0.976202,-4.342080,1.735633,-0.011763,5.752834,6.919720,-3.441152,0.311191,9.162128,11.171825,5.505849,10.474382,-22.456949,8064.000000,0.000000,4.000000,,,,0.000000,4.000000,4.000000,4.000000,4.000000,4.000000,4.000000,4.000000,4.000000,4.000000,4.000000,4.000000,4.000000,4.000000,4.000000,4.000000,4.000000,4.000000,4.000000,4.000000,4.000000,4.000000,4.000000,4.000000,4.000000,4.000000,4.000000,4.000000,4.000000,4.000000,4.000000,4.000000,4.000000,100.000000
1615604041.645670,101.000000,0.000000,-1.031035,18.190041,22.068649,18.515503,9.547534,10.514058,5.358217,0.779874,14.134342,15.093218,8.754727,5.896927,-8.819386,-7.524011,1.746030,6.321051,-9.285399,-7.819786,36.183964,8.667533,5.918673,1.733897,-0.011752,5.234261,6.399980,1.690494,0.310880,9.152966,12.186295,7.038805,10.463908,-21.408852,8064.000000,0.000000,4.000000,,,,0.000000,4.000000,4.000000,4.000000,4.000000,4.000000,4.000000,4.000000,4.000000,4.000000,4.000000,4.000000,4.000000,4.000000,4.000000,4.000000,4.000000,4.000000,4.000000,4.000000,4.000000,4.000000,4.000000,4.000000,4.000000,4.000000,4.000000,4.000000,4.000000,4.000000,4.000000,4.000000,4.000000,100.000000
1615604041.653522,102.000000,0.000000,-3.081286,17.659029,22.046579,18.496986,9.025166,9.990724,6.378500,-0.246547,13.094566,15.078125,7.207511,5.378210,-5.220824,-6.490846,1.744284,4.776268,-4.147909,-5.247863,62.814445,18.402454,6.425575,4.296266,1.526722,5.229027,6.393580,5.278547,0.823390,9.143813,11.661287,5.493305,10.453444,-22.413084,8064.000000,0.000000,4.000000,,,,0.000000,4.000000,4.000000,4.000000,4.000000,4.000000,4.000000,4.000000,4.000000,4.000000,4.000000,4.000000,4.000000,4.000000,4.000000,4.000000,4.000000,4.000000,4.000000,4.000000,4.000000,4.000000,4.000000,4.000000,4.000000,4.000000,4.000000,4.000000,4.000000,4.000000,4.000000,4.000000,4.000000,100.000000
1615604041.661274,103.000000,0.000000,-3.591025,18.154190,22.024534,18.478489,9.528961,10.493553,0.731096,0.779341,13.594293,22.755354,8.738766,4.860011,10.681833,0.695132,13.024591,4.771492,4.574187,-3.704154,75.059326,23.512259,5.906329,8.907354,4.089298,5.736618,6.900007,4.247628,0.309746,9.134669,11.649626,4.462171,10.442991,-21.877850,8064.000000,0.000000,4.000000,,,,0.000000,4.000000,4.000000,4.000000,4.000000,4.000000,4.000000,4.000000,4.000000,4.000000,4.000000,4.000000,4.000000,4.000000,4.000000,4.000000,4.000000,4.000000,4.000000,4.000000,4.000000,4.000000,4.000000,4.000000,4.000000,4.000000,4.000000,4.000000,4.000000,4.000000,4.000000,4.000000,4.000000,100.000000
1615604041.669126,104.000000,0.000000,-3.074614,18.136036,21.489689,18.460011,9.519432,10.483060,-1.320917,0.265741,15.631980,27.860804,14.371053,5.880792,22.978844,4.284180,20.191053,10.920567,6.108075,-3.187629,73.445801,23.488747,6.926063,9.924088,1.008285,5.730882,5.867466,3.730560,0.822257,9.125535,11.637977,2.406426,10.432548,-22.368792,8064.000000,0.000000,4.000000,,,,0.000000,4.000000,4.000000,4.000000,4.000000,4.000000,4.000000,4.000000,4.000000,4.000000,4.000000,4.000000,4.000000,4.000000,4.000000,4.000000,4.000000,4.000000,4.000000,4.000000,4.000000,4.000000,4.000000,4.000000,4.000000,4.000000,4.000000,4.000000,4.000000,4.000000,4.000000,4.000000,4.000000,100.000000
1615604041.676879,105.000000,0.000000,-3.071539,18.117901,23.519482,21.518475,9.509912,10.472577,-0.806776,0.265475,17.667629,24.756020,16.407963,5.874911,21.417402,6.331178,23.247786,21.166056,4.563505,-1.133160,76.449280,25.516539,6.406317,11.452625,-3.095287,5.725151,7.912880,5.265291,0.821434,9.116409,12.651979,6.506584,13.499039,-19.782320,8064.000000,0.000000,4.000000,,,,0.000000,4.000000,4.000000,4.000000,4.000000,4.000000,4.000000,4.000000,4.000000,4.000000,4.000000,4.000000,4.000000,4.000000,4.000000,4.000000,4.000000,4.000000,4.000000,4.000000,4.000000,4.000000,4.000000,4.000000,4.000000,4.000000,4.000000,4.000000,4.000000,4.000000,4.000000,4.000000,4.000000,100.000000
1615604041.684531,106.000000,0.000000,-3.068468,18.612604,28.111345,25.599520,9.500402,10.462104,-0.805969,2.316492,17.649963,23.192802,14.853094,4.843396,17.806242,8.888949,25.788641,24.734634,5.584582,-0.619206,77.398476,27.029484,6.399910,12.979634,-2.579371,5.719426,12.520352,9.362589,0.820613,9.107293,15.203430,15.218026,17.588104,-13.095872,8064.000000,0.000000,4.000000,,,,0.000000,4.000000,4.000000,4.000000,4.000000,4.000000,4.000000,4.000000,4.000000,4.000000,4.000000,4.000000,4.000000,4.000000,4.000000,4.000000,4.000000,4.000000,4.000000,4.000000,4.000000,4.000000,4.000000,4.000000,4.000000,4.000000,4.000000,4.000000,4.000000,4.000000,4.000000,4.000000,4.000000,100.000000
1615604041.692283,107.000000,0.000000,-3.065399,17.055529,30.134518,26.599562,9.490903,10.451642,-0.805163,3.852637,17.632313,28.297815,19.453625,6.889834,18.814077,12.469804,26.275673,23.684258,5.066177,0.919875,72.192871,22.387070,8.957613,12.453834,0.500131,5.713706,14.559114,14.481432,0.819792,9.098186,16.213867,18.279732,18.596157,-10.005853,8064.000000,0.000000,4.000000,,,,0.000000,4.000000,4.000000,4.000000,4.000000,4.000000,4.000000,4.000000,4.000000,4.000000,4.000000,4.000000,4.000000,4.000000,4.000000,4.000000,4.000000,4.000000,4.000000,4.000000,4.000000,4.000000,4.000000,4.000000,4.000000,4.000000,4.000000,4.000000,4.000000,4.000000,4.000000,4.000000,4.000000,100.000000
1615604041.699935,108.000000,0.000000,-3.062334,14.987191,29.591562,26.060141,9.481412,10.441191,-1.829999,4.874425,17.614679,31.346441,26.100838,10.985509,20.846544,20.662462,29.839140,24.686214,5.061111,4.508698,76.223236,19.800581,9.974297,15.518303,3.576554,5.707993,14.031734,16.005411,0.818973,9.089087,15.684834,17.235811,18.064739,-10.508668,8064.000000,0.000000,4.000000,,,,0.000000,4.000000,4.000000,4.000000,4.000000,4.000000,4.000000,4.000000,4.000000,4.000000,4.000000,4.000000,4.000000,4.000000,4.000000,4.000000,4.000000,4.000000,4.000000,4.000000,4.000000,4.000000,4.000000,4.000000,4.000000,4.000000,4.000000,4.000000,4.000000,4.000000,4.000000,4.000000,4.000000,100.000000
1615604041.707687,109.000000,0.000000,-3.059271,13.946564,29.561970,25.521261,9.471931,10.430749,-0.802528,8.459294,17.597065,30.289454,27.613199,13.538626,22.364161,25.770004,33.911865,24.661530,5.056050,3.478549,80.762398,19.780779,9.451502,16.015606,7.675541,5.702284,14.017702,15.476586,0.818154,9.079998,15.669148,17.218575,18.046675,-8.446877,8064.000000,0.000000,4.000000,,,,0.000000,4.000000,4.000000,4.000000,4.000000,4.000000,4.000000,4.000000,4.000000,4.000000,4.000000,4.000000,4.000000,4.000000,4.000000,4.000000,4.000000,4.000000,4.000000,4.000000,4.000000,4.000000,4.000000,4.000000,4.000000,4.000000,4.000000,4.000000,4.000000,4.000000,4.000000,4.000000,4.000000,100.000000
1615604041.715340,110.000000,0.000000,-3.056212,14.445437,29.532408,26.521381,9.462459,10.420319,8.429044,12.040579,17.579468,29.746344,26.559944,13.012266,21.316154,25.744236,29.262569,24.636868,4.025353,3.987890,71.963692,17.709717,8.416409,5.230359,6.642225,5.696582,14.516505,15.461109,0.817335,9.070918,15.653480,17.714176,18.541449,-6.387148,8064.000000,0.000000,4.000000,,,,0.000000,4.000000,4.000000,4.000000,4.000000,4.000000,4.000000,4.000000,4.000000,4.000000,4.000000,4.000000,4.000000,4.000000,4.000000,4.000000,4.000000,4.000000,4.000000,4.000000,4.000000,4.000000,4.000000,4.000000,4.000000,4.000000,4.000000,4.000000,4.000000,4.000000,4.000000,4.000000,4.000000,100.000000
1615604041.723092,111.000000,0.000000,-3.565976,14.430992,29.502876,28.546141,9.452996,10.409898,19.702665,11.515718,17.049068,30.742237,26.533384,12.999254,22.320480,30.333876,27.694845,34.868641,5.559789,17.317236,74.968651,28.461239,8.920814,4.199488,4.071480,5.178065,13.989168,15.445648,0.816518,9.061848,15.637826,17.183641,18.010086,-6.893581,8064.000000,0.000000,4.000000,,,,0.000000,4.000000,4.000000,4.000000,4.000000,4.000000,4.000000,4.000000,4.000000,4.000000,4.000000,4.000000,4.000000,4.000000,4.000000,4.000000,4.000000,4.000000,4.000000,4.000000,4.000000,4.000000,4.000000,4.000000,4.000000,4.000000,4.000000,4.000000,4.000000,4.000000,4.000000,4.000000,4.000000,100.000000
1615604041.730744,112.000000,0.000000,-3.562411,13.903740,29.473373,28.517595,9.443542,10.399488,22.247066,10.991382,17.032019,30.198675,27.019672,12.986255,24.862261,32.867645,36.385098,46.115822,10.169614,27.043509,98.996246,48.945599,9.424713,17.015800,4.067409,5.685708,13.975179,15.430202,0.815702,9.052786,15.622188,17.166458,17.992077,-6.886688,8064.000000,0.000000,4.000000,,,,0.000000,4.000000,4.000000,4.000000,4.000000,4.000000,4.000000,4.000000,4.000000,4.000000,4.000000,4.000000,4.000000,4.000000,4.000000,4.000000,4.000000,4.000000,4.000000,4.000000,4.000000,4.000000,4.000000,4.000000,4.000000,4.000000,4.000000,4.000000,4.000000,4.000000,4.000000,4.000000,4.000000,100.000000
1615604041.738496,113.000000,0.000000,-1.507566,14.402658,29.443899,25.924974,9.434099,10.389089,20.686357,12.006031,17.527807,30.168476,26.479832,12.973269,22.273296,26.168110,35.835892,42.992783,12.723547,11.119029,97.871605,48.383831,7.876827,21.101349,3.550521,8.244124,13.961204,15.414772,0.814886,9.043733,15.606565,17.149292,17.974085,-7.392622,8064.000000,0.000000,4.000000,,,,0.000000,4.000000,4.000000,4.000000,4.000000,4.000000,4.000000,4.000000,4.000000,4.000000,4.000000,4.000000,4.000000,4.000000,4.000000,4.000000,4.000000,4.000000,4.000000,4.000000,4.000000,4.000000,4.000000,4.000000,4.000000,4.000000,4.000000,4.000000,4.000000,4.000000,4.000000,4.000000,4.000000,100.000000
1615604041.746149,114.000000,0.000000,0.032403,14.388254,29.414455,25.386229,9.424665,10.378699,21.691313,10.968384,16.997459,30.138308,26.453352,12.447474,17.122818,20.500916,24.518005,31.667740,12.198003,-6.327987,71.619888,30.899549,8.894590,22.105888,4.572611,11.825624,13.947243,15.399358,0.814071,9.034689,15.590960,17.132143,17.956110,-6.872408,8064.000000,0.000000,4.000000,,,,0.000000,4.000000,4.000000,4.000000,4.000000,4.000000,4.000000,4.000000,4.000000,4.000000,4.000000,4.000000,4.000000,4.000000,4.000000,4.000000,4.000000,4.000000,4.000000,4.000000,4.000000,4.000000,4.000000,4.000000,4.000000,4.000000,4.000000,4.000000,4.000000,4.000000,4.000000,4.000000,4.000000,100.000000
1615604041.753901,115.000000,0.000000,0.545191,14.373866,29.385040,25.873663,9.415240,10.368320,23.720903,11.470236,16.980463,30.108170,26.426899,12.947848,18.131336,19.967594,20.390924,25.995047,12.185805,5.473212,78.214935,29.843010,20.680569,34.904297,11.234705,12.839439,13.933295,15.383959,0.813257,9.025655,15.575368,17.115009,16.399693,-4.301434,8064.000000,0.000000,4.000000,,,,0.000000,4.000000,4.000000,4.000000,4.000000,4.000000,4.000000,4.000000,4.000000,4.000000,4.000000,4.000000,4.000000,4.000000,4.000000,4.000000,4.000000,4.000000,4.000000,4.000000,4.000000,4.000000,4.000000,4.000000,4.000000,4.000000,4.000000,4.000000,4.000000,4.000000,4.000000,4.000000,4.000000,100.000000
1615604041.761553,116.000000,0.000000,4.134389,14.359492,29.355656,25.847790,9.405826,10.357953,25.235643,16.074150,20.553225,30.078062,26.400473,14.473362,24.779871,21.998909,26.524380,26.481873,12.686440,27.519022,103.264923,41.095219,33.480400,41.023239,15.838856,13.339420,13.919362,15.368574,0.812444,9.016628,15.046972,17.097895,13.819191,-5.322773,8064.000000,0.000000,4.000000,,,,0.000000,4.000000,4.000000,4.000000,4.000000,4.000000,4.000000,4.000000,4.000000,4.000000,4.000000,4.000000,4.000000,4.000000,4.000000,4.000000,4.000000,4.000000,4.000000,4.000000,4.000000,4.000000,4.000000,4.000000,4.000000,4.000000,4.000000,4.000000,4.000000,4.000000,4.000000,4.000000,4.000000,100.000000
1615604041.769305,117.000000,0.000000,8.232820,14.345133,29.326300,25.821941,9.396420,10.347594,24.697588,19.647820,24.635237,30.047983,26.374071,16.510170,28.857656,30.694859,32.651699,32.096416,12.160933,30.055605,94.956535,42.079762,35.498203,35.854008,15.310196,16.915825,14.418263,15.353206,0.811631,9.007612,15.544746,17.080797,14.831013,-9.932835,8064.000000,0.000000,4.000000,,,,0.000000,4.000000,4.000000,4.000000,4.000000,4.000000,4.000000,4.000000,4.000000,4.000000,4.000000,4.000000,4.000000,4.000000,4.000000,4.000000,4.000000,4.000000,4.000000,4.000000,4.000000,4.000000,4.000000,4.000000,4.000000,4.000000,4.000000,4.000000,4.000000,4.000000,4.000000,4.000000,4.000000,100.000000
1615604041.776957,118.000000,0.000000,8.224586,14.330788,27.758512,24.257658,8.874203,10.337247,24.160069,19.115351,25.123421,30.017935,26.347696,16.493660,31.392900,39.382114,35.183151,39.756626,12.148772,27.974268,82.041061,41.524864,35.975525,35.305336,14.782065,20.488653,13.891025,15.337852,0.810820,8.998605,18.093304,17.063717,17.380283,-11.461364,8064.000000,0.000000,4.000000,,,,0.000000,4.000000,4.000000,4.000000,4.000000,4.000000,4.000000,4.000000,4.000000,4.000000,4.000000,4.000000,4.000000,4.000000,4.000000,4.000000,4.000000,4.000000,4.000000,4.000000,4.000000,4.000000,4.000000,4.000000,4.000000,4.000000,4.000000,4.000000,4.000000,4.000000,4.000000,4.000000,4.000000,100.000000
1615604041.784709,119.000000,0.000000,7.703541,14.316457,25.679472,21.669298,9.378149,10.326910,24.648729,18.070595,24.072657,29.987917,26.321350,16.477167,32.899971,38.829910,37.199249,42.793793,12.136623,33.074497,96.318001,52.252567,33.375446,33.731567,15.280104,19.955343,13.877133,15.322515,0.810009,8.989606,19.613672,17.046654,17.362904,-10.424261,8064.000000,0.000000,4.000000,,,,0.000000,4.000000,4.000000,4.000000,4.000000,4.000000,4.000000,4.000000,4.000000,4.000000,4.000000,4.000000,4.000000,4.000000,4.000000,4.000000,4.000000,4.000000,4.000000,4.000000,4.000000,4.000000,4.000000,4.000000,4.000000,4.000000,4.000000,4.000000,4.000000,4.000000,4.000000,4.000000,4.000000,100.000000
1615604041.792361,120.000000,0.000000,8.208658,14.302140,25.140972,24.211731,11.420053,10.316583,24.624081,19.078165,25.074224,29.957930,26.295029,16.973511,32.867069,36.226978,37.674873,41.725357,12.124486,27.913218,96.734497,58.354164,14.367712,23.954247,15.264824,20.448208,14.376077,15.307192,0.809199,8.980617,19.081238,17.029606,17.858362,-10.413837,8192.000000,0.000000,4.000000,,,,0.000000,4.000000,4.000000,4.000000,4.000000,4.000000,4.000000,4.000000,4.000000,4.000000,4.000000,4.000000,4.000000,4.000000,4.000000,4.000000,4.000000,4.000000,4.000000,4.000000,4.000000,4.000000,4.000000,4.000000,4.000000,4.000000,4.000000,4.000000,4.000000,4.000000,4.000000,4.000000,4.000000,100.000000
1615604041.800113,121.000000,0.000000,8.200450,14.287838,25.628653,26.238802,12.947094,10.306267,24.599457,19.571907,24.536331,29.927971,26.268734,16.443716,27.705997,35.677929,34.047455,42.196453,12.112362,8.910946,66.894173,43.424015,-5.133835,12.135421,14.736738,21.453402,10.771957,15.291885,0.808390,8.971636,19.062157,17.525396,17.840504,-10.916244,8064.000000,0.000000,4.000000,,,,0.000000,4.000000,4.000000,4.000000,4.000000,4.000000,4.000000,4.000000,4.000000,4.000000,4.000000,4.000000,4.000000,4.000000,4.000000,4.000000,4.000000,4.000000,4.000000,4.000000,4.000000,4.000000,4.000000,4.000000,4.000000,4.000000,4.000000,4.000000,4.000000,4.000000,4.000000,4.000000,4.000000,100.000000
1615604041.807765,122.000000,0.000000,7.679429,13.760730,25.090202,23.648460,12.934147,10.295960,24.062037,15.962592,21.947691,29.898043,25.729645,16.427273,22.037266,31.539688,28.885201,41.641438,11.074609,-2.892837,54.006767,21.842129,-8.205625,4.430977,12.157899,14.765281,3.581698,13.225311,0.807581,8.962664,19.043095,16.482231,16.797022,-10.905328,8064.000000,0.000000,4.000000,,,,0.000000,4.000000,4.000000,4.000000,4.000000,4.000000,4.000000,4.000000,4.000000,4.000000,4.000000,4.000000,4.000000,4.000000,4.000000,4.000000,4.000000,4.000000,4.000000,4.000000,4.000000,4.000000,4.000000,4.000000,4.000000,4.000000,4.000000,4.000000,4.000000,4.000000,4.000000,4.000000,4.000000,100.000000
1615604041.815617,123.000000,0.000000,7.671749,14.259789,25.577932,22.086351,12.921213,10.285665,24.037975,11.331245,20.387283,29.868145,26.216734,16.923666,20.476767,28.431225,29.369137,40.574154,11.063534,2.751082,66.260452,15.666440,-1.530752,9.041931,10.607280,5.519746,2.039655,11.160804,0.806774,8.953701,19.024052,17.491390,20.882790,-8.330319,8064.000000,0.000000,4.000000,,,,0.000000,4.000000,4.000000,4.000000,4.000000,4.000000,4.000000,4.000000,4.000000,4.000000,4.000000,4.000000,4.000000,4.000000,4.000000,4.000000,4.000000,4.000000,4.000000,4.000000,4.000000,4.000000,4.000000,4.000000,4.000000,4.000000,4.000000,4.000000,4.000000,4.000000,4.000000,4.000000,4.000000,100.000000
1615604041.823370,124.000000,0.000000,8.176898,14.245530,25.552355,24.628366,12.908292,10.275378,25.039577,10.807094,20.366896,29.838278,26.190517,13.829819,20.969110,27.377153,28.826946,41.559223,12.590932,13.004741,72.860863,20.266157,10.778471,20.827761,11.622313,3.975765,6.140179,11.149643,0.805967,8.944748,19.517847,17.473898,28.041393,-6.270707,8064.000000,0.000000,4.000000,,,,0.000000,4.000000,4.000000,4.000000,4.000000,4.000000,4.000000,4.000000,4.000000,4.000000,4.000000,4.000000,4.000000,4.000000,4.000000,4.000000,4.000000,4.000000,4.000000,4.000000,4.000000,4.000000,4.000000,4.000000,4.000000,4.000000,4.000000,4.000000,4.000000,4.000000,4.000000,4.000000,4.000000,100.000000
1615604041.831222,125.000000,0.000000,7.143080,13.718464,23.988340,26.142200,12.895384,10.265103,23.476076,9.770645,20.859348,29.808439,25.651506,9.713425,18.896860,22.734392,20.592991,37.927917,10.014238,12.991736,71.249535,23.322815,22.049744,24.396677,10.072229,8.587174,6.134039,11.651314,0.805161,8.935802,17.959869,13.353860,24.936428,-9.854180,8064.000000,0.000000,4.000000,,,,0.000000,4.000000,4.000000,4.000000,4.000000,4.000000,4.000000,4.000000,4.000000,4.000000,4.000000,4.000000,4.000000,4.000000,4.000000,4.000000,4.000000,4.000000,4.000000,4.000000,4.000000,4.000000,4.000000,4.000000,4.000000,4.000000,4.000000,4.000000,4.000000,4.000000,4.000000,4.000000,4.000000,100.000000
1615604041.838975,126.000000,0.000000,4.571835,14.217566,21.913071,25.603237,12.369668,10.254838,21.401318,7.196772,20.325668,29.265810,26.138676,8.165250,15.801040,21.686016,16.982655,33.274605,7.952942,6.312078,71.178291,29.966158,24.078976,22.833818,6.985234,9.091408,5.102264,11.126842,0.291535,8.926867,15.890627,9.237942,18.757647,-14.459710,8064.000000,0.000000,4.000000,,,,0.000000,4.000000,4.000000,4.000000,4.000000,4.000000,4.000000,4.000000,4.000000,4.000000,4.000000,4.000000,4.000000,4.000000,4.000000,4.000000,4.000000,4.000000,4.000000,4.000000,4.000000,4.000000,4.000000,4.000000,4.000000,4.000000,4.000000,4.000000,4.000000,4.000000,4.000000,4.000000,4.000000,100.000000
1615604041.846827,127.000000,0.000000,3.541622,17.280272,21.891157,25.577635,12.870118,10.244583,21.892738,7.189575,20.818163,29.749365,28.676640,9.182726,17.836521,29.356638,24.145159,37.856716,17.688580,9.382689,79.312241,49.423370,24.567717,26.913549,8.516710,7.031034,13.815110,11.628535,1.316885,8.917940,15.361916,11.792807,20.277349,-13.932430,8064.000000,0.000000,4.000000,,,,0.000000,4.000000,4.000000,4.000000,4.000000,4.000000,4.000000,4.000000,4.000000,4.000000,4.000000,4.000000,4.000000,4.000000,4.000000,4.000000,4.000000,4.000000,4.000000,4.000000,4.000000,4.000000,4.000000,4.000000,4.000000,4.000000,4.000000,4.000000,4.000000,4.000000,4.000000,4.000000,4.000000,100.000000
1615604041.854579,0.000000,0.000000,4.050900,18.288631,22.894907,24.526415,13.370069,10.234339,24.434948,8.208027,20.797346,30.232435,30.186424,12.250465,26.023813,32.404205,32.326141,50.126553,30.491404,19.629717,90.002159,63.220104,30.696997,33.040482,11.585116,10.100926,25.083347,12.642549,1.828388,8.909022,15.859374,13.832296,20.769894,-13.405678,0.000000,185.000000,4.000000,,,,0.000000,4.000000,4.000000,4.000000,4.000000,4.000000,4.000000,4.000000,4.000000,4.000000,4.000000,4.000000,4.000000,4.000000,4.000000,4.000000,4.000000,4.000000,4.000000,4.000000,4.000000,4.000000,4.000000,4.000000,4.000000,4.000000,4.000000,4.000000,4.000000,4.000000,4.000000,4.000000,4.000000,100.000000
1615604041.862432,1.000000,0.000000,4.046850,15.193420,22.359192,22.450607,12.331058,10.224104,24.410513,8.199819,21.289370,29.176563,29.643417,12.751036,29.587532,32.884621,35.370739,53.666168,31.486553,22.174189,85.296768,52.900471,32.717583,32.494621,11.060711,18.295954,26.083904,11.091444,-0.224722,8.900113,15.330694,9.715899,14.082457,-17.494835,0.000000,191.000000,4.000000,,,,0.000000,4.000000,4.000000,4.000000,4.000000,4.000000,4.000000,4.000000,4.000000,4.000000,4.000000,4.000000,4.000000,4.000000,4.000000,4.000000,4.000000,4.000000,4.000000,4.000000,4.000000,4.000000,4.000000,4.000000,4.000000,4.000000,4.000000,4.000000,4.000000,4.000000,4.000000,4.000000,4.000000,100.000000
1615604041.870184,2.000000,0.000000,4.042803,14.152586,21.824013,21.402515,13.857188,10.213881,23.873281,9.730081,21.268080,31.711489,29.613775,12.738285,28.532303,37.979942,35.848190,52.074039,29.403784,21.639194,76.493523,41.052700,31.146402,30.410843,10.536830,20.841761,24.519360,12.105993,3.878067,8.891213,15.315364,9.193363,13.555553,-17.990162,0.000000,211.000000,4.000000,,,,0.000000,4.000000,4.000000,4.000000,4.000000,4.000000,4.000000,4.000000,4.000000,4.000000,4.000000,4.000000,4.000000,4.000000,4.000000,4.000000,4.000000,4.000000,4.000000,4.000000,4.000000,4.000000,4.000000,4.000000,4.000000,4.000000,4.000000,4.000000,4.000000,4.000000,4.000000,4.000000,4.000000,100.000000
1615604041.878037,3.000000,0.000000,4.038760,14.651254,23.853470,22.406754,19.484356,10.203667,24.875050,12.797274,21.246811,37.320801,31.122622,16.828110,32.093513,43.582985,36.837982,53.560429,32.451302,25.207298,89.237541,42.550110,32.653717,33.457355,11.551934,20.308098,27.058943,15.683631,12.592137,8.882322,16.325689,14.312375,15.080460,-15.408069,0.000000,188.000000,4.000000,,,,0.000000,4.000000,4.000000,4.000000,4.000000,4.000000,4.000000,4.000000,4.000000,4.000000,4.000000,4.000000,4.000000,4.000000,4.000000,4.000000,4.000000,4.000000,4.000000,4.000000,4.000000,4.000000,4.000000,4.000000,4.000000,4.000000,4.000000,4.000000,4.000000,4.000000,4.000000,4.000000,4.000000,100.000000
1615604041.885789,4.000000,0.000000,4.547542,9.508398,19.214231,22.384348,19.977694,10.193462,24.337353,10.220374,21.225565,34.206558,28.014576,14.760000,32.061420,45.590687,38.339603,49.404305,24.213724,22.617989,94.276512,29.174225,23.903114,29.834154,9.489100,21.313431,21.390858,12.078204,8.476981,8.873440,12.719620,11.733960,8.398712,-20.520866,0.000000,191.000000,4.000000,,,,0.000000,4.000000,4.000000,4.000000,4.000000,4.000000,4.000000,4.000000,4.000000,4.000000,4.000000,4.000000,4.000000,4.000000,4.000000,4.000000,4.000000,4.000000,4.000000,4.000000,4.000000,4.000000,4.000000,4.000000,4.000000,4.000000,4.000000,4.000000,4.000000,4.000000,4.000000,4.000000,4.000000,100.000000
1615604041.893641,5.000000,0.000000,4.030174,6.421966,5.348864,20.310680,10.726946,8.644808,24.313017,0.979384,19.665878,25.454403,21.319895,0.899087,20.234488,37.852787,35.737164,40.124130,4.189510,14.903064,70.079674,6.068128,3.879211,7.753039,3.838585,16.163912,5.472031,1.296895,-5.890470,8.864566,6.553054,-1.611107,-0.840456,-34.346500,0.000000,195.000000,4.000000,,,,0.000000,4.000000,4.000000,4.000000,4.000000,4.000000,4.000000,4.000000,4.000000,4.000000,4.000000,4.000000,4.000000,4.000000,4.000000,4.000000,4.000000,4.000000,4.000000,4.000000,4.000000,4.000000,4.000000,4.000000,4.000000,4.000000,4.000000,4.000000,4.000000,4.000000,4.000000,4.000000,4.000000,100.000000
1615604041.901393,6.000000,0.000000,4.026144,8.979647,-3.887254,16.700626,4.562373,6.584881,25.314344,-3.636980,14.518006,21.839205,18.734472,-6.794120,9.445023,22.943140,29.034760,33.417339,-4.532628,13.862519,55.650616,12.728726,-7.919540,-10.203432,3.321926,3.327235,-2.738569,-4.345428,-12.038425,8.855701,4.495219,-10.327445,-1.865256,-40.978821,0.000000,182.000000,4.000000,,,,0.000000,4.000000,4.000000,4.000000,4.000000,4.000000,4.000000,4.000000,4.000000,4.000000,4.000000,4.000000,4.000000,4.000000,4.000000,4.000000,4.000000,4.000000,4.000000,4.000000,4.000000,4.000000,4.000000,4.000000,4.000000,4.000000,4.000000,4.000000,4.000000,4.000000,4.000000,4.000000,4.000000,100.000000
1615604041.909245,7.000000,0.000000,4.534938,9.996308,-3.883367,13.607003,5.583451,6.065475,22.212107,-1.069240,5.785540,21.817366,17.690098,-1.146300,8.922757,15.227889,28.492905,28.768538,-1.451172,11.284554,63.800095,35.792919,-8.424440,-7.116306,8.959630,-3.342759,-0.684549,-2.802620,-9.975105,8.846846,5.003544,-8.265836,0.187891,-37.860916,0.000000,215.000000,4.000000,,,,0.000000,4.000000,4.000000,4.000000,4.000000,4.000000,4.000000,4.000000,4.000000,4.000000,4.000000,4.000000,4.000000,4.000000,4.000000,4.000000,4.000000,4.000000,4.000000,4.000000,4.000000,4.000000,4.000000,4.000000,4.000000,4.000000,4.000000,4.000000,4.000000,4.000000,4.000000,4.000000,4.000000,100.000000
1615604041.916997,8.000000,0.000000,2.991941,6.909389,-5.417945,11.542114,5.577868,6.572230,15.523228,0.983111,-1.399733,19.231447,11.005740,1.931769,10.452296,16.751123,28.977232,26.175667,0.088740,4.093782,66.813217,41.910973,-3.287811,0.070298,10.489132,-2.313775,-2.735146,-2.799818,-9.965130,8.837999,0.895977,-8.257569,-1.350758,-40.899979,0.000000,202.000000,4.000000,,,,0.000000,4.000000,4.000000,4.000000,4.000000,4.000000,4.000000,4.000000,4.000000,4.000000,4.000000,4.000000,4.000000,4.000000,4.000000,4.000000,4.000000,4.000000,4.000000,4.000000,4.000000,4.000000,4.000000,4.000000,4.000000,4.000000,4.000000,4.000000,4.000000,4.000000,4.000000,4.000000,4.000000,100.000000
1615604041.924650,9.000000,0.000000,-0.600794,6.389659,-7.976630,8.966469,5.059470,6.565658,12.430781,-0.556334,-1.911154,17.673754,6.379350,1.417017,9.416203,11.093346,14.589280,24.611029,0.088652,2.551227,68.284866,40.330601,5.433425,1.095869,7.401720,-2.824282,-9.399077,-3.822659,-10.980806,8.829161,-3.207484,-16.454441,-4.426331,-49.577026,0.000000,174.000000,4.000000,,,,0.000000,4.000000,4.000000,4.000000,4.000000,4.000000,4.000000,4.000000,4.000000,4.000000,4.000000,4.000000,4.000000,4.000000,4.000000,4.000000,4.000000,4.000000,4.000000,4.000000,4.000000,4.000000,4.000000,4.000000,4.000000,4.000000,4.000000,4.000000,4.000000,4.000000,4.000000,4.000000,4.000000,100.000000
1615604041.932402,10.000000,0.000000,-3.164296,6.896090,-7.968653,6.906220,5.567231,6.559093,13.443992,-0.042957,-0.883602,18.168900,7.398612,3.979702,9.406787,4.415586,1.241357,22.535137,-0.424257,2.035856,69.242226,37.726170,9.017735,7.761439,6.881497,-2.821457,-13.492243,-3.306016,-10.457005,8.820332,-3.204276,-19.514910,-3.396263,-49.527451,0.000000,186.000000,4.000000,,,,0.000000,4.000000,4.000000,4.000000,4.000000,4.000000,4.000000,4.000000,4.000000,4.000000,4.000000,4.000000,4.000000,4.000000,4.000000,4.000000,4.000000,4.000000,4.000000,4.000000,4.000000,4.000000,4.000000,4.000000,4.000000,4.000000,4.000000,4.000000,4.000000,4.000000,4.000000,4.000000,4.000000,100.000000
1615604041.940054,11.000000,0.000000,-3.673952,6.889194,-6.935043,6.899314,5.561663,6.552533,13.430548,0.469907,-2.421180,18.663551,6.878393,5.001364,12.987123,9.539375,16.111912,23.538242,2.140269,2.033820,63.531956,30.508955,9.521539,14.420344,7.387436,-1.792995,-11.940289,-2.789889,-9.420907,8.811512,-2.175431,-11.290266,-0.828764,-43.324078,0.000000,219.000000,4.000000,,,,0.000000,4.000000,4.000000,4.000000,4.000000,4.000000,4.000000,4.000000,4.000000,4.000000,4.000000,4.000000,4.000000,4.000000,4.000000,4.000000,4.000000,4.000000,4.000000,4.000000,4.000000,4.000000,4.000000,4.000000,4.000000,4.000000,4.000000,4.000000,4.000000,4.000000,4.000000,4.000000,4.000000,100.000000
1615604041.947806,12.000000,0.000000,-3.157458,6.882305,-6.928108,7.405236,5.556102,6.545981,12.904297,0.469437,0.145344,18.644888,8.922796,7.047644,18.615162,18.247786,40.711185,32.232655,14.958642,17.416401,74.750473,35.093830,20.794067,21.072592,7.892869,-3.329663,-4.748862,-2.787100,-6.847383,8.802700,-3.198896,-4.612309,-0.315115,-41.229469,0.000000,179.000000,4.000000,,,,0.000000,4.000000,4.000000,4.000000,4.000000,4.000000,4.000000,4.000000,4.000000,4.000000,4.000000,4.000000,4.000000,4.000000,4.000000,4.000000,4.000000,4.000000,4.000000,4.000000,4.000000,4.000000,4.000000,4.000000,4.000000,4.000000,4.000000,4.000000,4.000000,4.000000,4.000000,4.000000,4.000000,100.000000
1615604041.955459,13.000000,0.000000,-1.103018,6.875422,-6.921180,7.397830,6.063366,7.565076,12.891393,3.033070,5.786224,18.626244,16.093361,12.168801,21.673470,24.896204,47.849960,40.918369,30.841120,33.296421,98.778290,47.366428,33.080967,33.359211,10.449080,3.340333,3.461015,-2.784312,-5.814895,8.793898,-3.195697,-3.582056,-0.827621,-43.239525,0.000000,208.000000,4.000000,,,,0.000000,4.000000,4.000000,4.000000,4.000000,4.000000,4.000000,4.000000,4.000000,4.000000,4.000000,4.000000,4.000000,4.000000,4.000000,4.000000,4.000000,4.000000,4.000000,4.000000,4.000000,4.000000,4.000000,4.000000,4.000000,4.000000,4.000000,4.000000,4.000000,4.000000,4.000000,4.000000,4.000000,100.000000
1615604041.963211,14.000000,0.000000,0.436546,6.868546,-7.427079,7.390432,4.518841,4.993408,13.904142,4.568498,5.267618,19.120438,20.179832,10.105350,22.164618,25.384129,46.776470,41.390270,28.758995,26.596458,88.935921,41.165218,25.868399,31.787390,11.977092,17.695967,4.483195,-2.268708,-6.321900,8.785104,-2.679681,-1.527191,0.198848,-41.145000,0.000000,175.000000,4.000000,,,,0.000000,4.000000,4.000000,4.000000,4.000000,4.000000,4.000000,4.000000,4.000000,4.000000,4.000000,4.000000,4.000000,4.000000,4.000000,4.000000,4.000000,4.000000,4.000000,4.000000,4.000000,4.000000,4.000000,4.000000,4.000000,4.000000,4.000000,4.000000,4.000000,4.000000,4.000000,4.000000,4.000000,100.000000
1615604041.970863,15.000000,0.000000,-1.615172,6.861678,-6.394011,7.383042,1.950220,-0.139790,12.864597,4.051109,-0.378675,18.588497,17.595549,1.890117,20.603991,18.692078,49.293797,41.348881,15.909724,15.287810,56.539291,28.303539,11.996376,10.729961,8.888191,20.242374,-0.136672,-2.779259,-6.315578,8.776319,-2.677001,-1.525664,-0.314171,-38.539753,0.000000,198.000000,4.000000,,,,0.000000,4.000000,4.000000,4.000000,4.000000,4.000000,4.000000,4.000000,4.000000,4.000000,4.000000,4.000000,4.000000,4.000000,4.000000,4.000000,4.000000,4.000000,4.000000,4.000000,4.000000,4.000000,4.000000,4.000000,4.000000,4.000000,4.000000,4.000000,4.000000,4.000000,4.000000,4.000000,4.000000,100.000000
1615604041.978615,16.000000,0.000000,-3.664839,6.854816,-4.336335,7.375659,1.435449,0.373170,10.287630,4.047058,-1.403938,16.005806,15.526671,1.375407,18.532104,15.596462,44.629116,42.333172,11.791250,13.734060,50.841724,28.788055,9.933098,0.462821,7.340842,9.965721,0.376285,-3.289301,-6.309263,8.767542,-2.674325,-4.088241,-0.313857,-37.988396,0.000000,169.000000,4.000000,,,,0.000000,4.000000,4.000000,4.000000,4.000000,4.000000,4.000000,4.000000,4.000000,4.000000,4.000000,4.000000,4.000000,4.000000,4.000000,4.000000,4.000000,4.000000,4.000000,4.000000,4.000000,4.000000,4.000000,4.000000,4.000000,4.000000,4.000000,4.000000,4.000000,4.000000,4.000000,4.000000,4.000000,100.000000
1615604041.986267,17.000000,0.000000,-3.148354,6.847961,-2.793537,7.881104,1.946834,2.936899,9.251701,4.043011,-0.376893,14.964159,16.023966,5.476595,18.513573,20.709070,28.687052,34.085712,11.779459,4.489557,59.508831,30.297729,6.333421,2.000820,8.359142,4.827550,0.888729,-0.721909,-6.302954,8.758775,-0.620368,-3.571332,5.327483,-38.463226,0.000000,182.000000,4.000000,,,,0.000000,4.000000,4.000000,4.000000,4.000000,4.000000,4.000000,4.000000,4.000000,4.000000,4.000000,4.000000,4.000000,4.000000,4.000000,4.000000,4.000000,4.000000,4.000000,4.000000,4.000000,4.000000,4.000000,4.000000,4.000000,4.000000,4.000000,4.000000,4.000000,4.000000,4.000000,4.000000,4.000000,100.000000
1615604041.994019,18.000000,0.000000,-3.145205,7.353934,-3.303564,5.821941,1.944887,2.933963,9.755270,4.038968,-0.889336,15.462015,14.469480,5.471119,14.905315,18.124258,17.889133,21.231113,2.536910,-8.848266,54.833939,20.523842,-9.570349,-6.206309,5.273860,5.848363,-7.830108,0.304454,-6.296651,8.750015,0.918714,-6.644684,7.373437,-37.911942,0.000000,196.000000,4.000000,,,,0.000000,4.000000,4.000000,4.000000,4.000000,4.000000,4.000000,4.000000,4.000000,4.000000,4.000000,4.000000,4.000000,4.000000,4.000000,4.000000,4.000000,4.000000,4.000000,4.000000,4.000000,4.000000,4.000000,4.000000,4.000000,4.000000,4.000000,4.000000,4.000000,4.000000,4.000000,4.000000,4.000000,100.000000
1615604042.001671,19.000000,0.000000,-3.142060,5.295298,-3.300261,3.764837,1.942942,2.418208,9.745515,4.034929,-1.401268,13.908092,12.403728,4.952827,7.710923,7.336904,16.845604,17.107317,-5.157934,-7.300956,57.343208,16.400753,-15.201804,-9.789846,0.653201,2.765592,-19.104330,-1.747132,-6.803174,8.741265,0.917795,-15.355989,1.212217,-41.463776,0.000000,201.000000,4.000000,,,,0.000000,4.000000,4.000000,4.000000,4.000000,4.000000,4.000000,4.000000,4.000000,4.000000,4.000000,4.000000,4.000000,4.000000,4.000000,4.000000,4.000000,4.000000,4.000000,4.000000,4.000000,4.000000,4.000000,4.000000,4.000000,4.000000,4.000000,4.000000,4.000000,4.000000,4.000000,4.000000,4.000000,100.000000
1615604042.009423,20.000000,0.000000,-3.138918,3.238721,-2.784140,3.248251,1.941000,3.441431,9.735769,4.030894,-0.887046,11.330081,10.340042,5.973516,6.164751,1.688541,15.803117,19.654312,-0.024571,-0.626988,73.183304,26.127943,-1.340448,0.989174,-0.885913,0.198724,-20.110867,-2.771026,-5.770730,8.732525,0.916877,-19.956017,-4.942841,-46.550514,0.000000,179.000000,4.000000,,,,0.000000,4.000000,4.000000,4.000000,4.000000,4.000000,4.000000,4.000000,4.000000,4.000000,4.000000,4.000000,4.000000,4.000000,4.000000,4.000000,4.000000,4.000000,4.000000,4.000000,4.000000,4.000000,4.000000,4.000000,4.000000,4.000000,4.000000,4.000000,4.000000,4.000000,4.000000,4.000000,4.000000,100.000000
1615604042.017075,21.000000,0.000000,-3.135779,2.722662,-3.294176,3.245003,1.939059,2.925169,10.238854,4.026864,-0.886159,10.805930,6.739959,4.429080,4.620124,-2.415711,13.736032,17.583376,5.103659,-4.728925,69.520370,27.640276,6.353200,6.116390,0.140613,2.762628,-15.475370,-2.768255,-1.149575,8.723792,0.915960,-16.859138,-3.912257,-45.478325,0.000000,194.000000,4.000000,,,,0.000000,4.000000,4.000000,4.000000,4.000000,4.000000,4.000000,4.000000,4.000000,4.000000,4.000000,4.000000,4.000000,4.000000,4.000000,4.000000,4.000000,4.000000,4.000000,4.000000,4.000000,4.000000,4.000000,4.000000,4.000000,4.000000,4.000000,4.000000,4.000000,4.000000,4.000000,4.000000,4.000000,100.000000
1615604042.024827,22.000000,0.000000,-3.132643,3.232759,-3.803703,4.780220,1.937119,2.922244,9.715795,4.022837,-0.885273,11.307945,3.656296,2.373369,1.538581,-3.951757,12.183834,15.001691,3.560093,-9.339581,50.476494,18.381866,3.782744,6.110274,0.140473,4.298326,-15.459895,-2.765487,1.928497,8.715068,1.940686,-12.739715,-0.831422,-40.304642,0.000000,201.000000,4.000000,,,,0.000000,4.000000,4.000000,4.000000,4.000000,4.000000,4.000000,4.000000,4.000000,4.000000,4.000000,4.000000,4.000000,4.000000,4.000000,4.000000,4.000000,4.000000,4.000000,4.000000,4.000000,4.000000,4.000000,4.000000,4.000000,4.000000,4.000000,4.000000,4.000000,4.000000,4.000000,4.000000,4.000000,100.000000
1615604042.032479,23.000000,0.000000,-3.129511,2.716706,-2.261437,6.826722,1.935182,3.432142,10.218900,4.018814,-0.884387,11.296637,3.652640,3.396637,9.742170,3.744502,13.710112,16.525150,7.659097,-2.150754,56.579865,24.004511,14.035372,16.873394,-0.372488,6.345310,-15.957256,-0.711439,0.900928,8.706353,3.990027,-9.137231,-0.317770,-38.213055,0.000000,173.000000,4.000000,,,,0.000000,4.000000,4.000000,4.000000,4.000000,4.000000,4.000000,4.000000,4.000000,4.000000,4.000000,4.000000,4.000000,4.000000,4.000000,4.000000,4.000000,4.000000,4.000000,4.000000,4.000000,4.000000,4.000000,4.000000,4.000000,4.000000,4.000000,4.000000,4.000000,4.000000,4.000000,4.000000,4.000000,100.000000
1615604042.040231,24.000000,0.000000,-3.639202,3.226810,-4.310458,7.845536,2.446068,1.890248,9.695860,4.014795,-0.883503,9.746879,3.648987,5.957343,23.065762,9.381783,23.952812,18.047087,18.420670,5.543704,82.164307,39.877941,27.867491,28.138573,0.140705,13.005631,-12.864376,0.314913,0.900027,8.697647,5.011678,-7.589633,-0.317452,-38.687660,0.000000,166.000000,4.000000,,,,0.000000,4.000000,4.000000,4.000000,4.000000,4.000000,4.000000,4.000000,4.000000,4.000000,4.000000,4.000000,4.000000,4.000000,4.000000,4.000000,4.000000,4.000000,4.000000,4.000000,4.000000,4.000000,4.000000,4.000000,4.000000,4.000000,4.000000,4.000000,4.000000,4.000000,4.000000,4.000000,4.000000,100.000000
1615604042.047883,25.000000,0.000000,-2.609921,2.710763,-9.947173,7.324870,0.392340,-0.162924,3.532318,4.523601,-0.882620,7.173029,3.645338,5.438565,26.632439,11.423684,35.723732,20.080322,25.068914,7.589443,89.261635,44.966270,25.275520,28.110434,0.140564,17.608011,-10.800229,-2.249504,1.411947,8.688949,4.493845,-8.094863,-0.317135,-38.136154,0.000000,195.000000,4.000000,,,,0.000000,4.000000,4.000000,4.000000,4.000000,4.000000,4.000000,4.000000,4.000000,4.000000,4.000000,4.000000,4.000000,4.000000,4.000000,4.000000,4.000000,4.000000,4.000000,4.000000,4.000000,4.000000,4.000000,4.000000,4.000000,4.000000,4.000000,4.000000,4.000000,4.000000,4.000000,4.000000,4.000000,100.000000
1615604042.055735,26.000000,0.000000,-3.120132,3.220872,-10.450047,7.317545,-1.659335,-1.188402,-3.650702,4.519077,-0.881737,7.165856,4.154513,5.433126,25.067345,18.078926,38.252110,18.521780,22.992563,8.094674,80.454422,44.921303,20.122040,23.979759,0.140424,16.564762,-10.789429,-3.272896,1.410536,8.680260,4.489352,-7.061127,0.196003,-38.098019,0.000000,167.000000,4.000000,,,,0.000000,4.000000,4.000000,4.000000,4.000000,4.000000,4.000000,4.000000,4.000000,4.000000,4.000000,4.000000,4.000000,4.000000,4.000000,4.000000,4.000000,4.000000,4.000000,4.000000,4.000000,4.000000,4.000000,4.000000,4.000000,4.000000,4.000000,4.000000,4.000000,4.000000,4.000000,4.000000,4.000000,100.000000
1615604042.063488,27.000000,0.000000,-4.142653,5.268934,-4.798571,7.310227,-2.170496,-0.674393,-6.211154,4.001737,-0.880855,9.722793,3.637538,5.427693,25.042278,21.137772,35.136936,17.990438,16.815725,4.496835,77.297043,44.876381,21.127558,20.878857,0.140283,16.548197,-11.291460,-2.756803,0.896305,8.671580,4.484862,-3.977143,-0.829834,-38.059917,0.000000,202.000000,4.000000,,,,0.000000,4.000000,4.000000,4.000000,4.000000,4.000000,4.000000,4.000000,4.000000,4.000000,4.000000,4.000000,4.000000,4.000000,4.000000,4.000000,4.000000,4.000000,4.000000,4.000000,4.000000,4.000000,4.000000,4.000000,4.000000,4.000000,4.000000,4.000000,4.000000,4.000000,4.000000,4.000000,4.000000,100.000000
1615604042.071340,28.000000,0.000000,0.476874,7.314947,-2.742490,7.302917,-1.655505,-0.673719,-4.666481,4.510556,-0.879974,11.251532,6.710824,5.422266,25.530056,22.655094,37.153080,31.818602,11.670705,-2.174328,71.065903,33.549454,12.388482,15.216951,0.140143,16.018827,-10.767348,-2.754046,0.895408,8.662909,4.480378,-3.973166,0.196637,-33.919296,0.000000,212.000000,4.000000,,,,0.000000,4.000000,4.000000,4.000000,4.000000,4.000000,4.000000,4.000000,4.000000,4.000000,4.000000,4.000000,4.000000,4.000000,4.000000,4.000000,4.000000,4.000000,4.000000,4.000000,4.000000,4.000000,4.000000,4.000000,4.000000,4.000000,4.000000,4.000000,4.000000,4.000000,4.000000,4.000000,4.000000,100.000000
1615604042.079092,29.000000,0.000000,7.655885,6.794811,-3.765389,7.295614,-1.653849,-0.673045,-4.661814,5.018866,-0.879094,11.240280,11.319497,5.929664,26.530167,27.760645,38.141567,47.171398,11.146214,-1.146513,64.840988,23.772314,0.581222,10.073529,0.140003,10.361784,-11.269402,-2.751292,0.894513,8.654245,4.475897,-3.969193,0.196440,-30.295631,0.000000,191.000000,4.000000,,,,0.000000,4.000000,4.000000,4.000000,4.000000,4.000000,4.000000,4.000000,4.000000,4.000000,4.000000,4.000000,4.000000,4.000000,4.000000,4.000000,4.000000,4.000000,4.000000,4.000000,4.000000,4.000000,4.000000,4.000000,4.000000,4.000000,4.000000,4.000000,4.000000,4.000000,4.000000,4.000000,4.000000,100.000000
1615604042.086945,30.000000,0.000000,4.058485,6.788016,-4.274444,6.775498,-2.165016,-0.672372,-7.734076,0.398463,-1.391036,10.716219,11.308178,4.385273,19.836971,23.117500,24.770092,36.867817,12.673529,-3.709469,67.853073,25.287004,0.067820,9.037815,0.139863,6.248858,-11.770952,-3.261361,0.893618,9.158412,4.471421,-4.478044,-3.393500,-30.778156,0.000000,190.000000,4.000000,,,,0.000000,4.000000,4.000000,4.000000,4.000000,4.000000,4.000000,4.000000,4.000000,4.000000,4.000000,4.000000,4.000000,4.000000,4.000000,4.000000,4.000000,4.000000,4.000000,4.000000,4.000000,4.000000,4.000000,4.000000,4.000000,4.000000,4.000000,4.000000,4.000000,4.000000,4.000000,4.000000,4.000000,100.000000
1615604042.094697,31.000000,0.000000,-2.612240,6.781229,-3.757349,7.794363,-1.650031,-0.671700,-8.239161,-6.268602,-1.389645,11.218324,8.219947,2.329605,4.432518,12.837972,7.822246,16.318129,9.583932,-16.526272,54.964706,17.056589,-0.445068,7.490316,0.139723,5.216968,-11.246361,-3.770920,-0.645737,7.610792,4.466950,-9.601771,-2.877286,-30.747379,0.000000,164.000000,4.000000,,,,0.000000,4.000000,4.000000,4.000000,4.000000,4.000000,4.000000,4.000000,4.000000,4.000000,4.000000,4.000000,4.000000,4.000000,4.000000,4.000000,4.000000,4.000000,4.000000,4.000000,4.000000,4.000000,4.000000,4.000000,4.000000,4.000000,4.000000,4.000000,4.000000,4.000000,4.000000,4.000000,4.000000,100.000000
1615604042.102549,32.000000,0.000000,-1.583987,6.774447,-2.215130,10.350672,-1.648381,-0.671028,-3.615538,-7.800796,-0.875435,11.207106,7.698906,1.301635,-2.238581,12.825133,4.737500,13.737707,4.446143,-17.535387,34.909740,5.757481,-3.521546,3.893082,0.139583,2.134828,-11.235114,-2.228688,-3.209194,5.039078,4.462483,-15.233195,2.253797,-30.203812,8064.000000,0.000000,4.000000,,,,0.000000,4.000000,4.000000,4.000000,4.000000,4.000000,4.000000,4.000000,4.000000,4.000000,4.000000,4.000000,4.000000,4.000000,4.000000,4.000000,4.000000,4.000000,4.000000,4.000000,4.000000,4.000000,4.000000,4.000000,4.000000,4.000000,4.000000,4.000000,4.000000,4.000000,4.000000,4.000000,4.000000,100.000000
1615604042.110302,33.000000,0.000000,1.494520,6.767673,-4.264197,9.827500,-2.159553,-0.670357,-0.534999,-7.280174,-1.387380,10.683078,7.691207,1.300333,0.840581,11.273847,6.271224,15.262431,3.928876,-6.748621,54.362011,22.674801,5.199924,5.427650,-0.373377,-2.995512,-12.249520,-3.252100,-2.693164,4.521219,4.458020,-17.269243,1.738722,-31.712069,8064.000000,0.000000,4.000000,,,,0.000000,4.000000,4.000000,4.000000,4.000000,4.000000,4.000000,4.000000,4.000000,4.000000,4.000000,4.000000,4.000000,4.000000,4.000000,4.000000,4.000000,4.000000,4.000000,4.000000,4.000000,4.000000,4.000000,4.000000,4.000000,4.000000,4.000000,4.000000,4.000000,4.000000,4.000000,4.000000,4.000000,100.000000
1615604042.118154,34.000000,0.000000,-0.045436,6.760905,-4.259933,6.740750,-1.131752,-0.669687,-1.047285,-6.247253,-1.898813,10.672395,7.170696,1.811853,1.352561,5.621548,5.752132,13.195887,7.001871,-3.664949,87.128159,47.780331,15.451135,13.114531,0.652637,-1.966875,-7.621886,-4.274489,-0.126368,5.029518,3.940742,-15.200692,0.198522,-29.116255,8064.000000,0.000000,4.000000,,,,0.000000,4.000000,4.000000,4.000000,4.000000,4.000000,4.000000,4.000000,4.000000,4.000000,4.000000,4.000000,4.000000,4.000000,4.000000,4.000000,4.000000,4.000000,4.000000,4.000000,4.000000,4.000000,4.000000,4.000000,4.000000,4.000000,4.000000,4.000000,4.000000,4.000000,4.000000,4.000000,4.000000,100.000000
1615604042.125907,35.000000,0.000000,-0.558211,6.754144,9.077661,7.759650,2.971944,0.869445,4.081967,-1.112801,2.718471,14.251466,8.701986,3.861323,5.966593,13.821054,15.489970,24.464743,7.507689,-3.148463,78.835907,49.271011,15.948503,16.178339,3.216087,5.214579,2.129325,3.934914,0.386579,5.024488,5.988083,-6.980364,6.864990,-21.907650,8064.000000,0.000000,4.000000,,,,0.000000,4.000000,4.000000,4.000000,4.000000,4.000000,4.000000,4.000000,4.000000,4.000000,4.000000,4.000000,4.000000,4.000000,4.000000,4.000000,4.000000,4.000000,4.000000,4.000000,4.000000,4.000000,4.000000,4.000000,4.000000,4.000000,4.000000,4.000000,4.000000,4.000000,4.000000,4.000000,4.000000,100.000000
1615604042.133759,36.000000,0.000000,0.467988,6.747390,22.401917,10.828814,6.045895,2.919857,7.154809,4.529338,6.818316,18.339779,11.770207,5.908744,15.704216,29.704670,29.320635,42.388996,6.987361,1.470070,71.064758,47.683281,19.009478,17.187801,4.238513,11.363211,7.255401,14.700210,0.899013,4.506643,8.546198,2.257386,11.473510,-18.808821,8064.000000,0.000000,4.000000,,,,0.000000,4.000000,4.000000,4.000000,4.000000,4.000000,4.000000,4.000000,4.000000,4.000000,4.000000,4.000000,4.000000,4.000000,4.000000,4.000000,4.000000,4.000000,4.000000,4.000000,4.000000,4.000000,4.000000,4.000000,4.000000,4.000000,4.000000,4.000000,4.000000,4.000000,4.000000,4.000000,4.000000,100.000000
1615604042.141511,37.000000,0.000000,-0.045300,6.740643,17.251308,8.766703,6.039849,2.916937,0.480987,4.524808,5.273036,18.834259,10.732797,4.877194,17.739794,32.751888,33.393879,44.910709,8.518835,4.032702,96.634720,53.789440,27.195597,23.837280,2.182992,13.915950,7.248146,13.659868,2.949396,5.014957,7.512011,3.280770,5.821011,-19.815653,8064.000000,0.000000,4.000000,,,,0.000000,4.000000,4.000000,4.000000,4.000000,4.000000,4.000000,4.000000,4.000000,4.000000,4.000000,4.000000,4.000000,4.000000,4.000000,4.000000,4.000000,4.000000,4.000000,4.000000,4.000000,4.000000,4.000000,4.000000,4.000000,4.000000,4.000000,4.000000,4.000000,4.000000,4.000000,4.000000,4.000000,100.000000
1615604042.149363,38.000000,0.000000,0.467566,6.733902,10.054570,6.193834,5.520988,2.914021,-5.160520,3.494643,6.293405,18.302605,10.209243,5.385138,18.747694,30.667854,32.334843,40.763233,6.459034,6.592772,99.102188,45.017704,30.245325,30.480110,4.744911,15.953316,6.728077,6.979542,4.484908,5.009943,7.504498,2.764668,3.251087,-20.308657,8064.000000,0.000000,4.000000,,,,0.000000,4.000000,4.000000,4.000000,4.000000,4.000000,4.000000,4.000000,4.000000,4.000000,4.000000,4.000000,4.000000,4.000000,4.000000,4.000000,4.000000,4.000000,4.000000,4.000000,4.000000,4.000000,4.000000,4.000000,4.000000,4.000000,4.000000,4.000000,4.000000,4.000000,4.000000,4.000000,4.000000,100.000000
1615604042.157115,39.000000,0.000000,2.005560,6.727168,13.121439,8.238922,6.028288,2.911106,-2.591256,6.055251,16.030701,18.284302,15.840059,9.995137,26.421255,32.175648,34.353790,40.722469,9.529498,9.150282,75.413345,32.152172,30.215078,30.962450,14.483756,16.963003,7.234169,8.511024,4.993243,4.492112,12.112378,7.377288,6.324759,-19.775528,8064.000000,0.000000,4.000000,,,,0.000000,4.000000,4.000000,4.000000,4.000000,4.000000,4.000000,4.000000,4.000000,4.000000,4.000000,4.000000,4.000000,4.000000,4.000000,4.000000,4.000000,4.000000,4.000000,4.000000,4.000000,4.000000,4.000000,4.000000,4.000000,4.000000,4.000000,4.000000,4.000000,4.000000,4.000000,4.000000,4.000000,100.000000
1615604042.164767,40.000000,0.000000,3.542016,6.207621,15.159599,10.281965,5.509439,2.908195,-0.537383,10.664580,22.168516,18.778837,24.542168,16.138988,29.471756,32.143471,38.934822,41.194569,22.853302,10.679593,80.978958,39.299507,31.210505,31.444309,22.161581,16.433220,9.278217,11.579436,7.552353,6.026082,15.690010,9.934013,7.344075,-16.678829,8192.000000,0.000000,4.000000,,,,0.000000,4.000000,4.000000,4.000000,4.000000,4.000000,4.000000,4.000000,4.000000,4.000000,4.000000,4.000000,4.000000,4.000000,4.000000,4.000000,4.000000,4.000000,4.000000,4.000000,4.000000,4.000000,4.000000,4.000000,4.000000,4.000000,4.000000,4.000000,4.000000,4.000000,4.000000,4.000000,4.000000,100.000000
1615604042.172519,41.000000,0.000000,8.153858,7.739874,15.657261,10.784504,5.503930,2.905287,-1.049666,11.679557,22.146347,21.324162,27.594549,18.174131,28.416643,31.598507,42.998451,40.640553,30.522757,17.848400,92.692848,47.465336,23.486986,28.335941,20.600958,16.416786,11.320221,11.567857,9.083261,8.584158,15.674320,10.949720,6.823911,-12.046766,8064.000000,0.000000,4.000000,,,,0.000000,4.000000,4.000000,4.000000,4.000000,4.000000,4.000000,4.000000,4.000000,4.000000,4.000000,4.000000,4.000000,4.000000,4.000000,4.000000,4.000000,4.000000,4.000000,4.000000,4.000000,4.000000,4.000000,4.000000,4.000000,4.000000,4.000000,4.000000,4.000000,4.000000,4.000000,4.000000,4.000000,100.000000
1615604042.180172,42.000000,0.000000,11.735448,10.296237,20.256989,10.773719,6.011246,2.902382,-1.561437,11.667877,21.098560,22.328478,25.515673,14.053393,29.413868,31.566910,41.416988,39.574272,24.338388,14.753629,71.574516,40.751205,7.566064,17.538374,18.016254,15.887549,8.744799,11.043468,6.510076,9.088394,15.145825,10.938770,6.817087,-11.521898,8192.000000,0.000000,4.000000,,,,0.000000,4.000000,4.000000,4.000000,4.000000,4.000000,4.000000,4.000000,4.000000,4.000000,4.000000,4.000000,4.000000,4.000000,4.000000,4.000000,4.000000,4.000000,4.000000,4.000000,4.000000,4.000000,4.000000,4.000000,4.000000,4.000000,4.000000,4.000000,4.000000,4.000000,4.000000,4.000000,4.000000,100.000000
1615604042.187924,43.000000,0.000000,9.672430,10.798761,21.775192,9.737305,4.979594,2.899479,-1.047055,11.143389,20.051821,21.793329,25.490156,8.911135,23.743429,26.919958,29.067881,33.380852,17.647383,-4.235484,60.220890,35.069427,4.481575,11.879810,16.459776,13.307559,6.171951,11.545245,3.939463,8.566485,15.130679,7.338089,5.784629,-13.561659,8064.000000,0.000000,4.000000,,,,0.000000,4.000000,4.000000,4.000000,4.000000,4.000000,4.000000,4.000000,4.000000,4.000000,4.000000,4.000000,4.000000,4.000000,4.000000,4.000000,4.000000,4.000000,4.000000,4.000000,4.000000,4.000000,4.000000,4.000000,4.000000,4.000000,4.000000,4.000000,4.000000,4.000000,4.000000,4.000000,4.000000,100.000000
1615604042.195576,44.000000,0.000000,8.124296,9.762321,22.266237,10.753208,4.974615,2.896580,-1.046008,10.106604,19.006128,22.284357,27.515949,10.953506,13.463275,20.739191,19.808044,29.244907,18.655376,-4.744069,78.622208,38.111282,18.323248,18.534597,14.904855,11.242970,8.729881,13.584982,4.448344,9.070740,15.115548,12.458956,7.830126,-10.471174,8064.000000,0.000000,4.000000,,,,0.000000,4.000000,4.000000,4.000000,4.000000,4.000000,4.000000,4.000000,4.000000,4.000000,4.000000,4.000000,4.000000,4.000000,4.000000,4.000000,4.000000,4.000000,4.000000,4.000000,4.000000,4.000000,4.000000,4.000000,4.000000,4.000000,4.000000,4.000000,4.000000,4.000000,4.000000,4.000000,4.000000,100.000000
1615604042.203328,45.000000,0.000000,8.116172,10.778200,25.833715,13.819378,6.508101,2.893683,-0.532142,8.045216,15.910199,20.210791,22.360228,13.506655,12.424170,19.692812,20.301056,30.754124,20.175182,11.158112,89.312813,39.098812,27.535694,24.157087,14.377129,12.257368,10.772434,15.109859,4.443896,6.497566,16.126074,23.728548,10.899220,-4.819677,8064.000000,0.000000,4.000000,,,,0.000000,4.000000,4.000000,4.000000,4.000000,4.000000,4.000000,4.000000,4.000000,4.000000,4.000000,4.000000,4.000000,4.000000,4.000000,4.000000,4.000000,4.000000,4.000000,4.000000,4.000000,4.000000,4.000000,4.000000,4.000000,4.000000,4.000000,4.000000,4.000000,4.000000,4.000000,4.000000,4.000000,100.000000
1615604042.210981,46.000000,0.000000,2.467030,10.767422,21.705317,12.779918,2.911850,2.890790,-2.070071,4.447427,5.637878,15.575195,9.517354,5.288020,12.924567,18.134657,19.255114,32.774651,16.052443,10.121312,85.120941,32.905865,25.969696,22.594469,13.849932,15.322033,7.684738,15.094748,3.926632,1.362863,13.545845,16.525331,5.760115,-8.917421,8064.000000,0.000000,4.000000,,,,0.000000,4.000000,4.000000,4.000000,4.000000,4.000000,4.000000,4.000000,4.000000,4.000000,4.000000,4.000000,4.000000,4.000000,4.000000,4.000000,4.000000,4.000000,4.000000,4.000000,4.000000,4.000000,4.000000,4.000000,4.000000,4.000000,4.000000,4.000000,4.000000,4.000000,4.000000,4.000000,4.000000,100.000000
1615604042.218733,47.000000,0.000000,-2.150821,6.654090,14.504125,10.715856,-2.219267,2.375078,-5.144924,0.340415,-2.572888,14.021158,2.841171,-2.409576,7.783438,15.552420,16.671757,32.229057,11.421006,3.444524,85.035820,26.206293,25.943726,22.059055,11.784800,15.819531,6.651412,15.079654,3.922705,-0.176961,9.942555,3.688294,-0.912312,-15.575171,8064.000000,0.000000,4.000000,,,,0.000000,4.000000,4.000000,4.000000,4.000000,4.000000,4.000000,4.000000,4.000000,4.000000,4.000000,4.000000,4.000000,4.000000,4.000000,4.000000,4.000000,4.000000,4.000000,4.000000,4.000000,4.000000,4.000000,4.000000,4.000000,4.000000,4.000000,4.000000,4.000000,4.000000,4.000000,4.000000,4.000000,100.000000
