title:28, start timestamp:1614040736.154602, stop timestamp:1614040782.067805, headset type:EPOCFLEX, headset serial:F00001ED, headset firmware:f12, subject name:s05, channels:75, sampling rate:128, samples:5926      , version:2.0
Timestamp,EEG.Counter,EEG.Interpolated,EEG.Cz,EEG.Fz,EEG.Fp1,EEG.AF3,EEG.F7,EEG.F3,EEG.FC1,EEG.C3,EEG.FC5,EEG.T7,EEG.CP5,EEG.CP1,EEG.P3,EEG.P7,EEG.PO3,EEG.O1,EEG.Pz,EEG.Oz,EEG.O2,EEG.PO4,EEG.P8,EEG.P4,EEG.CP2,EEG.CP6,EEG.T8,EEG.FC6,EEG.C4,EEG.FC2,EEG.F4,EEG.F8,EEG.AF4,EEG.Fp2,EEG.HighBitFlex,EEG.RawCq,EEG.Battery,MarkerIndex,MarkerType,MarkerValueInt,EEG.MarkerHardware,CQ.Cz,CQ.Fz,CQ.Fp1,CQ.AF3,CQ.F7,CQ.F3,CQ.FC1,CQ.C3,CQ.FC5,CQ.T7,CQ.CP5,CQ.CP1,CQ.P3,CQ.P7,CQ.PO3,CQ.O1,CQ.Pz,CQ.Oz,CQ.O2,CQ.PO4,CQ.P8,CQ.P4,CQ.CP2,CQ.CP6,CQ.T8,CQ.FC6,CQ.C4,CQ.FC2,CQ.F4,CQ.F8,CQ.AF4,CQ.Fp2,CQ.Overall
1614040736.154602,36.000000,0.000000,12.203742,4.423919,-109.699394,-3.314646,16.219215,4.711068,3.921940,6.771363,15.765729,26.103746,22.858419,9.330267,26.130644,28.299099,29.465401,41.901276,12.410638,73.193893,43.688530,3.058353,4.123092,-1.402973,-3.889490,-6.198636,-5.438370,-13.337062,-11.051661,-11.558962,-16.042450,-24.668741,-35.907734,-50.111443,8064.000000,0.000000,4.000000,,,,0.000000,4.000000,1.000000,4.000000,4.000000,4.000000,4.000000,4.000000,4.000000,4.000000,4.000000,4.000000,4.000000,4.000000,4.000000,4.000000,4.000000,4.000000,4.000000,4.000000,4.000000,4.000000,4.000000,4.000000,4.000000,4.000000,4.000000,4.000000,4.000000,4.000000,4.000000,4.000000,4.000000,75.000000
1614040736.162252,37.000000,0.000000,12.191538,4.932316,-109.589691,-3.311332,17.741457,6.757639,3.918018,7.277412,17.288425,29.154566,19.245817,10.346578,18.925026,24.681057,15.076962,25.449118,15.475150,72.607872,45.696125,3.568115,4.118968,1.162532,-4.398421,-6.192437,-5.432931,-14.349366,-11.553430,-8.983300,-15.513587,-26.182533,-33.307724,-49.548512,8064.000000,0.000000,4.000000,,,,0.000000,4.000000,1.000000,4.000000,4.000000,4.000000,4.000000,4.000000,4.000000,4.000000,4.000000,4.000000,4.000000,4.000000,4.000000,4.000000,4.000000,4.000000,4.000000,4.000000,4.000000,4.000000,4.000000,4.000000,4.000000,4.000000,4.000000,4.000000,4.000000,4.000000,4.000000,4.000000,4.000000,75.000000
1614040736.170001,38.000000,0.000000,12.179347,7.491486,-111.531387,-3.308021,19.262177,8.289343,3.914100,6.244493,17.271135,22.458744,14.611186,7.259308,6.598409,11.835863,-1.861193,4.910847,10.331470,56.637833,35.906837,2.538906,3.602029,2.187011,-3.368381,-6.699065,-5.427499,-13.309376,-11.029056,-4.871753,-12.933971,-26.156351,-30.197493,-49.498962,8192.000000,0.000000,4.000000,,,,0.000000,4.000000,1.000000,4.000000,4.000000,4.000000,4.000000,4.000000,4.000000,4.000000,4.000000,4.000000,4.000000,4.000000,4.000000,4.000000,4.000000,4.000000,4.000000,4.000000,4.000000,4.000000,4.000000,4.000000,4.000000,4.000000,4.000000,4.000000,4.000000,4.000000,4.000000,4.000000,4.000000,75.000000
1614040736.177650,39.000000,0.000000,12.167168,7.996815,-110.907036,-2.791892,19.242914,8.793874,3.910186,2.135685,16.741045,14.743978,14.596575,1.098203,-3.151779,-9.714435,-24.423433,-13.555602,6.218574,29.914528,12.281188,-4.643120,0.521504,-2.430561,-3.365013,-6.179546,-5.422071,-13.296066,-11.018027,-3.328420,-14.972320,-25.104553,-29.654476,-49.449463,8064.000000,0.000000,4.000000,,,,0.000000,4.000000,1.000000,4.000000,4.000000,4.000000,4.000000,4.000000,4.000000,4.000000,4.000000,4.000000,4.000000,4.000000,4.000000,4.000000,4.000000,4.000000,4.000000,4.000000,4.000000,4.000000,4.000000,4.000000,4.000000,4.000000,4.000000,4.000000,4.000000,4.000000,4.000000,4.000000,4.000000,75.000000
1614040736.185399,40.000000,0.000000,12.155000,7.988818,-115.924332,-4.840382,15.633928,6.733798,3.906275,-0.943374,17.237123,10.626670,15.607619,-3.005459,-10.328115,-25.602156,-46.963112,-38.157433,5.186715,11.935895,2.012497,-9.253861,-3.068761,-6.017874,-4.387289,-6.173366,-5.416649,-15.846873,-11.519830,-3.837912,-18.547091,-25.079449,-30.137642,-52.476936,8064.000000,0.000000,4.000000,,,,0.000000,4.000000,1.000000,4.000000,4.000000,4.000000,4.000000,4.000000,4.000000,4.000000,4.000000,4.000000,4.000000,4.000000,4.000000,4.000000,4.000000,4.000000,4.000000,4.000000,4.000000,4.000000,4.000000,4.000000,4.000000,4.000000,4.000000,4.000000,4.000000,4.000000,4.000000,4.000000,4.000000,75.000000
1614040736.193048,41.000000,0.000000,12.142845,8.493649,-125.551994,-6.886824,11.515730,4.675782,3.902369,-0.942430,17.732708,9.590402,14.566371,-2.489633,-13.907530,-27.115015,-47.941792,-43.247478,4.155887,19.103445,10.728434,-6.680505,-5.116974,-6.011856,-1.305978,-7.192834,-5.411232,-16.856667,-8.431387,-3.834074,-16.990082,-25.567190,-30.107504,-57.039845,8064.000000,0.000000,4.000000,,,,0.000000,4.000000,1.000000,4.000000,4.000000,4.000000,4.000000,4.000000,4.000000,4.000000,4.000000,4.000000,4.000000,4.000000,4.000000,4.000000,4.000000,4.000000,4.000000,4.000000,4.000000,4.000000,4.000000,4.000000,4.000000,4.000000,4.000000,4.000000,4.000000,4.000000,4.000000,4.000000,4.000000,75.000000
1614040736.200797,42.000000,0.000000,12.130702,7.972336,-126.452087,-7.392757,10.991394,4.671106,3.898467,-0.428668,15.663692,9.580812,14.551805,-2.487144,-12.867982,-26.575079,-38.150261,-28.845257,3.638910,30.879215,14.820269,1.018483,-0.496473,-6.005844,5.361994,-4.621539,-5.405821,-14.275708,-4.320391,-3.317419,-14.921810,-25.028803,-30.077396,-56.982803,8064.000000,0.000000,4.000000,,,,0.000000,4.000000,1.000000,4.000000,4.000000,4.000000,4.000000,4.000000,4.000000,4.000000,4.000000,4.000000,4.000000,4.000000,4.000000,4.000000,4.000000,4.000000,4.000000,4.000000,4.000000,4.000000,4.000000,4.000000,4.000000,4.000000,4.000000,4.000000,4.000000,4.000000,4.000000,4.000000,4.000000,75.000000
1614040736.208446,43.000000,0.000000,12.118571,7.964364,-126.838455,-6.872544,10.980403,2.102333,3.894568,-0.941059,13.596746,9.571231,15.050073,-2.484657,-8.239729,-28.599787,-28.881340,-16.508720,3.635271,41.104744,25.574680,11.786695,8.221972,-4.461377,8.946376,-0.001532,-5.913236,-13.235791,-3.290430,-3.826922,-15.932528,-25.516594,-30.047319,-56.413002,8064.000000,0.000000,4.000000,,,,0.000000,4.000000,1.000000,4.000000,4.000000,4.000000,4.000000,4.000000,4.000000,4.000000,4.000000,4.000000,4.000000,4.000000,4.000000,4.000000,4.000000,4.000000,4.000000,4.000000,4.000000,4.000000,4.000000,4.000000,4.000000,4.000000,4.000000,4.000000,4.000000,4.000000,4.000000,4.000000,4.000000,75.000000
1614040736.216195,44.000000,0.000000,12.106453,13.084604,-137.480850,-6.865672,7.892499,-2.002334,3.890674,-0.427298,13.070330,9.561660,15.035023,1.620392,2.537741,-18.314777,-3.724254,5.559071,6.195739,67.730309,56.318336,24.595421,12.316315,4.773854,9.963071,0.511290,-4.881681,-13.735375,-3.799960,-3.823095,-15.916596,-25.491077,-32.068554,-56.869408,8064.000000,0.000000,4.000000,,,,0.000000,4.000000,1.000000,4.000000,4.000000,4.000000,4.000000,4.000000,4.000000,4.000000,4.000000,4.000000,4.000000,4.000000,4.000000,4.000000,4.000000,4.000000,4.000000,4.000000,4.000000,4.000000,4.000000,4.000000,4.000000,4.000000,4.000000,4.000000,4.000000,4.000000,4.000000,4.000000,4.000000,75.000000
1614040736.223845,45.000000,0.000000,12.094347,16.148443,-139.394653,-6.858806,6.858965,0.563771,3.373962,2.137232,13.570080,10.064919,15.019988,5.208515,14.842896,4.780461,19.869215,29.656076,7.728004,83.047195,64.979965,29.699032,11.278358,12.974208,11.491569,3.074881,-2.312697,-11.670359,-3.796160,-3.819272,-15.900680,-22.901484,-33.574947,-56.812538,8064.000000,0.000000,4.000000,,,,0.000000,4.000000,1.000000,4.000000,4.000000,4.000000,4.000000,4.000000,4.000000,4.000000,4.000000,4.000000,4.000000,4.000000,4.000000,4.000000,4.000000,4.000000,4.000000,4.000000,4.000000,4.000000,4.000000,4.000000,4.000000,4.000000,4.000000,4.000000,4.000000,4.000000,4.000000,4.000000,4.000000,75.000000
1614040736.231694,46.000000,0.000000,12.082253,9.978448,-128.486023,-6.851947,9.416209,4.665771,3.883409,3.673556,13.556510,10.054853,15.004968,5.716127,17.904976,19.647476,17.798063,25.011036,7.720276,67.066711,42.863705,25.566769,11.267078,13.474054,11.480078,7.687191,-1.284744,-9.607406,-3.279543,-3.815453,-15.371959,-18.776018,-30.977268,-56.242905,8064.000000,0.000000,4.000000,,,,0.000000,4.000000,1.000000,4.000000,4.000000,4.000000,4.000000,4.000000,4.000000,4.000000,4.000000,4.000000,4.000000,4.000000,4.000000,4.000000,4.000000,4.000000,4.000000,4.000000,4.000000,4.000000,4.000000,4.000000,4.000000,4.000000,4.000000,4.000000,4.000000,4.000000,4.000000,4.000000,4.000000,75.000000
1614040736.239443,47.000000,0.000000,12.070170,4.327444,-123.742149,-6.845095,11.458075,4.148285,5.930808,3.157062,13.030132,10.044799,15.502784,5.197591,16.348610,20.140648,10.600778,14.216794,7.712556,61.871437,40.256737,21.438637,12.281452,12.434939,10.955777,5.628222,-1.796279,-10.110620,-3.789084,-3.811638,-15.869407,-17.731602,-29.920650,-56.186665,8064.000000,0.000000,4.000000,,,,0.000000,4.000000,1.000000,4.000000,4.000000,4.000000,4.000000,4.000000,4.000000,4.000000,4.000000,4.000000,4.000000,4.000000,4.000000,4.000000,4.000000,4.000000,4.000000,4.000000,4.000000,4.000000,4.000000,4.000000,4.000000,4.000000,4.000000,4.000000,4.000000,4.000000,4.000000,4.000000,4.000000,75.000000
1614040736.247192,48.000000,0.000000,12.058100,3.810296,-126.695335,-6.838250,11.446617,3.631316,7.463338,3.153905,13.529923,10.034754,14.974461,5.192393,16.845081,19.094868,10.590177,17.792320,7.704844,74.630081,57.652378,21.417198,11.243530,12.935325,10.944821,0.494388,-1.794483,-10.100509,-4.298115,-3.807826,-18.930460,-18.739511,-32.454834,-56.130478,8064.000000,0.000000,4.000000,,,,0.000000,4.000000,1.000000,4.000000,4.000000,4.000000,4.000000,4.000000,4.000000,4.000000,4.000000,4.000000,4.000000,4.000000,4.000000,4.000000,4.000000,4.000000,4.000000,4.000000,4.000000,4.000000,4.000000,4.000000,4.000000,4.000000,4.000000,4.000000,4.000000,4.000000,4.000000,4.000000,4.000000,75.000000
1614040736.254841,49.000000,0.000000,12.046041,4.832127,-125.542999,-6.831412,11.435170,4.140506,7.455875,3.150751,13.516393,9.511899,14.446665,5.187201,16.828238,20.614233,9.041125,17.261707,7.697139,73.016991,54.004982,21.395781,11.232286,12.922390,10.933876,0.493894,-1.792689,-10.090408,-3.268176,-3.804018,-18.398710,-17.695131,-32.935200,-56.074345,8064.000000,0.000000,4.000000,,,,0.000000,4.000000,1.000000,4.000000,4.000000,4.000000,4.000000,4.000000,4.000000,4.000000,4.000000,4.000000,4.000000,4.000000,4.000000,4.000000,4.000000,4.000000,4.000000,4.000000,4.000000,4.000000,4.000000,4.000000,4.000000,4.000000,4.000000,4.000000,4.000000,4.000000,4.000000,4.000000,4.000000,75.000000
1614040736.262690,50.000000,0.000000,12.033996,3.801654,-121.314888,-6.824581,11.936556,4.649186,7.961240,3.147601,13.502876,10.015207,15.970680,5.182014,16.811409,18.542337,7.493623,13.141882,7.689442,64.226021,41.643284,20.348745,11.733875,12.909468,10.922942,1.519041,-1.790896,-9.054677,-3.264908,-3.287394,-13.764927,-14.600513,-29.825340,-55.505451,8064.000000,0.000000,4.000000,,,,0.000000,4.000000,1.000000,4.000000,4.000000,4.000000,4.000000,4.000000,4.000000,4.000000,4.000000,4.000000,4.000000,4.000000,4.000000,4.000000,4.000000,4.000000,4.000000,4.000000,4.000000,4.000000,4.000000,4.000000,4.000000,4.000000,4.000000,4.000000,4.000000,4.000000,4.000000,4.000000,4.000000,75.000000
1614040736.270439,51.000000,0.000000,12.534782,3.797852,-119.655113,-6.304935,11.924619,5.157357,7.440458,3.144453,14.002194,10.518013,13.903427,5.689652,13.204853,7.241744,0.306642,6.462073,7.681752,60.572052,42.114464,21.354036,11.209320,12.896558,10.912020,1.004701,-1.276284,-6.481519,-4.287284,-3.796927,-10.674238,-13.560270,-28.769875,-55.449944,8064.000000,0.000000,4.000000,,,,0.000000,4.000000,1.000000,4.000000,4.000000,4.000000,4.000000,4.000000,4.000000,4.000000,4.000000,4.000000,4.000000,4.000000,4.000000,4.000000,4.000000,4.000000,4.000000,4.000000,4.000000,4.000000,4.000000,4.000000,4.000000,4.000000,4.000000,4.000000,4.000000,4.000000,4.000000,4.000000,4.000000,75.000000
1614040736.278288,52.000000,0.000000,11.496607,3.794054,-122.099556,-8.349913,11.399874,3.613738,6.920197,3.141309,13.475371,9.481853,5.684396,5.171142,4.986520,-7.124472,-18.155203,-12.005927,7.674070,48.203789,35.918503,18.768579,8.121188,10.319559,10.901108,1.516517,-1.787829,-6.475038,1.358029,-4.305950,-12.202025,-14.572351,-30.792385,-56.932957,8064.000000,0.000000,4.000000,,,,0.000000,4.000000,1.000000,4.000000,4.000000,4.000000,4.000000,4.000000,4.000000,4.000000,4.000000,4.000000,4.000000,4.000000,4.000000,4.000000,4.000000,4.000000,4.000000,4.000000,4.000000,4.000000,4.000000,4.000000,4.000000,4.000000,4.000000,4.000000,4.000000,4.000000,4.000000,4.000000,4.000000,75.000000
1614040736.286037,53.000000,0.000000,11.997931,3.790260,-120.438995,-10.392845,11.901295,3.610124,11.528662,3.138167,13.461896,10.498013,4.140250,5.678791,0.366149,-12.245553,-26.342176,-22.763151,7.666397,37.386353,20.497969,14.134427,7.087426,8.770778,11.403027,1.002180,-1.786041,-5.442922,6.997696,-1.224721,-11.677003,-11.993676,-30.248774,-53.799103,8064.000000,0.000000,4.000000,,,,0.000000,4.000000,1.000000,4.000000,4.000000,4.000000,4.000000,4.000000,4.000000,4.000000,4.000000,4.000000,4.000000,4.000000,4.000000,4.000000,4.000000,4.000000,4.000000,4.000000,4.000000,4.000000,4.000000,4.000000,4.000000,4.000000,4.000000,4.000000,4.000000,4.000000,4.000000,4.000000,4.000000,75.000000
1614040736.293886,54.000000,0.000000,12.498753,4.812111,-116.215996,-10.382452,11.889393,8.221899,14.081235,3.647850,13.961255,13.564438,10.289956,5.673112,0.878604,-11.207666,-19.649168,-11.971158,7.658730,42.989994,20.990290,12.581831,8.618800,9.274827,9.853162,1.513999,-0.758614,-5.950299,0.324032,0.827786,-11.152506,-9.417581,-28.167242,-51.181198,8064.000000,0.000000,4.000000,,,,0.000000,4.000000,1.000000,4.000000,4.000000,4.000000,4.000000,4.000000,4.000000,4.000000,4.000000,4.000000,4.000000,4.000000,4.000000,4.000000,4.000000,4.000000,4.000000,4.000000,4.000000,4.000000,4.000000,4.000000,4.000000,4.000000,4.000000,4.000000,4.000000,4.000000,4.000000,4.000000,4.000000,75.000000
1614040736.301635,55.000000,0.000000,7.358049,4.294478,-124.817726,-10.884890,5.723658,3.085472,7.913308,1.592920,11.896011,11.499591,8.228384,2.590516,1.390545,-11.709279,-16.039774,-3.241238,6.112610,49.613670,30.712891,14.107711,6.046079,6.701450,6.253565,1.512485,-2.809137,-14.149477,-10.958344,-5.839709,-15.756738,-18.126112,-34.292919,-62.412071,7936.000000,0.000000,4.000000,,,,0.000000,4.000000,1.000000,4.000000,4.000000,4.000000,4.000000,4.000000,4.000000,4.000000,4.000000,4.000000,4.000000,4.000000,4.000000,4.000000,4.000000,4.000000,4.000000,4.000000,4.000000,4.000000,4.000000,4.000000,4.000000,4.000000,4.000000,4.000000,4.000000,4.000000,4.000000,4.000000,4.000000,75.000000
1614040736.309484,56.000000,0.000000,0.684024,3.264543,-138.539063,-13.438107,-2.487194,-8.199665,2.777189,-0.459955,7.268731,4.308605,0.015027,-2.027459,0.876334,-11.697570,-15.510915,-0.161074,4.055215,52.128159,32.733459,13.580783,0.911827,1.566543,3.683209,-4.130054,-8.960175,-23.366096,-11.973026,-11.987716,-22.407648,-29.390038,-45.540680,-74.657349,8064.000000,0.000000,4.000000,,,,0.000000,4.000000,1.000000,4.000000,4.000000,4.000000,4.000000,4.000000,4.000000,4.000000,4.000000,4.000000,4.000000,4.000000,4.000000,4.000000,4.000000,4.000000,4.000000,4.000000,4.000000,4.000000,4.000000,4.000000,4.000000,4.000000,4.000000,4.000000,4.000000,4.000000,4.000000,4.000000,4.000000,75.000000
1614040736.317233,57.000000,0.000000,1.708981,9.415124,-133.785141,-14.450311,-3.510348,-7.165824,3.800053,-0.972316,5.723001,2.253014,1.040653,-2.538252,0.875458,-11.173052,-9.854378,6.505754,3.538339,55.152954,31.162264,13.054381,-0.114725,0.539336,3.166706,-10.792590,-13.053779,-23.342731,-9.909771,-6.334702,-23.410881,-29.873466,-45.495140,-69.454491,8064.000000,0.000000,4.000000,,,,0.000000,4.000000,1.000000,4.000000,4.000000,4.000000,4.000000,4.000000,4.000000,4.000000,4.000000,4.000000,4.000000,4.000000,4.000000,4.000000,4.000000,4.000000,4.000000,4.000000,4.000000,4.000000,4.000000,4.000000,4.000000,4.000000,4.000000,4.000000,4.000000,4.000000,4.000000,4.000000,4.000000,75.000000
1614040736.325082,58.000000,0.000000,7.348298,14.021093,-124.420586,-13.923039,-2.994017,0.533649,3.796253,0.054297,6.230098,3.276402,5.142177,-2.022893,1.387403,-10.136238,-4.203498,8.550530,4.047622,57.149082,35.746487,14.066968,0.398210,1.564438,3.676359,-14.371541,-12.527904,-20.242466,-11.438323,0.338299,-19.797728,-22.151285,-36.731693,-60.154263,8064.000000,0.000000,4.000000,,,,0.000000,4.000000,1.000000,4.000000,4.000000,4.000000,4.000000,4.000000,4.000000,4.000000,4.000000,4.000000,4.000000,4.000000,4.000000,4.000000,4.000000,4.000000,4.000000,4.000000,4.000000,4.000000,4.000000,4.000000,4.000000,4.000000,4.000000,4.000000,4.000000,4.000000,4.000000,4.000000,4.000000,75.000000
1614040736.332831,59.000000,0.000000,8.879412,7.340406,-126.347450,-13.909117,-3.503844,1.045936,3.792457,0.054243,6.223868,2.760305,4.111393,-2.533691,1.898836,-6.023538,-0.096730,11.106082,4.043574,58.630394,37.762020,13.540080,0.910632,1.562873,3.159863,-14.869990,-12.515376,-17.658119,-11.426885,-0.174859,-16.188185,-17.513750,-33.105221,-59.581287,8064.000000,0.000000,4.000000,,,,0.000000,4.000000,1.000000,4.000000,4.000000,4.000000,4.000000,4.000000,4.000000,4.000000,4.000000,4.000000,4.000000,4.000000,4.000000,4.000000,4.000000,4.000000,4.000000,4.000000,4.000000,4.000000,4.000000,4.000000,4.000000,4.000000,4.000000,4.000000,4.000000,4.000000,4.000000,4.000000,4.000000,75.000000
1614040736.340680,60.000000,0.000000,7.844891,5.281784,-123.656998,-13.895207,-0.423417,2.583352,5.839947,-0.971452,6.217644,3.270365,4.620102,-2.531157,1.896937,-0.889309,-0.609454,11.607797,4.039530,53.443558,29.006311,7.372694,0.396901,1.561310,3.669523,-9.214094,-13.015681,-14.050718,-10.902637,-0.687505,-15.659177,-15.444954,-31.533653,-53.367863,8064.000000,0.000000,4.000000,,,,0.000000,4.000000,1.000000,4.000000,4.000000,4.000000,4.000000,4.000000,4.000000,4.000000,4.000000,4.000000,4.000000,4.000000,4.000000,4.000000,4.000000,4.000000,4.000000,4.000000,4.000000,4.000000,4.000000,4.000000,4.000000,4.000000,4.000000,4.000000,4.000000,4.000000,4.000000,4.000000,4.000000,75.000000
1614040736.348429,61.000000,0.000000,8.349867,7.840604,-120.456421,-13.881312,0.089827,4.119230,7.885389,0.567981,6.211427,2.754274,5.128303,-2.015805,1.895040,1.675683,-2.660127,-0.711504,4.035491,40.056782,18.208075,2.237116,-0.629137,1.046928,3.665854,-0.999752,-12.489845,-12.498206,-10.891734,0.338823,-15.643517,-13.891047,-26.373915,-42.032440,8064.000000,0.000000,4.000000,,,,0.000000,4.000000,1.000000,4.000000,4.000000,4.000000,4.000000,4.000000,4.000000,4.000000,4.000000,4.000000,4.000000,4.000000,4.000000,4.000000,4.000000,4.000000,4.000000,4.000000,4.000000,4.000000,4.000000,4.000000,4.000000,4.000000,4.000000,4.000000,4.000000,4.000000,4.000000,4.000000,4.000000,75.000000
1614040736.356278,62.000000,0.000000,8.854337,-2.936467,-132.130829,-15.918714,-6.576929,-4.602838,7.877503,-0.458228,3.641113,-4.427967,-3.594774,-2.013790,1.893145,-0.377275,-3.170287,-9.941561,5.057096,34.888519,17.164225,2.234879,-2.166969,2.071522,3.662188,-1.511573,-12.477355,-13.511349,-10.880842,0.338485,-15.627874,-15.415618,-25.834719,-41.990410,8064.000000,0.000000,4.000000,,,,0.000000,4.000000,1.000000,4.000000,4.000000,4.000000,4.000000,4.000000,4.000000,4.000000,4.000000,4.000000,4.000000,4.000000,4.000000,4.000000,4.000000,4.000000,4.000000,4.000000,4.000000,4.000000,4.000000,4.000000,4.000000,4.000000,4.000000,4.000000,4.000000,4.000000,4.000000,4.000000,4.000000,75.000000
1614040736.364027,63.000000,0.000000,8.332663,-10.625838,-142.767929,-17.441256,-10.672916,-13.829004,5.818344,-6.611616,2.099010,-11.090206,-14.360410,-2.011776,0.865611,-4.992282,-10.346604,-8.905978,3.513578,37.417732,16.121420,2.745465,-3.703264,2.582271,3.658526,-6.638267,-12.464878,-12.985017,-10.357141,-0.174674,-15.099425,-17.451485,-28.885809,-47.589443,8064.000000,0.000000,4.000000,,,,0.000000,4.000000,1.000000,4.000000,4.000000,4.000000,4.000000,4.000000,4.000000,4.000000,4.000000,4.000000,4.000000,4.000000,4.000000,4.000000,4.000000,4.000000,4.000000,4.000000,4.000000,4.000000,4.000000,4.000000,4.000000,4.000000,4.000000,4.000000,4.000000,4.000000,4.000000,4.000000,4.000000,75.000000
1614040736.371676,64.000000,0.000000,8.324329,3.230941,-140.061066,-17.423815,-10.149423,-14.840816,3.761243,-11.733210,3.122552,-12.104756,-15.371691,-1.496944,-3.750639,-8.577033,-23.156771,-16.589380,1.458782,30.713650,5.848888,2.229899,-7.802125,-3.061337,3.654867,-6.118808,-12.452413,-12.972032,-10.859605,-0.174500,-15.597147,-17.946854,-29.882563,-48.054676,0.000000,200.000000,4.000000,,,,0.000000,4.000000,1.000000,4.000000,4.000000,4.000000,4.000000,4.000000,4.000000,4.000000,4.000000,4.000000,4.000000,4.000000,4.000000,4.000000,4.000000,4.000000,4.000000,4.000000,4.000000,4.000000,4.000000,4.000000,4.000000,4.000000,4.000000,4.000000,4.000000,4.000000,4.000000,4.000000,4.000000,75.000000
1614040736.379426,65.000000,0.000000,8.828826,11.945660,-136.844086,-17.406391,-11.164914,-13.287514,3.757482,-11.721477,2.093788,-13.118293,-13.305037,-3.033908,-11.439196,-9.594097,-26.723356,-27.854843,0.944503,23.503448,2.766116,2.740489,-10.871245,-9.212121,3.651212,-6.112689,-12.439960,-12.959060,-10.848745,0.338495,-15.581550,-17.928907,-29.852680,-49.032261,0.000000,208.000000,4.000000,,,,0.000000,4.000000,1.000000,4.000000,4.000000,4.000000,4.000000,4.000000,4.000000,4.000000,4.000000,4.000000,4.000000,4.000000,4.000000,4.000000,4.000000,4.000000,4.000000,4.000000,4.000000,4.000000,4.000000,4.000000,4.000000,4.000000,4.000000,4.000000,4.000000,4.000000,4.000000,4.000000,4.000000,75.000000
1614040736.387075,66.000000,0.000000,7.794356,4.241406,-137.220047,-17.388985,-13.205031,-13.787047,3.240904,-11.196935,-0.472408,-15.156457,-14.830194,-5.082156,-17.581602,-15.225529,-30.286377,-31.416731,-1.107724,25.531227,13.019760,3.250570,-10.860374,-10.228550,3.647561,-9.696320,-12.427521,-13.971742,-10.325076,-1.200305,-15.565968,-17.910978,-28.797188,-51.547333,0.000000,210.000000,4.000000,,,,0.000000,4.000000,1.000000,4.000000,4.000000,4.000000,4.000000,4.000000,4.000000,4.000000,4.000000,4.000000,4.000000,4.000000,4.000000,4.000000,4.000000,4.000000,4.000000,4.000000,4.000000,4.000000,4.000000,4.000000,4.000000,4.000000,4.000000,4.000000,4.000000,4.000000,4.000000,4.000000,4.000000,75.000000
1614040736.394824,67.000000,0.000000,5.222459,-0.378220,-136.570007,-17.371595,-13.704647,-14.286080,0.160740,-11.185738,-1.497577,-15.654120,-13.789722,-6.102715,-17.051201,-20.851330,-34.871475,-29.334032,-6.234821,29.608261,21.211868,2.734499,-10.336694,-8.679860,3.643914,-10.199444,-12.415093,-16.521873,-11.853212,-3.763207,-15.550402,-17.893066,-29.794031,-53.034248,0.000000,178.000000,4.000000,,,,0.000000,4.000000,1.000000,4.000000,4.000000,4.000000,4.000000,4.000000,4.000000,4.000000,4.000000,4.000000,4.000000,4.000000,4.000000,4.000000,4.000000,4.000000,4.000000,4.000000,4.000000,4.000000,4.000000,4.000000,4.000000,4.000000,4.000000,4.000000,4.000000,4.000000,4.000000,4.000000,4.000000,75.000000
1614040736.402473,68.000000,0.000000,4.704416,-0.890662,-138.484726,-16.841404,-13.690943,-14.271794,-0.352241,-8.610449,-0.983258,-15.638467,-8.647727,-6.096612,-9.341842,-7.497144,-17.913527,-12.894442,-5.202945,33.168396,23.754759,2.731764,-10.326357,-9.184001,3.640270,-10.189244,-12.402678,-17.530993,-14.405461,-3.759444,-15.534852,-19.413635,-35.405262,-55.032494,0.000000,219.000000,4.000000,,,,0.000000,4.000000,1.000000,4.000000,4.000000,4.000000,4.000000,4.000000,4.000000,4.000000,4.000000,4.000000,4.000000,4.000000,4.000000,4.000000,4.000000,4.000000,4.000000,4.000000,4.000000,4.000000,4.000000,4.000000,4.000000,4.000000,4.000000,4.000000,4.000000,4.000000,4.000000,4.000000,4.000000,75.000000
1614040736.410222,69.000000,0.000000,4.699712,-2.941054,-135.782135,-17.337383,-12.651610,-11.180599,0.673752,-7.063377,-0.469455,-14.597187,-5.562157,-5.577695,-4.717115,4.818045,2.104387,4.554350,-2.120819,33.648048,23.731005,3.241853,-10.316031,-9.687637,4.149450,-9.153415,-12.390275,-17.000641,-14.903876,-3.755684,-15.519317,-21.445503,-35.369858,-55.490284,0.000000,226.000000,4.000000,,,,0.000000,4.000000,1.000000,4.000000,4.000000,4.000000,4.000000,4.000000,4.000000,4.000000,4.000000,4.000000,4.000000,4.000000,4.000000,4.000000,4.000000,4.000000,4.000000,4.000000,4.000000,4.000000,4.000000,4.000000,4.000000,4.000000,4.000000,4.000000,4.000000,4.000000,4.000000,4.000000,4.000000,75.000000
1614040736.417871,70.000000,0.000000,2.643730,6.292656,-132.056610,-16.807224,-14.690241,-10.143778,-1.378204,-10.133237,-0.981806,-15.608231,-8.120697,-5.059297,-8.302142,-13.648312,-5.590025,-4.168153,-6.734083,24.383631,18.066248,-0.351133,-10.305715,-9.165129,3.632480,-6.067338,-12.377885,-16.983641,-14.376152,-3.751929,-15.503798,-21.936878,-27.642179,-51.845047,0.000000,182.000000,4.000000,,,,0.000000,4.000000,1.000000,4.000000,4.000000,4.000000,4.000000,4.000000,4.000000,4.000000,4.000000,4.000000,4.000000,4.000000,4.000000,4.000000,4.000000,4.000000,4.000000,4.000000,4.000000,4.000000,4.000000,4.000000,4.000000,4.000000,4.000000,4.000000,4.000000,4.000000,4.000000,4.000000,4.000000,75.000000
1614040736.425620,71.000000,0.000000,0.589804,18.081236,-144.745071,-16.277597,-22.367859,-15.261839,-3.940928,-11.661565,-3.032106,-21.233648,-10.676679,-6.592700,-12.909225,-33.121841,-20.456230,-17.497318,-9.804272,21.282324,12.407156,-4.966166,-10.295409,-9.155964,1.577565,-6.574091,-12.365507,-16.966656,-14.361776,-3.748177,-15.488294,-21.402121,-29.665819,-50.767563,0.000000,203.000000,4.000000,,,,0.000000,4.000000,1.000000,4.000000,4.000000,4.000000,4.000000,4.000000,4.000000,4.000000,4.000000,4.000000,4.000000,4.000000,4.000000,4.000000,4.000000,4.000000,4.000000,4.000000,4.000000,4.000000,4.000000,4.000000,4.000000,4.000000,4.000000,4.000000,4.000000,4.000000,4.000000,4.000000,4.000000,75.000000
1614040736.433270,72.000000,0.000000,0.589214,17.037514,-157.933655,-19.338242,-27.986517,-17.297859,-3.936987,-11.137083,-4.567535,-20.699594,-9.640361,-4.534825,-13.409136,-16.678465,-17.358850,-7.736231,-5.179083,33.568733,15.471672,-4.448380,-9.772293,-9.146808,0.037526,-5.541876,-11.840321,-17.462509,-14.347414,-3.744429,-15.472805,-21.380720,-39.892563,-55.845001,0.000000,217.000000,4.000000,,,,0.000000,4.000000,1.000000,4.000000,4.000000,4.000000,4.000000,4.000000,4.000000,4.000000,4.000000,4.000000,4.000000,4.000000,4.000000,4.000000,4.000000,4.000000,4.000000,4.000000,4.000000,4.000000,4.000000,4.000000,4.000000,4.000000,4.000000,4.000000,4.000000,4.000000,4.000000,4.000000,4.000000,75.000000
1614040736.441019,73.000000,0.000000,1.101446,12.917912,-148.544952,-23.934288,-25.907248,-14.203639,-3.420230,-11.125946,-5.075788,-10.935305,-7.579439,3.162018,-9.293162,5.389496,-13.238928,5.604838,-2.096981,43.278755,20.584406,-1.367008,-9.762521,-9.137661,0.037489,0.104692,-12.854122,-16.932226,-14.333067,-5.279146,-15.457333,-22.384979,-41.391132,-58.866077,0.000000,204.000000,4.000000,,,,0.000000,4.000000,1.000000,4.000000,4.000000,4.000000,4.000000,4.000000,4.000000,4.000000,4.000000,4.000000,4.000000,4.000000,4.000000,4.000000,4.000000,4.000000,4.000000,4.000000,4.000000,4.000000,4.000000,4.000000,4.000000,4.000000,4.000000,4.000000,4.000000,4.000000,4.000000,4.000000,4.000000,75.000000
1614040736.448668,74.000000,0.000000,1.100344,10.340891,-135.575897,-24.935995,-23.830059,-14.189435,-3.416809,-11.627641,-4.557892,-8.360267,-6.546218,4.184497,-6.206946,3.332825,-15.789792,6.624875,-3.633346,42.209835,21.076641,-0.852821,-10.265578,-9.128524,0.037451,-0.921054,-12.328447,-14.351192,-14.318734,-7.325149,-15.441875,-19.285671,-36.734356,-56.755932,0.000000,196.000000,4.000000,,,,0.000000,4.000000,1.000000,4.000000,4.000000,4.000000,4.000000,4.000000,4.000000,4.000000,4.000000,4.000000,4.000000,4.000000,4.000000,4.000000,4.000000,4.000000,4.000000,4.000000,4.000000,4.000000,4.000000,4.000000,4.000000,4.000000,4.000000,4.000000,4.000000,4.000000,4.000000,4.000000,4.000000,75.000000
1614040736.456517,75.000000,0.000000,1.099244,2.638243,-135.440323,-24.398239,-24.831869,-12.636784,-3.413393,-11.103192,-5.066155,-14.505753,-7.052493,-1.460713,-6.200739,-1.798713,-17.312464,0.464404,-3.629712,39.090702,18.491463,-1.877609,-10.768133,-9.119395,0.037414,-8.612441,-7.700734,-13.824020,-14.304415,-7.317823,-15.426434,-12.086899,-36.184803,-53.622250,0.000000,198.000000,4.000000,,,,0.000000,4.000000,1.000000,4.000000,4.000000,4.000000,4.000000,4.000000,4.000000,4.000000,4.000000,4.000000,4.000000,4.000000,4.000000,4.000000,4.000000,4.000000,4.000000,4.000000,4.000000,4.000000,4.000000,4.000000,4.000000,4.000000,4.000000,4.000000,4.000000,4.000000,4.000000,4.000000,4.000000,75.000000
1614040736.464266,76.000000,0.000000,1.098145,-4.031062,-134.279236,-24.373840,-24.807037,-5.957480,-3.409979,-11.092089,-5.061089,-16.029709,-6.532619,-1.972073,-5.681718,0.767188,-16.782331,-8.254009,-2.600441,37.513149,15.908868,-0.337270,-10.244545,-9.623096,-0.475444,-11.167931,-5.128931,-13.297376,-14.290111,-7.310505,-15.411007,-8.997889,-34.610157,-52.030167,0.000000,218.000000,4.000000,,,,0.000000,4.000000,1.000000,4.000000,4.000000,4.000000,4.000000,4.000000,4.000000,4.000000,4.000000,4.000000,4.000000,4.000000,4.000000,4.000000,4.000000,4.000000,4.000000,4.000000,4.000000,4.000000,4.000000,4.000000,4.000000,4.000000,4.000000,4.000000,4.000000,4.000000,4.000000,4.000000,4.000000,75.000000
1614040736.472115,77.000000,0.000000,1.097046,-1.975749,-132.606506,-24.349466,-23.756590,-2.874600,-3.406569,-11.080997,-4.543207,-14.475218,-7.038908,-3.508563,-7.727318,-3.848964,-19.329651,-14.399602,-4.649123,37.988457,17.431421,-1.875394,-12.285583,-9.100653,-2.013430,-9.105481,-9.226366,-12.771258,-14.788641,-7.303195,-15.395596,-10.527352,-32.524265,-51.465317,0.000000,209.000000,4.000000,,,,0.000000,4.000000,1.000000,4.000000,4.000000,4.000000,4.000000,4.000000,4.000000,4.000000,4.000000,4.000000,4.000000,4.000000,4.000000,4.000000,4.000000,4.000000,4.000000,4.000000,4.000000,4.000000,4.000000,4.000000,4.000000,4.000000,4.000000,4.000000,4.000000,4.000000,4.000000,4.000000,4.000000,75.000000
1614040736.479864,78.000000,0.000000,1.095949,1.103150,-135.037994,-24.837938,-24.758474,-5.948648,-3.403162,-11.069916,-5.051484,-15.486383,-11.134433,-8.120439,-16.437540,-12.050243,-29.053911,-18.487766,-7.208577,35.899185,15.875528,-4.950441,-15.350220,-9.604372,-3.549878,-10.122017,-13.832524,-15.322589,-14.261032,-7.295892,-15.380200,-10.516825,-33.004559,-50.901031,0.000000,194.000000,4.000000,,,,0.000000,4.000000,1.000000,4.000000,4.000000,4.000000,4.000000,4.000000,4.000000,4.000000,4.000000,4.000000,4.000000,4.000000,4.000000,4.000000,4.000000,4.000000,4.000000,4.000000,4.000000,4.000000,4.000000,4.000000,4.000000,4.000000,4.000000,4.000000,4.000000,4.000000,4.000000,4.000000,4.000000,75.000000
1614040736.487713,79.000000,0.000000,1.094853,0.076405,-131.826035,-24.300280,-24.220896,-6.968341,-3.912580,-9.007565,-4.533612,-10.342691,-10.610477,-7.086677,-17.446743,-7.935629,-35.691525,-19.494919,-7.201368,28.683800,15.346832,-1.355747,-12.257947,-9.081947,-4.571970,-10.624715,-12.280231,-15.820087,-12.195489,-7.288596,-15.877641,-9.993487,-32.458736,-50.337311,0.000000,205.000000,4.000000,,,,0.000000,4.000000,1.000000,4.000000,4.000000,4.000000,4.000000,4.000000,4.000000,4.000000,4.000000,4.000000,4.000000,4.000000,4.000000,4.000000,4.000000,4.000000,4.000000,4.000000,4.000000,4.000000,4.000000,4.000000,4.000000,4.000000,4.000000,4.000000,4.000000,4.000000,4.000000,4.000000,4.000000,75.000000
1614040736.495462,80.000000,0.000000,1.093758,0.076329,-127.591644,-22.224697,-20.094110,-5.935731,-3.395847,-6.947275,-2.990617,-2.127221,-1.881919,-2.464206,-0.506220,4.379999,-21.809679,-7.167732,-5.142885,36.860245,27.639177,7.363557,-3.527740,-4.970302,-3.028936,-4.460244,-6.114104,-8.624780,-11.157652,-7.281307,-15.348943,-10.496315,-30.887815,-51.825432,0.000000,211.000000,4.000000,,,,0.000000,4.000000,1.000000,4.000000,4.000000,4.000000,4.000000,4.000000,4.000000,4.000000,4.000000,4.000000,4.000000,4.000000,4.000000,4.000000,4.000000,4.000000,4.000000,4.000000,4.000000,4.000000,4.000000,4.000000,4.000000,4.000000,4.000000,4.000000,4.000000,4.000000,4.000000,4.000000,4.000000,75.000000
1614040736.503311,81.000000,0.000000,1.092665,0.589073,-128.489700,-20.151190,-16.484272,-6.442616,-1.853989,-7.453148,-0.936344,0.439009,5.299450,-1.436101,13.853261,13.606388,0.776234,11.300974,-1.035178,58.361847,45.047436,10.945937,2.116813,0.162874,1.589478,1.185242,-0.979784,-1.949489,-9.608033,-5.222744,-13.282311,-10.485819,-29.318466,-49.722324,0.000000,199.000000,4.000000,,,,0.000000,4.000000,1.000000,4.000000,4.000000,4.000000,4.000000,4.000000,4.000000,4.000000,4.000000,4.000000,4.000000,4.000000,4.000000,4.000000,4.000000,4.000000,4.000000,4.000000,4.000000,4.000000,4.000000,4.000000,4.000000,4.000000,4.000000,4.000000,4.000000,4.000000,4.000000,4.000000,4.000000,75.000000
1614040736.511060,82.000000,0.000000,1.091572,0.588484,-127.335564,-20.131039,-16.467789,-6.436173,0.199147,-7.445694,-0.422588,0.438570,4.781331,-2.460305,12.813766,15.644064,8.980586,16.930698,1.017140,68.559891,48.079311,12.986273,5.704440,3.239634,4.151990,2.209697,-0.978805,-1.947539,-4.983040,-3.166239,-11.730568,-10.475332,-27.237865,-42.493118,0.000000,205.000000,4.000000,,,,0.000000,4.000000,1.000000,4.000000,4.000000,4.000000,4.000000,4.000000,4.000000,4.000000,4.000000,4.000000,4.000000,4.000000,4.000000,4.000000,4.000000,4.000000,4.000000,4.000000,4.000000,4.000000,4.000000,4.000000,4.000000,4.000000,4.000000,4.000000,4.000000,4.000000,4.000000,4.000000,4.000000,75.000000
1614040736.518909,83.000000,0.000000,1.090480,0.587896,-128.233871,-20.623728,-16.964140,-6.429738,0.711768,-6.925428,-0.934986,-1.613151,5.289370,-1.945025,10.236851,11.013036,7.433144,17.939409,1.016122,69.004158,47.518410,18.614313,8.775659,5.800497,4.147839,1.181847,-1.490646,-2.458412,-2.413955,-3.675894,-11.206017,-9.952037,-25.159346,-40.912163,0.000000,210.000000,4.000000,,,,0.000000,4.000000,1.000000,4.000000,4.000000,4.000000,4.000000,4.000000,4.000000,4.000000,4.000000,4.000000,4.000000,4.000000,4.000000,4.000000,4.000000,4.000000,4.000000,4.000000,4.000000,4.000000,4.000000,4.000000,4.000000,4.000000,4.000000,4.000000,4.000000,4.000000,4.000000,4.000000,4.000000,75.000000
1614040736.526658,84.000000,0.000000,1.089390,0.587308,-137.849228,-20.090284,-16.434357,-6.423308,0.198236,-6.918503,-0.421230,-7.252563,5.284081,-0.917439,11.252254,6.386638,4.348788,16.895828,1.527927,65.858231,47.983715,18.082878,6.715601,6.820338,4.143691,1.693485,-0.463515,-1.943133,-2.924361,-3.672218,-11.707631,-9.942084,-25.134186,-48.563557,0.000000,234.000000,4.000000,,,,0.000000,4.000000,1.000000,4.000000,4.000000,4.000000,4.000000,4.000000,4.000000,4.000000,4.000000,4.000000,4.000000,4.000000,4.000000,4.000000,4.000000,4.000000,4.000000,4.000000,4.000000,4.000000,4.000000,4.000000,4.000000,4.000000,4.000000,4.000000,4.000000,4.000000,4.000000,4.000000,4.000000,75.000000
1614040736.534507,85.000000,0.000000,1.088301,0.586720,-142.326752,-20.583015,-16.417921,-6.416884,0.198037,-7.424405,-0.933629,-11.860695,3.227514,-1.942162,8.164079,2.277687,-0.270946,7.135343,1.013578,47.330830,29.474192,8.321205,0.555039,4.249415,4.139547,2.204612,-0.975872,-1.941190,-3.434258,-3.155725,-11.695924,-9.932142,-25.621872,-50.566277,0.000000,180.000000,4.000000,,,,0.000000,4.000000,1.000000,4.000000,4.000000,4.000000,4.000000,4.000000,4.000000,4.000000,4.000000,4.000000,4.000000,4.000000,4.000000,4.000000,4.000000,4.000000,4.000000,4.000000,4.000000,4.000000,4.000000,4.000000,4.000000,4.000000,4.000000,4.000000,4.000000,4.000000,4.000000,4.000000,4.000000,75.000000
1614040736.542256,86.000000,0.000000,1.087212,0.586134,-134.492126,-20.562431,-16.914324,-6.410468,0.197839,-7.416981,-0.932696,-11.848835,1.685825,-2.453041,6.617454,-5.416898,-2.834777,-1.076921,0.499744,27.796320,2.265230,-0.917885,-6.112182,3.219524,3.622587,0.663946,-1.487716,-1.939249,-3.430823,-3.665390,-10.658587,-7.870928,-22.006506,-44.361862,0.000000,204.000000,4.000000,,,,0.000000,4.000000,1.000000,4.000000,4.000000,4.000000,4.000000,4.000000,4.000000,4.000000,4.000000,4.000000,4.000000,4.000000,4.000000,4.000000,4.000000,4.000000,4.000000,4.000000,4.000000,4.000000,4.000000,4.000000,4.000000,4.000000,4.000000,4.000000,4.000000,4.000000,4.000000,4.000000,4.000000,75.000000
1614040736.550105,87.000000,0.000000,1.086125,0.585548,-130.255066,-20.541870,-16.897409,-6.404057,0.197642,-7.409564,-0.418942,-10.811345,-2.931245,-1.424947,4.559554,-13.616610,-13.601173,-10.819433,2.037706,24.178782,-4.916523,-6.045173,-10.721455,0.652202,4.131785,-2.413641,-0.973408,-3.988592,-2.914572,-3.661724,-8.596646,-4.273314,-17.881935,-39.702118,0.000000,196.000000,4.000000,,,,0.000000,4.000000,1.000000,4.000000,4.000000,4.000000,4.000000,4.000000,4.000000,4.000000,4.000000,4.000000,4.000000,4.000000,4.000000,4.000000,4.000000,4.000000,4.000000,4.000000,4.000000,4.000000,4.000000,4.000000,4.000000,4.000000,4.000000,4.000000,4.000000,4.000000,4.000000,4.000000,4.000000,75.000000
1614040736.557854,88.000000,0.000000,1.085039,0.584962,-131.663269,-20.521328,-17.393333,-5.884832,0.197444,-8.940616,-2.469805,-12.851815,-13.697545,-3.474804,-11.342442,-22.833763,-37.690136,-35.424000,-1.554075,20.052038,-3.373144,-11.167333,-12.762015,-12.168962,2.589192,-2.411227,-4.562178,-6.035885,-3.424478,-3.145242,-7.562408,-4.269041,-18.376875,-39.149593,0.000000,202.000000,4.000000,,,,0.000000,4.000000,1.000000,4.000000,4.000000,4.000000,4.000000,4.000000,4.000000,4.000000,4.000000,4.000000,4.000000,4.000000,4.000000,4.000000,4.000000,4.000000,4.000000,4.000000,4.000000,4.000000,4.000000,4.000000,4.000000,4.000000,4.000000,4.000000,4.000000,4.000000,4.000000,4.000000,4.000000,75.000000
1614040736.565703,89.000000,0.000000,1.083954,0.584377,-131.018784,-20.500807,-16.863119,-7.417409,0.197246,-11.495777,-6.569900,-19.505630,-22.401796,-11.163636,-30.305458,-39.221184,-53.549881,-53.337292,-13.347393,6.698653,-8.497976,-19.361294,-15.313355,-21.387564,-2.028782,-2.408816,-9.685822,-5.517029,-8.036438,-4.680558,-8.067666,-10.931438,-23.486702,-44.751469,0.000000,3.000000,4.000000,,,,0.000000,4.000000,0.000000,4.000000,4.000000,4.000000,4.000000,4.000000,4.000000,4.000000,4.000000,4.000000,4.000000,4.000000,4.000000,4.000000,4.000000,4.000000,4.000000,4.000000,4.000000,4.000000,4.000000,4.000000,4.000000,4.000000,4.000000,4.000000,4.000000,4.000000,4.000000,4.000000,4.000000,66.666664
1614040736.573452,90.000000,0.000000,1.082870,1.096613,-130.374954,-20.480305,-16.333435,-9.974094,0.197049,-11.484282,-8.614612,-22.563047,-22.379395,-13.203755,-31.813614,-46.874271,-55.034794,-46.104469,-18.462250,6.691954,-1.309991,-20.367573,-13.759581,-15.725150,-4.590856,-5.483330,-13.778700,-6.537153,-11.105325,-6.727160,-8.059599,-19.638456,-26.540138,-54.963131,0.000000,204.000000,4.000000,,,,0.000000,4.000000,0.000000,4.000000,4.000000,4.000000,4.000000,4.000000,4.000000,4.000000,4.000000,4.000000,4.000000,4.000000,4.000000,4.000000,4.000000,4.000000,4.000000,4.000000,4.000000,4.000000,4.000000,4.000000,4.000000,4.000000,4.000000,4.000000,4.000000,4.000000,4.000000,4.000000,4.000000,66.666664
1614040736.581301,91.000000,0.000000,1.081787,0.582696,-130.244583,-20.459826,-17.342743,-9.964120,0.196852,-8.908695,-8.605997,-16.386639,-16.715990,-5.498243,-21.525391,-27.340218,-49.338734,-28.622467,-13.315583,28.223724,23.306704,-5.988231,-5.027873,-9.042758,-3.560624,-10.093231,-13.252100,-6.017795,-8.530117,-4.669151,-7.538719,-16.029074,-24.462317,-52.344063,0.000000,202.000000,4.000000,,,,0.000000,4.000000,0.000000,4.000000,4.000000,4.000000,4.000000,4.000000,4.000000,4.000000,4.000000,4.000000,4.000000,4.000000,4.000000,4.000000,4.000000,4.000000,4.000000,4.000000,4.000000,4.000000,4.000000,4.000000,4.000000,4.000000,4.000000,4.000000,4.000000,4.000000,4.000000,4.000000,4.000000,66.666664
1614040736.589050,92.000000,0.000000,1.080705,-0.443528,-126.524590,-20.439365,-16.812580,-7.390054,-0.316165,-7.361325,-7.058930,-10.216406,-7.981325,-1.390181,-11.247455,1.405071,-29.289394,-5.516921,-8.686883,50.759602,39.693653,8.376731,5.233565,-6.469613,-0.992961,-10.595959,-4.520900,0.142069,-6.470304,-3.126020,-8.556821,0.910033,-20.335291,-35.881462,0.000000,200.000000,4.000000,,,,0.000000,4.000000,0.000000,4.000000,4.000000,4.000000,4.000000,4.000000,4.000000,4.000000,4.000000,4.000000,4.000000,4.000000,4.000000,4.000000,4.000000,4.000000,4.000000,4.000000,4.000000,4.000000,4.000000,4.000000,4.000000,4.000000,4.000000,4.000000,4.000000,4.000000,4.000000,4.000000,4.000000,66.666664
1614040736.596700,93.000000,0.000000,0.566804,1.095377,-122.808319,-20.418926,-9.103459,-5.844202,0.196971,-7.353963,-3.462127,-4.565164,-0.281035,-2.414432,-3.543899,13.198538,-4.644721,17.052698,-7.652555,56.862690,40.166779,11.445277,11.894999,-0.309297,0.033673,-4.944337,5.227211,2.706029,-6.976655,-3.635715,-7.522623,8.601430,-17.750853,-27.127632,0.000000,192.000000,4.000000,,,,0.000000,4.000000,0.000000,4.000000,4.000000,4.000000,4.000000,4.000000,4.000000,4.000000,4.000000,4.000000,4.000000,4.000000,4.000000,4.000000,4.000000,4.000000,4.000000,4.000000,4.000000,4.000000,4.000000,4.000000,4.000000,4.000000,4.000000,4.000000,4.000000,4.000000,4.000000,4.000000,4.000000,66.666664
1614040736.604449,94.000000,0.000000,1.079058,0.068641,-122.172691,-20.398506,-4.478971,-4.299896,2.760877,-7.346609,-0.381742,1.593248,1.257707,0.152085,-0.976253,12.159698,0.488129,18.061287,-6.619262,53.728905,37.562511,10.408192,12.395924,2.767936,0.033639,1.214453,6.247625,-3.450523,-6.969678,-3.632079,-4.950998,0.387701,-18.245922,-34.279991,0.000000,188.000000,4.000000,,,,0.000000,4.000000,0.000000,4.000000,4.000000,4.000000,4.000000,4.000000,4.000000,4.000000,4.000000,4.000000,4.000000,4.000000,4.000000,4.000000,4.000000,4.000000,4.000000,4.000000,4.000000,4.000000,4.000000,4.000000,4.000000,4.000000,4.000000,4.000000,4.000000,4.000000,4.000000,4.000000,4.000000,66.666664
1614040736.612098,95.000000,0.000000,1.077979,-6.085274,-122.563339,-20.378109,-11.653979,-2.244314,4.296578,-6.826442,-0.381360,0.566013,1.769270,1.690395,-0.975277,11.121898,-7.204667,8.299636,-6.099822,53.162354,37.012127,10.910604,7.255323,-2.363038,0.033606,0.700419,2.651634,-7.036816,-6.962708,-3.628447,-3.920406,-3.715251,-18.227676,-40.399559,0.000000,191.000000,4.000000,,,,0.000000,4.000000,0.000000,4.000000,4.000000,4.000000,4.000000,4.000000,4.000000,4.000000,4.000000,4.000000,4.000000,4.000000,4.000000,4.000000,4.000000,4.000000,4.000000,4.000000,4.000000,4.000000,4.000000,4.000000,4.000000,4.000000,4.000000,4.000000,4.000000,4.000000,4.000000,4.000000,4.000000,66.666664
1614040736.619847,96.000000,0.000000,0.051260,-5.053547,-122.440773,-20.357731,-17.283352,-2.242070,3.779461,-7.332436,-0.893800,-3.537117,1.767501,-1.901039,-1.487122,9.572314,-7.710282,9.316978,-6.606543,52.596371,36.462296,11.412514,4.171144,-5.950418,0.033572,-2.377205,2.648982,-6.004138,-6.955746,-3.624818,-4.429306,-2.685895,-17.696629,-39.333519,8064.000000,0.000000,4.000000,,,,0.000000,4.000000,0.000000,4.000000,4.000000,4.000000,4.000000,4.000000,4.000000,4.000000,4.000000,4.000000,4.000000,4.000000,4.000000,4.000000,4.000000,4.000000,4.000000,4.000000,4.000000,4.000000,4.000000,4.000000,4.000000,4.000000,4.000000,4.000000,4.000000,4.000000,4.000000,4.000000,4.000000,66.666664
1614040736.627496,97.000000,0.000000,2.102491,5.720737,-122.318336,-20.337372,-12.650683,-2.752648,3.775681,-7.325104,-0.380085,-0.969477,0.740092,-0.873497,-1.485635,8.537101,-5.651290,12.897405,-7.112756,52.030952,33.348911,10.375460,5.192615,-5.431647,-0.479282,-2.374828,2.646333,-5.998134,-6.948790,-3.621193,-4.424877,-3.708850,-17.678932,-38.781364,8064.000000,0.000000,4.000000,,,,0.000000,4.000000,0.000000,4.000000,4.000000,4.000000,4.000000,4.000000,4.000000,4.000000,4.000000,4.000000,4.000000,4.000000,4.000000,4.000000,4.000000,4.000000,4.000000,4.000000,4.000000,4.000000,4.000000,4.000000,4.000000,4.000000,4.000000,4.000000,4.000000,4.000000,4.000000,4.000000,4.000000,66.666664
1614040736.635245,98.000000,0.000000,6.715773,9.304760,-122.196014,-20.317036,-8.535469,-2.749896,3.771905,-4.753676,-0.892526,3.646877,1.252173,4.255581,-1.484149,9.041385,-10.261024,9.294764,-7.105644,50.953281,26.136074,6.775341,0.572037,-5.426216,0.034018,-1.859632,2.130866,-4.453674,-6.941841,-3.617572,-4.420452,-0.628218,-18.174072,-36.691299,8064.000000,0.000000,4.000000,,,,0.000000,4.000000,0.000000,4.000000,4.000000,4.000000,4.000000,4.000000,4.000000,4.000000,4.000000,4.000000,4.000000,4.000000,4.000000,4.000000,4.000000,4.000000,4.000000,4.000000,4.000000,4.000000,4.000000,4.000000,4.000000,4.000000,4.000000,4.000000,4.000000,4.000000,4.000000,4.000000,4.000000,66.666664
1614040736.642894,99.000000,0.000000,8.760339,7.244173,-122.073822,-20.296719,-9.552574,-2.747146,3.768134,-3.210461,-0.891633,3.643230,0.738100,5.789787,-3.533947,2.878497,-18.455891,-1.996583,-6.072897,42.184380,18.930450,1.127540,-7.633663,-5.420789,0.033984,-2.370593,2.641556,-2.397938,-6.934899,-3.613955,-4.416031,3.987795,-18.155899,-35.116146,8064.000000,0.000000,4.000000,,,,0.000000,4.000000,0.000000,4.000000,4.000000,4.000000,4.000000,4.000000,4.000000,4.000000,4.000000,4.000000,4.000000,4.000000,4.000000,4.000000,4.000000,4.000000,4.000000,4.000000,4.000000,4.000000,4.000000,4.000000,4.000000,4.000000,4.000000,4.000000,4.000000,4.000000,4.000000,4.000000,4.000000,66.666664
1614040736.650643,100.000000,0.000000,8.238758,11.339493,-121.951744,-20.276421,-9.543021,-2.744399,3.764365,-3.720071,-0.890742,3.126766,-3.365202,5.271177,-7.632977,-8.919253,-24.078461,-21.481766,-7.092465,28.808863,7.629468,-8.104357,-11.728594,-5.928189,-0.478871,-2.368223,-1.976470,-4.446823,-7.440785,-3.610341,-4.411615,-1.144398,-18.137743,-37.132313,8064.000000,0.000000,4.000000,,,,0.000000,4.000000,0.000000,4.000000,4.000000,4.000000,4.000000,4.000000,4.000000,4.000000,4.000000,4.000000,4.000000,4.000000,4.000000,4.000000,4.000000,4.000000,4.000000,4.000000,4.000000,4.000000,4.000000,4.000000,4.000000,4.000000,4.000000,4.000000,4.000000,4.000000,4.000000,4.000000,4.000000,66.666664
1614040736.658293,101.000000,0.000000,8.230519,10.815332,-121.829796,-20.256145,-7.995017,-2.228834,3.760601,-3.716351,-0.377030,3.636460,-5.925940,5.265906,-9.163806,-13.012898,-24.054382,-30.178232,-7.085372,22.626207,-1.608930,-14.250098,-11.204044,-5.409441,0.034429,-2.365855,-4.538596,-6.493658,-6.920524,-3.606730,-4.407204,-1.656074,-18.119606,-34.531078,8064.000000,0.000000,4.000000,,,,0.000000,4.000000,0.000000,4.000000,4.000000,4.000000,4.000000,4.000000,4.000000,4.000000,4.000000,4.000000,4.000000,4.000000,4.000000,4.000000,4.000000,4.000000,4.000000,4.000000,4.000000,4.000000,4.000000,4.000000,4.000000,4.000000,4.000000,4.000000,4.000000,4.000000,4.000000,4.000000,4.000000,66.666664
1614040736.666042,102.000000,0.000000,8.735109,-0.477534,-121.707962,-20.235889,-9.012663,-2.739425,3.756840,-3.712635,-0.889474,4.145644,-2.330270,5.773460,-6.590539,-10.435782,-18.902122,-16.814722,0.614020,31.321529,11.213192,-2.440977,-4.526174,-2.839928,4.136959,-2.363489,1.106968,-5.974344,-4.349501,-3.603124,-4.402796,8.601992,-18.101486,-26.291420,8064.000000,0.000000,4.000000,,,,0.000000,4.000000,0.000000,4.000000,4.000000,4.000000,4.000000,4.000000,4.000000,4.000000,4.000000,4.000000,4.000000,4.000000,4.000000,4.000000,4.000000,4.000000,4.000000,4.000000,4.000000,4.000000,4.000000,4.000000,4.000000,4.000000,4.000000,4.000000,4.000000,4.000000,4.000000,4.000000,4.000000,66.666664
1614040736.673691,103.000000,0.000000,8.213553,-7.143723,-121.586258,-20.215652,-10.029291,-2.223866,3.753084,-3.708922,-0.888584,3.115858,1.774624,5.767687,-5.045487,-11.450988,-14.780656,-7.054317,9.844175,44.110722,37.868645,16.023003,3.170660,-1.298627,7.722565,-2.361125,6.746887,-5.968369,-2.806690,-3.599520,-4.398394,11.157493,-18.083384,-27.290770,8064.000000,0.000000,4.000000,,,,0.000000,4.000000,0.000000,4.000000,4.000000,4.000000,4.000000,4.000000,4.000000,4.000000,4.000000,4.000000,4.000000,4.000000,4.000000,4.000000,4.000000,4.000000,4.000000,4.000000,4.000000,4.000000,4.000000,4.000000,4.000000,4.000000,4.000000,4.000000,4.000000,4.000000,4.000000,4.000000,4.000000,66.666664
1614040736.681440,104.000000,0.000000,8.205340,-7.136579,-121.464668,-20.195436,-6.942339,-1.708821,3.749331,-3.192393,-0.374875,0.035819,1.260029,5.249099,-5.553262,-10.926717,-14.765876,-7.560083,5.731767,48.169174,47.061546,16.519800,5.218771,-1.297328,7.714842,-2.358764,6.227319,-5.962401,-3.316704,-3.595921,-4.393995,4.479668,-18.065300,-34.955788,8064.000000,0.000000,4.000000,,,,0.000000,4.000000,0.000000,4.000000,4.000000,4.000000,4.000000,4.000000,4.000000,4.000000,4.000000,4.000000,4.000000,4.000000,4.000000,4.000000,4.000000,4.000000,4.000000,4.000000,4.000000,4.000000,4.000000,4.000000,4.000000,4.000000,4.000000,4.000000,4.000000,4.000000,4.000000,4.000000,4.000000,66.666664
1614040736.689089,105.000000,0.000000,8.197135,-7.129443,-122.368851,-20.175241,-13.089243,-6.322497,3.745581,-4.214841,-2.938603,-3.041140,0.233128,5.756670,-5.547709,0.366261,-13.212648,4.755169,0.597830,48.633827,46.501663,10.862255,4.700732,-0.270390,7.194307,-2.356405,5.708272,-5.956439,-3.313387,-3.592325,-4.389601,2.936727,-18.047235,-36.459293,8064.000000,0.000000,4.000000,,,,0.000000,4.000000,0.000000,4.000000,4.000000,4.000000,4.000000,4.000000,4.000000,4.000000,4.000000,4.000000,4.000000,4.000000,4.000000,4.000000,4.000000,4.000000,4.000000,4.000000,4.000000,4.000000,4.000000,4.000000,4.000000,4.000000,4.000000,4.000000,4.000000,4.000000,4.000000,4.000000,4.000000,66.666664
1614040736.696938,106.000000,0.000000,8.701758,-4.045390,-124.810585,-20.155067,-31.024872,-12.982841,4.254656,-6.774729,-7.551049,-6.627843,1.771356,5.750913,-2.465238,12.673588,-2.430205,23.211952,7.776720,55.764679,50.044907,16.492418,6.747313,-0.782940,8.212754,-2.354049,6.215384,-5.950482,-2.797253,-3.588733,-4.385211,4.985073,-18.029188,-35.910011,8064.000000,0.000000,4.000000,,,,0.000000,4.000000,0.000000,4.000000,4.000000,4.000000,4.000000,4.000000,4.000000,4.000000,4.000000,4.000000,4.000000,4.000000,4.000000,4.000000,4.000000,4.000000,4.000000,4.000000,4.000000,4.000000,4.000000,4.000000,4.000000,4.000000,4.000000,4.000000,4.000000,4.000000,4.000000,4.000000,4.000000,66.666664
1614040736.704687,107.000000,0.000000,8.693056,0.574040,-125.711411,-20.647732,-39.198975,-14.508320,3.737581,-7.793595,-8.569139,-10.210958,1.769585,4.206701,-0.411491,15.737837,6.290174,25.752844,7.768943,56.734554,40.251270,10.834900,2.638002,-2.320619,6.153259,-1.838874,1.593783,-5.944531,-4.332917,-3.585144,-4.380826,2.415985,-18.011160,-38.438206,8064.000000,0.000000,4.000000,,,,0.000000,4.000000,0.000000,4.000000,4.000000,4.000000,4.000000,4.000000,4.000000,4.000000,4.000000,4.000000,4.000000,4.000000,4.000000,4.000000,4.000000,4.000000,4.000000,4.000000,4.000000,4.000000,4.000000,4.000000,4.000000,4.000000,4.000000,4.000000,4.000000,4.000000,4.000000,4.000000,4.000000,66.666664
1614040736.712536,108.000000,0.000000,8.171543,-2.503457,-124.047241,-19.601442,-33.005928,-12.955350,3.733843,-7.272981,-7.534929,-11.739209,-0.796287,2.664033,-5.026464,14.183638,-3.972526,19.573244,-7.623441,46.421410,18.672558,-9.688755,-4.031302,-3.856760,3.583003,-1.837035,-4.048836,-5.938587,-6.892687,-3.581559,-4.376446,-0.150534,-17.993149,-39.938229,8064.000000,0.000000,4.000000,,,,0.000000,4.000000,0.000000,4.000000,4.000000,4.000000,4.000000,4.000000,4.000000,4.000000,4.000000,4.000000,4.000000,4.000000,4.000000,4.000000,4.000000,4.000000,4.000000,4.000000,4.000000,4.000000,4.000000,4.000000,4.000000,4.000000,4.000000,4.000000,4.000000,4.000000,4.000000,4.000000,4.000000,66.666664
1614040736.720285,109.000000,0.000000,9.189013,-6.603518,-123.410370,-19.581842,-30.408821,-13.455215,4.242930,-7.265708,-8.040215,-11.214649,-1.308311,0.610087,-10.662463,11.092531,-27.045477,8.784440,-14.282484,36.631401,10.961577,-20.448298,-5.565732,-10.519569,3.579420,-3.886480,-5.583249,-5.932649,-7.398615,-3.577977,-4.372069,-0.150383,-17.975155,-39.898289,8064.000000,0.000000,4.000000,,,,0.000000,4.000000,0.000000,4.000000,4.000000,4.000000,4.000000,4.000000,4.000000,4.000000,4.000000,4.000000,4.000000,4.000000,4.000000,4.000000,4.000000,4.000000,4.000000,4.000000,4.000000,4.000000,4.000000,4.000000,4.000000,4.000000,4.000000,4.000000,4.000000,4.000000,4.000000,4.000000,4.000000,66.666664
1614040736.728134,110.000000,0.000000,7.128541,-4.545632,-127.389526,-21.100721,-31.916874,-13.954580,1.674585,-7.771263,-8.544994,-11.203435,-4.383926,-5.031549,-13.728724,2.876310,-37.274841,-12.249985,-16.319485,21.722973,0.694206,-29.145798,-14.790936,-26.406487,4.088661,-5.421055,-5.064845,-5.926716,-6.365575,-3.574399,-4.367697,0.362588,-17.957180,-38.832748,8064.000000,0.000000,4.000000,,,,0.000000,4.000000,0.000000,4.000000,4.000000,4.000000,4.000000,4.000000,4.000000,4.000000,4.000000,4.000000,4.000000,4.000000,4.000000,4.000000,4.000000,4.000000,4.000000,4.000000,4.000000,4.000000,4.000000,4.000000,4.000000,4.000000,4.000000,4.000000,4.000000,4.000000,4.000000,4.000000,4.000000,66.666664
1614040736.735883,111.000000,0.000000,-1.083715,-3.002625,-126.749313,-18.515518,-27.269573,-13.427805,-2.942475,-7.250671,-7.510808,-10.166591,-12.584670,-9.641902,-20.894482,-6.357336,-36.724747,-28.135172,-28.610857,-2.401314,-25.460335,-48.091011,-29.647940,-37.149311,-0.017991,-6.441276,-4.546959,-5.920789,-6.872030,-3.570825,-4.363329,0.362225,-17.939222,-32.127251,8064.000000,0.000000,4.000000,,,,0.000000,4.000000,0.000000,4.000000,4.000000,4.000000,4.000000,4.000000,4.000000,4.000000,4.000000,4.000000,4.000000,4.000000,4.000000,4.000000,4.000000,4.000000,4.000000,4.000000,4.000000,4.000000,4.000000,4.000000,4.000000,4.000000,4.000000,4.000000,4.000000,4.000000,4.000000,4.000000,4.000000,66.666664
1614040736.743732,112.000000,0.000000,-7.236478,-4.025263,-120.981537,-13.368797,-22.114098,-13.414377,-3.965173,-6.730600,-8.016118,-12.207705,-17.700291,-9.632260,-24.976152,-13.530465,-38.739304,-30.671139,-32.684811,-9.065579,-29.537437,-47.017281,-32.182396,-31.471136,-4.120538,-8.486116,-6.080874,-5.914868,-7.377978,-3.567254,-4.358966,0.361863,-17.921284,-26.966919,8064.000000,0.000000,4.000000,,,,0.000000,4.000000,0.000000,4.000000,4.000000,4.000000,4.000000,4.000000,4.000000,4.000000,4.000000,4.000000,4.000000,4.000000,4.000000,4.000000,4.000000,4.000000,4.000000,4.000000,4.000000,4.000000,4.000000,4.000000,4.000000,4.000000,4.000000,4.000000,4.000000,4.000000,4.000000,4.000000,4.000000,66.666664
1614040736.751481,113.000000,0.000000,-6.716421,0.081326,-124.450302,-14.381070,-22.604805,-13.400963,-3.448387,-8.775151,-10.059384,-20.400627,-19.733873,-9.109808,-22.387074,-25.311806,-37.674923,-32.178928,-18.805971,12.481948,-4.892516,-24.918980,-24.970726,-21.183254,-4.116417,-10.528913,-10.177358,-5.908954,-6.857780,-3.563687,-4.354607,0.361501,-17.903362,-29.504055,8064.000000,0.000000,4.000000,,,,0.000000,4.000000,0.000000,4.000000,4.000000,4.000000,4.000000,4.000000,4.000000,4.000000,4.000000,4.000000,4.000000,4.000000,4.000000,4.000000,4.000000,4.000000,4.000000,4.000000,4.000000,4.000000,4.000000,4.000000,4.000000,4.000000,4.000000,4.000000,4.000000,4.000000,4.000000,4.000000,4.000000,66.666664
1614040736.759330,114.000000,0.000000,-6.196884,0.081245,-134.582260,-19.494894,-25.659122,-13.387562,-3.444939,-10.817658,-11.587787,-26.021252,-28.432087,-9.613518,-30.056993,-38.619827,-37.124428,-35.736492,-11.607678,22.213057,8.958530,-19.765856,-24.432934,-19.623610,-3.599480,-9.492743,-12.731282,-5.903045,-6.338102,-3.560123,-4.350253,0.361140,-17.885458,-31.525831,8064.000000,0.000000,4.000000,,,,0.000000,4.000000,0.000000,4.000000,4.000000,4.000000,4.000000,4.000000,4.000000,4.000000,4.000000,4.000000,4.000000,4.000000,4.000000,4.000000,4.000000,4.000000,4.000000,4.000000,4.000000,4.000000,4.000000,4.000000,4.000000,4.000000,4.000000,4.000000,4.000000,4.000000,4.000000,4.000000,4.000000,66.666664
1614040736.767079,115.000000,0.000000,-6.703507,-6.585504,-135.986145,-20.501040,-27.171925,-13.374175,-3.441494,-10.806841,-11.576199,-26.508051,-33.019039,-9.603905,-42.334629,-41.145309,-47.856533,-38.264858,-14.160173,5.780586,4.334187,-26.412756,-26.459784,-20.116806,-4.108701,-8.970429,-12.718552,-5.897141,-8.895866,-3.556563,-4.345902,0.360778,-17.867573,-28.930204,8064.000000,0.000000,4.000000,,,,0.000000,4.000000,0.000000,4.000000,4.000000,4.000000,4.000000,4.000000,4.000000,4.000000,4.000000,4.000000,4.000000,4.000000,4.000000,4.000000,4.000000,4.000000,4.000000,4.000000,4.000000,4.000000,4.000000,4.000000,4.000000,4.000000,4.000000,4.000000,4.000000,4.000000,4.000000,4.000000,4.000000,66.666664
1614040736.774928,116.000000,0.000000,-6.696804,-2.989174,-131.234772,-19.454899,-27.144753,-13.360801,-4.976514,-10.796034,-11.564622,-25.455902,-24.268072,-9.081480,-35.625629,-30.847755,-48.321499,-33.611210,-13.633192,4.749165,7.919597,-16.642754,-21.817938,-14.455664,-4.104592,-9.987100,-12.705832,-5.891244,-11.451073,-3.553006,-4.341556,0.360418,-17.849705,-27.362812,8064.000000,0.000000,4.000000,,,,0.000000,4.000000,0.000000,4.000000,4.000000,4.000000,4.000000,4.000000,4.000000,4.000000,4.000000,4.000000,4.000000,4.000000,4.000000,4.000000,4.000000,4.000000,4.000000,4.000000,4.000000,4.000000,4.000000,4.000000,4.000000,4.000000,4.000000,4.000000,4.000000,4.000000,4.000000,4.000000,4.000000,66.666664
1614040736.782677,117.000000,0.000000,-6.177287,11.885610,-130.590714,-19.948263,-27.117609,-12.834620,-7.535640,-10.785237,-11.553058,-21.327881,-16.551497,-9.072399,-18.154104,-18.509214,-26.734715,-16.141701,-10.542636,31.411081,26.373215,-0.215855,-8.975608,-8.287362,-3.587667,-8.951471,-9.616203,-6.398173,-7.849878,-3.549453,-4.337215,0.360057,-17.831856,-28.361090,8064.000000,0.000000,4.000000,,,,0.000000,4.000000,0.000000,4.000000,4.000000,4.000000,4.000000,4.000000,4.000000,4.000000,4.000000,4.000000,4.000000,4.000000,4.000000,4.000000,4.000000,4.000000,4.000000,4.000000,4.000000,4.000000,4.000000,4.000000,4.000000,4.000000,4.000000,4.000000,4.000000,4.000000,4.000000,4.000000,4.000000,66.666664
1614040736.790526,118.000000,0.000000,-6.171110,17.001930,-131.485764,-19.928316,-27.090490,-13.847425,-6.502463,-10.774452,-11.541505,-15.152707,-17.047766,-9.063327,-11.469284,-13.362501,-12.861826,-1.766585,-8.993632,44.713005,38.654533,2.348464,1.289778,-7.253433,-3.584080,-4.327136,-5.504024,-5.878955,-3.226644,-3.545904,-4.332878,0.359697,-18.326845,-28.845551,8064.000000,0.000000,4.000000,,,,0.000000,4.000000,0.000000,4.000000,4.000000,4.000000,4.000000,4.000000,4.000000,4.000000,4.000000,4.000000,4.000000,4.000000,4.000000,4.000000,4.000000,4.000000,4.000000,4.000000,4.000000,4.000000,4.000000,4.000000,4.000000,4.000000,4.000000,4.000000,4.000000,4.000000,4.000000,4.000000,4.000000,66.666664
1614040736.798276,119.000000,0.000000,-6.164938,13.908005,-131.354279,-19.908386,-25.012117,-12.295116,-3.931859,-10.763679,-11.529963,-14.111914,-17.543539,-9.054263,-12.996276,-13.861959,-20.028452,-6.893024,-9.497459,24.155472,21.692802,-6.371833,-0.249973,-8.271821,-3.580496,-1.245885,-4.985699,-3.821794,-4.761878,-3.542358,-4.328545,-0.666304,-17.795696,-29.329525,8064.000000,0.000000,4.000000,,,,0.000000,4.000000,0.000000,4.000000,4.000000,4.000000,4.000000,4.000000,4.000000,4.000000,4.000000,4.000000,4.000000,4.000000,4.000000,4.000000,4.000000,4.000000,4.000000,4.000000,4.000000,4.000000,4.000000,4.000000,4.000000,4.000000,4.000000,4.000000,4.000000,4.000000,4.000000,4.000000,4.000000,66.666664
1614040736.806124,120.000000,0.000000,-6.158773,11.329994,-130.197281,-19.888479,-22.935823,-7.667437,-3.927927,-10.752914,-11.518434,-14.610622,-16.500353,-9.045209,-11.957639,-13.335277,-24.623808,-19.193823,-11.539244,5.156956,-4.995556,-17.647512,-7.429211,-13.391754,-3.576915,-4.321562,-4.980713,-2.279510,-7.321219,-3.538816,-4.324216,0.360004,-14.700978,-28.274553,7936.000000,0.000000,4.000000,,,,0.000000,4.000000,0.000000,4.000000,4.000000,4.000000,4.000000,4.000000,4.000000,4.000000,4.000000,4.000000,4.000000,4.000000,4.000000,4.000000,4.000000,4.000000,4.000000,4.000000,4.000000,4.000000,4.000000,4.000000,4.000000,4.000000,4.000000,4.000000,4.000000,4.000000,4.000000,4.000000,4.000000,66.666664
1614040736.813874,121.000000,0.000000,-6.152615,5.164818,-130.579910,-19.868589,-22.912888,-7.146949,-3.923999,-10.742162,-11.506915,-14.083191,-15.971033,-9.036163,-10.407220,-12.809120,-23.573544,-18.148989,-13.578986,13.869748,-7.554664,-22.245251,-9.473063,-19.532209,-3.573338,-5.855702,-4.462912,-2.277231,-6.801077,-3.535277,-4.319892,0.359644,-14.173457,-28.246279,8064.000000,0.000000,4.000000,,,,0.000000,4.000000,0.000000,4.000000,4.000000,4.000000,4.000000,4.000000,4.000000,4.000000,4.000000,4.000000,4.000000,4.000000,4.000000,4.000000,4.000000,4.000000,4.000000,4.000000,4.000000,4.000000,4.000000,4.000000,4.000000,4.000000,4.000000,4.000000,4.000000,4.000000,4.000000,4.000000,4.000000,66.666664
1614040736.821623,122.000000,0.000000,-6.146462,-4.583937,-131.474976,-20.361542,-23.402796,-9.703904,-3.407254,-10.731420,-12.008228,-14.069108,-16.467882,-9.027127,-11.422454,-12.283491,-25.088430,-10.951352,-13.565408,31.291777,2.709301,-20.171722,-9.463591,-19.512676,-3.569765,-4.824205,-5.484090,-1.762133,-7.307097,-3.531742,-4.828393,-1.179177,-14.159284,-30.269316,8064.000000,0.000000,4.000000,,,,0.000000,4.000000,0.000000,4.000000,4.000000,4.000000,4.000000,4.000000,4.000000,4.000000,4.000000,4.000000,4.000000,4.000000,4.000000,4.000000,4.000000,4.000000,4.000000,4.000000,4.000000,4.000000,4.000000,4.000000,4.000000,4.000000,4.000000,4.000000,4.000000,4.000000,4.000000,4.000000,4.000000,66.666664
1614040736.829372,123.000000,0.000000,-6.140316,-7.656276,-125.189651,-19.828360,-22.866571,-10.207021,-4.429488,-10.720688,-10.457759,-13.542218,-16.964235,-9.018101,-12.436672,-13.296848,-19.422318,-2.735273,-13.551842,38.952793,5.270695,-18.613089,-7.402844,-17.441881,-3.566195,-6.357843,-1.376042,0.290911,-5.248508,-3.528210,-4.310744,3.950207,-9.016919,-23.059559,8064.000000,0.000000,4.000000,,,,0.000000,4.000000,0.000000,4.000000,4.000000,4.000000,4.000000,4.000000,4.000000,4.000000,4.000000,4.000000,4.000000,4.000000,4.000000,4.000000,4.000000,4.000000,4.000000,4.000000,4.000000,4.000000,4.000000,4.000000,4.000000,4.000000,4.000000,4.000000,4.000000,4.000000,4.000000,4.000000,4.000000,66.666664
1614040736.837021,124.000000,0.000000,-6.134175,-7.135799,-114.295227,-15.705968,-22.843706,-9.683993,-1.348135,-10.709968,-8.396019,-11.990214,-16.434450,-9.009082,-11.398595,-13.796372,-13.249048,0.344386,-13.538290,41.477943,7.316706,-18.594477,0.809686,-15.373158,-3.049808,-5.325844,8.881744,3.367543,-0.627875,-3.524682,-0.716689,15.228308,-2.854056,-7.139063,8064.000000,0.000000,4.000000,,,,0.000000,4.000000,0.000000,4.000000,4.000000,4.000000,4.000000,4.000000,4.000000,4.000000,4.000000,4.000000,4.000000,4.000000,4.000000,4.000000,4.000000,4.000000,4.000000,4.000000,4.000000,4.000000,4.000000,4.000000,4.000000,4.000000,4.000000,4.000000,4.000000,4.000000,4.000000,4.000000,4.000000,66.666664
1614040736.844770,125.000000,0.000000,-6.128041,-7.128664,-110.591187,-12.613338,-23.333683,-6.084566,5.832700,-8.647975,-7.361982,-10.952583,-15.905195,-9.000073,-12.925657,-12.244114,-28.107594,-11.450830,-13.524752,32.718513,7.309390,-19.601522,-1.755226,-15.357784,-3.559579,0.320507,13.488247,5.415458,1.424035,-4.033978,2.873771,20.854105,-2.338381,-0.465258,8064.000000,0.000000,4.000000,,,,0.000000,4.000000,0.000000,4.000000,4.000000,4.000000,4.000000,4.000000,4.000000,4.000000,4.000000,4.000000,4.000000,4.000000,4.000000,4.000000,4.000000,4.000000,4.000000,4.000000,4.000000,4.000000,4.000000,4.000000,4.000000,4.000000,4.000000,4.000000,4.000000,4.000000,4.000000,4.000000,4.000000,66.666664
1614040736.852419,126.000000,0.000000,-6.634734,-7.121535,-112.019058,-12.087905,-23.310349,-0.950276,8.390969,-7.100866,-8.380260,-10.428810,-22.043137,-8.991073,-21.117861,-17.872896,-50.130768,-30.926559,-14.536868,13.711437,-2.441510,-22.658844,-19.189367,-22.009094,-4.068840,0.320187,6.808093,3.358760,0.396970,-3.004303,2.870897,18.269148,-3.874505,-5.080177,8064.000000,0.000000,4.000000,,,,0.000000,4.000000,0.000000,4.000000,4.000000,4.000000,4.000000,4.000000,4.000000,4.000000,4.000000,4.000000,4.000000,4.000000,4.000000,4.000000,4.000000,4.000000,4.000000,4.000000,4.000000,4.000000,4.000000,4.000000,4.000000,4.000000,4.000000,4.000000,4.000000,4.000000,4.000000,4.000000,4.000000,66.666664
1614040736.860168,127.000000,0.000000,-5.602458,-7.114413,-111.394218,-10.537355,-23.799860,1.101956,7.869758,-7.606586,-8.884701,-12.982484,-28.174938,-8.982082,-27.250587,-31.188356,-54.183201,-38.075119,-14.009511,7.031059,-4.490350,-23.661827,-25.324024,-27.115290,-3.551951,-7.372441,-0.378203,0.791299,-0.116247,-0.950016,2.868026,13.635495,-3.357810,-6.613558,8064.000000,0.000000,4.000000,,,,0.000000,4.000000,0.000000,4.000000,4.000000,4.000000,4.000000,4.000000,4.000000,4.000000,4.000000,4.000000,4.000000,4.000000,4.000000,4.000000,4.000000,4.000000,4.000000,4.000000,4.000000,4.000000,4.000000,4.000000,4.000000,4.000000,4.000000,4.000000,4.000000,4.000000,4.000000,4.000000,4.000000,66.666664
1614040736.867817,0.000000,0.000000,-3.032753,-7.107299,-111.282822,-8.475535,-23.263239,1.613675,8.374709,-7.086158,-7.850175,-19.636168,-27.633944,-8.460279,-26.710518,-37.311012,-50.539276,-37.011402,-12.457040,13.690695,8.334653,-21.074062,-19.144855,-23.498430,-3.035578,-10.954812,-0.890645,1.816149,1.422330,0.589395,3.377979,9.006474,-2.841631,-5.068483,0.000000,210.000000,4.000000,,,,0.000000,4.000000,0.000000,4.000000,4.000000,4.000000,4.000000,4.000000,4.000000,4.000000,4.000000,4.000000,4.000000,4.000000,4.000000,4.000000,4.000000,4.000000,4.000000,4.000000,4.000000,4.000000,4.000000,4.000000,4.000000,4.000000,4.000000,4.000000,4.000000,4.000000,4.000000,4.000000,4.000000,66.666664
1614040736.875567,1.000000,0.000000,-3.542541,-4.023269,-111.171539,-8.467060,-23.239975,1.612061,1.186847,-6.566252,-7.329504,-21.667814,-28.631950,-7.938999,-27.196627,-36.248062,-53.565659,-40.051315,-15.521505,12.651363,11.916061,-23.104271,-17.074429,-22.962112,-7.135107,-8.379755,-1.402575,1.814332,1.933729,0.075986,2.861780,4.894904,-2.838789,-6.089056,0.000000,200.000000,4.000000,,,,0.000000,4.000000,0.000000,4.000000,4.000000,4.000000,4.000000,4.000000,4.000000,4.000000,4.000000,4.000000,4.000000,4.000000,4.000000,4.000000,4.000000,4.000000,4.000000,4.000000,4.000000,4.000000,4.000000,4.000000,4.000000,4.000000,4.000000,4.000000,4.000000,4.000000,4.000000,4.000000,4.000000,66.666664
1614040736.883216,2.000000,0.000000,-6.615921,-2.480784,-110.034729,-8.971414,-23.729555,-5.569038,-10.096391,-7.585326,-8.347816,-18.056402,-25.526396,-8.956700,-24.092508,-31.083609,-44.794144,-32.831776,-16.531626,18.279737,15.493890,-18.978601,-7.313764,-23.451969,-10.204895,-8.884195,-0.888352,0.274056,-2.683590,0.075910,2.858919,1.813086,-4.374412,-7.108608,0.000000,200.000000,4.000000,,,,0.000000,4.000000,0.000000,4.000000,4.000000,4.000000,4.000000,4.000000,4.000000,4.000000,4.000000,4.000000,4.000000,4.000000,4.000000,4.000000,4.000000,4.000000,4.000000,4.000000,4.000000,4.000000,4.000000,4.000000,4.000000,4.000000,4.000000,4.000000,4.000000,4.000000,4.000000,4.000000,4.000000,66.666664
1614040736.890965,3.000000,0.000000,-5.583664,-6.580867,-108.899055,-9.475263,-18.577621,-10.691674,-11.624756,-6.039279,-2.698443,-10.346039,-6.013690,-8.434923,-5.606876,-9.001244,-16.031403,-4.080996,-3.694581,45.440945,39.580959,6.681403,19.360216,-2.402877,-4.040843,-10.926594,8.856126,5.914808,-2.168086,1.101475,6.445803,8.477940,-0.267474,-7.101499,0.000000,206.000000,4.000000,,,,0.000000,4.000000,0.000000,4.000000,4.000000,4.000000,4.000000,4.000000,4.000000,4.000000,4.000000,4.000000,4.000000,4.000000,4.000000,4.000000,4.000000,4.000000,4.000000,4.000000,4.000000,4.000000,4.000000,4.000000,4.000000,4.000000,4.000000,4.000000,4.000000,4.000000,4.000000,4.000000,4.000000,66.666664
1614040736.898614,4.000000,0.000000,-2.501157,-6.574286,-104.174767,-7.927326,-7.789813,-2.988675,-7.510567,1.659068,11.150410,4.536102,12.966682,-4.836745,11.834628,23.828272,9.625655,23.102571,7.591165,65.395500,53.900352,26.161901,38.315216,18.625166,3.655505,-0.659257,19.103680,11.549919,7.064852,3.664476,11.054742,22.315615,6.912281,-6.068757,0.000000,204.000000,4.000000,,,,0.000000,4.000000,0.000000,4.000000,4.000000,4.000000,4.000000,4.000000,4.000000,4.000000,4.000000,4.000000,4.000000,4.000000,4.000000,4.000000,4.000000,4.000000,4.000000,4.000000,4.000000,4.000000,4.000000,4.000000,4.000000,4.000000,4.000000,4.000000,4.000000,4.000000,4.000000,4.000000,4.000000,66.666664
1614040736.906363,5.000000,0.000000,-1.985836,3.688698,-97.916748,-3.816834,-2.653818,8.296365,-6.990236,4.221511,17.293106,12.223874,6.287049,-7.396011,5.156126,32.522392,12.692952,27.182034,1.429728,60.714725,35.384914,11.776764,27.507669,8.350131,2.626208,13.700377,10.366628,6.922984,3.980864,4.173632,10.018046,16.139454,6.392548,-7.088329,0.000000,199.000000,4.000000,,,,0.000000,4.000000,0.000000,4.000000,4.000000,4.000000,4.000000,4.000000,4.000000,4.000000,4.000000,4.000000,4.000000,4.000000,4.000000,4.000000,4.000000,4.000000,4.000000,4.000000,4.000000,4.000000,4.000000,4.000000,4.000000,4.000000,4.000000,4.000000,4.000000,4.000000,4.000000,4.000000,4.000000,66.666664
1614040736.914012,6.000000,0.000000,-2.496670,6.761933,-99.870117,-2.274556,-8.292190,10.339351,-8.008887,-2.962198,3.942479,-3.172965,-14.744879,-18.670666,-16.900312,10.438587,1.398208,7.667672,-10.366573,47.833496,14.323888,-11.311935,-1.237787,-12.171040,-1.991802,7.532831,-8.105277,0.762215,-10.894912,2.118176,5.392643,-3.876686,-1.306152,-11.183805,0.000000,201.000000,4.000000,,,,0.000000,4.000000,0.000000,4.000000,4.000000,4.000000,4.000000,4.000000,4.000000,4.000000,4.000000,4.000000,4.000000,4.000000,4.000000,4.000000,4.000000,4.000000,4.000000,4.000000,4.000000,4.000000,4.000000,4.000000,4.000000,4.000000,4.000000,4.000000,4.000000,4.000000,4.000000,4.000000,4.000000,66.666664
1614040736.921761,7.000000,0.000000,-2.494174,-4.014060,-103.359985,-4.836384,-14.437744,3.662344,-7.488058,-10.138722,-14.010181,-21.118509,-26.525005,-24.805841,-28.165462,-7.520570,-13.987805,-14.391277,-15.997232,35.477970,10.207000,-17.454470,-17.646805,-17.799894,-3.528272,-12.987523,-13.738197,0.761453,-12.422479,0.064776,2.823148,-5.924091,-4.381769,-7.582877,0.000000,203.000000,4.000000,,,,0.000000,4.000000,0.000000,4.000000,4.000000,4.000000,4.000000,4.000000,4.000000,4.000000,4.000000,4.000000,4.000000,4.000000,4.000000,4.000000,4.000000,4.000000,4.000000,4.000000,4.000000,4.000000,4.000000,4.000000,4.000000,4.000000,4.000000,4.000000,4.000000,4.000000,4.000000,4.000000,4.000000,66.666664
1614040736.929411,8.000000,0.000000,-2.491680,-7.599790,-98.128426,-5.344368,-14.423306,-0.956702,-6.454928,-10.128584,-13.996171,-17.507648,-19.318993,-18.114368,-18.393707,-2.384844,-22.691767,-11.299963,-15.981236,33.391209,12.760896,-13.334451,-10.962492,-15.217991,-3.011923,-18.102741,-9.109075,1.786333,-3.692107,0.064711,2.820325,3.825423,-2.838926,0.629834,0.000000,198.000000,4.000000,,,,0.000000,4.000000,0.000000,4.000000,4.000000,4.000000,4.000000,4.000000,4.000000,4.000000,4.000000,4.000000,4.000000,4.000000,4.000000,4.000000,4.000000,4.000000,4.000000,4.000000,4.000000,4.000000,4.000000,4.000000,4.000000,4.000000,4.000000,4.000000,4.000000,4.000000,4.000000,4.000000,4.000000,66.666664
1614040736.937160,9.000000,0.000000,-2.489188,2.664221,-94.440552,-4.313383,-15.434524,-2.494207,-3.884371,-7.554353,-3.725765,-5.695269,-1.350956,-5.788562,-1.452237,10.438054,-7.284459,13.839541,-9.298588,48.742435,20.440443,-4.603168,-1.720760,-9.048927,-3.521732,-10.905150,-3.458940,0.758905,-2.149954,0.064646,2.817505,4.334418,-3.348907,-1.422078,0.000000,207.000000,4.000000,,,,0.000000,4.000000,0.000000,4.000000,4.000000,4.000000,4.000000,4.000000,4.000000,4.000000,4.000000,4.000000,4.000000,4.000000,4.000000,4.000000,4.000000,4.000000,4.000000,4.000000,4.000000,4.000000,4.000000,4.000000,4.000000,4.000000,4.000000,4.000000,4.000000,4.000000,4.000000,4.000000,4.000000,66.666664
1614040736.944809,10.000000,0.000000,-2.486699,4.712838,-97.423035,-6.360352,-15.931910,-2.491713,-2.854846,-4.982696,-0.132296,3.028375,7.881164,1.396713,8.292805,18.632744,12.210005,19.466728,-2.622622,50.744976,25.035387,5.145025,-0.180578,-0.321930,-4.031031,-9.355783,2.698365,2.809428,-4.199086,0.064582,2.814687,7.407007,-3.858379,-2.446297,0.000000,196.000000,4.000000,,,,0.000000,4.000000,0.000000,4.000000,4.000000,4.000000,4.000000,4.000000,4.000000,4.000000,4.000000,4.000000,4.000000,4.000000,4.000000,4.000000,4.000000,4.000000,4.000000,4.000000,4.000000,4.000000,4.000000,4.000000,4.000000,4.000000,4.000000,4.000000,4.000000,4.000000,4.000000,4.000000,4.000000,66.666664
1614040736.952558,11.000000,0.000000,-2.484212,1.118382,-94.761505,-9.943735,-11.300593,-1.976401,-3.364811,-2.926431,-0.132163,5.076629,4.796360,1.395317,5.207589,15.537189,2.454205,-1.578380,-2.620000,33.771152,25.010351,7.191162,5.973449,2.755316,-3.514179,-10.372069,5.772590,5.370721,-3.169246,0.064517,3.324693,12.527804,-3.854521,1.658713,0.000000,203.000000,4.000000,,,,0.000000,4.000000,0.000000,4.000000,4.000000,4.000000,4.000000,4.000000,4.000000,4.000000,4.000000,4.000000,4.000000,4.000000,4.000000,4.000000,4.000000,4.000000,4.000000,4.000000,4.000000,4.000000,4.000000,4.000000,4.000000,4.000000,4.000000,4.000000,4.000000,4.000000,4.000000,4.000000,4.000000,66.666664
1614040736.960207,12.000000,0.000000,-2.481728,5.732648,-96.718025,-13.010715,-14.879036,-3.512886,-2.848626,-4.461966,-1.157672,-9.287422,-4.952026,-1.170181,-7.105310,-0.888606,-17.548248,-12.346032,-2.104559,36.814304,37.805855,7.696791,10.582860,2.752560,-3.510665,-5.233492,3.715535,4.339710,-3.166076,0.064453,0.757266,4.310149,-3.337846,-10.650638,0.000000,204.000000,4.000000,,,,0.000000,4.000000,0.000000,4.000000,4.000000,4.000000,4.000000,4.000000,4.000000,4.000000,4.000000,4.000000,4.000000,4.000000,4.000000,4.000000,4.000000,4.000000,4.000000,4.000000,4.000000,4.000000,4.000000,4.000000,4.000000,4.000000,4.000000,4.000000,4.000000,4.000000,4.000000,4.000000,4.000000,66.666664
1614040736.968056,13.000000,0.000000,-2.479246,4.701274,-115.595673,-20.690012,-34.864159,-10.688860,-3.871418,-9.585710,-11.412925,-32.355057,-20.844511,-2.194652,-18.380257,-19.862076,-23.684547,-9.256763,-4.153737,46.521080,48.024460,6.663454,3.905611,2.749808,-3.507154,-1.125694,2.173358,1.771267,-2.650090,0.064388,-1.294773,-7.489033,-3.847328,-28.075884,0.000000,180.000000,4.000000,,,,0.000000,4.000000,0.000000,4.000000,4.000000,4.000000,4.000000,4.000000,4.000000,4.000000,4.000000,4.000000,4.000000,4.000000,4.000000,4.000000,4.000000,4.000000,4.000000,4.000000,4.000000,4.000000,4.000000,4.000000,4.000000,4.000000,4.000000,4.000000,4.000000,4.000000,4.000000,4.000000,4.000000,66.666664
1614040736.975805,14.000000,0.000000,-2.989587,-9.662401,-125.223663,-24.771885,-47.136986,-17.344837,-6.431650,-14.704329,-22.683563,-42.066292,-38.772385,-5.269381,-25.028543,-28.560162,-31.353170,-18.991096,-9.277788,21.859175,25.412331,-7.702184,-4.303423,-3.919609,-3.503647,-1.637389,2.171185,1.256676,-0.596158,0.064324,1.783445,-7.481544,-3.330660,-19.329861,0.000000,187.000000,4.000000,,,,0.000000,4.000000,0.000000,4.000000,4.000000,4.000000,4.000000,4.000000,4.000000,4.000000,4.000000,4.000000,4.000000,4.000000,4.000000,4.000000,4.000000,4.000000,4.000000,4.000000,4.000000,4.000000,4.000000,4.000000,4.000000,4.000000,4.000000,4.000000,4.000000,4.000000,4.000000,4.000000,4.000000,66.666664
1614040736.983654,15.000000,0.000000,-2.473777,-14.780944,-109.201004,-15.003524,-39.910362,-14.763391,-7.450859,-14.689625,-23.686520,-40.485764,-40.784893,-8.853854,-28.080437,-29.557243,-36.450024,-25.125952,-10.294151,1.837315,3.848457,-19.489353,-3.273479,-8.531074,-3.500144,-2.148572,2.169014,1.255419,0.942900,0.064259,3.320123,-3.884319,-1.276048,-2.387453,0.000000,205.000000,4.000000,,,,0.000000,4.000000,0.000000,4.000000,4.000000,4.000000,4.000000,4.000000,4.000000,4.000000,4.000000,4.000000,4.000000,4.000000,4.000000,4.000000,4.000000,4.000000,4.000000,4.000000,4.000000,4.000000,4.000000,4.000000,4.000000,4.000000,4.000000,4.000000,4.000000,4.000000,4.000000,4.000000,4.000000,66.666664
1614040736.991403,16.000000,0.000000,-0.932842,-9.637958,-99.861031,-11.911597,-32.690964,-12.697345,-6.930587,-13.649294,-22.124372,-38.393997,-27.410776,-9.357821,-21.898512,-23.373840,-18.464853,-5.613646,-7.719755,24.912401,19.742044,-10.239096,6.473384,-3.907158,-3.496644,-2.146424,4.218126,1.254164,0.429137,0.064195,-1.298582,-3.367614,0.776510,-3.410707,0.000000,205.000000,4.000000,,,,0.000000,4.000000,0.000000,4.000000,4.000000,4.000000,4.000000,4.000000,4.000000,4.000000,4.000000,4.000000,4.000000,4.000000,4.000000,4.000000,4.000000,4.000000,4.000000,4.000000,4.000000,4.000000,4.000000,4.000000,4.000000,4.000000,4.000000,4.000000,4.000000,4.000000,4.000000,4.000000,4.000000,66.666664
1614040736.999252,17.000000,0.000000,1.119373,-11.166781,-111.043221,-26.258659,-35.735195,-16.787212,-6.923657,-15.686927,-23.127890,-33.227398,-15.588492,-8.835643,-9.056100,-3.863287,2.579252,16.443251,-5.660753,48.990051,41.773586,0.540375,17.236141,-0.826328,-3.493147,-1.631457,5.752370,1.252909,0.428707,0.064131,-5.399848,-4.389888,0.262913,-8.022680,0.000000,201.000000,4.000000,,,,0.000000,4.000000,0.000000,4.000000,4.000000,4.000000,4.000000,4.000000,4.000000,4.000000,4.000000,4.000000,4.000000,4.000000,4.000000,4.000000,4.000000,4.000000,4.000000,4.000000,4.000000,4.000000,4.000000,4.000000,4.000000,4.000000,4.000000,4.000000,4.000000,4.000000,4.000000,4.000000,4.000000,66.666664
1614040737.007001,18.000000,0.000000,1.631074,-9.617153,-112.983459,-28.796503,-34.673820,-16.257605,-7.429554,-14.132778,-21.053480,-23.450581,-11.470340,-9.852448,-1.867556,17.679039,5.653595,22.067833,-3.603810,50.479523,39.680531,-0.485807,18.244547,-1.851143,-3.489654,0.421457,5.746617,1.251657,0.428279,0.064067,-4.368807,-3.872677,0.262651,-6.476196,0.000000,185.000000,4.000000,,,,0.000000,4.000000,0.000000,4.000000,4.000000,4.000000,4.000000,4.000000,4.000000,4.000000,4.000000,4.000000,4.000000,4.000000,4.000000,4.000000,4.000000,4.000000,4.000000,4.000000,4.000000,4.000000,4.000000,4.000000,4.000000,4.000000,4.000000,4.000000,4.000000,4.000000,4.000000,4.000000,4.000000,66.666664
1614040737.014850,19.000000,0.000000,1.116623,-0.889587,-103.639709,-13.383092,-25.921198,-8.549039,-5.883663,-7.451979,-16.929861,-17.273283,-8.381947,-7.791314,-1.352868,23.815205,4.109480,18.456020,-3.087386,48.890583,29.897259,-2.023782,10.533995,-1.849292,-3.486164,1.959497,5.740871,1.250405,0.427850,0.064003,-4.364438,-2.330343,0.775208,-5.444079,0.000000,200.000000,4.000000,,,,0.000000,4.000000,0.000000,4.000000,4.000000,4.000000,4.000000,4.000000,4.000000,4.000000,4.000000,4.000000,4.000000,4.000000,4.000000,4.000000,4.000000,4.000000,4.000000,4.000000,4.000000,4.000000,4.000000,4.000000,4.000000,4.000000,4.000000,4.000000,4.000000,4.000000,4.000000,4.000000,4.000000,66.666664
1614040737.022599,20.000000,0.000000,1.115506,-2.427159,-100.459145,-6.703042,-18.715788,-5.463567,-3.826497,-2.829142,-14.861650,-14.691908,-4.271001,-2.655317,-1.351515,19.688826,1.541268,9.206796,-2.571478,46.277588,26.277618,0.029523,7.446537,-1.847442,-3.482678,1.444717,5.735130,1.249154,0.427423,0.063939,-5.385715,-0.789551,-1.789669,-6.464276,0.000000,210.000000,4.000000,,,,0.000000,4.000000,0.000000,4.000000,4.000000,4.000000,4.000000,4.000000,4.000000,4.000000,4.000000,4.000000,4.000000,4.000000,4.000000,4.000000,4.000000,4.000000,4.000000,4.000000,4.000000,4.000000,4.000000,4.000000,4.000000,4.000000,4.000000,4.000000,4.000000,4.000000,4.000000,4.000000,4.000000,66.666664
1614040737.030448,21.000000,0.000000,1.114390,-9.604219,-103.435608,-13.875826,-18.697073,-6.483744,-3.309850,-2.826313,-14.846788,-13.138755,-4.779550,-1.114201,-0.837343,13.002470,-9.229504,-4.135745,-2.568906,35.974903,25.225698,-0.483327,7.951911,-0.819954,-3.992016,0.930452,5.216574,0.735085,-0.085825,0.063875,-3.329047,-0.275941,-2.813521,-7.483453,0.000000,176.000000,4.000000,,,,0.000000,4.000000,0.000000,4.000000,4.000000,4.000000,4.000000,4.000000,4.000000,4.000000,4.000000,4.000000,4.000000,4.000000,4.000000,4.000000,4.000000,4.000000,4.000000,4.000000,4.000000,4.000000,4.000000,4.000000,4.000000,4.000000,4.000000,4.000000,4.000000,4.000000,4.000000,4.000000,4.000000,66.666664
1614040737.038197,22.000000,0.000000,1.113276,-8.056153,-102.819359,-17.964514,-20.216837,-5.964440,-3.306540,-4.874769,-15.344762,-14.664077,-8.877335,-2.138727,-1.349327,5.297160,-15.886941,-8.746993,-3.591979,33.374825,30.841499,-0.482843,7.431139,1.232148,-3.475203,1.442342,5.724178,1.759991,0.427081,0.063811,1.802487,1.775617,-0.246605,-4.911867,0.000000,208.000000,4.000000,,,,0.000000,4.000000,0.000000,4.000000,4.000000,4.000000,4.000000,4.000000,4.000000,4.000000,4.000000,4.000000,4.000000,4.000000,4.000000,4.000000,4.000000,4.000000,4.000000,4.000000,4.000000,4.000000,4.000000,4.000000,4.000000,4.000000,4.000000,4.000000,4.000000,4.000000,4.000000,4.000000,4.000000,66.666664
1614040737.046046,23.000000,0.000000,1.112163,-7.535277,-95.537048,-12.818345,-17.632519,-6.471296,-3.303234,-1.792971,-9.688392,-14.136593,-6.304355,-1.110948,-0.835157,5.291863,-14.845413,0.492523,-1.024284,44.623501,43.631172,4.645844,7.936528,2.256557,-1.420446,1.440899,5.718454,1.245410,-0.086167,0.063747,3.851967,4.850764,0.779283,-0.291570,0.000000,185.000000,4.000000,,,,0.000000,4.000000,0.000000,4.000000,4.000000,4.000000,4.000000,4.000000,4.000000,4.000000,4.000000,4.000000,4.000000,4.000000,4.000000,4.000000,4.000000,4.000000,4.000000,4.000000,4.000000,4.000000,4.000000,4.000000,4.000000,4.000000,4.000000,4.000000,4.000000,4.000000,4.000000,4.000000,4.000000,66.666664
1614040737.053795,24.000000,0.000000,1.111051,-9.579023,-88.262024,-5.113219,-10.435398,-3.900722,-3.299930,6.926771,2.628989,-4.891687,3.958360,1.967086,2.755422,15.542981,-12.266465,10.235620,6.156228,51.245544,50.254208,9.769403,7.415771,4.818403,-0.393384,0.926638,5.199915,0.218524,-0.086080,0.063683,2.822474,2.794631,-0.247137,1.247183,0.000000,180.000000,4.000000,,,,0.000000,4.000000,0.000000,4.000000,4.000000,4.000000,4.000000,4.000000,4.000000,4.000000,4.000000,4.000000,4.000000,4.000000,4.000000,4.000000,4.000000,4.000000,4.000000,4.000000,4.000000,4.000000,4.000000,4.000000,4.000000,4.000000,4.000000,4.000000,4.000000,4.000000,4.000000,4.000000,4.000000,66.666664
1614040737.061445,25.000000,0.000000,1.622760,-1.877137,-86.122482,-1.005541,-1.194194,4.308307,-1.758169,12.048049,10.831489,8.446538,9.595428,5.042042,8.393692,21.168465,-8.151634,11.251025,9.226995,47.091736,47.639851,10.785275,7.408355,8.916149,2.171112,1.951352,6.733177,5.346510,2.478108,0.063620,2.819652,5.868760,0.778751,0.733115,0.000000,11.000000,4.000000,,,,0.000000,4.000000,0.000000,4.000000,4.000000,4.000000,4.000000,4.000000,4.000000,4.000000,4.000000,4.000000,4.000000,4.000000,4.000000,4.000000,4.000000,4.000000,4.000000,4.000000,4.000000,4.000000,4.000000,4.000000,4.000000,4.000000,4.000000,4.000000,4.000000,4.000000,4.000000,4.000000,4.000000,66.666664
1614040737.069194,26.000000,0.000000,4.185240,4.791407,-87.574821,-1.517356,3.935206,9.945024,0.294871,11.523181,11.333478,13.566297,8.560190,6.062641,13.513504,19.608833,1.087287,11.239775,8.192126,52.172848,48.617851,14.877054,15.606075,9.932874,6.271504,6.564785,12.367469,12.007831,6.065374,0.063556,3.329652,14.068020,0.777972,1.758023,0.000000,189.000000,4.000000,,,,0.000000,4.000000,0.000000,4.000000,4.000000,4.000000,4.000000,4.000000,4.000000,4.000000,4.000000,4.000000,4.000000,4.000000,4.000000,4.000000,4.000000,4.000000,4.000000,4.000000,4.000000,4.000000,4.000000,4.000000,4.000000,4.000000,4.000000,4.000000,4.000000,4.000000,4.000000,4.000000,4.000000,66.666664
1614040737.076843,27.000000,0.000000,5.206696,0.171231,-86.974426,-1.515839,2.392809,8.396618,0.807397,10.998837,10.809323,9.962987,9.064451,5.543758,14.012811,15.999482,8.778507,17.895201,9.209576,65.454010,50.620514,18.964741,22.769957,10.435761,8.316515,11.686426,13.380743,9.944541,8.110590,0.063493,2.813502,9.438567,-3.838191,-1.320658,0.000000,154.000000,4.000000,,,,0.000000,4.000000,0.000000,4.000000,4.000000,4.000000,4.000000,4.000000,4.000000,4.000000,4.000000,4.000000,4.000000,4.000000,4.000000,4.000000,4.000000,4.000000,4.000000,4.000000,4.000000,4.000000,4.000000,4.000000,4.000000,4.000000,4.000000,4.000000,4.000000,4.000000,4.000000,4.000000,4.000000,66.666664
1614040737.084592,28.000000,0.000000,3.150207,-2.393043,-86.887451,-1.001503,0.339134,5.824118,0.293769,10.987838,10.285694,3.799178,8.029745,5.538215,4.255208,6.752713,2.103062,9.672178,5.097802,56.157784,39.800663,9.202187,17.618980,9.399685,7.282557,11.674740,11.316080,4.806391,8.102480,0.063429,2.810689,-2.365743,-7.424096,-5.934722,0.000000,221.000000,4.000000,,,,0.000000,4.000000,0.000000,4.000000,4.000000,4.000000,4.000000,4.000000,4.000000,4.000000,4.000000,4.000000,4.000000,4.000000,4.000000,4.000000,4.000000,4.000000,4.000000,4.000000,4.000000,4.000000,4.000000,4.000000,4.000000,4.000000,4.000000,4.000000,4.000000,4.000000,4.000000,4.000000,4.000000,66.666664
1614040737.092241,29.000000,0.000000,1.095775,1.199094,-87.313385,-1.000501,-0.174025,5.305474,0.293475,8.412747,7.711306,0.205635,3.406331,6.045497,-5.492637,-1.459168,-11.232374,-10.850315,-5.676527,33.024704,26.427530,-5.678810,10.934695,3.749259,7.788095,7.560501,9.766302,4.288764,7.068736,0.063366,2.807878,-4.927480,-4.852569,-6.441608,0.000000,199.000000,4.000000,,,,0.000000,4.000000,0.000000,4.000000,4.000000,4.000000,4.000000,4.000000,4.000000,4.000000,4.000000,4.000000,4.000000,4.000000,4.000000,4.000000,4.000000,4.000000,4.000000,4.000000,4.000000,4.000000,4.000000,4.000000,4.000000,4.000000,4.000000,4.000000,4.000000,4.000000,4.000000,4.000000,4.000000,66.666664
1614040737.099990,30.000000,0.000000,1.094679,1.197895,-87.226067,-1.512321,-2.225133,4.787348,0.293182,7.378694,6.165133,0.718250,0.838822,6.039451,-4.461503,4.696137,-9.682681,-7.249721,-10.286235,38.119884,24.349819,-9.262875,11.436582,-1.895516,8.293128,5.501658,5.653972,3.771655,5.523206,0.063302,2.805070,-4.409732,-2.796435,-7.460807,0.000000,203.000000,4.000000,,,,0.000000,4.000000,0.000000,4.000000,4.000000,4.000000,4.000000,4.000000,4.000000,4.000000,4.000000,4.000000,4.000000,4.000000,4.000000,4.000000,4.000000,4.000000,4.000000,4.000000,4.000000,4.000000,4.000000,4.000000,4.000000,4.000000,4.000000,4.000000,4.000000,4.000000,4.000000,4.000000,4.000000,66.666664
1614040737.107639,31.000000,0.000000,1.093584,0.683876,-87.138840,-1.510809,-4.274190,4.782560,0.292889,7.371315,6.671788,-0.308109,0.837983,5.520591,-1.380119,12.383749,1.609053,15.834452,-7.711846,56.030483,23.812649,-7.202330,11.937965,-1.893620,7.259194,4.983336,-1.018349,1.203781,3.979221,0.063239,2.802265,-7.482246,-3.819279,-10.017449,0.000000,189.000000,4.000000,,,,0.000000,4.000000,0.000000,4.000000,4.000000,4.000000,4.000000,4.000000,4.000000,4.000000,4.000000,4.000000,4.000000,4.000000,4.000000,4.000000,4.000000,4.000000,4.000000,4.000000,4.000000,4.000000,4.000000,4.000000,4.000000,4.000000,4.000000,4.000000,4.000000,4.000000,4.000000,4.000000,4.000000,66.666664
1614040737.115388,32.000000,0.000000,1.092491,0.683192,-84.487602,-2.022119,-1.192993,4.777778,0.292596,7.363944,6.665116,0.205019,1.349966,6.027891,-1.891559,13.909827,4.684367,19.921181,-5.652853,48.794964,15.070889,-8.733589,8.336284,-1.378906,7.764755,4.978353,-2.042971,0.689756,3.975242,0.063176,2.799463,-5.936302,-3.302639,-6.930509,8064.000000,0.000000,4.000000,,,,0.000000,4.000000,0.000000,4.000000,4.000000,4.000000,4.000000,4.000000,4.000000,4.000000,4.000000,4.000000,4.000000,4.000000,4.000000,4.000000,4.000000,4.000000,4.000000,4.000000,4.000000,4.000000,4.000000,4.000000,4.000000,4.000000,4.000000,4.000000,4.000000,4.000000,4.000000,4.000000,4.000000,66.666664
1614040737.123038,33.000000,0.000000,1.091398,-1.368773,-80.300552,-1.507276,3.423584,4.773000,0.292303,7.356580,6.145630,3.281737,1.348616,6.021863,-2.402488,14.921558,2.115580,8.106389,-4.108738,34.900017,15.055818,-7.699214,6.789486,-1.890348,8.269811,4.973374,-2.553749,1.201887,3.971267,0.063113,2.796663,-2.853442,-0.222414,-3.846655,8064.000000,0.000000,4.000000,,,,0.000000,4.000000,0.000000,4.000000,4.000000,4.000000,4.000000,4.000000,4.000000,4.000000,4.000000,4.000000,4.000000,4.000000,4.000000,4.000000,4.000000,4.000000,4.000000,4.000000,4.000000,4.000000,4.000000,4.000000,4.000000,4.000000,4.000000,4.000000,4.000000,4.000000,4.000000,4.000000,4.000000,66.666664
1614040737.130787,34.000000,0.000000,1.090307,-2.905865,-79.194611,-1.505769,2.907340,4.768227,0.292011,4.785121,6.652306,3.278455,-2.242476,0.887636,-1.374444,10.291252,-4.553202,3.482898,-2.566168,41.018963,28.374094,-2.050490,7.808338,-1.888457,3.133336,4.968401,-7.166580,1.200685,4.480116,0.063049,2.793867,-3.363410,0.803450,-5.894090,8064.000000,0.000000,4.000000,,,,0.000000,4.000000,0.000000,4.000000,4.000000,4.000000,4.000000,4.000000,4.000000,4.000000,4.000000,4.000000,4.000000,4.000000,4.000000,4.000000,4.000000,4.000000,4.000000,4.000000,4.000000,4.000000,4.000000,4.000000,4.000000,4.000000,4.000000,4.000000,4.000000,4.000000,4.000000,4.000000,4.000000,66.666664
1614040737.138436,35.000000,0.000000,1.089216,-2.902960,-79.628235,-4.068366,-2.736593,4.763459,0.291719,0.164951,6.645653,0.711075,-6.342798,-5.267097,-1.373070,1.563012,-17.369162,3.992235,-3.589243,47.644611,37.576488,0.515663,7.800529,-1.373748,-3.536464,3.424971,-10.236336,1.199484,1.911533,-1.988296,2.791073,-3.872867,-0.222995,-6.913837,8064.000000,0.000000,4.000000,,,,0.000000,4.000000,0.000000,4.000000,4.000000,4.000000,4.000000,4.000000,4.000000,4.000000,4.000000,4.000000,4.000000,4.000000,4.000000,4.000000,4.000000,4.000000,4.000000,4.000000,4.000000,4.000000,4.000000,4.000000,4.000000,4.000000,4.000000,4.000000,4.000000,4.000000,4.000000,4.000000,4.000000,66.666664
1614040737.146185,36.000000,0.000000,1.088127,-3.412877,-79.548607,-4.064297,-8.374882,4.758695,0.291427,-0.860855,6.639008,-0.315278,-5.310814,-6.287471,-0.858876,2.587090,-20.428715,1.936961,-5.124115,41.443119,37.538914,-1.536134,7.792729,-1.372375,-4.558568,1.370264,-8.687638,-0.852997,-2.192942,-3.524769,3.301102,-3.356173,0.802869,-3.830000,8064.000000,0.000000,4.000000,,,,0.000000,4.000000,0.000000,4.000000,4.000000,4.000000,4.000000,4.000000,4.000000,4.000000,4.000000,4.000000,4.000000,4.000000,4.000000,4.000000,4.000000,4.000000,4.000000,4.000000,4.000000,4.000000,4.000000,4.000000,4.000000,4.000000,4.000000,4.000000,4.000000,4.000000,4.000000,4.000000,4.000000,66.666664
1614040737.153834,37.000000,0.000000,1.599860,-1.871003,-78.956238,0.555152,-8.879328,4.753937,0.291136,2.729749,6.632369,0.710679,-1.715760,-5.255543,-0.858018,7.712708,-12.715979,-0.629079,-7.683094,36.273472,36.475735,-3.585881,8.297756,-1.371002,-3.015548,1.368894,-8.678950,-1.877785,-3.729211,-3.521244,3.297801,-2.839997,3.878989,-1.774888,8064.000000,0.000000,4.000000,,,,0.000000,4.000000,0.000000,4.000000,4.000000,4.000000,4.000000,4.000000,4.000000,4.000000,4.000000,4.000000,4.000000,4.000000,4.000000,4.000000,4.000000,4.000000,4.000000,4.000000,4.000000,4.000000,4.000000,4.000000,4.000000,4.000000,4.000000,4.000000,4.000000,4.000000,4.000000,4.000000,4.000000,66.666664
1614040737.161583,38.000000,0.000000,1.598260,2.233432,-78.877281,3.118699,-7.844807,5.262003,0.803665,4.265481,6.625736,1.222789,-2.226864,-5.763108,-1.882800,4.628072,-10.139160,1.422832,-8.701052,38.801300,37.977718,-4.095115,8.289458,-0.856811,-4.038174,1.367525,-8.670272,-2.901548,-3.212661,-3.517723,2.268862,-3.862798,4.387931,-3.311575,8064.000000,0.000000,4.000000,,,,0.000000,4.000000,0.000000,4.000000,4.000000,4.000000,4.000000,4.000000,4.000000,4.000000,4.000000,4.000000,4.000000,4.000000,4.000000,4.000000,4.000000,4.000000,4.000000,4.000000,4.000000,4.000000,4.000000,4.000000,4.000000,4.000000,4.000000,4.000000,4.000000,4.000000,4.000000,4.000000,4.000000,66.666664
1614040737.169232,39.000000,0.000000,1.083841,3.769660,-79.824043,2.089940,-5.785680,4.743921,0.290041,3.235575,6.619111,0.195925,-2.737458,-5.757345,-0.342456,3.597803,-10.129022,7.575256,-4.589786,41.839420,39.991024,-3.578199,7.768349,1.708149,-3.521315,1.878978,-5.071858,-3.411467,-3.209449,-3.514205,3.292234,-3.346114,3.870723,-3.308263,8064.000000,0.000000,4.000000,,,,0.000000,4.000000,0.000000,4.000000,4.000000,4.000000,4.000000,4.000000,4.000000,4.000000,4.000000,4.000000,4.000000,4.000000,4.000000,4.000000,4.000000,4.000000,4.000000,4.000000,4.000000,4.000000,4.000000,4.000000,4.000000,4.000000,4.000000,4.000000,4.000000,4.000000,4.000000,4.000000,4.000000,66.666664
1614040737.176981,40.000000,0.000000,1.595578,1.201788,-75.641655,2.087850,-1.164510,4.739177,0.289751,4.257980,6.612491,0.195729,-0.683439,-5.238767,2.734809,2.568564,-6.016328,7.054860,-3.046735,39.746300,32.258724,-3.574621,9.299042,2.732082,-0.440871,4.954022,-1.477042,-0.331133,-0.129316,-0.946588,6.878686,-0.778666,4.379673,2.848891,8064.000000,0.000000,4.000000,,,,0.000000,4.000000,0.000000,4.000000,4.000000,4.000000,4.000000,4.000000,4.000000,4.000000,4.000000,4.000000,4.000000,4.000000,4.000000,4.000000,4.000000,4.000000,4.000000,4.000000,4.000000,4.000000,4.000000,4.000000,4.000000,4.000000,4.000000,4.000000,4.000000,4.000000,4.000000,4.000000,4.000000,66.666664
1614040737.184631,41.000000,0.000000,1.081161,0.174945,-70.950630,1.060121,-0.650525,5.247258,0.802282,4.253722,6.605879,1.733995,-4.272499,-5.233528,-1.370490,-12.305799,-13.702620,0.893959,-5.607790,36.116810,18.893133,-7.160790,6.212820,0.678067,0.585211,5.461888,-2.501206,0.694839,0.896454,0.079999,2.769243,0.760575,2.836831,5.922966,8064.000000,0.000000,4.000000,,,,0.000000,4.000000,0.000000,4.000000,4.000000,4.000000,4.000000,4.000000,4.000000,4.000000,4.000000,4.000000,4.000000,4.000000,4.000000,4.000000,4.000000,4.000000,4.000000,4.000000,4.000000,4.000000,4.000000,4.000000,4.000000,4.000000,4.000000,4.000000,4.000000,4.000000,4.000000,4.000000,4.000000,66.666664
1614040737.192480,42.000000,0.000000,-3.022484,1.200411,-76.520706,-3.556324,-7.829361,2.165088,-2.275444,-1.391557,6.599273,-2.883124,-16.063099,-5.228294,-10.087068,-31.267853,-29.073532,-2.183858,-6.115004,35.567875,17.335779,-11.256193,-4.049803,-0.348252,-1.979477,2.892324,-7.114090,-5.459702,-3.719827,-4.535465,-6.464295,-2.317109,-2.294211,-1.775265,8064.000000,0.000000,4.000000,,,,0.000000,4.000000,0.000000,4.000000,4.000000,4.000000,4.000000,4.000000,4.000000,4.000000,4.000000,4.000000,4.000000,4.000000,4.000000,4.000000,4.000000,4.000000,4.000000,4.000000,4.000000,4.000000,4.000000,4.000000,4.000000,4.000000,4.000000,4.000000,4.000000,4.000000,4.000000,4.000000,4.000000,66.666664
1614040737.200229,43.000000,0.000000,-6.609205,1.199211,-86.700592,-5.604050,-13.462558,-2.965282,-7.401373,-7.031191,6.592674,-12.623831,-22.713701,-5.223066,-13.153904,-36.877609,-34.172665,-5.258597,-6.621709,28.865639,10.651775,-11.757758,-11.225241,-3.424826,-3.515959,-0.187491,-8.645437,-8.531165,-6.793030,-6.582212,-8.509113,-3.853254,-4.856019,-6.901695,8064.000000,0.000000,4.000000,,,,0.000000,4.000000,0.000000,4.000000,4.000000,4.000000,4.000000,4.000000,4.000000,4.000000,4.000000,4.000000,4.000000,4.000000,4.000000,4.000000,4.000000,4.000000,4.000000,4.000000,4.000000,4.000000,4.000000,4.000000,4.000000,4.000000,4.000000,4.000000,4.000000,4.000000,4.000000,4.000000,4.000000,66.666664
1614040737.208078,44.000000,0.000000,-6.602596,0.172371,-87.639534,-5.598446,-10.884993,-2.962317,-7.393972,-8.049801,6.586081,-16.200951,-17.049963,-5.217843,-13.140750,-29.661245,-33.112850,-7.304621,-9.179190,18.580362,-10.897338,-10.720359,-10.701195,-8.549606,-3.512443,-3.264227,-8.636792,-3.907249,-4.734955,-4.524348,-5.423681,-1.285298,-1.261420,-1.253768,8064.000000,0.000000,4.000000,,,,0.000000,4.000000,0.000000,4.000000,4.000000,4.000000,4.000000,4.000000,4.000000,4.000000,4.000000,4.000000,4.000000,4.000000,4.000000,4.000000,4.000000,4.000000,4.000000,4.000000,4.000000,4.000000,4.000000,4.000000,4.000000,4.000000,4.000000,4.000000,4.000000,4.000000,4.000000,4.000000,4.000000,66.666664
1614040737.215827,45.000000,0.000000,-6.083172,0.685019,-84.987793,-4.567206,-7.284364,0.117568,-3.796834,-7.016110,6.579495,-13.620646,-12.417527,-5.212626,-12.614789,-19.887995,-32.566917,-5.246034,-10.195652,19.074602,-7.809517,-11.222459,-10.690494,-9.053878,-3.508930,-5.825065,-8.628155,-1.339239,-2.678938,-2.981362,-3.879796,0.767270,2.842406,0.798768,8064.000000,0.000000,4.000000,,,,0.000000,4.000000,0.000000,4.000000,4.000000,4.000000,4.000000,4.000000,4.000000,4.000000,4.000000,4.000000,4.000000,4.000000,4.000000,4.000000,4.000000,4.000000,4.000000,4.000000,4.000000,4.000000,4.000000,4.000000,4.000000,4.000000,4.000000,4.000000,4.000000,4.000000,4.000000,4.000000,4.000000,66.666664
1614040737.223676,46.000000,0.000000,-6.589910,1.709975,-86.954086,-6.101100,-13.430925,0.117451,-3.280217,-7.009094,5.034454,-16.171129,-15.994854,-5.207413,-12.089354,-14.739902,-33.047169,-13.958736,-9.672635,20.593990,12.711113,-11.211237,-10.679803,-5.967901,-3.505422,-6.332061,-8.619527,-2.876362,-3.189080,-3.491201,-1.824634,0.253682,4.378025,-3.304595,8064.000000,0.000000,4.000000,,,,0.000000,4.000000,0.000000,4.000000,4.000000,4.000000,4.000000,4.000000,4.000000,4.000000,4.000000,4.000000,4.000000,4.000000,4.000000,4.000000,4.000000,4.000000,4.000000,4.000000,4.000000,4.000000,4.000000,4.000000,4.000000,4.000000,4.000000,4.000000,4.000000,4.000000,4.000000,4.000000,4.000000,66.666664
1614040737.231425,47.000000,0.000000,-6.070499,-3.419940,-86.867134,-5.582179,-20.084162,-2.959590,-3.789757,-9.053367,2.978137,-19.744701,-17.004499,-5.202205,-14.128546,-15.237982,-36.603867,-27.790932,-9.662963,12.368268,0.903530,-11.200026,-10.669124,-5.961933,-3.501916,-5.812908,-9.123728,-2.873485,-3.698711,-3.487710,-1.822809,0.253428,3.860826,-2.788470,8064.000000,0.000000,4.000000,,,,0.000000,4.000000,0.000000,4.000000,4.000000,4.000000,4.000000,4.000000,4.000000,4.000000,4.000000,4.000000,4.000000,4.000000,4.000000,4.000000,4.000000,4.000000,4.000000,4.000000,4.000000,4.000000,4.000000,4.000000,4.000000,4.000000,4.000000,4.000000,4.000000,4.000000,4.000000,4.000000,4.000000,66.666664
1614040737.239274,48.000000,0.000000,-6.577250,-9.570366,-76.523857,-0.961212,-14.423052,-3.469451,-3.785968,-10.582775,2.462339,-12.545469,-8.782367,-5.197003,-10.011853,-8.043257,-30.413416,-15.968269,-9.653300,15.432822,-13.969169,-11.188826,-11.684095,-9.545714,-3.498414,-6.319916,-8.601784,-2.357791,-3.182192,-3.484222,-0.282525,0.253175,3.856966,0.804062,8064.000000,0.000000,4.000000,,,,0.000000,4.000000,0.000000,4.000000,4.000000,4.000000,4.000000,4.000000,4.000000,4.000000,4.000000,4.000000,4.000000,4.000000,4.000000,4.000000,4.000000,4.000000,4.000000,4.000000,4.000000,4.000000,4.000000,4.000000,4.000000,4.000000,4.000000,4.000000,4.000000,4.000000,4.000000,4.000000,4.000000,66.666664
1614040737.247023,49.000000,0.000000,-5.545031,-8.535155,-66.190918,1.603852,-5.177859,-0.389058,-3.269361,-9.033731,2.972697,-0.225232,0.970005,-5.191806,3.844312,8.375043,-10.895823,8.663084,-9.643646,34.391750,8.096083,-11.177637,-7.057026,-8.510528,-3.494916,-5.800776,-6.541900,-2.355433,-3.179009,-3.480738,5.871604,0.252922,4.365929,1.316079,8064.000000,0.000000,4.000000,,,,0.000000,4.000000,0.000000,4.000000,4.000000,4.000000,4.000000,4.000000,4.000000,4.000000,4.000000,4.000000,4.000000,4.000000,4.000000,4.000000,4.000000,4.000000,4.000000,4.000000,4.000000,4.000000,4.000000,4.000000,4.000000,4.000000,4.000000,4.000000,4.000000,4.000000,4.000000,4.000000,4.000000,66.666664
1614040737.254872,50.000000,0.000000,-2.975384,-6.988158,-67.663193,-0.961855,-4.147040,1.149792,-3.266092,-6.973415,2.969724,5.416019,2.507497,-5.186615,11.019956,16.058975,-0.628518,15.321088,-9.634003,44.100948,25.523884,-10.140818,0.129518,-3.373812,-3.491421,-5.794975,-6.022537,-1.840258,-3.175830,-3.477257,2.788809,0.765489,3.848743,0.801942,8064.000000,0.000000,4.000000,,,,0.000000,4.000000,0.000000,4.000000,4.000000,4.000000,4.000000,4.000000,4.000000,4.000000,4.000000,4.000000,4.000000,4.000000,4.000000,4.000000,4.000000,4.000000,4.000000,4.000000,4.000000,4.000000,4.000000,4.000000,4.000000,4.000000,4.000000,4.000000,4.000000,4.000000,4.000000,4.000000,4.000000,66.666664
1614040737.262621,51.000000,0.000000,-1.946767,-6.468349,-73.749374,-1.986534,-5.168535,0.635822,-3.775646,-6.966442,2.966754,4.384962,1.479348,-5.181427,5.880730,9.376250,-3.704812,11.203202,-9.624369,40.979923,22.421436,-10.130677,-0.896253,-0.806336,-3.487930,-6.302000,-7.554976,-3.376879,-3.172655,-3.473780,-3.880646,-0.260917,3.844894,0.801140,8064.000000,0.000000,4.000000,,,,0.000000,4.000000,0.000000,4.000000,4.000000,4.000000,4.000000,4.000000,4.000000,4.000000,4.000000,4.000000,4.000000,4.000000,4.000000,4.000000,4.000000,4.000000,4.000000,4.000000,4.000000,4.000000,4.000000,4.000000,4.000000,4.000000,4.000000,4.000000,4.000000,4.000000,4.000000,4.000000,4.000000,66.666664
1614040737.270470,52.000000,0.000000,-2.457641,-2.872138,-74.701263,-1.471727,-5.676187,1.148007,-2.746230,-7.472296,2.963788,3.867757,1.990689,-5.176246,2.285106,2.700207,-5.752389,10.679178,-9.614744,41.451763,32.142605,-12.171828,-0.895357,-1.318350,-3.484442,-5.782877,-8.573063,-1.835040,-3.169482,-3.470306,2.277080,0.252164,3.841049,0.800339,8064.000000,0.000000,4.000000,,,,0.000000,4.000000,0.000000,4.000000,4.000000,4.000000,4.000000,4.000000,4.000000,4.000000,4.000000,4.000000,4.000000,4.000000,4.000000,4.000000,4.000000,4.000000,4.000000,4.000000,4.000000,4.000000,4.000000,4.000000,4.000000,4.000000,4.000000,4.000000,4.000000,4.000000,4.000000,4.000000,4.000000,66.666664
1614040737.278219,53.000000,0.000000,-2.455183,-3.382086,-74.113747,-1.470255,-3.106408,3.198141,-0.692201,-6.439182,2.960824,4.889530,1.988698,-5.171070,2.282821,2.697507,-12.926125,9.130038,-10.117950,41.923130,38.777130,-11.134016,4.233744,-1.829852,-3.480957,-3.212992,-9.077310,3.807820,-3.166312,-3.466836,9.454290,4.867297,3.837208,0.799539,8064.000000,0.000000,4.000000,,,,0.000000,4.000000,0.000000,4.000000,4.000000,4.000000,4.000000,4.000000,4.000000,4.000000,4.000000,4.000000,4.000000,4.000000,4.000000,4.000000,4.000000,4.000000,4.000000,4.000000,4.000000,4.000000,4.000000,4.000000,4.000000,4.000000,4.000000,4.000000,4.000000,4.000000,4.000000,4.000000,4.000000,66.666664
1614040737.286068,54.000000,0.000000,-2.452728,-6.968448,-74.552452,1.095318,3.050545,5.759045,0.846952,-3.868641,2.957863,4.371820,1.473889,-5.165899,-1.822026,3.720450,-23.169609,3.992703,-9.595012,36.240185,19.251173,-10.610061,-0.385875,-2.340843,-3.990297,-1.671318,-8.555412,2.778371,-3.675967,-3.463369,6.880733,8.452173,3.833371,0.798739,8064.000000,0.000000,4.000000,,,,0.000000,4.000000,0.000000,4.000000,4.000000,4.000000,4.000000,4.000000,4.000000,4.000000,4.000000,4.000000,4.000000,4.000000,4.000000,4.000000,4.000000,4.000000,4.000000,4.000000,4.000000,4.000000,4.000000,4.000000,4.000000,4.000000,4.000000,4.000000,4.000000,4.000000,4.000000,4.000000,4.000000,66.666664
1614040737.293817,55.000000,0.000000,-2.450275,-0.294812,-74.990723,5.196786,6.124417,7.291748,0.333285,-2.839131,2.954905,2.316166,1.472415,-5.160733,-5.409948,2.691089,-26.736183,-5.754880,-9.585417,27.998816,2.308845,-21.368681,-11.667540,-3.364143,-3.986306,-2.182467,-7.521215,-5.429535,-4.697932,-3.459906,7.386673,4.341156,3.829538,0.285120,8064.000000,0.000000,4.000000,,,,0.000000,4.000000,0.000000,4.000000,4.000000,4.000000,4.000000,4.000000,4.000000,4.000000,4.000000,4.000000,4.000000,4.000000,4.000000,4.000000,4.000000,4.000000,4.000000,4.000000,4.000000,4.000000,4.000000,4.000000,4.000000,4.000000,4.000000,4.000000,4.000000,4.000000,4.000000,4.000000,4.000000,66.666664
1614040737.301466,56.000000,0.000000,-2.447825,3.808047,-74.915726,6.217231,3.041370,8.822917,0.332952,-3.349112,2.951950,0.262568,1.470943,-5.155572,-6.430179,1.662757,-26.709446,-10.364510,-10.088652,23.355431,0.768075,-31.090902,-15.245616,-5.924881,-3.469500,-2.693105,-12.641899,-6.962567,-6.231695,-3.456446,1.738261,-0.278569,3.825708,0.797655,8064.000000,0.000000,4.000000,,,,0.000000,4.000000,0.000000,4.000000,4.000000,4.000000,4.000000,4.000000,4.000000,4.000000,4.000000,4.000000,4.000000,4.000000,4.000000,4.000000,4.000000,4.000000,4.000000,4.000000,4.000000,4.000000,4.000000,4.000000,4.000000,4.000000,4.000000,4.000000,4.000000,4.000000,4.000000,4.000000,4.000000,66.666664
1614040737.309215,57.000000,0.000000,-2.445377,-3.888069,-74.327995,5.698193,2.012687,8.301274,0.332619,-3.345763,2.948998,-0.250515,1.469472,-5.150417,-3.859646,5.250838,-19.503250,-3.687478,-9.052922,28.973101,5.895512,-20.803402,-15.230371,-5.918956,-3.978851,-2.177591,-19.808744,-6.442784,-8.276746,-3.965810,-9.032708,-0.278291,3.821882,0.284037,8064.000000,0.000000,4.000000,,,,0.000000,4.000000,0.000000,4.000000,4.000000,4.000000,4.000000,4.000000,4.000000,4.000000,4.000000,4.000000,4.000000,4.000000,4.000000,4.000000,4.000000,4.000000,4.000000,4.000000,4.000000,4.000000,4.000000,4.000000,4.000000,4.000000,4.000000,4.000000,4.000000,4.000000,4.000000,4.000000,4.000000,66.666664
1614040737.316865,58.000000,0.000000,-2.442932,-3.884181,-72.715202,6.205315,3.549136,8.805793,0.332286,-3.342417,3.458870,0.262556,1.468003,-5.145267,2.298060,12.425074,-1.022208,0.418773,-3.915664,40.738998,19.735769,-2.321060,-9.574115,5.369014,-3.462051,-2.175414,-14.660731,-6.949162,-5.704366,-2.936203,-4.408291,2.286090,3.818060,0.283753,8064.000000,0.000000,4.000000,,,,0.000000,4.000000,0.000000,4.000000,4.000000,4.000000,4.000000,4.000000,4.000000,4.000000,4.000000,4.000000,4.000000,4.000000,4.000000,4.000000,4.000000,4.000000,4.000000,4.000000,4.000000,4.000000,4.000000,4.000000,4.000000,4.000000,4.000000,4.000000,4.000000,4.000000,4.000000,4.000000,4.000000,66.666664
1614040737.324614,59.000000,0.000000,-2.440489,5.863293,-70.078384,5.686289,2.519946,8.796988,2.383236,-2.826255,2.942590,0.262293,1.979355,-4.627301,5.885505,15.489572,6.671122,1.443995,-0.834825,45.826466,29.972445,1.783825,5.820075,19.209799,1.669616,-1.147597,-2.851198,1.775736,3.532107,-0.369164,9.442271,3.822266,3.814242,1.821931,8064.000000,0.000000,4.000000,,,,0.000000,4.000000,0.000000,4.000000,4.000000,4.000000,4.000000,4.000000,4.000000,4.000000,4.000000,4.000000,4.000000,4.000000,4.000000,4.000000,4.000000,4.000000,4.000000,4.000000,4.000000,4.000000,4.000000,4.000000,4.000000,4.000000,4.000000,4.000000,4.000000,4.000000,4.000000,4.000000,4.000000,66.666664
1614040737.332263,60.000000,0.000000,-2.438048,4.318968,-68.469849,5.680603,3.030247,8.275370,3.919314,-2.823428,2.939648,0.774852,2.490196,-4.622673,6.905261,14.961262,2.049066,8.622039,-1.859632,46.806282,29.429651,-1.294882,15.557845,21.241871,6.796152,2.443294,-0.284245,12.543191,9.169600,0.656846,11.484111,3.818443,3.810428,3.871391,8064.000000,0.000000,4.000000,,,,0.000000,4.000000,0.000000,4.000000,4.000000,4.000000,4.000000,4.000000,4.000000,4.000000,4.000000,4.000000,4.000000,4.000000,4.000000,4.000000,4.000000,4.000000,4.000000,4.000000,4.000000,4.000000,4.000000,4.000000,4.000000,4.000000,4.000000,4.000000,4.000000,4.000000,4.000000,4.000000,4.000000,66.666664
1614040737.340012,61.000000,0.000000,-2.435611,0.212085,-66.862915,6.187743,3.027216,8.779915,4.428216,-3.846246,3.962349,0.774077,1.974885,-5.130871,7.411176,14.433480,2.559838,10.151878,-1.344952,49.836399,35.554070,1.270516,17.080748,17.630886,9.866279,6.543415,-1.822422,11.505007,8.134790,0.143369,8.908525,3.814625,3.806618,5.405981,8064.000000,0.000000,4.000000,,,,0.000000,4.000000,0.000000,4.000000,4.000000,4.000000,4.000000,4.000000,4.000000,4.000000,4.000000,4.000000,4.000000,4.000000,4.000000,4.000000,4.000000,4.000000,4.000000,4.000000,4.000000,4.000000,4.000000,4.000000,4.000000,4.000000,4.000000,4.000000,4.000000,4.000000,4.000000,4.000000,4.000000,66.666664
1614040737.347661,62.000000,0.000000,-2.433175,1.237514,-66.283234,3.104632,-0.565554,7.745494,3.910967,-2.816759,1.394284,0.260482,1.972911,-4.612920,0.737098,11.342123,-2.058107,0.398137,-2.882068,46.196819,36.544155,1.269245,16.550848,15.049152,6.266668,10.639436,-0.794958,7.903758,8.639476,0.143225,9.925257,3.810810,3.802811,6.939037,8064.000000,0.000000,4.000000,,,,0.000000,4.000000,0.000000,4.000000,4.000000,4.000000,4.000000,4.000000,4.000000,4.000000,4.000000,4.000000,4.000000,4.000000,4.000000,4.000000,4.000000,4.000000,4.000000,4.000000,4.000000,4.000000,4.000000,4.000000,4.000000,4.000000,4.000000,4.000000,4.000000,4.000000,4.000000,4.000000,4.000000,66.666664
1614040737.355410,63.000000,0.000000,-1.917921,-9.532954,-66.729767,-1.001037,-4.154732,3.635185,2.881415,-2.813942,-2.709674,0.773042,1.970938,-5.633948,-10.545691,4.664114,-21.030407,-6.268928,-11.597135,31.791647,15.994790,-8.988434,3.713784,2.213590,-3.483188,9.090335,-0.281343,9.434316,8.118016,0.143082,8.376870,4.319820,3.799008,7.957739,8064.000000,0.000000,4.000000,,,,0.000000,4.000000,0.000000,4.000000,4.000000,4.000000,4.000000,4.000000,4.000000,4.000000,4.000000,4.000000,4.000000,4.000000,4.000000,4.000000,4.000000,4.000000,4.000000,4.000000,4.000000,4.000000,4.000000,4.000000,4.000000,4.000000,4.000000,4.000000,4.000000,4.000000,4.000000,4.000000,4.000000,66.666664
1614040737.363059,64.000000,0.000000,-2.941644,-18.754190,-66.663040,-2.025676,-6.201860,0.554626,0.827251,-12.554718,-4.245426,-0.253372,-5.723341,-11.269340,-13.612067,-3.545678,-37.419632,-10.878044,-21.329128,21.503445,-0.431461,-21.287138,-15.264289,-13.686060,-11.172012,-2.713628,-0.793882,7.373600,-1.633692,0.142939,6.317212,4.315500,4.308030,8.462602,0.000000,237.000000,4.000000,,,,0.000000,4.000000,0.000000,4.000000,4.000000,4.000000,4.000000,4.000000,4.000000,4.000000,4.000000,4.000000,4.000000,4.000000,4.000000,4.000000,4.000000,4.000000,4.000000,4.000000,4.000000,4.000000,4.000000,4.000000,4.000000,4.000000,4.000000,4.000000,4.000000,4.000000,4.000000,4.000000,4.000000,66.666664
1614040737.370808,65.000000,0.000000,-5.502805,0.238922,-66.083557,-0.998010,-11.323863,1.066892,-0.199217,-21.772932,-5.266821,-6.406965,-18.538130,-15.873455,-12.059994,-11.234440,-42.510418,-17.021011,-24.384722,20.969120,3.671535,-23.317133,-15.761846,-15.723656,-11.160840,-16.044247,-0.793088,2.238021,-10.862827,0.142796,6.823715,3.798364,1.739619,8.966959,0.000000,203.000000,4.000000,,,,0.000000,4.000000,0.000000,4.000000,4.000000,4.000000,4.000000,4.000000,4.000000,4.000000,4.000000,4.000000,4.000000,4.000000,4.000000,4.000000,4.000000,4.000000,4.000000,4.000000,4.000000,4.000000,4.000000,4.000000,4.000000,4.000000,4.000000,4.000000,4.000000,4.000000,4.000000,4.000000,4.000000,66.666664
1614040737.378458,66.000000,0.000000,-6.522943,19.213043,-66.017471,-1.509832,-14.902283,1.578646,0.313803,-18.161415,-7.312837,-13.580045,-25.186258,-16.370401,-12.560755,-14.812949,-44.006371,-17.516811,-24.360336,23.512255,8.796068,-18.678431,-6.002494,-10.579727,-11.149679,-17.053844,-1.305116,0.184501,-11.877605,0.142653,5.791250,3.794566,-0.313403,5.368249,0.000000,173.000000,4.000000,,,,0.000000,4.000000,0.000000,4.000000,4.000000,4.000000,4.000000,4.000000,4.000000,4.000000,4.000000,4.000000,4.000000,4.000000,4.000000,4.000000,4.000000,4.000000,4.000000,4.000000,4.000000,4.000000,4.000000,4.000000,4.000000,4.000000,4.000000,4.000000,4.000000,4.000000,4.000000,4.000000,4.000000,66.666664
1614040737.386207,67.000000,0.000000,-6.003600,7.398958,-66.464272,1.055780,-14.374560,0.551426,0.313489,-10.963767,-8.843986,-15.104926,-25.161072,-16.866852,-13.061014,-17.362238,-45.500824,-21.601858,-25.361618,18.360537,0.069323,-22.762318,-6.509312,-9.030685,-12.164171,-14.472688,-1.816631,1.209957,-10.840087,0.142511,6.811100,3.790771,1.225372,5.362881,0.000000,190.000000,4.000000,,,,0.000000,4.000000,0.000000,4.000000,4.000000,4.000000,4.000000,4.000000,4.000000,4.000000,4.000000,4.000000,4.000000,4.000000,4.000000,4.000000,4.000000,4.000000,4.000000,4.000000,4.000000,4.000000,4.000000,4.000000,4.000000,4.000000,4.000000,4.000000,4.000000,4.000000,4.000000,4.000000,4.000000,66.666664
1614040737.393856,68.000000,0.000000,-5.997596,-5.428954,-65.884987,3.618827,-11.283262,1.576516,0.313175,-10.952804,-8.322321,-14.577001,-25.135912,-16.337164,-15.612056,-22.985901,-45.968143,-33.887951,-25.849075,6.547304,-19.930746,-36.072887,-14.195110,-11.072937,-10.613545,-13.945395,-2.327635,0.695927,-10.829247,0.142368,6.804289,1.735698,3.788250,10.485723,0.000000,187.000000,4.000000,,,,0.000000,4.000000,0.000000,4.000000,4.000000,4.000000,4.000000,4.000000,4.000000,4.000000,4.000000,4.000000,4.000000,4.000000,4.000000,4.000000,4.000000,4.000000,4.000000,4.000000,4.000000,4.000000,4.000000,4.000000,4.000000,4.000000,4.000000,4.000000,4.000000,4.000000,4.000000,4.000000,4.000000,66.666664
1614040737.401705,69.000000,0.000000,-6.504419,-1.833782,-67.357567,-2.025818,-11.271979,0.036478,0.312862,-10.941851,-7.801178,-16.100885,-25.110775,-16.320827,-16.622086,-27.065479,-43.358074,-35.392525,-23.771946,3.463834,-33.244148,-43.729122,-23.411684,-14.138787,-12.141393,-13.418629,-6.940692,0.695231,-11.844059,0.142226,-1.407644,-2.368601,1.220359,8.936775,0.000000,200.000000,4.000000,,,,0.000000,4.000000,0.000000,4.000000,4.000000,4.000000,4.000000,4.000000,4.000000,4.000000,4.000000,4.000000,4.000000,4.000000,4.000000,4.000000,4.000000,4.000000,4.000000,4.000000,4.000000,4.000000,4.000000,4.000000,4.000000,4.000000,4.000000,4.000000,4.000000,4.000000,4.000000,4.000000,4.000000,66.666664
1614040737.409454,70.000000,0.000000,-6.497915,-5.934512,-71.392769,-10.741740,-22.542759,-5.604584,0.312549,-11.956550,-9.844659,-19.674528,-25.598486,-17.330147,-15.067001,-28.064056,-38.186512,-25.613541,-24.773813,11.665499,-20.903212,-29.839239,-26.978016,-10.534904,-11.103611,-19.559055,-12.574777,0.694536,-11.832214,0.142084,-8.585723,-5.955976,-0.319323,-1.328571,0.000000,190.000000,4.000000,,,,0.000000,4.000000,0.000000,4.000000,4.000000,4.000000,4.000000,4.000000,4.000000,4.000000,4.000000,4.000000,4.000000,4.000000,4.000000,4.000000,4.000000,4.000000,4.000000,4.000000,4.000000,4.000000,4.000000,4.000000,4.000000,4.000000,4.000000,4.000000,4.000000,4.000000,4.000000,4.000000,4.000000,66.666664
1614040737.417303,71.000000,0.000000,-5.465776,-14.133706,-75.423943,-13.295101,-33.289448,-9.701544,0.312237,-14.508696,-12.398917,-23.244596,-23.521605,-12.697433,-15.051934,-22.907785,-27.379093,-13.280234,-22.697758,21.910244,8.861280,0.959830,-11.566422,5.885887,0.702365,-23.129240,-11.023741,0.693841,-3.102434,0.141941,-3.448933,-2.873097,0.193817,-3.891346,0.000000,189.000000,4.000000,,,,0.000000,4.000000,0.000000,4.000000,4.000000,4.000000,4.000000,4.000000,4.000000,4.000000,4.000000,4.000000,4.000000,4.000000,4.000000,4.000000,4.000000,4.000000,4.000000,4.000000,4.000000,4.000000,4.000000,4.000000,4.000000,4.000000,4.000000,4.000000,4.000000,4.000000,4.000000,4.000000,4.000000,66.666664
1614040737.425052,72.000000,0.000000,-3.409028,-5.401623,-78.425446,-12.768986,-26.589491,-10.717484,0.311925,-9.365982,-10.335236,-19.118788,-8.113468,-1.402684,-4.267652,-2.884879,-5.300433,11.861251,-6.264804,42.401154,40.134472,26.599895,15.111811,20.238976,10.958073,-10.285599,-1.781948,3.257250,9.208361,0.141800,3.221183,5.334904,0.193623,-0.297711,0.000000,203.000000,4.000000,,,,0.000000,4.000000,0.000000,4.000000,4.000000,4.000000,4.000000,4.000000,4.000000,4.000000,4.000000,4.000000,4.000000,4.000000,4.000000,4.000000,4.000000,4.000000,4.000000,4.000000,4.000000,4.000000,4.000000,4.000000,4.000000,4.000000,4.000000,4.000000,4.000000,4.000000,4.000000,4.000000,4.000000,66.666664
1614040737.432901,73.000000,0.000000,-1.867157,4.860188,-77.834198,-12.756217,-13.229568,-9.681125,0.311613,0.899794,-3.658234,-5.253516,12.407466,3.726924,21.890463,20.707750,20.858713,38.516056,17.331203,71.076698,69.837929,35.804066,27.404390,24.834122,11.972755,4.596482,5.399322,6.843736,12.788897,0.141658,2.705141,10.457774,-0.319391,-1.323054,0.000000,192.000000,4.000000,,,,0.000000,4.000000,0.000000,4.000000,4.000000,4.000000,4.000000,4.000000,4.000000,4.000000,4.000000,4.000000,4.000000,4.000000,4.000000,4.000000,4.000000,4.000000,4.000000,4.000000,4.000000,4.000000,4.000000,4.000000,4.000000,4.000000,4.000000,4.000000,4.000000,4.000000,4.000000,4.000000,4.000000,66.666664
1614040737.440650,74.000000,0.000000,0.698812,4.855329,-65.961494,-9.666537,-3.472748,-5.568880,0.311301,5.001459,-0.064832,6.033789,21.113007,3.210376,34.176266,31.456272,31.607086,43.092926,25.006182,86.903061,84.639885,36.281082,27.889807,26.860569,13.499245,9.207270,11.547769,9.400995,12.263287,0.141516,4.753718,14.037060,2.245031,4.832115,0.000000,161.000000,4.000000,,,,0.000000,4.000000,0.000000,4.000000,4.000000,4.000000,4.000000,4.000000,4.000000,4.000000,4.000000,4.000000,4.000000,4.000000,4.000000,4.000000,4.000000,4.000000,4.000000,4.000000,4.000000,4.000000,4.000000,4.000000,4.000000,4.000000,4.000000,4.000000,4.000000,4.000000,4.000000,4.000000,4.000000,66.666664
1614040737.448499,75.000000,0.000000,1.723754,5.363294,-52.049377,-5.554307,7.812776,0.077715,0.310990,4.996457,-0.064767,8.079037,20.579073,3.207166,21.321575,31.424816,22.857531,37.921627,10.622200,79.636673,73.273193,30.603775,27.349096,20.167042,14.511386,14.326268,17.177246,10.930056,15.327947,0.141375,9.364349,22.228151,4.294068,19.186258,0.000000,203.000000,4.000000,,,,0.000000,4.000000,0.000000,4.000000,4.000000,4.000000,4.000000,4.000000,4.000000,4.000000,4.000000,4.000000,4.000000,4.000000,4.000000,4.000000,4.000000,4.000000,4.000000,4.000000,4.000000,4.000000,4.000000,4.000000,4.000000,4.000000,4.000000,4.000000,4.000000,4.000000,4.000000,4.000000,4.000000,66.666664
1614040737.456248,76.000000,0.000000,-2.380533,3.306648,-51.997326,-4.523111,9.343425,2.128919,0.310679,2.940179,-0.577523,8.070958,20.558495,-1.411426,11.043843,25.752367,5.398775,32.755501,-7.337140,56.480110,43.969151,14.675735,20.142260,2.710977,6.291747,17.388865,16.134428,12.970407,15.312618,0.141233,10.893446,27.846949,3.776953,22.756815,0.000000,208.000000,4.000000,,,,0.000000,4.000000,0.000000,4.000000,4.000000,4.000000,4.000000,4.000000,4.000000,4.000000,4.000000,4.000000,4.000000,4.000000,4.000000,4.000000,4.000000,4.000000,4.000000,4.000000,4.000000,4.000000,4.000000,4.000000,4.000000,4.000000,4.000000,4.000000,4.000000,4.000000,4.000000,4.000000,4.000000,66.666664
1614040737.464097,77.000000,0.000000,-6.480717,-6.953069,-62.201740,-5.031409,-1.435150,1.101149,0.310368,-2.703787,-0.064125,9.601349,14.896911,-8.076681,7.443056,13.931742,-13.580983,12.209924,-13.483649,29.244143,12.643129,-3.800479,10.378529,-6.522503,-0.381212,8.653527,10.477268,12.444616,12.733204,0.141092,8.831271,24.229359,4.285997,13.503289,0.000000,165.000000,4.000000,,,,0.000000,4.000000,0.000000,4.000000,4.000000,4.000000,4.000000,4.000000,4.000000,4.000000,4.000000,4.000000,4.000000,4.000000,4.000000,4.000000,4.000000,4.000000,4.000000,4.000000,4.000000,4.000000,4.000000,4.000000,4.000000,4.000000,4.000000,4.000000,4.000000,4.000000,4.000000,4.000000,4.000000,66.666664
