title:30, start timestamp:1614040890.220254, stop timestamp:1614040936.016622, headset type:EPOCFLEX, headset serial:F00001ED, headset firmware:f12, subject name:s05, channels:75, sampling rate:128, samples:5911      , version:2.0
Timestamp,EEG.Counter,EEG.Interpolated,EEG.Cz,EEG.Fz,EEG.Fp1,EEG.AF3,EEG.F7,EEG.F3,EEG.FC1,EEG.C3,EEG.FC5,EEG.T7,EEG.CP5,EEG.CP1,EEG.P3,EEG.P7,EEG.PO3,EEG.O1,EEG.Pz,EEG.Oz,EEG.O2,EEG.PO4,EEG.P8,EEG.P4,EEG.CP2,EEG.CP6,EEG.T8,EEG.FC6,EEG.C4,EEG.FC2,EEG.F4,EEG.F8,EEG.AF4,EEG.Fp2,EEG.HighBitFlex,EEG.RawCq,EEG.Battery,MarkerIndex,MarkerType,MarkerValueInt,EEG.MarkerHardware,CQ.Cz,CQ.Fz,CQ.Fp1,CQ.AF3,CQ.F7,CQ.F3,CQ.FC1,CQ.C3,CQ.FC5,CQ.T7,CQ.CP5,CQ.CP1,CQ.P3,CQ.P7,CQ.PO3,CQ.O1,CQ.Pz,CQ.Oz,CQ.O2,CQ.PO4,CQ.P8,CQ.P4,CQ.CP2,CQ.CP6,CQ.T8,CQ.FC6,CQ.C4,CQ.FC2,CQ.F4,CQ.F8,CQ.AF4,CQ.Fp2,CQ.Overall
1614040890.220254,75.000000,0.000000,4.717005,-28.117842,-20.700096,-12.339007,-71.039528,-22.986055,0.521972,-6.508852,-36.087532,-29.373512,-14.442158,1.719178,12.042521,-0.091045,32.675388,18.785009,16.488649,47.245480,-1.329545,47.061382,27.029539,27.556276,15.201368,22.174887,44.943783,58.635426,34.015163,27.112915,46.480103,81.766472,47.417774,94.031151,0.000000,216.000000,4.000000,,,,0.000000,4.000000,0.000000,4.000000,4.000000,4.000000,4.000000,4.000000,4.000000,4.000000,4.000000,4.000000,4.000000,4.000000,4.000000,4.000000,4.000000,4.000000,4.000000,4.000000,4.000000,4.000000,4.000000,4.000000,4.000000,4.000000,4.000000,4.000000,4.000000,4.000000,4.000000,4.000000,4.000000,66.666664
1614040890.227904,76.000000,0.000000,5.225109,-15.782031,-18.628115,-10.788207,-67.378746,-23.475889,0.521450,-5.989522,-30.923239,-24.728754,3.008182,8.896946,18.184324,20.421867,40.847839,32.612377,16.472160,49.249516,-13.635908,40.347656,30.079433,25.990259,16.211807,34.973225,43.360374,57.038330,33.468330,26.060162,44.895161,90.402657,54.549843,93.424301,0.000000,192.000000,4.000000,,,,0.000000,4.000000,0.000000,4.000000,4.000000,4.000000,4.000000,4.000000,4.000000,4.000000,4.000000,4.000000,4.000000,4.000000,4.000000,4.000000,4.000000,4.000000,4.000000,4.000000,4.000000,4.000000,4.000000,4.000000,4.000000,4.000000,4.000000,4.000000,4.000000,4.000000,4.000000,4.000000,4.000000,66.666664
1614040890.235653,77.000000,0.000000,5.732704,-4.997019,-19.635128,-12.315881,-73.465210,-29.093439,1.546570,-8.034815,-36.533340,-24.191204,5.056455,7.862408,18.678961,25.529650,37.730068,39.759251,14.404406,54.841293,-17.724836,31.076538,30.562174,26.989910,14.144315,34.425430,45.881119,54.930008,32.922039,26.546923,45.363083,92.363533,53.982475,92.818054,0.000000,190.000000,4.000000,,,,0.000000,4.000000,0.000000,4.000000,4.000000,4.000000,4.000000,4.000000,4.000000,4.000000,4.000000,4.000000,4.000000,4.000000,4.000000,4.000000,4.000000,4.000000,4.000000,4.000000,4.000000,4.000000,4.000000,4.000000,4.000000,4.000000,4.000000,4.000000,4.000000,4.000000,4.000000,4.000000,4.000000,66.666664
1614040890.243302,78.000000,0.000000,3.162869,-13.709970,-20.128313,-15.380487,-78.519951,-31.628448,-1.531900,-10.078062,-39.573730,-22.628551,-1.615268,5.803264,18.660282,20.375916,34.615417,47.924622,13.877181,64.530037,-0.784034,34.122387,29.505972,22.860355,10.540426,35.929466,46.348057,57.952000,22.119888,22.930632,45.830544,86.117325,47.774647,85.545753,0.000000,208.000000,4.000000,,,,0.000000,4.000000,0.000000,4.000000,4.000000,4.000000,4.000000,4.000000,4.000000,4.000000,4.000000,4.000000,4.000000,4.000000,4.000000,4.000000,4.000000,4.000000,4.000000,4.000000,4.000000,4.000000,4.000000,4.000000,4.000000,4.000000,4.000000,4.000000,4.000000,4.000000,4.000000,4.000000,4.000000,66.666664
1614040890.251051,79.000000,0.000000,-3.506961,-20.362926,-19.082544,-15.365107,-78.954254,-30.058359,-8.197035,-9.555163,-36.970055,-25.170025,-5.716217,3.233358,14.026237,8.560668,12.529519,22.235670,7.196637,33.183460,-20.783251,18.703648,22.809799,9.504162,7.452963,31.278152,34.506836,57.894051,8.764435,16.241034,45.784710,86.031212,47.214050,79.306358,0.000000,205.000000,4.000000,,,,0.000000,4.000000,0.000000,4.000000,4.000000,4.000000,4.000000,4.000000,4.000000,4.000000,4.000000,4.000000,4.000000,4.000000,4.000000,4.000000,4.000000,4.000000,4.000000,4.000000,4.000000,4.000000,4.000000,4.000000,4.000000,4.000000,4.000000,4.000000,4.000000,4.000000,4.000000,4.000000,4.000000,66.666664
1614040890.258700,80.000000,0.000000,-2.477813,-16.240000,-22.653204,-14.836922,-85.541962,-33.105225,-12.291402,-10.058429,-42.574112,-33.349983,-13.915628,-1.898080,4.781442,-3.242765,-9.534292,-9.581436,0.009953,0.842583,-52.044518,0.736226,18.684425,2.827991,7.958331,19.452003,27.805664,50.656670,11.832593,16.737614,45.738926,86.458000,48.192478,83.329620,0.000000,195.000000,4.000000,,,,0.000000,4.000000,0.000000,4.000000,4.000000,4.000000,4.000000,4.000000,4.000000,4.000000,4.000000,4.000000,4.000000,4.000000,4.000000,4.000000,4.000000,4.000000,4.000000,4.000000,4.000000,4.000000,4.000000,4.000000,4.000000,4.000000,4.000000,4.000000,4.000000,4.000000,4.000000,4.000000,4.000000,66.666664
1614040890.266449,81.000000,0.000000,4.191332,-10.582734,-27.758757,-15.334905,-87.507706,-34.097759,-9.202188,-10.048370,-45.608459,-32.290993,-19.542738,-1.896182,4.776660,-6.829266,-2.345271,0.684555,6.676610,17.764818,-37.633499,12.017541,18.665741,6.414907,10.514475,15.329987,27.265038,44.452164,19.513069,17.746517,44.667545,75.089485,45.580181,78.630905,0.000000,190.000000,4.000000,,,,0.000000,4.000000,0.000000,4.000000,4.000000,4.000000,4.000000,4.000000,4.000000,4.000000,4.000000,4.000000,4.000000,4.000000,4.000000,4.000000,4.000000,4.000000,4.000000,4.000000,4.000000,4.000000,4.000000,4.000000,4.000000,4.000000,4.000000,4.000000,4.000000,4.000000,4.000000,4.000000,4.000000,66.666664
1614040890.274098,82.000000,0.000000,6.238422,-10.572151,-25.679716,-14.806749,-74.599686,-23.807251,-4.577600,-9.012681,-32.742336,-23.540752,-16.446272,1.182637,8.361627,-9.899360,7.400664,13.504383,15.387882,40.823975,-16.570225,24.313215,14.544510,7.946953,10.503961,14.801836,21.596746,45.433353,16.929453,12.087746,42.058777,66.296448,42.970501,70.859962,0.000000,217.000000,4.000000,,,,0.000000,4.000000,0.000000,4.000000,4.000000,4.000000,4.000000,4.000000,4.000000,4.000000,4.000000,4.000000,4.000000,4.000000,4.000000,4.000000,4.000000,4.000000,4.000000,4.000000,4.000000,4.000000,4.000000,4.000000,4.000000,4.000000,4.000000,4.000000,4.000000,4.000000,4.000000,4.000000,4.000000,66.666664
1614040890.281848,83.000000,0.000000,4.693722,-15.176964,-18.474548,-9.663737,-65.807137,-15.065495,-6.111485,-12.593411,-27.581390,-26.594135,-20.019569,-0.357007,-1.903145,-19.633049,-1.324686,-10.611685,8.193007,24.372896,-29.374168,16.596596,7.863299,6.913365,8.442174,6.581906,16.446945,43.336639,13.835600,10.024375,41.503899,67.255798,43.440350,75.917313,0.000000,217.000000,4.000000,,,,0.000000,4.000000,0.000000,4.000000,4.000000,4.000000,4.000000,4.000000,4.000000,4.000000,4.000000,4.000000,4.000000,4.000000,4.000000,4.000000,4.000000,4.000000,4.000000,4.000000,4.000000,4.000000,4.000000,4.000000,4.000000,4.000000,4.000000,4.000000,4.000000,4.000000,4.000000,4.000000,4.000000,66.666664
1614040890.289497,84.000000,0.000000,5.201849,-15.161787,-14.866330,-6.577151,-67.279793,-17.101711,-10.207937,-20.273127,-39.348682,-37.336773,-26.666218,-2.407932,-15.747396,-26.792904,-10.041309,-25.472868,-2.071596,6.399805,-43.703766,10.426152,7.342615,6.906452,7.920911,-0.604163,16.430498,35.600994,14.847405,11.039992,41.975212,66.162895,43.396908,78.918312,0.000000,205.000000,4.000000,,,,0.000000,4.000000,0.000000,4.000000,4.000000,4.000000,4.000000,4.000000,4.000000,4.000000,4.000000,4.000000,4.000000,4.000000,4.000000,4.000000,4.000000,4.000000,4.000000,4.000000,4.000000,4.000000,4.000000,4.000000,4.000000,4.000000,4.000000,4.000000,4.000000,4.000000,4.000000,4.000000,4.000000,66.666664
1614040890.297346,85.000000,0.000000,5.709468,-6.941497,-15.877106,-7.083394,-67.725327,-20.161533,-10.710549,-20.765673,-41.360615,-40.376358,-23.562628,-2.405524,-13.167545,-29.330214,-7.979986,-13.652524,-0.531063,8.957507,-40.583141,12.979829,7.848093,8.950828,8.425811,0.422082,16.926889,34.026932,15.345379,8.464849,41.933239,62.506992,43.353512,71.147087,0.000000,187.000000,4.000000,,,,0.000000,4.000000,0.000000,4.000000,4.000000,4.000000,4.000000,4.000000,4.000000,4.000000,4.000000,4.000000,4.000000,4.000000,4.000000,4.000000,4.000000,4.000000,4.000000,4.000000,4.000000,4.000000,4.000000,4.000000,4.000000,4.000000,4.000000,4.000000,4.000000,4.000000,4.000000,4.000000,4.000000,66.666664
1614040890.305095,86.000000,0.000000,5.703758,-2.831991,-16.374048,-7.589131,-67.144783,-18.602909,-9.674198,-17.667984,-34.139767,-37.771881,-19.949322,-2.403119,-2.897968,-30.839344,-0.279699,-11.074769,3.059212,10.487012,-39.004097,12.966848,7.840245,10.993158,7.904565,1.447301,18.961245,37.582649,14.817213,7.943564,41.378487,63.982944,43.310158,68.511841,0.000000,208.000000,4.000000,,,,0.000000,4.000000,0.000000,4.000000,4.000000,4.000000,4.000000,4.000000,4.000000,4.000000,4.000000,4.000000,4.000000,4.000000,4.000000,4.000000,4.000000,4.000000,4.000000,4.000000,4.000000,4.000000,4.000000,4.000000,4.000000,4.000000,4.000000,4.000000,4.000000,4.000000,4.000000,4.000000,4.000000,66.666664
1614040890.312944,87.000000,0.000000,5.185234,-12.572749,-14.819213,-7.581542,-65.539177,-19.097128,-10.177344,-17.650316,-35.131268,-32.605904,-16.852449,0.676207,1.720315,-23.116198,9.464170,-12.089334,1.004870,12.527806,-43.580479,11.928241,7.319584,10.982165,7.896660,0.933034,20.993565,36.519424,14.289576,11.525364,41.849926,63.406143,43.266850,70.494614,0.000000,205.000000,4.000000,,,,0.000000,4.000000,0.000000,4.000000,4.000000,4.000000,4.000000,4.000000,4.000000,4.000000,4.000000,4.000000,4.000000,4.000000,4.000000,4.000000,4.000000,4.000000,4.000000,4.000000,4.000000,4.000000,4.000000,4.000000,4.000000,4.000000,4.000000,4.000000,4.000000,4.000000,4.000000,4.000000,4.000000,66.666664
1614040890.320693,88.000000,0.000000,4.154408,-21.278126,-15.830035,-7.573961,-59.319794,-19.590851,-10.679987,-16.094204,-30.993572,-25.906630,-7.604827,1.701172,5.821158,-3.093082,16.634193,7.922754,2.029507,18.669125,-44.562538,11.916312,2.184060,11.484004,8.401584,0.419280,17.895647,33.405983,15.300926,14.590762,41.808079,57.701710,43.223583,69.911293,0.000000,185.000000,4.000000,,,,0.000000,4.000000,0.000000,4.000000,4.000000,4.000000,4.000000,4.000000,4.000000,4.000000,4.000000,4.000000,4.000000,4.000000,4.000000,4.000000,4.000000,4.000000,4.000000,4.000000,4.000000,4.000000,4.000000,4.000000,4.000000,4.000000,4.000000,4.000000,4.000000,4.000000,4.000000,4.000000,4.000000,66.666664
1614040890.328542,89.000000,0.000000,2.098971,-15.103001,-21.455231,-7.053566,-56.183548,-19.571260,-10.669308,-14.026829,-22.244631,-23.316620,-5.033120,-8.044119,5.815338,7.166421,13.540637,9.453293,-0.536626,10.958148,-46.569256,6.263371,-5.510432,11.985340,4.803439,0.931681,16.852112,34.398216,13.747164,15.088991,40.227806,52.002983,43.180359,69.328560,0.000000,0.000000,4.000000,,,,0.000000,4.000000,0.000000,4.000000,4.000000,4.000000,4.000000,4.000000,4.000000,4.000000,4.000000,4.000000,4.000000,4.000000,4.000000,4.000000,4.000000,4.000000,4.000000,4.000000,4.000000,4.000000,4.000000,4.000000,4.000000,4.000000,4.000000,4.000000,4.000000,4.000000,4.000000,4.000000,4.000000,66.666664
1614040890.336291,90.000000,0.000000,-2.005692,-9.446873,-21.433775,-8.584974,-56.127365,-21.090151,-10.145818,-19.653828,-29.914694,-23.806124,-16.822958,-17.779665,-7.010991,-7.199719,-5.447263,-21.838211,-11.818140,1.716421,-51.138073,-1.435200,-9.094666,3.255406,0.183251,1.443570,17.860901,32.312538,7.579571,12.509800,38.136299,49.899700,43.649998,68.746414,0.000000,186.000000,4.000000,,,,0.000000,4.000000,0.000000,4.000000,4.000000,4.000000,4.000000,4.000000,4.000000,4.000000,4.000000,4.000000,4.000000,4.000000,4.000000,4.000000,4.000000,4.000000,4.000000,4.000000,4.000000,4.000000,4.000000,4.000000,4.000000,4.000000,4.000000,4.000000,4.000000,4.000000,4.000000,4.000000,4.000000,66.666664
1614040890.344140,91.000000,0.000000,-6.106250,-17.642553,-16.284136,-11.140491,-56.584061,-23.120342,-10.648492,-24.762379,-41.166828,-23.782318,-24.498444,-16.736244,-13.670647,-18.987391,-16.723867,-18.739450,-17.447348,24.791628,-36.727959,6.258543,-2.931725,-0.850413,0.183068,0.416485,11.176373,27.152020,3.469427,7.369085,36.559700,46.260056,43.606350,66.113564,0.000000,193.000000,4.000000,,,,0.000000,4.000000,0.000000,4.000000,4.000000,4.000000,4.000000,4.000000,4.000000,4.000000,4.000000,4.000000,4.000000,4.000000,4.000000,4.000000,4.000000,4.000000,4.000000,4.000000,4.000000,4.000000,4.000000,4.000000,4.000000,4.000000,4.000000,4.000000,4.000000,4.000000,4.000000,4.000000,4.000000,66.666664
1614040890.351889,92.000000,0.000000,-5.587323,-20.701834,-17.806314,-7.539608,-57.553116,-23.610043,-10.637844,-23.199154,-30.869253,-23.758535,-20.371382,-13.129764,-1.862104,-12.301737,2.780036,14.099802,-10.763233,54.510426,-11.563026,21.636900,9.891720,14.022232,0.695705,0.928889,7.575453,26.612047,7.055701,10.951460,34.984680,42.624050,43.049923,64.508987,0.000000,208.000000,4.000000,,,,0.000000,4.000000,0.000000,4.000000,4.000000,4.000000,4.000000,4.000000,4.000000,4.000000,4.000000,4.000000,4.000000,4.000000,4.000000,4.000000,4.000000,4.000000,4.000000,4.000000,4.000000,4.000000,4.000000,4.000000,4.000000,4.000000,4.000000,4.000000,4.000000,4.000000,4.000000,4.000000,4.000000,66.666664
1614040890.359738,93.000000,0.000000,-5.068915,-4.270876,-14.711584,-1.378222,-50.828896,-21.022329,-6.011821,-20.099033,-15.966589,-21.170675,-18.299728,-12.603814,2.242322,-15.879179,8.418282,0.239549,-4.598624,24.712326,-29.500181,12.897314,10.907470,21.700518,0.182189,7.081807,18.849928,30.175179,11.151210,21.196918,33.924053,46.171173,43.519691,67.008583,0.000000,155.000000,4.000000,,,,0.000000,4.000000,0.000000,4.000000,4.000000,4.000000,4.000000,4.000000,4.000000,4.000000,4.000000,4.000000,4.000000,4.000000,4.000000,4.000000,4.000000,4.000000,4.000000,4.000000,4.000000,4.000000,4.000000,4.000000,4.000000,4.000000,4.000000,4.000000,4.000000,4.000000,4.000000,4.000000,4.000000,66.666664
1614040890.367487,94.000000,0.000000,-8.140770,5.476985,3.251845,0.161618,-37.444733,-16.898743,-0.364784,-17.002010,-15.437801,-17.559761,-21.358351,-11.565569,-7.503510,-31.247915,-20.820906,-32.068382,-6.645308,-7.620079,-61.778374,-3.525840,0.640152,8.345484,0.182007,12.715751,29.087488,30.657824,11.140059,22.714184,33.890129,53.817307,44.501812,72.582603,0.000000,173.000000,4.000000,,,,0.000000,4.000000,0.000000,4.000000,4.000000,4.000000,4.000000,4.000000,4.000000,4.000000,4.000000,4.000000,4.000000,4.000000,4.000000,4.000000,4.000000,4.000000,4.000000,4.000000,4.000000,4.000000,4.000000,4.000000,4.000000,4.000000,4.000000,4.000000,4.000000,4.000000,4.000000,4.000000,4.000000,66.666664
1614040890.375336,95.000000,0.000000,-1.465962,-7.861825,12.479362,-0.864185,-34.330368,-16.369024,1.686863,-13.395265,-15.422363,-16.003738,-16.721607,-9.502721,0.709122,-18.908976,-15.159059,-19.728622,-6.638662,13.926003,-47.357620,11.862301,4.742075,8.337138,0.181825,12.190214,28.032761,28.063063,10.616097,21.153008,34.369061,53.250671,39.841927,72.510017,0.000000,175.000000,4.000000,,,,0.000000,4.000000,0.000000,4.000000,4.000000,4.000000,4.000000,4.000000,4.000000,4.000000,4.000000,4.000000,4.000000,4.000000,4.000000,4.000000,4.000000,4.000000,4.000000,4.000000,4.000000,4.000000,4.000000,4.000000,4.000000,4.000000,4.000000,4.000000,4.000000,4.000000,4.000000,4.000000,4.000000,66.666664
1614040890.383085,96.000000,0.000000,8.791914,-20.674477,9.902781,-0.863321,-35.321678,-16.352655,1.172356,-12.869049,-11.817198,-13.936454,-5.422835,-5.390655,19.169950,5.212498,17.676613,13.111619,-4.067921,46.732590,-22.694880,27.747875,17.557846,22.174955,0.694463,12.178024,27.491907,26.496538,11.118302,23.183136,34.334690,48.069214,35.699520,68.847763,8064.000000,0.000000,4.000000,,,,0.000000,4.000000,0.000000,4.000000,4.000000,4.000000,4.000000,4.000000,4.000000,4.000000,4.000000,4.000000,4.000000,4.000000,4.000000,4.000000,4.000000,4.000000,4.000000,4.000000,4.000000,4.000000,4.000000,4.000000,4.000000,4.000000,4.000000,4.000000,4.000000,4.000000,4.000000,4.000000,4.000000,66.666664
1614040890.390934,97.000000,0.000000,1.090814,-15.525597,14.508263,0.163184,-29.132509,-14.797841,0.658363,-13.369000,-11.805381,-12.384055,-4.391771,-7.436546,10.432833,-8.126048,6.889706,0.277994,-5.602315,23.608934,-50.877312,9.771409,11.899262,18.563036,0.693769,14.729949,29.002876,26.982862,11.620005,16.493286,32.761894,51.610889,38.740746,69.804558,8064.000000,0.000000,4.000000,,,,0.000000,4.000000,0.000000,4.000000,4.000000,4.000000,4.000000,4.000000,4.000000,4.000000,4.000000,4.000000,4.000000,4.000000,4.000000,4.000000,4.000000,4.000000,4.000000,4.000000,4.000000,4.000000,4.000000,4.000000,4.000000,4.000000,4.000000,4.000000,4.000000,4.000000,4.000000,4.000000,4.000000,66.666664
1614040890.398683,98.000000,0.000000,-11.217969,-5.253661,16.545036,-0.862620,-27.052095,-17.859966,-1.393578,-12.842811,-12.819216,-13.397312,-13.618149,-14.095776,-4.449395,-28.630743,-15.168467,-24.850489,-6.622354,8.713530,-53.903358,6.684714,4.707876,16.493191,-0.332566,16.253679,25.896950,26.955879,11.095564,4.169101,30.677851,56.687481,37.676361,68.709114,8064.000000,0.000000,4.000000,,,,0.000000,4.000000,0.000000,4.000000,4.000000,4.000000,4.000000,4.000000,4.000000,4.000000,4.000000,4.000000,4.000000,4.000000,4.000000,4.000000,4.000000,4.000000,4.000000,4.000000,4.000000,4.000000,4.000000,4.000000,4.000000,4.000000,4.000000,4.000000,4.000000,4.000000,4.000000,4.000000,4.000000,66.666664
1614040890.406332,99.000000,0.000000,-4.540084,-3.709946,9.349004,-0.861758,-27.025043,-19.893389,-3.443466,-12.829968,-13.319218,-10.819813,-14.630172,-8.953475,8.375567,-16.294418,11.513369,4.917952,3.127859,41.525330,-21.028942,35.395977,17.523682,32.374134,3.257510,15.724606,24.845413,26.416103,11.084469,3.652111,30.134352,51.502590,29.946379,59.409634,8064.000000,0.000000,4.000000,,,,0.000000,4.000000,0.000000,4.000000,4.000000,4.000000,4.000000,4.000000,4.000000,4.000000,4.000000,4.000000,4.000000,4.000000,4.000000,4.000000,4.000000,4.000000,4.000000,4.000000,4.000000,4.000000,4.000000,4.000000,4.000000,4.000000,4.000000,4.000000,4.000000,4.000000,4.000000,4.000000,4.000000,66.666664
1614040890.414081,100.000000,0.000000,2.643943,-9.347261,17.031963,4.267309,-14.690326,-10.642725,-2.927202,-13.329959,-12.280257,-4.142326,-8.461696,3.875991,23.238987,0.132132,24.835188,10.554059,10.304218,44.047905,-14.854067,35.360584,22.634363,32.854580,10.433740,15.708881,29.435951,27.415329,11.586205,9.802305,30.104218,48.886986,30.429253,58.837402,8064.000000,0.000000,4.000000,,,,0.000000,4.000000,0.000000,4.000000,4.000000,4.000000,4.000000,4.000000,4.000000,4.000000,4.000000,4.000000,4.000000,4.000000,4.000000,4.000000,4.000000,4.000000,4.000000,4.000000,4.000000,4.000000,4.000000,4.000000,4.000000,4.000000,4.000000,4.000000,4.000000,4.000000,4.000000,4.000000,4.000000,66.666664
1614040890.421731,101.000000,0.000000,-1.461265,-11.902017,30.348265,12.468170,-1.855122,-0.375672,-2.924275,-13.316628,-10.216695,-1.061261,-7.940413,3.872115,13.984979,-2.944924,0.194969,-21.251366,-0.475317,11.696166,-47.146904,10.709837,15.432241,16.924290,11.448947,15.693172,32.483440,25.849451,10.036157,10.818144,30.586933,51.402199,36.552670,70.573441,8064.000000,0.000000,4.000000,,,,0.000000,4.000000,0.000000,4.000000,4.000000,4.000000,4.000000,4.000000,4.000000,4.000000,4.000000,4.000000,4.000000,4.000000,4.000000,4.000000,4.000000,4.000000,4.000000,4.000000,4.000000,4.000000,4.000000,4.000000,4.000000,4.000000,4.000000,4.000000,4.000000,4.000000,4.000000,4.000000,4.000000,66.666664
1614040890.429480,102.000000,0.000000,-1.972624,-8.813191,21.087147,15.019804,-3.904549,-1.400938,-3.434171,-13.303312,-9.180838,-2.085840,-7.932473,-2.798424,4.740224,-4.993261,2.758877,-3.281397,-9.192790,30.658829,-35.817707,15.314512,19.006552,16.907366,8.360575,15.677480,31.938135,21.721039,7.974839,9.781685,30.556347,47.761055,35.490475,73.579788,8064.000000,0.000000,4.000000,,,,0.000000,4.000000,0.000000,4.000000,4.000000,4.000000,4.000000,4.000000,4.000000,4.000000,4.000000,4.000000,4.000000,4.000000,4.000000,4.000000,4.000000,4.000000,4.000000,4.000000,4.000000,4.000000,4.000000,4.000000,4.000000,4.000000,4.000000,4.000000,4.000000,4.000000,4.000000,4.000000,4.000000,66.666664
1614040890.437129,103.000000,0.000000,-5.047575,-6.753097,7.732726,13.466323,-9.541670,-5.502101,-2.917917,-13.290009,-8.658835,-2.083755,-4.847617,-2.795625,7.299586,-1.911344,15.576631,25.439833,-5.593854,54.217915,-12.704966,22.478685,19.500366,20.993023,7.839394,16.174622,30.880556,18.622395,7.966864,10.797544,28.474508,39.508167,31.865242,64.275436,8064.000000,0.000000,4.000000,,,,0.000000,4.000000,0.000000,4.000000,4.000000,4.000000,4.000000,4.000000,4.000000,4.000000,4.000000,4.000000,4.000000,4.000000,4.000000,4.000000,4.000000,4.000000,4.000000,4.000000,4.000000,4.000000,4.000000,4.000000,4.000000,4.000000,4.000000,4.000000,4.000000,4.000000,4.000000,4.000000,4.000000,66.666664
1614040890.444878,104.000000,0.000000,-12.222014,-9.823267,10.289096,13.965677,-9.019308,-4.470958,-2.914999,-13.789539,-6.598895,-1.568850,-5.868411,-1.254368,4.215364,-4.986356,-9.054331,-6.893299,-11.229286,21.856003,-44.999954,-0.620717,5.121892,12.254081,8.344376,13.594345,30.849676,19.116592,3.343512,11.299567,26.394751,36.391735,31.833376,61.134239,8064.000000,0.000000,4.000000,,,,0.000000,4.000000,0.000000,4.000000,4.000000,4.000000,4.000000,4.000000,4.000000,4.000000,4.000000,4.000000,4.000000,4.000000,4.000000,4.000000,4.000000,4.000000,4.000000,4.000000,4.000000,4.000000,4.000000,4.000000,4.000000,4.000000,4.000000,4.000000,4.000000,4.000000,4.000000,4.000000,4.000000,66.666664
1614040890.452527,105.000000,0.000000,-6.568767,-13.916007,13.355730,17.028635,-8.497468,-4.466487,-3.424904,-11.724468,-5.053834,-2.080102,-8.426644,-2.278754,-0.917057,-11.135216,-26.481174,-34.578712,-16.859081,-6.370981,-74.185722,-12.414968,-2.062717,9.164904,8.336031,7.939725,32.357288,19.610296,-0.762395,10.775447,26.881178,37.893803,33.340004,62.611568,8064.000000,0.000000,4.000000,,,,0.000000,4.000000,0.000000,4.000000,4.000000,4.000000,4.000000,4.000000,4.000000,4.000000,4.000000,4.000000,4.000000,4.000000,4.000000,4.000000,4.000000,4.000000,4.000000,4.000000,4.000000,4.000000,4.000000,4.000000,4.000000,4.000000,4.000000,4.000000,4.000000,4.000000,4.000000,4.000000,4.000000,66.666664
1614040890.460276,106.000000,0.000000,2.155751,-8.261065,8.726990,18.037247,-9.514611,-4.462020,-2.908659,-7.610179,-5.561601,-2.078022,-5.854115,-0.225194,-1.428960,-11.124081,-14.147000,-8.903110,-4.534531,22.353338,-53.085896,5.033344,-0.009372,13.771123,8.327695,7.418965,29.760828,20.103506,3.340931,10.764671,25.315834,38.881550,31.768204,56.395111,8064.000000,0.000000,4.000000,,,,0.000000,4.000000,0.000000,4.000000,4.000000,4.000000,4.000000,4.000000,4.000000,4.000000,4.000000,4.000000,4.000000,4.000000,4.000000,4.000000,4.000000,4.000000,4.000000,4.000000,4.000000,4.000000,4.000000,4.000000,4.000000,4.000000,4.000000,4.000000,4.000000,4.000000,4.000000,4.000000,4.000000,66.666664
1614040890.467925,107.000000,0.000000,-5.025892,-2.611779,7.692622,17.506390,-9.505097,-2.406276,-2.905750,-5.551287,-6.068860,-2.588764,-5.335441,1.826313,-2.453172,-9.574495,-12.594392,-1.201899,0.598209,25.920729,-45.853321,8.105234,-0.009363,14.270172,5.755264,9.462828,17.936195,19.570581,2.311949,10.753907,20.675135,35.765747,26.095409,44.543842,8064.000000,0.000000,4.000000,,,,0.000000,4.000000,0.000000,4.000000,4.000000,4.000000,4.000000,4.000000,4.000000,4.000000,4.000000,4.000000,4.000000,4.000000,4.000000,4.000000,4.000000,4.000000,4.000000,4.000000,4.000000,4.000000,4.000000,4.000000,4.000000,4.000000,4.000000,4.000000,4.000000,4.000000,4.000000,4.000000,4.000000,66.666664
1614040890.475674,108.000000,0.000000,-10.149071,-14.916860,9.223391,17.488882,-9.495592,-0.865408,-3.415665,-6.058556,-5.549971,-2.073355,-4.817285,1.311667,2.164665,-12.641844,-16.171541,-21.200697,-6.069056,9.997373,-58.627983,3.481744,4.093210,17.845646,4.723868,7.402083,17.405437,19.038191,-0.254465,10.743154,18.090357,31.627417,20.941109,38.345451,8064.000000,0.000000,4.000000,,,,0.000000,4.000000,0.000000,4.000000,4.000000,4.000000,4.000000,4.000000,4.000000,4.000000,4.000000,4.000000,4.000000,4.000000,4.000000,4.000000,4.000000,4.000000,4.000000,4.000000,4.000000,4.000000,4.000000,4.000000,4.000000,4.000000,4.000000,4.000000,4.000000,4.000000,4.000000,4.000000,4.000000,66.666664
1614040890.483324,109.000000,0.000000,-4.497897,-23.619892,9.214167,17.471394,-9.998917,-1.377364,-2.386608,-3.488395,-3.493139,-0.020000,4.931122,1.310355,18.059937,-6.988176,7.434374,-7.333342,7.270346,39.218143,-33.953968,26.042366,15.371168,30.135492,7.283247,9.445963,31.747007,20.557615,12.053481,10.732410,21.662010,31.082970,20.407347,40.358391,8064.000000,0.000000,4.000000,,,,0.000000,4.000000,0.000000,4.000000,4.000000,4.000000,4.000000,4.000000,4.000000,4.000000,4.000000,4.000000,4.000000,4.000000,4.000000,4.000000,4.000000,4.000000,4.000000,4.000000,4.000000,4.000000,4.000000,4.000000,4.000000,4.000000,4.000000,4.000000,4.000000,4.000000,4.000000,4.000000,4.000000,66.666664
1614040890.491073,110.000000,0.000000,-0.390834,-1.032169,9.204953,17.453922,-9.988918,-1.375986,0.179881,-1.946445,-1.951184,2.031302,14.669781,1.821865,30.862389,7.890607,34.093605,25.494505,21.109230,71.999435,-6.740529,42.939400,20.996822,36.772022,7.788784,21.231388,31.202440,18.998596,17.682453,10.721678,23.691629,26.949322,21.412580,39.292389,8064.000000,0.000000,4.000000,,,,0.000000,4.000000,0.000000,4.000000,4.000000,4.000000,4.000000,4.000000,4.000000,4.000000,4.000000,4.000000,4.000000,4.000000,4.000000,4.000000,4.000000,4.000000,4.000000,4.000000,4.000000,4.000000,4.000000,4.000000,4.000000,4.000000,4.000000,4.000000,4.000000,4.000000,4.000000,4.000000,4.000000,66.666664
1614040890.498722,111.000000,0.000000,-1.928905,12.302197,8.682927,17.436468,-9.466108,-1.374610,1.205342,-2.457319,-1.949233,1.516451,11.065368,0.281582,27.241783,8.908358,28.931307,25.981831,6.216326,56.030003,-25.195326,23.409281,17.386082,25.966021,4.704072,24.799902,13.735339,8.210366,1.767335,10.710956,20.591015,15.127501,20.878347,30.535149,8064.000000,0.000000,4.000000,,,,0.000000,4.000000,0.000000,4.000000,4.000000,4.000000,4.000000,4.000000,4.000000,4.000000,4.000000,4.000000,4.000000,4.000000,4.000000,4.000000,4.000000,4.000000,4.000000,4.000000,4.000000,4.000000,4.000000,4.000000,4.000000,4.000000,4.000000,4.000000,4.000000,4.000000,4.000000,4.000000,4.000000,66.666664
1614040890.506471,112.000000,0.000000,-2.439797,-13.351131,9.187065,17.419033,-10.482284,-1.373236,0.691316,-2.454862,-2.460104,1.002114,5.413276,-2.282802,19.009413,-3.408243,7.876735,-5.839024,-10.200147,38.025257,-40.554745,8.514076,14.291774,15.170824,3.160907,10.928947,7.567758,-0.002973,-6.952381,10.700245,15.955039,11.009809,21.370291,28.966152,8064.000000,0.000000,4.000000,,,,0.000000,4.000000,0.000000,4.000000,4.000000,4.000000,4.000000,4.000000,4.000000,4.000000,4.000000,4.000000,4.000000,4.000000,4.000000,4.000000,4.000000,4.000000,4.000000,4.000000,4.000000,4.000000,4.000000,4.000000,4.000000,4.000000,4.000000,4.000000,4.000000,4.000000,4.000000,4.000000,4.000000,66.666664
1614040890.514120,113.000000,0.000000,-1.411716,-24.107012,9.690699,17.401613,-9.446160,-1.371862,0.690625,-1.939587,-1.944824,2.026752,6.946325,-2.793340,18.477583,-2.379194,6.843218,-7.884467,-7.625844,54.910309,-21.027012,15.685050,16.841583,18.745398,5.721848,-0.364033,13.201216,2.048312,2.285341,11.202365,15.939084,15.614183,21.348919,35.603851,8064.000000,0.000000,4.000000,,,,0.000000,4.000000,0.000000,4.000000,4.000000,4.000000,4.000000,4.000000,4.000000,4.000000,4.000000,4.000000,4.000000,4.000000,4.000000,4.000000,4.000000,4.000000,4.000000,4.000000,4.000000,4.000000,4.000000,4.000000,4.000000,4.000000,4.000000,4.000000,4.000000,4.000000,4.000000,4.000000,4.000000,66.666664
1614040890.521969,114.000000,0.000000,-0.897484,2.583763,7.629726,17.897032,-3.795688,-0.857670,1.202755,-2.450467,-1.430058,2.024726,6.426558,-2.277726,17.946285,2.751390,11.964580,17.251623,-5.054116,63.060524,-17.929062,11.053980,14.773460,21.803576,3.664845,3.226075,14.213655,5.123187,5.872799,11.191163,16.435966,14.572928,21.327570,35.055428,8064.000000,0.000000,4.000000,,,,0.000000,4.000000,0.000000,4.000000,4.000000,4.000000,4.000000,4.000000,4.000000,4.000000,4.000000,4.000000,4.000000,4.000000,4.000000,4.000000,4.000000,4.000000,4.000000,4.000000,4.000000,4.000000,4.000000,4.000000,4.000000,4.000000,4.000000,4.000000,4.000000,4.000000,4.000000,4.000000,4.000000,66.666664
1614040890.529718,115.000000,0.000000,-3.460689,9.247846,5.057993,17.366314,0.823492,-1.882453,1.201552,-2.448017,-2.454269,0.997060,0.779106,-2.275449,6.646288,-13.148797,-9.073026,-1.739988,-9.664446,30.689772,-50.218826,-5.367331,1.938174,10.499720,-3.518308,6.299772,11.122519,4.605244,2.790003,10.154330,15.906710,11.481433,21.819063,30.404987,8064.000000,0.000000,4.000000,,,,0.000000,4.000000,0.000000,4.000000,4.000000,4.000000,4.000000,4.000000,4.000000,4.000000,4.000000,4.000000,4.000000,4.000000,4.000000,4.000000,4.000000,4.000000,4.000000,4.000000,4.000000,4.000000,4.000000,4.000000,4.000000,4.000000,4.000000,4.000000,4.000000,4.000000,4.000000,4.000000,4.000000,66.666664
1614040890.537567,116.000000,0.000000,-4.995690,-12.812684,10.693961,17.861769,2.361130,-0.854930,0.687530,-2.445569,-1.938994,2.021704,-2.298597,-2.785994,-3.616769,-28.007442,-31.628056,-34.045940,-11.706064,-1.135789,-73.758347,-8.951707,-8.832994,1.771271,-7.104533,3.216549,13.162679,5.113459,3.300034,10.656997,14.865162,13.008412,19.233143,29.861763,8064.000000,0.000000,4.000000,,,,0.000000,4.000000,0.000000,4.000000,4.000000,4.000000,4.000000,4.000000,4.000000,4.000000,4.000000,4.000000,4.000000,4.000000,4.000000,4.000000,4.000000,4.000000,4.000000,4.000000,4.000000,4.000000,4.000000,4.000000,4.000000,4.000000,4.000000,4.000000,4.000000,4.000000,4.000000,4.000000,4.000000,66.666664
1614040890.545316,117.000000,0.000000,-2.939412,-16.389616,13.760190,18.356728,6.974154,2.222848,0.686843,-2.443123,1.652688,7.147887,-1.270657,-2.270387,2.540694,-17.723026,-18.263094,-17.088818,-8.617435,11.173039,-59.838436,-6.378653,-6.772880,6.897705,-4.020505,1.162050,13.662336,4.082704,4.322375,11.671981,11.773374,9.405661,15.624166,21.626772,8064.000000,0.000000,4.000000,,,,0.000000,4.000000,0.000000,4.000000,4.000000,4.000000,4.000000,4.000000,4.000000,4.000000,4.000000,4.000000,4.000000,4.000000,4.000000,4.000000,4.000000,4.000000,4.000000,4.000000,4.000000,4.000000,4.000000,4.000000,4.000000,4.000000,4.000000,4.000000,4.000000,4.000000,4.000000,4.000000,4.000000,66.666664
1614040890.553165,118.000000,0.000000,-2.423652,-0.988610,5.028481,13.722986,9.531281,1.707805,1.198976,-3.979142,2.163856,7.653560,-1.782207,0.295986,9.204821,-3.346328,1.755169,15.748785,-0.916510,37.828533,-36.188854,-3.295351,-4.202004,10.480551,-2.478023,0.648068,5.956367,-0.023943,3.805232,6.019283,5.607754,0.678306,12.018798,6.220531,8064.000000,0.000000,4.000000,,,,0.000000,4.000000,0.000000,4.000000,4.000000,4.000000,4.000000,4.000000,4.000000,4.000000,4.000000,4.000000,4.000000,4.000000,4.000000,4.000000,4.000000,4.000000,4.000000,4.000000,4.000000,4.000000,4.000000,4.000000,4.000000,4.000000,4.000000,4.000000,4.000000,4.000000,4.000000,4.000000,4.000000,66.666664
1614040890.560914,119.000000,0.000000,-5.498151,2.089302,-5.232957,7.042596,1.829443,-5.986211,-0.340684,-6.539265,-3.479333,-0.559222,-1.267604,0.808510,8.682795,-2.830161,2.266234,2.912523,5.751073,38.816345,-28.973179,3.887432,-4.197802,10.982891,-3.501186,-1.403862,-1.741898,-3.100842,3.801426,-3.730326,0.986761,-3.424936,10.468317,1.598925,8064.000000,0.000000,4.000000,,,,0.000000,4.000000,0.000000,4.000000,4.000000,4.000000,4.000000,4.000000,4.000000,4.000000,4.000000,4.000000,4.000000,4.000000,4.000000,4.000000,4.000000,4.000000,4.000000,4.000000,4.000000,4.000000,4.000000,4.000000,4.000000,4.000000,4.000000,4.000000,4.000000,4.000000,4.000000,4.000000,4.000000,66.666664
1614040890.568763,120.000000,0.000000,-5.492653,-1.502531,-7.279006,4.984272,-3.300592,-10.595609,-2.391626,-6.532726,-5.527136,-4.661227,1.297766,2.858984,17.392061,-1.288870,10.981916,-4.782697,6.258143,40.828812,-27.405745,12.601493,2.473062,17.125753,-2.984864,-2.940920,0.311126,-1.559279,3.797625,-3.726595,0.472954,-2.395870,9.945028,3.648608,8064.000000,0.000000,4.000000,,,,0.000000,4.000000,0.000000,4.000000,4.000000,4.000000,4.000000,4.000000,4.000000,4.000000,4.000000,4.000000,4.000000,4.000000,4.000000,4.000000,4.000000,4.000000,4.000000,4.000000,4.000000,4.000000,4.000000,4.000000,4.000000,4.000000,4.000000,4.000000,4.000000,4.000000,4.000000,4.000000,4.000000,66.666664
1614040890.576512,121.000000,0.000000,-4.974340,0.037433,-3.681984,6.517749,4.395017,-6.995270,-2.902055,-3.449270,-2.444686,3.035742,2.834930,5.933048,29.682362,6.404727,29.432474,24.965675,6.251885,56.685417,-24.301416,17.204277,10.162897,23.262474,-2.469059,-1.912338,5.951841,1.006383,4.819468,2.430977,3.036584,0.170628,10.447904,2.619319,8064.000000,0.000000,4.000000,,,,0.000000,4.000000,0.000000,4.000000,4.000000,4.000000,4.000000,4.000000,4.000000,4.000000,4.000000,4.000000,4.000000,4.000000,4.000000,4.000000,4.000000,4.000000,4.000000,4.000000,4.000000,4.000000,4.000000,4.000000,4.000000,4.000000,4.000000,4.000000,4.000000,4.000000,4.000000,4.000000,4.000000,66.666664
1614040890.584361,122.000000,0.000000,-5.995007,0.550216,-0.088558,6.511231,12.595750,-2.372890,-2.899153,-1.907359,-1.416600,13.801937,2.832095,2.337371,26.062935,11.013707,27.864580,29.556093,5.732812,54.064629,-30.430962,15.648610,7.588631,22.213572,-2.979411,-2.423246,7.997171,1.518197,6.353111,3.967008,4.572009,3.760201,8.386174,5.180802,8064.000000,0.000000,4.000000,,,,0.000000,4.000000,0.000000,4.000000,4.000000,4.000000,4.000000,4.000000,4.000000,4.000000,4.000000,4.000000,4.000000,4.000000,4.000000,4.000000,4.000000,4.000000,4.000000,4.000000,4.000000,4.000000,4.000000,4.000000,4.000000,4.000000,4.000000,4.000000,4.000000,4.000000,4.000000,4.000000,4.000000,66.666664
1614040890.592110,123.000000,0.000000,-4.963371,0.036845,-0.088470,5.479079,12.070333,-1.344876,-2.896253,-2.418272,-2.440825,16.865059,3.342083,-1.767530,17.318924,9.977053,18.093124,12.090641,5.727079,50.420822,-25.785145,16.658604,8.093863,21.678537,-2.976431,-2.420823,9.014814,1.516678,7.885219,2.937400,5.080257,5.807723,5.300865,11.329468,8064.000000,0.000000,4.000000,,,,0.000000,4.000000,0.000000,4.000000,4.000000,4.000000,4.000000,4.000000,4.000000,4.000000,4.000000,4.000000,4.000000,4.000000,4.000000,4.000000,4.000000,4.000000,4.000000,4.000000,4.000000,4.000000,4.000000,4.000000,4.000000,4.000000,4.000000,4.000000,4.000000,4.000000,4.000000,4.000000,4.000000,66.666664
1614040890.599959,124.000000,0.000000,-5.471228,1.575270,-1.626843,6.499241,11.545443,-1.343531,-2.893357,-1.903034,-1.925563,16.848194,1.287459,-1.252942,17.301605,4.326049,18.587852,13.617011,7.259814,68.831940,-4.220899,24.334251,16.803719,23.195320,-2.460634,3.735444,10.031441,2.027982,8.902975,3.447283,5.075177,6.314736,3.244282,11.318138,8064.000000,0.000000,4.000000,,,,0.000000,4.000000,0.000000,4.000000,4.000000,4.000000,4.000000,4.000000,4.000000,4.000000,4.000000,4.000000,4.000000,4.000000,4.000000,4.000000,4.000000,4.000000,4.000000,4.000000,4.000000,4.000000,4.000000,4.000000,4.000000,4.000000,4.000000,4.000000,4.000000,4.000000,4.000000,4.000000,4.000000,66.666664
1614040890.607709,125.000000,0.000000,-11.619603,-0.990408,-1.112396,10.082485,16.149282,-1.342188,-3.403284,-2.413951,-1.410817,16.831345,-2.303572,-8.431176,15.745842,-2.857764,9.338495,7.449548,0.585888,57.481056,-19.088472,15.079148,7.556145,18.043921,-2.970994,6.295811,10.021410,-1.050969,3.253046,2.931015,5.582922,4.257139,2.728217,7.717076,8064.000000,0.000000,4.000000,,,,0.000000,4.000000,0.000000,4.000000,4.000000,4.000000,4.000000,4.000000,4.000000,4.000000,4.000000,4.000000,4.000000,4.000000,4.000000,4.000000,4.000000,4.000000,4.000000,4.000000,4.000000,4.000000,4.000000,4.000000,4.000000,4.000000,4.000000,4.000000,4.000000,4.000000,4.000000,4.000000,4.000000,66.666664
1614040890.615557,126.000000,0.000000,-14.684906,-4.579161,-2.136924,9.046762,16.645952,-0.828025,-5.963984,-6.001281,-1.922227,9.122206,-3.839730,-20.217617,8.037788,-13.624137,-17.337509,-16.147644,-14.286493,25.115883,-51.377075,-12.628239,-17.579617,9.820747,-5.532125,-2.428433,9.498568,-5.665302,-5.980976,-0.148839,5.577339,1.175959,3.751130,7.196538,8064.000000,0.000000,4.000000,,,,0.000000,4.000000,0.000000,4.000000,4.000000,4.000000,4.000000,4.000000,4.000000,4.000000,4.000000,4.000000,4.000000,4.000000,4.000000,4.000000,4.000000,4.000000,4.000000,4.000000,4.000000,4.000000,4.000000,4.000000,4.000000,4.000000,4.000000,4.000000,4.000000,4.000000,4.000000,4.000000,4.000000,66.666664
1614040890.623307,127.000000,0.000000,-10.567657,0.040802,-1.109146,6.473612,12.013923,-1.340018,-6.983661,-9.585023,-1.920305,-0.630506,-10.502557,-16.607656,-2.739480,-35.661793,-41.422737,-40.234062,-16.323488,8.167690,-56.453903,-22.359200,-22.177422,9.810926,-7.577876,-11.143953,9.489069,-6.685278,-8.026278,-1.687152,5.058941,2.713244,5.798661,10.266265,8064.000000,0.000000,4.000000,,,,0.000000,4.000000,0.000000,4.000000,4.000000,4.000000,4.000000,4.000000,4.000000,4.000000,4.000000,4.000000,4.000000,4.000000,4.000000,4.000000,4.000000,4.000000,4.000000,4.000000,4.000000,4.000000,4.000000,4.000000,4.000000,4.000000,4.000000,4.000000,4.000000,4.000000,4.000000,4.000000,4.000000,66.666664
1614040890.630956,0.000000,0.000000,-8.505808,0.040762,5.045809,11.082523,12.001908,-1.338678,-6.463856,-10.088259,-1.918384,-2.681157,-22.799747,-9.924381,-13.505972,-54.600491,-52.663364,-60.193829,-10.666140,5.595420,-44.089760,-12.080430,-8.821910,10.313936,-6.544657,-9.594348,9.479580,-5.652952,-3.915687,2.417100,5.566703,5.274634,7.331324,11.794460,0.000000,195.000000,4.000000,,,,0.000000,4.000000,0.000000,4.000000,4.000000,4.000000,4.000000,4.000000,4.000000,4.000000,4.000000,4.000000,4.000000,4.000000,4.000000,4.000000,4.000000,4.000000,4.000000,4.000000,4.000000,4.000000,4.000000,4.000000,4.000000,4.000000,4.000000,4.000000,4.000000,4.000000,4.000000,4.000000,4.000000,66.666664
1614040890.638705,1.000000,0.000000,-9.010122,-14.831074,0.425379,11.584262,15.579650,-1.337339,-6.457393,-9.565350,-4.480568,-5.242579,-20.212845,-9.914457,-6.312979,-43.263840,-40.815830,-45.774658,-10.655474,-3.128124,-57.379002,-12.068350,-8.813088,8.252340,-6.538112,-5.482190,6.393178,-6.160120,-3.398951,7.030067,5.048316,-2.935769,5.272710,10.244205,0.000000,200.000000,4.000000,,,,0.000000,4.000000,0.000000,4.000000,4.000000,4.000000,4.000000,4.000000,4.000000,4.000000,4.000000,4.000000,4.000000,4.000000,4.000000,4.000000,4.000000,4.000000,4.000000,4.000000,4.000000,4.000000,4.000000,4.000000,4.000000,4.000000,4.000000,4.000000,4.000000,4.000000,4.000000,4.000000,4.000000,66.666664
1614040890.646354,2.000000,0.000000,-6.437010,-15.841884,-14.446841,1.829087,8.384583,-0.823181,-6.450935,-9.555784,-6.014550,-9.852721,-5.320837,-2.212235,16.257437,-11.938525,-7.954501,-12.908372,-2.439690,29.182695,-46.552391,-3.338333,-8.804276,17.474857,-8.070036,-7.015169,1.771400,-6.153959,-3.908372,7.535858,2.991985,-13.189243,1.677694,8.182678,0.000000,217.000000,4.000000,,,,0.000000,4.000000,0.000000,4.000000,4.000000,4.000000,4.000000,4.000000,4.000000,4.000000,4.000000,4.000000,4.000000,4.000000,4.000000,4.000000,4.000000,4.000000,4.000000,4.000000,4.000000,4.000000,4.000000,4.000000,4.000000,4.000000,4.000000,4.000000,4.000000,4.000000,4.000000,4.000000,4.000000,66.666664
1614040890.654103,3.000000,0.000000,-4.379291,4.686779,-15.458035,-1.249665,3.247994,-1.335178,-6.957305,-10.059050,-5.495715,-3.689022,-1.212952,9.072029,29.061691,6.022131,20.771402,6.078896,13.460186,61.974026,-13.685327,25.895775,9.666067,33.867638,-2.420940,-7.008154,2.795269,-3.070882,-0.827541,7.015501,0.937711,-13.176054,-0.375266,7.661675,0.000000,229.000000,4.000000,,,,0.000000,4.000000,0.000000,4.000000,4.000000,4.000000,4.000000,4.000000,4.000000,4.000000,4.000000,4.000000,4.000000,4.000000,4.000000,4.000000,4.000000,4.000000,4.000000,4.000000,4.000000,4.000000,4.000000,4.000000,4.000000,4.000000,4.000000,4.000000,4.000000,4.000000,4.000000,4.000000,4.000000,66.666664
1614040890.661752,4.000000,0.000000,-5.400552,9.810297,-3.647706,6.443892,16.578079,-1.846664,-5.924706,-9.023349,-2.926116,6.571077,2.378005,10.601418,28.006990,9.093033,24.853195,-2.645132,18.574930,63.450512,4.277076,40.228855,24.528196,37.936337,6.299430,2.742444,6.895038,0.521932,0.711748,9.572588,1.449594,-9.060314,-0.374891,7.654013,0.000000,193.000000,4.000000,,,,0.000000,4.000000,0.000000,4.000000,4.000000,4.000000,4.000000,4.000000,4.000000,4.000000,4.000000,4.000000,4.000000,4.000000,4.000000,4.000000,4.000000,4.000000,4.000000,4.000000,4.000000,4.000000,4.000000,4.000000,4.000000,4.000000,4.000000,4.000000,4.000000,4.000000,4.000000,4.000000,4.000000,66.666664
1614040890.669501,5.000000,0.000000,-5.395152,-8.661052,-0.054315,11.052834,28.356373,2.770568,-3.867500,-6.450223,-1.897549,10.154250,12.632037,9.052355,28.491802,11.135221,23.802700,13.254950,17.530714,61.335781,-2.906688,36.598881,23.990847,36.872757,9.370053,11.457650,10.477886,3.085513,0.711037,11.614298,1.448145,-9.564075,-0.374516,7.646359,0.000000,219.000000,4.000000,,,,0.000000,4.000000,0.000000,4.000000,4.000000,4.000000,4.000000,4.000000,4.000000,4.000000,4.000000,4.000000,4.000000,4.000000,4.000000,4.000000,4.000000,4.000000,4.000000,4.000000,4.000000,4.000000,4.000000,4.000000,4.000000,4.000000,4.000000,4.000000,4.000000,4.000000,4.000000,4.000000,4.000000,66.666664
1614040890.677151,6.000000,0.000000,-5.389757,-13.780596,-7.233747,10.016140,18.584427,2.254977,-2.325171,-5.418132,-1.895651,10.144095,11.080944,8.530482,29.488953,14.201010,29.932743,29.139130,15.974723,82.300087,-4.955063,33.998180,21.402754,36.323063,7.822222,12.984654,9.954588,2.056786,0.710326,10.064222,1.446697,-9.041690,-0.374141,8.151533,0.000000,177.000000,4.000000,,,,0.000000,4.000000,0.000000,4.000000,4.000000,4.000000,4.000000,4.000000,4.000000,4.000000,4.000000,4.000000,4.000000,4.000000,4.000000,4.000000,4.000000,4.000000,4.000000,4.000000,4.000000,4.000000,4.000000,4.000000,4.000000,4.000000,4.000000,4.000000,4.000000,4.000000,4.000000,4.000000,4.000000,66.666664
1614040890.684900,7.000000,0.000000,-5.384367,0.592159,-13.893181,8.467662,5.232509,-7.490868,-2.835666,-6.438355,-1.893756,6.031387,0.300632,4.419388,29.459463,14.186809,26.313068,14.751017,5.189517,72.987015,-20.847544,21.143669,15.740326,25.004690,7.814400,13.484490,3.277967,-5.124758,-2.880128,5.951593,1.445250,-8.519828,-0.373767,5.066459,0.000000,192.000000,4.000000,,,,0.000000,4.000000,0.000000,4.000000,4.000000,4.000000,4.000000,4.000000,4.000000,4.000000,4.000000,4.000000,4.000000,4.000000,4.000000,4.000000,4.000000,4.000000,4.000000,4.000000,4.000000,4.000000,4.000000,4.000000,4.000000,4.000000,4.000000,4.000000,4.000000,4.000000,4.000000,4.000000,4.000000,66.666664
1614040890.692549,8.000000,0.000000,-5.378983,5.719772,-12.340826,6.407912,10.868302,-10.047480,-2.832830,-5.919096,-1.379042,6.538177,-0.212489,1.338045,28.917183,12.121340,7.312396,-8.853477,-6.097724,40.606339,-43.903618,0.096884,6.493816,11.133532,8.319406,10.394082,-6.468901,-12.811940,-6.979812,2.868719,1.443805,-12.613872,-0.373393,0.446008,0.000000,197.000000,4.000000,,,,0.000000,4.000000,0.000000,4.000000,4.000000,4.000000,4.000000,4.000000,4.000000,4.000000,4.000000,4.000000,4.000000,4.000000,4.000000,4.000000,4.000000,4.000000,4.000000,4.000000,4.000000,4.000000,4.000000,4.000000,4.000000,4.000000,4.000000,4.000000,4.000000,4.000000,4.000000,4.000000,4.000000,66.666664
1614040890.700298,9.000000,0.000000,-5.373603,-7.619281,-5.148998,8.965607,24.190767,-1.832304,-2.317177,-5.400356,-1.377663,15.762407,3.890287,-0.201754,24.785702,6.468193,-5.515429,-27.306164,-6.604446,29.796501,-44.372536,-4.005777,2.897579,9.071116,7.798266,1.665740,-9.539355,-13.311949,-7.485653,3.378671,1.955181,-15.678181,0.139801,0.958382,0.000000,196.000000,4.000000,,,,0.000000,4.000000,0.000000,4.000000,4.000000,4.000000,4.000000,4.000000,4.000000,4.000000,4.000000,4.000000,4.000000,4.000000,4.000000,4.000000,4.000000,4.000000,4.000000,4.000000,4.000000,4.000000,4.000000,4.000000,4.000000,4.000000,4.000000,4.000000,4.000000,4.000000,4.000000,4.000000,4.000000,66.666664
1614040890.707947,10.000000,0.000000,-5.368230,-13.252687,-5.656669,13.059205,20.064013,-0.292010,-2.827680,-7.959059,-2.914747,7.541517,1.322295,-1.740014,20.145533,-0.204942,-2.432991,-27.791677,-5.572201,36.946190,-42.789703,0.613613,3.920322,10.600507,8.303288,-3.464131,-8.504174,-11.760176,-6.452526,5.939394,1.953226,-16.175323,0.139661,0.444603,0.000000,190.000000,4.000000,,,,0.000000,4.000000,0.000000,4.000000,4.000000,4.000000,4.000000,4.000000,4.000000,4.000000,4.000000,4.000000,4.000000,4.000000,4.000000,4.000000,4.000000,4.000000,4.000000,4.000000,4.000000,4.000000,4.000000,4.000000,4.000000,4.000000,4.000000,4.000000,4.000000,4.000000,4.000000,4.000000,4.000000,66.666664
1614040890.715696,11.000000,0.000000,-5.362862,1.632360,-7.189474,9.456403,8.249077,-2.343000,-2.824853,-9.489561,-5.475934,-13.491666,-1.755951,-2.763915,15.510001,-7.897045,-8.071584,-19.045937,-6.592270,28.191296,-51.977680,-2.976744,3.403581,9.564265,7.782165,-2.435026,-9.008491,-14.312518,-7.471715,6.959096,0.925632,-16.671968,-0.373299,-1.094303,0.000000,214.000000,4.000000,,,,0.000000,4.000000,0.000000,4.000000,4.000000,4.000000,4.000000,4.000000,4.000000,4.000000,4.000000,4.000000,4.000000,4.000000,4.000000,4.000000,4.000000,4.000000,4.000000,4.000000,4.000000,4.000000,4.000000,4.000000,4.000000,4.000000,4.000000,4.000000,4.000000,4.000000,4.000000,4.000000,4.000000,66.666664
1614040890.723345,12.000000,0.000000,-5.357499,11.374317,7.689510,5.344382,13.881853,0.736266,-2.309207,-5.377507,-5.983279,-11.939713,-1.754195,-3.786792,5.750902,-24.812225,-28.576332,-38.001251,-6.072857,8.675925,-48.848782,-3.999408,3.912998,11.605983,7.774382,-2.945411,-8.999482,-12.759744,-6.951423,7.464958,1.950347,-15.116835,-0.372926,4.547817,0.000000,188.000000,4.000000,,,,0.000000,4.000000,0.000000,4.000000,4.000000,4.000000,4.000000,4.000000,4.000000,4.000000,4.000000,4.000000,4.000000,4.000000,4.000000,4.000000,4.000000,4.000000,4.000000,4.000000,4.000000,4.000000,4.000000,4.000000,4.000000,4.000000,4.000000,4.000000,4.000000,4.000000,4.000000,4.000000,4.000000,66.666664
1614040890.731094,13.000000,0.000000,-4.839321,-1.457570,14.861308,6.364678,20.534637,-0.290112,-3.845360,-1.782386,-5.977295,-2.184183,-1.239620,-5.321467,3.181048,-35.043823,-24.958014,-47.706837,-5.553964,13.795455,-38.030701,3.184078,3.396265,15.184120,8.792249,-2.429646,-8.477662,-12.746984,-5.918830,7.457493,1.948397,-16.640181,0.653088,7.620193,0.000000,156.000000,4.000000,,,,0.000000,4.000000,0.000000,4.000000,4.000000,4.000000,4.000000,4.000000,4.000000,4.000000,4.000000,4.000000,4.000000,4.000000,4.000000,4.000000,4.000000,4.000000,4.000000,4.000000,4.000000,4.000000,4.000000,4.000000,4.000000,4.000000,4.000000,4.000000,4.000000,4.000000,4.000000,4.000000,4.000000,66.666664
1614040890.738744,14.000000,0.000000,-6.885764,-12.738163,-3.102271,4.819852,4.616667,-9.520591,-5.892796,-2.293424,-6.484139,-10.387127,-0.725560,-3.264863,13.947098,-24.752369,3.272073,-14.838618,-5.035589,43.012428,-36.454208,6.770638,1.854407,15.168937,6.219354,-1.914395,-10.520467,-21.452187,-8.989835,3.860292,-5.745859,-27.392771,-3.962950,-5.720761,0.000000,202.000000,4.000000,,,,0.000000,4.000000,0.000000,4.000000,4.000000,4.000000,4.000000,4.000000,4.000000,4.000000,4.000000,4.000000,4.000000,4.000000,4.000000,4.000000,4.000000,4.000000,4.000000,4.000000,4.000000,4.000000,4.000000,4.000000,4.000000,4.000000,4.000000,4.000000,4.000000,4.000000,4.000000,4.000000,4.000000,66.666664
1614040890.746493,15.000000,0.000000,-8.930160,-3.494656,-10.791477,3.276571,-3.080257,-13.613634,-6.912545,-2.803952,-9.041758,-9.351099,-1.750476,-1.723137,17.010075,-12.932745,12.499571,-3.028908,-5.543374,53.225826,-30.776730,4.712585,0.314091,14.128126,1.084930,-6.527866,-12.048408,-27.584579,-13.596230,-2.297415,-12.919600,-34.032043,-11.138474,-14.945809,0.000000,222.000000,4.000000,,,,0.000000,4.000000,0.000000,4.000000,4.000000,4.000000,4.000000,4.000000,4.000000,4.000000,4.000000,4.000000,4.000000,4.000000,4.000000,4.000000,4.000000,4.000000,4.000000,4.000000,4.000000,4.000000,4.000000,4.000000,4.000000,4.000000,4.000000,4.000000,4.000000,4.000000,4.000000,4.000000,4.000000,66.666664
1614040890.754142,16.000000,0.000000,-8.921229,7.790890,6.142392,10.965602,14.358721,-8.984636,-6.392811,-1.775507,-10.571177,8.094150,-0.723084,-1.721414,17.505884,-8.304427,9.922969,-13.795110,-5.025010,48.557217,-16.899799,8.297616,0.826597,15.652460,0.571024,-8.572619,-11.010718,-16.787766,-12.556992,-4.346399,-10.342578,-26.818525,-11.640156,-8.264197,0.000000,176.000000,4.000000,,,,0.000000,4.000000,0.000000,4.000000,4.000000,4.000000,4.000000,4.000000,4.000000,4.000000,4.000000,4.000000,4.000000,4.000000,4.000000,4.000000,4.000000,4.000000,4.000000,4.000000,4.000000,4.000000,4.000000,4.000000,4.000000,4.000000,4.000000,4.000000,4.000000,4.000000,4.000000,4.000000,4.000000,66.666664
1614040890.761991,17.000000,0.000000,-8.912309,6.244637,14.854198,18.134123,28.190516,-2.821805,-5.873598,0.790371,-3.381119,15.778363,3.380203,-0.181231,29.796070,2.473108,20.169456,7.244326,-2.968703,58.765068,-20.472643,12.391883,2.877053,15.123987,1.596094,-3.435842,-7.409964,-6.514566,-9.467512,-3.829232,-5.716851,-22.176321,-8.038773,-2.102087,0.000000,199.000000,4.000000,,,,0.000000,4.000000,0.000000,4.000000,4.000000,4.000000,4.000000,4.000000,4.000000,4.000000,4.000000,4.000000,4.000000,4.000000,4.000000,4.000000,4.000000,4.000000,4.000000,4.000000,4.000000,4.000000,4.000000,4.000000,4.000000,4.000000,4.000000,4.000000,4.000000,4.000000,4.000000,4.000000,4.000000,66.666664
1614040890.769740,18.000000,0.000000,-8.903396,-4.018017,12.275241,17.603168,26.111044,1.283581,-6.893365,1.815222,7.904314,14.224123,2.864002,-5.822075,26.176531,9.650122,14.508261,7.749902,-7.068299,46.911430,-46.606018,-1.466663,-1.741209,3.826812,-3.020887,-3.432406,-6.889734,-13.687539,-9.970865,-3.825403,-7.249596,-27.795172,-7.517913,-3.638446,0.000000,207.000000,4.000000,,,,0.000000,4.000000,0.000000,4.000000,4.000000,4.000000,4.000000,4.000000,4.000000,4.000000,4.000000,4.000000,4.000000,4.000000,4.000000,4.000000,4.000000,4.000000,4.000000,4.000000,4.000000,4.000000,4.000000,4.000000,4.000000,4.000000,4.000000,4.000000,4.000000,4.000000,4.000000,4.000000,4.000000,66.666664
1614040890.777589,19.000000,0.000000,-8.894493,-5.039640,14.827068,16.559925,25.059292,2.820759,-5.860831,1.300586,9.434871,9.081694,-4.318349,-19.662407,2.560611,-0.615938,-13.711376,-24.565540,-16.804821,16.095289,-67.072227,-19.413914,-11.483057,-10.023170,-10.710174,-12.146922,-10.985408,-23.417442,-10.473715,-4.334398,-10.319269,-30.331478,-8.023215,-4.147628,0.000000,200.000000,4.000000,,,,0.000000,4.000000,0.000000,4.000000,4.000000,4.000000,4.000000,4.000000,4.000000,4.000000,4.000000,4.000000,4.000000,4.000000,4.000000,4.000000,4.000000,4.000000,4.000000,4.000000,4.000000,4.000000,4.000000,4.000000,4.000000,4.000000,4.000000,4.000000,4.000000,4.000000,4.000000,4.000000,4.000000,66.666664
1614040890.785338,20.000000,0.000000,-8.885598,9.837194,17.376345,17.569006,27.085514,2.817938,-5.854970,1.299286,3.271590,3.944407,-6.365313,-24.770950,-4.108616,-7.794810,-24.466896,-19.925591,-18.326477,24.797144,-65.466698,-19.907322,-17.625420,-10.525967,-12.237925,-16.750160,-15.589808,-22.881203,-9.437600,-3.817244,-9.283309,-30.301147,-8.015192,-3.117840,0.000000,182.000000,4.000000,,,,0.000000,4.000000,0.000000,4.000000,4.000000,4.000000,4.000000,4.000000,4.000000,4.000000,4.000000,4.000000,4.000000,4.000000,4.000000,4.000000,4.000000,4.000000,4.000000,4.000000,4.000000,4.000000,4.000000,4.000000,4.000000,4.000000,4.000000,4.000000,4.000000,4.000000,4.000000,4.000000,4.000000,66.666664
1614040890.793187,21.000000,0.000000,-8.876713,15.981203,16.333326,17.038616,26.545609,2.302299,-8.926039,1.297987,1.217036,2.402001,-11.999972,-25.258999,-4.104507,-11.889579,-30.083454,-8.110792,-23.436356,28.362089,-73.093536,-25.015619,-27.351385,-13.079543,-13.251328,-17.246231,-20.702423,-22.345501,-12.505085,-3.813426,-8.248384,-29.758026,-7.494357,-2.601901,0.000000,179.000000,4.000000,,,,0.000000,4.000000,0.000000,4.000000,4.000000,4.000000,4.000000,4.000000,4.000000,4.000000,4.000000,4.000000,4.000000,4.000000,4.000000,4.000000,4.000000,4.000000,4.000000,4.000000,4.000000,4.000000,4.000000,4.000000,4.000000,4.000000,4.000000,4.000000,4.000000,4.000000,4.000000,4.000000,4.000000,66.666664
1614040890.800936,22.000000,0.000000,-8.867836,-2.496317,18.368275,17.021578,25.493422,2.299997,-13.532497,1.296689,1.215819,-4.779888,-28.911049,-31.900408,-24.613224,-33.928970,-57.745678,-40.410374,-44.951382,-3.973965,-99.174294,-48.580345,-40.144547,-28.451078,-20.930384,-22.357189,-29.399670,-28.989822,-18.646427,-3.809613,-11.829880,-29.215446,-7.486862,-0.035197,0.000000,207.000000,4.000000,,,,0.000000,4.000000,0.000000,4.000000,4.000000,4.000000,4.000000,4.000000,4.000000,4.000000,4.000000,4.000000,4.000000,4.000000,4.000000,4.000000,4.000000,4.000000,4.000000,4.000000,4.000000,4.000000,4.000000,4.000000,4.000000,4.000000,4.000000,4.000000,4.000000,4.000000,4.000000,4.000000,4.000000,66.666664
1614040890.808785,23.000000,0.000000,-8.858968,-10.698949,18.862728,16.491735,23.416645,2.297697,-14.544605,1.295392,-1.349499,-22.211006,-39.138550,-33.919788,-40.998867,-56.459145,-74.611008,-62.934067,-52.085915,-20.893068,-100.613579,-53.659973,-40.617222,-33.038013,-28.601761,-29.514320,-38.088219,-35.627499,-21.704702,-3.805803,-16.433435,-33.801617,-8.505016,0.477659,0.000000,212.000000,4.000000,,,,0.000000,4.000000,0.000000,4.000000,4.000000,4.000000,4.000000,4.000000,4.000000,4.000000,4.000000,4.000000,4.000000,4.000000,4.000000,4.000000,4.000000,4.000000,4.000000,4.000000,4.000000,4.000000,4.000000,4.000000,4.000000,4.000000,4.000000,4.000000,4.000000,4.000000,4.000000,4.000000,4.000000,66.666664
1614040890.816534,24.000000,0.000000,-8.850109,9.311750,16.279762,16.475245,21.854767,1.782579,-12.991599,1.294096,-5.963534,-30.906744,-38.586590,-30.296125,-37.880943,-59.992428,-65.305626,-39.794209,-36.136395,8.871415,-75.897583,-34.631954,-33.909939,-25.825487,-29.598801,-33.587368,-41.127052,-35.079052,-21.170177,-3.801997,-16.417002,-39.921661,-6.445230,0.477181,0.000000,200.000000,4.000000,,,,0.000000,4.000000,0.000000,4.000000,4.000000,4.000000,4.000000,4.000000,4.000000,4.000000,4.000000,4.000000,4.000000,4.000000,4.000000,4.000000,4.000000,4.000000,4.000000,4.000000,4.000000,4.000000,4.000000,4.000000,4.000000,4.000000,4.000000,4.000000,4.000000,4.000000,4.000000,4.000000,4.000000,66.666664
1614040890.824383,25.000000,0.000000,-8.841259,13.917823,17.801945,20.048512,22.345734,2.293617,-14.004249,0.779982,-5.957571,-26.773272,-39.060825,-27.701727,-34.766140,-59.932438,-58.060837,-43.344158,-30.459232,16.554852,-62.488350,-24.340910,-33.876030,-22.209919,-28.543562,-35.605064,-41.085926,-31.454229,-21.149008,-3.798195,-12.810841,-38.343277,0.227882,3.040807,0.000000,0.000000,4.000000,,,,0.000000,4.000000,0.000000,4.000000,4.000000,4.000000,4.000000,4.000000,4.000000,4.000000,4.000000,4.000000,4.000000,4.000000,4.000000,4.000000,4.000000,4.000000,4.000000,4.000000,4.000000,4.000000,4.000000,4.000000,4.000000,4.000000,4.000000,4.000000,4.000000,4.000000,4.000000,4.000000,4.000000,66.666664
1614040890.832132,26.000000,0.000000,-8.832417,-10.711479,22.399527,23.105387,25.400311,6.393888,-14.503065,1.292022,1.740695,-17.002909,-29.790995,-18.443256,-23.449324,-52.693016,-46.207905,-44.326454,-29.403131,18.076757,-58.836117,-15.598620,-26.149845,-13.469760,-24.925274,-35.056637,-41.044838,-27.320211,-21.640678,-1.230295,-12.285210,-33.689548,4.330219,4.063407,0.000000,210.000000,4.000000,,,,0.000000,4.000000,0.000000,4.000000,4.000000,4.000000,4.000000,4.000000,4.000000,4.000000,4.000000,4.000000,4.000000,4.000000,4.000000,4.000000,4.000000,4.000000,4.000000,4.000000,4.000000,4.000000,4.000000,4.000000,4.000000,4.000000,4.000000,4.000000,4.000000,4.000000,4.000000,4.000000,4.000000,66.666664
1614040890.839981,27.000000,0.000000,-8.823586,-14.290511,23.915588,24.107924,29.990295,9.977237,-10.898818,3.854833,8.918441,-5.191034,-8.735561,-3.553018,1.702331,-28.024940,-14.879644,-11.461616,-9.886550,38.571503,-51.597794,1.852875,-8.174976,3.466787,-19.259323,-28.867735,-40.490974,-23.703148,-19.054935,0.309397,-13.298565,-33.143040,3.813068,3.546523,0.000000,200.000000,4.000000,,,,0.000000,4.000000,0.000000,4.000000,4.000000,4.000000,4.000000,4.000000,4.000000,4.000000,4.000000,4.000000,4.000000,4.000000,4.000000,4.000000,4.000000,4.000000,4.000000,4.000000,4.000000,4.000000,4.000000,4.000000,4.000000,4.000000,4.000000,4.000000,4.000000,4.000000,4.000000,4.000000,4.000000,66.666664
1614040890.847730,28.000000,0.000000,-8.814762,13.416087,23.378853,24.596636,33.037228,9.967259,-6.272535,5.389440,9.422343,1.993644,1.529584,0.553100,16.059603,-10.048197,5.648056,5.985743,4.482311,44.686775,-47.443630,6.979228,-0.474494,9.617167,-16.163141,-23.197842,-40.450485,-22.653803,-16.984598,-1.742194,-12.772446,-33.622715,2.783614,5.081438,0.000000,188.000000,4.000000,,,,0.000000,4.000000,0.000000,4.000000,4.000000,4.000000,4.000000,4.000000,4.000000,4.000000,4.000000,4.000000,4.000000,4.000000,4.000000,4.000000,4.000000,4.000000,4.000000,4.000000,4.000000,4.000000,4.000000,4.000000,4.000000,4.000000,4.000000,4.000000,4.000000,4.000000,4.000000,4.000000,4.000000,66.666664
1614040890.855579,29.000000,0.000000,-8.805947,15.966773,21.817013,19.956654,33.004192,9.444472,-5.753442,5.384050,8.900101,2.504471,-0.010407,-1.498736,15.017902,-7.986867,8.206510,13.672065,1.400906,53.872860,-33.550034,7.485069,-1.499661,8.069088,-14.608516,-23.174644,-39.897213,-23.143969,-16.967615,-3.278914,-12.246853,-33.076275,1.755189,1.999434,0.000000,190.000000,4.000000,,,,0.000000,4.000000,0.000000,4.000000,4.000000,4.000000,4.000000,4.000000,4.000000,4.000000,4.000000,4.000000,4.000000,4.000000,4.000000,4.000000,4.000000,4.000000,4.000000,4.000000,4.000000,4.000000,4.000000,4.000000,4.000000,4.000000,4.000000,4.000000,4.000000,4.000000,4.000000,4.000000,4.000000,66.666664
1614040890.863328,30.000000,0.000000,-8.797141,-11.228681,20.256733,13.270031,33.484005,9.947848,-6.260509,5.378666,9.916842,2.501966,-0.523217,-0.471596,15.002885,-3.363495,12.300868,32.119930,-2.190239,72.793343,-19.157511,12.605789,1.065942,8.573839,-12.542625,-23.664289,-39.857315,-22.095184,-16.950647,-4.301276,-12.234606,-33.043198,-0.297848,-4.669233,0.000000,178.000000,4.000000,,,,0.000000,4.000000,0.000000,4.000000,4.000000,4.000000,4.000000,4.000000,4.000000,4.000000,4.000000,4.000000,4.000000,4.000000,4.000000,4.000000,4.000000,4.000000,4.000000,4.000000,4.000000,4.000000,4.000000,4.000000,4.000000,4.000000,4.000000,4.000000,4.000000,4.000000,4.000000,4.000000,4.000000,66.666664
1614040890.871177,31.000000,0.000000,-8.788343,-11.217452,22.800579,15.820863,33.963345,9.425079,-6.254249,4.860467,9.394104,2.499464,1.015768,-0.471124,14.987882,1.768073,12.801387,28.498068,-2.700869,56.823116,-35.548607,3.362414,0.552055,3.949881,-12.530083,-22.614985,-39.817459,-18.483345,-16.933697,-6.861077,-12.735192,-29.420410,-0.297550,-4.151743,0.000000,181.000000,4.000000,,,,0.000000,4.000000,0.000000,4.000000,4.000000,4.000000,4.000000,4.000000,4.000000,4.000000,4.000000,4.000000,4.000000,4.000000,4.000000,4.000000,4.000000,4.000000,4.000000,4.000000,4.000000,4.000000,4.000000,4.000000,4.000000,4.000000,4.000000,4.000000,4.000000,4.000000,4.000000,4.000000,4.000000,66.666664
1614040890.878926,32.000000,0.000000,-8.266735,12.383510,23.290600,22.984529,32.390919,9.415655,-5.735174,5.368427,9.384709,2.496965,2.553213,-1.496294,15.998535,4.330408,7.660381,21.290083,-4.749450,38.304756,-48.333572,-8.948641,-4.576702,-3.746377,-13.543194,-23.618011,-39.777641,-14.362298,-16.916761,-7.367036,-12.209637,-24.775606,-0.297253,2.519076,8064.000000,0.000000,4.000000,,,,0.000000,4.000000,0.000000,4.000000,4.000000,4.000000,4.000000,4.000000,4.000000,4.000000,4.000000,4.000000,4.000000,4.000000,4.000000,4.000000,4.000000,4.000000,4.000000,4.000000,4.000000,4.000000,4.000000,4.000000,4.000000,4.000000,4.000000,4.000000,4.000000,4.000000,4.000000,4.000000,4.000000,66.666664
1614040890.886576,33.000000,0.000000,-8.258469,11.345485,22.754488,24.500006,33.896988,9.406239,-6.242259,5.875879,9.888145,3.520109,3.576301,-1.494798,19.059460,8.428641,7.139900,30.499561,-4.231880,59.292091,-28.798059,-1.760205,-5.597766,-3.229810,-11.991189,-23.081572,-39.737862,-14.860757,-16.899845,-6.846849,-12.710247,-27.314932,0.215865,5.593480,8064.000000,0.000000,4.000000,,,,0.000000,4.000000,0.000000,4.000000,4.000000,4.000000,4.000000,4.000000,4.000000,4.000000,4.000000,4.000000,4.000000,4.000000,4.000000,4.000000,4.000000,4.000000,4.000000,4.000000,4.000000,4.000000,4.000000,4.000000,4.000000,4.000000,4.000000,4.000000,4.000000,4.000000,4.000000,4.000000,4.000000,66.666664
1614040890.894325,34.000000,0.000000,-10.301492,-6.614579,27.859940,23.962687,33.863091,9.396832,-6.236017,0.228978,6.801334,0.952486,-1.042660,-7.647149,7.758348,-0.810556,-3.123650,13.545985,-6.791751,62.309723,-25.692339,-1.245624,-8.156271,-3.739401,-15.568941,-21.007210,-39.698124,-21.512562,-18.934227,-10.942566,-15.774460,-34.467106,-0.809992,3.023783,8064.000000,0.000000,4.000000,,,,0.000000,4.000000,0.000000,4.000000,4.000000,4.000000,4.000000,4.000000,4.000000,4.000000,4.000000,4.000000,4.000000,4.000000,4.000000,4.000000,4.000000,4.000000,4.000000,4.000000,4.000000,4.000000,4.000000,4.000000,4.000000,4.000000,4.000000,4.000000,4.000000,4.000000,4.000000,4.000000,4.000000,66.666664
1614040890.901974,35.000000,0.000000,-12.855293,-7.633605,24.242336,24.451544,24.598459,9.387436,-6.229781,-7.976379,2.691969,-3.663851,-11.298027,-17.383091,-9.685308,-20.296925,-22.607706,-11.082945,-11.913164,29.939720,-53.358955,-19.705917,-14.301961,-12.966431,-22.220039,-21.499022,-40.171246,-29.183357,-22.505037,-15.034187,-19.348429,-37.509560,-5.424566,-1.081804,8064.000000,0.000000,4.000000,,,,0.000000,4.000000,0.000000,4.000000,4.000000,4.000000,4.000000,4.000000,4.000000,4.000000,4.000000,4.000000,4.000000,4.000000,4.000000,4.000000,4.000000,4.000000,4.000000,4.000000,4.000000,4.000000,4.000000,4.000000,4.000000,4.000000,4.000000,4.000000,4.000000,4.000000,4.000000,4.000000,4.000000,66.666664
1614040890.909723,36.000000,0.000000,-12.842438,0.579157,6.782196,22.888630,14.830272,9.378049,-6.223551,-10.532506,1.663636,-6.224290,-20.004679,-20.955452,-11.726904,-25.917654,-29.764585,-6.969298,-13.439713,14.012344,-65.613289,-25.840057,-16.851761,-19.107309,-24.761921,-23.528805,-39.618256,-31.205456,-24.533813,-12.455051,-20.354721,-36.446411,-7.983244,-5.183287,8064.000000,0.000000,4.000000,,,,0.000000,4.000000,0.000000,4.000000,4.000000,4.000000,4.000000,4.000000,4.000000,4.000000,4.000000,4.000000,4.000000,4.000000,4.000000,4.000000,4.000000,4.000000,4.000000,4.000000,4.000000,4.000000,4.000000,4.000000,4.000000,4.000000,4.000000,4.000000,4.000000,4.000000,4.000000,4.000000,4.000000,66.666664
1614040890.917372,37.000000,0.000000,-11.803954,0.578577,1.134388,21.840101,13.789801,9.368670,-6.217328,-9.496332,-1.414951,-13.397552,-26.138519,-19.908855,-17.356203,-33.584045,-36.401489,-17.218739,-13.426273,7.844485,-66.573318,-24.788576,-22.988756,-18.575382,-24.737160,-23.505276,-39.578636,-30.148609,-25.022100,-10.391314,-19.821547,-36.922783,-7.462440,-7.229385,8064.000000,0.000000,4.000000,,,,0.000000,4.000000,0.000000,4.000000,4.000000,4.000000,4.000000,4.000000,4.000000,4.000000,4.000000,4.000000,4.000000,4.000000,4.000000,4.000000,4.000000,4.000000,4.000000,4.000000,4.000000,4.000000,4.000000,4.000000,4.000000,4.000000,4.000000,4.000000,4.000000,4.000000,4.000000,4.000000,4.000000,66.666664
1614040890.925121,38.000000,0.000000,-12.817791,-0.960463,4.210176,17.715696,11.211907,9.359302,-6.211110,-9.999657,-9.105844,-28.255951,-32.779049,-20.401768,-33.236282,-60.217125,-53.288162,-46.432289,-17.515411,-3.958231,-74.711868,-33.481735,-31.683716,-19.582447,-24.712423,-22.968950,-41.077518,-30.631281,-24.484259,-11.406564,-19.801725,-37.398682,-9.506260,-7.222156,8064.000000,0.000000,4.000000,,,,0.000000,4.000000,0.000000,4.000000,4.000000,4.000000,4.000000,4.000000,4.000000,4.000000,4.000000,4.000000,4.000000,4.000000,4.000000,4.000000,4.000000,4.000000,4.000000,4.000000,4.000000,4.000000,4.000000,4.000000,4.000000,4.000000,4.000000,4.000000,4.000000,4.000000,4.000000,4.000000,4.000000,66.666664
1614040890.932770,39.000000,0.000000,-12.804974,-0.446682,-7.588905,8.467212,6.072491,7.811481,-6.204899,-9.989656,-14.737763,-37.458462,-34.797550,-20.381365,-25.510738,-69.387680,-47.081028,-37.155087,-20.574818,12.455984,-64.893570,-30.884151,-27.549469,-17.511583,-21.610786,-23.458801,-40.523621,-31.113470,-21.382851,-11.395157,-20.807564,-37.361282,-12.573677,-7.214934,8064.000000,0.000000,4.000000,,,,0.000000,4.000000,0.000000,4.000000,4.000000,4.000000,4.000000,4.000000,4.000000,4.000000,4.000000,4.000000,4.000000,4.000000,4.000000,4.000000,4.000000,4.000000,4.000000,4.000000,4.000000,4.000000,4.000000,4.000000,4.000000,4.000000,4.000000,4.000000,4.000000,4.000000,4.000000,4.000000,4.000000,66.666664
1614040890.940519,40.000000,0.000000,-6.638322,0.579406,-11.683881,4.356181,5.040777,5.239567,-6.198694,-9.979667,-13.184564,-31.267159,-21.942240,-17.796883,1.181439,-43.164444,-14.213435,-4.297421,-14.913218,43.725578,-38.162006,-11.366089,-17.265509,-7.750482,-16.973791,-23.435343,-36.893356,-30.056717,-17.258904,-8.306839,-20.273937,-36.811100,-9.997001,-7.207719,8064.000000,0.000000,4.000000,,,,0.000000,4.000000,0.000000,4.000000,4.000000,4.000000,4.000000,4.000000,4.000000,4.000000,4.000000,4.000000,4.000000,4.000000,4.000000,4.000000,4.000000,4.000000,4.000000,4.000000,4.000000,4.000000,4.000000,4.000000,4.000000,4.000000,4.000000,4.000000,4.000000,4.000000,4.000000,4.000000,4.000000,66.666664
1614040890.948169,41.000000,0.000000,-0.990658,4.168570,8.840624,9.480029,7.599839,5.234327,-6.192495,-9.456867,-9.581635,-16.364096,-4.997221,-14.189342,12.462309,-11.839230,6.313599,11.604313,-5.154715,51.886982,-31.457180,-3.662415,-16.222603,-2.614527,-16.443996,-22.899088,-36.343639,-31.052301,-16.216003,-6.760070,-19.228022,-36.261471,-7.422901,-7.713332,8064.000000,0.000000,4.000000,,,,0.000000,4.000000,0.000000,4.000000,4.000000,4.000000,4.000000,4.000000,4.000000,4.000000,4.000000,4.000000,4.000000,4.000000,4.000000,4.000000,4.000000,4.000000,4.000000,4.000000,4.000000,4.000000,4.000000,4.000000,4.000000,4.000000,4.000000,4.000000,4.000000,4.000000,4.000000,4.000000,4.000000,66.666664
1614040890.955918,42.000000,0.000000,-2.528129,5.190042,20.626656,12.547473,6.566598,5.741913,-6.186303,-7.396128,-10.597695,-4.040040,0.648802,-12.123870,15.013949,3.044405,8.358567,22.361940,-0.534176,57.988941,-32.451363,-4.684393,-17.232021,-3.124732,-16.940374,-23.389009,-37.845760,-29.482786,-17.738249,-7.266131,-20.747255,-37.763668,-8.441119,-6.679977,8064.000000,0.000000,4.000000,,,,0.000000,4.000000,0.000000,4.000000,4.000000,4.000000,4.000000,4.000000,4.000000,4.000000,4.000000,4.000000,4.000000,4.000000,4.000000,4.000000,4.000000,4.000000,4.000000,4.000000,4.000000,4.000000,4.000000,4.000000,4.000000,4.000000,4.000000,4.000000,4.000000,4.000000,4.000000,4.000000,4.000000,66.666664
1614040890.963567,43.000000,0.000000,-5.602524,-0.456173,19.067566,12.534925,6.047211,4.710531,-6.180117,-5.850270,-8.535815,-2.497539,-0.890309,-12.111746,18.075859,8.682386,9.888670,31.570347,-0.533642,73.828384,-20.624041,3.525419,-9.522481,1.493777,-16.410612,-22.852798,-27.038683,-23.299458,-17.207691,-7.258865,-19.188046,-36.187447,-4.330114,-1.545092,8064.000000,0.000000,4.000000,,,,0.000000,4.000000,0.000000,4.000000,4.000000,4.000000,4.000000,4.000000,4.000000,4.000000,4.000000,4.000000,4.000000,4.000000,4.000000,4.000000,4.000000,4.000000,4.000000,4.000000,4.000000,4.000000,4.000000,4.000000,4.000000,4.000000,4.000000,4.000000,4.000000,4.000000,4.000000,4.000000,4.000000,66.666664
1614040890.971316,44.000000,0.000000,-4.571280,0.569924,29.304909,15.086493,14.759112,6.757102,-6.173936,-5.331600,0.703490,-0.956580,-0.376598,-14.150916,10.365475,11.237806,-1.916090,11.538776,-4.122851,64.523788,-20.603416,6.598817,-0.795009,5.082026,-16.907022,-19.240204,-11.627028,-17.122313,-12.062278,-5.200324,-8.912448,-28.458950,4.392165,3.584658,8064.000000,0.000000,4.000000,,,,0.000000,4.000000,0.000000,4.000000,4.000000,4.000000,4.000000,4.000000,4.000000,4.000000,4.000000,4.000000,4.000000,4.000000,4.000000,4.000000,4.000000,4.000000,4.000000,4.000000,4.000000,4.000000,4.000000,4.000000,4.000000,4.000000,4.000000,4.000000,4.000000,4.000000,4.000000,4.000000,4.000000,66.666664
1614040890.978965,45.000000,0.000000,-4.566710,10.825765,42.608936,17.635509,29.103329,11.878551,-6.167763,-6.351909,6.856632,6.223864,0.136599,-15.675227,-0.926942,11.226568,-23.965456,-16.165070,-7.708472,34.715675,-44.685375,-5.715474,-3.358317,-1.589722,-16.890116,-15.118399,-8.538478,-15.566729,-8.460472,-3.143842,-0.698407,-21.251003,8.490336,4.606714,8064.000000,0.000000,4.000000,,,,0.000000,4.000000,0.000000,4.000000,4.000000,4.000000,4.000000,4.000000,4.000000,4.000000,4.000000,4.000000,4.000000,4.000000,4.000000,4.000000,4.000000,4.000000,4.000000,4.000000,4.000000,4.000000,4.000000,4.000000,4.000000,4.000000,4.000000,4.000000,4.000000,4.000000,4.000000,4.000000,4.000000,66.666664
1614040890.986814,46.000000,0.000000,-7.126245,7.738016,43.079151,17.105053,34.715252,13.405133,-6.161595,-5.832736,3.260032,10.320205,-0.376358,-16.172373,-2.464477,9.676881,-25.992773,-11.533521,-9.239225,22.373268,-60.025307,-14.427708,-15.662651,-7.741979,-16.873226,-15.616101,-13.658145,-15.038342,-11.016114,-3.653518,-4.800273,-21.229752,7.456205,4.089287,8064.000000,0.000000,4.000000,,,,0.000000,4.000000,0.000000,4.000000,4.000000,4.000000,4.000000,4.000000,4.000000,4.000000,4.000000,4.000000,4.000000,4.000000,4.000000,4.000000,4.000000,4.000000,4.000000,4.000000,4.000000,4.000000,4.000000,4.000000,4.000000,4.000000,4.000000,4.000000,4.000000,4.000000,4.000000,4.000000,4.000000,66.666664
1614040890.994563,47.000000,0.000000,-9.170401,-7.654338,41.497608,16.062307,32.629253,12.878907,-6.668254,-3.775622,1.718310,9.797064,-0.888802,-16.156200,0.102090,10.180024,-15.197549,5.913910,-8.717166,30.556025,-52.785793,-12.361998,-20.775194,-7.221416,-17.369173,-18.677408,-14.157308,-15.023303,-13.056380,-3.649865,-8.898037,-22.234163,6.935928,5.110839,8064.000000,0.000000,4.000000,,,,0.000000,4.000000,0.000000,4.000000,4.000000,4.000000,4.000000,4.000000,4.000000,4.000000,4.000000,4.000000,4.000000,4.000000,4.000000,4.000000,4.000000,4.000000,4.000000,4.000000,4.000000,4.000000,4.000000,4.000000,4.000000,4.000000,4.000000,4.000000,4.000000,4.000000,4.000000,4.000000,4.000000,66.666664
1614040891.002412,48.000000,0.000000,-8.648410,-2.518478,40.943291,19.123167,33.109444,15.430131,-6.148765,-2.233385,5.306336,11.838549,-0.887913,-15.627223,-1.949294,7.605742,-20.310556,4.882356,-8.708448,34.115211,-47.091984,-12.349636,-17.164675,-6.701374,-16.326162,-18.658730,-11.579047,-15.008280,-10.992042,-1.594933,-7.863498,-20.160648,7.954634,4.592907,8064.000000,0.000000,4.000000,,,,0.000000,4.000000,0.000000,4.000000,4.000000,4.000000,4.000000,4.000000,4.000000,4.000000,4.000000,4.000000,4.000000,4.000000,4.000000,4.000000,4.000000,4.000000,4.000000,4.000000,4.000000,4.000000,4.000000,4.000000,4.000000,4.000000,4.000000,4.000000,4.000000,4.000000,4.000000,4.000000,4.000000,66.666664
1614040891.010161,49.000000,0.000000,-6.588480,17.996861,37.825424,21.155327,34.101974,13.363419,-4.091334,-2.231151,6.326670,13.365171,-0.374205,-13.047493,-9.126832,-6.760839,-30.546656,-1.276373,-9.212561,33.568275,-50.121815,-15.414209,-18.685972,-7.720314,-13.745734,-16.588789,-15.157212,-14.993271,-9.442588,0.457944,-8.881275,-22.704590,7.946679,3.562674,8064.000000,0.000000,4.000000,,,,0.000000,4.000000,0.000000,4.000000,4.000000,4.000000,4.000000,4.000000,4.000000,4.000000,4.000000,4.000000,4.000000,4.000000,4.000000,4.000000,4.000000,4.000000,4.000000,4.000000,4.000000,4.000000,4.000000,4.000000,4.000000,4.000000,4.000000,4.000000,4.000000,4.000000,4.000000,4.000000,4.000000,66.666664
1614040891.018010,50.000000,0.000000,-5.043429,14.901940,31.633753,16.518785,29.965309,6.683389,-2.035961,-2.228920,5.294703,11.813345,-0.886651,-12.008805,-12.194628,-21.625874,-30.516109,0.776186,-8.690527,34.560349,-46.994770,-11.296231,-21.231388,-7.712594,-13.219168,-16.059380,-19.244619,-15.491098,-9.945966,-0.055334,-11.436497,-27.810089,2.810527,0.995008,8064.000000,0.000000,4.000000,,,,0.000000,4.000000,0.000000,4.000000,4.000000,4.000000,4.000000,4.000000,4.000000,4.000000,4.000000,4.000000,4.000000,4.000000,4.000000,4.000000,4.000000,4.000000,4.000000,4.000000,4.000000,4.000000,4.000000,4.000000,4.000000,4.000000,4.000000,4.000000,4.000000,4.000000,4.000000,4.000000,4.000000,66.666664
1614040891.025759,51.000000,0.000000,-5.038386,-5.112961,21.345709,9.835601,24.807138,4.625423,-2.546745,-2.226691,3.238126,9.237429,-3.449867,-12.509617,-7.567049,-26.219631,-28.947132,-0.250232,-8.681837,32.474506,-40.793930,-5.643909,-18.133234,-7.704881,-13.205949,-15.017680,-16.148451,-14.962787,-9.936020,-0.055279,-11.937881,-28.295101,-4.884591,-4.134192,8064.000000,0.000000,4.000000,,,,0.000000,4.000000,0.000000,4.000000,4.000000,4.000000,4.000000,4.000000,4.000000,4.000000,4.000000,4.000000,4.000000,4.000000,4.000000,4.000000,4.000000,4.000000,4.000000,4.000000,4.000000,4.000000,4.000000,4.000000,4.000000,4.000000,4.000000,4.000000,4.000000,4.000000,4.000000,4.000000,4.000000,66.666664
1614040891.033608,52.000000,0.000000,-5.546168,-6.646310,13.119235,8.287304,24.269512,5.646439,-3.057019,-3.250106,1.696426,5.125628,-6.010520,-13.522748,-5.508200,-27.219053,-29.431005,1.801301,-8.673155,33.467674,-44.342876,-10.253650,-20.166382,-7.697176,-11.141460,-13.464201,-21.773329,-16.486286,-9.926084,0.457597,-15.515686,-30.318087,-7.956630,-10.283904,8064.000000,0.000000,4.000000,,,,0.000000,4.000000,0.000000,4.000000,4.000000,4.000000,4.000000,4.000000,4.000000,4.000000,4.000000,4.000000,4.000000,4.000000,4.000000,4.000000,4.000000,4.000000,4.000000,4.000000,4.000000,4.000000,4.000000,4.000000,4.000000,4.000000,4.000000,4.000000,4.000000,4.000000,4.000000,4.000000,4.000000,66.666664
1614040891.041357,53.000000,0.000000,-5.027802,5.155208,12.593295,9.304658,26.296524,5.640792,-2.541142,-2.221214,1.694730,-0.520524,-4.978868,-12.483584,-5.502691,-23.089270,-27.863113,13.081551,-9.177302,44.203434,-43.272896,-13.320319,-24.248779,-7.176658,-9.079037,-15.502019,-39.700272,-20.572363,-9.916158,-0.055681,-19.089914,-39.518539,-7.435853,-12.837723,8064.000000,0.000000,4.000000,,,,0.000000,4.000000,0.000000,4.000000,4.000000,4.000000,4.000000,4.000000,4.000000,4.000000,4.000000,4.000000,4.000000,4.000000,4.000000,4.000000,4.000000,4.000000,4.000000,4.000000,4.000000,4.000000,4.000000,4.000000,4.000000,4.000000,4.000000,4.000000,4.000000,4.000000,4.000000,4.000000,4.000000,66.666664
1614040891.049206,54.000000,0.000000,-5.022774,4.124412,14.631984,8.782533,22.167664,5.122331,-2.538600,-2.731814,0.154574,-3.084106,-4.461069,-12.471101,-2.420265,-14.348231,-26.809608,9.991546,-8.655305,49.287437,-28.357826,-3.050589,-22.173250,-7.682302,-9.069958,-19.076260,-42.224674,-23.115894,-9.906241,-0.055625,-20.609285,-45.120045,-7.428417,-13.850526,7936.000000,0.000000,4.000000,,,,0.000000,4.000000,0.000000,4.000000,4.000000,4.000000,4.000000,4.000000,4.000000,4.000000,4.000000,4.000000,4.000000,4.000000,4.000000,4.000000,4.000000,4.000000,4.000000,4.000000,4.000000,4.000000,4.000000,4.000000,4.000000,4.000000,4.000000,4.000000,4.000000,4.000000,4.000000,4.000000,4.000000,66.666664
1614040891.056955,55.000000,0.000000,-5.530571,-4.084840,14.617352,8.773750,17.530111,5.630030,-3.048882,-4.267543,-2.922504,-4.106663,-6.507890,-13.997091,-2.417845,-10.231319,-25.757158,-5.403061,-9.159470,45.135586,-20.637161,2.593488,-15.997230,-8.187440,-9.573709,-20.082825,-26.285015,-22.579958,-9.896336,-0.055570,-25.204062,-44.049286,-6.395347,-13.836676,8064.000000,0.000000,4.000000,,,,0.000000,4.000000,0.000000,4.000000,4.000000,4.000000,4.000000,4.000000,4.000000,4.000000,4.000000,4.000000,4.000000,4.000000,4.000000,4.000000,4.000000,4.000000,4.000000,4.000000,4.000000,4.000000,4.000000,4.000000,4.000000,4.000000,4.000000,4.000000,4.000000,4.000000,4.000000,4.000000,4.000000,66.666664
1614040891.064804,56.000000,0.000000,-5.012220,0.021808,19.218119,9.790617,20.589504,6.650041,-2.533013,2.916211,1.182983,-0.512812,2.216567,-9.880529,2.712778,-0.990319,-20.090376,0.756188,-9.150311,49.193016,-21.642164,1.565253,-7.263284,-0.486945,-9.051314,-19.549921,-20.104883,-22.557377,-9.886439,-1.593976,-30.819883,-44.005234,-10.491516,-13.822839,8064.000000,0.000000,4.000000,,,,0.000000,4.000000,0.000000,4.000000,4.000000,4.000000,4.000000,4.000000,4.000000,4.000000,4.000000,4.000000,4.000000,4.000000,4.000000,4.000000,4.000000,4.000000,4.000000,4.000000,4.000000,4.000000,4.000000,4.000000,4.000000,4.000000,4.000000,4.000000,4.000000,4.000000,4.000000,4.000000,4.000000,66.666664
1614040891.072553,57.000000,0.000000,-0.904644,12.329479,24.839926,9.780827,25.184299,6.643391,1.059264,16.246628,7.848466,13.333855,22.214350,2.437043,21.684423,18.497850,-1.095926,23.832355,-4.012955,60.938694,-12.389753,10.281636,4.538851,9.257132,-9.555083,-14.402166,-21.110420,-22.534821,-7.312450,-3.643664,-30.789063,-41.397129,-17.660511,-14.321836,8064.000000,0.000000,4.000000,,,,0.000000,4.000000,0.000000,4.000000,4.000000,4.000000,4.000000,4.000000,4.000000,4.000000,4.000000,4.000000,4.000000,4.000000,4.000000,4.000000,4.000000,4.000000,4.000000,4.000000,4.000000,4.000000,4.000000,4.000000,4.000000,4.000000,4.000000,4.000000,4.000000,4.000000,4.000000,4.000000,4.000000,66.666664
1614040891.080402,58.000000,0.000000,2.686004,17.445354,27.892010,9.258225,25.159115,4.585465,4.135128,21.358587,9.379079,26.141033,33.987007,10.126914,38.585815,29.248585,29.674400,42.270061,1.632084,74.211090,1.468790,20.527765,10.688158,11.811977,-9.545528,-6.695457,-13.397001,-19.948183,-5.766676,-3.640020,-29.732632,-34.176243,-18.155672,-12.769053,8192.000000,0.000000,4.000000,,,,0.000000,4.000000,0.000000,4.000000,4.000000,4.000000,4.000000,4.000000,4.000000,4.000000,4.000000,4.000000,4.000000,4.000000,4.000000,4.000000,4.000000,4.000000,4.000000,4.000000,4.000000,4.000000,4.000000,4.000000,4.000000,4.000000,4.000000,4.000000,4.000000,4.000000,4.000000,4.000000,4.000000,66.666664
1614040891.088152,59.000000,0.000000,2.683318,7.684319,27.864119,10.274608,27.185238,7.144982,5.156633,21.337229,9.882521,28.678995,33.953022,10.116787,43.162617,28.706514,46.567802,51.458561,2.656093,84.906105,-1.096781,19.481596,10.164650,10.774524,-9.535983,-3.611838,-8.255400,-18.389772,-6.273730,-3.636380,-30.728540,-31.065144,-18.137516,-13.269104,8064.000000,0.000000,4.000000,,,,0.000000,4.000000,0.000000,4.000000,4.000000,4.000000,4.000000,4.000000,4.000000,4.000000,4.000000,4.000000,4.000000,4.000000,4.000000,4.000000,4.000000,4.000000,4.000000,4.000000,4.000000,4.000000,4.000000,4.000000,4.000000,4.000000,4.000000,4.000000,4.000000,4.000000,4.000000,4.000000,4.000000,66.666664
1614040891.096000,60.000000,0.000000,2.167814,-7.707980,19.631124,9.751513,29.209335,7.137837,5.664297,18.751789,8.846997,28.137495,29.816504,8.568209,36.965607,25.600885,32.675083,41.150692,2.653437,78.154533,-11.352095,16.898012,8.103203,11.789391,-9.526447,-5.146688,-10.298426,-18.371384,-5.754636,-3.119923,-30.184992,-32.059719,-24.273224,-20.948143,8064.000000,0.000000,4.000000,,,,0.000000,4.000000,0.000000,4.000000,4.000000,4.000000,4.000000,4.000000,4.000000,4.000000,4.000000,4.000000,4.000000,4.000000,4.000000,4.000000,4.000000,4.000000,4.000000,4.000000,4.000000,4.000000,4.000000,4.000000,4.000000,4.000000,4.000000,4.000000,4.000000,4.000000,4.000000,4.000000,4.000000,66.666664
1614040891.103750,61.000000,0.000000,2.678467,-7.187452,6.790981,2.562274,19.436535,-8.766737,2.068889,4.886883,0.120201,18.365768,14.914892,4.969897,18.467102,12.241951,7.514202,16.494156,2.650783,56.025097,-13.904845,14.829832,3.992536,10.239140,-9.516920,-4.115900,-9.775308,-18.865831,-6.261702,-5.168086,-29.641987,-32.027660,-29.889977,-28.619503,8064.000000,0.000000,4.000000,,,,0.000000,4.000000,0.000000,4.000000,4.000000,4.000000,4.000000,4.000000,4.000000,4.000000,4.000000,4.000000,4.000000,4.000000,4.000000,4.000000,4.000000,4.000000,4.000000,4.000000,4.000000,4.000000,4.000000,4.000000,4.000000,4.000000,4.000000,4.000000,4.000000,4.000000,4.000000,4.000000,4.000000,66.666664
1614040891.111399,62.000000,0.000000,2.162968,10.768454,2.681626,-4.619775,7.622227,-24.142586,-5.625487,-9.989799,-9.110688,0.398684,-5.612843,-0.676099,2.038379,-4.180547,-4.288185,4.682790,0.084030,43.148560,-20.044786,8.661157,-3.190944,7.664798,-9.507403,-4.624605,-12.329635,-18.334146,-8.306722,-9.265481,-31.663626,-33.021275,-29.347267,-29.103704,8064.000000,0.000000,4.000000,,,,0.000000,4.000000,0.000000,4.000000,4.000000,4.000000,4.000000,4.000000,4.000000,4.000000,4.000000,4.000000,4.000000,4.000000,4.000000,4.000000,4.000000,4.000000,4.000000,4.000000,4.000000,4.000000,4.000000,4.000000,4.000000,4.000000,4.000000,4.000000,4.000000,4.000000,4.000000,4.000000,4.000000,66.666664
1614040891.119148,63.000000,0.000000,2.160805,12.808968,5.243047,-5.640797,5.563323,-17.964596,-10.235247,-11.005450,-10.127218,-7.806843,-10.222615,-2.726705,1.523520,-8.278931,-7.873640,5.703749,-1.967336,43.105412,-32.845253,2.498649,-11.392881,6.631492,-9.497896,-9.748185,-21.035254,-18.315811,-9.836877,-11.307498,-33.683247,-34.526714,-28.292278,-27.536139,8064.000000,0.000000,4.000000,,,,0.000000,4.000000,0.000000,4.000000,4.000000,4.000000,4.000000,4.000000,4.000000,4.000000,4.000000,4.000000,4.000000,4.000000,4.000000,4.000000,4.000000,4.000000,4.000000,4.000000,4.000000,4.000000,4.000000,4.000000,4.000000,4.000000,4.000000,4.000000,4.000000,4.000000,4.000000,4.000000,4.000000,66.666664
1614040891.126797,64.000000,0.000000,2.158644,-6.178201,3.186522,-6.147976,7.609042,-13.331247,-9.712191,-9.455983,-9.091450,-6.260574,-5.597008,-1.698337,1.009176,-6.732191,-8.891407,6.210865,-1.452548,47.677692,-30.248306,0.957689,-17.535336,5.599219,-9.488399,-12.815360,-26.655245,-20.348778,-9.827040,-10.783370,-34.162384,-38.081932,-28.776806,-28.534243,0.000000,199.000000,4.000000,,,,0.000000,4.000000,0.000000,4.000000,4.000000,4.000000,4.000000,4.000000,4.000000,4.000000,4.000000,4.000000,4.000000,4.000000,4.000000,4.000000,4.000000,4.000000,4.000000,4.000000,4.000000,4.000000,4.000000,4.000000,4.000000,4.000000,4.000000,4.000000,4.000000,4.000000,4.000000,4.000000,4.000000,66.666664
1614040891.134546,65.000000,0.000000,2.156486,-6.684843,0.106413,-9.218751,2.473228,-22.035864,-10.215299,-10.984988,-9.595180,-8.305595,-7.642693,-2.209459,-6.171320,-8.263920,-9.395336,5.179013,-2.476737,47.630013,-19.961647,1.469552,-17.517799,3.029518,-9.478909,-13.828186,-25.602947,-22.892532,-9.817213,-10.772587,-34.128220,-44.710514,-29.773670,-28.505709,0.000000,200.000000,4.000000,,,,0.000000,4.000000,0.000000,4.000000,4.000000,4.000000,4.000000,4.000000,4.000000,4.000000,4.000000,4.000000,4.000000,4.000000,4.000000,4.000000,4.000000,4.000000,4.000000,4.000000,4.000000,4.000000,4.000000,4.000000,4.000000,4.000000,4.000000,4.000000,4.000000,4.000000,4.000000,4.000000,4.000000,66.666664
1614040891.142195,66.000000,0.000000,2.154329,12.809021,0.619127,-9.722353,-1.631810,-21.501009,-10.205084,-8.409901,-10.098405,-6.758829,-5.070947,-3.232891,-6.165149,-7.230015,-11.437223,1.071270,-6.576824,33.223408,-30.710917,-2.121662,-15.961820,1.488027,-9.982251,-15.865640,-22.500422,-22.356819,-10.320216,-10.761814,-33.581272,-40.563240,-28.205435,-27.964382,0.000000,197.000000,4.000000,,,,0.000000,4.000000,0.000000,4.000000,4.000000,4.000000,4.000000,4.000000,4.000000,4.000000,4.000000,4.000000,4.000000,4.000000,4.000000,4.000000,4.000000,4.000000,4.000000,4.000000,4.000000,4.000000,4.000000,4.000000,4.000000,4.000000,4.000000,4.000000,4.000000,4.000000,4.000000,4.000000,4.000000,66.666664
1614040891.149944,67.000000,0.000000,2.152175,10.232110,1.131328,-8.686990,3.498027,-11.735918,-9.682058,-3.273286,-9.062665,0.940238,8.780277,-1.691196,3.071785,0.469523,-4.246299,6.198404,-2.980504,35.754288,-37.859692,0.444563,-11.330474,3.537821,-10.485089,-16.875416,-20.426640,-22.334461,-9.797075,-10.751052,-33.547691,-33.343189,-25.613127,-27.936419,0.000000,176.000000,4.000000,,,,0.000000,4.000000,0.000000,4.000000,4.000000,4.000000,4.000000,4.000000,4.000000,4.000000,4.000000,4.000000,4.000000,4.000000,4.000000,4.000000,4.000000,4.000000,4.000000,4.000000,4.000000,4.000000,4.000000,4.000000,4.000000,4.000000,4.000000,4.000000,4.000000,4.000000,4.000000,4.000000,4.000000,66.666664
1614040891.157594,68.000000,0.000000,2.150023,-9.778122,0.617376,-9.703944,10.161196,-11.211361,-10.185197,-1.731551,-7.002320,4.016221,18.002266,1.900238,13.837944,8.674182,14.732306,29.781950,5.227605,68.539047,-12.693628,13.264631,-1.062733,7.124026,-6.884861,-14.294437,-15.278008,-22.824947,-9.787278,-10.740301,-34.539783,-36.899590,-27.125977,-27.908482,0.000000,187.000000,4.000000,,,,0.000000,4.000000,0.000000,4.000000,4.000000,4.000000,4.000000,4.000000,4.000000,4.000000,4.000000,4.000000,4.000000,4.000000,4.000000,4.000000,4.000000,4.000000,4.000000,4.000000,4.000000,4.000000,4.000000,4.000000,4.000000,4.000000,4.000000,4.000000,4.000000,4.000000,4.000000,4.000000,4.000000,66.666664
1614040891.165343,69.000000,0.000000,1.635052,-6.691421,1.642400,-7.642958,11.176676,-12.738611,-9.149370,-2.242640,-5.456856,6.063487,17.984264,1.385518,17.413851,16.357815,24.461164,44.111141,5.222377,81.291023,5.267783,19.918034,4.066535,9.168184,-4.826694,-10.690399,-8.596063,-20.750841,-9.777492,-10.729561,-29.889858,-36.349869,-28.124491,-27.880573,0.000000,200.000000,4.000000,,,,0.000000,4.000000,0.000000,4.000000,4.000000,4.000000,4.000000,4.000000,4.000000,4.000000,4.000000,4.000000,4.000000,4.000000,4.000000,4.000000,4.000000,4.000000,4.000000,4.000000,4.000000,4.000000,4.000000,4.000000,4.000000,4.000000,4.000000,4.000000,4.000000,4.000000,4.000000,4.000000,4.000000,66.666664
1614040891.172992,70.000000,0.000000,2.146238,11.776809,4.204860,-3.019930,12.703960,-9.136129,-7.088939,-2.240397,-4.938579,16.826654,22.581665,2.409773,15.345154,23.520945,24.949524,45.605492,5.729975,69.927681,3.724054,19.898115,7.139391,16.338503,-7.898790,-7.089965,-6.536185,-15.601885,-9.767714,-10.718831,-21.142019,-24.518648,-23.480982,-27.852694,0.000000,188.000000,4.000000,,,,0.000000,4.000000,0.000000,4.000000,4.000000,4.000000,4.000000,4.000000,4.000000,4.000000,4.000000,4.000000,4.000000,4.000000,4.000000,4.000000,4.000000,4.000000,4.000000,4.000000,4.000000,4.000000,4.000000,4.000000,4.000000,4.000000,4.000000,4.000000,4.000000,4.000000,4.000000,4.000000,4.000000,66.666664
1614040891.180741,71.000000,0.000000,4.195374,9.713750,5.226296,-0.452808,17.306641,-7.588531,-5.543388,-2.238157,-2.882359,25.014956,31.277031,13.176594,24.047758,27.599987,36.206627,63.508606,20.083220,97.550056,24.745972,39.365395,21.491226,31.193960,-0.711405,-3.493131,-6.529648,-14.560642,-7.193843,-11.220933,-17.531134,-20.391565,-20.380577,-27.824841,0.000000,212.000000,4.000000,,,,0.000000,4.000000,0.000000,4.000000,4.000000,4.000000,4.000000,4.000000,4.000000,4.000000,4.000000,4.000000,4.000000,4.000000,4.000000,4.000000,4.000000,4.000000,4.000000,4.000000,4.000000,4.000000,4.000000,4.000000,4.000000,4.000000,4.000000,4.000000,4.000000,4.000000,4.000000,4.000000,4.000000,66.666664
1614040891.188390,72.000000,0.000000,6.242460,-3.629297,3.682608,-1.477996,18.827797,-8.093763,-5.537845,-2.235919,-1.341015,23.451479,33.809856,21.881367,36.331402,28.085209,50.529392,80.368172,29.806726,129.760193,46.259686,59.838852,31.726145,37.829433,13.648281,0.612926,-2.420555,-15.058902,-3.596906,-10.184071,-18.539244,-19.858355,-21.385838,-27.797016,0.000000,176.000000,4.000000,,,,0.000000,4.000000,0.000000,4.000000,4.000000,4.000000,4.000000,4.000000,4.000000,4.000000,4.000000,4.000000,4.000000,4.000000,4.000000,4.000000,4.000000,4.000000,4.000000,4.000000,4.000000,4.000000,4.000000,4.000000,4.000000,4.000000,4.000000,4.000000,4.000000,4.000000,4.000000,4.000000,4.000000,66.666664
1614040891.196139,73.000000,0.000000,5.723397,-0.548745,1.627644,-1.476518,17.783327,-8.598491,-7.070769,-2.746504,-1.852494,22.402386,30.186304,15.192819,27.577122,24.980200,38.171169,58.749344,21.571791,99.886848,19.546761,44.907219,22.976471,27.535192,11.583351,3.176415,1.171610,-14.531022,-2.567668,-10.686707,-18.520704,-14.710291,-21.364452,-27.256397,0.000000,207.000000,4.000000,,,,0.000000,4.000000,0.000000,4.000000,4.000000,4.000000,4.000000,4.000000,4.000000,4.000000,4.000000,4.000000,4.000000,4.000000,4.000000,4.000000,4.000000,4.000000,4.000000,4.000000,4.000000,4.000000,4.000000,4.000000,4.000000,4.000000,4.000000,4.000000,4.000000,4.000000,4.000000,4.000000,4.000000,66.666664
1614040891.203788,74.000000,0.000000,5.717674,9.708214,0.600375,-1.475041,17.252724,-10.128353,-9.114980,-2.230937,-1.850642,23.918446,22.976629,5.946856,8.062366,17.262913,6.850949,26.382902,12.832271,67.479271,-12.780479,16.144361,11.671443,17.764069,-0.735925,2.660419,0.144797,-15.029312,-2.565100,-11.701662,-17.989365,-17.772503,-20.830267,-27.741962,0.000000,176.000000,4.000000,,,,0.000000,4.000000,0.000000,4.000000,4.000000,4.000000,4.000000,4.000000,4.000000,4.000000,4.000000,4.000000,4.000000,4.000000,4.000000,4.000000,4.000000,4.000000,4.000000,4.000000,4.000000,4.000000,4.000000,4.000000,4.000000,4.000000,4.000000,4.000000,4.000000,4.000000,4.000000,4.000000,4.000000,66.666664
1614040891.211537,75.000000,0.000000,6.224776,1.493378,1.112595,-1.473566,17.748291,-12.169507,-10.131506,-0.690244,-1.848791,22.868887,16.799807,4.915268,7.541482,11.091803,-4.437953,15.074468,12.819439,60.232304,-20.460007,11.512833,11.146951,17.233482,1.316093,2.144938,0.657473,-14.501462,-1.024074,-6.048934,-18.484196,-22.882936,-20.809437,-27.714220,0.000000,180.000000,4.000000,,,,0.000000,4.000000,0.000000,4.000000,4.000000,4.000000,4.000000,4.000000,4.000000,4.000000,4.000000,4.000000,4.000000,4.000000,4.000000,4.000000,4.000000,4.000000,4.000000,4.000000,4.000000,4.000000,4.000000,4.000000,4.000000,4.000000,4.000000,4.000000,4.000000,4.000000,4.000000,4.000000,4.000000,66.666664
1614040891.219187,76.000000,0.000000,5.705731,-11.841449,1.111483,-0.959272,17.730543,-12.157337,-9.608554,1.361728,-1.846942,22.846018,15.757366,5.935994,13.687787,10.567890,7.874177,26.341444,13.319440,69.915665,-10.695956,21.757730,12.161445,18.754711,9.519905,2.655613,2.708097,-11.922858,1.028232,0.623781,-18.465712,-17.219027,-21.301449,-27.173685,0.000000,185.000000,4.000000,,,,0.000000,4.000000,0.000000,4.000000,4.000000,4.000000,4.000000,4.000000,4.000000,4.000000,4.000000,4.000000,4.000000,4.000000,4.000000,4.000000,4.000000,4.000000,4.000000,4.000000,4.000000,4.000000,4.000000,4.000000,4.000000,4.000000,4.000000,4.000000,4.000000,4.000000,4.000000,4.000000,4.000000,66.666664
1614040891.227036,77.000000,0.000000,4.674385,-3.111659,1.110371,-4.035236,16.687172,-12.145180,-10.111766,1.360366,-1.845095,22.310350,15.741610,4.391596,9.571535,11.070144,14.020148,32.981770,11.767659,84.717545,5.212175,25.838537,11.123643,19.248777,8.997565,2.140137,2.192569,-13.962217,1.027204,-2.966586,-19.985706,-15.663346,-21.280148,-27.146511,0.000000,178.000000,4.000000,,,,0.000000,4.000000,0.000000,4.000000,4.000000,4.000000,4.000000,4.000000,4.000000,4.000000,4.000000,4.000000,4.000000,4.000000,4.000000,4.000000,4.000000,4.000000,4.000000,4.000000,4.000000,4.000000,4.000000,4.000000,4.000000,4.000000,4.000000,4.000000,4.000000,4.000000,4.000000,4.000000,4.000000,66.666664
1614040891.234785,78.000000,0.000000,6.208171,14.327351,1.109261,-5.056842,19.234587,-12.133035,-9.588834,1.359006,-1.843250,22.800861,16.238688,4.387205,10.074784,11.059073,11.954846,34.487247,12.268712,98.991798,20.078758,25.299877,10.599698,20.767990,7.450106,1.625176,0.651914,-18.050819,1.538998,-7.066184,-22.017004,-21.288710,-21.258867,-29.683468,0.000000,188.000000,4.000000,,,,0.000000,4.000000,0.000000,4.000000,4.000000,4.000000,4.000000,4.000000,4.000000,4.000000,4.000000,4.000000,4.000000,4.000000,4.000000,4.000000,4.000000,4.000000,4.000000,4.000000,4.000000,4.000000,4.000000,4.000000,4.000000,4.000000,4.000000,4.000000,4.000000,4.000000,4.000000,4.000000,4.000000,66.666664
1614040891.242634,79.000000,0.000000,7.227604,15.851484,1.620972,-0.949221,23.317917,-10.069620,-7.015142,1.357647,-1.841407,22.778061,19.812193,6.434100,16.731377,11.048014,14.506994,37.016865,13.794905,86.585114,12.366371,27.325859,11.614739,22.285683,10.006758,2.136372,-1.400020,-16.494307,1.537459,-3.982194,-21.994986,-21.780241,-20.724787,-31.192245,0.000000,220.000000,4.000000,,,,0.000000,4.000000,0.000000,4.000000,4.000000,4.000000,4.000000,4.000000,4.000000,4.000000,4.000000,4.000000,4.000000,4.000000,4.000000,4.000000,4.000000,4.000000,4.000000,4.000000,4.000000,4.000000,4.000000,4.000000,4.000000,4.000000,4.000000,4.000000,4.000000,4.000000,4.000000,4.000000,4.000000,66.666664
1614040891.250383,80.000000,0.000000,2.604992,5.579223,1.106531,3.154292,25.345881,-8.008268,-5.982486,0.843469,-2.352386,21.729641,19.279560,4.376384,14.663363,10.524145,13.466846,32.364464,12.242648,61.370323,-8.158815,26.272892,12.115946,20.724936,7.945469,2.134235,0.139842,-13.913710,-0.002540,-3.465392,-22.998632,-21.245640,-20.704062,-30.648233,0.000000,200.000000,4.000000,,,,0.000000,4.000000,0.000000,4.000000,4.000000,4.000000,4.000000,4.000000,4.000000,4.000000,4.000000,4.000000,4.000000,4.000000,4.000000,4.000000,4.000000,4.000000,4.000000,4.000000,4.000000,4.000000,4.000000,4.000000,4.000000,4.000000,4.000000,4.000000,4.000000,4.000000,4.000000,4.000000,4.000000,66.666664
1614040891.258232,81.000000,0.000000,3.628028,-1.605844,-2.997140,2.125497,24.807714,-8.000260,-5.463683,2.893908,-0.811572,22.733553,19.773102,5.397648,16.699982,13.590545,14.991840,32.844917,12.743226,68.488441,-5.073733,27.785082,10.565368,22.242672,9.475986,2.132101,9.883292,-14.925437,3.074385,-2.949106,-21.949993,-19.685932,-21.196178,-30.617584,0.000000,199.000000,4.000000,,,,0.000000,4.000000,0.000000,4.000000,4.000000,4.000000,4.000000,4.000000,4.000000,4.000000,4.000000,4.000000,4.000000,4.000000,4.000000,4.000000,4.000000,4.000000,4.000000,4.000000,4.000000,4.000000,4.000000,4.000000,4.000000,4.000000,4.000000,4.000000,4.000000,4.000000,4.000000,4.000000,4.000000,66.666664
1614040891.265981,82.000000,0.000000,14.393631,1.985506,-7.096707,1.610551,23.757265,-9.017900,-2.894117,8.019218,1.240522,25.274921,27.958456,16.161482,28.478153,19.217979,30.874285,55.888996,19.909969,101.240463,18.521084,37.500885,12.093265,29.912739,16.133177,4.181251,18.078537,-14.910512,8.199516,3.207689,-17.312658,-15.563683,-20.662163,-33.151070,0.000000,216.000000,4.000000,,,,0.000000,4.000000,0.000000,4.000000,4.000000,4.000000,4.000000,4.000000,4.000000,4.000000,4.000000,4.000000,4.000000,4.000000,4.000000,4.000000,4.000000,4.000000,4.000000,4.000000,4.000000,4.000000,4.000000,4.000000,4.000000,4.000000,4.000000,4.000000,4.000000,4.000000,4.000000,4.000000,4.000000,66.666664
1614040891.273830,83.000000,0.000000,12.327955,10.701469,-5.551149,2.634582,24.759150,-7.983242,-1.352761,9.549661,2.264922,25.249647,29.981779,19.222242,29.475317,19.198761,33.407513,66.602341,17.838778,103.703323,20.553844,33.873642,15.670915,30.908466,12.014479,9.818095,14.983535,-15.408422,4.601573,1.153200,-16.782524,-20.676325,-21.154320,-34.143559,0.000000,198.000000,4.000000,,,,0.000000,4.000000,0.000000,4.000000,4.000000,4.000000,4.000000,4.000000,4.000000,4.000000,4.000000,4.000000,4.000000,4.000000,4.000000,4.000000,4.000000,4.000000,4.000000,4.000000,4.000000,4.000000,4.000000,4.000000,4.000000,4.000000,4.000000,4.000000,4.000000,4.000000,4.000000,4.000000,4.000000,66.666664
1614040891.281579,84.000000,0.000000,-4.094629,6.075383,-5.545598,2.119126,26.785671,-5.411156,-3.402690,6.976009,1.237016,26.250038,21.746670,4.331226,16.625328,15.589819,8.758721,34.228043,2.949144,71.291931,-10.748760,10.762845,11.039859,18.057045,-2.356510,9.808277,10.865988,-17.444296,-4.633798,-10.642825,-21.381126,-27.322315,-25.235731,-34.622238,0.000000,204.000000,4.000000,,,,0.000000,4.000000,0.000000,4.000000,4.000000,4.000000,4.000000,4.000000,4.000000,4.000000,4.000000,4.000000,4.000000,4.000000,4.000000,4.000000,4.000000,4.000000,4.000000,4.000000,4.000000,4.000000,4.000000,4.000000,4.000000,4.000000,4.000000,4.000000,4.000000,4.000000,4.000000,4.000000,4.000000,66.666664
1614040891.289428,85.000000,0.000000,-10.244381,-7.264026,-14.258000,2.117007,27.784527,-4.380104,-5.963390,4.917751,0.722959,31.351994,23.263384,-2.339772,13.018959,20.189613,-7.147474,13.680996,-3.720472,59.425766,-25.096987,-0.017149,4.362153,9.321039,-7.482358,2.106161,11.880763,-18.965313,-7.193267,-15.760387,-22.898207,-25.756531,-28.287418,-37.664536,0.000000,202.000000,4.000000,,,,0.000000,4.000000,0.000000,4.000000,4.000000,4.000000,4.000000,4.000000,4.000000,4.000000,4.000000,4.000000,4.000000,4.000000,4.000000,4.000000,4.000000,4.000000,4.000000,4.000000,4.000000,4.000000,4.000000,4.000000,4.000000,4.000000,4.000000,4.000000,4.000000,4.000000,4.000000,4.000000,4.000000,66.666664
1614040891.297177,86.000000,0.000000,-5.618752,-1.102916,-21.936050,2.114890,29.295204,-4.888544,-5.444606,4.400012,7.388902,33.884743,33.496532,6.380517,19.672607,26.323271,2.090443,40.846802,2.949915,86.545830,-3.533427,7.675176,6.409072,9.824538,-2.859492,-1.485688,9.304779,-18.946348,-6.160432,-14.206165,-22.875309,-25.217955,-29.284771,-41.729439,0.000000,216.000000,4.000000,,,,0.000000,4.000000,0.000000,4.000000,4.000000,4.000000,4.000000,4.000000,4.000000,4.000000,4.000000,4.000000,4.000000,4.000000,4.000000,4.000000,4.000000,4.000000,4.000000,4.000000,4.000000,4.000000,4.000000,4.000000,4.000000,4.000000,4.000000,4.000000,4.000000,4.000000,4.000000,4.000000,4.000000,66.666664
1614040891.305026,87.000000,0.000000,-4.587492,12.231521,-20.375652,2.112775,33.881294,-4.883656,-2.875059,4.395613,15.586641,33.850861,35.001495,9.451059,19.652935,23.732845,7.729378,47.472622,6.536709,86.972107,-1.478612,8.693142,11.530869,10.327535,-1.830991,5.695284,7.244193,-18.927401,-7.179913,-14.191959,-22.339613,-24.167095,-27.717026,-42.200527,0.000000,216.000000,4.000000,,,,0.000000,4.000000,0.000000,4.000000,4.000000,4.000000,4.000000,4.000000,4.000000,4.000000,4.000000,4.000000,4.000000,4.000000,4.000000,4.000000,4.000000,4.000000,4.000000,4.000000,4.000000,4.000000,4.000000,4.000000,4.000000,4.000000,4.000000,4.000000,4.000000,4.000000,4.000000,4.000000,4.000000,66.666664
1614040891.312775,88.000000,0.000000,-6.121366,2.475699,-16.765533,2.110663,36.411514,-4.878772,-1.846543,5.416858,15.571055,35.868290,30.863932,4.826223,15.530717,18.580906,4.644726,22.296944,4.991711,62.269749,-15.323287,8.684449,11.519338,9.291566,-3.367622,10.304974,10.313871,-17.882833,-6.659913,-15.203408,-18.727530,-18.501902,-25.638025,-41.132687,0.000000,203.000000,4.000000,,,,0.000000,4.000000,0.000000,4.000000,4.000000,4.000000,4.000000,4.000000,4.000000,4.000000,4.000000,4.000000,4.000000,4.000000,4.000000,4.000000,4.000000,4.000000,4.000000,4.000000,4.000000,4.000000,4.000000,4.000000,4.000000,4.000000,4.000000,4.000000,4.000000,4.000000,4.000000,4.000000,4.000000,66.666664
1614040891.320624,89.000000,0.000000,-5.602424,-13.424212,-17.261589,2.108552,34.323822,-4.873893,-3.895979,3.872980,11.965740,37.370884,30.833067,4.308577,16.028008,18.049505,9.255466,26.890032,5.499540,74.002350,1.102293,18.419353,11.507818,9.795094,-2.851434,9.269028,8.765096,-18.890591,-6.140432,-14.675385,-19.734444,-21.047503,-26.125208,-41.604374,0.000000,0.000000,4.000000,,,,0.000000,4.000000,0.000000,4.000000,4.000000,4.000000,4.000000,4.000000,4.000000,4.000000,4.000000,4.000000,4.000000,4.000000,4.000000,4.000000,4.000000,4.000000,4.000000,4.000000,4.000000,4.000000,4.000000,4.000000,4.000000,4.000000,4.000000,4.000000,4.000000,4.000000,4.000000,4.000000,4.000000,66.666664
1614040891.328373,90.000000,0.000000,-5.084001,-4.692839,-17.244328,2.106443,31.725395,-4.869020,-5.943365,4.381927,12.979416,36.820690,31.315054,5.329909,17.037621,18.544277,16.425697,46.350323,5.494040,94.953987,13.921703,24.041960,10.983490,10.298120,-2.335762,8.746939,3.628126,-19.384521,-7.159933,-14.147889,-18.689068,-25.641840,-27.124723,-41.562771,0.000000,205.000000,4.000000,,,,0.000000,4.000000,0.000000,4.000000,4.000000,4.000000,4.000000,4.000000,4.000000,4.000000,4.000000,4.000000,4.000000,4.000000,4.000000,4.000000,4.000000,4.000000,4.000000,4.000000,4.000000,4.000000,4.000000,4.000000,4.000000,4.000000,4.000000,4.000000,4.000000,4.000000,4.000000,4.000000,4.000000,66.666664
1614040891.336022,91.000000,0.000000,-5.078917,9.158008,-16.201441,2.104337,31.693670,-4.864151,-5.937421,14.633955,11.940795,36.783871,31.283739,6.350220,16.507761,18.012911,18.460554,44.765511,5.488546,85.115440,-1.989654,22.992277,10.972507,10.287822,-2.333426,9.763832,7.214241,-12.698469,-1.511747,-11.569638,-4.311405,-18.949532,-23.507856,-41.008389,0.000000,215.000000,4.000000,,,,0.000000,4.000000,0.000000,4.000000,4.000000,4.000000,4.000000,4.000000,4.000000,4.000000,4.000000,4.000000,4.000000,4.000000,4.000000,4.000000,4.000000,4.000000,4.000000,4.000000,4.000000,4.000000,4.000000,4.000000,4.000000,4.000000,4.000000,4.000000,4.000000,4.000000,4.000000,4.000000,4.000000,66.666664
1614040891.343771,92.000000,0.000000,-5.073838,0.943721,-17.210882,2.102233,31.661976,-4.859286,-5.931484,22.824450,8.851932,35.208626,28.688353,8.395152,16.491255,18.507719,18.442093,44.720745,7.021519,79.389305,-1.987665,24.507746,16.089739,10.277534,-2.331092,9.241248,14.386514,-3.967822,7.207713,-10.019608,3.898035,-14.828017,-19.894604,-40.454559,0.000000,197.000000,4.000000,,,,0.000000,4.000000,0.000000,4.000000,4.000000,4.000000,4.000000,4.000000,4.000000,4.000000,4.000000,4.000000,4.000000,4.000000,4.000000,4.000000,4.000000,4.000000,4.000000,4.000000,4.000000,4.000000,4.000000,4.000000,4.000000,4.000000,4.000000,4.000000,4.000000,4.000000,4.000000,4.000000,4.000000,66.666664
1614040891.351420,93.000000,0.000000,-5.068764,-8.800813,-19.757772,2.100130,31.117493,-4.854427,-5.925552,19.211882,8.330259,33.122135,20.454536,7.361116,16.474762,16.437929,14.321087,38.009357,2.911933,78.284271,2.629708,19.355034,17.612110,10.267257,-2.328761,9.232007,13.346487,-4.476675,7.713326,-10.522408,-5.849453,-19.941395,-20.900351,-41.439743,0.000000,189.000000,4.000000,,,,0.000000,4.000000,0.000000,4.000000,4.000000,4.000000,4.000000,4.000000,4.000000,4.000000,4.000000,4.000000,4.000000,4.000000,4.000000,4.000000,4.000000,4.000000,4.000000,4.000000,4.000000,4.000000,4.000000,4.000000,4.000000,4.000000,4.000000,4.000000,4.000000,4.000000,4.000000,4.000000,4.000000,66.666664
1614040891.359170,94.000000,0.000000,-5.063695,0.951578,-20.763657,2.098030,30.573555,-4.849573,-5.919627,15.090106,8.834749,32.576191,15.818698,5.302473,15.945468,14.883030,5.075997,17.971348,-4.783286,61.795731,-20.449844,5.489525,9.902191,9.744169,-2.326432,9.222775,10.256217,-8.061942,2.064587,-10.511886,-12.510270,-21.972736,-18.828169,-40.885483,0.000000,219.000000,4.000000,,,,0.000000,4.000000,0.000000,4.000000,4.000000,4.000000,4.000000,4.000000,4.000000,4.000000,4.000000,4.000000,4.000000,4.000000,4.000000,4.000000,4.000000,4.000000,4.000000,4.000000,4.000000,4.000000,4.000000,4.000000,4.000000,4.000000,4.000000,4.000000,4.000000,4.000000,4.000000,4.000000,4.000000,66.666664
1614040891.366819,95.000000,0.000000,-5.058632,10.181396,-20.230072,2.095932,31.055803,-4.844723,-5.913707,18.151939,8.825914,33.056438,17.854160,5.809991,15.416701,18.970711,3.019639,28.722607,-5.291323,67.374962,-24.019138,5.484035,9.379468,9.734425,-2.324106,9.213552,10.758781,-7.541059,0.524061,-9.988553,-7.882375,-20.925121,-13.681135,-39.818958,0.000000,185.000000,4.000000,,,,0.000000,4.000000,0.000000,4.000000,4.000000,4.000000,4.000000,4.000000,4.000000,4.000000,4.000000,4.000000,4.000000,4.000000,4.000000,4.000000,4.000000,4.000000,4.000000,4.000000,4.000000,4.000000,4.000000,4.000000,4.000000,4.000000,4.000000,4.000000,4.000000,4.000000,4.000000,4.000000,4.000000,66.666664
1614040891.374568,96.000000,0.000000,-5.053573,1.453266,-20.209843,2.093836,31.024746,-5.352699,-5.907794,20.185068,8.817088,33.023380,19.887589,4.265719,16.939747,22.541483,6.606363,50.745167,-1.696288,87.820404,-2.456658,12.145218,15.011114,10.750332,-2.321782,9.204338,11.773664,-6.507877,1.549178,-10.491385,-6.848852,-19.365734,-12.641813,-44.907345,8064.000000,0.000000,4.000000,,,,0.000000,4.000000,0.000000,4.000000,4.000000,4.000000,4.000000,4.000000,4.000000,4.000000,4.000000,4.000000,4.000000,4.000000,4.000000,4.000000,4.000000,4.000000,4.000000,4.000000,4.000000,4.000000,4.000000,4.000000,4.000000,4.000000,4.000000,4.000000,4.000000,4.000000,4.000000,4.000000,4.000000,66.666664
1614040891.382217,97.000000,0.000000,-5.048520,-7.266136,-20.189632,2.091743,30.993721,-4.834526,-5.901886,19.139242,8.295451,32.990356,19.354881,2.210171,16.922806,22.006123,5.061295,33.771343,-3.745874,74.399254,-10.659330,2.389483,10.380719,9.713941,-2.319460,9.195134,11.249069,-7.527010,1.034808,-10.480894,-8.380465,-15.243805,-13.654812,-52.041924,8192.000000,0.000000,4.000000,,,,0.000000,4.000000,0.000000,4.000000,4.000000,4.000000,4.000000,4.000000,4.000000,4.000000,4.000000,4.000000,4.000000,4.000000,4.000000,4.000000,4.000000,4.000000,4.000000,4.000000,4.000000,4.000000,4.000000,4.000000,4.000000,4.000000,4.000000,4.000000,4.000000,4.000000,4.000000,4.000000,4.000000,66.666664
1614040891.389966,98.000000,0.000000,-5.043471,-4.694767,-19.656622,2.089651,33.526833,-1.752768,-6.408804,18.607283,9.312797,32.444546,19.335526,1.695141,14.854602,21.471294,2.492131,16.301676,-6.306231,64.581268,-21.417902,-3.253932,9.857517,10.729867,-2.317141,9.698759,10.212179,-7.519484,1.033773,-10.470413,-8.372084,-13.177279,-13.128337,-49.938599,8064.000000,0.000000,4.000000,,,,0.000000,4.000000,0.000000,4.000000,4.000000,4.000000,4.000000,4.000000,4.000000,4.000000,4.000000,4.000000,4.000000,4.000000,4.000000,4.000000,4.000000,4.000000,4.000000,4.000000,4.000000,4.000000,4.000000,4.000000,4.000000,4.000000,4.000000,4.000000,4.000000,4.000000,4.000000,4.000000,4.000000,66.666664
1614040891.397615,99.000000,0.000000,-5.038428,0.438132,-20.149786,2.087561,37.595867,1.325908,-5.889575,19.101496,11.354766,32.924923,19.829010,1.180625,21.506414,21.962645,11.207587,32.695629,-2.197361,89.644890,-0.370842,14.698040,19.591249,17.898624,-2.314824,9.689061,11.227608,-7.511964,1.032740,-10.459943,-7.850891,-12.651281,-13.115209,-46.298916,8064.000000,0.000000,4.000000,,,,0.000000,4.000000,0.000000,4.000000,4.000000,4.000000,4.000000,4.000000,4.000000,4.000000,4.000000,4.000000,4.000000,4.000000,4.000000,4.000000,4.000000,4.000000,4.000000,4.000000,4.000000,4.000000,4.000000,4.000000,4.000000,4.000000,4.000000,4.000000,4.000000,4.000000,4.000000,4.000000,4.000000,66.666664
1614040891.405364,100.000000,0.000000,-5.033389,0.437694,-22.693739,2.085474,39.096733,2.863044,-3.319583,19.082394,12.881872,32.891998,19.809181,2.205086,31.228497,22.453503,21.452789,45.996269,2.420221,96.734734,6.296195,28.016676,16.494736,22.496111,-2.312509,8.653730,11.729201,-6.991632,1.544527,-10.449483,-7.843040,-13.151451,-13.102094,-53.432106,8064.000000,0.000000,4.000000,,,,0.000000,4.000000,0.000000,4.000000,4.000000,4.000000,4.000000,4.000000,4.000000,4.000000,4.000000,4.000000,4.000000,4.000000,4.000000,4.000000,4.000000,4.000000,4.000000,4.000000,4.000000,4.000000,4.000000,4.000000,4.000000,4.000000,4.000000,4.000000,4.000000,4.000000,4.000000,4.000000,4.000000,66.666664
1614040891.413014,101.000000,0.000000,-5.028356,-0.588384,-26.260788,2.083388,38.544815,2.347360,-1.777802,19.063313,12.356170,29.782183,19.789373,4.766983,26.069063,22.431049,16.815952,39.283604,2.417801,76.637993,-11.658819,18.757889,4.170548,16.832588,-2.310196,10.183538,5.563626,-8.523102,1.030162,-10.439034,-7.322377,-17.240864,-13.088991,-62.609444,8064.000000,0.000000,4.000000,,,,0.000000,4.000000,0.000000,4.000000,4.000000,4.000000,4.000000,4.000000,4.000000,4.000000,4.000000,4.000000,4.000000,4.000000,4.000000,4.000000,4.000000,4.000000,4.000000,4.000000,4.000000,4.000000,4.000000,4.000000,4.000000,4.000000,4.000000,4.000000,4.000000,4.000000,4.000000,4.000000,4.000000,66.666664
1614040891.420763,102.000000,0.000000,-5.023327,-0.587796,-27.772989,1.568484,38.506271,1.832192,-2.288845,19.044249,12.343814,25.137014,19.769583,2.198113,13.222482,20.357336,5.004265,29.500731,1.902563,67.843407,-17.801006,11.046824,2.627916,10.661910,-2.307886,9.660534,-3.672707,-11.078681,-1.534970,-10.428594,-8.853516,-20.813366,-15.640005,-63.572475,8192.000000,0.000000,4.000000,,,,0.000000,4.000000,0.000000,4.000000,4.000000,4.000000,4.000000,4.000000,4.000000,4.000000,4.000000,4.000000,4.000000,4.000000,4.000000,4.000000,4.000000,4.000000,4.000000,4.000000,4.000000,4.000000,4.000000,4.000000,4.000000,4.000000,4.000000,4.000000,4.000000,4.000000,4.000000,4.000000,4.000000,66.666664
1614040891.428412,103.000000,0.000000,-5.018304,1.464074,-27.745216,1.566916,38.467766,1.830360,-2.799376,19.025204,12.331470,24.599058,19.749813,-1.393828,11.157977,17.260056,1.922338,23.830204,1.900660,66.237106,-18.296026,11.035777,5.189391,10.138428,-2.305578,2.984207,-5.720316,-12.093244,-3.071897,-10.418165,-6.793380,-20.792553,-17.162827,-61.970440,8064.000000,0.000000,4.000000,,,,0.000000,4.000000,0.000000,4.000000,4.000000,4.000000,4.000000,4.000000,4.000000,4.000000,4.000000,4.000000,4.000000,4.000000,4.000000,4.000000,4.000000,4.000000,4.000000,4.000000,4.000000,4.000000,4.000000,4.000000,4.000000,4.000000,4.000000,4.000000,4.000000,4.000000,4.000000,4.000000,4.000000,66.666664
1614040891.436261,104.000000,0.000000,-5.013286,5.565174,-27.204651,2.078169,37.916477,4.392632,-2.283756,18.493359,12.319139,26.112921,19.730064,0.146027,13.710921,18.781258,3.458877,24.319195,1.898760,60.017021,-25.457216,6.409357,3.132920,8.589828,-2.303272,-1.634162,-3.150494,-11.055509,-2.043184,-10.407747,-1.658382,-23.335863,-17.658484,-61.908470,8064.000000,0.000000,4.000000,,,,0.000000,4.000000,0.000000,4.000000,4.000000,4.000000,4.000000,4.000000,4.000000,4.000000,4.000000,4.000000,4.000000,4.000000,4.000000,4.000000,4.000000,4.000000,4.000000,4.000000,4.000000,4.000000,4.000000,4.000000,4.000000,4.000000,4.000000,4.000000,4.000000,4.000000,4.000000,4.000000,4.000000,66.666664
1614040891.444010,105.000000,0.000000,-5.521093,-0.594238,-27.177446,1.563271,38.391380,5.926701,-2.281473,18.987686,11.793999,23.009884,19.710333,1.684343,11.645928,18.249655,0.891315,24.807697,1.896861,58.931362,-28.508682,0.249101,3.129787,6.017135,-2.300969,0.418755,-5.198625,-11.044454,-4.092423,-9.884519,-2.682364,-28.440733,-18.666466,-62.872204,8064.000000,0.000000,4.000000,,,,0.000000,4.000000,0.000000,4.000000,4.000000,4.000000,4.000000,4.000000,4.000000,4.000000,4.000000,4.000000,4.000000,4.000000,4.000000,4.000000,4.000000,4.000000,4.000000,4.000000,4.000000,4.000000,4.000000,4.000000,4.000000,4.000000,4.000000,4.000000,4.000000,4.000000,4.000000,4.000000,4.000000,66.666664
1614040891.451859,106.000000,0.000000,-5.002751,-11.875694,-28.688730,1.048887,38.352989,5.407954,-2.279191,18.455877,11.782205,21.448412,19.690624,1.682658,11.121462,9.000636,1.403245,23.244427,1.382143,65.026276,-27.454533,0.248852,4.152298,5.498298,-2.811489,1.956797,-4.680606,-12.059051,-6.652433,-10.900275,-7.807888,-28.925112,-21.724724,-61.783688,8064.000000,0.000000,4.000000,,,,0.000000,4.000000,0.000000,4.000000,4.000000,4.000000,4.000000,4.000000,4.000000,4.000000,4.000000,4.000000,4.000000,4.000000,4.000000,4.000000,4.000000,4.000000,4.000000,4.000000,4.000000,4.000000,4.000000,4.000000,4.000000,4.000000,4.000000,4.000000,4.000000,4.000000,4.000000,4.000000,4.000000,66.666664
1614040891.459608,107.000000,0.000000,-2.946467,-5.197152,-24.557478,7.201684,38.314636,10.017931,-0.738450,18.437422,13.308885,26.042349,19.670933,4.757899,12.648803,3.350610,3.453123,24.246824,2.406402,64.961250,-21.786053,0.248603,4.148146,6.005620,-2.295857,0.929200,3.016382,-7.944427,-1.517576,-10.376554,-7.800079,-24.280802,-21.190178,-56.593700,8064.000000,0.000000,4.000000,,,,0.000000,4.000000,0.000000,4.000000,4.000000,4.000000,4.000000,4.000000,4.000000,4.000000,4.000000,4.000000,4.000000,4.000000,4.000000,4.000000,4.000000,4.000000,4.000000,4.000000,4.000000,4.000000,4.000000,4.000000,4.000000,4.000000,4.000000,4.000000,4.000000,4.000000,4.000000,4.000000,4.000000,66.666664
1614040891.467457,108.000000,0.000000,-1.405059,8.654199,-14.789330,15.912431,40.840424,16.674580,1.313570,19.957447,15.859678,29.606050,19.651262,8.342884,11.610513,4.885721,0.885568,17.043091,3.942457,60.280907,-8.430934,3.838098,5.169639,6.512435,0.783362,2.466732,10.192853,-1.269816,4.637788,-5.750793,-4.202536,-20.666779,-16.040783,-52.947365,8064.000000,0.000000,4.000000,,,,0.000000,4.000000,0.000000,4.000000,4.000000,4.000000,4.000000,4.000000,4.000000,4.000000,4.000000,4.000000,4.000000,4.000000,4.000000,4.000000,4.000000,4.000000,4.000000,4.000000,4.000000,4.000000,4.000000,4.000000,4.000000,4.000000,4.000000,4.000000,4.000000,4.000000,4.000000,4.000000,4.000000,66.666664
1614040891.475206,109.000000,0.000000,1.160449,0.440416,-11.184797,17.434980,42.850864,17.683546,1.825077,21.988771,16.356638,29.063623,19.631611,9.873003,13.137363,7.444938,4.987246,17.538868,5.989797,72.015495,6.962113,23.321440,10.292674,13.685410,4.885143,4.002727,11.721122,0.782736,5.145971,-2.668120,-3.685513,-20.133291,-12.947819,-57.509800,8064.000000,0.000000,4.000000,,,,0.000000,4.000000,0.000000,4.000000,4.000000,4.000000,4.000000,4.000000,4.000000,4.000000,4.000000,4.000000,4.000000,4.000000,4.000000,4.000000,4.000000,4.000000,4.000000,4.000000,4.000000,4.000000,4.000000,4.000000,4.000000,4.000000,4.000000,4.000000,4.000000,4.000000,4.000000,4.000000,4.000000,66.666664
1614040891.483055,110.000000,0.000000,4.749032,-8.790793,-11.686433,16.904724,39.218273,16.640221,1.310431,22.479603,15.827461,28.521740,19.611979,12.427233,20.303713,14.104159,25.495079,45.726456,10.086371,96.046043,15.160278,39.708374,18.487509,21.876852,5.393078,7.588468,11.196580,-0.243688,4.628005,-2.665452,-4.707468,-20.625978,-12.934871,-61.554855,8064.000000,0.000000,4.000000,,,,0.000000,4.000000,0.000000,4.000000,4.000000,4.000000,4.000000,4.000000,4.000000,4.000000,4.000000,4.000000,4.000000,4.000000,4.000000,4.000000,4.000000,4.000000,4.000000,4.000000,4.000000,4.000000,4.000000,4.000000,4.000000,4.000000,4.000000,4.000000,4.000000,4.000000,4.000000,4.000000,4.000000,66.666664
1614040891.490804,111.000000,0.000000,6.282744,12.243639,-10.649105,17.400640,33.025208,17.136402,1.309121,21.944302,16.324455,29.006039,19.592367,11.901985,25.411615,24.346466,35.213173,57.988422,13.666029,84.155128,-0.239497,25.309692,20.520304,21.854975,4.874865,14.760366,11.185384,0.269376,5.649017,-3.175607,-4.189940,-20.092531,-12.921936,-60.467659,8064.000000,0.000000,4.000000,,,,0.000000,4.000000,0.000000,4.000000,4.000000,4.000000,4.000000,4.000000,4.000000,4.000000,4.000000,4.000000,4.000000,4.000000,4.000000,4.000000,4.000000,4.000000,4.000000,4.000000,4.000000,4.000000,4.000000,4.000000,4.000000,4.000000,4.000000,4.000000,4.000000,4.000000,4.000000,4.000000,4.000000,66.666664
1614040891.498653,112.000000,0.000000,5.763641,29.154472,-16.792303,12.767856,30.428080,16.606445,1.307812,22.435179,16.308130,28.977032,19.572775,8.813160,22.309280,25.347759,21.844627,31.263767,12.113901,54.840202,-19.726437,2.207459,11.269014,20.807480,4.869990,16.284067,11.687018,0.781928,3.592086,-2.659611,-4.185750,-20.072439,-12.909014,-61.945652,8064.000000,0.000000,4.000000,,,,0.000000,4.000000,0.000000,4.000000,4.000000,4.000000,4.000000,4.000000,4.000000,4.000000,4.000000,4.000000,4.000000,4.000000,4.000000,4.000000,4.000000,4.000000,4.000000,4.000000,4.000000,4.000000,4.000000,4.000000,4.000000,4.000000,4.000000,4.000000,4.000000,4.000000,4.000000,4.000000,4.000000,66.666664
1614040891.506402,113.000000,0.000000,6.270698,5.535574,-28.057562,5.575600,30.910473,13.512915,1.306504,22.412743,13.727719,28.435234,19.553202,9.829988,19.722868,22.245489,14.643296,20.976093,9.537684,67.093056,-3.809275,5.794995,5.103899,22.325134,5.377940,13.190861,11.675332,-0.757316,1.537212,-3.169771,-4.181565,-20.565187,-13.408926,-65.986275,8064.000000,0.000000,4.000000,,,,0.000000,4.000000,0.000000,4.000000,4.000000,4.000000,4.000000,4.000000,4.000000,4.000000,4.000000,4.000000,4.000000,4.000000,4.000000,4.000000,4.000000,4.000000,4.000000,4.000000,4.000000,4.000000,4.000000,4.000000,4.000000,4.000000,4.000000,4.000000,4.000000,4.000000,4.000000,4.000000,4.000000,66.666664
1614040891.514251,114.000000,0.000000,5.751607,-17.546885,-31.106426,4.544384,28.828279,12.473761,1.305198,22.390331,11.662710,28.406799,19.533649,7.768876,21.241608,22.223244,14.115832,31.211527,7.989686,82.923401,6.963766,8.353303,3.047513,14.610500,4.859742,13.177670,7.048272,-2.807841,1.022855,-3.166602,-4.177383,-20.031801,-12.882696,-68.484390,8064.000000,0.000000,4.000000,,,,0.000000,4.000000,0.000000,4.000000,4.000000,4.000000,4.000000,4.000000,4.000000,4.000000,4.000000,4.000000,4.000000,4.000000,4.000000,4.000000,4.000000,4.000000,4.000000,4.000000,4.000000,4.000000,4.000000,4.000000,4.000000,4.000000,4.000000,4.000000,4.000000,4.000000,4.000000,4.000000,4.000000,66.666664
1614040891.522000,115.000000,0.000000,5.745855,1.957842,-32.100960,5.565480,26.235348,12.974108,1.303892,22.367941,11.651047,28.891212,19.001295,-0.956842,16.092159,19.124098,-3.334181,16.821342,5.930414,51.045601,-25.350891,-11.655051,-5.673483,0.236916,4.854882,9.061928,-2.189546,-5.369135,-3.080732,-3.163435,-4.173206,-20.011768,-13.382634,-72.005646,8064.000000,0.000000,4.000000,,,,0.000000,4.000000,0.000000,4.000000,4.000000,4.000000,4.000000,4.000000,4.000000,4.000000,4.000000,4.000000,4.000000,4.000000,4.000000,4.000000,4.000000,4.000000,4.000000,4.000000,4.000000,4.000000,4.000000,4.000000,4.000000,4.000000,4.000000,4.000000,4.000000,4.000000,4.000000,4.000000,4.000000,66.666664
1614040891.529849,116.000000,0.000000,5.740109,22.981525,-37.709885,5.047094,26.209114,12.961134,1.302588,22.345572,12.152217,27.836681,19.495113,-0.955885,6.845299,13.976768,-16.151360,5.009648,4.898842,35.097122,-42.248615,-14.720319,-10.283194,-2.327424,4.850027,-1.716365,-4.751459,-7.415048,-6.667395,-3.160272,-4.169033,-21.530218,-17.984636,-78.087486,8064.000000,0.000000,4.000000,,,,0.000000,4.000000,0.000000,4.000000,4.000000,4.000000,4.000000,4.000000,4.000000,4.000000,4.000000,4.000000,4.000000,4.000000,4.000000,4.000000,4.000000,4.000000,4.000000,4.000000,4.000000,4.000000,4.000000,4.000000,4.000000,4.000000,4.000000,4.000000,4.000000,4.000000,4.000000,4.000000,4.000000,66.666664
