title:32, start timestamp:1614041044.270224, stop timestamp:1614041090.110006, headset type:EPOCFLEX, headset serial:F00001ED, headset firmware:f12, subject name:s05, channels:75, sampling rate:128, samples:5919      , version:2.0
Timestamp,EEG.Counter,EEG.Interpolated,EEG.Cz,EEG.Fz,EEG.Fp1,EEG.AF3,EEG.F7,EEG.F3,EEG.FC1,EEG.C3,EEG.FC5,EEG.T7,EEG.CP5,EEG.CP1,EEG.P3,EEG.P7,EEG.PO3,EEG.O1,EEG.Pz,EEG.Oz,EEG.O2,EEG.PO4,EEG.P8,EEG.P4,EEG.CP2,EEG.CP6,EEG.T8,EEG.FC6,EEG.C4,EEG.FC2,EEG.F4,EEG.F8,EEG.AF4,EEG.Fp2,EEG.HighBitFlex,EEG.RawCq,EEG.Battery,MarkerIndex,MarkerType,MarkerValueInt,EEG.MarkerHardware,CQ.Cz,CQ.Fz,CQ.Fp1,CQ.AF3,CQ.F7,CQ.F3,CQ.FC1,CQ.C3,CQ.FC5,CQ.T7,CQ.CP5,CQ.CP1,CQ.P3,CQ.P7,CQ.PO3,CQ.O1,CQ.Pz,CQ.Oz,CQ.O2,CQ.PO4,CQ.P8,CQ.P4,CQ.CP2,CQ.CP6,CQ.T8,CQ.FC6,CQ.C4,CQ.FC2,CQ.F4,CQ.F8,CQ.AF4,CQ.Fp2,CQ.Overall
1614041044.270224,114.000000,0.000000,-1.013476,-17.649303,13.372902,9.396489,11.128106,10.915126,6.873855,7.923395,6.541121,18.132545,16.042635,5.235019,14.814921,0.107901,9.884151,9.242536,-2.166600,70.439110,66.236656,22.484512,0.722849,7.061854,7.675376,-7.286190,0.173917,1.661449,-2.450149,0.070418,-3.746262,15.362893,28.431162,20.629784,8064.000000,0.000000,4.000000,,,,0.000000,4.000000,0.000000,4.000000,4.000000,4.000000,4.000000,4.000000,4.000000,4.000000,4.000000,4.000000,4.000000,4.000000,4.000000,4.000000,4.000000,4.000000,4.000000,4.000000,4.000000,4.000000,4.000000,4.000000,4.000000,4.000000,4.000000,4.000000,4.000000,4.000000,4.000000,4.000000,4.000000,66.666664
1614041044.277874,115.000000,0.000000,2.577281,-19.170115,13.359529,9.899913,11.116978,11.417031,6.866981,6.377010,5.508939,16.063129,12.949670,4.204143,10.184722,-2.969130,5.771702,-6.151322,-3.190074,46.778927,47.196060,16.821001,1.747767,3.977870,5.103598,5.541609,2.737846,2.172608,-0.909237,0.583168,-2.716875,16.373171,34.043755,20.096333,8064.000000,0.000000,4.000000,,,,0.000000,4.000000,0.000000,4.000000,4.000000,4.000000,4.000000,4.000000,4.000000,4.000000,4.000000,4.000000,4.000000,4.000000,4.000000,4.000000,4.000000,4.000000,4.000000,4.000000,4.000000,4.000000,4.000000,4.000000,4.000000,4.000000,4.000000,4.000000,4.000000,4.000000,4.000000,4.000000,4.000000,66.666664
1614041044.285623,116.000000,0.000000,-0.502219,-18.638124,12.833349,9.377192,4.952014,6.277409,6.860114,-0.296033,2.426507,6.303477,3.705951,1.123015,-4.184437,-12.709751,-7.567403,-17.427223,-6.776628,40.065483,36.379635,9.624694,0.720379,-2.179955,-2.593813,3.997606,-7.008482,-1.419308,-3.472431,-0.955877,-5.791081,6.100388,25.291763,17.512135,8064.000000,0.000000,4.000000,,,,0.000000,4.000000,0.000000,4.000000,4.000000,4.000000,4.000000,4.000000,4.000000,4.000000,4.000000,4.000000,4.000000,4.000000,4.000000,4.000000,4.000000,4.000000,4.000000,4.000000,4.000000,4.000000,4.000000,4.000000,4.000000,4.000000,4.000000,4.000000,4.000000,4.000000,4.000000,4.000000,4.000000,66.666664
1614041044.293272,117.000000,0.000000,-4.604281,-19.132307,12.820516,9.367815,-0.181143,2.168567,6.853253,-4.911122,-0.140023,-0.882314,0.112501,1.634713,-9.821279,-19.363708,-7.559835,-15.358513,-6.257031,61.051056,56.343254,21.922762,4.309402,0.899149,-3.104040,-8.314084,-7.001473,-1.417889,-4.494599,-3.006203,-6.810931,5.581467,17.061342,18.007442,8064.000000,0.000000,4.000000,,,,0.000000,4.000000,0.000000,4.000000,4.000000,4.000000,4.000000,4.000000,4.000000,4.000000,4.000000,4.000000,4.000000,4.000000,4.000000,4.000000,4.000000,4.000000,4.000000,4.000000,4.000000,4.000000,4.000000,4.000000,4.000000,4.000000,4.000000,4.000000,4.000000,4.000000,4.000000,4.000000,4.000000,66.666664
1614041044.301021,118.000000,0.000000,-5.625318,-19.113174,12.807695,9.358447,-0.693782,2.679219,6.846400,-4.393390,-0.652703,0.657030,2.163671,2.658719,-6.221714,-19.344345,-6.526634,-14.830335,-5.225133,54.323341,52.184349,19.336737,5.843554,-0.127392,-3.100936,-8.305770,4.800400,-0.903650,-1.926002,-4.028838,-2.188735,11.216911,18.582743,22.091999,8064.000000,0.000000,4.000000,,,,0.000000,4.000000,0.000000,4.000000,4.000000,4.000000,4.000000,4.000000,4.000000,4.000000,4.000000,4.000000,4.000000,4.000000,4.000000,4.000000,4.000000,4.000000,4.000000,4.000000,4.000000,4.000000,4.000000,4.000000,4.000000,4.000000,4.000000,4.000000,4.000000,4.000000,4.000000,4.000000,4.000000,66.666664
1614041044.308670,119.000000,0.000000,-5.619692,-19.094061,12.794888,9.349089,-0.180268,3.702181,6.839554,-3.876176,-0.652050,2.707655,1.648687,1.630419,-5.189851,-20.350641,-9.597031,-16.866785,-6.245549,35.294659,29.055241,1.368681,-1.341777,-3.204187,-3.097835,-7.271823,5.308420,-1.415567,-0.898435,-3.511988,-0.135264,10.692874,19.589802,22.069908,8064.000000,0.000000,4.000000,,,,0.000000,4.000000,0.000000,4.000000,4.000000,4.000000,4.000000,4.000000,4.000000,4.000000,4.000000,4.000000,4.000000,4.000000,4.000000,4.000000,4.000000,4.000000,4.000000,4.000000,4.000000,4.000000,4.000000,4.000000,4.000000,4.000000,4.000000,4.000000,4.000000,4.000000,4.000000,4.000000,4.000000,66.666664
1614041044.316419,120.000000,0.000000,-5.614073,-19.074968,12.782093,9.339740,-0.180088,2.160017,6.832715,-4.385121,-0.651398,2.192127,0.621397,1.628789,-6.210302,-23.407213,-7.536152,-16.337099,-6.239303,47.567055,39.282597,6.495518,-6.468640,-1.149701,-0.017814,-12.905577,-0.850734,-1.414152,-1.923178,-3.508476,-3.724873,10.169360,18.031750,19.996555,8064.000000,0.000000,4.000000,,,,0.000000,4.000000,0.000000,4.000000,4.000000,4.000000,4.000000,4.000000,4.000000,4.000000,4.000000,4.000000,4.000000,4.000000,4.000000,4.000000,4.000000,4.000000,4.000000,4.000000,4.000000,4.000000,4.000000,4.000000,4.000000,4.000000,4.000000,4.000000,4.000000,4.000000,4.000000,4.000000,4.000000,66.666664
1614041044.324068,121.000000,0.000000,-6.121279,-14.440508,13.282131,9.843221,-0.179907,0.106575,7.338702,-4.380736,-0.650747,2.189935,1.646417,2.139981,-6.204092,-23.383806,-10.092718,-16.320761,-5.207423,46.493847,43.345879,8.027484,-7.487813,-8.328038,-3.607540,-13.918312,-0.337063,-2.951199,-1.408434,-3.504968,-4.233968,8.107909,19.039360,19.463737,8064.000000,0.000000,4.000000,,,,0.000000,4.000000,0.000000,4.000000,4.000000,4.000000,4.000000,4.000000,4.000000,4.000000,4.000000,4.000000,4.000000,4.000000,4.000000,4.000000,4.000000,4.000000,4.000000,4.000000,4.000000,4.000000,4.000000,4.000000,4.000000,4.000000,4.000000,4.000000,4.000000,4.000000,4.000000,4.000000,4.000000,66.666664
1614041044.331817,122.000000,0.000000,-5.602337,-8.785042,12.243208,8.807736,-3.256651,-0.406352,4.767261,-3.863534,-0.137276,-1.914819,1.644770,0.599379,-7.736349,-22.334782,-20.339035,-22.458286,-6.740677,20.293507,19.712788,-13.519005,-13.634171,-21.653044,-14.885983,-18.519779,-4.439290,-4.999530,-2.432667,-3.501463,-3.204093,-0.105327,19.020321,16.367352,8064.000000,0.000000,4.000000,,,,0.000000,4.000000,0.000000,4.000000,4.000000,4.000000,4.000000,4.000000,4.000000,4.000000,4.000000,4.000000,4.000000,4.000000,4.000000,4.000000,4.000000,4.000000,4.000000,4.000000,4.000000,4.000000,4.000000,4.000000,4.000000,4.000000,4.000000,4.000000,4.000000,4.000000,4.000000,4.000000,4.000000,66.666664
1614041044.339467,123.000000,0.000000,-5.596735,-6.724975,6.589939,6.234826,-7.355958,-0.405946,0.659930,-3.859671,-2.188420,-6.015468,-0.920977,-1.965323,-9.267075,-27.440651,-25.446901,-31.666597,-12.887782,19.247572,22.257177,-20.172153,-18.748741,-24.195494,-19.486483,-26.706387,-12.127158,-5.507351,-5.507157,-3.497961,-3.713710,-5.233427,19.001299,11.735600,8064.000000,0.000000,4.000000,,,,0.000000,4.000000,0.000000,4.000000,4.000000,4.000000,4.000000,4.000000,4.000000,4.000000,4.000000,4.000000,4.000000,4.000000,4.000000,4.000000,4.000000,4.000000,4.000000,4.000000,4.000000,4.000000,4.000000,4.000000,4.000000,4.000000,4.000000,4.000000,4.000000,4.000000,4.000000,4.000000,4.000000,66.666664
1614041044.347316,124.000000,0.000000,-5.591138,-6.718250,1.967965,5.202950,-7.861423,-0.405540,-0.879192,-3.855811,-4.237514,-4.470991,-2.971338,-2.476178,-9.770628,-32.541416,-27.472736,-35.224674,-18.003099,31.536016,39.157997,-11.434032,-15.140249,-18.530272,-15.364432,-23.602757,-9.550929,-4.989023,-4.988829,-3.494463,-2.684355,-4.715373,21.546402,11.723864,8064.000000,0.000000,4.000000,,,,0.000000,4.000000,0.000000,4.000000,4.000000,4.000000,4.000000,4.000000,4.000000,4.000000,4.000000,4.000000,4.000000,4.000000,4.000000,4.000000,4.000000,4.000000,4.000000,4.000000,4.000000,4.000000,4.000000,4.000000,4.000000,4.000000,4.000000,4.000000,4.000000,4.000000,4.000000,4.000000,4.000000,66.666664
1614041044.355065,125.000000,0.000000,-5.585547,-11.326916,1.965997,5.710568,-7.340741,0.107686,-0.365492,-3.851955,-4.746097,-7.543443,-1.942726,-1.960881,-9.248036,-34.560158,-27.958084,-31.599707,-17.472277,29.966019,34.503456,-8.345675,-9.484084,-16.460461,-10.733683,-18.450949,-4.925993,-4.984034,-1.906917,-3.490969,-0.117568,-4.197837,23.576138,12.224960,8064.000000,0.000000,4.000000,,,,0.000000,4.000000,0.000000,4.000000,4.000000,4.000000,4.000000,4.000000,4.000000,4.000000,4.000000,4.000000,4.000000,4.000000,4.000000,4.000000,4.000000,4.000000,4.000000,4.000000,4.000000,4.000000,4.000000,4.000000,4.000000,4.000000,4.000000,4.000000,4.000000,4.000000,4.000000,4.000000,4.000000,66.666664
1614041044.362914,126.000000,0.000000,-5.579961,-19.520718,-1.625713,5.704857,-7.846220,-2.969344,-0.365127,-3.848104,-4.228530,-16.253849,-1.940783,-5.035843,-9.238789,-34.012775,-21.263460,-26.952723,-16.429163,34.038616,32.930489,-3.721945,-9.474600,-16.956820,-7.646026,-15.868396,-10.049273,-4.979050,-0.366549,-3.487478,0.395370,-4.706460,19.962816,9.648633,8064.000000,0.000000,4.000000,,,,0.000000,4.000000,0.000000,4.000000,4.000000,4.000000,4.000000,4.000000,4.000000,4.000000,4.000000,4.000000,4.000000,4.000000,4.000000,4.000000,4.000000,4.000000,4.000000,4.000000,4.000000,4.000000,4.000000,4.000000,4.000000,4.000000,4.000000,4.000000,4.000000,4.000000,4.000000,4.000000,4.000000,66.666664
1614041044.370663,127.000000,0.000000,-5.574381,-23.090940,-9.316395,5.186332,-7.838374,-7.581759,-0.877582,-3.844255,-4.737123,-16.237595,-2.964483,-5.543628,-9.229549,-28.850557,-20.729376,-26.925770,-18.464016,34.004578,26.743713,-4.743864,-11.516407,-17.965504,-7.638380,-11.749964,-16.705889,-5.486891,-2.930285,-3.483990,-0.117846,-4.701753,15.327470,8.100523,8064.000000,0.000000,4.000000,,,,0.000000,4.000000,0.000000,4.000000,4.000000,4.000000,4.000000,4.000000,4.000000,4.000000,4.000000,4.000000,4.000000,4.000000,4.000000,4.000000,4.000000,4.000000,4.000000,4.000000,4.000000,4.000000,4.000000,4.000000,4.000000,4.000000,4.000000,4.000000,4.000000,4.000000,4.000000,4.000000,4.000000,66.666664
1614041044.378512,0.000000,0.000000,-5.568807,-22.042208,-9.307078,5.693966,-7.317715,-8.086998,-0.363884,-3.840411,-4.219565,-5.964947,-0.910237,-0.409879,-8.707500,-20.616579,-23.272749,-25.360382,-15.881449,27.816729,14.409277,-9.354505,-7.915147,-14.357795,-5.066639,-11.738214,-15.663543,-4.455763,-0.363252,-3.480506,-0.117728,-3.671410,14.799321,8.605243,0.000000,176.000000,4.000000,,,,0.000000,4.000000,0.000000,4.000000,4.000000,4.000000,4.000000,4.000000,4.000000,4.000000,4.000000,4.000000,4.000000,4.000000,4.000000,4.000000,4.000000,4.000000,4.000000,4.000000,4.000000,4.000000,4.000000,4.000000,4.000000,4.000000,4.000000,4.000000,4.000000,4.000000,4.000000,4.000000,4.000000,66.666664
1614041044.386261,1.000000,0.000000,-5.563238,-22.532986,-3.143925,5.688272,-7.310398,-5.514809,-0.363520,-3.836571,-3.702525,-0.317956,3.706058,2.667454,-6.134690,-17.519039,-11.454604,-17.129894,-7.660439,48.814552,41.574356,9.629209,4.400460,-3.574206,-0.446188,-11.726476,-8.468392,-1.887205,8.355060,-3.477026,0.395210,-1.103636,15.810163,8.596638,0.000000,191.000000,4.000000,,,,0.000000,4.000000,0.000000,4.000000,4.000000,4.000000,4.000000,4.000000,4.000000,4.000000,4.000000,4.000000,4.000000,4.000000,4.000000,4.000000,4.000000,4.000000,4.000000,4.000000,4.000000,4.000000,4.000000,4.000000,4.000000,4.000000,4.000000,4.000000,4.000000,4.000000,4.000000,4.000000,4.000000,66.666664
1614041044.394110,2.000000,0.000000,-5.557675,-20.971992,-1.089499,5.682584,-7.815908,-4.483653,-0.363157,-3.832734,-4.724463,-1.343279,6.266455,1.639145,-4.590094,-19.039982,-2.212381,-6.856353,-2.011753,67.227280,73.840469,27.055477,10.037086,0.531932,-3.522665,-2.483979,-3.844539,-2.398139,8.346704,-3.473549,-0.118006,-0.076892,14.255892,8.075221,0.000000,216.000000,4.000000,,,,0.000000,4.000000,0.000000,4.000000,4.000000,4.000000,4.000000,4.000000,4.000000,4.000000,4.000000,4.000000,4.000000,4.000000,4.000000,4.000000,4.000000,4.000000,4.000000,4.000000,4.000000,4.000000,4.000000,4.000000,4.000000,4.000000,4.000000,4.000000,4.000000,4.000000,4.000000,4.000000,4.000000,66.666664
1614041044.401859,3.000000,0.000000,-5.552117,-16.848455,-2.114051,7.728183,-7.808092,-3.966349,-0.362794,-3.828901,-4.206918,-1.341936,5.747367,1.637506,-6.636786,-18.508121,-11.440938,-7.362318,-4.573844,40.493382,47.612785,10.105345,-0.742182,-11.263472,-10.698629,-0.943034,-4.866335,-4.959843,-1.405232,-3.982896,-0.117888,-1.102456,14.754457,8.067145,0.000000,186.000000,4.000000,,,,0.000000,4.000000,0.000000,4.000000,4.000000,4.000000,4.000000,4.000000,4.000000,4.000000,4.000000,4.000000,4.000000,4.000000,4.000000,4.000000,4.000000,4.000000,4.000000,4.000000,4.000000,4.000000,4.000000,4.000000,4.000000,4.000000,4.000000,4.000000,4.000000,4.000000,4.000000,4.000000,4.000000,66.666664
1614041044.409708,4.000000,0.000000,-5.546566,-14.267505,-2.111937,9.771737,-4.723361,-1.398280,-0.362431,-3.825073,-1.125788,-0.314953,3.690338,2.661510,-8.168611,-19.002434,-18.608984,-24.790854,-8.671834,16.863146,15.770302,-9.391940,-10.485030,-20.995798,-11.200751,-13.249784,-3.835828,-5.467704,-5.506391,-3.978913,-0.117770,-0.075712,17.816626,8.571898,0.000000,176.000000,4.000000,,,,0.000000,4.000000,0.000000,4.000000,4.000000,4.000000,4.000000,4.000000,4.000000,4.000000,4.000000,4.000000,4.000000,4.000000,4.000000,4.000000,4.000000,4.000000,4.000000,4.000000,4.000000,4.000000,4.000000,4.000000,4.000000,4.000000,4.000000,4.000000,4.000000,4.000000,4.000000,4.000000,4.000000,66.666664
1614041044.417457,5.000000,0.000000,-5.541019,-14.766058,-1.084184,7.710683,-2.667355,0.654400,-0.362068,-3.821247,-1.124662,-0.827459,2.661007,2.146028,-8.673262,-21.034714,-16.539093,-38.099396,-9.175983,26.077051,29.087864,-7.331266,-10.474545,-20.974802,-10.163909,-18.877560,-4.344813,-4.436595,-5.500884,-3.462114,-1.656114,-0.588457,16.773167,8.563327,0.000000,214.000000,4.000000,,,,0.000000,4.000000,0.000000,4.000000,4.000000,4.000000,4.000000,4.000000,4.000000,4.000000,4.000000,4.000000,4.000000,4.000000,4.000000,4.000000,4.000000,4.000000,4.000000,4.000000,4.000000,4.000000,4.000000,4.000000,4.000000,4.000000,4.000000,4.000000,4.000000,4.000000,4.000000,4.000000,4.000000,66.666664
1614041044.425306,6.000000,0.000000,-5.535478,-14.751292,-2.108741,5.138870,-6.767252,0.140925,-0.361706,-3.817426,-5.738922,-1.339452,1.632705,1.631061,-11.741512,-22.552141,-16.522554,-27.804886,-9.679627,35.794563,47.007496,-4.759832,-10.464070,-19.928186,-11.179386,-16.807400,-14.084058,-5.457799,-8.059485,-3.971472,-4.218560,-5.716074,15.217933,7.529122,0.000000,201.000000,4.000000,,,,0.000000,4.000000,0.000000,4.000000,4.000000,4.000000,4.000000,4.000000,4.000000,4.000000,4.000000,4.000000,4.000000,4.000000,4.000000,4.000000,4.000000,4.000000,4.000000,4.000000,4.000000,4.000000,4.000000,4.000000,4.000000,4.000000,4.000000,4.000000,4.000000,4.000000,4.000000,4.000000,4.000000,66.666664
1614041044.433055,7.000000,0.000000,-5.529942,-14.736541,-1.593811,5.646552,-6.247664,-0.884856,-0.361345,-3.813609,-7.784465,-1.338112,1.631072,2.655071,-11.216949,-23.042408,-14.454749,-13.930927,-9.669948,36.271591,43.370743,-4.755072,-9.427965,-18.369797,-11.168207,-17.816233,-17.659718,-4.426701,-6.000144,-3.454680,-5.239982,-7.761640,18.792458,9.572875,0.000000,202.000000,4.000000,,,,0.000000,4.000000,0.000000,4.000000,4.000000,4.000000,4.000000,4.000000,4.000000,4.000000,4.000000,4.000000,4.000000,4.000000,4.000000,4.000000,4.000000,4.000000,4.000000,4.000000,4.000000,4.000000,4.000000,4.000000,4.000000,4.000000,4.000000,4.000000,4.000000,4.000000,4.000000,4.000000,4.000000,66.666664
1614041044.440904,8.000000,0.000000,-5.524412,-14.721804,0.459065,8.717829,3.502173,3.218592,-0.360983,-4.322616,-5.212578,-1.336774,2.142262,1.113954,-8.128810,-21.993725,-13.927474,-22.122124,-9.660278,28.030191,24.353014,-6.288779,-10.956999,-16.300144,-10.131398,-15.234314,-6.872827,-1.858171,-0.865939,1.676980,-1.132178,-2.625673,22.876230,16.742790,0.000000,195.000000,4.000000,,,,0.000000,4.000000,0.000000,4.000000,4.000000,4.000000,4.000000,4.000000,4.000000,4.000000,4.000000,4.000000,4.000000,4.000000,4.000000,4.000000,4.000000,4.000000,4.000000,4.000000,4.000000,4.000000,4.000000,4.000000,4.000000,4.000000,4.000000,4.000000,4.000000,4.000000,4.000000,4.000000,4.000000,66.666664
1614041044.448653,9.000000,0.000000,-5.518888,-14.707082,1.997067,9.221931,8.626876,6.292297,-0.360622,-3.805473,-5.207366,-1.335437,-0.423983,-5.041006,-14.274528,-23.510193,-20.067392,-34.407696,-11.189079,10.053442,0.226097,-19.103003,-17.612709,-18.335127,-10.634087,-10.090875,-3.789031,-0.830672,-1.890714,7.316329,0.407415,0.453876,22.853354,20.315790,0.000000,216.000000,4.000000,,,,0.000000,4.000000,0.000000,4.000000,4.000000,4.000000,4.000000,4.000000,4.000000,4.000000,4.000000,4.000000,4.000000,4.000000,4.000000,4.000000,4.000000,4.000000,4.000000,4.000000,4.000000,4.000000,4.000000,4.000000,4.000000,4.000000,4.000000,4.000000,4.000000,4.000000,4.000000,4.000000,4.000000,66.666664
1614041044.456302,10.000000,0.000000,-5.513369,-14.692375,1.995070,9.212709,5.028506,1.670620,-0.360262,-3.801667,-8.279081,-1.334102,-5.551764,-10.676991,-18.875637,-29.640530,-25.688351,-33.347645,-12.716352,13.120312,8.430999,-16.006977,-10.928429,-16.778330,-11.136273,-11.619246,-5.836524,-1.342662,-1.376003,7.821833,-2.157094,-1.085040,21.804859,19.269835,0.000000,208.000000,4.000000,,,,0.000000,4.000000,0.000000,4.000000,4.000000,4.000000,4.000000,4.000000,4.000000,4.000000,4.000000,4.000000,4.000000,4.000000,4.000000,4.000000,4.000000,4.000000,4.000000,4.000000,4.000000,4.000000,4.000000,4.000000,4.000000,4.000000,4.000000,4.000000,4.000000,4.000000,4.000000,4.000000,4.000000,66.666664
1614041044.464051,11.000000,0.000000,-5.507855,-15.190503,1.993075,9.203496,2.972195,-4.484897,-0.359901,-4.310686,-8.270802,-1.845588,-6.571854,-9.127851,-10.651633,-34.226273,-25.662663,-28.186092,-11.165174,37.722576,41.243080,8.624414,6.005576,-5.992321,-6.509753,-13.658909,7.502646,-1.341319,4.266399,7.301190,3.486088,-1.083955,22.295876,19.250565,0.000000,198.000000,4.000000,,,,0.000000,4.000000,0.000000,4.000000,4.000000,4.000000,4.000000,4.000000,4.000000,4.000000,4.000000,4.000000,4.000000,4.000000,4.000000,4.000000,4.000000,4.000000,4.000000,4.000000,4.000000,4.000000,4.000000,4.000000,4.000000,4.000000,4.000000,4.000000,4.000000,4.000000,4.000000,4.000000,4.000000,66.666664
1614041044.471700,12.000000,0.000000,-5.502348,-14.662492,1.991082,9.194293,3.994864,-4.480412,1.178920,-2.767914,-7.236891,-1.843743,-6.052462,-6.041801,-4.487135,-31.627945,-23.585718,-30.722010,-9.102727,39.736137,44.278759,8.615790,3.948289,-1.883765,-2.913499,-9.029865,18.264374,-1.339978,5.800594,8.832351,15.790295,-0.057230,22.273579,19.744133,0.000000,203.000000,4.000000,,,,0.000000,4.000000,0.000000,4.000000,4.000000,4.000000,4.000000,4.000000,4.000000,4.000000,4.000000,4.000000,4.000000,4.000000,4.000000,4.000000,4.000000,4.000000,4.000000,4.000000,4.000000,4.000000,4.000000,4.000000,4.000000,4.000000,4.000000,4.000000,4.000000,4.000000,4.000000,4.000000,4.000000,66.666664
1614041044.479450,13.000000,0.000000,-5.496845,-14.647830,1.989091,9.185099,3.478049,-3.450290,3.229023,-0.713864,-8.768115,-1.329079,-7.584870,-5.522939,-9.610853,-22.878368,-25.100594,-32.229748,-10.119265,22.773323,15.516533,-10.880005,-5.799249,-8.548548,-7.013150,-4.918271,9.015341,-1.338638,2.717870,6.259416,14.748863,-1.082814,22.251305,19.211569,0.000000,189.000000,4.000000,,,,0.000000,4.000000,0.000000,4.000000,4.000000,4.000000,4.000000,4.000000,4.000000,4.000000,4.000000,4.000000,4.000000,4.000000,4.000000,4.000000,4.000000,4.000000,4.000000,4.000000,4.000000,4.000000,4.000000,4.000000,4.000000,4.000000,4.000000,4.000000,4.000000,4.000000,4.000000,4.000000,4.000000,66.666664
1614041044.487099,14.000000,0.000000,-5.491349,-15.146003,1.987102,9.175914,2.961750,-4.472481,3.225794,0.312491,-6.708065,-0.302108,1.653484,-6.030236,-9.601243,-10.034977,-25.588314,-17.838545,-9.596325,26.853113,17.552299,-4.202458,0.873217,-7.001537,-12.134342,-6.451814,3.365299,-1.337299,1.689511,4.201874,7.041807,-1.081731,22.229053,19.192358,0.000000,203.000000,4.000000,,,,0.000000,4.000000,0.000000,4.000000,4.000000,4.000000,4.000000,4.000000,4.000000,4.000000,4.000000,4.000000,4.000000,4.000000,4.000000,4.000000,4.000000,4.000000,4.000000,4.000000,4.000000,4.000000,4.000000,4.000000,4.000000,4.000000,4.000000,4.000000,4.000000,4.000000,4.000000,4.000000,4.000000,66.666664
1614041044.494848,15.000000,0.000000,-5.485857,-13.592395,1.985115,9.166738,3.471609,-4.468009,3.222569,-0.200642,0.478130,3.800758,19.600548,-4.485744,0.151948,0.744289,-11.716571,3.204935,-2.407242,57.595490,50.355259,17.340206,13.180036,5.825977,-8.532464,-5.419721,9.515780,-1.335962,2.713463,4.710493,6.521944,0.970633,22.206825,19.173164,0.000000,200.000000,4.000000,,,,0.000000,4.000000,0.000000,4.000000,4.000000,4.000000,4.000000,4.000000,4.000000,4.000000,4.000000,4.000000,4.000000,4.000000,4.000000,4.000000,4.000000,4.000000,4.000000,4.000000,4.000000,4.000000,4.000000,4.000000,4.000000,4.000000,4.000000,4.000000,4.000000,4.000000,4.000000,4.000000,4.000000,66.666664
1614041044.502497,16.000000,0.000000,-5.480371,-8.450598,1.983130,9.157571,2.955317,-3.950720,3.219346,-0.200441,4.067396,8.412341,26.247614,-1.917156,6.305643,4.846109,7.782325,12.432499,4.774653,79.076355,68.766441,22.963892,18.295061,15.050920,-3.908547,0.739545,8.993444,-1.334626,2.710749,-0.422423,7.028243,2.508124,22.184618,19.153992,0.000000,191.000000,4.000000,,,,0.000000,4.000000,0.000000,4.000000,4.000000,4.000000,4.000000,4.000000,4.000000,4.000000,4.000000,4.000000,4.000000,4.000000,4.000000,4.000000,4.000000,4.000000,4.000000,4.000000,4.000000,4.000000,4.000000,4.000000,4.000000,4.000000,4.000000,4.000000,4.000000,4.000000,4.000000,4.000000,4.000000,66.666664
1614041044.510246,17.000000,0.000000,-5.474891,-5.878044,1.981146,9.148414,3.978002,-3.946769,3.216126,-0.200241,3.037687,9.942390,21.093161,-1.402418,6.812157,2.789981,8.287363,11.907247,6.308340,70.279335,62.031010,19.864004,17.251125,11.958946,-2.878997,2.277267,2.317784,-1.333291,0.656757,-7.088667,3.431471,3.531257,22.162434,19.134838,0.000000,227.000000,4.000000,,,,0.000000,4.000000,0.000000,4.000000,4.000000,4.000000,4.000000,4.000000,4.000000,4.000000,4.000000,4.000000,4.000000,4.000000,4.000000,4.000000,4.000000,4.000000,4.000000,4.000000,4.000000,4.000000,4.000000,4.000000,4.000000,4.000000,4.000000,4.000000,4.000000,4.000000,4.000000,4.000000,4.000000,66.666664
1614041044.517895,18.000000,0.000000,-5.469416,-9.461909,1.979165,9.139265,6.025306,-3.942823,3.212910,-0.200041,3.034649,9.419628,16.456684,-1.913837,5.266884,-7.469220,-3.002976,5.741493,4.250749,50.721874,44.533081,12.151833,5.439002,-2.411987,-3.388939,-4.391677,1.802646,-1.331958,-1.395182,-4.004655,2.402398,5.579008,22.140270,18.602882,0.000000,201.000000,4.000000,,,,0.000000,4.000000,0.000000,4.000000,4.000000,4.000000,4.000000,4.000000,4.000000,4.000000,4.000000,4.000000,4.000000,4.000000,4.000000,4.000000,4.000000,4.000000,4.000000,4.000000,4.000000,4.000000,4.000000,4.000000,4.000000,4.000000,4.000000,4.000000,4.000000,4.000000,4.000000,4.000000,4.000000,66.666664
1614041044.525644,19.000000,0.000000,-2.899844,-13.555012,1.977186,9.130126,7.557743,-3.938880,3.209697,-0.199840,3.544435,9.923029,10.286381,-1.911923,1.159053,-24.384827,-11.205101,-14.777069,-0.881707,38.876278,28.591112,-2.219294,-5.335668,-15.230088,-3.385550,-10.541132,2.826484,-1.330626,-1.906608,3.691657,3.425637,7.111890,22.118132,19.609921,0.000000,220.000000,4.000000,,,,0.000000,4.000000,0.000000,4.000000,4.000000,4.000000,4.000000,4.000000,4.000000,4.000000,4.000000,4.000000,4.000000,4.000000,4.000000,4.000000,4.000000,4.000000,4.000000,4.000000,4.000000,4.000000,4.000000,4.000000,4.000000,4.000000,4.000000,4.000000,4.000000,4.000000,4.000000,4.000000,4.000000,66.666664
1614041044.533294,20.000000,0.000000,-1.358483,-16.105560,1.975209,9.120996,7.037364,-3.934941,3.206488,-0.199641,3.028070,8.374644,3.096607,-1.397190,-7.560055,-31.539930,-24.014408,-35.275112,-10.624414,29.093813,21.895855,-9.396562,-7.381614,-17.778961,-2.869344,-10.530591,2.823658,-1.329296,-1.391881,4.200786,3.422211,6.591958,22.096012,19.077490,0.000000,211.000000,4.000000,,,,0.000000,4.000000,0.000000,4.000000,4.000000,4.000000,4.000000,4.000000,4.000000,4.000000,4.000000,4.000000,4.000000,4.000000,4.000000,4.000000,4.000000,4.000000,4.000000,4.000000,4.000000,4.000000,4.000000,4.000000,4.000000,4.000000,4.000000,4.000000,4.000000,4.000000,4.000000,4.000000,4.000000,66.666664
1614041044.541043,21.000000,0.000000,-2.895586,-17.627916,1.973234,9.111875,7.030327,-4.443827,3.203281,-0.199441,3.025042,4.263705,0.529408,-2.934255,-17.296085,-29.969929,-38.862190,-38.829582,-17.280457,22.398052,19.309856,-10.412806,-8.399874,-17.248362,-3.379295,-9.494419,2.820834,-1.327966,-1.390489,3.170944,2.905969,6.585366,22.073917,14.443028,0.000000,182.000000,4.000000,,,,0.000000,4.000000,0.000000,4.000000,4.000000,4.000000,4.000000,4.000000,4.000000,4.000000,4.000000,4.000000,4.000000,4.000000,4.000000,4.000000,4.000000,4.000000,4.000000,4.000000,4.000000,4.000000,4.000000,4.000000,4.000000,4.000000,4.000000,4.000000,4.000000,4.000000,4.000000,4.000000,4.000000,66.666664
1614041044.548692,22.000000,0.000000,-5.456793,-18.635929,1.458440,8.589942,6.510476,-4.952203,3.200078,-0.712062,2.509197,1.695339,-0.496762,-4.982603,-20.355711,-30.965599,-41.900249,-38.277931,-17.775997,21.862835,17.752085,-10.915214,-3.776089,-17.743933,-3.375916,-9.997746,1.279552,-2.352279,-1.901919,4.193414,2.903063,6.065960,21.539022,12.377303,0.000000,208.000000,4.000000,,,,0.000000,4.000000,0.000000,4.000000,4.000000,4.000000,4.000000,4.000000,4.000000,4.000000,4.000000,4.000000,4.000000,4.000000,4.000000,4.000000,4.000000,4.000000,4.000000,4.000000,4.000000,4.000000,4.000000,4.000000,4.000000,4.000000,4.000000,4.000000,4.000000,4.000000,4.000000,4.000000,4.000000,66.666664
1614041044.556541,23.000000,0.000000,-5.451336,-18.617292,0.944161,9.094172,6.503966,-3.921610,3.196878,-0.198529,2.506688,1.180823,2.067837,-6.003261,-13.668690,-30.421814,-32.627579,-37.726833,-16.732580,25.430716,27.477922,-1.673529,11.612302,-10.033881,-3.372540,-11.526209,2.816733,-1.837106,-1.900017,4.189221,3.412980,5.034253,21.517483,16.980310,0.000000,206.000000,4.000000,,,,0.000000,4.000000,0.000000,4.000000,4.000000,4.000000,4.000000,4.000000,4.000000,4.000000,4.000000,4.000000,4.000000,4.000000,4.000000,4.000000,4.000000,4.000000,4.000000,4.000000,4.000000,4.000000,4.000000,4.000000,4.000000,4.000000,4.000000,4.000000,4.000000,4.000000,4.000000,4.000000,4.000000,66.666664
1614041044.564290,24.000000,0.000000,-5.445885,-17.573034,1.456037,8.572258,7.010282,-4.430509,3.193681,-0.198331,3.017001,1.692463,9.245256,-5.997258,-5.962713,-20.647802,-15.159056,-25.894234,-17.228668,39.764259,43.860699,11.661478,21.344280,0.745383,-3.369167,-9.976221,10.506225,-1.322449,0.665986,3.672211,2.896747,8.618962,22.008787,19.014612,0.000000,187.000000,4.000000,,,,0.000000,4.000000,0.000000,4.000000,4.000000,4.000000,4.000000,4.000000,4.000000,4.000000,4.000000,4.000000,4.000000,4.000000,4.000000,4.000000,4.000000,4.000000,4.000000,4.000000,4.000000,4.000000,4.000000,4.000000,4.000000,4.000000,4.000000,4.000000,4.000000,4.000000,4.000000,4.000000,4.000000,66.666664
1614041044.572139,25.000000,0.000000,-5.953259,-14.991359,1.967402,8.563685,5.977631,-5.451719,2.677667,-0.710953,2.501164,1.690771,10.774472,-5.478440,-5.443930,-14.473308,1.266360,-11.509365,-17.211439,56.134750,50.483505,12.675457,18.246012,2.795920,-3.365798,-3.812399,11.521359,-3.372408,2.716602,3.668539,2.893850,11.687266,21.473957,18.995598,0.000000,0.000000,4.000000,,,,0.000000,4.000000,0.000000,4.000000,4.000000,4.000000,4.000000,4.000000,4.000000,4.000000,4.000000,4.000000,4.000000,4.000000,4.000000,4.000000,4.000000,4.000000,4.000000,4.000000,4.000000,4.000000,4.000000,4.000000,4.000000,4.000000,4.000000,4.000000,4.000000,4.000000,4.000000,4.000000,4.000000,66.666664
1614041044.579888,26.000000,0.000000,-3.383204,-13.950727,0.426973,11.119225,6.484474,-0.318063,3.187810,-0.197422,2.498663,1.176259,9.738057,-3.934500,-6.464127,-15.484475,6.393299,-10.472215,-16.681408,55.565796,47.868919,8.047397,14.638022,-0.796620,-4.388073,-3.295766,5.355992,-0.292113,2.201065,3.664870,6.993520,8.085835,21.452482,21.027884,0.000000,205.000000,4.000000,,,,0.000000,4.000000,0.000000,4.000000,4.000000,4.000000,4.000000,4.000000,4.000000,4.000000,4.000000,4.000000,4.000000,4.000000,4.000000,4.000000,4.000000,4.000000,4.000000,4.000000,4.000000,4.000000,4.000000,4.000000,4.000000,4.000000,4.000000,4.000000,4.000000,4.000000,4.000000,4.000000,4.000000,66.666664
1614041044.587737,27.000000,0.000000,1.235564,-13.936775,3.503469,14.697849,13.144656,8.913025,4.723083,3.905340,6.598728,3.739186,15.369345,-1.879283,-0.816637,-12.392068,4.848444,-12.000204,-16.664726,51.407665,49.359512,10.090631,16.161846,-1.821464,-2.845224,-6.882214,11.504482,12.528692,2.198864,3.661206,10.576270,12.693134,25.020775,22.545319,0.000000,203.000000,4.000000,,,,0.000000,4.000000,0.000000,4.000000,4.000000,4.000000,4.000000,4.000000,4.000000,4.000000,4.000000,4.000000,4.000000,4.000000,4.000000,4.000000,4.000000,4.000000,4.000000,4.000000,4.000000,4.000000,4.000000,4.000000,4.000000,4.000000,4.000000,4.000000,4.000000,4.000000,4.000000,4.000000,4.000000,66.666664
1614041044.595486,28.000000,0.000000,2.259970,-14.435659,11.705093,16.734432,20.310999,11.468214,6.769642,7.491178,12.745975,13.991857,21.507822,1.712340,7.902128,-4.174548,7.407698,-9.936922,-16.648062,53.920361,51.874256,10.080541,17.684145,1.257280,-0.278276,-1.747126,23.287849,21.746933,5.273588,3.657544,11.078514,31.141979,28.585497,27.138157,0.000000,187.000000,4.000000,,,,0.000000,4.000000,0.000000,4.000000,4.000000,4.000000,4.000000,4.000000,4.000000,4.000000,4.000000,4.000000,4.000000,4.000000,4.000000,4.000000,4.000000,4.000000,4.000000,4.000000,4.000000,4.000000,4.000000,4.000000,4.000000,4.000000,4.000000,4.000000,4.000000,4.000000,4.000000,4.000000,4.000000,66.666664
1614041044.603335,29.000000,0.000000,2.257710,-13.908403,17.334414,18.768980,22.854790,10.431105,7.275693,8.509328,15.297332,22.182993,20.973494,6.326012,11.483970,-0.580629,7.400290,-9.926985,-16.631413,46.686954,47.206997,9.044820,18.692102,1.768844,-0.277997,7.998210,26.341484,21.725185,7.319596,3.653887,11.067436,36.239044,29.582552,32.752045,0.000000,176.000000,4.000000,,,,0.000000,4.000000,0.000000,4.000000,4.000000,4.000000,4.000000,4.000000,4.000000,4.000000,4.000000,4.000000,4.000000,4.000000,4.000000,4.000000,4.000000,4.000000,4.000000,4.000000,4.000000,4.000000,4.000000,4.000000,4.000000,4.000000,4.000000,4.000000,4.000000,4.000000,4.000000,4.000000,4.000000,66.666664
1614041044.611084,30.000000,0.000000,2.255452,-13.894495,16.804258,18.750212,21.293474,10.933495,6.755597,7.475178,13.743573,21.135168,19.926878,5.806865,8.395562,-4.169792,4.315967,-10.429879,-16.614782,44.076164,52.800816,17.240904,19.186232,1.254254,1.773563,9.528674,25.289501,21.190639,3.722533,4.163054,9.517907,20.818188,29.040150,30.155190,0.000000,204.000000,4.000000,,,,0.000000,4.000000,0.000000,4.000000,4.000000,4.000000,4.000000,4.000000,4.000000,4.000000,4.000000,4.000000,4.000000,4.000000,4.000000,4.000000,4.000000,4.000000,4.000000,4.000000,4.000000,4.000000,4.000000,4.000000,4.000000,4.000000,4.000000,4.000000,4.000000,4.000000,4.000000,4.000000,4.000000,66.666664
1614041044.618933,31.000000,0.000000,2.253197,-15.931882,16.787455,16.680180,21.272181,7.845638,6.748841,6.954882,14.242650,21.114035,19.394131,5.288238,10.438449,-4.165623,10.978317,-3.239962,-16.598167,60.442345,70.696732,25.428791,18.654224,1.765821,6.387174,8.493504,23.212931,19.630987,2.693170,4.158890,4.893004,12.079422,29.523930,25.509649,0.000000,190.000000,4.000000,,,,0.000000,4.000000,0.000000,4.000000,4.000000,4.000000,4.000000,4.000000,4.000000,4.000000,4.000000,4.000000,4.000000,4.000000,4.000000,4.000000,4.000000,4.000000,4.000000,4.000000,4.000000,4.000000,4.000000,4.000000,4.000000,4.000000,4.000000,4.000000,4.000000,4.000000,4.000000,4.000000,4.000000,66.666664
1614041044.626682,32.000000,0.000000,2.763764,-20.531336,17.796309,16.663500,22.789370,3.222408,7.767734,8.999209,15.766870,22.118561,20.400377,7.334232,13.504933,-0.571713,16.608364,1.891483,-16.581570,64.997284,70.113213,18.736694,17.097109,0.738414,5.867966,8.485010,19.087152,15.508793,5.767400,3.641911,3.349650,15.144265,29.494406,27.022602,8064.000000,0.000000,4.000000,,,,0.000000,4.000000,0.000000,4.000000,4.000000,4.000000,4.000000,4.000000,4.000000,4.000000,4.000000,4.000000,4.000000,4.000000,4.000000,4.000000,4.000000,4.000000,4.000000,4.000000,4.000000,4.000000,4.000000,4.000000,4.000000,4.000000,4.000000,4.000000,4.000000,4.000000,4.000000,4.000000,4.000000,66.666664
1614041044.634531,33.000000,0.000000,0.709718,-23.074905,16.240051,15.621195,21.740940,3.219185,5.708684,5.400466,11.135717,10.814391,13.200491,2.198692,-3.944468,-12.366014,-0.331320,-11.443742,-16.564987,46.983570,47.991821,6.410266,15.541550,-3.877709,-0.291748,7.450884,18.555246,14.467643,3.710350,4.663910,3.859121,14.103480,28.952091,25.457117,8064.000000,0.000000,4.000000,,,,0.000000,4.000000,0.000000,4.000000,4.000000,4.000000,4.000000,4.000000,4.000000,4.000000,4.000000,4.000000,4.000000,4.000000,4.000000,4.000000,4.000000,4.000000,4.000000,4.000000,4.000000,4.000000,4.000000,4.000000,4.000000,4.000000,4.000000,4.000000,4.000000,4.000000,4.000000,4.000000,4.000000,66.666664
1614041044.642280,34.000000,0.000000,-5.444838,-21.513371,15.198170,13.041471,14.026891,3.215966,0.574770,-7.425447,0.355351,-9.709244,-6.299890,-10.111198,-28.043089,-37.994675,-26.997656,-30.406656,-16.548422,35.141716,34.610497,4.352573,13.474727,-6.437934,-4.906841,5.392151,13.408485,7.273688,-3.985668,3.633605,1.803980,13.063735,28.923140,18.764994,8064.000000,0.000000,4.000000,,,,0.000000,4.000000,0.000000,4.000000,4.000000,4.000000,4.000000,4.000000,4.000000,4.000000,4.000000,4.000000,4.000000,4.000000,4.000000,4.000000,4.000000,4.000000,4.000000,4.000000,4.000000,4.000000,4.000000,4.000000,4.000000,4.000000,4.000000,4.000000,4.000000,4.000000,4.000000,4.000000,4.000000,66.666664
1614041044.650129,35.000000,0.000000,-9.541957,-22.004677,13.131689,12.515609,9.910299,3.212750,-0.964266,-16.135971,-5.798851,-18.417484,-13.985897,-13.178011,-27.502224,-47.187447,-33.637325,-35.504456,-16.531874,34.593754,30.986141,5.886683,7.820226,-5.918676,-6.953216,-0.254266,0.061743,-6.066919,-6.032964,0.040228,0.263714,14.076313,28.381395,15.669306,8064.000000,0.000000,4.000000,,,,0.000000,4.000000,0.000000,4.000000,4.000000,4.000000,4.000000,4.000000,4.000000,4.000000,4.000000,4.000000,4.000000,4.000000,4.000000,4.000000,4.000000,4.000000,4.000000,4.000000,4.000000,4.000000,4.000000,4.000000,4.000000,4.000000,4.000000,4.000000,4.000000,4.000000,4.000000,4.000000,4.000000,66.666664
1614041044.657878,36.000000,0.000000,-9.019594,-22.495493,2.862148,11.477452,10.413210,3.209537,2.113621,-15.607014,-4.254590,-16.347784,-4.741142,-9.062268,-16.192671,-36.883850,-28.475483,-31.879208,-16.515343,31.995058,24.288488,4.342334,2.684201,-5.912757,-6.946263,-7.946320,-6.092165,-11.189057,-5.001290,-3.549556,-2.813473,7.395570,22.711988,10.525432,8064.000000,0.000000,4.000000,,,,0.000000,4.000000,0.000000,4.000000,4.000000,4.000000,4.000000,4.000000,4.000000,4.000000,4.000000,4.000000,4.000000,4.000000,4.000000,4.000000,4.000000,4.000000,4.000000,4.000000,4.000000,4.000000,4.000000,4.000000,4.000000,4.000000,4.000000,4.000000,4.000000,4.000000,4.000000,4.000000,4.000000,66.666664
1614041044.665727,37.000000,0.000000,-10.036216,-16.319151,-9.448407,6.850590,4.248950,-0.383416,1.598687,-15.591407,-6.814438,-17.357077,-8.838965,-9.566027,-16.689299,-34.282864,-28.447006,-29.283226,-17.011646,31.963062,25.289841,4.337992,3.707158,-6.419665,-6.939317,-11.015296,-7.111713,-9.126586,-4.996289,-5.597289,-10.502967,-3.893877,14.996968,1.796957,8064.000000,0.000000,4.000000,,,,0.000000,4.000000,0.000000,4.000000,4.000000,4.000000,4.000000,4.000000,4.000000,4.000000,4.000000,4.000000,4.000000,4.000000,4.000000,4.000000,4.000000,4.000000,4.000000,4.000000,4.000000,4.000000,4.000000,4.000000,4.000000,4.000000,4.000000,4.000000,4.000000,4.000000,4.000000,4.000000,4.000000,66.666664
1614041044.673476,38.000000,0.000000,-13.103103,-8.097704,-9.438958,4.279637,-1.909145,-4.485597,-0.967014,-17.627098,-9.884546,-17.852541,-17.548075,-13.146204,-17.698250,-33.735760,-28.418560,-26.689840,-16.481815,31.418278,25.777372,5.359295,4.216271,-5.900424,-8.470839,-9.978641,-8.643064,-9.117459,-5.504113,-7.130153,-10.492464,-6.454086,12.930690,-1.794583,8064.000000,0.000000,4.000000,,,,0.000000,4.000000,0.000000,4.000000,4.000000,4.000000,4.000000,4.000000,4.000000,4.000000,4.000000,4.000000,4.000000,4.000000,4.000000,4.000000,4.000000,4.000000,4.000000,4.000000,4.000000,4.000000,4.000000,4.000000,4.000000,4.000000,4.000000,4.000000,4.000000,4.000000,4.000000,4.000000,4.000000,66.666664
1614041044.681125,39.000000,0.000000,-13.089999,-5.012683,-2.762853,4.788178,5.785072,-3.968290,-0.966047,-14.532547,-4.746457,-8.603919,-4.710014,-13.133058,-9.475424,-16.778948,-19.672192,-21.534945,-14.414051,26.258656,18.059286,4.328295,2.673593,-5.894524,-10.513650,-10.481482,-5.044676,-6.544240,-4.985789,-7.635843,-5.353766,-2.345068,13.943399,-0.254327,8064.000000,0.000000,4.000000,,,,0.000000,4.000000,0.000000,4.000000,4.000000,4.000000,4.000000,4.000000,4.000000,4.000000,4.000000,4.000000,4.000000,4.000000,4.000000,4.000000,4.000000,4.000000,4.000000,4.000000,4.000000,4.000000,4.000000,4.000000,4.000000,4.000000,4.000000,4.000000,4.000000,4.000000,4.000000,4.000000,4.000000,66.666664
1614041044.688875,40.000000,0.000000,-12.564089,-7.058952,-2.760090,4.270569,14.497236,-4.989963,-0.452261,-13.492373,2.437777,1.148275,9.140850,-12.607104,-4.337744,-2.403194,-6.832007,-12.282640,-10.297072,37.514446,29.323278,8.426531,5.747842,-5.888630,-10.503137,-9.958180,1.627035,-1.922311,-4.980803,-7.628207,-5.861233,-1.829902,13.416636,-1.279714,8064.000000,0.000000,4.000000,,,,0.000000,4.000000,0.000000,4.000000,4.000000,4.000000,4.000000,4.000000,4.000000,4.000000,4.000000,4.000000,4.000000,4.000000,4.000000,4.000000,4.000000,4.000000,4.000000,4.000000,4.000000,4.000000,4.000000,4.000000,4.000000,4.000000,4.000000,4.000000,4.000000,4.000000,4.000000,4.000000,4.000000,66.666664
1614041044.696524,41.000000,0.000000,-13.577167,-13.205740,-2.244509,6.317581,13.969918,-4.472153,-0.964629,-10.914779,3.973800,3.198409,10.157351,-10.030395,-3.820585,-2.400791,1.892773,-2.526768,-7.209853,62.605137,59.037544,16.110411,13.434402,-5.882741,-10.492634,-7.384119,2.651049,-1.407568,-4.975822,-7.107759,-5.342551,-1.828072,14.428861,3.336951,8064.000000,0.000000,4.000000,,,,0.000000,4.000000,0.000000,4.000000,4.000000,4.000000,4.000000,4.000000,4.000000,4.000000,4.000000,4.000000,4.000000,4.000000,4.000000,4.000000,4.000000,4.000000,4.000000,4.000000,4.000000,4.000000,4.000000,4.000000,4.000000,4.000000,4.000000,4.000000,4.000000,4.000000,4.000000,4.000000,4.000000,66.666664
1614041044.704273,42.000000,0.000000,-11.512307,-17.807919,5.962863,15.542032,16.520050,7.840012,0.061977,6.532033,2.944186,3.195210,13.736937,-6.430621,-4.842406,-1.372749,2.403701,1.065502,-4.638540,64.080994,64.619530,16.607122,16.497890,-5.364038,-10.482141,-5.838274,3.161218,-0.893340,-4.970846,-5.049369,3.893560,3.301961,20.055456,14.615665,8064.000000,0.000000,4.000000,,,,0.000000,4.000000,0.000000,4.000000,4.000000,4.000000,4.000000,4.000000,4.000000,4.000000,4.000000,4.000000,4.000000,4.000000,4.000000,4.000000,4.000000,4.000000,4.000000,4.000000,4.000000,4.000000,4.000000,4.000000,4.000000,4.000000,4.000000,4.000000,4.000000,4.000000,4.000000,4.000000,4.000000,66.666664
1614041044.711922,43.000000,0.000000,-6.885410,-18.302931,11.085106,20.654696,21.631737,17.575762,4.164479,27.551142,3.966882,5.756118,16.800123,-4.885729,-5.863204,2.731188,1.888477,0.551616,-0.531338,45.555374,46.606197,12.487950,12.891649,-5.871494,-10.471659,-5.832435,3.158057,-1.405267,-4.965875,-3.505858,9.017872,7.914044,24.650785,22.806177,8064.000000,0.000000,4.000000,,,,0.000000,4.000000,0.000000,4.000000,4.000000,4.000000,4.000000,4.000000,4.000000,4.000000,4.000000,4.000000,4.000000,4.000000,4.000000,4.000000,4.000000,4.000000,4.000000,4.000000,4.000000,4.000000,4.000000,4.000000,4.000000,4.000000,4.000000,4.000000,4.000000,4.000000,4.000000,4.000000,4.000000,66.666664
1614041044.719671,44.000000,0.000000,-4.314422,-17.771807,9.022738,19.608400,22.122925,12.942801,6.724417,31.113335,3.450095,6.263182,13.193579,-4.880843,-0.216316,-0.861287,5.476332,1.576706,2.546117,44.996998,47.072411,13.501103,10.827476,-5.352802,-10.461187,-5.826603,2.129258,-1.916682,-4.960909,-2.989531,6.957572,8.931770,25.651777,25.860294,8064.000000,0.000000,4.000000,,,,0.000000,4.000000,0.000000,4.000000,4.000000,4.000000,4.000000,4.000000,4.000000,4.000000,4.000000,4.000000,4.000000,4.000000,4.000000,4.000000,4.000000,4.000000,4.000000,4.000000,4.000000,4.000000,4.000000,4.000000,4.000000,4.000000,4.000000,4.000000,4.000000,4.000000,4.000000,4.000000,4.000000,66.666664
1614041044.727320,45.000000,0.000000,-5.335749,-18.266857,9.013716,20.101612,23.126442,10.878576,7.230513,24.415554,3.446645,7.795380,13.693206,-4.875962,5.424926,-2.398887,7.009317,1.062309,2.543571,53.669952,53.179184,14.000422,12.867930,-1.757706,-10.450726,-6.333597,9.819436,3.213440,-4.955948,-0.935260,6.950614,11.486941,25.113304,29.424177,8064.000000,0.000000,4.000000,,,,0.000000,4.000000,0.000000,4.000000,4.000000,4.000000,4.000000,4.000000,4.000000,4.000000,4.000000,4.000000,4.000000,4.000000,4.000000,4.000000,4.000000,4.000000,4.000000,4.000000,4.000000,4.000000,4.000000,4.000000,4.000000,4.000000,4.000000,4.000000,4.000000,4.000000,4.000000,4.000000,4.000000,66.666664
1614041044.735069,46.000000,0.000000,-5.330413,-18.248589,10.543163,20.081511,19.513573,9.842057,7.223282,21.827036,3.956019,6.761944,12.141051,-6.409548,-3.811268,-3.422129,0.335641,-4.066959,1.515386,41.821411,30.561901,3.730012,11.316601,-4.320051,-10.440275,-3.763161,17.501925,8.338431,-4.950993,0.604137,7.456484,17.116480,25.601011,31.958857,8064.000000,0.000000,4.000000,,,,0.000000,4.000000,0.000000,4.000000,4.000000,4.000000,4.000000,4.000000,4.000000,4.000000,4.000000,4.000000,4.000000,4.000000,4.000000,4.000000,4.000000,4.000000,4.000000,4.000000,4.000000,4.000000,4.000000,4.000000,4.000000,4.000000,4.000000,4.000000,4.000000,4.000000,4.000000,4.000000,4.000000,66.666664
1614041044.742719,47.000000,0.000000,-4.812262,-17.717520,3.353133,15.958865,5.647905,-3.501119,5.677598,18.728287,-1.688963,-6.578151,-1.717244,-8.967240,-16.627970,-18.290503,-7.869823,-12.780841,-2.075873,30.497538,13.608263,-5.504487,3.612977,-10.982397,-10.429834,-2.220936,8.766474,3.714708,-5.458862,0.090712,6.936207,16.586544,25.575411,26.798693,8064.000000,0.000000,4.000000,,,,0.000000,4.000000,0.000000,4.000000,4.000000,4.000000,4.000000,4.000000,4.000000,4.000000,4.000000,4.000000,4.000000,4.000000,4.000000,4.000000,4.000000,4.000000,4.000000,4.000000,4.000000,4.000000,4.000000,4.000000,4.000000,4.000000,4.000000,4.000000,4.000000,4.000000,4.000000,4.000000,4.000000,66.666664
1614041044.750468,48.000000,0.000000,-5.320270,-15.648520,-7.419451,11.840342,-5.126974,-12.728387,3.620638,14.606995,-10.405223,-23.494650,-14.023219,-8.958274,-17.124163,-35.708111,-11.451696,-25.075752,-5.150720,34.056782,25.389526,-5.498982,-3.057303,-13.022697,-10.419405,-8.885382,-4.062805,-2.442853,-4.940583,0.090622,6.929271,11.954572,24.011374,19.592407,8064.000000,0.000000,4.000000,,,,0.000000,4.000000,0.000000,4.000000,4.000000,4.000000,4.000000,4.000000,4.000000,4.000000,4.000000,4.000000,4.000000,4.000000,4.000000,4.000000,4.000000,4.000000,4.000000,4.000000,4.000000,4.000000,4.000000,4.000000,4.000000,4.000000,4.000000,4.000000,4.000000,4.000000,4.000000,4.000000,4.000000,66.666664
1614041044.758117,49.000000,0.000000,-5.314950,-13.581591,-7.924852,11.828502,-5.121847,-7.074633,2.591376,13.566747,-11.933279,-24.496796,-14.009195,-8.949315,-15.055756,-38.236504,-19.645372,-38.384010,-5.145569,19.663752,19.723112,-9.083227,-3.054246,-16.086597,-10.408985,-14.004702,-5.084383,-1.414769,-2.371540,0.090531,6.922342,10.916976,21.936081,18.034353,8064.000000,0.000000,4.000000,,,,0.000000,4.000000,0.000000,4.000000,4.000000,4.000000,4.000000,4.000000,4.000000,4.000000,4.000000,4.000000,4.000000,4.000000,4.000000,4.000000,4.000000,4.000000,4.000000,4.000000,4.000000,4.000000,4.000000,4.000000,4.000000,4.000000,4.000000,4.000000,4.000000,4.000000,4.000000,4.000000,4.000000,66.666664
1614041044.765866,50.000000,0.000000,-5.309635,-14.080829,-2.275901,13.355135,-4.091084,-2.964994,3.101605,14.578820,-8.331602,-19.344095,-13.482366,-8.940366,-18.117622,-35.634163,-34.497524,-44.499474,-8.217347,-8.561040,-7.988919,-19.330555,-5.615294,-22.737177,-10.398577,-12.965055,-3.028017,0.125108,-0.830707,0.090440,7.428240,9.367598,21.401323,19.041960,8064.000000,0.000000,4.000000,,,,0.000000,4.000000,0.000000,4.000000,4.000000,4.000000,4.000000,4.000000,4.000000,4.000000,4.000000,4.000000,4.000000,4.000000,4.000000,4.000000,4.000000,4.000000,4.000000,4.000000,4.000000,4.000000,4.000000,4.000000,4.000000,4.000000,4.000000,4.000000,4.000000,4.000000,4.000000,4.000000,4.000000,66.666664
1614041044.773515,51.000000,0.000000,-5.304325,-13.553927,-3.299267,9.752036,-5.112634,-5.013311,3.098504,11.487319,-7.297629,-22.401674,-17.571447,-8.931425,-20.663609,-39.701096,-41.129692,-43.429333,-12.311694,-2.911454,-0.288623,-19.311224,-7.660961,-24.252901,-10.388178,-16.029015,-4.563450,-1.413479,-0.829876,0.090350,7.420812,1.665923,19.841461,16.971636,8064.000000,0.000000,4.000000,,,,0.000000,4.000000,0.000000,4.000000,4.000000,4.000000,4.000000,4.000000,4.000000,4.000000,4.000000,4.000000,4.000000,4.000000,4.000000,4.000000,4.000000,4.000000,4.000000,4.000000,4.000000,4.000000,4.000000,4.000000,4.000000,4.000000,4.000000,4.000000,4.000000,4.000000,4.000000,4.000000,4.000000,66.666664
1614041044.781264,52.000000,0.000000,-4.786201,-14.053194,-8.424172,5.639719,-5.620341,-4.495477,2.582585,6.347626,-9.854434,-27.507477,-17.553877,-8.409674,-19.617304,-41.199856,-34.934715,-41.334621,-13.837844,22.732483,30.993717,-10.061143,1.064649,-20.638905,-9.864969,-20.628368,-5.071708,-1.412066,-0.829046,0.090260,6.900570,-0.387025,17.770336,13.877740,8064.000000,0.000000,4.000000,,,,0.000000,4.000000,0.000000,4.000000,4.000000,4.000000,4.000000,4.000000,4.000000,4.000000,4.000000,4.000000,4.000000,4.000000,4.000000,4.000000,4.000000,4.000000,4.000000,4.000000,4.000000,4.000000,4.000000,4.000000,4.000000,4.000000,4.000000,4.000000,4.000000,4.000000,4.000000,4.000000,4.000000,66.666664
1614041044.788913,53.000000,0.000000,-4.781415,-18.141705,-9.441389,5.121260,-7.153183,-3.465341,3.092823,6.341279,-11.383041,-26.967150,-13.433759,-8.401264,-17.033583,-35.517628,-28.745935,-40.267643,-11.772723,23.735392,31.475544,-7.999800,5.678969,-19.592625,-9.342284,-18.556459,-3.528174,-0.385013,-1.341037,0.090169,8.432132,2.177464,17.752567,15.402324,8064.000000,0.000000,4.000000,,,,0.000000,4.000000,0.000000,4.000000,4.000000,4.000000,4.000000,4.000000,4.000000,4.000000,4.000000,4.000000,4.000000,4.000000,4.000000,4.000000,4.000000,4.000000,4.000000,4.000000,4.000000,4.000000,4.000000,4.000000,4.000000,4.000000,4.000000,4.000000,4.000000,4.000000,4.000000,4.000000,4.000000,66.666664
1614041044.796662,54.000000,0.000000,-5.289454,-21.713306,-9.431948,4.090497,-7.658850,-3.461875,3.089730,7.360579,-11.371658,-25.914541,-11.881863,-8.905684,-15.478088,-29.328266,-27.178728,-40.227375,-12.273771,12.942426,11.444068,-15.684108,-6.634402,-19.573032,-10.358582,-15.973800,-6.601569,-3.974371,-4.929440,0.602900,5.859597,0.636825,17.734814,14.874102,8064.000000,0.000000,4.000000,,,,0.000000,4.000000,0.000000,4.000000,4.000000,4.000000,4.000000,4.000000,4.000000,4.000000,4.000000,4.000000,4.000000,4.000000,4.000000,4.000000,4.000000,4.000000,4.000000,4.000000,4.000000,4.000000,4.000000,4.000000,4.000000,4.000000,4.000000,4.000000,4.000000,4.000000,4.000000,4.000000,4.000000,66.666664
1614041044.804312,55.000000,0.000000,-4.771343,-21.691593,-8.909696,1.522304,-8.164012,-4.484055,1.548179,4.789115,-11.873107,-27.427088,-16.485365,-8.896777,-16.488251,-28.273296,-27.151548,-39.674328,-16.364061,13.442304,6.304419,-20.283808,-17.909819,-23.143204,-10.348224,-18.521929,-17.877020,-13.713986,-10.052715,-0.936165,-4.402673,-4.492017,15.665797,8.192560,8064.000000,0.000000,4.000000,,,,0.000000,4.000000,0.000000,4.000000,4.000000,4.000000,4.000000,4.000000,4.000000,4.000000,4.000000,4.000000,4.000000,4.000000,4.000000,4.000000,4.000000,4.000000,4.000000,4.000000,4.000000,4.000000,4.000000,4.000000,4.000000,4.000000,4.000000,4.000000,4.000000,4.000000,4.000000,4.000000,4.000000,66.666664
1614041044.812161,56.000000,0.000000,-4.766572,-21.157082,-7.875144,1.520782,-7.130207,-3.966750,-0.504651,3.245865,-10.835593,-26.886841,-19.545803,-7.862240,-19.035866,-28.245024,-27.637218,-39.121834,-19.937441,16.505785,10.400679,-20.776344,-18.404730,-28.761086,-8.799415,-21.067509,-27.602732,-21.905401,-13.632406,-2.986511,-12.090578,-11.667012,14.111670,3.568983,8064.000000,0.000000,4.000000,,,,0.000000,4.000000,0.000000,4.000000,4.000000,4.000000,4.000000,4.000000,4.000000,4.000000,4.000000,4.000000,4.000000,4.000000,4.000000,4.000000,4.000000,4.000000,4.000000,4.000000,4.000000,4.000000,4.000000,4.000000,4.000000,4.000000,4.000000,4.000000,4.000000,4.000000,4.000000,4.000000,4.000000,66.666664
1614041044.819910,57.000000,0.000000,-8.864369,-21.648745,-13.508295,-0.019201,-8.148717,-3.449963,-0.504147,2.729798,-11.337578,-25.834312,-20.039078,-12.469762,-22.093752,-27.703957,-29.148043,-39.595531,-20.943146,14.437997,9.877458,-23.832491,-16.847864,-31.296427,-13.405999,-20.020802,-30.652052,-23.421957,-17.208517,-3.496345,-11.565667,-20.886114,12.559096,4.078235,8064.000000,0.000000,4.000000,,,,0.000000,4.000000,0.000000,4.000000,4.000000,4.000000,4.000000,4.000000,4.000000,4.000000,4.000000,4.000000,4.000000,4.000000,4.000000,4.000000,4.000000,4.000000,4.000000,4.000000,4.000000,4.000000,4.000000,4.000000,4.000000,4.000000,4.000000,4.000000,4.000000,4.000000,4.000000,4.000000,4.000000,66.666664
1614041044.827759,58.000000,0.000000,-14.496531,-21.114275,-19.648634,-3.608925,-13.268774,-7.549077,-0.503643,-0.349855,-16.454445,-27.346939,-21.044680,-19.636780,-23.610121,-28.701895,-31.170176,-40.068756,-24.511946,13.397918,2.688093,-27.398403,-18.369478,-31.265131,-25.700285,-22.052061,-31.134220,-23.911356,-19.755411,-5.544130,-11.041281,-21.890869,7.418333,3.561336,8064.000000,0.000000,4.000000,,,,0.000000,4.000000,0.000000,4.000000,4.000000,4.000000,4.000000,4.000000,4.000000,4.000000,4.000000,4.000000,4.000000,4.000000,4.000000,4.000000,4.000000,4.000000,4.000000,4.000000,4.000000,4.000000,4.000000,4.000000,4.000000,4.000000,4.000000,4.000000,4.000000,4.000000,4.000000,4.000000,4.000000,66.666664
1614041044.835508,59.000000,0.000000,-16.533316,-18.529058,-13.475139,1.010069,-14.793966,-11.644092,-0.503139,-0.349505,-18.489273,-23.729849,-16.921072,-20.129963,-22.048048,-27.647552,-30.626184,-36.951767,-23.461792,14.410161,0.121302,-26.858185,-18.351109,-30.721045,-30.289970,-27.671036,-28.026163,-24.400265,-20.248476,-7.589868,-12.568701,-14.689491,4.846812,4.070595,8064.000000,0.000000,4.000000,,,,0.000000,4.000000,0.000000,4.000000,4.000000,4.000000,4.000000,4.000000,4.000000,4.000000,4.000000,4.000000,4.000000,4.000000,4.000000,4.000000,4.000000,4.000000,4.000000,4.000000,4.000000,4.000000,4.000000,4.000000,4.000000,4.000000,4.000000,4.000000,4.000000,4.000000,4.000000,4.000000,4.000000,66.666664
1614041044.843357,60.000000,0.000000,-13.439860,-16.972069,-5.256535,8.188546,-9.138147,-8.555525,2.574287,5.804691,-13.855399,-12.424067,-7.160561,-14.468807,-19.461899,-24.030161,-27.005816,-34.863533,-10.104998,17.985495,9.864771,-24.267223,-17.307116,-26.587761,-23.593014,-29.181826,-18.767368,-17.709198,-19.202587,-7.582278,-11.017671,-11.085058,6.893247,6.630627,8064.000000,0.000000,4.000000,,,,0.000000,4.000000,0.000000,4.000000,4.000000,4.000000,4.000000,4.000000,4.000000,4.000000,4.000000,4.000000,4.000000,4.000000,4.000000,4.000000,4.000000,4.000000,4.000000,4.000000,4.000000,4.000000,4.000000,4.000000,4.000000,4.000000,4.000000,4.000000,4.000000,4.000000,4.000000,4.000000,4.000000,66.666664
1614041044.851106,61.000000,0.000000,-12.400779,-16.955097,-7.815381,6.641896,-7.590547,-4.444405,3.597354,6.311707,-10.764621,-8.309080,-8.691861,-11.890236,-19.955257,-28.621515,-23.389067,-40.469692,-0.864123,16.429047,13.957470,-23.730135,-17.802629,-22.971428,-18.441216,-25.562901,-14.133216,-12.050463,-20.209026,-7.061875,-8.442551,-12.099614,6.373533,5.085535,8064.000000,0.000000,4.000000,,,,0.000000,4.000000,0.000000,4.000000,4.000000,4.000000,4.000000,4.000000,4.000000,4.000000,4.000000,4.000000,4.000000,4.000000,4.000000,4.000000,4.000000,4.000000,4.000000,4.000000,4.000000,4.000000,4.000000,4.000000,4.000000,4.000000,4.000000,4.000000,4.000000,4.000000,4.000000,4.000000,4.000000,66.666664
1614041044.858955,62.000000,0.000000,-12.388378,-17.450962,-9.346027,7.148074,-8.608598,-4.439960,-1.534449,1.177190,-11.266677,-13.941796,-16.375477,-12.391167,-20.448122,-38.336483,-23.365677,-42.480507,-1.888900,16.925438,7.276846,-23.706406,-17.784826,-23.461277,-17.397133,-24.511696,-16.683186,-12.551233,-20.188816,-7.567634,-7.408467,-12.600335,4.828698,-1.073397,8064.000000,0.000000,4.000000,,,,0.000000,4.000000,0.000000,4.000000,4.000000,4.000000,4.000000,4.000000,4.000000,4.000000,4.000000,4.000000,4.000000,4.000000,4.000000,4.000000,4.000000,4.000000,4.000000,4.000000,4.000000,4.000000,4.000000,4.000000,4.000000,4.000000,4.000000,4.000000,4.000000,4.000000,4.000000,4.000000,4.000000,66.666664
1614041044.866704,63.000000,0.000000,-12.375990,-17.433512,-4.208476,15.858875,-1.420502,0.692684,-4.609837,-0.362449,-8.691307,-15.979136,-16.871922,-12.891596,-18.889212,-39.836609,-23.855131,-37.822639,-0.861370,27.164923,15.987517,-20.605776,-17.767042,-23.437817,-14.815634,-24.487185,-12.563938,-9.974579,-13.501962,-4.995964,-4.836956,-8.997991,9.952074,-0.559503,8064.000000,0.000000,4.000000,,,,0.000000,4.000000,0.000000,4.000000,4.000000,4.000000,4.000000,4.000000,4.000000,4.000000,4.000000,4.000000,4.000000,4.000000,4.000000,4.000000,4.000000,4.000000,4.000000,4.000000,4.000000,4.000000,4.000000,4.000000,4.000000,4.000000,4.000000,4.000000,4.000000,4.000000,4.000000,4.000000,4.000000,66.666664
1614041044.874553,64.000000,0.000000,-11.850794,-16.903257,-1.127344,20.971222,7.298867,9.922761,-2.041125,2.202016,-7.144155,-14.424696,-17.880692,-11.853064,-20.408785,-34.668568,-23.831276,-39.323280,-2.398970,26.624939,29.304863,-18.533888,-16.210814,-23.414379,-13.262356,-19.334494,-2.807784,-2.272297,-5.283331,-0.888404,-1.242375,-0.271044,19.172892,10.723108,0.000000,214.000000,4.000000,,,,0.000000,4.000000,0.000000,4.000000,4.000000,4.000000,4.000000,4.000000,4.000000,4.000000,4.000000,4.000000,4.000000,4.000000,4.000000,4.000000,4.000000,4.000000,4.000000,4.000000,4.000000,4.000000,4.000000,4.000000,4.000000,4.000000,4.000000,4.000000,4.000000,4.000000,4.000000,4.000000,4.000000,66.666664
1614041044.882302,65.000000,0.000000,-12.351763,-17.399174,4.001988,19.411789,7.291568,11.964120,0.012198,4.251096,-7.649831,-14.923092,-14.785888,-11.841210,-19.362736,-29.505693,-23.294624,-37.232674,-10.601700,13.264980,20.044790,-20.053816,-12.092038,-22.878143,-12.736274,-13.161312,1.297588,0.294078,-3.226766,0.650946,-0.215492,6.908714,22.743462,23.532898,0.000000,198.000000,4.000000,,,,0.000000,4.000000,0.000000,4.000000,4.000000,4.000000,4.000000,4.000000,4.000000,4.000000,4.000000,4.000000,4.000000,4.000000,4.000000,4.000000,4.000000,4.000000,4.000000,4.000000,4.000000,4.000000,4.000000,4.000000,4.000000,4.000000,4.000000,4.000000,4.000000,4.000000,4.000000,4.000000,4.000000,66.666664
1614041044.890151,66.000000,0.000000,-12.339412,-19.945877,13.228755,18.879557,6.771456,10.413694,-0.500634,5.785306,-4.565258,-15.420989,0.100693,-12.855010,-8.061321,-18.706957,-18.143126,-23.862108,-11.103918,21.456842,12.845258,-14.392736,-6.438920,-19.265522,-13.749178,-12.122510,-0.242171,-1.244678,-4.762001,0.137475,0.297544,6.388985,21.182257,28.637569,0.000000,208.000000,4.000000,,,,0.000000,4.000000,0.000000,4.000000,4.000000,4.000000,4.000000,4.000000,4.000000,4.000000,4.000000,4.000000,4.000000,4.000000,4.000000,4.000000,4.000000,4.000000,4.000000,4.000000,4.000000,4.000000,4.000000,4.000000,4.000000,4.000000,4.000000,4.000000,4.000000,4.000000,4.000000,4.000000,4.000000,66.666664
1614041044.897900,67.000000,0.000000,-12.327072,-21.464394,17.830912,19.886318,9.841608,10.916101,-0.500134,6.805162,-0.970949,-14.892748,10.357002,-11.303694,3.228791,-9.970301,-10.432674,-16.145939,-3.400506,41.435387,30.268311,3.057554,0.234185,-16.682154,-13.222609,-12.110387,-0.754750,-1.243433,-4.244418,0.137337,2.861349,7.921057,21.161076,28.608932,0.000000,192.000000,4.000000,,,,0.000000,4.000000,0.000000,4.000000,4.000000,4.000000,4.000000,4.000000,4.000000,4.000000,4.000000,4.000000,4.000000,4.000000,4.000000,4.000000,4.000000,4.000000,4.000000,4.000000,4.000000,4.000000,4.000000,4.000000,4.000000,4.000000,4.000000,4.000000,4.000000,4.000000,4.000000,4.000000,4.000000,66.666664
1614041044.905749,68.000000,0.000000,-12.314745,-20.930109,16.274618,21.917713,11.370228,9.366724,0.013187,7.311178,0.055663,-15.390676,10.859467,-7.189826,4.251204,-9.960330,-4.268395,-14.078511,-0.320183,46.522156,50.750862,16.900650,11.516003,-14.614190,-10.645283,-10.046995,-0.241175,-0.729369,-3.727353,0.650020,3.884129,13.041342,21.652735,30.631605,0.000000,191.000000,4.000000,,,,0.000000,4.000000,0.000000,4.000000,4.000000,4.000000,4.000000,4.000000,4.000000,4.000000,4.000000,4.000000,4.000000,4.000000,4.000000,4.000000,4.000000,4.000000,4.000000,4.000000,4.000000,4.000000,4.000000,4.000000,4.000000,4.000000,4.000000,4.000000,4.000000,4.000000,4.000000,4.000000,4.000000,66.666664
1614041044.913498,69.000000,0.000000,-12.302430,-20.909178,15.745523,22.921436,10.846037,7.306075,-0.499647,7.816687,0.568428,-14.862464,12.899889,-4.105713,3.221312,-5.334985,1.376898,-5.859304,-1.345504,46.475636,52.751392,10.729903,18.171152,-11.522653,-10.121818,-7.985666,0.271887,-0.728639,-4.236446,0.136550,3.367424,14.566762,21.118261,35.216358,0.000000,200.000000,4.000000,,,,0.000000,4.000000,0.000000,4.000000,4.000000,4.000000,4.000000,4.000000,4.000000,4.000000,4.000000,4.000000,4.000000,4.000000,4.000000,4.000000,4.000000,4.000000,4.000000,4.000000,4.000000,4.000000,4.000000,4.000000,4.000000,4.000000,4.000000,4.000000,4.000000,4.000000,4.000000,4.000000,4.000000,66.666664
1614041044.921247,70.000000,0.000000,-12.290128,-19.349808,16.755419,22.898516,10.322371,5.760307,-0.499147,5.757588,-0.970602,-14.847602,12.374168,-4.614428,1.679629,-3.278368,-2.214222,-9.443189,-5.959543,36.685570,32.698643,-8.255185,4.306828,-17.152155,-14.727080,-7.977680,-1.266846,-1.240731,-6.283492,0.136413,3.364057,14.039374,21.097143,37.745243,0.000000,201.000000,4.000000,,,,0.000000,4.000000,0.000000,4.000000,4.000000,4.000000,4.000000,4.000000,4.000000,4.000000,4.000000,4.000000,4.000000,4.000000,4.000000,4.000000,4.000000,4.000000,4.000000,4.000000,4.000000,4.000000,4.000000,4.000000,4.000000,4.000000,4.000000,4.000000,4.000000,4.000000,4.000000,4.000000,4.000000,66.666664
1614041044.928996,71.000000,0.000000,-12.277838,-14.715073,16.225843,22.875616,7.747946,2.677624,0.014173,3.700549,-7.123478,-16.884037,4.669487,-5.635454,-4.988718,-13.531500,-19.135084,-26.356823,-13.133071,16.648884,11.127481,-17.990520,-17.235941,-30.981157,-17.789276,-12.072267,-8.445066,-3.290773,-8.328490,0.136277,3.360693,12.999694,20.563225,35.143398,0.000000,194.000000,4.000000,,,,0.000000,4.000000,0.000000,4.000000,4.000000,4.000000,4.000000,4.000000,4.000000,4.000000,4.000000,4.000000,4.000000,4.000000,4.000000,4.000000,4.000000,4.000000,4.000000,4.000000,4.000000,4.000000,4.000000,4.000000,4.000000,4.000000,4.000000,4.000000,4.000000,4.000000,4.000000,4.000000,4.000000,66.666664
1614041044.936645,72.000000,0.000000,-11.752739,-11.623435,15.183976,22.339920,3.637634,-0.401977,-1.524303,3.696848,-12.244559,-18.918434,-3.027491,-7.681101,-12.676037,-20.184635,-30.910822,-35.561234,-16.196861,12.529670,10.090714,-17.459709,-21.834089,-34.539921,-17.258667,-19.239681,-12.539186,-4.825943,-8.320162,0.136141,3.357332,10.935412,20.542662,32.544151,0.000000,197.000000,4.000000,,,,0.000000,4.000000,0.000000,4.000000,4.000000,4.000000,4.000000,4.000000,4.000000,4.000000,4.000000,4.000000,4.000000,4.000000,4.000000,4.000000,4.000000,4.000000,4.000000,4.000000,4.000000,4.000000,4.000000,4.000000,4.000000,4.000000,4.000000,4.000000,4.000000,4.000000,4.000000,4.000000,4.000000,66.666664
1614041044.944394,73.000000,0.000000,-12.253807,-15.201555,16.194433,22.317581,2.095534,-1.427216,-4.086882,-0.922233,-11.719495,-18.899515,-11.229591,-8.699060,-18.817207,-22.215733,-30.367090,-41.166698,-16.180664,10.465858,4.439597,-23.596096,-21.299435,-35.018200,-17.241407,-20.758904,-11.501005,-4.821117,-8.311842,0.136004,3.353975,9.386015,21.034941,31.998787,0.000000,205.000000,4.000000,,,,0.000000,4.000000,0.000000,4.000000,4.000000,4.000000,4.000000,4.000000,4.000000,4.000000,4.000000,4.000000,4.000000,4.000000,4.000000,4.000000,4.000000,4.000000,4.000000,4.000000,4.000000,4.000000,4.000000,4.000000,4.000000,4.000000,4.000000,4.000000,4.000000,4.000000,4.000000,4.000000,4.000000,66.666664
1614041044.952044,74.000000,0.000000,-12.241553,-22.878660,20.280804,22.808084,3.119080,-0.912968,-4.082795,-7.075157,-11.194955,-18.880617,-16.859388,-8.690362,-23.413774,-30.911467,-31.875185,-51.894764,-16.677303,-11.595890,-20.180227,-35.367371,-27.944801,-41.137028,-16.711346,-20.738144,-12.515145,-5.329117,-8.303530,0.135868,3.350621,9.889450,20.501085,31.966787,0.000000,197.000000,4.000000,,,,0.000000,4.000000,0.000000,4.000000,4.000000,4.000000,4.000000,4.000000,4.000000,4.000000,4.000000,4.000000,4.000000,4.000000,4.000000,4.000000,4.000000,4.000000,4.000000,4.000000,4.000000,4.000000,4.000000,4.000000,4.000000,4.000000,4.000000,4.000000,4.000000,4.000000,4.000000,4.000000,4.000000,66.666664
1614041044.959793,75.000000,0.000000,-9.152389,-26.445526,23.337446,22.272455,3.115961,2.164868,-1.514609,-4.503980,-9.645298,-18.861736,-14.278425,-8.168851,-23.390360,-36.008759,-34.920231,-55.945431,-14.096523,-13.122755,-18.108765,-31.229439,-26.378395,-33.403584,-14.130532,-24.819971,-10.964169,-3.785326,-8.295226,0.135733,3.347270,9.879560,19.967762,32.447639,0.000000,197.000000,4.000000,,,,0.000000,4.000000,0.000000,4.000000,4.000000,4.000000,4.000000,4.000000,4.000000,4.000000,4.000000,4.000000,4.000000,4.000000,4.000000,4.000000,4.000000,4.000000,4.000000,4.000000,4.000000,4.000000,4.000000,4.000000,4.000000,4.000000,4.000000,4.000000,4.000000,4.000000,4.000000,4.000000,4.000000,66.666664
1614041044.967442,76.000000,0.000000,-4.527852,-23.854979,25.365391,22.250183,2.087204,6.265267,0.025367,0.628729,-6.045909,-18.330053,-13.238506,-8.160682,-23.366970,-36.485573,-33.346851,-53.325386,-12.031145,10.480111,10.627293,-16.839235,-13.531505,-17.472744,-13.090760,-21.718227,-3.773717,1.346664,-8.286931,0.648417,3.343923,10.382502,23.024717,33.953655,0.000000,196.000000,4.000000,,,,0.000000,4.000000,0.000000,4.000000,4.000000,4.000000,4.000000,4.000000,4.000000,4.000000,4.000000,4.000000,4.000000,4.000000,4.000000,4.000000,4.000000,4.000000,4.000000,4.000000,4.000000,4.000000,4.000000,4.000000,4.000000,4.000000,4.000000,4.000000,4.000000,4.000000,4.000000,4.000000,4.000000,66.666664
1614041044.975191,77.000000,0.000000,-5.548965,-24.856764,28.929768,26.330496,3.623578,6.771822,-0.487479,-0.397540,-3.475761,-20.363005,-18.866293,-8.665341,-27.958988,-49.269600,-39.467350,-54.297699,-17.660139,11.495272,11.129485,-17.848038,-7.876947,-14.891169,-13.590490,-14.004201,-1.205841,2.883779,-8.278645,0.134948,3.340579,9.859299,27.104258,35.970985,0.000000,190.000000,4.000000,,,,0.000000,4.000000,0.000000,4.000000,4.000000,4.000000,4.000000,4.000000,4.000000,4.000000,4.000000,4.000000,4.000000,4.000000,4.000000,4.000000,4.000000,4.000000,4.000000,4.000000,4.000000,4.000000,4.000000,4.000000,4.000000,4.000000,4.000000,4.000000,4.000000,4.000000,4.000000,4.000000,4.000000,66.666664
1614041044.982840,78.000000,0.000000,-8.620338,-30.472933,30.952120,32.970833,8.235339,7.277871,-0.486991,-0.397143,-3.985105,-22.906746,-21.411530,-7.631035,-30.495131,-59.476738,-48.658653,-57.320324,-23.796326,-6.464942,-8.881644,-28.086599,-9.407532,-18.978842,-13.064079,-13.990197,-2.743097,2.880895,-8.270366,0.134813,3.337238,9.849439,28.615614,38.499115,0.000000,200.000000,4.000000,,,,0.000000,4.000000,0.000000,4.000000,4.000000,4.000000,4.000000,4.000000,4.000000,4.000000,4.000000,4.000000,4.000000,4.000000,4.000000,4.000000,4.000000,4.000000,4.000000,4.000000,4.000000,4.000000,4.000000,4.000000,4.000000,4.000000,4.000000,4.000000,4.000000,4.000000,4.000000,4.000000,4.000000,66.666664
1614041044.990589,79.000000,0.000000,-8.611718,-23.262972,30.408348,34.989143,10.791206,10.347516,-0.486504,-0.396746,-3.981120,-22.371017,-19.851656,-8.136225,-29.438995,-54.801876,-49.122814,-57.263004,-23.772530,-10.048220,-11.436865,-30.109795,-11.962227,-21.523966,-14.589477,-16.027489,-3.765995,3.390835,-8.262095,0.647499,3.333901,10.865231,27.561357,39.486256,0.000000,191.000000,4.000000,,,,0.000000,4.000000,0.000000,4.000000,4.000000,4.000000,4.000000,4.000000,4.000000,4.000000,4.000000,4.000000,4.000000,4.000000,4.000000,4.000000,4.000000,4.000000,4.000000,4.000000,4.000000,4.000000,4.000000,4.000000,4.000000,4.000000,4.000000,4.000000,4.000000,4.000000,4.000000,4.000000,4.000000,66.666664
1614041044.998238,80.000000,0.000000,-7.577466,-6.316633,30.377939,30.851591,10.267594,8.285887,-0.486018,-5.011734,-3.977139,-23.887108,-21.370266,-14.281935,-32.486481,-54.234257,-49.073692,-57.205742,-22.723116,-6.448428,-7.835684,-34.182251,-17.078470,-26.630646,-16.626169,-16.011461,-9.916075,-2.253582,-8.253833,-1.404431,3.330567,7.264622,28.046618,39.446770,0.000000,201.000000,4.000000,,,,0.000000,4.000000,0.000000,4.000000,4.000000,4.000000,4.000000,4.000000,4.000000,4.000000,4.000000,4.000000,4.000000,4.000000,4.000000,4.000000,4.000000,4.000000,4.000000,4.000000,4.000000,4.000000,4.000000,4.000000,4.000000,4.000000,4.000000,4.000000,4.000000,4.000000,4.000000,4.000000,4.000000,66.666664
1614041045.005987,81.000000,0.000000,-11.159632,-1.182111,30.347561,26.718174,10.257327,3.662216,-0.485532,-7.570824,-3.973162,-26.940144,-24.425819,-19.908678,-33.479633,-54.692841,-49.537437,-58.174179,-23.213213,-4.903518,-10.391952,-41.327553,-20.138313,-30.706579,-17.122364,-24.713398,-18.624107,-11.482098,-8.245580,-5.505590,3.327236,1.103511,28.018570,39.407326,0.000000,201.000000,4.000000,,,,0.000000,4.000000,0.000000,4.000000,4.000000,4.000000,4.000000,4.000000,4.000000,4.000000,4.000000,4.000000,4.000000,4.000000,4.000000,4.000000,4.000000,4.000000,4.000000,4.000000,4.000000,4.000000,4.000000,4.000000,4.000000,4.000000,4.000000,4.000000,4.000000,4.000000,4.000000,4.000000,4.000000,66.666664
1614041045.013637,82.000000,0.000000,-15.251037,-5.796314,29.804394,25.665815,10.759891,2.632913,-0.485046,-8.588895,-3.969189,-24.349102,-21.324471,-19.888769,-24.215385,-37.715073,-34.616104,-49.398056,-23.702820,4.332155,-3.202072,-34.619560,-18.066895,-31.188694,-17.105242,-35.457916,-19.631124,-13.009077,-8.237333,-7.551367,3.323909,-1.974516,27.990553,39.367916,0.000000,188.000000,4.000000,,,,0.000000,4.000000,0.000000,4.000000,4.000000,4.000000,4.000000,4.000000,4.000000,4.000000,4.000000,4.000000,4.000000,4.000000,4.000000,4.000000,4.000000,4.000000,4.000000,4.000000,4.000000,4.000000,4.000000,4.000000,4.000000,4.000000,4.000000,4.000000,4.000000,4.000000,4.000000,4.000000,4.000000,66.666664
1614041045.021486,83.000000,0.000000,-16.261427,-5.277697,29.774590,26.152971,10.236310,3.143101,-0.484561,-7.554665,-3.965220,-17.145266,-12.072376,-19.356060,-14.447579,-20.241459,-15.607130,-31.399939,-22.653477,21.763720,11.672925,-22.790070,-16.510365,-29.106222,-17.088137,-34.909637,-18.073032,-11.970427,-8.229096,-7.030995,3.320585,-0.946900,27.962563,37.277267,0.000000,200.000000,4.000000,,,,0.000000,4.000000,0.000000,4.000000,4.000000,4.000000,4.000000,4.000000,4.000000,4.000000,4.000000,4.000000,4.000000,4.000000,4.000000,4.000000,4.000000,4.000000,4.000000,4.000000,4.000000,4.000000,4.000000,4.000000,4.000000,4.000000,4.000000,4.000000,4.000000,4.000000,4.000000,4.000000,4.000000,66.666664
1614041045.029235,84.000000,0.000000,-15.732345,-8.862163,29.744814,25.613997,10.226073,2.627137,-0.484077,-2.931725,-3.961254,-14.051197,-5.393638,-19.336704,-14.433132,-18.169935,-14.565882,-21.624949,-20.579540,26.870161,13.712534,-21.228817,-17.006676,-24.974552,-17.071047,-28.720882,-19.080599,-12.471276,-8.220867,-7.536784,3.317265,-0.945953,27.934599,35.188709,0.000000,216.000000,4.000000,,,,0.000000,4.000000,0.000000,4.000000,4.000000,4.000000,4.000000,4.000000,4.000000,4.000000,4.000000,4.000000,4.000000,4.000000,4.000000,4.000000,4.000000,4.000000,4.000000,4.000000,4.000000,4.000000,4.000000,4.000000,4.000000,4.000000,4.000000,4.000000,4.000000,4.000000,4.000000,4.000000,4.000000,66.666664
1614041045.037084,85.000000,0.000000,-16.229433,-18.596889,29.715069,25.588383,10.215848,2.624510,-0.483593,-0.364691,-3.957293,-15.062787,-6.413885,-17.266085,-15.957161,-21.228689,-20.192343,-24.167427,-19.533321,17.099701,0.878308,-23.771690,-17.502489,-22.898296,-17.053976,-27.153700,-19.061520,-12.458805,-8.212646,-7.016427,3.313947,-1.457828,27.906664,35.153519,0.000000,187.000000,4.000000,,,,0.000000,4.000000,0.000000,4.000000,4.000000,4.000000,4.000000,4.000000,4.000000,4.000000,4.000000,4.000000,4.000000,4.000000,4.000000,4.000000,4.000000,4.000000,4.000000,4.000000,4.000000,4.000000,4.000000,4.000000,4.000000,4.000000,4.000000,4.000000,4.000000,4.000000,4.000000,4.000000,4.000000,66.666664
1614041045.044833,86.000000,0.000000,-16.213203,-22.168037,30.198175,25.562794,10.205631,2.621886,-0.483109,-5.492531,-3.953336,-15.047724,-8.458753,-15.197537,-14.402741,-19.156178,-16.582405,-22.604797,-19.513786,17.082602,-3.225134,-21.696638,-16.459347,-22.875399,-17.036922,-28.152187,-19.042458,-12.446346,-8.204433,-4.445308,3.310634,-0.943549,27.878757,35.631187,0.000000,212.000000,4.000000,,,,0.000000,4.000000,0.000000,4.000000,4.000000,4.000000,4.000000,4.000000,4.000000,4.000000,4.000000,4.000000,4.000000,4.000000,4.000000,4.000000,4.000000,4.000000,4.000000,4.000000,4.000000,4.000000,4.000000,4.000000,4.000000,4.000000,4.000000,4.000000,4.000000,4.000000,4.000000,4.000000,4.000000,66.666664
1614041045.052682,87.000000,0.000000,-15.684170,-21.120228,30.167976,26.050053,10.195426,3.132084,-0.482626,-7.538321,-3.949383,-14.519855,-8.450294,-15.695161,-14.901159,-18.624201,-19.642746,-23.095013,-19.494274,20.655262,-1.683447,-21.674940,-16.442886,-21.826881,-16.507065,-27.611214,-18.510595,-11.408259,-8.196229,-2.902401,3.307323,-0.942606,27.850880,35.082733,0.000000,197.000000,4.000000,,,,0.000000,4.000000,0.000000,4.000000,4.000000,4.000000,4.000000,4.000000,4.000000,4.000000,4.000000,4.000000,4.000000,4.000000,4.000000,4.000000,4.000000,4.000000,4.000000,4.000000,4.000000,4.000000,4.000000,4.000000,4.000000,4.000000,4.000000,4.000000,4.000000,4.000000,4.000000,4.000000,4.000000,66.666664
1614041045.060431,88.000000,0.000000,-15.668486,-20.586287,30.137810,26.024002,10.185230,5.180234,-0.994964,-2.402578,-3.945433,-15.018156,-8.954664,-16.705107,-15.399079,-21.682501,-31.930796,-38.456535,-19.987600,1.147428,-15.015097,-31.909676,-19.503366,-27.446081,-17.003378,-26.045141,-18.492085,-9.345569,-8.188033,-3.925140,3.304016,-0.941663,27.823029,35.560471,0.000000,162.000000,4.000000,,,,0.000000,4.000000,0.000000,4.000000,4.000000,4.000000,4.000000,4.000000,4.000000,4.000000,4.000000,4.000000,4.000000,4.000000,4.000000,4.000000,4.000000,4.000000,4.000000,4.000000,4.000000,4.000000,4.000000,4.000000,4.000000,4.000000,4.000000,4.000000,4.000000,4.000000,4.000000,4.000000,4.000000,66.666664
1614041045.068280,89.000000,0.000000,-15.652817,-21.078522,29.082029,25.485157,10.175045,6.713515,0.031672,0.163928,-4.454308,-16.028780,-10.484171,-15.662760,-16.409321,-24.737741,-34.462967,-47.648846,-19.967611,-9.622951,-22.692390,-39.570072,-22.560787,-31.008377,-17.499195,-27.557558,-19.499233,-7.797762,-8.179845,-3.408394,3.300712,-0.940722,27.795206,35.012093,0.000000,2.000000,4.000000,,,,0.000000,4.000000,0.000000,4.000000,4.000000,4.000000,4.000000,4.000000,4.000000,4.000000,4.000000,4.000000,4.000000,4.000000,4.000000,4.000000,4.000000,4.000000,4.000000,4.000000,4.000000,4.000000,4.000000,4.000000,4.000000,4.000000,4.000000,4.000000,4.000000,4.000000,4.000000,4.000000,4.000000,66.666664
1614041045.076029,90.000000,0.000000,-11.021779,-21.570263,30.591410,25.972492,9.652050,6.706802,2.082922,-0.861877,-3.937033,-14.987109,-8.935225,-11.031713,-15.880091,-24.713003,-24.684916,-34.780685,-15.332260,15.514878,0.407226,-30.812555,-19.974123,-20.720959,-14.917594,-28.555641,-15.889990,-8.302785,-8.171665,-0.840883,3.297411,-0.939781,27.767410,35.489899,0.000000,205.000000,4.000000,,,,0.000000,4.000000,0.000000,4.000000,4.000000,4.000000,4.000000,4.000000,4.000000,4.000000,4.000000,4.000000,4.000000,4.000000,4.000000,4.000000,4.000000,4.000000,4.000000,4.000000,4.000000,4.000000,4.000000,4.000000,4.000000,4.000000,4.000000,4.000000,4.000000,4.000000,4.000000,4.000000,4.000000,66.666664
1614041045.083878,91.000000,0.000000,-5.882553,-19.497412,29.535177,25.946520,10.155218,6.700095,3.619301,-0.348195,-3.933096,-14.972122,-8.926291,-7.943758,-15.351391,-25.201111,-21.583307,-27.566418,-11.727184,25.755774,22.970921,-20.012512,-16.877226,-11.469469,-12.851395,-20.834778,-11.258716,-8.294481,-8.163493,0.698419,3.806934,-0.426021,27.739643,36.480049,0.000000,178.000000,4.000000,,,,0.000000,4.000000,0.000000,4.000000,4.000000,4.000000,4.000000,4.000000,4.000000,4.000000,4.000000,4.000000,4.000000,4.000000,4.000000,4.000000,4.000000,4.000000,4.000000,4.000000,4.000000,4.000000,4.000000,4.000000,4.000000,4.000000,4.000000,4.000000,4.000000,4.000000,4.000000,4.000000,4.000000,66.666664
1614041045.091627,92.000000,0.000000,-5.876670,-14.862529,21.813334,24.382113,10.145063,7.206215,3.102861,-0.860667,-4.954804,-15.469971,-11.481466,-8.961455,-16.874500,-28.765654,-26.689930,-35.743980,-13.766739,9.832582,20.896667,-20.505320,-18.911631,-12.483641,-14.889825,-12.095994,-11.247457,-8.286187,-8.155330,0.184900,3.803127,-0.425595,27.711903,34.392288,0.000000,200.000000,4.000000,,,,0.000000,4.000000,0.000000,4.000000,4.000000,4.000000,4.000000,4.000000,4.000000,4.000000,4.000000,4.000000,4.000000,4.000000,4.000000,4.000000,4.000000,4.000000,4.000000,4.000000,4.000000,4.000000,4.000000,4.000000,4.000000,4.000000,4.000000,4.000000,4.000000,4.000000,4.000000,4.000000,4.000000,66.666664
1614041045.099476,93.000000,0.000000,-8.434896,-12.796385,19.227419,21.793629,10.134918,6.686189,3.099758,0.165834,-2.898567,-9.813475,-2.752037,-6.901212,-13.780703,-25.659964,-21.022213,-26.990286,-9.650408,19.053518,22.414232,-10.228404,-11.200412,-6.830131,-15.387755,-14.135180,-10.210568,-7.765080,-8.147175,0.184715,3.286503,-1.963630,27.684191,30.768152,0.000000,188.000000,4.000000,,,,0.000000,4.000000,0.000000,4.000000,4.000000,4.000000,4.000000,4.000000,4.000000,4.000000,4.000000,4.000000,4.000000,4.000000,4.000000,4.000000,4.000000,4.000000,4.000000,4.000000,4.000000,4.000000,4.000000,4.000000,4.000000,4.000000,4.000000,4.000000,4.000000,4.000000,4.000000,4.000000,4.000000,66.666664
1614041045.107225,94.000000,0.000000,-6.375179,-13.296409,26.900499,21.771833,9.611962,6.679502,3.096659,6.319515,2.232536,1.478390,15.712254,1.310818,-1.972051,-12.300971,-4.078115,-1.835091,3.179755,43.649849,46.494381,13.884388,9.836430,5.997212,-9.731342,-16.685148,-2.508050,-5.193213,-8.139028,0.697351,5.847320,0.089615,28.169327,33.814308,0.000000,204.000000,4.000000,,,,0.000000,4.000000,0.000000,4.000000,4.000000,4.000000,4.000000,4.000000,4.000000,4.000000,4.000000,4.000000,4.000000,4.000000,4.000000,4.000000,4.000000,4.000000,4.000000,4.000000,4.000000,4.000000,4.000000,4.000000,4.000000,4.000000,4.000000,4.000000,4.000000,4.000000,4.000000,4.000000,4.000000,66.666664
1614041045.115074,95.000000,0.000000,-2.266240,-12.770291,26.873598,22.775703,12.166453,7.185644,3.093562,10.928580,4.281586,8.656399,22.876028,6.437712,8.286332,-1.519439,6.695194,7.910334,10.868883,50.785686,68.499168,27.716658,22.134285,8.555317,-5.619047,-5.386411,0.571381,-4.162379,-8.130889,0.183833,7.892754,3.166449,26.602697,35.318954,0.000000,190.000000,4.000000,,,,0.000000,4.000000,0.000000,4.000000,4.000000,4.000000,4.000000,4.000000,4.000000,4.000000,4.000000,4.000000,4.000000,4.000000,4.000000,4.000000,4.000000,4.000000,4.000000,4.000000,4.000000,4.000000,4.000000,4.000000,4.000000,4.000000,4.000000,4.000000,4.000000,4.000000,4.000000,4.000000,4.000000,66.666664
1614041045.122823,96.000000,0.000000,-0.725512,-14.295983,15.051853,19.163183,13.179928,5.639997,3.090468,10.917651,3.251663,7.622101,17.724947,6.431274,10.329328,-1.005100,6.688499,5.851142,9.832374,52.273361,66.379387,25.637659,19.548050,6.495480,-5.613428,4.362565,-4.557395,-4.671037,-8.122758,-2.380453,3.269477,-3.503384,20.422247,22.463123,8064.000000,0.000000,4.000000,,,,0.000000,4.000000,0.000000,4.000000,4.000000,4.000000,4.000000,4.000000,4.000000,4.000000,4.000000,4.000000,4.000000,4.000000,4.000000,4.000000,4.000000,4.000000,4.000000,4.000000,4.000000,4.000000,4.000000,4.000000,4.000000,4.000000,4.000000,4.000000,4.000000,4.000000,4.000000,4.000000,4.000000,66.666664
1614041045.130672,97.000000,0.000000,-1.237607,-16.332970,7.857314,14.528636,9.064184,3.583074,3.087378,10.393913,3.248411,0.947812,16.168760,5.912023,10.318998,-3.568197,6.681811,4.819650,9.309720,48.631344,47.851471,17.919714,13.374655,4.950523,-6.633456,0.768459,-8.142582,-4.666366,-8.627456,-3.916534,-3.400459,-12.217830,14.247979,9.620147,8064.000000,0.000000,4.000000,,,,0.000000,4.000000,0.000000,4.000000,4.000000,4.000000,4.000000,4.000000,4.000000,4.000000,4.000000,4.000000,4.000000,4.000000,4.000000,4.000000,4.000000,4.000000,4.000000,4.000000,4.000000,4.000000,4.000000,4.000000,4.000000,4.000000,4.000000,4.000000,4.000000,4.000000,4.000000,4.000000,4.000000,66.666664
1614041045.138421,98.000000,0.000000,-1.236369,-17.342278,8.362277,14.001287,6.491017,2.553850,3.084291,10.896339,3.757983,-4.181341,17.178234,6.418931,10.821500,-5.103090,7.187950,-4.415939,10.326052,32.685280,31.393364,11.235127,0.027947,-0.182633,-6.114002,-5.386156,-7.108798,-4.661699,-7.593187,-3.399797,-5.448341,-8.615869,12.182449,8.072065,8064.000000,0.000000,4.000000,,,,0.000000,4.000000,0.000000,4.000000,4.000000,4.000000,4.000000,4.000000,4.000000,4.000000,4.000000,4.000000,4.000000,4.000000,4.000000,4.000000,4.000000,4.000000,4.000000,4.000000,4.000000,4.000000,4.000000,4.000000,4.000000,4.000000,4.000000,4.000000,4.000000,4.000000,4.000000,4.000000,4.000000,66.666664
1614041045.146070,99.000000,0.000000,-1.235133,-16.812115,8.353914,18.602671,9.048629,3.064117,3.081206,10.372622,3.241405,-3.664339,16.648235,6.412512,8.759397,-5.610808,3.078197,-17.744856,9.290085,23.421824,21.618380,6.095687,-13.305414,-5.310656,-5.595067,-5.380770,-8.127331,-4.657038,-5.534312,-3.396397,-2.365969,-0.914945,12.683087,10.115275,8064.000000,0.000000,4.000000,,,,0.000000,4.000000,0.000000,4.000000,4.000000,4.000000,4.000000,4.000000,4.000000,4.000000,4.000000,4.000000,4.000000,4.000000,4.000000,4.000000,4.000000,4.000000,4.000000,4.000000,4.000000,4.000000,4.000000,4.000000,4.000000,4.000000,4.000000,4.000000,4.000000,4.000000,4.000000,4.000000,4.000000,66.666664
1614041045.153819,100.000000,0.000000,-1.233898,-16.795301,7.319920,22.173811,10.578041,3.061053,3.078125,10.362250,3.238164,-0.583751,16.118767,5.893279,6.186534,-6.118018,-1.540265,-17.727112,9.280794,23.911222,20.058300,3.525489,-12.779288,-6.330986,-6.615113,-4.349748,-8.632024,-5.165201,-4.503136,-3.905821,1.738961,-0.401209,13.183225,12.669263,8192.000000,0.000000,4.000000,,,,0.000000,4.000000,0.000000,4.000000,4.000000,4.000000,4.000000,4.000000,4.000000,4.000000,4.000000,4.000000,4.000000,4.000000,4.000000,4.000000,4.000000,4.000000,4.000000,4.000000,4.000000,4.000000,4.000000,4.000000,4.000000,4.000000,4.000000,4.000000,4.000000,4.000000,4.000000,4.000000,4.000000,66.666664
1614041045.161469,101.000000,0.000000,-1.232664,-17.291327,7.825420,21.638817,9.541822,2.545171,3.075047,10.351888,3.234926,-0.583168,16.102648,5.887386,5.667527,-6.111899,-2.564366,-11.042718,9.271514,31.579618,36.961319,9.162989,-3.022919,-1.709270,-7.121318,-5.883860,-3.495186,-4.647215,-2.447351,-2.876275,3.788504,-1.939270,12.144401,15.733517,8064.000000,0.000000,4.000000,,,,0.000000,4.000000,0.000000,4.000000,4.000000,4.000000,4.000000,4.000000,4.000000,4.000000,4.000000,4.000000,4.000000,4.000000,4.000000,4.000000,4.000000,4.000000,4.000000,4.000000,4.000000,4.000000,4.000000,4.000000,4.000000,4.000000,4.000000,4.000000,4.000000,4.000000,4.000000,4.000000,4.000000,66.666664
1614041045.169218,102.000000,0.000000,-1.744252,-17.274036,8.330416,22.129999,9.532281,3.568267,3.071972,10.341537,3.231691,-1.095405,16.086544,5.881498,6.174680,-6.618608,0.002301,-10.006034,8.749422,55.137783,61.026920,23.512800,3.646770,11.112952,-0.447530,-5.877976,2.662155,-2.078466,1.657660,-0.309296,3.271895,-0.398869,13.157897,17.769064,8064.000000,0.000000,4.000000,,,,0.000000,4.000000,0.000000,4.000000,4.000000,4.000000,4.000000,4.000000,4.000000,4.000000,4.000000,4.000000,4.000000,4.000000,4.000000,4.000000,4.000000,4.000000,4.000000,4.000000,4.000000,4.000000,4.000000,4.000000,4.000000,4.000000,4.000000,4.000000,4.000000,4.000000,4.000000,4.000000,4.000000,66.666664
1614041045.176867,103.000000,0.000000,-0.716866,-14.179839,8.322085,24.671970,10.548389,6.128801,3.068900,10.331195,3.228459,-0.581489,16.070457,5.362796,6.168506,-6.611989,3.079221,-9.996028,8.740672,65.339058,67.119743,32.720058,7.745687,18.281326,7.758045,-1.256713,4.710775,-0.025105,3.707285,0.716655,3.781443,0.627171,18.785765,21.341040,8064.000000,0.000000,4.000000,,,,0.000000,4.000000,0.000000,4.000000,4.000000,4.000000,4.000000,4.000000,4.000000,4.000000,4.000000,4.000000,4.000000,4.000000,4.000000,4.000000,4.000000,4.000000,4.000000,4.000000,4.000000,4.000000,4.000000,4.000000,4.000000,4.000000,4.000000,4.000000,4.000000,4.000000,4.000000,4.000000,4.000000,66.666664
1614041045.184616,104.000000,0.000000,1.335133,-13.652839,8.313763,26.185760,10.025021,6.635493,3.065831,10.320864,3.225230,-0.068087,16.054388,6.895895,5.649517,-5.579736,6.665886,-3.319366,10.783214,53.991665,62.437237,31.661695,8.763583,12.109199,6.724646,2.334287,3.167603,-1.563542,3.190757,0.203118,3.777662,-0.911918,21.331081,20.806877,8064.000000,0.000000,4.000000,,,,0.000000,4.000000,0.000000,4.000000,4.000000,4.000000,4.000000,4.000000,4.000000,4.000000,4.000000,4.000000,4.000000,4.000000,4.000000,4.000000,4.000000,4.000000,4.000000,4.000000,4.000000,4.000000,4.000000,4.000000,4.000000,4.000000,4.000000,4.000000,4.000000,4.000000,4.000000,4.000000,4.000000,66.666664
1614041045.192265,105.000000,0.000000,2.872259,-12.613544,8.305449,26.159575,10.014996,4.064755,3.062765,10.310542,3.222005,-0.068019,16.551153,9.453102,6.669508,-5.574157,13.325887,5.914723,12.823712,62.142803,66.990181,32.655674,9.780460,14.148372,4.666639,2.331953,3.164435,-0.536337,3.187566,0.202914,3.261064,-0.911006,16.694366,12.068122,8064.000000,0.000000,4.000000,,,,0.000000,4.000000,0.000000,4.000000,4.000000,4.000000,4.000000,4.000000,4.000000,4.000000,4.000000,4.000000,4.000000,4.000000,4.000000,4.000000,4.000000,4.000000,4.000000,4.000000,4.000000,4.000000,4.000000,4.000000,4.000000,4.000000,4.000000,4.000000,4.000000,4.000000,4.000000,4.000000,4.000000,66.666664
1614041045.200014,106.000000,0.000000,2.356566,-6.447085,8.297144,24.594954,10.517801,3.035049,3.059702,10.300232,3.218783,-0.580771,16.534603,9.956470,9.226941,-6.594223,18.953587,10.524193,13.323709,77.465271,70.000114,34.161480,10.796321,21.826530,5.687614,2.842441,4.699732,-0.022980,2.158738,0.715532,3.770623,0.628367,13.600748,7.440670,8064.000000,0.000000,4.000000,,,,0.000000,4.000000,0.000000,4.000000,4.000000,4.000000,4.000000,4.000000,4.000000,4.000000,4.000000,4.000000,4.000000,4.000000,4.000000,4.000000,4.000000,4.000000,4.000000,4.000000,4.000000,4.000000,4.000000,4.000000,4.000000,4.000000,4.000000,4.000000,4.000000,4.000000,4.000000,4.000000,4.000000,66.666664
1614041045.207663,107.000000,0.000000,2.354210,-5.927817,8.288847,19.954975,8.968822,2.519194,3.056643,10.289931,3.215564,-0.580191,16.005247,9.433692,9.730535,-4.023527,17.396172,9.488028,13.310386,60.977554,56.083961,25.409370,5.144499,11.035474,2.092183,2.326778,3.156571,-7.202445,-1.945985,-0.823645,2.228391,-6.038928,11.023046,5.381947,8192.000000,0.000000,4.000000,,,,0.000000,4.000000,0.000000,4.000000,4.000000,4.000000,4.000000,4.000000,4.000000,4.000000,4.000000,4.000000,4.000000,4.000000,4.000000,4.000000,4.000000,4.000000,4.000000,4.000000,4.000000,4.000000,4.000000,4.000000,4.000000,4.000000,4.000000,4.000000,4.000000,4.000000,4.000000,4.000000,4.000000,66.666664
1614041045.215412,108.000000,0.000000,2.351856,-18.229582,8.280558,15.319634,6.908571,-0.047428,3.053586,10.279642,3.212349,-0.066790,15.989243,9.424258,9.207984,1.108702,16.865955,6.914437,12.271434,46.044781,44.233006,19.230116,0.011149,1.280848,-3.038115,-2.290933,-3.513252,-15.913191,-5.020962,-3.386924,-2.902043,-19.366222,3.319714,-3.854204,8064.000000,0.000000,4.000000,,,,0.000000,4.000000,0.000000,4.000000,4.000000,4.000000,4.000000,4.000000,4.000000,4.000000,4.000000,4.000000,4.000000,4.000000,4.000000,4.000000,4.000000,4.000000,4.000000,4.000000,4.000000,4.000000,4.000000,4.000000,4.000000,4.000000,4.000000,4.000000,4.000000,4.000000,4.000000,4.000000,4.000000,66.666664
1614041045.223062,109.000000,0.000000,2.349504,-25.390839,8.272277,14.278674,5.876021,-1.073022,3.050533,10.269362,3.209136,-1.605185,14.434792,9.414834,9.198775,-2.482150,16.849089,3.830600,12.771983,55.742325,49.316978,21.262167,3.088061,5.894952,-2.522256,-5.878386,-8.637944,-13.845995,-5.015942,-3.896358,-4.437602,-23.449421,-2.324631,-8.978556,8064.000000,0.000000,4.000000,,,,0.000000,4.000000,0.000000,4.000000,4.000000,4.000000,4.000000,4.000000,4.000000,4.000000,4.000000,4.000000,4.000000,4.000000,4.000000,4.000000,4.000000,4.000000,4.000000,4.000000,4.000000,4.000000,4.000000,4.000000,4.000000,4.000000,4.000000,4.000000,4.000000,4.000000,4.000000,4.000000,4.000000,66.666664
1614041045.230811,110.000000,0.000000,2.859975,-24.339808,8.776825,14.777216,6.382966,-0.559128,3.560302,7.182170,3.718748,-3.654862,9.292151,9.405419,7.138295,-10.684796,2.986086,-12.070666,13.784852,44.404530,35.421509,6.369110,-6.145796,-5.392994,-2.519734,-4.846867,-7.603665,-11.268047,-4.498105,-2.866820,-3.407523,-19.323406,-1.809486,-3.328551,8064.000000,0.000000,4.000000,,,,0.000000,4.000000,0.000000,4.000000,4.000000,4.000000,4.000000,4.000000,4.000000,4.000000,4.000000,4.000000,4.000000,4.000000,4.000000,4.000000,4.000000,4.000000,4.000000,4.000000,4.000000,4.000000,4.000000,4.000000,4.000000,4.000000,4.000000,4.000000,4.000000,4.000000,4.000000,4.000000,4.000000,66.666664
1614041045.238460,111.000000,0.000000,0.805833,-27.905210,8.768048,14.249619,6.376583,-0.558569,2.018281,1.533962,3.715029,-4.676848,1.077731,9.396014,1.490131,-14.776676,-19.068182,-42.315006,7.104401,12.052435,3.078395,-18.252644,-25.114010,-24.361959,-5.594137,-10.995866,-8.108882,-12.795240,-5.519248,-3.889594,-5.455398,-19.304083,-1.294856,0.264521,8064.000000,0.000000,4.000000,,,,0.000000,4.000000,0.000000,4.000000,4.000000,4.000000,4.000000,4.000000,4.000000,4.000000,4.000000,4.000000,4.000000,4.000000,4.000000,4.000000,4.000000,4.000000,4.000000,4.000000,4.000000,4.000000,4.000000,4.000000,4.000000,4.000000,4.000000,4.000000,4.000000,4.000000,4.000000,4.000000,4.000000,66.666664
1614041045.246209,112.000000,0.000000,-0.733435,-31.467051,7.733639,14.235369,5.857386,-0.558010,3.554724,-1.031675,2.172853,-4.672171,1.076653,8.873797,1.488641,-14.761899,-19.561935,-48.939358,0.943450,11.527561,16.408649,-9.516442,-14.832485,-12.542727,-5.588543,-19.702818,-7.587953,-9.705522,-4.488088,-3.372884,-2.373019,-18.259138,-2.319202,-1.787026,8064.000000,0.000000,4.000000,,,,0.000000,4.000000,0.000000,4.000000,4.000000,4.000000,4.000000,4.000000,4.000000,4.000000,4.000000,4.000000,4.000000,4.000000,4.000000,4.000000,4.000000,4.000000,4.000000,4.000000,4.000000,4.000000,4.000000,4.000000,4.000000,4.000000,4.000000,4.000000,4.000000,4.000000,4.000000,4.000000,4.000000,66.666664
1614041045.253858,113.000000,0.000000,1.318581,-25.794558,9.264367,15.246775,5.851528,-0.557452,6.628092,-1.030643,3.709141,-4.667499,11.331987,9.377744,12.769203,-6.029189,3.021730,-16.069906,8.121994,44.336548,49.212753,23.313587,11.336194,13.623663,-2.506031,-15.580552,-1.939339,-2.003509,1.157426,1.245873,6.347302,-10.035751,-1.804062,-1.272418,8064.000000,0.000000,4.000000,,,,0.000000,4.000000,0.000000,4.000000,4.000000,4.000000,4.000000,4.000000,4.000000,4.000000,4.000000,4.000000,4.000000,4.000000,4.000000,4.000000,4.000000,4.000000,4.000000,4.000000,4.000000,4.000000,4.000000,4.000000,4.000000,4.000000,4.000000,4.000000,4.000000,4.000000,4.000000,4.000000,4.000000,66.666664
1614041045.261707,114.000000,0.000000,2.855724,-19.102097,7.203821,14.718707,6.871318,-0.556895,2.518900,-0.516792,3.705432,-4.150011,13.884758,9.881186,19.423101,4.746071,17.890503,12.664113,13.242077,61.215286,49.676361,27.392838,10.812037,17.199783,-1.990705,-5.308561,-0.398938,0.049777,4.233192,4.834371,1.725570,-7.974433,-1.289438,-0.245505,8064.000000,0.000000,4.000000,,,,0.000000,4.000000,0.000000,4.000000,4.000000,4.000000,4.000000,4.000000,4.000000,4.000000,4.000000,4.000000,4.000000,4.000000,4.000000,4.000000,4.000000,4.000000,4.000000,4.000000,4.000000,4.000000,4.000000,4.000000,4.000000,4.000000,4.000000,4.000000,4.000000,4.000000,4.000000,4.000000,4.000000,66.666664
1614041045.269456,115.000000,0.000000,2.340047,-14.467609,-3.059793,11.627066,5.325985,-0.556338,-3.124645,-1.029096,-3.990581,-4.658681,6.691386,6.794383,12.224191,-0.899700,13.257228,5.984782,5.023707,56.025867,36.806171,12.493649,-0.480826,11.541557,-2.501534,-4.277611,-6.039565,-0.975914,1.152035,3.803895,-11.096668,-16.171587,-1.800969,-1.270900,8064.000000,0.000000,4.000000,,,,0.000000,4.000000,0.000000,4.000000,4.000000,4.000000,4.000000,4.000000,4.000000,4.000000,4.000000,4.000000,4.000000,4.000000,4.000000,4.000000,4.000000,4.000000,4.000000,4.000000,4.000000,4.000000,4.000000,4.000000,4.000000,4.000000,4.000000,4.000000,4.000000,4.000000,4.000000,4.000000,4.000000,66.666664
1614041045.277305,116.000000,0.000000,2.337707,-12.401859,-11.774682,10.589797,2.756556,-1.068602,-0.557417,-0.515246,-7.576334,-4.141202,8.223156,6.787588,10.160685,-9.103929,11.192689,-3.764792,4.505863,56.482662,55.230904,14.019617,3.622218,14.094118,-2.499033,-6.837436,-7.059166,-1.487759,-0.900399,0.723169,-10.059931,-19.232338,-1.286347,-0.756809,8064.000000,0.000000,4.000000,,,,0.000000,4.000000,0.000000,4.000000,4.000000,4.000000,4.000000,4.000000,4.000000,4.000000,4.000000,4.000000,4.000000,4.000000,4.000000,4.000000,4.000000,4.000000,4.000000,4.000000,4.000000,4.000000,4.000000,4.000000,4.000000,4.000000,4.000000,4.000000,4.000000,4.000000,4.000000,4.000000,4.000000,66.666664
1614041045.285054,117.000000,0.000000,2.335370,-12.389458,-7.660343,11.092028,3.266620,-0.041893,3.545704,-0.514731,-0.902091,0.478324,16.420061,11.396185,18.868473,-1.915338,16.822521,0.341536,14.244946,51.810795,49.534649,18.108162,3.618596,15.105665,-2.496534,-4.266496,-4.488005,0.052191,-0.386678,0.209625,-1.331922,-13.572081,0.766221,1.808051,8064.000000,0.000000,4.000000,,,,0.000000,4.000000,0.000000,4.000000,4.000000,4.000000,4.000000,4.000000,4.000000,4.000000,4.000000,4.000000,4.000000,4.000000,4.000000,4.000000,4.000000,4.000000,4.000000,4.000000,4.000000,4.000000,4.000000,4.000000,4.000000,4.000000,4.000000,4.000000,4.000000,4.000000,4.000000,4.000000,4.000000,66.666664
1614041045.292903,118.000000,0.000000,2.333034,-11.864247,-0.473196,10.568115,6.340277,2.009431,3.029338,-0.514216,4.227016,3.554769,16.916462,12.410430,20.900887,2.701962,16.805698,0.341195,15.256343,46.117958,23.844088,12.449028,-4.077330,12.526457,-2.494037,-5.287871,-3.970696,-0.973503,-2.950393,0.209415,0.207872,-10.481586,2.816737,3.344704,8064.000000,0.000000,4.000000,,,,0.000000,4.000000,0.000000,4.000000,4.000000,4.000000,4.000000,4.000000,4.000000,4.000000,4.000000,4.000000,4.000000,4.000000,4.000000,4.000000,4.000000,4.000000,4.000000,4.000000,4.000000,4.000000,4.000000,4.000000,4.000000,4.000000,4.000000,4.000000,4.000000,4.000000,4.000000,4.000000,4.000000,66.666664
1614041045.300652,119.000000,0.000000,2.330701,-12.878024,0.552918,7.480624,6.333936,3.033063,4.564770,-0.513702,3.197148,3.551214,14.848263,9.321096,16.777420,-3.967406,17.301714,-0.684787,13.702624,63.507736,45.871525,18.077604,1.567773,12.513930,-2.491543,-8.872327,-4.479546,-4.562273,-4.485905,0.209206,-1.330798,-12.522386,2.301100,1.290077,8064.000000,0.000000,4.000000,,,,0.000000,4.000000,0.000000,4.000000,4.000000,4.000000,4.000000,4.000000,4.000000,4.000000,4.000000,4.000000,4.000000,4.000000,4.000000,4.000000,4.000000,4.000000,4.000000,4.000000,4.000000,4.000000,4.000000,4.000000,4.000000,4.000000,4.000000,4.000000,4.000000,4.000000,4.000000,4.000000,4.000000,66.666664
1614041045.308501,120.000000,0.000000,2.328371,-15.429249,1.065186,6.960323,5.814782,3.030030,6.098667,-0.513188,2.681130,2.522022,15.859056,8.798955,16.760643,-7.553183,15.233130,-2.222564,16.253025,69.598076,59.158989,18.572348,9.258512,13.527058,-2.489052,-5.786531,-5.500708,-1.480787,-0.378855,-0.303824,-0.816646,-13.535504,1.273158,2.314428,8192.000000,0.000000,4.000000,,,,0.000000,4.000000,0.000000,4.000000,4.000000,4.000000,4.000000,4.000000,4.000000,4.000000,4.000000,4.000000,4.000000,4.000000,4.000000,4.000000,4.000000,4.000000,4.000000,4.000000,4.000000,4.000000,4.000000,4.000000,4.000000,4.000000,4.000000,4.000000,4.000000,4.000000,4.000000,4.000000,4.000000,66.666664
1614041045.316250,121.000000,0.000000,2.326042,-15.413819,4.141044,7.466183,8.373070,3.027000,3.528466,-0.512675,3.704090,3.545141,8.150888,7.764515,7.000293,-13.186655,-8.884667,-22.220341,8.031643,37.220787,26.792137,-4.523148,0.018485,6.846864,-2.486563,1.398743,-3.956745,7.751462,3.724088,0.209300,2.773914,-6.855302,2.810346,12.055703,8064.000000,0.000000,4.000000,,,,0.000000,4.000000,0.000000,4.000000,4.000000,4.000000,4.000000,4.000000,4.000000,4.000000,4.000000,4.000000,4.000000,4.000000,4.000000,4.000000,4.000000,4.000000,4.000000,4.000000,4.000000,4.000000,4.000000,4.000000,4.000000,4.000000,4.000000,4.000000,4.000000,4.000000,4.000000,4.000000,4.000000,66.666664
1614041045.324099,122.000000,0.000000,2.323716,-18.475328,5.675364,7.458717,9.903158,3.023973,4.037758,-1.024983,3.187566,3.028775,-0.575211,5.192648,-8.391323,-23.942699,-28.875782,-42.198120,-2.232799,17.696384,8.303806,-16.313496,-8.186662,1.198991,-2.996897,2.422985,4.252340,10.307814,2.694723,0.209091,6.360884,-0.181780,2.807536,17.171852,8064.000000,0.000000,4.000000,,,,0.000000,4.000000,0.000000,4.000000,4.000000,4.000000,4.000000,4.000000,4.000000,4.000000,4.000000,4.000000,4.000000,4.000000,4.000000,4.000000,4.000000,4.000000,4.000000,4.000000,4.000000,4.000000,4.000000,4.000000,4.000000,4.000000,4.000000,4.000000,4.000000,4.000000,4.000000,4.000000,4.000000,66.666664
1614041045.331848,123.000000,0.000000,2.834213,-22.559418,4.644048,7.451258,9.380434,3.533769,7.110643,-0.511137,3.184378,2.512926,6.604852,7.238738,-5.306008,-19.303371,-9.359727,-27.284128,1.871998,44.858177,41.116016,2.677176,6.693320,9.402921,-2.481079,1.394921,9.889112,10.297506,2.179208,0.208882,7.380164,-1.720060,0.753446,13.052117,8064.000000,0.000000,4.000000,,,,0.000000,4.000000,0.000000,4.000000,4.000000,4.000000,4.000000,4.000000,4.000000,4.000000,4.000000,4.000000,4.000000,4.000000,4.000000,4.000000,4.000000,4.000000,4.000000,4.000000,4.000000,4.000000,4.000000,4.000000,4.000000,4.000000,4.000000,4.000000,4.000000,4.000000,4.000000,4.000000,4.000000,66.666664
1614041045.339697,124.000000,0.000000,5.395481,-17.921474,4.639404,9.495090,10.909515,6.094338,7.103532,1.540656,3.181194,3.023233,20.957222,9.795601,12.135195,-0.309709,19.367580,5.050848,8.536793,64.300499,61.074898,27.289883,31.302011,22.214029,-0.427316,3.957628,11.930506,15.415414,3.202670,0.208673,6.859963,1.358583,8.445001,19.705732,8064.000000,0.000000,4.000000,,,,0.000000,4.000000,0.000000,4.000000,4.000000,4.000000,4.000000,4.000000,4.000000,4.000000,4.000000,4.000000,4.000000,4.000000,4.000000,4.000000,4.000000,4.000000,4.000000,4.000000,4.000000,4.000000,4.000000,4.000000,4.000000,4.000000,4.000000,4.000000,4.000000,4.000000,4.000000,4.000000,4.000000,66.666664
1614041045.347446,125.000000,0.000000,6.415727,-9.185603,5.147585,13.588158,13.975529,7.626705,6.583609,3.590397,3.690833,6.097133,25.038828,9.272985,19.815369,9.947011,25.502060,18.379131,10.579538,68.338760,70.244591,41.621567,41.014297,24.755919,1.624393,8.056235,16.533960,18.476921,2.686646,0.208464,7.365923,13.664917,22.282709,30.968077,8192.000000,0.000000,4.000000,,,,0.000000,4.000000,0.000000,4.000000,4.000000,4.000000,4.000000,4.000000,4.000000,4.000000,4.000000,4.000000,4.000000,4.000000,4.000000,4.000000,4.000000,4.000000,4.000000,4.000000,4.000000,4.000000,4.000000,4.000000,4.000000,4.000000,4.000000,4.000000,4.000000,4.000000,4.000000,4.000000,4.000000,66.666664
1614041045.355295,126.000000,0.000000,4.358029,-8.150777,3.603976,15.625852,13.961554,5.567797,6.577025,3.586807,3.174322,7.116677,21.936867,8.750892,19.795553,8.911423,23.425276,18.360752,14.671523,80.065292,87.097427,44.656868,31.229694,23.705523,1.109948,13.176384,15.491785,15.381521,2.683960,0.208256,6.332917,15.702534,22.260426,23.244801,8064.000000,0.000000,4.000000,,,,0.000000,4.000000,0.000000,4.000000,4.000000,4.000000,4.000000,4.000000,4.000000,4.000000,4.000000,4.000000,4.000000,4.000000,4.000000,4.000000,4.000000,4.000000,4.000000,4.000000,4.000000,4.000000,4.000000,4.000000,4.000000,4.000000,4.000000,4.000000,4.000000,4.000000,4.000000,4.000000,4.000000,66.666664
1614041045.363045,127.000000,0.000000,2.302389,-9.681087,1.036269,11.507662,12.921951,4.023767,6.570448,2.557579,2.145506,5.571099,23.453390,9.254961,20.801397,8.389690,24.940311,19.368032,15.682492,77.933945,79.318024,35.381443,17.352312,24.707457,1.108838,13.163208,4.707062,12.802037,2.681276,0.208048,3.249661,5.430421,11.468935,7.324121,8064.000000,0.000000,4.000000,,,,0.000000,4.000000,0.000000,4.000000,4.000000,4.000000,4.000000,4.000000,4.000000,4.000000,4.000000,4.000000,4.000000,4.000000,4.000000,4.000000,4.000000,4.000000,4.000000,4.000000,4.000000,4.000000,4.000000,4.000000,4.000000,4.000000,4.000000,4.000000,4.000000,4.000000,4.000000,4.000000,4.000000,66.666664
1614041045.370894,0.000000,0.000000,2.300086,-8.645765,0.522413,6.880770,14.447491,2.481282,7.076698,3.580663,4.194643,8.129630,25.481220,10.271347,22.319057,10.945403,23.376909,19.348663,13.615528,63.497040,58.725883,26.115294,11.693933,24.169930,1.107729,3.919275,-1.451491,13.302055,2.678595,0.207840,4.784873,1.835247,8.893364,4.752694,0.000000,200.000000,4.000000,,,,0.000000,4.000000,0.000000,4.000000,4.000000,4.000000,4.000000,4.000000,4.000000,4.000000,4.000000,4.000000,4.000000,4.000000,4.000000,4.000000,4.000000,4.000000,4.000000,4.000000,4.000000,4.000000,4.000000,4.000000,4.000000,4.000000,4.000000,4.000000,4.000000,4.000000,4.000000,4.000000,4.000000,66.666664
1614041045.378643,1.000000,0.000000,2.810607,-8.124299,1.547531,7.386710,12.381762,-2.136584,6.043980,3.064261,2.651987,6.583039,19.814713,8.722614,20.758278,9.908817,21.302252,19.842136,13.089092,67.023285,56.103054,23.012255,12.195060,19.530375,1.619442,-1.212849,2.139704,14.314395,2.675916,0.207632,6.831370,4.397514,10.422932,7.312044,0.000000,192.000000,4.000000,,,,0.000000,4.000000,0.000000,4.000000,4.000000,4.000000,4.000000,4.000000,4.000000,4.000000,4.000000,4.000000,4.000000,4.000000,4.000000,4.000000,4.000000,4.000000,4.000000,4.000000,4.000000,4.000000,4.000000,4.000000,4.000000,4.000000,4.000000,4.000000,4.000000,4.000000,4.000000,4.000000,4.000000,66.666664
1614041045.386292,2.000000,0.000000,2.294976,-8.628996,0.007522,6.353682,3.138610,-7.775473,2.448193,-1.041367,-5.555793,-4.705595,12.102591,5.636969,19.199057,5.796344,19.229668,17.771011,12.563182,69.520363,53.482849,14.784114,11.157224,13.869819,1.105002,1.352466,3.163206,12.248798,2.673240,0.207424,4.773256,2.854655,7.848406,5.766270,0.000000,196.000000,4.000000,,,,0.000000,4.000000,0.000000,4.000000,4.000000,4.000000,4.000000,4.000000,4.000000,4.000000,4.000000,4.000000,4.000000,4.000000,4.000000,4.000000,4.000000,4.000000,4.000000,4.000000,4.000000,4.000000,4.000000,4.000000,4.000000,4.000000,4.000000,4.000000,4.000000,4.000000,4.000000,4.000000,4.000000,66.666664
1614041045.394041,3.000000,0.000000,2.292681,-9.133187,-3.582229,2.244764,-0.967093,-8.793339,-0.631179,-4.630069,-6.575879,-5.213710,11.577667,5.118511,17.641397,4.764907,9.979668,-1.221119,13.063439,52.527767,45.737057,10.666766,10.633246,13.343128,1.103897,0.325473,3.160043,5.569883,2.670567,0.207217,2.717201,-0.225122,5.276455,5.247684,0.000000,180.000000,4.000000,,,,0.000000,4.000000,0.000000,4.000000,4.000000,4.000000,4.000000,4.000000,4.000000,4.000000,4.000000,4.000000,4.000000,4.000000,4.000000,4.000000,4.000000,4.000000,4.000000,4.000000,4.000000,4.000000,4.000000,4.000000,4.000000,4.000000,4.000000,4.000000,4.000000,4.000000,4.000000,4.000000,4.000000,66.666664
1614041045.401690,4.000000,0.000000,2.803209,-8.611234,-6.142749,6.857904,3.649259,-7.758904,-1.143368,-4.625439,1.635826,8.124837,12.078910,6.651854,13.008371,3.221680,-6.440568,-21.732718,12.024735,41.193188,41.588757,13.220201,11.135433,13.329785,1.615614,-2.751776,2.644062,1.974569,3.180717,0.207010,3.227304,-1.763359,5.271179,6.268077,0.000000,205.000000,4.000000,,,,0.000000,4.000000,0.000000,4.000000,4.000000,4.000000,4.000000,4.000000,4.000000,4.000000,4.000000,4.000000,4.000000,4.000000,4.000000,4.000000,4.000000,4.000000,4.000000,4.000000,4.000000,4.000000,4.000000,4.000000,4.000000,4.000000,4.000000,4.000000,4.000000,4.000000,4.000000,4.000000,4.000000,66.666664
1614041045.409439,5.000000,0.000000,1.261944,-8.602622,-6.136607,15.568995,6.722533,-8.263966,-0.629404,-4.107993,2.147010,6.065430,5.400164,1.004177,4.277414,-13.704618,-22.844383,-29.403294,2.781941,36.536610,28.726654,3.463392,7.534554,2.034404,-0.437284,-1.210563,0.077315,2.998236,1.126254,0.206803,3.736897,-4.838519,6.804369,6.261809,0.000000,199.000000,4.000000,,,,0.000000,4.000000,0.000000,4.000000,4.000000,4.000000,4.000000,4.000000,4.000000,4.000000,4.000000,4.000000,4.000000,4.000000,4.000000,4.000000,4.000000,4.000000,4.000000,4.000000,4.000000,4.000000,4.000000,4.000000,4.000000,4.000000,4.000000,4.000000,4.000000,4.000000,4.000000,4.000000,4.000000,66.666664
1614041045.417088,6.000000,0.000000,-2.841882,-12.696584,-5.617650,10.425220,5.690169,-8.255702,-0.628775,-4.616705,-4.521803,-7.273969,0.266559,-6.176315,-0.855069,-27.537067,-24.360001,-27.835428,-6.451610,34.961613,20.492800,-6.796482,2.911635,-10.788143,-5.565052,-5.824737,-4.025326,0.431135,-1.438975,0.206596,3.733160,-7.910603,6.284744,6.255547,0.000000,190.000000,4.000000,,,,0.000000,4.000000,0.000000,4.000000,4.000000,4.000000,4.000000,4.000000,4.000000,4.000000,4.000000,4.000000,4.000000,4.000000,4.000000,4.000000,4.000000,4.000000,4.000000,4.000000,4.000000,4.000000,4.000000,4.000000,4.000000,4.000000,4.000000,4.000000,4.000000,4.000000,4.000000,4.000000,4.000000,66.666664
1614041045.424837,7.000000,0.000000,-5.403143,-16.786451,-6.637673,3.748129,5.684479,-7.734626,-0.628146,-4.612089,-5.030102,-6.753874,3.343215,-5.144497,3.761171,-11.612095,0.279743,-12.422977,-2.855415,53.388187,38.933846,8.594930,5.985647,-5.649150,-7.097948,-9.408655,-5.046942,-1.107758,1.126567,0.206389,3.216607,-8.415513,4.227178,6.249291,0.000000,186.000000,4.000000,,,,0.000000,4.000000,0.000000,4.000000,4.000000,4.000000,4.000000,4.000000,4.000000,4.000000,4.000000,4.000000,4.000000,4.000000,4.000000,4.000000,4.000000,4.000000,4.000000,4.000000,4.000000,4.000000,4.000000,4.000000,4.000000,4.000000,4.000000,4.000000,4.000000,4.000000,4.000000,4.000000,4.000000,66.666664
1614041045.432487,8.000000,0.000000,-4.884919,-16.769665,-6.631035,8.872585,6.191615,-7.726891,-0.627518,-4.094656,-3.486611,0.945187,7.442436,1.014493,12.475359,13.527722,27.458950,14.256112,4.326928,78.463005,63.510296,31.150438,11.620687,9.228294,-4.526748,0.344343,-2.477792,1.457453,5.740825,0.206183,3.213390,-7.894277,3.197309,6.755863,0.000000,196.000000,4.000000,,,,0.000000,4.000000,0.000000,4.000000,4.000000,4.000000,4.000000,4.000000,4.000000,4.000000,4.000000,4.000000,4.000000,4.000000,4.000000,4.000000,4.000000,4.000000,4.000000,4.000000,4.000000,4.000000,4.000000,4.000000,4.000000,4.000000,4.000000,4.000000,4.000000,4.000000,4.000000,4.000000,4.000000,66.666664
1614041045.440236,9.000000,0.000000,-4.880034,-16.752895,-5.085942,10.914995,6.698244,-7.719164,-0.626890,-4.090562,-3.995944,-0.081399,10.511917,2.551940,17.591089,17.103939,33.585339,22.446985,6.373883,80.435822,64.985245,33.170570,12.121886,13.834451,-2.470939,10.087588,-0.424033,-0.595287,6.760725,0.205977,4.235818,-7.886383,1.655651,5.723466,0.000000,204.000000,4.000000,,,,0.000000,4.000000,0.000000,4.000000,4.000000,4.000000,4.000000,4.000000,4.000000,4.000000,4.000000,4.000000,4.000000,4.000000,4.000000,4.000000,4.000000,4.000000,4.000000,4.000000,4.000000,4.000000,4.000000,4.000000,4.000000,4.000000,4.000000,4.000000,4.000000,4.000000,4.000000,4.000000,4.000000,66.666664
1614041045.447885,10.000000,0.000000,-5.387975,-15.710501,-9.183420,3.211772,6.178725,-7.711445,-0.626263,-4.086471,-4.504769,-1.619779,14.603970,1.523747,17.060677,11.445809,32.526112,15.245050,9.444432,71.124619,57.227955,25.957911,8.007200,11.769334,-2.468468,6.487757,-1.962070,-5.210076,6.241144,0.205771,1.154659,-7.878496,-5.525492,2.127999,0.000000,192.000000,4.000000,,,,0.000000,4.000000,0.000000,4.000000,4.000000,4.000000,4.000000,4.000000,4.000000,4.000000,4.000000,4.000000,4.000000,4.000000,4.000000,4.000000,4.000000,4.000000,4.000000,4.000000,4.000000,4.000000,4.000000,4.000000,4.000000,4.000000,4.000000,4.000000,4.000000,4.000000,4.000000,4.000000,4.000000,66.666664
1614041045.455634,11.000000,0.000000,-4.869766,-11.079406,-18.917828,-1.406824,2.582803,-7.703733,-0.625637,-4.082385,-3.987444,-0.592518,16.640648,2.035044,17.043615,13.485645,32.493584,18.819550,13.537552,73.617599,62.298931,29.008877,7.486373,15.347308,-1.440358,0.840244,-4.011390,-5.204866,6.234903,0.205565,-3.461880,-9.409080,-13.212275,-0.951052,0.000000,203.000000,4.000000,,,,0.000000,4.000000,0.000000,4.000000,4.000000,4.000000,4.000000,4.000000,4.000000,4.000000,4.000000,4.000000,4.000000,4.000000,4.000000,4.000000,4.000000,4.000000,4.000000,4.000000,4.000000,4.000000,4.000000,4.000000,4.000000,4.000000,4.000000,4.000000,4.000000,4.000000,4.000000,4.000000,4.000000,66.666664
1614041045.463283,12.000000,0.000000,-4.864896,-8.504224,-21.463011,-0.379776,-1.009523,-7.696030,-0.625012,-4.078302,-3.983456,-0.079105,16.624006,2.545830,17.026573,11.420877,18.102118,15.723806,11.985553,73.031158,65.313553,28.979868,10.042989,18.921705,1.125185,1.865044,-4.007379,-4.686841,6.741488,0.205359,-4.484059,-13.502234,-13.711883,-1.462922,0.000000,203.000000,4.000000,,,,0.000000,4.000000,0.000000,4.000000,4.000000,4.000000,4.000000,4.000000,4.000000,4.000000,4.000000,4.000000,4.000000,4.000000,4.000000,4.000000,4.000000,4.000000,4.000000,4.000000,4.000000,4.000000,4.000000,4.000000,4.000000,4.000000,4.000000,4.000000,4.000000,4.000000,4.000000,4.000000,4.000000,66.666664
1614041045.471032,13.000000,0.000000,-4.860032,-8.495720,-15.287703,0.646245,-1.521334,-7.688334,-0.624386,-4.074224,-3.979473,-0.591847,14.043281,2.030463,9.830059,1.153046,-4.480087,-8.394482,7.358182,51.419666,43.196960,8.438067,4.904741,10.697655,2.149700,2.888820,-3.490551,-4.169333,6.221926,0.205154,-3.966755,-15.540014,-9.082787,-0.948638,0.000000,189.000000,4.000000,,,,0.000000,4.000000,0.000000,4.000000,4.000000,4.000000,4.000000,4.000000,4.000000,4.000000,4.000000,4.000000,4.000000,4.000000,4.000000,4.000000,4.000000,4.000000,4.000000,4.000000,4.000000,4.000000,4.000000,4.000000,4.000000,4.000000,4.000000,4.000000,4.000000,4.000000,4.000000,4.000000,4.000000,66.666664
1614041045.478681,14.000000,0.000000,-4.855172,-8.487224,-12.708312,2.184060,-1.006992,-7.680645,-0.623762,-4.070150,-3.975493,-0.591255,7.362570,1.515612,0.589459,-3.976312,-16.270479,-21.719421,2.222619,28.291325,16.999916,-15.672935,-6.382215,-1.620735,0.096269,1.347470,-3.999881,-2.113882,4.164423,0.204949,-3.962788,-14.498834,-5.996780,-1.460510,0.000000,182.000000,4.000000,,,,0.000000,4.000000,0.000000,4.000000,4.000000,4.000000,4.000000,4.000000,4.000000,4.000000,4.000000,4.000000,4.000000,4.000000,4.000000,4.000000,4.000000,4.000000,4.000000,4.000000,4.000000,4.000000,4.000000,4.000000,4.000000,4.000000,4.000000,4.000000,4.000000,4.000000,4.000000,4.000000,4.000000,66.666664
1614041045.486530,15.000000,0.000000,-4.850317,-11.042839,-14.234065,3.720337,-1.005985,-7.672965,-0.623138,-4.066080,-3.971518,-0.590664,3.765464,2.026917,-2.488053,-2.946694,-16.254208,-19.646420,-1.882168,29.801495,25.188046,-15.657262,-11.504038,-3.157576,-2.467930,-2.756441,-3.995881,-0.573307,2.621796,0.204744,-4.471646,-15.509975,-4.965143,-1.459050,0.000000,183.000000,4.000000,,,,0.000000,4.000000,0.000000,4.000000,4.000000,4.000000,4.000000,4.000000,4.000000,4.000000,4.000000,4.000000,4.000000,4.000000,4.000000,4.000000,4.000000,4.000000,4.000000,4.000000,4.000000,4.000000,4.000000,4.000000,4.000000,4.000000,4.000000,4.000000,4.000000,4.000000,4.000000,4.000000,4.000000,66.666664
1614041045.494279,16.000000,0.000000,-4.845466,-15.134360,-12.681370,3.716617,-1.004979,-7.665292,-0.622515,-4.062014,-3.967546,-0.077252,5.300160,2.537711,-1.972745,-2.430927,-16.750774,-26.806259,-1.880285,35.925537,44.137215,-4.872374,-10.979713,-0.590316,-1.439821,-5.317788,-3.991885,-1.085554,2.619174,0.204539,-3.954354,-17.032927,-4.960177,-0.944770,0.000000,201.000000,4.000000,,,,0.000000,4.000000,0.000000,4.000000,4.000000,4.000000,4.000000,4.000000,4.000000,4.000000,4.000000,4.000000,4.000000,4.000000,4.000000,4.000000,4.000000,4.000000,4.000000,4.000000,4.000000,4.000000,4.000000,4.000000,4.000000,4.000000,4.000000,4.000000,4.000000,4.000000,4.000000,4.000000,4.000000,66.666664
1614041045.502128,17.000000,0.000000,-5.353441,-17.170507,-14.207150,3.712900,-1.003975,-7.657627,-0.621893,-4.057951,-3.963579,-2.128457,2.730757,1.509532,-2.996413,-3.454137,-19.810947,-30.369198,-2.904046,24.094742,28.708464,-7.431604,-10.455914,-2.641008,1.125721,-5.312470,-3.987893,-1.084468,2.616555,0.204335,-3.950399,-10.349227,-4.955217,-0.943825,0.000000,199.000000,4.000000,,,,0.000000,4.000000,0.000000,4.000000,4.000000,4.000000,4.000000,4.000000,4.000000,4.000000,4.000000,4.000000,4.000000,4.000000,4.000000,4.000000,4.000000,4.000000,4.000000,4.000000,4.000000,4.000000,4.000000,4.000000,4.000000,4.000000,4.000000,4.000000,4.000000,4.000000,4.000000,4.000000,4.000000,66.666664
1614041045.509877,18.000000,0.000000,-4.835267,-17.153337,-19.321148,3.709188,-1.002971,-7.649969,-0.621271,-4.053894,-3.959615,-4.177611,0.676745,2.533664,-0.942134,-2.937863,-11.073187,-14.954212,-3.413963,23.045006,17.397703,-0.757506,-5.830073,0.951377,0.611775,-5.819978,-3.983905,-1.083384,2.613939,0.204130,-3.946449,-8.287596,-4.437441,-0.942882,0.000000,209.000000,4.000000,,,,0.000000,4.000000,0.000000,4.000000,4.000000,4.000000,4.000000,4.000000,4.000000,4.000000,4.000000,4.000000,4.000000,4.000000,4.000000,4.000000,4.000000,4.000000,4.000000,4.000000,4.000000,4.000000,4.000000,4.000000,4.000000,4.000000,4.000000,4.000000,4.000000,4.000000,4.000000,4.000000,4.000000,66.666664
1614041045.517726,19.000000,0.000000,-2.779150,-16.110544,-17.763365,3.705478,-1.001968,-7.642319,-0.620650,-4.049839,-3.955656,-4.686254,6.829914,8.172155,5.725474,-2.422104,12.527630,0.445357,2.743298,54.304012,50.200817,25.397099,4.432168,14.796579,1.636804,-5.301337,-4.492742,-1.082300,3.124146,0.203926,-3.942502,-18.535719,-4.433004,-1.454759,0.000000,185.000000,4.000000,,,,0.000000,4.000000,0.000000,4.000000,4.000000,4.000000,4.000000,4.000000,4.000000,4.000000,4.000000,4.000000,4.000000,4.000000,4.000000,4.000000,4.000000,4.000000,4.000000,4.000000,4.000000,4.000000,4.000000,4.000000,4.000000,4.000000,4.000000,4.000000,4.000000,4.000000,4.000000,4.000000,4.000000,66.666664
1614041045.525476,20.000000,0.000000,-0.725089,-17.120073,-13.130218,3.701773,-1.000966,-7.634676,-0.620029,-4.045790,-4.464520,-4.681568,12.464109,9.189625,10.847954,-1.906862,23.284332,5.060297,8.894401,70.659966,69.637794,31.012726,9.555941,17.345886,1.122347,-0.680651,-3.975429,-1.081218,1.582560,0.203722,-4.451380,-20.568464,-6.992673,-0.940484,0.000000,205.000000,4.000000,,,,0.000000,4.000000,0.000000,4.000000,4.000000,4.000000,4.000000,4.000000,4.000000,4.000000,4.000000,4.000000,4.000000,4.000000,4.000000,4.000000,4.000000,4.000000,4.000000,4.000000,4.000000,4.000000,4.000000,4.000000,4.000000,4.000000,4.000000,4.000000,4.000000,4.000000,4.000000,4.000000,4.000000,66.666664
1614041045.533325,21.000000,0.000000,-1.237184,-20.692698,-13.629908,3.698071,-0.999965,-7.627042,-0.619409,-4.041744,-3.434415,-3.651245,10.913184,2.000948,9.811465,-2.417775,11.466177,1.465492,7.859865,49.563663,41.875851,6.879149,6.982282,5.020847,-8.622365,2.909773,-1.920171,-1.080137,-0.983125,0.203518,-3.934108,-7.214563,-8.524142,1.624559,0.000000,208.000000,4.000000,,,,0.000000,4.000000,0.000000,4.000000,4.000000,4.000000,4.000000,4.000000,4.000000,4.000000,4.000000,4.000000,4.000000,4.000000,4.000000,4.000000,4.000000,4.000000,4.000000,4.000000,4.000000,4.000000,4.000000,4.000000,4.000000,4.000000,4.000000,4.000000,4.000000,4.000000,4.000000,4.000000,4.000000,66.666664
1614041045.541074,22.000000,0.000000,-1.235947,-14.518159,-13.616278,3.694373,-0.998965,-7.619415,-0.618789,-4.037702,-1.379699,-1.596312,8.338168,-2.616438,9.288833,-2.415358,9.403428,0.438386,4.262261,48.488457,34.654488,-2.358499,4.924018,-2.163661,-16.818871,0.855581,0.133031,-1.079057,-1.494963,0.203315,-1.878892,-1.566323,-6.464336,3.161396,0.000000,184.000000,4.000000,,,,0.000000,4.000000,0.000000,4.000000,4.000000,4.000000,4.000000,4.000000,4.000000,4.000000,4.000000,4.000000,4.000000,4.000000,4.000000,4.000000,4.000000,4.000000,4.000000,4.000000,4.000000,4.000000,4.000000,4.000000,4.000000,4.000000,4.000000,4.000000,4.000000,4.000000,4.000000,4.000000,4.000000,66.666664
1614041045.548923,23.000000,0.000000,-1.234711,-0.144666,-10.525739,3.690679,-0.997966,-7.611795,-0.618171,-4.033665,0.160143,-0.056254,8.329830,-1.588180,11.330827,-1.387301,21.701717,13.771281,6.309281,76.645096,63.850605,8.925911,4.919094,1.941067,-12.186667,-1.709377,-0.379922,-1.077978,-0.980647,0.203112,0.174269,-4.641680,-4.919410,2.645414,0.000000,203.000000,4.000000,,,,0.000000,4.000000,0.000000,4.000000,4.000000,4.000000,4.000000,4.000000,4.000000,4.000000,4.000000,4.000000,4.000000,4.000000,4.000000,4.000000,4.000000,4.000000,4.000000,4.000000,4.000000,4.000000,4.000000,4.000000,4.000000,4.000000,4.000000,4.000000,4.000000,4.000000,4.000000,4.000000,4.000000,66.666664
1614041045.556672,24.000000,0.000000,-1.233476,2.932402,-9.489572,3.686988,-0.996968,-7.604184,-0.617552,-4.029631,-0.352838,-0.569018,6.783039,-1.073772,6.704111,-4.462837,12.449246,11.193407,6.302972,65.286400,59.684189,6.352882,4.914175,2.964767,-5.507814,-1.707668,-0.379542,-1.076900,-0.979667,0.202909,-0.338726,-4.637038,-4.914491,2.642769,0.000000,180.000000,4.000000,,,,0.000000,4.000000,0.000000,4.000000,4.000000,4.000000,4.000000,4.000000,4.000000,4.000000,4.000000,4.000000,4.000000,4.000000,4.000000,4.000000,4.000000,4.000000,4.000000,4.000000,4.000000,4.000000,4.000000,4.000000,4.000000,4.000000,4.000000,4.000000,4.000000,4.000000,4.000000,4.000000,4.000000,66.666664
1614041045.564521,25.000000,0.000000,-1.232243,-0.660274,-7.428800,3.170480,-0.995971,-7.596580,-0.616935,-4.025601,-0.352485,-0.055628,4.212153,-3.123980,-6.123106,-10.612221,-18.845255,-21.125479,1.681284,32.913422,27.316813,-5.961163,4.396440,0.910520,-6.015127,-1.193140,0.133658,-1.075823,-0.978687,0.202706,-0.338387,-3.093940,-2.345474,3.152946,0.000000,0.000000,4.000000,,,,0.000000,4.000000,0.000000,4.000000,4.000000,4.000000,4.000000,4.000000,4.000000,4.000000,4.000000,4.000000,4.000000,4.000000,4.000000,4.000000,4.000000,4.000000,4.000000,4.000000,4.000000,4.000000,4.000000,4.000000,4.000000,4.000000,4.000000,4.000000,4.000000,4.000000,4.000000,4.000000,4.000000,66.666664
1614041045.572270,26.000000,0.000000,-1.231010,-1.172435,-2.293166,5.218592,-0.994975,-7.588983,-0.616318,-4.021575,-0.352133,-0.055573,4.207941,-5.172138,-13.809291,-13.678531,-32.672562,-36.488968,-1.910141,25.188202,22.674110,-6.468022,4.904864,1.935251,-7.034753,-1.704767,0.133524,-0.561927,-0.977708,0.202503,0.174771,-3.090846,-0.291846,3.662614,0.000000,218.000000,4.000000,,,,0.000000,4.000000,0.000000,4.000000,4.000000,4.000000,4.000000,4.000000,4.000000,4.000000,4.000000,4.000000,4.000000,4.000000,4.000000,4.000000,4.000000,4.000000,4.000000,4.000000,4.000000,4.000000,4.000000,4.000000,4.000000,4.000000,4.000000,4.000000,4.000000,4.000000,4.000000,4.000000,4.000000,66.666664
1614041045.580119,27.000000,0.000000,-1.229779,-6.299467,-2.803694,7.264656,-0.993980,-7.068573,-0.615702,-3.504734,-0.351780,-0.055517,5.229374,-5.679787,-13.282660,-11.613570,-26.486044,-16.452480,-2.933872,41.573269,31.369387,-7.487195,3.874318,0.907674,-5.489256,-1.703062,-0.379430,-1.074185,-0.976731,0.202300,-0.338224,-3.600575,-1.317196,3.146131,0.000000,220.000000,4.000000,,,,0.000000,4.000000,0.000000,4.000000,4.000000,4.000000,4.000000,4.000000,4.000000,4.000000,4.000000,4.000000,4.000000,4.000000,4.000000,4.000000,4.000000,4.000000,4.000000,4.000000,4.000000,4.000000,4.000000,4.000000,4.000000,4.000000,4.000000,4.000000,4.000000,4.000000,4.000000,4.000000,4.000000,66.666664
1614041045.587868,28.000000,0.000000,-1.228550,-17.575218,-5.364992,7.770211,-0.992986,-7.574326,-0.615086,-3.501229,-0.351429,0.457359,4.711324,-5.674107,-12.243737,-8.525034,-23.895456,-11.307822,-4.469399,41.531696,22.107246,-13.120733,-0.232120,-6.272720,-5.996588,-1.701359,-0.379051,-1.073111,-0.975754,0.202098,-0.337886,-4.622616,-1.315878,2.630164,0.000000,174.000000,4.000000,,,,0.000000,4.000000,0.000000,4.000000,4.000000,4.000000,4.000000,4.000000,4.000000,4.000000,4.000000,4.000000,4.000000,4.000000,4.000000,4.000000,4.000000,4.000000,4.000000,4.000000,4.000000,4.000000,4.000000,4.000000,4.000000,4.000000,4.000000,4.000000,4.000000,4.000000,4.000000,4.000000,4.000000,66.666664
