title:02, start timestamp:1614391175.136788, stop timestamp:1614391221.002846, headset type:EPOCFLEX, headset serial:F00001ED, headset firmware:f12, subject name:s10, channels:75, sampling rate:128, samples:5924      , version:2.0
Timestamp,EEG.Counter,EEG.Interpolated,EEG.Cz,EEG.Fz,EEG.Fp1,EEG.AF3,EEG.F7,EEG.F3,EEG.FC1,EEG.C3,EEG.FC5,EEG.T7,EEG.CP5,EEG.CP1,EEG.P3,EEG.P7,EEG.PO3,EEG.O1,EEG.Pz,EEG.Oz,EEG.O2,EEG.PO4,EEG.P8,EEG.P4,EEG.CP2,EEG.CP6,EEG.T8,EEG.FC6,EEG.C4,EEG.FC2,EEG.F4,EEG.F8,EEG.AF4,EEG.Fp2,EEG.HighBitFlex,EEG.RawCq,EEG.Battery,MarkerIndex,MarkerType,MarkerValueInt,EEG.MarkerHardware,CQ.Cz,CQ.Fz,CQ.Fp1,CQ.AF3,CQ.F7,CQ.F3,CQ.FC1,CQ.C3,CQ.FC5,CQ.T7,CQ.CP5,CQ.CP1,CQ.P3,CQ.P7,CQ.PO3,CQ.O1,CQ.Pz,CQ.Oz,CQ.O2,CQ.PO4,CQ.P8,CQ.P4,CQ.CP2,CQ.CP6,CQ.T8,CQ.FC6,CQ.C4,CQ.FC2,CQ.F4,CQ.F8,CQ.AF4,CQ.Fp2,CQ.Overall
1614391175.136788,114.000000,0.000000,-0.938589,2.081825,-148.494278,-30.050625,-5.550601,3.643704,-1.204336,0.955838,19.687283,-6.297966,15.813131,0.127038,3.564002,-15.215798,2.628904,47.957394,-2.888749,51.492596,32.569309,-8.425454,-19.696699,-20.369898,-4.434111,-6.740489,-15.192249,1.957072,0.819236,-5.044656,-3.939013,0.061979,-35.802784,-135.407211,8064.000000,0.000000,4.000000,,,,0.000000,4.000000,4.000000,4.000000,4.000000,4.000000,4.000000,4.000000,4.000000,4.000000,4.000000,2.000000,4.000000,4.000000,4.000000,4.000000,4.000000,4.000000,4.000000,4.000000,4.000000,4.000000,4.000000,4.000000,4.000000,4.000000,4.000000,4.000000,4.000000,4.000000,4.000000,4.000000,4.000000,83.333336
1614391175.144438,115.000000,0.000000,-7.091497,-2.022821,-146.807327,-36.687241,-3.493768,5.178522,-2.228772,2.493344,6.847082,-5.778847,7.592190,-7.052576,0.483515,-18.277506,1.087813,26.883797,-12.116630,48.876999,31.511101,-15.596516,-17.112902,-20.349527,-11.609164,2.497020,-14.151416,1.442294,-3.796968,-5.039611,-7.011997,0.061917,-37.305443,-137.323090,8064.000000,0.000000,4.000000,,,,0.000000,4.000000,4.000000,4.000000,4.000000,4.000000,4.000000,4.000000,4.000000,4.000000,4.000000,2.000000,4.000000,4.000000,4.000000,4.000000,4.000000,4.000000,4.000000,4.000000,4.000000,4.000000,4.000000,4.000000,4.000000,4.000000,4.000000,4.000000,4.000000,4.000000,4.000000,4.000000,4.000000,83.333336
1614391175.152187,116.000000,0.000000,-10.161328,-1.507977,-146.660522,-42.291580,-4.515916,2.609241,-2.226544,1.978030,5.814594,-7.824350,-1.646172,-10.635267,-4.132353,-21.336151,-8.144044,-2.373857,-16.719898,22.161455,0.197538,-26.862970,-17.095787,-20.329178,-14.674478,-2.120861,-14.137264,-0.097610,-8.921376,-5.034571,-8.030626,-0.450965,-33.165573,-134.108841,8064.000000,0.000000,4.000000,,,,0.000000,4.000000,4.000000,4.000000,4.000000,4.000000,4.000000,4.000000,4.000000,4.000000,4.000000,2.000000,4.000000,4.000000,4.000000,4.000000,4.000000,4.000000,4.000000,4.000000,4.000000,4.000000,4.000000,4.000000,4.000000,4.000000,4.000000,4.000000,4.000000,4.000000,4.000000,4.000000,4.000000,83.333336
1614391175.159837,117.000000,0.000000,-6.561423,2.596095,-146.513855,-40.198006,-3.998579,3.632273,-0.685856,1.976052,7.860062,-9.354988,0.919577,-9.086170,-5.153862,-19.263533,-12.238463,0.192620,-15.677537,9.831602,-1.341121,-26.323288,-17.078691,-20.308849,-12.608521,-4.170022,-14.123127,-1.635974,-3.271429,-5.029537,-8.535417,-2.501796,-31.081125,-135.000366,8064.000000,0.000000,4.000000,,,,0.000000,4.000000,4.000000,4.000000,4.000000,4.000000,4.000000,4.000000,4.000000,4.000000,4.000000,2.000000,4.000000,4.000000,4.000000,4.000000,4.000000,4.000000,4.000000,4.000000,4.000000,4.000000,4.000000,4.000000,4.000000,4.000000,4.000000,4.000000,4.000000,4.000000,4.000000,4.000000,4.000000,83.333336
1614391175.167586,118.000000,0.000000,-10.657426,-3.047527,-146.367340,-47.850117,-3.994581,3.115820,-4.274913,2.486897,1.185535,-9.858453,1.944298,-9.589905,-5.148708,-19.757090,-6.072379,33.012939,-15.661860,41.616642,30.967913,-13.989271,-17.061613,-20.288540,-13.621553,-2.114571,-14.109004,-7.275363,-5.319439,-5.537328,-12.629445,-4.037756,-40.793633,-147.173065,8064.000000,0.000000,4.000000,,,,0.000000,4.000000,4.000000,4.000000,4.000000,4.000000,4.000000,4.000000,4.000000,4.000000,4.000000,2.000000,4.000000,4.000000,4.000000,4.000000,4.000000,4.000000,4.000000,4.000000,4.000000,4.000000,4.000000,4.000000,4.000000,4.000000,4.000000,4.000000,4.000000,4.000000,4.000000,4.000000,4.000000,83.333336
1614391175.175235,119.000000,0.000000,-17.313435,-7.147044,-145.708160,-56.520214,-4.503407,2.599884,-8.373202,1.458768,1.697170,-9.848595,-2.673031,-10.093135,-5.143559,-18.198872,-4.527845,46.313259,-16.159018,55.421181,29.911303,-11.924000,-16.531731,-20.268251,-14.120752,-8.266302,-14.094895,-7.268088,-11.467966,-4.506149,-15.693739,-4.033719,-45.881046,-147.025894,8064.000000,0.000000,4.000000,,,,0.000000,4.000000,4.000000,4.000000,4.000000,4.000000,4.000000,4.000000,4.000000,4.000000,4.000000,2.000000,4.000000,4.000000,4.000000,4.000000,4.000000,4.000000,4.000000,4.000000,4.000000,4.000000,4.000000,4.000000,4.000000,4.000000,4.000000,4.000000,4.000000,4.000000,4.000000,4.000000,4.000000,83.333336
1614391175.182985,120.000000,0.000000,-9.603814,4.142155,-142.998352,-47.232925,-3.986083,9.263950,-4.262265,2.482951,10.413422,-9.838746,0.406566,-7.518939,-5.651237,-6.898621,-11.189984,20.113102,-15.630038,28.699091,2.189084,-24.219769,-17.028021,-20.247984,-13.080991,-11.334959,-14.593620,2.995590,-2.738549,-2.450361,-11.062660,-4.542505,-33.014652,-128.930145,8064.000000,0.000000,4.000000,,,,0.000000,4.000000,4.000000,4.000000,4.000000,4.000000,4.000000,4.000000,4.000000,4.000000,4.000000,2.000000,4.000000,4.000000,4.000000,4.000000,4.000000,4.000000,4.000000,4.000000,4.000000,4.000000,4.000000,4.000000,4.000000,4.000000,4.000000,4.000000,4.000000,4.000000,4.000000,4.000000,4.000000,83.333336
1614391175.190634,121.000000,0.000000,-2.927544,9.266217,-141.829712,-35.390820,-4.494917,13.870071,1.895843,4.531750,13.479931,-9.828907,1.944620,-5.460138,-5.132765,-6.891722,-12.717256,11.887860,-15.614408,22.003725,3.725357,-26.246830,-23.164839,-20.227736,-14.606372,-4.144137,-14.579027,7.607979,-0.171708,-0.909449,-7.461854,-2.999501,-26.827791,-126.237114,8064.000000,0.000000,4.000000,,,,0.000000,4.000000,4.000000,4.000000,4.000000,4.000000,4.000000,4.000000,4.000000,4.000000,4.000000,2.000000,4.000000,4.000000,4.000000,4.000000,4.000000,4.000000,4.000000,4.000000,4.000000,4.000000,4.000000,4.000000,4.000000,4.000000,4.000000,4.000000,4.000000,4.000000,4.000000,4.000000,4.000000,83.333336
1614391175.198383,122.000000,0.000000,-12.155385,1.564644,-142.713516,-38.945171,-8.592986,7.189534,2.406768,6.065680,10.389528,-9.819078,-3.698350,-5.967499,-5.127632,-22.782267,-11.166077,23.670843,-15.598794,35.315056,15.003682,-19.041098,-28.782700,-20.207508,-16.130226,-6.191275,-13.025987,4.010628,-11.453588,-1.421360,-8.992854,-0.945220,-37.570194,-141.495499,8064.000000,0.000000,4.000000,,,,0.000000,4.000000,4.000000,4.000000,4.000000,4.000000,4.000000,4.000000,4.000000,4.000000,4.000000,2.000000,4.000000,4.000000,4.000000,4.000000,4.000000,4.000000,4.000000,4.000000,4.000000,4.000000,4.000000,4.000000,4.000000,4.000000,4.000000,4.000000,4.000000,4.000000,4.000000,4.000000,4.000000,83.333336
1614391175.206033,123.000000,0.000000,-11.117589,6.178463,-142.057983,-41.470329,-7.045932,2.054140,2.917181,5.546793,8.327856,-10.322080,-5.233113,-5.961531,-5.122504,-23.272305,-14.744654,15.442044,-15.583195,28.100254,8.834832,-22.098978,-28.753916,-20.187300,-14.575635,-14.903032,-14.038602,6.057899,-7.339570,-1.419939,-7.958220,-0.944274,-32.917240,-140.328354,8064.000000,0.000000,4.000000,,,,0.000000,4.000000,4.000000,4.000000,4.000000,4.000000,4.000000,4.000000,4.000000,4.000000,4.000000,2.000000,4.000000,4.000000,4.000000,4.000000,4.000000,4.000000,4.000000,4.000000,4.000000,4.000000,4.000000,4.000000,4.000000,4.000000,4.000000,4.000000,4.000000,4.000000,4.000000,4.000000,4.000000,83.333336
1614391175.213782,124.000000,0.000000,0.175580,16.941517,-141.403107,-34.762192,0.140601,5.641829,5.991188,5.541246,9.857990,-7.747655,0.413146,-5.955570,-5.117382,-9.402879,-15.242730,14.400962,-15.567612,31.661896,18.569588,-24.640982,-28.212341,-18.628651,-13.022598,-15.400949,-15.563025,11.692867,6.513923,-1.418519,-3.847697,1.107952,-13.909963,-126.854698,8064.000000,0.000000,4.000000,,,,0.000000,4.000000,4.000000,4.000000,4.000000,4.000000,4.000000,4.000000,4.000000,4.000000,4.000000,2.000000,4.000000,4.000000,4.000000,4.000000,4.000000,4.000000,4.000000,4.000000,4.000000,4.000000,4.000000,4.000000,4.000000,4.000000,4.000000,4.000000,4.000000,4.000000,4.000000,4.000000,4.000000,83.333336
1614391175.221432,125.000000,0.000000,-3.414339,8.206626,-143.312988,-33.188969,-4.474924,8.200290,5.985196,6.561347,5.745568,-6.201446,1.438374,-5.949614,-4.599444,-6.316553,-9.586462,39.514767,-15.552044,56.245621,38.551018,-16.924034,-27.671309,-16.045919,-13.522396,-11.282985,-6.316692,11.168354,4.456127,-1.417101,-1.279747,3.158126,-19.024258,-127.240662,8064.000000,0.000000,4.000000,,,,0.000000,4.000000,4.000000,4.000000,4.000000,4.000000,4.000000,4.000000,4.000000,4.000000,4.000000,2.000000,4.000000,4.000000,4.000000,4.000000,4.000000,4.000000,4.000000,4.000000,4.000000,4.000000,4.000000,4.000000,4.000000,4.000000,4.000000,4.000000,4.000000,4.000000,4.000000,4.000000,4.000000,83.333336
1614391175.229181,126.000000,0.000000,-10.590412,-3.596453,-145.733780,-38.796806,-18.829424,5.627987,5.466391,5.016324,0.098797,-6.708065,-2.152808,-5.943665,-6.133306,-7.848698,-9.576875,44.090637,-15.536492,53.112450,28.768877,-15.881469,-25.079535,-16.029875,-13.508873,-11.271702,1.381932,9.618724,-2.727816,-1.415683,-0.765647,-0.434776,-35.928310,-134.805725,8064.000000,0.000000,4.000000,,,,0.000000,4.000000,4.000000,4.000000,4.000000,4.000000,4.000000,4.000000,4.000000,4.000000,4.000000,2.000000,4.000000,4.000000,4.000000,4.000000,4.000000,4.000000,4.000000,4.000000,4.000000,4.000000,4.000000,4.000000,4.000000,4.000000,4.000000,4.000000,4.000000,4.000000,4.000000,4.000000,4.000000,83.333336
1614391175.236830,127.000000,0.000000,-5.964437,1.535349,-142.511124,-38.245190,-17.784952,6.135180,5.460924,5.011307,4.201262,-5.675716,-2.150656,-4.912080,-8.178454,-8.866490,-15.208323,24.559366,-15.520956,32.033699,17.970877,-21.506613,-25.054455,-16.526665,-12.982544,-12.286071,-8.363040,10.634747,-1.699447,-1.414268,-1.277702,-4.024085,-28.200075,-130.568359,8064.000000,0.000000,4.000000,,,,0.000000,4.000000,4.000000,4.000000,4.000000,4.000000,4.000000,4.000000,4.000000,4.000000,4.000000,2.000000,4.000000,4.000000,4.000000,4.000000,4.000000,4.000000,4.000000,4.000000,4.000000,4.000000,4.000000,4.000000,4.000000,4.000000,4.000000,4.000000,4.000000,4.000000,4.000000,4.000000,4.000000,83.333336
1614391175.244679,0.000000,0.000000,-1.343088,7.174839,-139.804504,-36.155663,-9.049219,8.180326,5.968284,7.570398,7.273984,-2.593117,-1.122864,-6.958450,-8.683097,-15.011470,-16.218756,19.406601,-16.018255,35.078587,30.773420,-19.433825,-24.003759,-15.997317,-13.482382,-12.273785,-18.611086,10.111291,-0.672107,-1.412853,-0.763604,0.595324,-17.402643,-118.130096,0.000000,194.000000,4.000000,,,,0.000000,4.000000,4.000000,4.000000,4.000000,4.000000,4.000000,4.000000,4.000000,4.000000,4.000000,2.000000,4.000000,4.000000,4.000000,4.000000,4.000000,4.000000,4.000000,4.000000,4.000000,4.000000,4.000000,4.000000,4.000000,4.000000,4.000000,4.000000,4.000000,4.000000,4.000000,4.000000,4.000000,83.333336
1614391175.252429,1.000000,0.000000,-2.880207,3.577921,-145.305725,-46.888737,-18.783760,-0.032982,5.962316,2.947443,-2.476880,-2.590524,-2.147382,-4.900209,-8.161593,-18.073381,-14.664077,20.412836,-14.976596,37.094791,23.563158,-19.927210,-19.364372,-17.006962,-13.468900,-11.748691,-12.438629,7.537077,-1.697076,-1.411441,-0.762840,4.184473,-29.692934,-120.063248,0.000000,178.000000,4.000000,,,,0.000000,4.000000,4.000000,4.000000,4.000000,4.000000,4.000000,4.000000,4.000000,4.000000,4.000000,2.000000,4.000000,4.000000,4.000000,4.000000,4.000000,4.000000,4.000000,4.000000,4.000000,4.000000,4.000000,4.000000,4.000000,4.000000,4.000000,4.000000,4.000000,4.000000,4.000000,4.000000,4.000000,83.333336
1614391175.260278,2.000000,0.000000,-2.877326,1.010240,-151.827087,-55.559795,-29.534206,-11.315001,4.417892,-5.260632,-6.576967,-3.100754,-1.119594,0.232896,-8.666252,-12.414282,-17.213514,15.777038,-12.397517,20.134619,-5.691174,-28.112411,-21.396290,-19.554056,-13.455431,-11.224121,-6.272345,6.503899,-2.208199,-1.410029,-1.274898,2.641826,-38.381187,-135.840622,0.000000,187.000000,4.000000,,,,0.000000,4.000000,4.000000,4.000000,4.000000,4.000000,4.000000,4.000000,4.000000,4.000000,4.000000,2.000000,4.000000,4.000000,4.000000,4.000000,4.000000,4.000000,4.000000,4.000000,4.000000,4.000000,4.000000,4.000000,4.000000,4.000000,4.000000,4.000000,4.000000,4.000000,4.000000,4.000000,4.000000,83.333336
1614391175.268027,3.000000,0.000000,-4.925731,1.522050,-147.059875,-45.247826,-12.581595,-7.201121,2.362192,-0.127166,1.634738,2.543372,4.009731,-1.305798,-8.657586,-10.350586,-19.760405,20.376646,-11.872299,15.499099,-2.608559,-28.597120,-21.374893,-20.047323,-13.441976,-12.238538,-6.266072,5.471754,-1.693170,-1.408619,-1.273623,2.639184,-27.060757,-133.653503,0.000000,188.000000,4.000000,,,,0.000000,4.000000,4.000000,4.000000,4.000000,4.000000,4.000000,4.000000,4.000000,4.000000,4.000000,2.000000,4.000000,4.000000,4.000000,4.000000,4.000000,4.000000,4.000000,4.000000,4.000000,4.000000,4.000000,4.000000,4.000000,4.000000,4.000000,4.000000,4.000000,4.000000,4.000000,4.000000,4.000000,83.333336
1614391175.275877,4.000000,0.000000,-5.946446,1.520529,-138.194870,-30.843603,3.328422,3.062490,1.847009,6.026807,5.735667,8.694675,7.082644,-8.483980,-8.648929,-11.878696,-19.227823,20.869089,-11.347606,28.304113,23.547895,-21.901855,-8.020185,-19.514456,-13.428534,-10.687839,-3.182883,6.491923,-1.691477,-1.407210,-1.272349,7.251930,-18.828568,-113.007027,0.000000,188.000000,4.000000,,,,0.000000,4.000000,4.000000,4.000000,4.000000,4.000000,4.000000,4.000000,4.000000,4.000000,4.000000,2.000000,4.000000,4.000000,4.000000,4.000000,4.000000,4.000000,4.000000,4.000000,4.000000,4.000000,4.000000,4.000000,4.000000,4.000000,4.000000,4.000000,4.000000,4.000000,4.000000,4.000000,4.000000,83.333336
1614391175.283626,5.000000,0.000000,-3.376397,1.519008,-139.082306,-29.274300,-8.982599,2.033787,0.819521,-4.748451,5.217111,8.685981,4.511459,-10.526778,-10.178741,-11.866818,-20.234236,14.694374,-9.797797,35.968117,24.549988,-22.392775,-5.448062,-19.494942,-13.415105,-5.548945,0.922864,9.049534,-1.689786,-0.892983,-1.271077,10.834422,-21.373842,-109.304276,0.000000,189.000000,4.000000,,,,0.000000,4.000000,4.000000,4.000000,4.000000,4.000000,4.000000,4.000000,4.000000,4.000000,4.000000,2.000000,4.000000,4.000000,4.000000,4.000000,4.000000,4.000000,4.000000,4.000000,4.000000,4.000000,4.000000,4.000000,4.000000,4.000000,4.000000,4.000000,4.000000,4.000000,4.000000,4.000000,4.000000,83.333336
1614391175.291475,6.000000,0.000000,-4.398662,1.517489,-144.584259,-30.783485,-20.768488,-1.045170,-1.745401,-8.846267,4.699074,7.651653,2.455666,-9.490610,-12.219844,-10.829310,-19.701181,30.064295,-15.429025,34.906506,10.679285,-23.396023,-23.904152,-21.013908,-13.401690,-3.492114,0.921941,8.527664,-1.688096,-1.404910,-1.269806,11.336408,-23.916571,-121.502663,0.000000,194.000000,4.000000,,,,0.000000,4.000000,4.000000,4.000000,4.000000,4.000000,4.000000,4.000000,4.000000,4.000000,4.000000,2.000000,4.000000,4.000000,4.000000,4.000000,4.000000,4.000000,4.000000,4.000000,4.000000,4.000000,4.000000,4.000000,4.000000,4.000000,4.000000,4.000000,4.000000,4.000000,4.000000,4.000000,4.000000,83.333336
1614391175.299224,7.000000,0.000000,-6.445545,1.515971,-143.414032,-29.727062,-9.465669,2.032798,-2.256476,5.521554,3.155913,8.669642,3.991672,-9.993940,-12.207624,-10.818480,-12.501993,47.982948,-18.490519,39.486984,18.360912,-18.244421,-27.469992,-19.967253,-13.388288,-6.565545,0.408198,6.980675,-1.686408,-0.890685,-1.268536,9.273789,-24.405474,-122.406799,0.000000,196.000000,4.000000,,,,0.000000,4.000000,4.000000,4.000000,4.000000,4.000000,4.000000,4.000000,4.000000,4.000000,4.000000,2.000000,4.000000,4.000000,4.000000,4.000000,4.000000,4.000000,4.000000,4.000000,4.000000,4.000000,4.000000,4.000000,4.000000,4.000000,4.000000,4.000000,4.000000,4.000000,4.000000,4.000000,4.000000,83.333336
1614391175.307074,8.000000,0.000000,-4.387818,1.514456,-138.142410,-29.184513,1.825849,4.082047,-1.741399,9.618597,10.845065,8.660973,5.526142,-4.342920,-10.144135,-11.320483,-8.899748,39.729839,-9.754080,48.165447,29.111782,-22.328741,-13.083548,-17.383183,-12.862079,-8.610262,0.407790,11.076258,-1.684722,-0.889794,-1.267267,10.802977,-24.381069,-114.592087,0.000000,182.000000,4.000000,,,,0.000000,4.000000,4.000000,4.000000,4.000000,4.000000,4.000000,4.000000,4.000000,4.000000,4.000000,2.000000,4.000000,4.000000,4.000000,4.000000,4.000000,4.000000,4.000000,4.000000,4.000000,4.000000,4.000000,4.000000,4.000000,4.000000,4.000000,4.000000,4.000000,4.000000,4.000000,4.000000,4.000000,83.333336
1614391175.314823,9.000000,0.000000,-3.357789,1.512941,-135.952988,-29.155329,-1.252900,3.565145,-1.739658,1.916671,18.526527,8.139492,6.033436,1.815269,-8.595529,-11.821983,-11.967771,36.613186,-10.257146,44.014717,14.723697,-33.075645,-19.224310,-23.519646,-12.849217,-7.576010,0.920203,14.142105,-1.683037,-3.965827,-1.266000,13.869097,-25.895149,-114.990318,0.000000,168.000000,4.000000,,,,0.000000,4.000000,4.000000,4.000000,4.000000,4.000000,4.000000,4.000000,4.000000,4.000000,4.000000,2.000000,4.000000,4.000000,4.000000,4.000000,4.000000,4.000000,4.000000,4.000000,4.000000,4.000000,4.000000,4.000000,4.000000,4.000000,4.000000,4.000000,4.000000,4.000000,4.000000,4.000000,4.000000,83.333336
1614391175.322672,10.000000,0.000000,-5.918534,1.511428,-136.842667,-32.203098,-4.841391,3.048759,-1.737918,3.453215,7.738770,8.131352,5.514582,0.274992,-8.586933,-7.707597,-7.853239,46.320160,-21.016119,34.739933,7.016665,-28.940004,-29.974318,-27.085871,-13.349188,-7.568434,-0.106358,10.538219,-1.681354,-8.577247,-1.264734,10.265485,-28.433357,-120.516350,0.000000,189.000000,4.000000,,,,0.000000,4.000000,4.000000,4.000000,4.000000,4.000000,4.000000,4.000000,4.000000,4.000000,4.000000,2.000000,4.000000,4.000000,4.000000,4.000000,4.000000,4.000000,4.000000,4.000000,4.000000,4.000000,4.000000,4.000000,4.000000,4.000000,4.000000,4.000000,4.000000,4.000000,4.000000,4.000000,4.000000,83.333336
1614391175.330522,11.000000,0.000000,-6.938256,1.509917,-136.705826,-37.811920,-3.810909,0.481608,-1.736180,5.501044,-2.012558,8.123220,2.432144,-2.289386,-8.578346,-7.187069,-1.178719,36.017429,-14.328437,46.500065,30.599392,-8.398243,-12.508445,-12.699810,-12.823019,-8.073687,0.406569,6.425117,-1.679672,-9.081490,-1.263469,6.665475,-29.430565,-123.985580,0.000000,212.000000,4.000000,,,,0.000000,4.000000,4.000000,4.000000,4.000000,4.000000,4.000000,4.000000,4.000000,4.000000,4.000000,2.000000,4.000000,4.000000,4.000000,4.000000,4.000000,4.000000,4.000000,4.000000,4.000000,4.000000,4.000000,4.000000,4.000000,4.000000,4.000000,4.000000,4.000000,4.000000,4.000000,4.000000,4.000000,83.333336
1614391175.338271,12.000000,0.000000,-5.905677,1.508407,-136.056305,-35.210007,-3.807098,-1.057336,-1.734444,-2.196764,4.656121,8.115097,-1.160031,-2.287096,-8.569768,-15.385010,-5.280105,19.571157,-2.519237,57.222797,41.338024,-2.748819,-0.701065,-6.533264,-12.810196,-8.065613,2.457444,6.418692,-1.677993,-8.046767,-1.262206,10.761374,-28.375492,-120.784668,0.000000,203.000000,4.000000,,,,0.000000,4.000000,4.000000,4.000000,4.000000,4.000000,4.000000,4.000000,4.000000,4.000000,4.000000,2.000000,4.000000,4.000000,4.000000,4.000000,4.000000,4.000000,4.000000,4.000000,4.000000,4.000000,4.000000,4.000000,4.000000,4.000000,4.000000,4.000000,4.000000,4.000000,4.000000,4.000000,4.000000,83.333336
1614391175.346021,13.000000,0.000000,-5.899771,0.994078,-135.920242,-29.533770,-3.803291,0.482183,-1.732710,-6.809952,8.754028,8.106982,-1.671692,-1.771989,-8.561198,-17.933727,-12.454311,16.987484,-10.721846,37.165573,17.194122,-18.643507,-16.084978,-24.475449,-18.438412,-7.544726,4.506269,6.412273,-1.676315,-9.064362,-1.260944,14.853177,-27.834297,-113.997215,0.000000,189.000000,4.000000,,,,0.000000,4.000000,4.000000,4.000000,4.000000,4.000000,4.000000,4.000000,4.000000,4.000000,4.000000,2.000000,4.000000,4.000000,4.000000,4.000000,4.000000,4.000000,4.000000,4.000000,4.000000,4.000000,4.000000,4.000000,4.000000,4.000000,4.000000,4.000000,4.000000,4.000000,4.000000,4.000000,4.000000,83.333336
1614391175.353670,14.000000,0.000000,-6.919512,1.505904,-136.297150,-34.632442,-4.825128,-4.133684,-2.243798,-5.777502,4.129890,8.098875,-2.695661,-2.795858,-8.552637,-11.249127,-12.954678,12.355111,-23.531637,21.743792,3.330774,-34.522301,-26.325304,-35.733025,-25.086639,-7.537182,3.988942,5.893040,-1.674638,-9.055297,-1.772503,12.274221,-29.344923,-113.370399,0.000000,180.000000,4.000000,,,,0.000000,4.000000,4.000000,4.000000,4.000000,4.000000,4.000000,4.000000,4.000000,4.000000,4.000000,4.000000,4.000000,4.000000,4.000000,4.000000,4.000000,4.000000,4.000000,4.000000,4.000000,4.000000,4.000000,4.000000,4.000000,4.000000,4.000000,4.000000,4.000000,4.000000,4.000000,4.000000,4.000000,100.000000
1614391175.361419,15.000000,0.000000,-7.425414,3.042860,-135.648026,-37.161911,-5.333124,-7.206473,-2.241554,-5.771724,3.100119,7.065135,-2.180145,-3.305882,-9.056905,-7.135314,-11.916082,13.368397,-24.020926,35.568203,11.532571,-38.590340,-18.606670,-29.030624,-24.548733,-9.068107,3.984953,6.399968,-1.672964,-5.456498,-1.770731,9.697845,-29.315578,-118.385239,0.000000,189.000000,4.000000,,,,0.000000,4.000000,4.000000,4.000000,4.000000,4.000000,4.000000,4.000000,4.000000,4.000000,4.000000,4.000000,4.000000,4.000000,4.000000,4.000000,4.000000,4.000000,4.000000,4.000000,4.000000,4.000000,4.000000,4.000000,4.000000,4.000000,4.000000,4.000000,4.000000,4.000000,4.000000,4.000000,4.000000,100.000000
1614391175.369069,16.000000,0.000000,-5.879527,5.091099,-131.922638,-29.432442,-3.789329,2.031503,-1.726492,-5.765952,4.635480,8.083712,-1.152324,-1.764115,-9.047849,-7.640999,-11.391345,18.483234,-20.919981,40.660839,14.085141,-35.987648,-15.511142,-26.950312,-20.934441,-8.033397,3.980968,8.957670,-1.671291,-4.425401,0.795142,10.200967,-23.132418,-116.215569,0.000000,186.000000,4.000000,,,,0.000000,4.000000,4.000000,4.000000,4.000000,4.000000,4.000000,4.000000,4.000000,4.000000,4.000000,4.000000,4.000000,4.000000,4.000000,4.000000,4.000000,4.000000,4.000000,4.000000,4.000000,4.000000,4.000000,4.000000,4.000000,4.000000,4.000000,4.000000,4.000000,4.000000,4.000000,4.000000,4.000000,100.000000
1614391175.376818,17.000000,0.000000,-7.412108,5.086008,-128.200974,-34.018394,-5.836822,4.593574,-2.237586,-6.273007,4.630845,8.588449,-7.305018,-3.300812,-8.525980,-8.658999,-12.405595,5.131417,-23.975985,26.774025,13.558235,-27.233711,-18.059732,-26.923361,-20.913506,-6.999722,3.976987,9.974354,-2.182440,-7.497898,1.819988,10.190766,-20.545183,-113.535248,0.000000,201.000000,4.000000,,,,0.000000,4.000000,4.000000,4.000000,4.000000,4.000000,4.000000,4.000000,4.000000,4.000000,4.000000,4.000000,4.000000,4.000000,4.000000,4.000000,4.000000,4.000000,4.000000,4.000000,4.000000,4.000000,4.000000,4.000000,4.000000,4.000000,4.000000,4.000000,4.000000,4.000000,4.000000,4.000000,4.000000,100.000000
1614391175.384468,18.000000,0.000000,-10.994440,4.055281,-128.072769,-47.830528,-12.497651,-3.616148,-2.748168,-6.266734,4.113394,5.502937,-11.913097,-6.887255,-9.030274,-7.111878,-12.906010,2.049363,-22.926367,29.311354,17.134420,-19.514170,-17.528852,-22.281054,-19.866951,-12.633749,3.460190,9.451559,-1.667437,-6.977580,1.818168,9.667755,-27.704124,-120.088379,0.000000,193.000000,4.000000,,,,0.000000,4.000000,4.000000,4.000000,4.000000,4.000000,4.000000,4.000000,4.000000,4.000000,4.000000,4.000000,4.000000,4.000000,4.000000,4.000000,4.000000,4.000000,4.000000,4.000000,4.000000,4.000000,4.000000,4.000000,4.000000,4.000000,4.000000,4.000000,4.000000,4.000000,4.000000,4.000000,4.000000,100.000000
1614391175.392217,19.000000,0.000000,-5.342420,7.128149,-128.457520,-43.680134,-8.382589,-0.535609,1.357144,0.406200,3.596460,6.010254,-1.131953,-0.726522,-7.995603,0.074720,-4.687976,34.867825,-8.031647,51.846146,20.707029,-18.469015,-16.998503,-19.181849,-14.718879,-14.672397,3.969550,11.493389,0.898333,-2.355218,7.457376,9.145267,-26.137959,-121.506752,0.000000,195.000000,4.000000,,,,0.000000,4.000000,4.000000,4.000000,4.000000,4.000000,4.000000,4.000000,4.000000,4.000000,4.000000,4.000000,4.000000,4.000000,4.000000,4.000000,4.000000,4.000000,4.000000,4.000000,4.000000,4.000000,4.000000,4.000000,4.000000,4.000000,4.000000,4.000000,4.000000,4.000000,4.000000,4.000000,4.000000,100.000000
1614391175.399866,20.000000,0.000000,6.457794,13.787687,-127.303421,-31.328762,5.471947,10.234158,8.022453,10.662204,9.233889,14.209373,12.202512,11.069077,-1.833761,8.792595,5.573123,60.986805,6.848180,66.153275,28.891451,-13.322341,-16.981504,-14.547283,-12.140058,-3.375673,6.016862,13.020357,2.435896,-0.301580,15.655046,10.161762,-11.240026,-111.128838,0.000000,199.000000,4.000000,,,,0.000000,4.000000,4.000000,4.000000,4.000000,4.000000,4.000000,4.000000,4.000000,4.000000,4.000000,4.000000,4.000000,4.000000,4.000000,4.000000,4.000000,4.000000,4.000000,4.000000,4.000000,4.000000,4.000000,4.000000,4.000000,4.000000,4.000000,4.000000,4.000000,4.000000,4.000000,4.000000,4.000000,100.000000
1614391175.407616,21.000000,0.000000,8.502619,16.850822,-125.124832,-28.733330,12.133142,11.249564,9.552893,13.728465,17.429783,20.349009,13.728771,12.083649,5.860380,11.347904,1.464985,39.900177,3.251588,55.830708,38.093330,-4.591070,-14.400421,-6.327608,-14.179199,3.294369,7.549307,13.520158,1.407819,-1.326920,17.177853,11.690062,-6.100581,-102.299759,0.000000,183.000000,4.000000,,,,0.000000,4.000000,4.000000,4.000000,4.000000,4.000000,4.000000,4.000000,4.000000,4.000000,4.000000,4.000000,4.000000,4.000000,4.000000,4.000000,4.000000,4.000000,4.000000,4.000000,4.000000,4.000000,4.000000,4.000000,4.000000,4.000000,4.000000,4.000000,4.000000,4.000000,4.000000,4.000000,4.000000,100.000000
1614391175.415265,22.000000,0.000000,4.391552,15.808331,-122.948425,-27.678957,9.556906,10.212674,8.517698,12.689095,19.976456,18.790199,12.176580,8.994642,6.367340,10.823736,-5.715967,19.860277,-4.443971,39.877441,33.952671,-3.048017,-8.744995,-5.808459,-13.139380,-1.837130,7.028937,17.609201,1.919232,-1.325593,16.647856,12.704013,-9.684224,-102.197464,0.000000,193.000000,4.000000,,,,0.000000,4.000000,4.000000,4.000000,4.000000,4.000000,4.000000,4.000000,4.000000,4.000000,4.000000,4.000000,4.000000,4.000000,4.000000,4.000000,4.000000,4.000000,4.000000,4.000000,4.000000,4.000000,4.000000,4.000000,4.000000,4.000000,4.000000,4.000000,4.000000,4.000000,4.000000,4.000000,4.000000,100.000000
1614391175.423014,23.000000,0.000000,4.899981,15.792522,-120.774200,-22.523071,9.547349,13.792205,9.534822,12.676406,18.930840,18.258587,13.190045,9.498467,3.284050,9.787271,-5.197431,25.481441,-2.388245,40.863205,28.277693,-3.044969,-5.146506,-8.879574,-6.972394,3.805732,7.534729,21.181335,4.994236,-0.811447,17.144028,17.306694,-5.059155,-103.120903,0.000000,201.000000,4.000000,,,,0.000000,4.000000,4.000000,4.000000,4.000000,4.000000,4.000000,4.000000,4.000000,4.000000,4.000000,4.000000,4.000000,4.000000,4.000000,4.000000,4.000000,4.000000,4.000000,4.000000,4.000000,4.000000,4.000000,4.000000,4.000000,4.000000,4.000000,4.000000,4.000000,4.000000,4.000000,4.000000,4.000000,100.000000
1614391175.430664,24.000000,0.000000,1.818158,16.289551,-120.140602,-20.962088,11.076262,14.804053,8.499646,13.176550,18.911907,19.265970,13.689675,5.386405,2.255125,7.213381,-5.192233,30.071344,0.178246,52.617214,27.223774,-4.580386,-7.705462,-8.870694,-5.426960,14.571157,7.014374,21.160154,5.502062,-1.323456,15.075602,23.956053,-3.515634,-101.992142,0.000000,190.000000,4.000000,,,,0.000000,4.000000,4.000000,4.000000,4.000000,4.000000,4.000000,4.000000,4.000000,4.000000,4.000000,4.000000,4.000000,4.000000,4.000000,4.000000,4.000000,4.000000,4.000000,4.000000,4.000000,4.000000,4.000000,4.000000,4.000000,4.000000,4.000000,4.000000,4.000000,4.000000,4.000000,4.000000,4.000000,100.000000
1614391175.438413,25.000000,0.000000,-2.286225,15.760441,-119.507645,-22.479588,11.065187,13.763609,9.516788,12.650553,19.405817,19.246704,12.650345,1.791275,2.765690,8.744630,-3.135759,35.169479,-0.334753,58.205624,25.145269,-10.216831,-4.620834,-8.861824,-6.447174,10.454022,5.981718,19.600533,5.496560,-1.322132,13.009244,25.983379,-11.204426,-101.377327,0.000000,189.000000,4.000000,,,,0.000000,4.000000,4.000000,4.000000,4.000000,4.000000,4.000000,4.000000,4.000000,4.000000,4.000000,4.000000,4.000000,4.000000,4.000000,4.000000,4.000000,4.000000,4.000000,4.000000,4.000000,4.000000,4.000000,4.000000,4.000000,4.000000,4.000000,4.000000,4.000000,4.000000,4.000000,4.000000,4.000000,100.000000
1614391175.446063,26.000000,0.000000,0.792985,15.744680,-119.388138,-22.457108,9.515660,13.749845,14.635475,12.637902,18.873590,18.714638,12.637694,7.430510,4.301386,13.351270,7.123787,54.108669,1.204044,61.737160,36.914993,-5.078409,9.229941,-5.776039,-0.286880,6.853825,12.642404,22.145035,9.080807,-1.320810,15.560337,24.418934,-12.731684,-102.814415,0.000000,179.000000,4.000000,,,,0.000000,4.000000,4.000000,4.000000,4.000000,4.000000,4.000000,4.000000,4.000000,4.000000,4.000000,4.000000,4.000000,4.000000,4.000000,4.000000,4.000000,4.000000,4.000000,4.000000,4.000000,4.000000,4.000000,4.000000,4.000000,4.000000,4.000000,4.000000,4.000000,4.000000,4.000000,4.000000,4.000000,100.000000
1614391175.453812,27.000000,0.000000,5.407577,15.728935,-120.294388,-22.434650,10.018965,13.736095,16.159302,12.625264,18.854717,17.670280,13.137877,6.910258,6.348367,14.363560,15.321792,64.310966,3.254122,64.752350,47.647312,6.721541,17.425838,1.409225,6.380073,19.154663,22.886171,26.225454,13.174291,-1.319489,20.672981,24.394516,-10.667669,-102.711601,0.000000,188.000000,4.000000,,,,0.000000,4.000000,4.000000,4.000000,4.000000,4.000000,4.000000,4.000000,4.000000,4.000000,4.000000,4.000000,4.000000,4.000000,4.000000,4.000000,4.000000,4.000000,4.000000,4.000000,4.000000,4.000000,4.000000,4.000000,4.000000,4.000000,4.000000,4.000000,4.000000,4.000000,4.000000,4.000000,4.000000,100.000000
1614391175.461461,28.000000,0.000000,4.376528,15.713206,-118.635635,-22.412216,14.111510,13.722359,13.066219,12.612639,18.835861,22.267996,13.124740,-1.814600,6.342018,14.862017,14.280828,45.785122,3.763688,63.149132,36.317612,2.612256,15.869952,2.946277,2.271129,26.827816,26.965849,28.763330,13.161116,-1.318170,20.652309,25.395761,-13.221105,-100.557602,0.000000,179.000000,4.000000,,,,0.000000,4.000000,4.000000,4.000000,4.000000,4.000000,4.000000,4.000000,4.000000,4.000000,4.000000,4.000000,4.000000,4.000000,4.000000,4.000000,4.000000,4.000000,4.000000,4.000000,4.000000,4.000000,4.000000,4.000000,4.000000,4.000000,4.000000,4.000000,4.000000,4.000000,4.000000,4.000000,4.000000,100.000000
1614391175.469211,29.000000,0.000000,3.859331,15.697494,-118.004173,-22.389803,12.558937,13.708636,13.053153,12.087206,19.329847,26.348291,12.598794,1.264137,5.310035,17.411257,12.728086,32.918823,3.759924,67.701370,37.819756,-2.005741,17.392544,2.943331,-1.833706,24.236885,25.913242,28.734568,12.635135,-1.316852,16.529093,23.319084,-13.720704,-103.021149,0.000000,186.000000,4.000000,,,,0.000000,4.000000,4.000000,4.000000,4.000000,4.000000,4.000000,4.000000,4.000000,4.000000,4.000000,4.000000,4.000000,4.000000,4.000000,4.000000,4.000000,4.000000,4.000000,4.000000,4.000000,4.000000,4.000000,4.000000,4.000000,4.000000,4.000000,4.000000,4.000000,4.000000,4.000000,4.000000,4.000000,100.000000
1614391175.476860,30.000000,0.000000,4.881113,16.194616,-125.065659,-21.854593,4.341250,13.694928,11.501638,12.587939,18.797695,19.655277,13.099016,8.442360,6.330366,17.906666,15.792281,55.962826,2.730523,76.864433,56.243477,6.201393,14.811049,3.966028,1.757871,25.751110,25.887329,25.116089,14.160961,-1.315535,13.435640,21.244484,-12.681342,-109.584793,0.000000,185.000000,4.000000,,,,0.000000,4.000000,4.000000,4.000000,4.000000,4.000000,4.000000,4.000000,4.000000,4.000000,4.000000,4.000000,4.000000,4.000000,4.000000,4.000000,4.000000,4.000000,4.000000,4.000000,4.000000,4.000000,4.000000,4.000000,4.000000,4.000000,4.000000,4.000000,4.000000,4.000000,4.000000,4.000000,4.000000,100.000000
1614391175.484710,31.000000,0.000000,4.876231,15.665601,-128.530334,-21.832739,4.849729,13.681233,6.874752,13.088172,18.266077,15.020237,13.598738,1.254431,6.836856,16.350298,12.186746,72.829941,3.753434,67.556801,37.725693,0.041345,-2.126840,-5.268707,0.217652,24.186897,26.374262,19.962769,11.582697,-1.314219,12.396564,20.197598,-15.232763,-105.885468,0.000000,211.000000,4.000000,,,,0.000000,4.000000,4.000000,4.000000,4.000000,4.000000,4.000000,4.000000,4.000000,4.000000,4.000000,4.000000,4.000000,4.000000,4.000000,4.000000,4.000000,4.000000,4.000000,4.000000,4.000000,4.000000,4.000000,4.000000,4.000000,4.000000,4.000000,4.000000,4.000000,4.000000,4.000000,4.000000,4.000000,100.000000
1614391175.492459,32.000000,0.000000,4.871355,16.162756,-122.760780,-22.836546,10.485905,13.667552,5.329416,9.998161,19.786274,16.030857,7.944113,-7.464773,1.701814,9.667281,-2.184416,40.449417,4.262501,37.745655,6.918736,-20.471518,-10.842662,-16.032669,-5.423592,10.829377,26.347887,21.481268,8.494191,-1.312905,13.409808,21.203041,-12.140608,-98.087273,8064.000000,0.000000,4.000000,,,,0.000000,4.000000,4.000000,4.000000,4.000000,4.000000,4.000000,4.000000,4.000000,4.000000,4.000000,4.000000,4.000000,4.000000,4.000000,4.000000,4.000000,4.000000,4.000000,4.000000,4.000000,4.000000,4.000000,4.000000,4.000000,4.000000,4.000000,4.000000,4.000000,4.000000,4.000000,4.000000,4.000000,100.000000
1614391175.500309,33.000000,0.000000,2.815202,16.659414,-126.740585,-21.788069,4.321573,13.653884,3.785625,5.372778,18.228025,6.784058,1.782323,-6.431667,-4.966554,-2.650079,-13.977103,8.101277,-4.459711,19.246372,18.193869,-25.579250,-3.652332,-16.016636,-6.443809,4.664702,23.757437,20.434145,10.024158,-1.311592,13.396399,19.643377,-9.564364,-107.219955,8064.000000,0.000000,4.000000,,,,0.000000,4.000000,4.000000,4.000000,4.000000,4.000000,4.000000,4.000000,4.000000,4.000000,4.000000,4.000000,4.000000,4.000000,4.000000,4.000000,4.000000,4.000000,4.000000,4.000000,4.000000,4.000000,4.000000,4.000000,4.000000,4.000000,4.000000,4.000000,4.000000,4.000000,4.000000,4.000000,4.000000,100.000000
1614391175.508058,34.000000,0.000000,0.761104,12.027369,-141.998459,-21.766281,-7.477621,12.614590,-0.833545,4.854585,10.517489,-5.017598,1.780540,-5.399594,-5.987228,-9.314095,-12.937485,23.477791,-15.224482,27.945074,29.970547,-19.399824,-7.751244,-19.077543,-8.488647,12.352345,17.067013,7.080378,7.450032,-1.310281,9.793259,13.469887,-24.426596,-120.446068,8064.000000,0.000000,4.000000,,,,0.000000,4.000000,4.000000,4.000000,4.000000,4.000000,4.000000,4.000000,4.000000,4.000000,4.000000,4.000000,4.000000,4.000000,4.000000,4.000000,4.000000,4.000000,4.000000,4.000000,4.000000,4.000000,4.000000,4.000000,4.000000,4.000000,4.000000,4.000000,4.000000,4.000000,4.000000,4.000000,4.000000,100.000000
1614391175.515907,35.000000,0.000000,0.760343,4.835855,-145.446198,-28.411182,-9.008604,10.037872,-2.883994,5.362551,6.917229,-1.422837,0.753119,-6.419836,-4.442780,-8.279140,-9.847624,56.274826,-16.747719,43.814564,11.479038,-22.970169,-22.615288,-26.750772,-13.608364,10.288711,11.408920,-1.644652,-2.813828,-1.308970,3.629619,9.866673,-37.735500,-119.299980,8064.000000,0.000000,4.000000,,,,0.000000,4.000000,4.000000,4.000000,4.000000,4.000000,4.000000,4.000000,4.000000,4.000000,4.000000,4.000000,4.000000,4.000000,4.000000,4.000000,4.000000,4.000000,4.000000,4.000000,4.000000,4.000000,4.000000,4.000000,4.000000,4.000000,4.000000,4.000000,4.000000,4.000000,4.000000,4.000000,4.000000,100.000000
1614391175.523657,36.000000,0.000000,0.759583,4.318199,-140.685379,-36.587898,-7.973955,9.515014,-2.368289,5.357188,9.987234,4.732432,-2.324557,-6.413415,-6.489619,-7.758040,-9.837776,46.474960,-15.192510,46.334854,6.852174,-21.408737,-24.131134,-25.698381,-12.569115,-5.619014,10.371871,3.485198,-5.887938,-0.794841,1.061887,9.343987,-30.518278,-119.693504,8064.000000,0.000000,4.000000,,,,0.000000,4.000000,4.000000,4.000000,4.000000,4.000000,4.000000,4.000000,4.000000,4.000000,4.000000,4.000000,4.000000,4.000000,4.000000,4.000000,4.000000,4.000000,4.000000,4.000000,4.000000,4.000000,4.000000,4.000000,4.000000,4.000000,4.000000,4.000000,4.000000,4.000000,4.000000,4.000000,4.000000,100.000000
1614391175.531506,37.000000,0.000000,0.758823,5.339521,-141.570328,-38.089771,-9.504442,10.018319,-2.365921,4.839010,8.951607,3.189238,1.267511,-5.894182,-5.457489,-9.288744,-7.776657,24.377205,-15.690137,45.262878,26.332502,4.766518,-14.363413,-20.031656,-8.966802,-10.228780,10.361499,6.558636,0.271797,-1.306867,2.086466,9.334642,-22.282633,-124.189194,8064.000000,0.000000,4.000000,,,,0.000000,4.000000,4.000000,4.000000,4.000000,4.000000,4.000000,4.000000,4.000000,4.000000,4.000000,4.000000,4.000000,4.000000,4.000000,4.000000,4.000000,4.000000,4.000000,4.000000,4.000000,4.000000,4.000000,4.000000,4.000000,4.000000,4.000000,4.000000,4.000000,4.000000,4.000000,4.000000,4.000000,100.000000
1614391175.539255,38.000000,0.000000,0.758065,1.744439,-138.351837,-37.026043,-7.443656,10.008301,0.200547,5.346992,6.891373,3.698869,4.343166,-5.888288,1.214636,-8.766635,-4.179136,33.583595,-15.674447,53.422741,35.024117,23.223289,-9.220844,-18.473164,-8.957835,-2.013423,10.351137,6.039257,2.835627,-1.305560,2.084379,10.350948,-24.824451,-115.347054,8064.000000,0.000000,4.000000,,,,0.000000,4.000000,4.000000,4.000000,4.000000,4.000000,4.000000,4.000000,4.000000,4.000000,4.000000,4.000000,4.000000,4.000000,4.000000,4.000000,4.000000,4.000000,4.000000,4.000000,4.000000,4.000000,4.000000,4.000000,4.000000,4.000000,4.000000,4.000000,4.000000,4.000000,4.000000,4.000000,4.000000,100.000000
1614391175.547104,39.000000,0.000000,-0.268335,1.742694,-133.085281,-36.989014,-10.513135,8.459831,2.251629,5.341645,7.910122,3.695170,-0.276561,-5.882399,0.187780,-7.732227,-4.174957,48.934628,-15.658772,50.805218,20.117298,-3.979420,-12.288547,-19.480331,-9.461698,2.603975,10.340786,8.597321,-0.756952,-0.791434,1.569474,8.802136,-25.825270,-110.103500,8064.000000,0.000000,4.000000,,,,0.000000,4.000000,4.000000,4.000000,4.000000,4.000000,4.000000,4.000000,4.000000,4.000000,4.000000,4.000000,4.000000,4.000000,4.000000,4.000000,4.000000,4.000000,4.000000,4.000000,4.000000,4.000000,4.000000,4.000000,4.000000,4.000000,4.000000,4.000000,4.000000,4.000000,4.000000,4.000000,4.000000,100.000000
1614391175.554854,40.000000,0.000000,-2.319348,6.869156,-135.516296,-36.952026,-16.143648,6.400089,-0.827546,5.336303,2.774007,1.127373,-1.301926,-6.389338,-6.479074,-8.237315,-5.196424,45.808769,-15.130294,36.908257,7.789489,-36.283134,-17.404463,-22.024954,-9.452236,2.088551,8.791984,8.588723,-2.294657,-3.867565,2.080725,1.613847,-23.748161,-123.326736,8064.000000,0.000000,4.000000,,,,0.000000,4.000000,4.000000,4.000000,4.000000,4.000000,4.000000,4.000000,4.000000,4.000000,4.000000,4.000000,4.000000,4.000000,4.000000,4.000000,4.000000,4.000000,4.000000,4.000000,4.000000,4.000000,4.000000,4.000000,4.000000,4.000000,4.000000,4.000000,4.000000,4.000000,4.000000,4.000000,4.000000,100.000000
1614391175.562703,41.000000,0.000000,-3.342670,6.862288,-132.303864,-37.427895,-6.383914,5.880869,-0.826718,5.330967,1.232772,7.792912,4.340402,-5.870128,1.219712,-8.741899,1.475440,42.173218,-12.551061,48.153400,27.781700,-18.298132,-16.361418,-20.464468,-8.929963,2.086462,7.244730,6.016032,-1.779541,-7.966262,2.078645,-0.951869,-24.237234,-127.305969,8064.000000,0.000000,4.000000,,,,0.000000,4.000000,4.000000,4.000000,4.000000,4.000000,4.000000,4.000000,4.000000,4.000000,4.000000,4.000000,4.000000,4.000000,4.000000,4.000000,4.000000,4.000000,4.000000,4.000000,4.000000,4.000000,4.000000,4.000000,4.000000,4.000000,4.000000,4.000000,4.000000,4.000000,4.000000,4.000000,4.000000,100.000000
1614391175.570452,42.000000,0.000000,-2.826507,4.291323,-118.838219,-33.800724,9.519905,6.387808,4.302314,5.838457,13.539231,18.554350,6.387343,-3.300155,9.936441,-2.579310,6.089349,47.772072,-11.000048,70.156532,52.882122,8.386832,-7.114286,-14.290157,-8.921033,3.622837,6.724665,5.497195,-1.264941,-8.983936,2.076566,4.177288,-23.700176,-113.332512,8064.000000,0.000000,4.000000,,,,0.000000,4.000000,4.000000,4.000000,4.000000,4.000000,4.000000,4.000000,4.000000,4.000000,4.000000,4.000000,4.000000,4.000000,4.000000,4.000000,4.000000,4.000000,4.000000,4.000000,4.000000,4.000000,4.000000,4.000000,4.000000,4.000000,4.000000,4.000000,4.000000,4.000000,4.000000,4.000000,4.000000,100.000000
1614391175.578301,43.000000,0.000000,-2.823680,6.851134,-113.591179,-27.100256,11.561667,6.381421,6.349293,4.806977,23.782103,20.074257,4.842494,-1.758393,-2.381187,6.141218,-1.096228,42.083275,-11.501868,56.753040,43.085651,-8.544631,-1.466147,-14.788688,-10.450574,3.106394,7.230761,6.517339,-1.776497,-8.462132,2.074490,7.250033,-24.702118,-109.116615,8064.000000,0.000000,4.000000,,,,0.000000,4.000000,4.000000,4.000000,4.000000,4.000000,4.000000,4.000000,4.000000,4.000000,4.000000,4.000000,4.000000,4.000000,4.000000,4.000000,4.000000,4.000000,4.000000,4.000000,4.000000,4.000000,4.000000,4.000000,4.000000,4.000000,4.000000,4.000000,4.000000,4.000000,4.000000,4.000000,4.000000,100.000000
1614391175.586051,44.000000,0.000000,-2.820857,7.357103,-119.631432,-25.534695,8.986003,5.862219,5.317303,5.827811,22.732679,18.002901,5.350472,-2.269455,-13.660857,7.673538,-9.300260,25.630934,-11.490367,38.747570,29.709232,-24.946342,-4.028783,-15.286719,-12.491405,2.590467,7.223530,5.998001,-3.313182,-8.453670,2.072415,5.704322,-24.677416,-116.699806,8064.000000,0.000000,4.000000,,,,0.000000,4.000000,4.000000,4.000000,4.000000,4.000000,4.000000,4.000000,4.000000,4.000000,4.000000,4.000000,4.000000,4.000000,4.000000,4.000000,4.000000,4.000000,4.000000,4.000000,4.000000,4.000000,4.000000,4.000000,4.000000,4.000000,4.000000,4.000000,4.000000,4.000000,4.000000,4.000000,4.000000,100.000000
1614391175.593900,45.000000,0.000000,-2.818036,5.298464,-121.563080,-26.021980,12.053941,5.343536,5.311985,8.386086,21.171484,19.523359,5.857943,-1.754365,-4.929248,6.640224,-8.778139,33.810432,-10.966056,55.119080,36.346191,-15.177807,-8.640139,-12.707330,-12.991735,3.100697,6.703486,5.479182,-5.361151,-8.958036,2.070343,5.698617,-22.088634,-118.121567,8064.000000,0.000000,4.000000,,,,0.000000,4.000000,4.000000,4.000000,4.000000,4.000000,4.000000,4.000000,4.000000,4.000000,4.000000,4.000000,4.000000,4.000000,4.000000,4.000000,4.000000,4.000000,4.000000,4.000000,4.000000,4.000000,4.000000,4.000000,4.000000,4.000000,4.000000,4.000000,4.000000,4.000000,4.000000,4.000000,4.000000,100.000000
1614391175.601649,46.000000,0.000000,-2.815218,7.857268,-120.415878,-23.944675,4.862399,6.363833,5.819494,6.839238,22.688774,19.503836,5.339264,-1.752611,-0.821755,7.146404,-7.230899,62.494568,-11.467910,58.140881,21.950869,-22.342117,-14.272525,-20.899752,-13.491563,2.071955,6.696783,5.473703,-5.355790,-8.436258,2.068272,6.205739,-20.528086,-124.670113,8064.000000,0.000000,4.000000,,,,0.000000,4.000000,4.000000,4.000000,4.000000,4.000000,4.000000,4.000000,4.000000,4.000000,4.000000,4.000000,4.000000,4.000000,4.000000,4.000000,4.000000,4.000000,4.000000,4.000000,4.000000,4.000000,4.000000,4.000000,4.000000,4.000000,4.000000,4.000000,4.000000,4.000000,4.000000,4.000000,4.000000,100.000000
1614391175.609299,47.000000,0.000000,-2.812402,6.823770,-123.885208,-30.074577,-7.962976,6.870290,5.300854,1.704194,19.589163,14.868947,5.333925,-4.314961,-8.513241,5.600796,-8.762130,60.893612,-11.969263,27.313511,-3.199287,-39.242851,-21.950560,-28.058338,-16.554995,-4.083962,7.202906,5.981050,-4.837613,-8.427822,2.066204,6.199533,-26.661404,-136.853134,8064.000000,0.000000,4.000000,,,,0.000000,4.000000,4.000000,4.000000,4.000000,4.000000,4.000000,4.000000,4.000000,4.000000,4.000000,4.000000,4.000000,4.000000,4.000000,4.000000,4.000000,4.000000,4.000000,4.000000,4.000000,4.000000,4.000000,4.000000,4.000000,4.000000,4.000000,4.000000,4.000000,4.000000,4.000000,4.000000,4.000000,100.000000
1614391175.617048,48.000000,0.000000,-2.809590,1.688741,-125.299782,-36.711170,-6.929372,4.812138,5.295553,1.189669,17.005470,10.751514,5.328591,-5.849107,-10.043189,3.031092,-8.753367,37.755795,-10.931652,22.157991,8.598784,-26.383095,-19.364506,-18.286690,-17.051260,-9.720904,6.682883,5.975069,-5.858417,-8.419394,2.064138,5.680513,-29.198845,-132.613724,8064.000000,0.000000,4.000000,,,,0.000000,4.000000,4.000000,4.000000,4.000000,4.000000,4.000000,4.000000,4.000000,4.000000,4.000000,4.000000,4.000000,4.000000,4.000000,4.000000,4.000000,4.000000,4.000000,4.000000,4.000000,4.000000,4.000000,4.000000,4.000000,4.000000,4.000000,4.000000,4.000000,4.000000,4.000000,4.000000,4.000000,100.000000
1614391175.624697,49.000000,0.000000,-2.806781,5.789616,-121.071915,-24.366766,3.333968,9.422710,5.290258,4.265403,21.603849,10.740763,5.323262,-5.843258,-5.930582,3.028061,-8.231793,45.923168,-8.356618,54.443527,31.667109,-5.843892,-7.037450,-6.986352,-14.470106,-9.198363,6.676200,4.943453,-3.801276,-8.410975,2.062074,5.674833,-18.913235,-115.045204,8064.000000,0.000000,4.000000,,,,0.000000,4.000000,4.000000,4.000000,4.000000,4.000000,4.000000,4.000000,4.000000,4.000000,4.000000,4.000000,4.000000,4.000000,4.000000,4.000000,4.000000,4.000000,4.000000,4.000000,4.000000,4.000000,4.000000,4.000000,4.000000,4.000000,4.000000,4.000000,4.000000,4.000000,4.000000,4.000000,4.000000,100.000000
1614391175.632447,50.000000,0.000000,-2.291153,15.014596,-117.361099,-9.983425,7.433198,19.156878,5.284967,5.286778,27.223272,11.242843,5.317939,-5.837415,-4.899010,0.973751,-8.223562,59.210579,-7.322620,65.158310,36.250828,-3.273945,-1.389387,-8.005007,-12.917174,-0.984036,11.797729,8.528254,1.843551,-8.402564,2.060012,9.771722,-6.586629,-108.776314,8064.000000,0.000000,4.000000,,,,0.000000,4.000000,4.000000,4.000000,4.000000,4.000000,4.000000,4.000000,4.000000,4.000000,4.000000,4.000000,4.000000,4.000000,4.000000,4.000000,4.000000,4.000000,4.000000,4.000000,4.000000,4.000000,4.000000,4.000000,4.000000,4.000000,4.000000,4.000000,4.000000,4.000000,4.000000,4.000000,4.000000,100.000000
1614391175.640096,51.000000,0.000000,-3.827323,15.512402,-116.730919,-13.050364,5.887303,19.650541,5.279683,4.768671,22.580664,10.718780,5.312621,-5.831578,-4.894111,-1.591325,-8.215339,40.689831,-8.853760,47.657257,33.650475,-3.783492,-2.413638,-9.022643,-12.904258,8.247717,17.939777,15.186392,1.328887,-8.394161,2.057952,15.915796,-5.041581,-113.282921,8064.000000,0.000000,4.000000,,,,0.000000,4.000000,4.000000,4.000000,4.000000,4.000000,4.000000,4.000000,4.000000,4.000000,4.000000,4.000000,4.000000,4.000000,4.000000,4.000000,4.000000,4.000000,4.000000,4.000000,4.000000,4.000000,4.000000,4.000000,4.000000,4.000000,4.000000,4.000000,4.000000,4.000000,4.000000,4.000000,4.000000,100.000000
1614391175.647846,52.000000,0.000000,-5.874778,11.907146,-116.614189,-19.191160,4.855775,11.938582,5.274403,5.276723,14.865776,10.708060,5.307308,-5.825746,-4.889217,-0.564093,-8.207123,32.444012,-7.819265,43.507038,21.821951,-1.215606,-2.411225,-7.987979,-13.404174,13.367674,18.434658,17.735308,-6.364750,-8.385767,2.055894,17.951162,-6.575001,-113.682465,8064.000000,0.000000,4.000000,,,,0.000000,4.000000,4.000000,4.000000,4.000000,4.000000,4.000000,4.000000,4.000000,4.000000,4.000000,4.000000,4.000000,4.000000,4.000000,4.000000,4.000000,4.000000,4.000000,4.000000,4.000000,4.000000,4.000000,4.000000,4.000000,4.000000,4.000000,4.000000,4.000000,4.000000,4.000000,4.000000,4.000000,100.000000
1614391175.655495,53.000000,0.000000,-6.381724,11.895239,-119.574501,-17.633509,3.312458,9.362541,5.781949,5.271446,14.338090,10.697352,5.302001,-5.819920,-5.909968,2.000574,-8.198916,60.103874,-7.298625,53.719940,8.466795,-0.701570,-1.383172,-7.979991,-13.390770,13.867127,17.903402,16.691931,-9.948129,-8.377381,2.053838,16.907570,-5.029964,-109.466217,8064.000000,0.000000,4.000000,,,,0.000000,4.000000,4.000000,4.000000,4.000000,4.000000,4.000000,4.000000,4.000000,4.000000,4.000000,4.000000,4.000000,4.000000,4.000000,4.000000,4.000000,4.000000,4.000000,4.000000,4.000000,4.000000,4.000000,4.000000,4.000000,4.000000,4.000000,4.000000,4.000000,4.000000,4.000000,4.000000,4.000000,100.000000
1614391175.663244,54.000000,0.000000,-8.426624,12.396164,-123.557487,-17.615873,2.796324,10.891641,3.724885,5.778995,15.349393,11.199475,5.296699,-5.814100,-2.314315,3.537035,-8.190717,76.454025,-11.393890,55.204681,20.253201,-1.726509,-1.894610,-7.972011,-11.838917,13.853260,20.962423,16.675240,-8.399719,-8.881824,2.051784,16.890663,-6.563396,-108.843925,8064.000000,0.000000,4.000000,,,,0.000000,4.000000,4.000000,4.000000,4.000000,4.000000,4.000000,4.000000,4.000000,4.000000,4.000000,4.000000,4.000000,4.000000,4.000000,4.000000,4.000000,4.000000,4.000000,4.000000,4.000000,4.000000,4.000000,4.000000,4.000000,4.000000,4.000000,4.000000,4.000000,4.000000,4.000000,4.000000,4.000000,100.000000
1614391175.670894,55.000000,0.000000,-9.956659,12.383768,-121.382645,-17.085438,3.306349,9.855108,1.669878,5.260396,14.308402,13.239558,5.291402,-5.808286,4.354666,5.584780,-8.182527,62.531422,-9.844035,53.611015,37.668846,-2.750424,0.671388,-8.989680,-10.288617,14.352227,22.479921,17.171385,-8.904140,-7.847301,2.562553,17.386593,-9.120935,-109.760727,8064.000000,0.000000,4.000000,,,,0.000000,4.000000,4.000000,4.000000,4.000000,4.000000,4.000000,4.000000,4.000000,4.000000,4.000000,4.000000,4.000000,4.000000,4.000000,4.000000,4.000000,4.000000,4.000000,4.000000,4.000000,4.000000,4.000000,4.000000,4.000000,4.000000,4.000000,4.000000,4.000000,4.000000,4.000000,4.000000,4.000000,100.000000
1614391175.678643,56.000000,0.000000,-5.844139,12.371384,-115.620239,-14.504250,2.790222,9.332432,1.155388,5.255135,15.319735,14.764780,5.286111,-5.802478,6.914414,7.117657,-8.174344,54.263760,1.447860,61.249710,38.656818,1.867711,2.721998,-7.955050,-8.227046,13.825054,22.457441,17.667034,-9.408056,-5.788172,2.559990,17.882027,-9.111814,-108.625320,8064.000000,0.000000,4.000000,,,,0.000000,4.000000,4.000000,4.000000,4.000000,4.000000,4.000000,4.000000,4.000000,4.000000,4.000000,4.000000,4.000000,4.000000,4.000000,4.000000,4.000000,4.000000,4.000000,4.000000,4.000000,4.000000,4.000000,4.000000,4.000000,4.000000,4.000000,4.000000,4.000000,4.000000,4.000000,4.000000,4.000000,100.000000
1614391175.686292,57.000000,0.000000,-1.735730,11.846192,-115.504623,-13.976925,2.787431,10.348741,1.667053,5.762701,12.740313,15.262836,6.306466,-3.745394,7.420320,7.623359,-7.653349,61.901806,9.138721,67.855125,40.669441,10.070971,-0.870467,-2.818889,-2.577793,13.811230,21.922163,17.649366,-8.885828,-4.243923,2.044610,15.812862,-8.589882,-109.029518,8064.000000,0.000000,4.000000,,,,0.000000,4.000000,4.000000,4.000000,4.000000,4.000000,4.000000,4.000000,4.000000,4.000000,4.000000,4.000000,4.000000,4.000000,4.000000,4.000000,4.000000,4.000000,4.000000,4.000000,4.000000,4.000000,4.000000,4.000000,4.000000,4.000000,4.000000,4.000000,4.000000,4.000000,4.000000,4.000000,4.000000,100.000000
1614391175.694042,58.000000,0.000000,-2.246815,12.347166,-115.901939,-13.450128,3.810285,10.338392,2.178206,4.731297,6.060905,16.273214,5.274518,-1.690366,7.925720,7.615736,-6.620055,65.429649,7.078300,66.248810,42.167233,6.983978,-1.895238,0.260853,-1.549574,14.310239,19.336140,16.093256,-8.876942,-4.239679,2.555386,13.232947,-10.119754,-108.920486,8064.000000,0.000000,4.000000,,,,0.000000,4.000000,4.000000,4.000000,4.000000,4.000000,4.000000,4.000000,4.000000,4.000000,4.000000,4.000000,4.000000,4.000000,4.000000,4.000000,4.000000,4.000000,4.000000,4.000000,4.000000,4.000000,4.000000,4.000000,4.000000,4.000000,4.000000,4.000000,4.000000,4.000000,4.000000,4.000000,4.000000,100.000000
1614391175.701691,59.000000,0.000000,-3.270209,13.360460,-113.221931,-13.436678,0.729552,5.712669,1.150387,1.649642,2.977921,13.180017,1.679500,-2.201496,-0.287334,7.095300,-8.664717,61.261654,6.558401,63.618462,32.381477,-3.792237,-0.354881,-3.329152,-6.676230,12.757467,14.701418,18.128445,-8.355245,-4.748260,2.040010,14.758176,-7.545531,-107.785927,8064.000000,0.000000,4.000000,,,,0.000000,4.000000,4.000000,4.000000,4.000000,4.000000,4.000000,4.000000,4.000000,4.000000,4.000000,4.000000,4.000000,4.000000,4.000000,4.000000,4.000000,4.000000,4.000000,4.000000,4.000000,4.000000,4.000000,4.000000,4.000000,4.000000,4.000000,4.000000,4.000000,4.000000,4.000000,4.000000,4.000000,100.000000
1614391175.709441,60.000000,0.000000,-1.728477,6.680433,-120.288193,-21.115549,-5.937844,2.117213,-1.414866,0.622352,4.000585,8.551454,2.190641,-2.199295,-5.928072,7.088204,-8.656052,63.251671,8.090303,66.631767,32.349094,-6.352547,-9.072475,-6.402746,-8.720836,10.693427,6.994409,17.084675,-8.346889,-4.230690,-4.628697,11.666494,-11.127729,-114.344810,8064.000000,0.000000,4.000000,,,,0.000000,4.000000,4.000000,4.000000,4.000000,4.000000,4.000000,4.000000,4.000000,4.000000,4.000000,4.000000,4.000000,4.000000,4.000000,4.000000,4.000000,4.000000,4.000000,4.000000,4.000000,4.000000,4.000000,4.000000,4.000000,4.000000,4.000000,4.000000,4.000000,4.000000,4.000000,4.000000,4.000000,100.000000
1614391175.717090,61.000000,0.000000,-2.752390,-3.582658,-132.988419,-33.402126,-8.496009,2.115096,-2.439092,3.185832,1.945302,6.491620,2.701271,-1.684275,-2.332400,7.081116,-6.083293,63.701241,2.441188,62.462570,32.316746,-8.910297,-21.371096,-8.447625,-9.737756,10.169913,-1.730534,2.195796,-10.389824,-3.713639,-12.316376,1.398418,-28.552500,-126.025337,8064.000000,0.000000,4.000000,,,,0.000000,4.000000,4.000000,4.000000,4.000000,4.000000,4.000000,4.000000,4.000000,4.000000,4.000000,4.000000,4.000000,4.000000,4.000000,4.000000,4.000000,4.000000,4.000000,4.000000,4.000000,4.000000,4.000000,4.000000,4.000000,4.000000,4.000000,4.000000,4.000000,4.000000,4.000000,4.000000,4.000000,100.000000
1614391175.724939,62.000000,0.000000,-7.365022,-7.168818,-136.957993,-41.573853,-7.974693,-3.528045,-1.923832,-0.407097,-0.620746,0.844102,-6.019379,-3.221052,-14.124940,-1.643914,-15.307980,41.073437,-10.894587,35.733440,9.207506,-24.286003,-25.452288,-19.721230,-17.420326,4.518718,-8.395470,-11.652554,-12.430717,-7.812490,-13.329700,-5.269647,-42.370102,-133.591614,8064.000000,0.000000,4.000000,,,,0.000000,4.000000,4.000000,4.000000,4.000000,4.000000,4.000000,4.000000,4.000000,4.000000,4.000000,4.000000,4.000000,4.000000,4.000000,4.000000,4.000000,4.000000,4.000000,4.000000,4.000000,4.000000,4.000000,4.000000,4.000000,4.000000,4.000000,4.000000,4.000000,4.000000,4.000000,4.000000,4.000000,100.000000
1614391175.732688,63.000000,0.000000,-10.434580,-6.136009,-140.410782,-45.122021,-10.018000,-14.806568,-1.409088,-9.637460,0.405516,-8.900331,-13.192846,-5.781934,-33.085175,-14.975603,-32.215748,17.955441,-20.627281,12.620784,-6.699137,-35.543766,-31.067862,-32.009201,-24.069572,-6.255032,-11.976818,-11.128081,-12.418285,-13.958524,-12.290730,-6.290019,-42.840549,-136.022125,8064.000000,0.000000,4.000000,,,,0.000000,4.000000,4.000000,4.000000,4.000000,4.000000,4.000000,4.000000,4.000000,4.000000,4.000000,4.000000,4.000000,4.000000,4.000000,4.000000,4.000000,4.000000,4.000000,4.000000,4.000000,4.000000,4.000000,4.000000,4.000000,4.000000,4.000000,4.000000,4.000000,4.000000,4.000000,4.000000,4.000000,100.000000
1614391175.740538,64.000000,0.000000,-9.911325,-6.642693,-147.449860,-47.641003,-12.572084,-16.330223,-1.920500,-6.038078,0.405110,-12.481174,-9.077089,-6.288972,-25.359781,-19.576012,-28.593788,23.065691,-18.042553,24.915855,10.743460,-25.251814,-34.113716,-28.387447,-24.558323,-12.915443,-11.452021,-9.065671,-12.405868,-15.995847,-12.791260,-8.847831,-41.259251,-138.450211,0.000000,176.000000,4.000000,,,,0.000000,4.000000,4.000000,4.000000,4.000000,4.000000,4.000000,4.000000,4.000000,4.000000,4.000000,4.000000,4.000000,4.000000,4.000000,4.000000,4.000000,4.000000,4.000000,4.000000,4.000000,4.000000,4.000000,4.000000,4.000000,4.000000,4.000000,4.000000,4.000000,4.000000,4.000000,4.000000,4.000000,100.000000
1614391175.748287,65.000000,0.000000,-9.901414,-7.148871,-146.276764,-47.593361,-11.533872,-8.108765,-1.918579,5.762831,0.404705,-7.340488,-4.452628,-5.769863,-5.334421,-15.966692,-15.231862,27.658010,-10.332202,40.275555,25.604511,-7.277844,-19.720629,-15.025726,-23.508123,-12.389708,-5.799543,-8.030964,-12.393461,-15.467031,-12.778468,-7.300521,-43.782093,-138.311752,0.000000,181.000000,4.000000,,,,0.000000,4.000000,4.000000,4.000000,4.000000,4.000000,4.000000,4.000000,4.000000,4.000000,4.000000,4.000000,4.000000,4.000000,4.000000,4.000000,4.000000,4.000000,4.000000,4.000000,4.000000,4.000000,4.000000,4.000000,4.000000,4.000000,4.000000,4.000000,4.000000,4.000000,4.000000,4.000000,4.000000,100.000000
1614391175.756136,66.000000,0.000000,-9.891513,-6.116081,-139.976639,-47.032948,-10.496696,-3.485271,-1.403840,0.628863,0.917121,-3.743404,-5.986637,-5.764093,-5.841908,-14.925085,-18.806374,16.861120,-7.757767,26.389126,19.937881,-1.116720,-8.931677,-10.908136,-21.946154,-12.377317,-3.229641,-2.894728,-12.381068,-15.451564,-12.252870,-2.165016,-41.687027,-136.634979,0.000000,189.000000,4.000000,,,,0.000000,4.000000,4.000000,4.000000,4.000000,4.000000,4.000000,4.000000,4.000000,4.000000,4.000000,4.000000,4.000000,4.000000,4.000000,4.000000,4.000000,4.000000,4.000000,4.000000,4.000000,4.000000,4.000000,4.000000,4.000000,4.000000,4.000000,4.000000,4.000000,4.000000,4.000000,4.000000,4.000000,100.000000
1614391175.763886,67.000000,0.000000,-9.881621,-6.109965,-144.452057,-46.985912,-13.563123,-6.558709,-2.940898,-12.705099,-0.622258,-3.739661,-5.980650,-5.758329,-13.528373,-15.935801,-17.249105,29.664772,-8.262830,23.285812,18.379482,-1.628424,-16.102232,-14.486972,-19.872927,-12.364940,-10.918719,-9.045679,-12.368687,-16.461754,-12.240617,-2.162851,-41.132519,-138.036819,0.000000,173.000000,4.000000,,,,0.000000,4.000000,4.000000,4.000000,4.000000,4.000000,4.000000,4.000000,4.000000,4.000000,4.000000,4.000000,4.000000,4.000000,4.000000,4.000000,4.000000,4.000000,4.000000,4.000000,4.000000,4.000000,4.000000,4.000000,4.000000,4.000000,4.000000,4.000000,4.000000,4.000000,4.000000,4.000000,4.000000,100.000000
1614391175.771735,68.000000,0.000000,-9.871739,-7.642317,-149.948624,-47.964569,-16.626482,-11.167535,-7.553341,-13.718035,-3.698558,-4.248742,-5.461849,-5.752571,-11.976383,-15.407044,-0.821600,57.327415,-7.741746,44.288170,20.412384,-1.113975,-21.727156,-14.985306,-19.853054,-12.352575,-15.523185,-19.805864,-12.356318,-15.932471,-12.741197,-5.750432,-49.296516,-138.411591,0.000000,175.000000,4.000000,,,,0.000000,4.000000,4.000000,4.000000,4.000000,4.000000,4.000000,4.000000,4.000000,4.000000,4.000000,4.000000,4.000000,4.000000,4.000000,4.000000,4.000000,4.000000,4.000000,4.000000,4.000000,4.000000,4.000000,4.000000,4.000000,4.000000,4.000000,4.000000,4.000000,4.000000,4.000000,4.000000,4.000000,100.000000
1614391175.779484,69.000000,0.000000,-10.374688,-4.557751,-145.696121,-46.890965,-14.558575,-12.182009,-10.109891,-12.678676,-3.694860,-3.218852,-5.456387,-5.746818,-10.938766,-14.878817,-6.461804,46.500858,-7.221184,43.731060,11.674023,-4.702604,-18.115685,-14.457500,-19.833200,-12.340222,-9.353816,-16.709135,-12.343962,-14.890898,-12.728456,-4.719040,-50.272861,-133.657806,0.000000,182.000000,4.000000,,,,0.000000,4.000000,4.000000,4.000000,4.000000,4.000000,4.000000,4.000000,4.000000,4.000000,4.000000,4.000000,4.000000,4.000000,4.000000,4.000000,4.000000,4.000000,4.000000,4.000000,4.000000,4.000000,4.000000,4.000000,4.000000,4.000000,4.000000,4.000000,4.000000,4.000000,4.000000,4.000000,4.000000,100.000000
1614391175.787333,70.000000,0.000000,-9.338673,-0.963450,-147.601700,-44.792789,-16.595297,-11.144186,-9.074140,-15.742920,-2.665524,-1.677172,-1.861187,-5.741071,-11.953468,-14.351117,-17.224573,30.556921,-7.213963,31.379637,4.482862,-11.877389,-19.123211,-16.494324,-19.813368,-11.302241,-8.831641,-12.589862,-12.331618,-15.901648,-11.177265,-4.201501,-40.991817,-134.036957,0.000000,200.000000,4.000000,,,,0.000000,4.000000,4.000000,4.000000,4.000000,4.000000,4.000000,4.000000,4.000000,4.000000,4.000000,4.000000,4.000000,4.000000,4.000000,4.000000,4.000000,4.000000,4.000000,4.000000,4.000000,4.000000,4.000000,4.000000,4.000000,4.000000,4.000000,4.000000,4.000000,4.000000,4.000000,4.000000,4.000000,100.000000
1614391175.795083,71.000000,0.000000,-9.842155,-7.629153,-158.736145,-48.337742,-28.373575,-12.671503,-9.577886,-14.701536,-4.201320,-4.752418,2.243238,-5.735330,-7.838951,-11.772664,5.356754,63.346878,-5.155467,52.886719,11.145045,-13.403974,-21.155369,-16.477829,-19.793554,-8.214016,-14.463836,-16.167017,-11.806466,-15.885746,-12.191730,-7.274222,-43.514931,-143.646515,0.000000,191.000000,4.000000,,,,0.000000,4.000000,4.000000,4.000000,4.000000,4.000000,4.000000,4.000000,4.000000,4.000000,4.000000,4.000000,4.000000,4.000000,4.000000,4.000000,4.000000,4.000000,4.000000,4.000000,4.000000,4.000000,4.000000,4.000000,4.000000,4.000000,4.000000,4.000000,4.000000,4.000000,4.000000,4.000000,4.000000,100.000000
1614391175.802932,72.000000,0.000000,-10.857953,-8.134344,-150.885101,-44.186840,-25.268278,-11.633190,-9.568308,-11.097091,-3.171478,-3.722024,1.728174,-5.729595,-4.241368,-10.735250,21.761654,83.283531,-3.099030,68.218445,17.800568,-12.877748,-14.980368,-14.922891,-17.722479,-7.692982,-10.346807,-10.509824,-12.307480,-9.203194,-13.717999,-6.241307,-45.522697,-138.887482,0.000000,191.000000,4.000000,,,,0.000000,4.000000,4.000000,4.000000,4.000000,4.000000,4.000000,4.000000,4.000000,4.000000,4.000000,4.000000,4.000000,4.000000,4.000000,4.000000,4.000000,4.000000,4.000000,4.000000,4.000000,4.000000,4.000000,4.000000,4.000000,4.000000,4.000000,4.000000,4.000000,4.000000,4.000000,4.000000,4.000000,100.000000
1614391175.810681,73.000000,0.000000,-6.231710,10.335328,-121.503448,-21.578550,1.423657,1.198956,-4.943355,-8.521892,4.524002,8.589391,1.726446,-5.723865,-4.749947,-11.237335,-1.337031,50.892555,-4.634392,38.919460,13.167382,-13.377691,-12.914105,-16.959249,-13.602191,-8.710930,-2.644153,-0.755724,-12.295173,-3.552965,-4.473512,0.431601,-23.938713,-114.646034,0.000000,185.000000,4.000000,,,,0.000000,4.000000,4.000000,4.000000,4.000000,4.000000,4.000000,4.000000,4.000000,4.000000,4.000000,4.000000,4.000000,4.000000,4.000000,4.000000,4.000000,4.000000,4.000000,4.000000,4.000000,4.000000,4.000000,4.000000,4.000000,4.000000,4.000000,4.000000,4.000000,4.000000,4.000000,4.000000,4.000000,100.000000
1614391175.818530,74.000000,0.000000,-2.122915,16.991659,-114.715279,-9.762099,10.140182,12.479808,-1.348668,-5.949267,8.109221,13.196185,2.237540,-5.718141,-5.258018,-11.738918,-12.617745,19.046789,-7.193860,26.572847,16.743958,-12.851493,-21.619141,-18.993572,-12.050128,-4.599655,-2.641509,-1.267789,-11.770057,-5.600694,3.736090,4.533733,-12.119902,-104.787796,0.000000,191.000000,4.000000,,,,0.000000,4.000000,4.000000,4.000000,4.000000,4.000000,4.000000,4.000000,4.000000,4.000000,4.000000,4.000000,4.000000,4.000000,4.000000,4.000000,4.000000,4.000000,4.000000,4.000000,4.000000,4.000000,4.000000,4.000000,4.000000,4.000000,4.000000,4.000000,4.000000,4.000000,4.000000,4.000000,4.000000,100.000000
1614391175.826280,75.000000,0.000000,-7.248997,0.564412,-139.728775,-27.701056,-9.357138,4.775020,-1.347320,-5.943317,5.024189,1.388118,-0.841620,-5.712423,-4.227118,-11.214359,1.241026,51.848255,-7.699487,57.828327,28.009266,-13.864283,-27.751368,-18.974579,-12.550898,-3.569414,-3.664508,-5.369085,-13.296748,-7.646375,-8.062518,1.965097,-33.646244,-117.503525,0.000000,196.000000,4.000000,,,,0.000000,4.000000,4.000000,4.000000,4.000000,4.000000,4.000000,4.000000,4.000000,4.000000,4.000000,4.000000,4.000000,4.000000,4.000000,4.000000,4.000000,4.000000,4.000000,4.000000,4.000000,4.000000,4.000000,4.000000,4.000000,4.000000,4.000000,4.000000,4.000000,4.000000,4.000000,4.000000,4.000000,100.000000
1614391175.833929,76.000000,0.000000,-9.293030,-1.487435,-148.306992,-39.981045,-14.988806,-8.050267,-1.858793,-8.501477,3.480703,-5.279937,-0.840779,-5.706711,-4.735712,-9.664683,0.726965,70.770767,-8.204608,59.821781,17.212025,-16.927341,-24.133871,-18.442783,-12.538347,-13.309434,-3.148023,-4.850895,-15.334734,-4.561806,-19.849327,-3.165073,-45.920288,-124.052681,0.000000,179.000000,4.000000,,,,0.000000,4.000000,4.000000,4.000000,4.000000,4.000000,4.000000,4.000000,4.000000,4.000000,4.000000,4.000000,4.000000,4.000000,4.000000,4.000000,4.000000,4.000000,4.000000,4.000000,4.000000,4.000000,4.000000,4.000000,4.000000,4.000000,4.000000,4.000000,4.000000,4.000000,4.000000,4.000000,4.000000,100.000000
1614391175.841678,77.000000,0.000000,-3.642711,15.437130,-133.286896,-32.761578,-1.640484,-5.478115,-1.344113,-6.954514,5.015684,-0.659273,5.826729,-5.701004,-5.243797,-10.680659,-9.530172,40.956406,-7.683583,30.531189,-4.343648,-13.320671,-22.571276,-18.937160,-12.012988,-15.347406,-3.144875,-4.333224,-13.780937,-5.070065,-11.111529,-4.700369,-28.951292,-120.851707,0.000000,198.000000,4.000000,,,,0.000000,4.000000,4.000000,4.000000,4.000000,4.000000,4.000000,4.000000,4.000000,4.000000,4.000000,4.000000,4.000000,4.000000,4.000000,4.000000,4.000000,4.000000,4.000000,4.000000,4.000000,4.000000,4.000000,4.000000,4.000000,4.000000,4.000000,4.000000,4.000000,4.000000,4.000000,4.000000,4.000000,100.000000
1614391175.849328,78.000000,0.000000,-3.126248,13.883231,-132.640778,-32.215996,-0.613202,0.168389,-2.881231,-2.332175,2.959386,1.392669,9.923466,-5.695303,-3.700091,-6.567415,-1.315514,53.223141,-5.624617,45.372452,10.019670,-4.589401,-24.087168,-18.918224,-12.513796,-2.511547,-2.628910,-4.841711,-11.715875,-7.629097,-1.869648,-4.182848,-20.717213,-123.807777,0.000000,172.000000,4.000000,,,,0.000000,4.000000,4.000000,4.000000,4.000000,4.000000,4.000000,4.000000,4.000000,4.000000,4.000000,4.000000,4.000000,4.000000,4.000000,4.000000,4.000000,4.000000,4.000000,4.000000,4.000000,4.000000,4.000000,4.000000,4.000000,4.000000,4.000000,4.000000,4.000000,4.000000,4.000000,4.000000,4.000000,100.000000
1614391175.857077,79.000000,0.000000,-9.276968,-3.053729,-143.277374,-39.363266,-8.817718,-6.498446,-5.442452,-1.304201,0.392324,-0.147186,8.887901,-5.689608,-1.132289,5.234025,6.378109,85.990433,-3.567710,76.609131,37.189137,-0.995068,-23.550259,-18.899305,-12.501282,2.619170,-5.703204,-4.836870,-13.242620,-8.134288,-7.508804,-5.717127,-30.952906,-129.324997,0.000000,167.000000,4.000000,,,,0.000000,4.000000,4.000000,4.000000,4.000000,4.000000,4.000000,4.000000,4.000000,4.000000,4.000000,4.000000,4.000000,4.000000,4.000000,4.000000,4.000000,4.000000,4.000000,4.000000,4.000000,4.000000,4.000000,4.000000,4.000000,4.000000,4.000000,4.000000,4.000000,4.000000,4.000000,4.000000,4.000000,100.000000
1614391175.864727,80.000000,0.000000,-10.806152,-8.178881,-140.569992,-37.785442,-8.808900,-12.132973,-5.949831,-2.328538,0.391932,-0.147038,8.879014,-6.196739,-0.618336,4.203149,-7.474423,54.109570,-4.589784,49.865856,24.331436,-1.506894,-23.013889,-18.880407,-12.488781,-6.614218,-11.338527,-4.832033,-15.793480,-11.203077,-13.142322,-8.275513,-36.050159,-129.195679,0.000000,188.000000,4.000000,,,,0.000000,4.000000,4.000000,4.000000,4.000000,4.000000,4.000000,4.000000,4.000000,4.000000,4.000000,4.000000,4.000000,4.000000,4.000000,4.000000,4.000000,4.000000,4.000000,4.000000,4.000000,4.000000,4.000000,4.000000,4.000000,4.000000,4.000000,4.000000,4.000000,4.000000,4.000000,4.000000,4.000000,100.000000
1614391175.872476,81.000000,0.000000,-9.256885,-4.580958,-137.865326,-34.157913,-6.235988,-8.531096,-5.431060,-1.813389,0.391540,0.365929,9.382956,-5.164901,-1.643359,-7.595925,-16.697718,21.747766,-4.072373,19.559580,1.230181,-3.043848,-23.503695,-18.861526,-12.476292,-8.658886,-10.814367,-4.827200,-15.777686,-15.294438,-12.103538,-8.267238,-32.937183,-127.528015,0.000000,203.000000,4.000000,,,,0.000000,4.000000,4.000000,4.000000,4.000000,4.000000,4.000000,4.000000,4.000000,4.000000,4.000000,4.000000,4.000000,4.000000,4.000000,4.000000,4.000000,4.000000,4.000000,4.000000,4.000000,4.000000,4.000000,4.000000,4.000000,4.000000,4.000000,4.000000,4.000000,4.000000,4.000000,4.000000,4.000000,100.000000
1614391175.880125,82.000000,0.000000,-9.760448,-7.140480,-145.932587,-36.175037,-8.793855,-10.573848,-4.912808,-1.298755,0.391148,0.878384,9.373572,-3.108454,-0.103254,2.155260,1.780519,54.546532,0.034263,52.360531,10.972541,-4.066445,-22.967371,-18.842665,-12.463816,-3.522022,-6.700989,-4.822373,-15.249088,-15.791965,-11.578614,-8.771791,-32.904247,-127.400490,0.000000,180.000000,4.000000,,,,0.000000,4.000000,4.000000,4.000000,4.000000,4.000000,4.000000,4.000000,4.000000,4.000000,4.000000,4.000000,4.000000,4.000000,4.000000,4.000000,4.000000,4.000000,4.000000,4.000000,4.000000,4.000000,4.000000,4.000000,4.000000,4.000000,4.000000,4.000000,4.000000,4.000000,4.000000,4.000000,4.000000,100.000000
1614391175.887875,83.000000,0.000000,-10.263509,-10.210262,-149.376389,-38.702965,-11.349163,-16.204300,-5.420716,-1.810277,0.903578,0.877505,8.851378,-1.566884,2.460952,20.614643,17.163353,85.774040,3.623972,79.487656,24.807722,-3.036738,-23.457224,-18.823822,-12.451352,-5.569782,-9.771211,-4.817551,-15.746660,-15.263351,-12.592676,-11.839942,-36.973907,-129.837189,0.000000,213.000000,4.000000,,,,0.000000,4.000000,4.000000,4.000000,4.000000,4.000000,4.000000,4.000000,4.000000,4.000000,4.000000,4.000000,4.000000,4.000000,4.000000,4.000000,4.000000,4.000000,4.000000,4.000000,4.000000,4.000000,4.000000,4.000000,4.000000,4.000000,4.000000,4.000000,4.000000,4.000000,4.000000,4.000000,4.000000,100.000000
1614391175.895524,84.000000,0.000000,-9.740424,-7.635950,-146.662918,-39.177082,-12.876276,-15.162454,-6.440937,-2.321287,-0.635787,-0.661834,8.842526,-2.078137,1.945671,14.440183,8.428242,57.995956,3.107528,53.767147,20.167530,3.632965,-24.972229,-18.804998,-12.438901,-8.641135,-15.915286,-5.325554,-15.730913,-15.760909,-12.580084,-13.366564,-37.962574,-133.297104,0.000000,192.000000,4.000000,,,,0.000000,4.000000,4.000000,4.000000,4.000000,4.000000,4.000000,4.000000,4.000000,4.000000,4.000000,4.000000,4.000000,4.000000,4.000000,4.000000,4.000000,4.000000,4.000000,4.000000,4.000000,4.000000,4.000000,4.000000,4.000000,4.000000,4.000000,4.000000,4.000000,4.000000,4.000000,4.000000,4.000000,100.000000
1614391175.903273,85.000000,0.000000,-10.756325,-6.089852,-144.464966,-38.625084,-10.812118,-12.070369,-4.383214,-1.806146,-3.199254,0.364469,9.346505,-2.076059,-0.620378,1.605229,-0.810956,35.373856,2.591600,37.303123,19.121721,7.731896,-21.870333,-18.786194,-12.426461,-6.068392,-13.335268,-5.320229,-15.715182,-15.232327,-12.054683,-11.814735,-37.411793,-129.061234,0.000000,159.000000,4.000000,,,,0.000000,4.000000,4.000000,4.000000,4.000000,4.000000,4.000000,4.000000,4.000000,4.000000,4.000000,4.000000,4.000000,4.000000,4.000000,4.000000,4.000000,4.000000,4.000000,4.000000,4.000000,4.000000,4.000000,4.000000,4.000000,4.000000,4.000000,4.000000,4.000000,4.000000,4.000000,4.000000,4.000000,100.000000
1614391175.910923,86.000000,0.000000,-9.207108,-6.083762,-143.294861,-38.586460,-10.801305,-11.545478,-5.917292,-1.291519,-3.708875,1.902566,7.798697,-2.073983,-1.645398,2.629265,-4.399889,22.005150,3.614649,46.496590,25.769266,-6.121989,-16.720257,-18.767406,-12.414035,-5.549503,-9.732189,-3.776447,-15.699467,-16.242737,-12.042628,-14.367023,-38.400021,-125.342430,0.000000,192.000000,4.000000,,,,0.000000,4.000000,4.000000,4.000000,4.000000,4.000000,4.000000,4.000000,4.000000,4.000000,4.000000,4.000000,4.000000,4.000000,4.000000,4.000000,4.000000,4.000000,4.000000,4.000000,4.000000,4.000000,4.000000,4.000000,4.000000,4.000000,4.000000,4.000000,4.000000,4.000000,4.000000,4.000000,4.000000,100.000000
1614391175.918672,87.000000,0.000000,-9.197900,-6.077679,-145.715668,-39.060696,-18.482811,-12.046753,-15.654964,-4.367150,-3.192346,-4.253182,5.739616,-2.071909,-3.695035,4.165098,-9.010874,18.906221,1.046932,47.475731,27.794779,-23.551765,-18.241999,-18.748640,-12.401621,-9.646518,-14.850662,-5.823952,-15.683767,-19.303417,-12.030585,-20.506502,-40.412903,-134.960678,0.000000,221.000000,4.000000,,,,0.000000,4.000000,4.000000,4.000000,4.000000,4.000000,4.000000,4.000000,4.000000,4.000000,4.000000,4.000000,4.000000,4.000000,4.000000,4.000000,4.000000,4.000000,4.000000,4.000000,4.000000,4.000000,4.000000,4.000000,4.000000,4.000000,4.000000,4.000000,4.000000,4.000000,4.000000,4.000000,4.000000,100.000000
1614391175.926322,88.000000,0.000000,-11.752805,-6.584421,-144.544312,-38.508812,-20.515612,-12.547526,-18.716232,-5.388424,-3.701974,-7.325852,4.708235,-2.069837,-4.204160,3.135292,0.228907,51.707829,-0.492576,55.120564,28.279804,-9.682059,-17.710936,-18.217070,-12.902040,-11.688153,-13.810170,-10.433513,-15.155263,-18.258472,-10.480093,-14.844970,-41.910950,-137.902634,0.000000,167.000000,4.000000,,,,0.000000,4.000000,4.000000,4.000000,4.000000,4.000000,4.000000,4.000000,4.000000,4.000000,4.000000,4.000000,4.000000,4.000000,4.000000,4.000000,4.000000,4.000000,4.000000,4.000000,4.000000,4.000000,4.000000,4.000000,4.000000,4.000000,4.000000,4.000000,4.000000,4.000000,4.000000,4.000000,4.000000,100.000000
1614391175.934071,89.000000,0.000000,-6.100027,-4.526555,-128.502335,-36.931843,-8.187403,-10.996517,-9.466747,1.283631,-1.134170,3.963525,5.216348,-2.067767,-1.635854,5.183438,8.946627,68.579201,5.661762,70.962883,25.174603,14.430187,-7.949636,-14.609110,-11.350677,-13.214927,0.562614,-1.192310,-13.088826,-13.624829,-6.367049,3.631413,-41.356220,-114.687813,0.000000,195.000000,4.000000,,,,0.000000,4.000000,4.000000,4.000000,4.000000,4.000000,4.000000,4.000000,4.000000,4.000000,4.000000,4.000000,4.000000,4.000000,4.000000,4.000000,4.000000,4.000000,4.000000,4.000000,4.000000,4.000000,4.000000,4.000000,4.000000,4.000000,4.000000,4.000000,4.000000,4.000000,4.000000,4.000000,4.000000,100.000000
1614391175.941720,90.000000,0.000000,5.700945,0.606177,-118.630241,-33.817989,-2.025369,-6.370136,-4.329075,6.410553,3.482349,8.062125,5.211131,-2.065700,-1.121397,5.691075,-2.857192,43.382412,10.784306,71.917557,25.662247,10.313192,-1.275019,-12.030398,-8.775223,-8.586327,12.356923,10.090934,-9.998814,-11.047102,-1.232477,15.422654,-34.648197,-101.752617,0.000000,184.000000,4.000000,,,,0.000000,4.000000,4.000000,4.000000,4.000000,4.000000,4.000000,4.000000,4.000000,4.000000,4.000000,4.000000,4.000000,4.000000,4.000000,4.000000,4.000000,4.000000,4.000000,4.000000,4.000000,4.000000,4.000000,4.000000,4.000000,4.000000,4.000000,4.000000,4.000000,4.000000,4.000000,4.000000,4.000000,100.000000
1614391175.949570,91.000000,0.000000,6.208065,1.631212,-133.896225,-34.296989,-7.151549,-3.286843,-5.863207,5.891321,2.966046,-4.766449,5.205920,-2.063634,-1.120276,3.634102,-0.290232,52.569801,10.773521,76.461021,39.482738,2.097751,-0.760924,-11.505548,-8.253628,5.268414,11.831746,1.362894,-7.937533,-11.548875,-0.205604,10.791846,-29.485344,-120.625221,0.000000,188.000000,4.000000,,,,0.000000,4.000000,4.000000,4.000000,4.000000,4.000000,4.000000,4.000000,4.000000,4.000000,4.000000,4.000000,4.000000,4.000000,4.000000,4.000000,4.000000,4.000000,4.000000,4.000000,4.000000,4.000000,4.000000,4.000000,4.000000,4.000000,4.000000,4.000000,4.000000,4.000000,4.000000,4.000000,4.000000,100.000000
1614391175.957319,92.000000,0.000000,-2.003271,-1.960163,-139.916183,-36.826797,-8.170038,-4.822018,-5.857344,5.372610,-0.113843,-5.274504,5.200714,-2.061570,-0.606335,2.604827,15.094673,73.542870,11.275568,76.384567,38.417614,3.121295,-0.247342,-10.468401,-8.758194,9.365709,10.794273,-9.407700,-8.442416,-11.537326,-2.256680,3.088747,-32.532780,-123.068695,0.000000,158.000000,4.000000,,,,0.000000,4.000000,4.000000,4.000000,4.000000,4.000000,4.000000,4.000000,4.000000,4.000000,4.000000,4.000000,4.000000,4.000000,4.000000,4.000000,4.000000,4.000000,4.000000,4.000000,4.000000,4.000000,4.000000,4.000000,4.000000,4.000000,4.000000,4.000000,4.000000,4.000000,4.000000,4.000000,4.000000,100.000000
1614391175.965168,93.000000,0.000000,-3.539730,-2.983844,-123.878822,-31.661764,-3.033664,-4.817196,-4.825846,4.854416,0.399092,10.115386,5.195513,-2.059509,-4.708293,3.115043,1.746246,46.289841,7.161729,44.000488,6.071506,-12.266442,-7.939403,-11.996394,-8.749436,-0.387246,12.321940,-0.167523,-8.433973,-11.012968,1.848141,2.572838,-31.474607,-98.330246,0.000000,165.000000,4.000000,,,,0.000000,4.000000,4.000000,4.000000,4.000000,4.000000,4.000000,4.000000,4.000000,4.000000,4.000000,4.000000,4.000000,4.000000,4.000000,4.000000,4.000000,4.000000,4.000000,4.000000,4.000000,4.000000,4.000000,4.000000,4.000000,4.000000,4.000000,4.000000,4.000000,4.000000,4.000000,4.000000,4.000000,100.000000
1614391175.972917,94.000000,0.000000,-1.484908,-1.955219,-125.293404,-27.014717,-3.030630,-3.273917,-4.821020,2.798280,0.911513,9.079630,5.703138,-2.057449,-8.806149,3.624748,-15.691399,33.935860,-5.153125,21.392384,-0.601233,-21.997765,-19.213514,-17.625423,-8.227866,-6.027885,9.232696,0.858286,-7.399899,-11.001955,5.436036,4.108727,-28.879030,-100.796013,0.000000,194.000000,4.000000,,,,0.000000,4.000000,4.000000,4.000000,4.000000,4.000000,4.000000,4.000000,4.000000,4.000000,4.000000,4.000000,4.000000,4.000000,4.000000,4.000000,4.000000,4.000000,4.000000,4.000000,4.000000,4.000000,4.000000,4.000000,4.000000,4.000000,4.000000,4.000000,4.000000,4.000000,4.000000,4.000000,4.000000,100.000000
1614391175.980767,95.000000,0.000000,-3.021884,-2.978905,-142.604004,-36.731293,-8.668625,-5.834745,-5.329020,1.769840,-3.191963,-6.826886,4.158974,-2.055392,-8.284522,2.082662,-7.470579,50.312180,-7.712075,51.114582,30.681419,-5.565511,-16.117378,-18.120619,-8.732459,-3.457754,3.069616,-11.450265,-9.956601,-11.503774,0.302395,1.540515,-38.593742,-124.797783,0.000000,192.000000,4.000000,,,,0.000000,4.000000,4.000000,4.000000,4.000000,4.000000,4.000000,4.000000,4.000000,4.000000,4.000000,4.000000,4.000000,4.000000,4.000000,4.000000,4.000000,4.000000,4.000000,4.000000,4.000000,4.000000,4.000000,4.000000,4.000000,4.000000,4.000000,4.000000,4.000000,4.000000,4.000000,4.000000,4.000000,100.000000
1614391175.988516,96.000000,0.000000,-3.018862,-1.950285,-138.871658,-45.412510,-11.736879,-7.880193,-5.323690,1.768071,-2.675950,-7.845700,2.103533,-2.053336,-8.789058,-0.996344,-9.001570,34.364429,-0.524876,58.242954,19.881508,-7.098407,-11.485876,-15.025575,-8.723726,-4.479938,-0.523197,-6.823430,-11.997927,-11.492270,-5.851754,-1.025128,-41.119251,-119.031960,8064.000000,0.000000,4.000000,,,,0.000000,4.000000,4.000000,4.000000,4.000000,4.000000,4.000000,4.000000,4.000000,4.000000,4.000000,4.000000,4.000000,4.000000,4.000000,4.000000,4.000000,4.000000,4.000000,4.000000,4.000000,4.000000,4.000000,4.000000,4.000000,4.000000,4.000000,4.000000,4.000000,4.000000,4.000000,4.000000,4.000000,100.000000
1614391175.996365,97.000000,0.000000,0.061079,0.615768,-124.886635,-34.597866,-6.084117,-1.718467,-5.318367,1.766303,5.019033,2.418556,3.127070,-2.051283,-9.293090,0.543114,-13.607953,25.612118,-2.575633,36.133430,-12.446066,-23.501566,-18.653877,-17.574652,-8.715003,-4.988278,-0.522674,7.029547,-7.370544,-11.480778,-5.333081,-1.536923,-27.744797,-101.989853,8064.000000,0.000000,4.000000,,,,0.000000,4.000000,4.000000,4.000000,4.000000,4.000000,4.000000,4.000000,4.000000,4.000000,4.000000,4.000000,4.000000,4.000000,4.000000,4.000000,4.000000,4.000000,4.000000,4.000000,4.000000,4.000000,4.000000,4.000000,4.000000,4.000000,4.000000,4.000000,4.000000,4.000000,4.000000,4.000000,4.000000,100.000000
1614391176.004114,98.000000,0.000000,1.599480,1.640793,-124.761749,-26.358141,-4.539571,3.924278,-5.313048,2.277357,6.039656,4.980240,5.688046,-2.049232,-4.155591,6.183597,4.867194,53.278812,-8.726903,51.481911,14.745867,-9.119089,-18.122402,-17.557077,-8.706287,-2.419187,-0.522151,4.971236,-3.773430,-11.469297,-4.302107,-0.509745,-28.742693,-106.503250,8064.000000,0.000000,4.000000,,,,0.000000,4.000000,4.000000,4.000000,4.000000,4.000000,4.000000,4.000000,4.000000,4.000000,4.000000,4.000000,4.000000,4.000000,4.000000,4.000000,4.000000,4.000000,4.000000,4.000000,4.000000,4.000000,4.000000,4.000000,4.000000,4.000000,4.000000,4.000000,4.000000,4.000000,4.000000,4.000000,4.000000,100.000000
1614391176.011964,99.000000,0.000000,1.085060,1.126332,-129.765198,-32.485630,-12.740160,1.869071,-5.307735,0.223797,0.392590,2.923978,5.169537,-2.047183,-0.561692,7.203054,4.862327,45.020405,-4.615612,67.840683,47.551636,9.864388,-8.360691,-10.360033,-8.697581,-0.365486,-0.521629,-2.213223,-6.333759,-11.457828,-5.323446,-1.022056,-36.919079,-114.089050,8064.000000,0.000000,4.000000,,,,0.000000,4.000000,4.000000,4.000000,4.000000,4.000000,4.000000,4.000000,4.000000,4.000000,4.000000,4.000000,4.000000,4.000000,4.000000,4.000000,4.000000,4.000000,4.000000,4.000000,4.000000,4.000000,4.000000,4.000000,4.000000,4.000000,4.000000,4.000000,4.000000,4.000000,4.000000,4.000000,4.000000,100.000000
1614391176.019713,100.000000,0.000000,1.083975,1.125206,-128.096970,-33.478783,-14.778702,-1.209721,-5.302428,-2.853349,-0.633443,3.946695,4.651547,-2.045135,-4.663694,3.606107,-16.168177,14.718976,0.517209,43.670280,22.888699,0.110935,-10.403612,-8.811211,-8.688884,-0.877941,-0.521107,-1.698189,-9.404348,-11.446370,-4.805302,-1.533855,-24.574469,-110.898041,8064.000000,0.000000,4.000000,,,,0.000000,4.000000,4.000000,4.000000,4.000000,4.000000,4.000000,4.000000,4.000000,4.000000,4.000000,4.000000,4.000000,4.000000,4.000000,4.000000,4.000000,4.000000,4.000000,4.000000,4.000000,4.000000,4.000000,4.000000,4.000000,4.000000,4.000000,4.000000,4.000000,4.000000,4.000000,4.000000,4.000000,100.000000
1614391176.027562,101.000000,0.000000,1.082891,1.124080,-126.943230,-27.291460,-8.610077,-0.695691,-5.297125,-1.312035,0.905652,4.455569,5.159716,-2.043090,-4.659031,2.576860,-6.408419,31.627335,-0.508950,41.575329,13.635040,-6.555843,-15.008594,-10.340861,-8.680195,-1.389884,-0.007766,-0.670850,-7.856483,-11.434923,-4.800497,-0.506680,-21.472971,-112.838425,8064.000000,0.000000,4.000000,,,,0.000000,4.000000,4.000000,4.000000,4.000000,4.000000,4.000000,4.000000,4.000000,4.000000,4.000000,4.000000,4.000000,4.000000,4.000000,4.000000,4.000000,4.000000,4.000000,4.000000,4.000000,4.000000,4.000000,4.000000,4.000000,4.000000,4.000000,4.000000,4.000000,4.000000,4.000000,4.000000,4.000000,100.000000
1614391176.035312,102.000000,0.000000,1.081808,1.122956,-127.329109,-28.802629,-10.652749,-0.182174,-5.291828,-0.285082,0.391925,4.451113,5.154556,-2.041047,2.012295,3.599924,13.597990,54.159809,-0.508441,71.790161,40.800892,1.655841,-9.352559,-7.766418,-8.671515,-0.875673,2.556345,-1.183000,-7.848626,-11.423489,-5.308517,-2.044635,-37.861755,-117.853790,8064.000000,0.000000,4.000000,,,,0.000000,4.000000,4.000000,4.000000,4.000000,4.000000,4.000000,4.000000,4.000000,4.000000,4.000000,4.000000,4.000000,4.000000,4.000000,4.000000,4.000000,4.000000,4.000000,4.000000,4.000000,4.000000,4.000000,4.000000,4.000000,4.000000,4.000000,4.000000,4.000000,4.000000,4.000000,4.000000,4.000000,100.000000
1614391176.043161,103.000000,0.000000,1.080726,1.121833,-127.201782,-34.414852,-15.257481,-0.694813,-5.286536,-2.336078,0.391533,3.933841,5.149402,-2.039006,1.497462,3.083504,7.430545,51.028725,2.568991,76.846581,37.683167,1.141365,-10.368847,-7.245831,-8.662843,-0.874798,4.605071,-1.181817,-9.379239,-10.899244,-4.277567,-4.606693,-34.234150,-119.274399,8064.000000,0.000000,4.000000,,,,0.000000,4.000000,4.000000,4.000000,4.000000,4.000000,4.000000,4.000000,4.000000,4.000000,4.000000,4.000000,4.000000,4.000000,4.000000,4.000000,4.000000,4.000000,4.000000,4.000000,4.000000,4.000000,4.000000,4.000000,4.000000,4.000000,4.000000,4.000000,4.000000,4.000000,4.000000,4.000000,4.000000,100.000000
1614391176.050910,104.000000,0.000000,1.079645,1.120711,-129.125854,-34.893257,-12.678121,-1.206939,-5.794070,1.256001,0.391142,3.929908,5.144252,-2.036967,-0.555317,3.080420,9.987218,65.336670,3.592063,69.590248,26.363434,-1.423879,-18.563606,-7.238585,-8.654181,-0.873923,2.036363,-1.693455,-6.805758,-11.401166,-1.709187,-4.089265,-18.302479,-118.642303,8064.000000,0.000000,4.000000,,,,0.000000,4.000000,4.000000,4.000000,4.000000,4.000000,4.000000,4.000000,4.000000,4.000000,4.000000,4.000000,4.000000,4.000000,4.000000,4.000000,4.000000,4.000000,4.000000,4.000000,4.000000,4.000000,4.000000,4.000000,4.000000,4.000000,4.000000,4.000000,4.000000,4.000000,4.000000,4.000000,4.000000,100.000000
1614391176.058759,105.000000,0.000000,1.078566,1.119591,-131.048019,-33.832726,-10.101340,-0.180091,-4.762635,8.434233,0.390751,3.925978,5.139108,-2.034930,5.086264,3.077340,21.772102,75.527748,3.588471,70.033478,43.260147,4.218570,-10.339915,-2.103142,-8.645526,-0.360228,-0.016956,0.359520,-2.183567,-10.876945,-0.681837,-1.521074,-21.361099,-114.421097,8064.000000,0.000000,4.000000,,,,0.000000,4.000000,4.000000,4.000000,4.000000,4.000000,4.000000,4.000000,4.000000,4.000000,4.000000,4.000000,4.000000,4.000000,4.000000,4.000000,4.000000,4.000000,4.000000,4.000000,4.000000,4.000000,4.000000,4.000000,4.000000,4.000000,4.000000,4.000000,4.000000,4.000000,4.000000,4.000000,4.000000,100.000000
1614391176.066509,106.000000,0.000000,1.077487,1.118471,-129.378510,-34.311710,-10.604059,-0.692731,-4.757873,8.425798,0.903181,4.434872,5.133969,-2.032895,5.081177,3.074263,6.365715,44.170166,3.072062,57.142929,42.191246,3.188711,4.029399,-3.126679,-8.636881,2.204234,0.495882,3.436084,-0.130101,-10.866067,-1.193976,-0.493911,-24.416660,-107.640007,8064.000000,0.000000,4.000000,,,,0.000000,4.000000,4.000000,4.000000,4.000000,4.000000,4.000000,4.000000,4.000000,4.000000,4.000000,4.000000,4.000000,4.000000,4.000000,4.000000,4.000000,4.000000,4.000000,4.000000,4.000000,4.000000,4.000000,4.000000,4.000000,4.000000,4.000000,4.000000,4.000000,4.000000,4.000000,4.000000,4.000000,100.000000
1614391176.074358,107.000000,0.000000,1.076410,1.630173,-132.326050,-34.790218,-10.593455,-3.768961,-7.830038,5.340449,-0.636184,2.379155,5.128835,-2.030862,-4.154673,3.071188,-8.512446,31.818304,1.530528,44.778091,18.559311,-4.506786,-0.590015,-12.867143,-8.628243,3.740492,-2.068717,0.868545,-1.155612,-12.906484,-1.192782,-1.006238,-18.751219,-108.045189,8064.000000,0.000000,4.000000,,,,0.000000,4.000000,4.000000,4.000000,4.000000,4.000000,4.000000,4.000000,4.000000,4.000000,4.000000,4.000000,4.000000,4.000000,4.000000,4.000000,4.000000,4.000000,4.000000,4.000000,4.000000,4.000000,4.000000,4.000000,4.000000,4.000000,4.000000,4.000000,4.000000,4.000000,4.000000,4.000000,4.000000,100.000000
1614391176.082107,108.000000,0.000000,1.075333,1.115722,-139.373215,-34.242611,-12.634144,-4.278013,-6.796566,5.847929,-3.199651,0.325494,5.123706,-2.028831,-5.688980,3.068117,2.778118,56.401871,-0.522284,50.374340,10.848444,-6.553561,-11.871476,-14.392736,-8.619616,2.198290,-2.579468,-4.260529,-0.641636,-14.944859,-0.678768,-1.005232,-24.373493,-112.039711,8064.000000,0.000000,4.000000,,,,0.000000,4.000000,4.000000,4.000000,4.000000,4.000000,4.000000,4.000000,4.000000,4.000000,4.000000,4.000000,4.000000,4.000000,4.000000,4.000000,4.000000,4.000000,4.000000,4.000000,4.000000,4.000000,4.000000,4.000000,4.000000,4.000000,4.000000,4.000000,4.000000,4.000000,4.000000,4.000000,4.000000,100.000000
1614391176.089757,109.000000,0.000000,1.074258,-0.936675,-141.285126,-33.695545,-13.647150,-3.248094,-2.687206,4.816440,-1.145169,-0.187652,5.118583,-2.026803,-3.632009,4.090690,6.365083,44.550598,-1.034583,48.272686,15.965800,-5.008546,-12.885245,-8.224498,-8.610996,-0.880832,-1.038427,-5.281909,-0.640995,-14.929914,-1.190910,-1.004227,-33.067070,-115.004593,8064.000000,0.000000,4.000000,,,,0.000000,4.000000,4.000000,4.000000,4.000000,4.000000,4.000000,4.000000,4.000000,4.000000,4.000000,4.000000,4.000000,4.000000,4.000000,4.000000,4.000000,4.000000,4.000000,4.000000,4.000000,4.000000,4.000000,4.000000,4.000000,4.000000,4.000000,4.000000,4.000000,4.000000,4.000000,4.000000,4.000000,100.000000
1614391176.097506,110.000000,0.000000,1.073184,-2.474200,-142.169479,-34.687492,-14.146324,-6.834589,-4.222980,2.247521,0.907258,0.325356,5.113464,-2.024776,-9.782223,2.548138,-9.538718,12.198354,-0.520728,34.891079,17.488297,-5.516358,-11.333899,-7.703453,-8.602385,-0.879951,-2.575850,-4.250986,-0.640354,-14.402164,-1.189719,-1.003222,-31.495539,-121.043434,8064.000000,0.000000,4.000000,,,,0.000000,4.000000,4.000000,4.000000,4.000000,4.000000,4.000000,4.000000,4.000000,4.000000,4.000000,4.000000,4.000000,4.000000,4.000000,4.000000,4.000000,4.000000,4.000000,4.000000,4.000000,4.000000,4.000000,4.000000,4.000000,4.000000,4.000000,4.000000,4.000000,4.000000,4.000000,4.000000,4.000000,100.000000
1614391176.105155,111.000000,0.000000,1.072111,-2.984546,-148.693970,-37.216908,-20.798843,-13.494421,-8.834142,1.219633,-2.170572,0.325031,5.108350,-2.022751,-11.823723,2.545590,-14.144564,22.442566,-1.033027,34.856186,9.778501,-6.023662,-14.912309,-11.798313,-8.593782,0.146570,-2.060454,-5.272376,-0.639713,-15.926223,-0.675709,-1.002219,-28.387121,-119.896751,8064.000000,0.000000,4.000000,,,,0.000000,4.000000,4.000000,4.000000,4.000000,4.000000,4.000000,4.000000,4.000000,4.000000,4.000000,4.000000,4.000000,4.000000,4.000000,4.000000,4.000000,4.000000,4.000000,4.000000,4.000000,4.000000,4.000000,4.000000,4.000000,4.000000,4.000000,4.000000,4.000000,4.000000,4.000000,4.000000,4.000000,100.000000
1614391176.112905,112.000000,0.000000,1.071038,-5.032844,-152.135025,-38.205330,-29.495995,-16.045029,-6.774026,1.731234,-3.706863,0.324706,5.103242,-2.020728,-6.683694,6.645608,-5.925291,50.112431,-1.544815,45.077740,5.666158,-6.017638,-17.461498,-11.786515,-8.585189,-3.443320,2.044170,-5.267104,-3.715997,-13.859015,-1.700674,-1.001217,-29.897196,-113.623009,8064.000000,0.000000,4.000000,,,,0.000000,4.000000,4.000000,4.000000,4.000000,4.000000,4.000000,4.000000,4.000000,4.000000,4.000000,4.000000,4.000000,4.000000,4.000000,4.000000,4.000000,4.000000,4.000000,4.000000,4.000000,4.000000,4.000000,4.000000,4.000000,4.000000,4.000000,4.000000,4.000000,4.000000,4.000000,4.000000,4.000000,100.000000
1614391176.120554,113.000000,0.000000,1.069967,-6.566273,-150.957245,-37.141483,-29.979319,-15.003344,-4.203149,1.729502,-2.677515,0.324381,5.098139,-2.018708,-7.189831,3.562040,-3.868084,45.959755,-0.517629,56.314716,24.122030,-4.985980,-15.905576,-10.749087,-8.576604,-8.568082,-1.547617,-4.236196,-7.814845,-10.768232,-3.750256,-1.000216,-29.867298,-121.714508,8064.000000,0.000000,4.000000,,,,0.000000,4.000000,4.000000,4.000000,4.000000,4.000000,4.000000,4.000000,4.000000,4.000000,4.000000,4.000000,4.000000,4.000000,4.000000,4.000000,4.000000,4.000000,4.000000,4.000000,4.000000,4.000000,4.000000,4.000000,4.000000,4.000000,4.000000,4.000000,4.000000,4.000000,4.000000,4.000000,4.000000,100.000000
1614391176.128303,114.000000,0.000000,1.068897,-6.046886,-152.344757,-37.104343,-28.410877,-14.988340,-5.224587,1.727773,-4.213299,0.324057,5.605861,-2.529509,-11.798026,-5.672292,-4.889856,36.170204,0.508530,58.822502,35.892780,-4.980994,-15.376849,-11.251159,-8.568027,-8.046693,-7.187095,-5.257600,-8.832671,-15.372849,-4.772146,-0.999215,-28.811790,-131.336380,8064.000000,0.000000,4.000000,,,,0.000000,4.000000,4.000000,4.000000,4.000000,4.000000,4.000000,4.000000,4.000000,4.000000,4.000000,4.000000,4.000000,4.000000,4.000000,4.000000,4.000000,4.000000,4.000000,4.000000,4.000000,4.000000,4.000000,4.000000,4.000000,4.000000,4.000000,4.000000,4.000000,4.000000,4.000000,4.000000,4.000000,100.000000
1614391176.135953,115.000000,0.000000,1.067829,-6.040839,-150.141129,-38.092880,-29.408108,-14.973351,-5.732183,1.726045,-7.286009,0.836553,5.087435,-2.014159,-10.247766,-6.179440,-1.295223,36.646854,-2.568902,49.532909,15.856887,-6.001654,-17.412754,-11.752728,-8.559459,-7.525826,-5.128626,-5.252343,-8.311018,-17.408758,-4.767374,-0.998216,-28.782978,-122.999924,8064.000000,0.000000,4.000000,,,,0.000000,4.000000,4.000000,4.000000,4.000000,4.000000,4.000000,4.000000,4.000000,4.000000,4.000000,4.000000,4.000000,4.000000,4.000000,4.000000,4.000000,4.000000,4.000000,4.000000,4.000000,4.000000,4.000000,4.000000,4.000000,4.000000,4.000000,4.000000,4.000000,4.000000,4.000000,4.000000,4.000000,100.000000
1614391176.143702,116.000000,0.000000,1.066761,-6.034798,-146.401245,-37.029144,-29.378700,-15.471199,-5.213630,1.724319,-6.765903,-0.189924,4.056706,0.039137,-8.186236,-1.045055,1.782995,39.174309,1.536231,50.509018,10.200005,-2.918729,-13.805598,-10.715335,-8.550900,-10.082403,-2.559395,0.906756,-7.789886,-10.211863,-4.762607,-0.997218,-29.779837,-116.723076,8064.000000,0.000000,4.000000,,,,0.000000,4.000000,4.000000,4.000000,4.000000,4.000000,4.000000,4.000000,4.000000,4.000000,4.000000,4.000000,4.000000,4.000000,4.000000,4.000000,4.000000,4.000000,4.000000,4.000000,4.000000,4.000000,4.000000,4.000000,4.000000,4.000000,4.000000,4.000000,4.000000,4.000000,4.000000,4.000000,4.000000,100.000000
1614391176.151352,117.000000,0.000000,1.065694,-6.028763,-154.972794,-38.017757,-29.349321,-14.430087,-5.208416,1.722595,-6.246316,-4.805119,6.103932,2.090380,-8.178050,-0.531190,3.319674,49.391548,14.355207,65.843124,31.215446,4.776497,-6.612306,-8.140517,-8.542349,-3.405654,-4.095297,2.957131,-5.730814,-8.150369,-4.757844,-0.996221,-28.724415,-123.785843,8064.000000,0.000000,4.000000,,,,0.000000,4.000000,4.000000,4.000000,4.000000,4.000000,4.000000,4.000000,4.000000,4.000000,4.000000,4.000000,4.000000,4.000000,4.000000,4.000000,4.000000,4.000000,4.000000,4.000000,4.000000,4.000000,4.000000,4.000000,4.000000,4.000000,4.000000,4.000000,4.000000,4.000000,4.000000,4.000000,4.000000,100.000000
1614391176.159101,118.000000,0.000000,1.064628,-6.022735,-165.587051,-43.620766,-28.294331,-13.902836,-5.203208,1.720872,-8.804173,-7.364417,4.559366,1.575469,-8.682693,-1.043479,4.341995,52.931900,15.366493,60.136257,26.568846,3.233259,-5.580052,-7.106735,-8.533806,8.905444,-4.091202,-4.225313,-4.186622,-14.808885,-6.291548,-0.995225,-29.208511,-125.200516,8064.000000,0.000000,4.000000,,,,0.000000,4.000000,4.000000,4.000000,4.000000,4.000000,4.000000,4.000000,4.000000,4.000000,4.000000,4.000000,4.000000,4.000000,4.000000,4.000000,4.000000,4.000000,4.000000,4.000000,4.000000,4.000000,4.000000,4.000000,4.000000,4.000000,4.000000,4.000000,4.000000,4.000000,4.000000,4.000000,4.000000,100.000000
1614391176.166750,119.000000,0.000000,1.063564,-6.016712,-161.831711,-49.218170,-28.266037,-19.017138,-5.710825,1.719151,-10.846650,-7.357052,-4.675962,1.061073,-9.699651,-1.555256,-0.790552,36.468712,4.069076,41.101761,5.516636,-8.052025,-9.164216,-7.612449,-8.525272,5.819616,-4.599931,-7.298011,-5.208076,-15.819716,-9.362180,-0.994229,-34.820328,-122.511215,8064.000000,0.000000,4.000000,,,,0.000000,4.000000,4.000000,4.000000,4.000000,4.000000,4.000000,4.000000,4.000000,4.000000,4.000000,4.000000,4.000000,4.000000,4.000000,4.000000,4.000000,4.000000,4.000000,4.000000,4.000000,4.000000,4.000000,4.000000,4.000000,4.000000,4.000000,4.000000,4.000000,4.000000,4.000000,4.000000,4.000000,100.000000
1614391176.174500,120.000000,0.000000,1.062500,-6.010695,-153.977570,-48.143311,-30.289053,-22.075045,-5.192294,1.717432,-10.322983,-7.862515,-5.696928,2.085653,-6.100208,-1.553701,-0.276941,39.509163,0.988084,49.778610,12.690606,-9.582435,-8.129411,-7.604836,-8.516747,-4.955435,-3.569690,-2.162508,-4.690048,-11.701333,-8.327176,-0.993235,-36.323971,-123.927162,8064.000000,0.000000,4.000000,,,,0.000000,4.000000,4.000000,4.000000,4.000000,4.000000,4.000000,4.000000,4.000000,4.000000,4.000000,4.000000,4.000000,4.000000,4.000000,4.000000,4.000000,4.000000,4.000000,4.000000,4.000000,4.000000,4.000000,4.000000,4.000000,4.000000,4.000000,4.000000,4.000000,4.000000,4.000000,4.000000,4.000000,100.000000
1614391176.182149,121.000000,0.000000,1.061437,-6.004684,-153.310776,-45.018246,-26.156199,-17.437584,-4.674282,1.715715,-10.312660,-6.316191,5.590821,4.647670,3.136662,5.627340,17.159233,68.187607,5.602480,72.292931,31.652275,6.324584,-5.557178,-8.110052,-8.508230,-1.873556,-3.053300,-0.109063,-1.608435,-10.663991,-5.241926,-0.479421,-30.646620,-120.213493,8064.000000,0.000000,4.000000,,,,0.000000,4.000000,4.000000,4.000000,4.000000,4.000000,4.000000,4.000000,4.000000,4.000000,4.000000,4.000000,4.000000,4.000000,4.000000,4.000000,4.000000,4.000000,4.000000,4.000000,4.000000,4.000000,4.000000,4.000000,4.000000,4.000000,4.000000,4.000000,4.000000,4.000000,4.000000,4.000000,4.000000,100.000000
1614391176.189998,122.000000,0.000000,1.060376,-5.998680,-154.695923,-44.460407,-18.950556,-15.368865,-6.720889,1.713999,-10.302347,-3.745773,7.636512,5.155843,7.236089,11.262738,25.347202,67.606598,6.622519,70.682175,39.825752,18.113131,-4.013160,-7.589122,-8.499722,6.333446,-5.101529,-2.160236,-0.581185,-11.166147,-5.236684,-0.478942,-29.590332,-113.426613,8064.000000,0.000000,4.000000,,,,0.000000,4.000000,4.000000,4.000000,4.000000,4.000000,4.000000,4.000000,4.000000,4.000000,4.000000,4.000000,4.000000,4.000000,4.000000,4.000000,4.000000,4.000000,4.000000,4.000000,4.000000,4.000000,4.000000,4.000000,4.000000,4.000000,4.000000,4.000000,4.000000,4.000000,4.000000,4.000000,4.000000,100.000000
1614391176.197748,123.000000,0.000000,0.546495,-5.992681,-153.515594,-44.415947,-21.495708,-18.430420,-8.765450,1.712285,-10.292045,-4.254848,1.987850,5.150687,6.203212,6.123271,11.988522,36.256939,6.103076,56.765343,35.683361,13.992454,-1.957865,-7.581532,-6.439940,6.839932,0.031778,-0.106794,-1.606245,-11.154981,-3.692986,-2.016925,-33.150486,-113.826004,8064.000000,0.000000,4.000000,,,,0.000000,4.000000,4.000000,4.000000,4.000000,4.000000,4.000000,4.000000,4.000000,4.000000,4.000000,4.000000,4.000000,4.000000,4.000000,4.000000,4.000000,4.000000,4.000000,4.000000,4.000000,4.000000,4.000000,4.000000,4.000000,4.000000,4.000000,4.000000,4.000000,4.000000,4.000000,4.000000,4.000000,100.000000
1614391176.205597,124.000000,0.000000,1.571590,-5.986689,-151.310791,-44.371529,-24.038315,-14.309424,-5.679762,1.710573,-10.281753,0.877613,8.139709,7.709639,9.273932,9.194070,11.976533,33.143757,8.148254,56.195755,26.929729,13.465641,-1.443086,-8.086772,-4.382218,5.807452,13.365080,2.970236,-1.091818,-10.631005,2.977374,0.036374,-30.553232,-116.789101,8064.000000,0.000000,4.000000,,,,0.000000,4.000000,4.000000,4.000000,4.000000,4.000000,4.000000,4.000000,4.000000,4.000000,4.000000,4.000000,4.000000,4.000000,4.000000,4.000000,4.000000,4.000000,4.000000,4.000000,4.000000,4.000000,4.000000,4.000000,4.000000,4.000000,4.000000,4.000000,4.000000,4.000000,4.000000,4.000000,4.000000,100.000000
1614391176.213347,125.000000,0.000000,3.621300,-5.980702,-149.108200,-44.327160,-18.886072,-11.218192,-1.058697,3.760144,-10.271471,10.620325,17.875158,9.240391,13.880043,25.595133,27.349173,65.931129,14.293953,75.113922,38.184849,26.785509,-0.928823,-2.437659,-1.813734,6.827285,20.018381,2.967265,1.986197,-11.133195,7.076961,3.113261,-27.958576,-115.133850,8064.000000,0.000000,4.000000,,,,0.000000,4.000000,4.000000,4.000000,4.000000,4.000000,4.000000,4.000000,4.000000,4.000000,4.000000,4.000000,4.000000,4.000000,4.000000,4.000000,4.000000,4.000000,4.000000,4.000000,4.000000,4.000000,4.000000,4.000000,4.000000,4.000000,4.000000,4.000000,4.000000,4.000000,4.000000,4.000000,4.000000,100.000000
1614391176.221196,126.000000,0.000000,4.643320,-5.974721,-149.984726,-44.282833,-23.482571,-16.335178,-1.057639,5.294846,-10.261200,8.045602,15.806001,8.718329,14.891804,28.133640,28.347464,85.352379,20.433504,92.987526,59.172306,35.476673,4.713132,7.821189,-0.786279,6.820458,13.844517,2.451478,3.009851,-11.122062,6.557063,-2.530878,-33.571644,-115.531540,8064.000000,0.000000,4.000000,,,,0.000000,4.000000,4.000000,4.000000,4.000000,4.000000,4.000000,4.000000,4.000000,4.000000,4.000000,4.000000,4.000000,4.000000,4.000000,4.000000,4.000000,4.000000,4.000000,4.000000,4.000000,4.000000,4.000000,4.000000,4.000000,4.000000,4.000000,4.000000,4.000000,4.000000,4.000000,4.000000,4.000000,100.000000
1614391176.228945,127.000000,0.000000,4.638677,-5.968746,-150.347565,-43.725727,-31.151396,-18.370127,-2.082222,5.802372,-10.250938,-2.218854,12.200452,8.709611,13.338450,14.772173,21.139629,62.190102,21.951532,78.022743,42.702877,27.748888,6.246880,10.890290,-0.785493,6.300817,6.651185,2.449026,2.494021,-11.110940,6.037685,-7.143732,-35.589355,-119.005753,8064.000000,0.000000,4.000000,,,,0.000000,4.000000,4.000000,4.000000,4.000000,4.000000,4.000000,4.000000,4.000000,4.000000,4.000000,4.000000,4.000000,4.000000,4.000000,4.000000,4.000000,4.000000,4.000000,4.000000,4.000000,4.000000,4.000000,4.000000,4.000000,4.000000,4.000000,4.000000,4.000000,4.000000,4.000000,4.000000,4.000000,100.000000
1614391176.236794,0.000000,0.000000,4.634038,-5.962778,-141.992096,-44.707642,-20.351013,-14.249192,-1.567319,5.283748,-10.240687,-0.678174,12.701072,8.700902,13.325111,8.603555,18.554388,40.076630,20.903940,53.329334,18.557611,16.951908,0.599608,5.751195,-1.297528,6.294516,7.670175,2.959398,3.004348,-11.099829,6.544468,-0.982742,-27.861458,-115.297005,0.000000,181.000000,4.000000,,,,0.000000,4.000000,4.000000,4.000000,4.000000,4.000000,4.000000,4.000000,4.000000,4.000000,4.000000,4.000000,4.000000,4.000000,4.000000,4.000000,4.000000,4.000000,4.000000,4.000000,4.000000,4.000000,4.000000,4.000000,4.000000,4.000000,4.000000,4.000000,4.000000,4.000000,4.000000,4.000000,4.000000,100.000000
1614391176.244544,1.000000,0.000000,4.116583,-5.956815,-131.593689,-43.637295,-10.074251,-14.747764,-1.052932,4.252824,-10.230447,0.860966,10.637089,8.692201,14.850248,10.133412,11.356345,54.908348,21.395857,64.558052,34.436489,15.396494,0.599008,3.181341,-1.296230,6.801042,9.200966,2.956438,1.975702,-11.088729,6.537924,3.633626,-23.731031,-105.950935,0.000000,211.000000,4.000000,,,,0.000000,4.000000,4.000000,4.000000,4.000000,4.000000,4.000000,4.000000,4.000000,4.000000,4.000000,4.000000,4.000000,4.000000,4.000000,4.000000,4.000000,4.000000,4.000000,4.000000,4.000000,4.000000,4.000000,4.000000,4.000000,4.000000,4.000000,4.000000,4.000000,4.000000,4.000000,4.000000,4.000000,100.000000
1614391176.252393,2.000000,0.000000,5.650928,-5.950858,-129.410812,-38.465450,-14.679562,-15.245836,-1.564699,1.684468,-8.168934,-9.909125,5.498246,8.683509,10.732834,7.046356,5.191143,66.648308,19.835999,76.288368,46.196926,16.406738,-3.504155,3.690981,-1.294934,4.742959,4.063560,1.415020,-0.590376,-11.077641,6.531386,-2.011034,-27.297045,-104.306526,0.000000,191.000000,4.000000,,,,0.000000,4.000000,4.000000,4.000000,4.000000,4.000000,4.000000,4.000000,4.000000,4.000000,4.000000,4.000000,4.000000,4.000000,4.000000,4.000000,4.000000,4.000000,4.000000,4.000000,4.000000,4.000000,4.000000,4.000000,4.000000,4.000000,4.000000,4.000000,4.000000,4.000000,4.000000,4.000000,4.000000,100.000000
1614391176.260142,3.000000,0.000000,10.260662,-6.457727,-131.332687,-36.888527,-18.254625,-12.153667,-2.075955,1.682784,-6.622304,-16.565884,3.954286,8.674825,0.465691,1.398284,4.160311,41.453457,17.252060,50.058235,26.150728,15.364691,-19.910908,2.661649,-1.806459,2.174114,-3.632811,-1.150497,-1.615427,-11.066563,4.473572,-5.598766,-29.833849,-111.381706,0.000000,163.000000,4.000000,,,,0.000000,4.000000,4.000000,4.000000,4.000000,4.000000,4.000000,4.000000,4.000000,4.000000,4.000000,4.000000,4.000000,4.000000,4.000000,4.000000,4.000000,4.000000,4.000000,4.000000,4.000000,4.000000,4.000000,4.000000,4.000000,4.000000,4.000000,4.000000,4.000000,4.000000,4.000000,4.000000,4.000000,100.000000
1614391176.267991,4.000000,0.000000,12.301683,-5.938449,-130.175705,-41.467022,-19.262012,-13.167154,-1.561058,2.193922,-7.128502,-13.985215,4.463152,8.666150,-1.073236,1.909706,4.668971,28.591490,16.721989,42.828690,15.355346,14.836506,-18.865355,3.684628,-1.804653,2.171939,-4.141999,-1.662167,-1.100991,-11.055496,2.417817,-4.054706,-28.778376,-111.270325,0.000000,192.000000,4.000000,,,,0.000000,4.000000,4.000000,4.000000,4.000000,4.000000,4.000000,4.000000,4.000000,4.000000,4.000000,4.000000,4.000000,4.000000,4.000000,4.000000,4.000000,4.000000,4.000000,4.000000,4.000000,4.000000,4.000000,4.000000,4.000000,4.000000,4.000000,4.000000,4.000000,4.000000,4.000000,4.000000,4.000000,100.000000
1614391176.275741,5.000000,0.000000,11.776561,-5.419691,-129.532715,-44.502476,-25.909416,-18.282192,-0.533856,0.653266,-6.608553,-14.996871,4.971510,8.657484,5.081683,3.959079,8.766867,54.716743,17.730907,68.939705,18.929733,16.360130,-2.436234,3.168123,-0.264387,2.682588,-3.112216,-4.737428,-0.587069,-10.531620,2.415399,-5.076292,-27.723955,-108.594948,0.000000,208.000000,4.000000,,,,0.000000,4.000000,4.000000,4.000000,4.000000,4.000000,4.000000,4.000000,4.000000,4.000000,4.000000,4.000000,4.000000,4.000000,4.000000,4.000000,4.000000,4.000000,4.000000,4.000000,4.000000,4.000000,4.000000,4.000000,4.000000,4.000000,4.000000,4.000000,4.000000,4.000000,4.000000,4.000000,4.000000,100.000000
1614391176.283590,6.000000,0.000000,11.764785,-6.952732,-130.428818,-44.457973,-30.498892,-19.289551,-4.123066,-1.911490,-6.089124,-14.981874,4.966538,8.648827,4.050960,1.391017,14.911945,70.046646,17.200356,65.793846,20.449266,16.856590,-6.536361,-1.450430,-1.289763,2.167085,-7.211668,-9.860896,-0.586482,-11.546729,2.412984,-8.148139,-28.721872,-116.691483,0.000000,179.000000,4.000000,,,,0.000000,4.000000,4.000000,4.000000,4.000000,4.000000,4.000000,4.000000,4.000000,4.000000,4.000000,4.000000,4.000000,4.000000,4.000000,4.000000,4.000000,4.000000,4.000000,4.000000,4.000000,4.000000,4.000000,4.000000,4.000000,4.000000,4.000000,4.000000,4.000000,4.000000,4.000000,4.000000,4.000000,100.000000
1614391176.291339,7.000000,0.000000,12.265841,-5.407318,-130.298401,-43.900696,-26.365829,-16.193338,-4.118943,-2.935219,-8.647138,-4.197661,3.935931,8.127357,3.021268,2.415267,17.973957,58.694546,16.670336,49.830616,30.685226,15.301273,-12.683671,1.115123,-2.314115,2.677738,-1.050610,-8.312573,-1.611537,-11.022362,1.897750,-7.114350,-28.693151,-115.036331,0.000000,191.000000,4.000000,,,,0.000000,4.000000,4.000000,4.000000,4.000000,4.000000,4.000000,4.000000,4.000000,4.000000,4.000000,4.000000,4.000000,4.000000,4.000000,4.000000,4.000000,4.000000,4.000000,4.000000,4.000000,4.000000,4.000000,4.000000,4.000000,4.000000,4.000000,4.000000,4.000000,4.000000,4.000000,4.000000,4.000000,100.000000
1614391176.298989,8.000000,0.000000,11.740754,5.367320,-127.091171,-37.190128,-19.672796,-14.638683,3.064663,-1.906643,-4.023106,5.550127,6.496098,9.657691,13.274657,20.874390,26.161112,62.738415,20.756229,70.806427,45.013515,17.850075,1.687987,9.831957,6.406148,5.239163,13.822235,1.439329,-0.584284,-5.883135,4.972775,-2.491851,-21.997791,-92.357193,0.000000,194.000000,4.000000,,,,0.000000,4.000000,4.000000,4.000000,4.000000,4.000000,4.000000,4.000000,4.000000,4.000000,4.000000,4.000000,4.000000,4.000000,4.000000,4.000000,4.000000,4.000000,4.000000,4.000000,4.000000,4.000000,4.000000,4.000000,4.000000,4.000000,4.000000,4.000000,4.000000,4.000000,4.000000,4.000000,4.000000,100.000000
1614391176.306738,9.000000,0.000000,11.729013,9.464517,-125.938438,-28.947811,-16.576200,-14.624045,4.087239,0.659366,8.288610,5.544576,11.617806,11.186495,19.415228,30.597105,32.801617,73.957726,22.273933,87.658691,51.635170,21.421968,3.224760,8.283663,14.092050,6.772386,12.269952,7.078915,2.493223,-3.313149,9.583187,2.638846,-16.334768,-86.623810,0.000000,188.000000,4.000000,,,,0.000000,4.000000,4.000000,4.000000,4.000000,4.000000,4.000000,4.000000,4.000000,4.000000,4.000000,4.000000,4.000000,4.000000,4.000000,4.000000,4.000000,4.000000,4.000000,4.000000,4.000000,4.000000,4.000000,4.000000,4.000000,4.000000,4.000000,4.000000,4.000000,4.000000,4.000000,4.000000,4.000000,100.000000
1614391176.314387,10.000000,0.000000,11.717284,1.249924,-130.427887,-29.944504,-17.585266,-14.609421,-3.609155,2.197168,9.305963,3.487750,12.119009,9.636847,13.241967,10.566508,28.153431,57.986336,13.020891,67.571037,47.480968,13.708239,-13.188721,-3.519492,4.847188,6.765613,-1.075652,2.969272,-1.611834,-5.873939,8.035143,3.149028,-22.985100,-106.537186,0.000000,178.000000,4.000000,,,,0.000000,4.000000,4.000000,4.000000,4.000000,4.000000,4.000000,4.000000,4.000000,4.000000,4.000000,4.000000,4.000000,4.000000,4.000000,4.000000,4.000000,4.000000,4.000000,4.000000,4.000000,4.000000,4.000000,4.000000,4.000000,4.000000,4.000000,4.000000,4.000000,4.000000,4.000000,4.000000,4.000000,100.000000
1614391176.322137,11.000000,0.000000,11.705567,-1.828249,-133.374390,-33.504303,-17.567680,-14.594811,-6.682469,1.169330,4.168451,5.535544,8.004326,8.088749,10.151802,-0.213289,24.535534,39.466808,5.828383,52.631672,28.459129,0.361197,-18.303738,-8.644177,-5.414069,4.707565,-4.664320,-1.649082,-8.789709,-7.919346,1.360441,0.068956,-33.731346,-114.635773,0.000000,186.000000,4.000000,,,,0.000000,4.000000,4.000000,4.000000,4.000000,4.000000,4.000000,4.000000,4.000000,4.000000,4.000000,4.000000,4.000000,4.000000,4.000000,4.000000,4.000000,4.000000,4.000000,4.000000,4.000000,4.000000,4.000000,4.000000,4.000000,4.000000,4.000000,4.000000,4.000000,4.000000,4.000000,4.000000,4.000000,100.000000
1614391176.329786,12.000000,0.000000,11.693861,3.814605,-132.728195,-31.932337,-13.960369,-14.580216,-4.624505,1.680981,8.779667,5.530008,9.534783,9.106301,10.141650,15.684361,25.536638,45.068367,8.899478,59.245705,16.122978,-3.741729,-14.182869,-7.097072,-0.280450,0.600294,-2.608373,-0.621792,-8.268099,-6.885786,-2.230663,-1.469575,-36.261715,-106.316010,0.000000,186.000000,4.000000,,,,0.000000,4.000000,4.000000,4.000000,4.000000,4.000000,4.000000,4.000000,4.000000,4.000000,4.000000,4.000000,4.000000,4.000000,4.000000,4.000000,4.000000,4.000000,4.000000,4.000000,4.000000,4.000000,4.000000,4.000000,4.000000,4.000000,4.000000,4.000000,4.000000,4.000000,4.000000,4.000000,4.000000,100.000000
1614391176.337535,13.000000,0.000000,11.682168,5.862072,-135.159561,-31.900404,-13.433588,-14.565637,-5.132701,2.704941,5.693964,-2.680650,8.499608,8.071554,2.439201,10.540471,11.664948,43.997658,8.890578,59.699280,24.311983,-1.686705,-15.707148,-7.089975,3.309574,-0.425947,-3.631406,-0.108349,-4.670087,-6.878901,-0.689971,-0.442464,-35.199814,-105.184052,0.000000,195.000000,4.000000,,,,0.000000,4.000000,4.000000,4.000000,4.000000,4.000000,4.000000,4.000000,4.000000,4.000000,4.000000,4.000000,4.000000,4.000000,4.000000,4.000000,4.000000,4.000000,4.000000,4.000000,4.000000,4.000000,4.000000,4.000000,4.000000,4.000000,4.000000,4.000000,4.000000,4.000000,4.000000,4.000000,4.000000,100.000000
1614391176.345185,14.000000,0.000000,11.670485,4.317749,-139.639786,-38.022350,-18.548359,-15.063891,-5.640388,-0.887507,-8.157884,-10.883098,-1.765302,5.499380,-5.768366,-14.598274,-7.833896,19.851097,0.676559,47.844707,15.569723,-2.197839,-16.204262,-8.108526,-1.309120,2.138581,-4.140595,-1.646703,-4.665417,-7.384842,1.874821,-0.442022,-36.703075,-107.642975,0.000000,158.000000,4.000000,,,,0.000000,4.000000,4.000000,4.000000,4.000000,4.000000,4.000000,4.000000,4.000000,4.000000,4.000000,4.000000,4.000000,4.000000,4.000000,4.000000,4.000000,4.000000,4.000000,4.000000,4.000000,4.000000,4.000000,4.000000,4.000000,4.000000,4.000000,4.000000,4.000000,4.000000,4.000000,4.000000,4.000000,100.000000
1614391176.352934,15.000000,0.000000,11.658814,4.826252,-141.038605,-39.009968,-21.606735,-14.023187,-5.121928,-1.912261,-6.098444,-11.897856,0.287745,6.519521,-5.762598,-13.558035,-10.902986,17.779964,-1.888220,48.309685,-0.343283,-3.221282,-16.188057,-8.100417,-1.820631,3.162083,-4.136455,-1.132235,-5.173573,-7.377457,1.872947,-3.005682,-35.127911,-107.022507,0.000000,175.000000,4.000000,,,,0.000000,4.000000,4.000000,4.000000,4.000000,4.000000,4.000000,4.000000,4.000000,4.000000,4.000000,4.000000,4.000000,4.000000,4.000000,4.000000,4.000000,4.000000,4.000000,4.000000,4.000000,4.000000,4.000000,4.000000,4.000000,4.000000,4.000000,4.000000,4.000000,4.000000,4.000000,4.000000,4.000000,100.000000
1614391176.360584,16.000000,0.000000,10.108694,5.334246,-139.871933,-33.329933,-17.482563,-11.445061,-5.116806,3.730677,3.651245,-10.347496,16.184893,9.589925,-4.731194,2.865779,-2.686954,49.044235,-0.860691,65.697273,20.682701,-2.192420,-17.710331,-7.579497,-1.305990,1.620460,-4.132318,-0.618283,-4.142758,-7.370080,2.383894,-5.566779,-29.964577,-106.915489,0.000000,188.000000,4.000000,,,,0.000000,4.000000,4.000000,4.000000,4.000000,4.000000,4.000000,4.000000,4.000000,4.000000,4.000000,4.000000,4.000000,4.000000,4.000000,4.000000,4.000000,4.000000,4.000000,4.000000,4.000000,4.000000,4.000000,4.000000,4.000000,4.000000,4.000000,4.000000,4.000000,4.000000,4.000000,4.000000,4.000000,100.000000
1614391176.368333,17.000000,0.000000,8.047304,4.816091,-139.732056,-33.296604,-16.952261,-10.920795,-5.111689,4.239767,-0.454971,-10.849969,16.681528,9.067514,-5.239284,2.350093,-1.145806,61.815704,-5.475214,68.708496,33.482533,-1.677407,-19.231081,-7.059097,-5.407248,3.157301,-3.102545,-4.207408,-5.677077,-7.362710,2.894331,-4.022751,-29.421793,-105.270111,0.000000,200.000000,4.000000,,,,0.000000,4.000000,4.000000,4.000000,4.000000,4.000000,4.000000,4.000000,4.000000,4.000000,4.000000,4.000000,4.000000,4.000000,4.000000,4.000000,4.000000,4.000000,4.000000,4.000000,4.000000,4.000000,4.000000,4.000000,4.000000,4.000000,4.000000,4.000000,4.000000,4.000000,4.000000,4.000000,4.000000,100.000000
1614391176.375982,18.000000,0.000000,7.526436,4.811275,-140.105148,-39.417152,-23.601974,-13.986797,-5.106577,-1.405498,-8.146823,-11.351939,2.818693,4.443062,-5.234044,-2.267642,-4.734404,39.702606,-9.059483,50.178253,9.346485,-4.239832,-20.237492,-11.154602,-8.478765,2.128503,-2.586622,-8.305764,-8.235502,-6.842526,0.840154,-4.531549,-31.956472,-107.216118,0.000000,145.000000,4.000000,,,,0.000000,4.000000,4.000000,4.000000,4.000000,4.000000,4.000000,4.000000,4.000000,4.000000,4.000000,4.000000,4.000000,4.000000,4.000000,4.000000,4.000000,4.000000,4.000000,4.000000,4.000000,4.000000,4.000000,4.000000,4.000000,4.000000,4.000000,4.000000,2.000000,4.000000,4.000000,4.000000,4.000000,83.333336
1614391176.383732,19.000000,0.000000,8.544551,4.806464,-140.477859,-40.916199,-26.655296,-14.485631,-5.101471,0.134369,-7.113035,-10.314946,2.303054,1.361696,-5.741631,-1.752554,-4.729669,25.816750,-8.024782,48.589611,12.926883,-5.261233,-17.653152,-14.733191,-8.470285,-2.489011,-6.173779,-6.758997,-6.175984,-7.861325,-0.699147,-8.116760,-31.924517,-112.749931,0.000000,199.000000,4.000000,,,,0.000000,4.000000,4.000000,4.000000,4.000000,4.000000,4.000000,4.000000,4.000000,4.000000,4.000000,4.000000,4.000000,4.000000,4.000000,4.000000,4.000000,4.000000,4.000000,4.000000,4.000000,4.000000,4.000000,4.000000,4.000000,4.000000,4.000000,4.000000,2.000000,4.000000,4.000000,4.000000,4.000000,83.333336
1614391176.391381,20.000000,0.000000,8.023186,4.801657,-136.747635,-39.336819,-17.910692,-11.394222,-5.096369,8.339362,-5.567461,-6.202067,8.967418,1.360335,-3.171787,-0.725160,-1.135196,30.406317,-8.529578,60.848713,38.554981,-3.204690,-13.020114,-11.641535,-7.948995,-3.512162,-4.116323,-4.700956,-4.118526,-6.827823,2.891295,-3.493259,-31.379772,-109.047440,0.000000,155.000000,4.000000,,,,0.000000,4.000000,4.000000,4.000000,4.000000,4.000000,4.000000,4.000000,4.000000,4.000000,4.000000,4.000000,4.000000,4.000000,4.000000,4.000000,4.000000,4.000000,4.000000,4.000000,4.000000,4.000000,4.000000,4.000000,4.000000,4.000000,4.000000,4.000000,2.000000,4.000000,4.000000,4.000000,4.000000,83.333336
1614391176.399130,21.000000,0.000000,7.502342,4.796855,-131.995514,-39.810303,-15.328679,-10.357187,-5.091273,9.869485,-7.100355,-2.606122,7.419989,1.358974,1.446770,7.480693,-0.108420,37.042580,-6.469767,55.659660,24.670273,-2.175844,-12.494273,-7.014508,-8.453866,1.106734,5.118563,-4.696255,-4.627229,-3.231251,6.478148,5.741003,-31.861212,-98.681976,0.000000,196.000000,4.000000,,,,0.000000,4.000000,4.000000,4.000000,4.000000,4.000000,4.000000,4.000000,4.000000,4.000000,4.000000,4.000000,4.000000,4.000000,4.000000,4.000000,4.000000,4.000000,4.000000,4.000000,4.000000,4.000000,4.000000,4.000000,4.000000,4.000000,4.000000,4.000000,2.000000,4.000000,4.000000,4.000000,4.000000,83.333336
1614391176.406780,22.000000,0.000000,8.520480,4.792059,-133.914795,-40.283314,-21.980017,-10.859651,-5.086182,8.321154,-7.093255,-3.116336,13.053595,0.844795,2.470964,16.191162,2.455791,54.441433,1.229011,61.245026,13.363551,-1.660848,-15.045881,-7.007494,-8.445413,3.156909,5.113444,-2.127456,-5.135422,-5.792122,5.958849,4.196801,-31.829351,-100.121758,0.000000,204.000000,4.000000,,,,0.000000,4.000000,4.000000,4.000000,4.000000,4.000000,4.000000,4.000000,4.000000,4.000000,4.000000,4.000000,4.000000,4.000000,4.000000,4.000000,4.000000,4.000000,4.000000,4.000000,4.000000,4.000000,4.000000,4.000000,4.000000,4.000000,4.000000,4.000000,2.000000,4.000000,4.000000,4.000000,4.000000,83.333336
1614391176.414629,23.000000,0.000000,7.999139,4.787267,-133.780884,-39.730209,-15.804191,-10.848791,-5.081096,8.825653,-6.573341,-2.600399,23.296951,1.356770,3.494134,17.200611,13.735387,81.566475,2.766243,90.414551,36.427109,1.417736,-15.543656,-7.000486,-7.924146,2.640932,-5.148079,-1.612508,-4.104645,-10.914536,5.952890,-0.422781,-31.284702,-103.098557,0.000000,203.000000,4.000000,,,,0.000000,4.000000,4.000000,4.000000,4.000000,4.000000,4.000000,4.000000,4.000000,4.000000,4.000000,4.000000,4.000000,4.000000,4.000000,4.000000,4.000000,4.000000,4.000000,4.000000,4.000000,4.000000,4.000000,4.000000,4.000000,4.000000,4.000000,4.000000,2.000000,4.000000,4.000000,4.000000,4.000000,83.333336
1614391176.422378,24.000000,0.000000,4.914217,4.782479,-124.929153,-39.690479,-6.557617,-10.837942,-5.076015,10.355289,-6.566767,-2.597799,13.530065,0.329773,2.977820,16.157770,13.208831,76.869530,-3.903189,76.990807,28.698376,2.441960,-14.502472,-8.019127,-8.941863,2.638291,-7.707034,-4.174998,-4.613361,-7.313877,6.972579,2.654565,-31.766237,-94.277512,0.000000,167.000000,4.000000,,,,0.000000,4.000000,4.000000,4.000000,4.000000,4.000000,4.000000,4.000000,4.000000,4.000000,4.000000,4.000000,4.000000,4.000000,4.000000,4.000000,4.000000,4.000000,4.000000,4.000000,4.000000,4.000000,4.000000,4.000000,4.000000,4.000000,4.000000,4.000000,2.000000,4.000000,4.000000,4.000000,4.000000,83.333336
1614391176.430228,25.000000,0.000000,0.806739,5.290517,-124.291397,-39.650787,-19.884394,-10.827105,-5.070939,8.293652,-6.560201,-5.672124,-2.380901,-1.721839,-6.768748,5.372381,-15.009506,44.484966,-8.514671,44.606121,-1.586733,1.413877,-15.513610,-12.113671,-11.497024,-0.954091,-7.186506,-2.119541,-4.608748,-3.716820,5.427144,3.164731,-31.734470,-97.260155,0.000000,205.000000,4.000000,,,,0.000000,4.000000,4.000000,4.000000,4.000000,4.000000,4.000000,4.000000,4.000000,4.000000,4.000000,4.000000,4.000000,4.000000,4.000000,4.000000,4.000000,4.000000,4.000000,4.000000,4.000000,4.000000,4.000000,4.000000,4.000000,4.000000,4.000000,4.000000,2.000000,4.000000,4.000000,4.000000,4.000000,83.333336
1614391176.437977,26.000000,0.000000,0.293112,5.285227,-129.808136,-39.611137,-30.633739,-10.816277,-5.065867,5.721255,-6.553640,-6.179273,0.185582,-2.232938,-12.915826,-12.581709,-30.891932,12.132789,-7.480515,32.766644,4.055879,5.515027,-15.498096,-15.178481,-11.998347,-4.542880,-7.179320,2.497963,-3.065678,-8.328487,6.960179,2.135925,-29.138634,-108.957771,0.000000,185.000000,4.000000,,,,0.000000,4.000000,4.000000,4.000000,4.000000,4.000000,4.000000,4.000000,4.000000,4.000000,4.000000,4.000000,4.000000,4.000000,4.000000,4.000000,4.000000,4.000000,4.000000,4.000000,4.000000,4.000000,4.000000,4.000000,4.000000,4.000000,4.000000,4.000000,2.000000,4.000000,4.000000,4.000000,4.000000,83.333336
