title:9, start timestamp:1614391714.952415, stop timestamp:1614391760.268119, headset type:EPOCFLEX, headset serial:F00001ED, headset firmware:f12, subject name:s10, channels:75, sampling rate:128, samples:5849      , version:2.0
Timestamp,EEG.Counter,EEG.Interpolated,EEG.Cz,EEG.Fz,EEG.Fp1,EEG.AF3,EEG.F7,EEG.F3,EEG.FC1,EEG.C3,EEG.FC5,EEG.T7,EEG.CP5,EEG.CP1,EEG.P3,EEG.P7,EEG.PO3,EEG.O1,EEG.Pz,EEG.Oz,EEG.O2,EEG.PO4,EEG.P8,EEG.P4,EEG.CP2,EEG.CP6,EEG.T8,EEG.FC6,EEG.C4,EEG.FC2,EEG.F4,EEG.F8,EEG.AF4,EEG.Fp2,EEG.HighBitFlex,EEG.RawCq,EEG.Battery,MarkerIndex,MarkerType,MarkerValueInt,EEG.MarkerHardware,CQ.Cz,CQ.Fz,CQ.Fp1,CQ.AF3,CQ.F7,CQ.F3,CQ.FC1,CQ.C3,CQ.FC5,CQ.T7,CQ.CP5,CQ.CP1,CQ.P3,CQ.P7,CQ.PO3,CQ.O1,CQ.Pz,CQ.Oz,CQ.O2,CQ.PO4,CQ.P8,CQ.P4,CQ.CP2,CQ.CP6,CQ.T8,CQ.FC6,CQ.C4,CQ.FC2,CQ.F4,CQ.F8,CQ.AF4,CQ.Fp2,CQ.Overall
1614391714.952415,14.000000,0.000000,1.159228,-4.609000,-181.023529,-35.446384,-9.004314,-0.742060,-5.201633,-5.186748,-2.824194,-8.603997,-40.393036,-14.790096,0.957022,-8.819491,4.230184,57.714218,2.103552,-25.694721,-12.785176,-2.062969,-0.141656,-2.630963,-6.595564,-6.678599,-7.361853,-15.673522,-11.578103,-8.737940,-13.758486,-4.553628,-30.437037,-163.551453,0.000000,183.000000,4.000000,,,,0.000000,4.000000,4.000000,4.000000,4.000000,4.000000,4.000000,4.000000,4.000000,4.000000,4.000000,4.000000,4.000000,4.000000,4.000000,4.000000,4.000000,4.000000,4.000000,4.000000,4.000000,4.000000,4.000000,4.000000,4.000000,4.000000,4.000000,4.000000,4.000000,4.000000,4.000000,4.000000,4.000000,100.000000
1614391714.960264,15.000000,0.000000,1.158069,-4.604391,-181.355331,-35.923759,-7.969669,-0.741318,-5.196432,-4.668740,-2.821370,-6.544111,-40.865463,-12.724025,1.981706,-10.349133,3.200312,47.400093,2.614269,-19.515181,1.586583,1.016017,-0.654335,-2.628332,-6.588969,-7.184741,-7.354491,-15.145028,-11.566525,-8.729202,-13.744727,-6.087536,-30.406599,-165.951996,0.000000,155.000000,4.000000,,,,0.000000,4.000000,4.000000,4.000000,4.000000,4.000000,4.000000,4.000000,4.000000,4.000000,4.000000,4.000000,4.000000,4.000000,4.000000,4.000000,4.000000,4.000000,4.000000,4.000000,4.000000,4.000000,4.000000,4.000000,4.000000,4.000000,4.000000,4.000000,4.000000,4.000000,4.000000,4.000000,4.000000,100.000000
1614391714.968013,16.000000,0.000000,1.156911,-4.599786,-185.789368,-35.375015,-8.987341,-0.740577,-5.191235,-5.176892,-3.331369,-6.024746,-40.311779,-11.172839,4.031006,-2.646477,12.940701,67.865517,2.098834,5.119719,14.405510,2.553463,-0.140860,-2.625704,-7.095200,-7.177557,-7.347136,-15.642703,-12.067779,-8.720472,-13.730982,-8.132730,-32.427475,-167.837326,0.000000,166.000000,4.000000,,,,0.000000,4.000000,4.000000,4.000000,4.000000,4.000000,4.000000,4.000000,4.000000,4.000000,4.000000,4.000000,4.000000,4.000000,4.000000,4.000000,4.000000,4.000000,4.000000,4.000000,4.000000,4.000000,4.000000,4.000000,4.000000,4.000000,4.000000,4.000000,4.000000,4.000000,4.000000,4.000000,4.000000,100.000000
1614391714.975863,17.000000,0.000000,1.155754,-5.108007,-189.193314,-36.878101,-10.003995,-0.739836,-5.186044,-3.633254,-2.815217,-5.505901,-37.707363,-10.648846,8.129539,12.740785,31.902121,100.618164,3.635196,25.114599,9.775720,1.012447,-0.140719,-2.623078,-7.088105,-7.170379,-7.852610,-15.627061,-11.542891,-8.711752,-13.717251,-9.150238,-34.446331,-167.669495,0.000000,195.000000,4.000000,,,,0.000000,4.000000,4.000000,4.000000,4.000000,4.000000,4.000000,4.000000,4.000000,4.000000,4.000000,4.000000,4.000000,4.000000,4.000000,4.000000,4.000000,4.000000,4.000000,4.000000,4.000000,4.000000,4.000000,4.000000,4.000000,4.000000,4.000000,4.000000,4.000000,4.000000,4.000000,4.000000,4.000000,100.000000
1614391714.983612,18.000000,0.000000,0.641777,-4.590078,-186.952835,-39.405327,-1.788862,-0.739096,-5.180858,-1.065518,-2.812402,-2.423472,-36.644016,-8.586915,8.634231,13.240865,27.767654,92.312416,5.682843,10.730510,9.765944,1.011435,-0.653399,-3.133276,-6.568196,-7.163208,-6.819116,-15.098613,-12.044168,-8.703040,-13.703534,-8.628267,-34.411884,-165.450546,0.000000,193.000000,4.000000,,,,0.000000,4.000000,4.000000,4.000000,4.000000,4.000000,4.000000,4.000000,4.000000,4.000000,4.000000,4.000000,4.000000,4.000000,4.000000,4.000000,4.000000,4.000000,4.000000,4.000000,4.000000,4.000000,4.000000,4.000000,4.000000,4.000000,4.000000,4.000000,4.000000,4.000000,4.000000,4.000000,4.000000,100.000000
1614391714.991461,19.000000,0.000000,1.153956,-4.585488,-184.201782,-35.263355,9.494978,-0.738357,-5.688498,-1.064452,-3.322410,-1.395407,-36.607372,-6.527046,6.061493,1.945572,10.303988,59.912411,6.189981,-9.280221,13.345922,2.548885,-0.652746,-2.104501,-7.074449,-5.104764,-4.248195,-15.596335,-12.032124,-8.694337,-13.689831,-8.619639,-34.377472,-168.362015,0.000000,210.000000,4.000000,,,,0.000000,4.000000,4.000000,4.000000,4.000000,4.000000,4.000000,4.000000,4.000000,4.000000,4.000000,4.000000,4.000000,4.000000,4.000000,4.000000,4.000000,4.000000,4.000000,4.000000,4.000000,4.000000,4.000000,4.000000,4.000000,4.000000,4.000000,4.000000,4.000000,4.000000,4.000000,4.000000,4.000000,100.000000
1614391714.999210,20.000000,0.000000,1.665623,-5.093723,-183.504761,-25.997324,9.485483,-0.737619,-4.657168,-1.576208,-2.293446,-2.419653,-37.083584,-8.058980,4.516970,-4.210219,7.729582,50.108910,4.132509,-6.706838,8.717191,0.495054,-0.652093,-0.563935,-6.554554,-3.048377,-3.218305,-15.580739,-12.020092,-9.198463,-13.676141,-8.611020,-34.343094,-171.270569,0.000000,190.000000,4.000000,,,,0.000000,4.000000,4.000000,4.000000,4.000000,4.000000,4.000000,4.000000,4.000000,4.000000,4.000000,4.000000,4.000000,4.000000,4.000000,4.000000,4.000000,4.000000,4.000000,4.000000,4.000000,4.000000,4.000000,4.000000,4.000000,4.000000,4.000000,4.000000,4.000000,4.000000,4.000000,4.000000,4.000000,100.000000
1614391715.007060,21.000000,0.000000,-0.387325,-2.011707,-180.757156,-20.843121,12.552920,-0.736881,-2.601229,-1.061811,0.785770,6.300715,-36.533680,-7.538101,3.999633,-3.180368,8.747494,41.340851,6.179658,-4.648849,9.221294,-0.018261,-1.164261,0.462270,-0.906974,-3.558149,-3.727908,-15.565158,-12.008072,-8.676445,-13.662464,-8.602408,-34.308750,-162.894180,0.000000,177.000000,4.000000,,,,0.000000,4.000000,4.000000,4.000000,4.000000,4.000000,4.000000,4.000000,4.000000,4.000000,4.000000,4.000000,4.000000,4.000000,4.000000,4.000000,4.000000,4.000000,4.000000,4.000000,4.000000,4.000000,4.000000,4.000000,4.000000,4.000000,4.000000,4.000000,4.000000,4.000000,4.000000,4.000000,4.000000,100.000000
1614391715.014809,22.000000,0.000000,1.664344,2.092869,-179.550766,-20.309458,23.822418,-0.736145,-1.060166,2.528994,3.861907,17.063646,-34.445866,-2.915178,9.636659,7.079223,16.431053,51.043098,16.942709,2.535287,17.930021,8.186885,-1.163097,3.025910,6.786241,-3.554590,-4.237000,-15.549593,-11.996063,-5.078024,-13.135982,-8.593806,-34.274441,-156.064621,0.000000,195.000000,4.000000,,,,0.000000,4.000000,4.000000,4.000000,4.000000,4.000000,4.000000,4.000000,4.000000,4.000000,4.000000,4.000000,4.000000,4.000000,4.000000,4.000000,4.000000,4.000000,4.000000,4.000000,4.000000,4.000000,4.000000,4.000000,4.000000,4.000000,4.000000,4.000000,4.000000,4.000000,4.000000,4.000000,4.000000,100.000000
1614391715.022658,23.000000,0.000000,7.816526,3.629238,-181.935303,-20.289148,19.696032,-0.735408,-1.571926,6.116209,4.883687,14.995299,-33.898598,0.677481,15.780869,15.277271,30.260777,83.812569,22.566793,12.789162,7.142861,12.281262,-0.649113,4.561346,8.830737,-0.986933,-3.207122,-15.021223,-11.984068,-1.483203,-13.122846,-8.585213,-34.240170,-166.164963,0.000000,175.000000,4.000000,,,,0.000000,4.000000,4.000000,4.000000,4.000000,4.000000,4.000000,4.000000,4.000000,4.000000,4.000000,4.000000,4.000000,4.000000,4.000000,4.000000,4.000000,4.000000,4.000000,4.000000,4.000000,4.000000,4.000000,4.000000,4.000000,4.000000,4.000000,4.000000,4.000000,4.000000,4.000000,4.000000,4.000000,100.000000
1614391715.030407,24.000000,0.000000,5.244607,2.599968,-183.291840,-20.268860,6.855824,-1.247494,-1.570354,6.622913,4.878803,9.339279,-35.915981,-2.400120,12.688165,3.979943,18.435644,66.805679,11.774995,-10.300550,-18.505308,5.602314,-1.674105,4.043964,7.796265,0.552515,-3.203915,-15.006202,-11.972083,-0.968899,-13.622543,-8.063807,-33.693108,-172.665466,0.000000,189.000000,4.000000,,,,0.000000,4.000000,4.000000,4.000000,4.000000,4.000000,4.000000,4.000000,4.000000,4.000000,4.000000,4.000000,4.000000,4.000000,4.000000,4.000000,4.000000,4.000000,4.000000,4.000000,4.000000,4.000000,4.000000,4.000000,4.000000,4.000000,4.000000,4.000000,4.000000,4.000000,4.000000,4.000000,4.000000,100.000000
1614391715.038257,25.000000,0.000000,1.136798,2.597368,-182.595718,-19.222950,14.028455,-0.220605,-1.568784,6.103469,4.873924,11.894042,-36.905708,-4.449002,14.213938,-2.177883,8.160798,34.431183,10.224758,-15.931275,-5.153469,13.289020,1.917312,7.629663,8.301290,-0.986499,-4.226352,-14.991196,-12.472932,-1.480751,-13.096100,-7.542922,-33.659412,-166.338943,0.000000,170.000000,4.000000,,,,0.000000,4.000000,4.000000,4.000000,4.000000,4.000000,4.000000,4.000000,4.000000,4.000000,4.000000,4.000000,4.000000,4.000000,4.000000,4.000000,4.000000,4.000000,4.000000,4.000000,4.000000,4.000000,4.000000,4.000000,4.000000,4.000000,4.000000,4.000000,4.000000,4.000000,4.000000,4.000000,4.000000,100.000000
1614391715.046006,26.000000,0.000000,9.853610,3.107591,-182.413132,-21.255009,20.681093,1.830898,-1.567215,6.097366,4.869050,15.471891,-36.355980,1.709293,28.558699,17.311474,34.306484,67.217262,27.650431,16.905169,27.672197,34.301373,9.607702,15.827162,10.344270,1.578590,-0.119562,-12.412102,-11.434818,-1.479270,-13.083004,-8.561021,-34.138577,-167.198257,0.000000,176.000000,4.000000,,,,0.000000,4.000000,4.000000,4.000000,4.000000,4.000000,4.000000,4.000000,4.000000,4.000000,4.000000,4.000000,4.000000,4.000000,4.000000,4.000000,4.000000,4.000000,4.000000,4.000000,4.000000,4.000000,4.000000,4.000000,4.000000,4.000000,4.000000,4.000000,4.000000,4.000000,4.000000,4.000000,4.000000,100.000000
1614391715.053755,27.000000,0.000000,14.971962,3.104483,-185.307632,-24.823498,7.327079,3.367528,-1.565648,6.091269,4.864181,11.866676,-36.319626,7.348610,34.683987,27.550573,44.015766,99.970558,35.315090,28.683136,31.747089,37.856815,15.751941,19.913898,11.872387,8.756498,3.470301,-10.348408,-8.859281,-0.964970,-16.146845,-8.039639,-33.591618,-172.159256,0.000000,204.000000,4.000000,,,,0.000000,4.000000,4.000000,4.000000,4.000000,4.000000,4.000000,4.000000,4.000000,4.000000,4.000000,4.000000,4.000000,4.000000,4.000000,4.000000,4.000000,4.000000,4.000000,4.000000,4.000000,4.000000,4.000000,4.000000,4.000000,4.000000,4.000000,4.000000,4.000000,4.000000,4.000000,4.000000,4.000000,100.000000
1614391715.061505,28.000000,0.000000,6.751862,-1.001185,-188.712082,-27.362776,-3.449479,2.851340,-1.564082,6.085177,3.320855,6.213784,-36.796127,5.802800,26.956993,14.702510,21.407648,67.562897,23.997723,-0.576317,18.894829,31.152290,17.274651,18.868343,11.347694,14.388768,-1.661374,-14.440623,-7.824780,-1.476826,-20.233261,-7.005959,-33.558025,-172.499924,0.000000,181.000000,4.000000,,,,0.000000,4.000000,4.000000,4.000000,4.000000,4.000000,4.000000,4.000000,4.000000,4.000000,4.000000,4.000000,4.000000,4.000000,4.000000,4.000000,4.000000,4.000000,4.000000,4.000000,4.000000,4.000000,4.000000,4.000000,4.000000,4.000000,4.000000,4.000000,4.000000,4.000000,4.000000,4.000000,4.000000,100.000000
1614391715.069154,29.000000,0.000000,4.181007,-4.589928,-189.548996,-30.412336,-1.394748,3.361310,-1.562518,6.079092,-0.272209,6.207570,-36.246510,3.232894,20.776192,6.482679,19.847780,52.623539,18.332699,-1.601382,18.875935,29.582676,13.667632,18.849476,11.336347,15.912841,-8.326379,-24.169773,-8.329776,-1.475349,-21.238668,-13.665619,-38.139851,-180.532547,0.000000,185.000000,4.000000,,,,0.000000,4.000000,4.000000,4.000000,4.000000,4.000000,4.000000,4.000000,4.000000,4.000000,4.000000,4.000000,4.000000,4.000000,4.000000,4.000000,4.000000,4.000000,4.000000,4.000000,4.000000,4.000000,4.000000,4.000000,4.000000,4.000000,4.000000,4.000000,4.000000,4.000000,4.000000,4.000000,4.000000,100.000000
1614391715.076903,30.000000,0.000000,8.792211,-4.585338,-189.872269,-34.484489,-0.367712,3.357948,-1.560956,6.073013,-3.348860,5.688542,-36.210262,3.229661,18.191313,9.040298,25.468958,70.519630,20.878468,-0.574139,2.446802,20.322325,1.859093,19.343447,11.837831,13.332826,-13.446258,-29.786629,-8.321446,-1.473874,-20.191790,-24.421185,-45.794018,-194.710983,0.000000,210.000000,4.000000,,,,0.000000,4.000000,4.000000,4.000000,4.000000,4.000000,4.000000,4.000000,4.000000,4.000000,4.000000,4.000000,4.000000,4.000000,4.000000,4.000000,4.000000,4.000000,4.000000,4.000000,4.000000,4.000000,4.000000,4.000000,4.000000,4.000000,4.000000,4.000000,4.000000,4.000000,4.000000,4.000000,4.000000,100.000000
1614391715.084553,31.000000,0.000000,8.783419,-5.093573,-192.246506,-35.988464,-1.905806,2.841770,-1.559395,6.066940,-3.345511,-0.983813,-36.174053,3.739252,16.121840,9.544079,16.212719,63.782448,19.319128,-12.368437,-13.965901,9.019951,-5.322253,18.811283,11.313172,7.165646,-18.561016,-30.269663,-7.800304,-1.472400,-20.684418,-27.473686,-48.825150,-198.618851,0.000000,163.000000,4.000000,,,,0.000000,4.000000,4.000000,4.000000,4.000000,4.000000,4.000000,4.000000,4.000000,4.000000,4.000000,4.000000,4.000000,4.000000,4.000000,4.000000,4.000000,4.000000,4.000000,4.000000,4.000000,4.000000,4.000000,4.000000,4.000000,4.000000,4.000000,4.000000,4.000000,4.000000,4.000000,4.000000,4.000000,100.000000
1614391715.092302,32.000000,0.000000,7.236174,-3.550018,-193.079895,-34.926834,-1.391079,3.864569,-1.557835,6.573694,-2.829345,-6.111034,-36.650700,3.735513,15.592896,7.996073,18.760609,57.564819,20.325451,0.977265,5.535244,14.139136,4.939479,18.792471,11.301860,3.055917,-11.875790,-29.726572,-8.305325,-0.958107,-20.663734,-25.907751,-48.263504,-196.368942,8064.000000,0.000000,4.000000,,,,0.000000,4.000000,4.000000,4.000000,4.000000,4.000000,4.000000,4.000000,4.000000,4.000000,4.000000,4.000000,4.000000,4.000000,4.000000,4.000000,4.000000,4.000000,4.000000,4.000000,4.000000,4.000000,4.000000,4.000000,4.000000,4.000000,4.000000,4.000000,4.000000,4.000000,4.000000,4.000000,4.000000,100.000000
1614391715.099952,33.000000,0.000000,8.254579,-1.495186,-191.861176,-34.891911,-0.876868,2.835063,-1.556278,5.028658,-3.339336,-3.028001,-36.614048,2.706136,14.551662,5.423975,24.382874,50.840588,25.433331,7.130134,17.837400,23.355766,14.165309,18.773680,11.290558,3.565681,-1.607503,-30.209665,-8.297019,-2.495610,-20.643070,-26.394663,-48.215240,-197.198212,8064.000000,0.000000,4.000000,,,,0.000000,4.000000,4.000000,4.000000,4.000000,4.000000,4.000000,4.000000,4.000000,4.000000,4.000000,4.000000,4.000000,4.000000,4.000000,4.000000,4.000000,4.000000,4.000000,4.000000,4.000000,4.000000,4.000000,4.000000,4.000000,4.000000,4.000000,4.000000,4.000000,4.000000,4.000000,4.000000,4.000000,100.000000
1614391715.107701,34.000000,0.000000,8.246324,-4.057793,-192.182144,-36.395477,-0.875991,-2.808797,-1.554721,2.972348,-2.823176,-1.999331,-36.064613,0.652148,12.485828,2.341628,16.666183,36.430771,23.869434,-14.415458,0.383666,22.819590,7.484477,18.754906,8.715164,3.562115,-8.272562,-29.666636,-8.288722,-5.057217,-20.622427,-26.881090,-48.679844,-196.488190,8064.000000,0.000000,4.000000,,,,0.000000,4.000000,4.000000,4.000000,4.000000,4.000000,4.000000,4.000000,4.000000,4.000000,4.000000,4.000000,4.000000,4.000000,4.000000,4.000000,4.000000,4.000000,4.000000,4.000000,4.000000,4.000000,4.000000,4.000000,4.000000,4.000000,4.000000,4.000000,4.000000,4.000000,4.000000,4.000000,4.000000,100.000000
1614391715.115350,35.000000,0.000000,8.238078,-8.669120,-191.989960,-38.410366,-0.875115,-4.857271,-1.553167,1.943734,-2.820353,-5.074255,-35.515728,-0.886965,12.473343,1.313645,15.111055,43.061008,19.743002,-17.477966,-3.206461,21.771130,0.810326,18.736151,7.680808,3.045733,-17.495058,-29.636969,-8.280434,-5.564981,-20.601805,-26.341389,-48.118343,-193.214783,8064.000000,0.000000,4.000000,,,,0.000000,4.000000,4.000000,4.000000,4.000000,4.000000,4.000000,4.000000,4.000000,4.000000,4.000000,4.000000,4.000000,4.000000,4.000000,4.000000,4.000000,4.000000,4.000000,4.000000,4.000000,4.000000,4.000000,4.000000,4.000000,4.000000,4.000000,4.000000,4.000000,4.000000,4.000000,4.000000,4.000000,100.000000
1614391715.123200,36.000000,0.000000,8.229839,-7.634810,-190.772324,-38.371956,-0.361419,-3.826772,-1.551613,2.454611,-2.817533,-6.094822,-37.018673,-0.373258,11.435228,-0.738951,16.634407,48.658974,21.774540,-10.793820,2.437771,23.287821,3.886439,18.717415,10.237230,3.042687,-14.913462,-29.094511,-8.272153,-4.533774,-20.068382,-25.802227,-47.557404,-191.483109,8064.000000,0.000000,4.000000,,,,0.000000,4.000000,4.000000,4.000000,4.000000,4.000000,4.000000,4.000000,4.000000,4.000000,4.000000,4.000000,4.000000,4.000000,4.000000,4.000000,4.000000,4.000000,4.000000,4.000000,4.000000,4.000000,4.000000,4.000000,4.000000,4.000000,4.000000,4.000000,4.000000,4.000000,4.000000,4.000000,4.000000,100.000000
1614391715.130949,37.000000,0.000000,8.221610,-7.114355,-191.094376,-37.307941,-0.361058,-7.412689,-1.550062,2.452157,-2.814715,-4.550266,-34.930374,-0.372885,13.475076,3.877173,21.233156,55.789799,23.804049,-11.808668,-8.846718,23.777353,2.856911,18.698696,11.252634,3.552465,-14.898548,-29.065416,-8.263881,-5.042061,-20.048313,-25.776424,-47.509846,-191.804443,8064.000000,0.000000,4.000000,,,,0.000000,4.000000,4.000000,4.000000,4.000000,4.000000,4.000000,4.000000,4.000000,4.000000,4.000000,4.000000,4.000000,4.000000,4.000000,4.000000,4.000000,4.000000,4.000000,4.000000,4.000000,4.000000,4.000000,4.000000,4.000000,4.000000,4.000000,4.000000,4.000000,4.000000,4.000000,4.000000,4.000000,100.000000
1614391715.138798,38.000000,0.000000,8.213388,-9.671343,-194.493027,-38.296276,-0.873517,-12.020661,-1.548512,2.449704,-2.811901,-5.058536,-29.254417,-0.372512,18.589806,16.180988,41.724743,88.554520,23.267424,-1.540449,-14.478897,22.727934,-0.222869,18.679998,11.754202,3.548912,-17.960573,-29.036352,-8.255617,-5.037019,-20.541086,-26.263468,-47.975159,-191.612640,8064.000000,0.000000,4.000000,,,,0.000000,4.000000,4.000000,4.000000,4.000000,4.000000,4.000000,4.000000,4.000000,4.000000,4.000000,4.000000,4.000000,4.000000,4.000000,4.000000,4.000000,4.000000,4.000000,4.000000,4.000000,4.000000,4.000000,4.000000,4.000000,4.000000,4.000000,4.000000,4.000000,4.000000,4.000000,4.000000,4.000000,100.000000
1614391715.146547,39.000000,0.000000,8.205174,-3.507825,-193.785706,-38.770798,-0.872644,-8.418897,-1.546963,2.447255,-2.809089,-5.053477,-30.763624,-0.372139,17.545574,15.651986,43.221481,85.389046,22.731337,-5.641473,-5.233649,22.705206,3.367098,18.148497,14.306550,3.545363,-13.327228,-29.007315,-8.247361,-4.519162,-20.007725,-25.724384,-47.414364,-190.908203,8064.000000,0.000000,4.000000,,,,0.000000,4.000000,4.000000,4.000000,4.000000,4.000000,4.000000,4.000000,4.000000,4.000000,4.000000,4.000000,4.000000,4.000000,4.000000,4.000000,4.000000,4.000000,4.000000,4.000000,4.000000,4.000000,4.000000,4.000000,4.000000,4.000000,4.000000,4.000000,4.000000,4.000000,4.000000,4.000000,4.000000,100.000000
1614391715.154397,40.000000,0.000000,8.196970,2.649529,-191.027817,-36.680748,-0.358951,-3.282273,-1.545416,2.957628,-2.806280,-5.561244,-38.425167,-0.371767,12.399824,5.892745,18.562874,52.995964,23.221424,-27.174294,-2.151492,23.195322,5.927833,19.155991,14.292244,3.541818,-11.775438,-28.978308,-7.726294,-4.514643,-19.474895,-25.698660,-47.879768,-188.666016,8064.000000,0.000000,4.000000,,,,0.000000,4.000000,4.000000,4.000000,4.000000,4.000000,4.000000,4.000000,4.000000,4.000000,4.000000,4.000000,4.000000,4.000000,4.000000,4.000000,4.000000,4.000000,4.000000,4.000000,4.000000,4.000000,4.000000,4.000000,4.000000,4.000000,4.000000,4.000000,4.000000,4.000000,4.000000,4.000000,4.000000,100.000000
1614391715.162146,41.000000,0.000000,8.188772,-8.635172,-196.990646,-42.285091,-4.973977,-4.817452,-3.082332,0.903388,-4.854755,-5.555683,-40.438026,-0.371395,10.848963,7.425313,15.980209,52.430149,23.198204,-21.506092,-5.226264,21.120844,1.819341,18.111193,11.201028,3.538276,-18.943150,-32.026253,-10.282670,-6.561410,-24.583626,-27.211422,-50.908813,-187.451706,8064.000000,0.000000,4.000000,,,,0.000000,4.000000,4.000000,4.000000,4.000000,4.000000,4.000000,4.000000,4.000000,4.000000,4.000000,4.000000,4.000000,4.000000,4.000000,4.000000,4.000000,4.000000,4.000000,4.000000,4.000000,4.000000,4.000000,4.000000,4.000000,4.000000,4.000000,4.000000,4.000000,4.000000,4.000000,4.000000,4.000000,100.000000
1614391715.169995,42.000000,0.000000,8.180584,-22.985512,-207.562881,-55.063320,-13.686951,-8.402378,-5.130532,-1.661618,-6.901183,-5.037307,-40.397587,-0.883844,12.376575,12.033273,30.836023,74.429001,23.175005,-3.535869,-5.733858,14.945877,-1.772222,13.477697,10.677007,1.483456,-22.513950,-35.583969,-11.810848,-8.606131,-30.712889,-29.235493,-51.370724,-191.366821,8064.000000,0.000000,4.000000,,,,0.000000,4.000000,4.000000,4.000000,4.000000,4.000000,4.000000,4.000000,4.000000,4.000000,4.000000,4.000000,4.000000,4.000000,4.000000,4.000000,4.000000,4.000000,4.000000,4.000000,4.000000,4.000000,4.000000,4.000000,4.000000,4.000000,4.000000,4.000000,4.000000,4.000000,4.000000,4.000000,4.000000,100.000000
1614391715.177744,43.000000,0.000000,8.172403,-20.911243,-209.406601,-53.982613,-15.211726,-8.393976,-5.638222,-1.659956,-6.381461,-6.057910,-43.434113,-0.370140,12.364199,8.944317,28.753906,65.636620,23.151831,-5.583615,-3.164021,11.341187,-1.770450,10.900117,11.179151,-1.594951,-21.978617,-36.574028,-11.799038,-8.597525,-31.707817,-30.231899,-50.806534,-199.893402,8064.000000,0.000000,4.000000,,,,0.000000,4.000000,4.000000,4.000000,4.000000,4.000000,4.000000,4.000000,4.000000,4.000000,4.000000,4.000000,4.000000,4.000000,4.000000,4.000000,4.000000,4.000000,4.000000,4.000000,4.000000,4.000000,4.000000,4.000000,4.000000,4.000000,4.000000,4.000000,4.000000,4.000000,4.000000,4.000000,4.000000,100.000000
1614391715.185594,44.000000,0.000000,8.164231,-15.249307,-205.607452,-41.108120,-8.017027,-5.821479,-5.632584,-1.658296,-6.375080,-5.539032,-43.390678,-0.882590,10.813373,6.884090,24.622587,56.340218,23.128679,-12.757519,-3.673678,10.817026,-0.743038,10.889216,10.655150,-3.644638,-21.443817,-37.050274,-12.300059,-8.588927,-31.163288,-30.201666,-51.781368,-197.642227,8064.000000,0.000000,4.000000,,,,0.000000,4.000000,4.000000,4.000000,4.000000,4.000000,4.000000,4.000000,4.000000,4.000000,4.000000,4.000000,4.000000,4.000000,4.000000,4.000000,4.000000,4.000000,4.000000,4.000000,4.000000,4.000000,4.000000,4.000000,4.000000,4.000000,4.000000,4.000000,4.000000,4.000000,4.000000,4.000000,4.000000,100.000000
1614391715.193343,45.000000,0.000000,8.156067,-13.695596,-203.863373,-36.451626,-1.855164,-4.277196,-4.088490,-1.656638,-6.368704,2.158814,-41.296005,-0.368887,12.341021,7.390027,30.238991,58.847977,23.105549,-12.231940,-6.234107,10.806209,0.283346,9.852687,13.721418,-4.153813,-20.396732,-36.500404,-10.749297,-8.580338,-31.644945,-27.607363,-50.191124,-178.983047,8064.000000,0.000000,4.000000,,,,0.000000,4.000000,4.000000,4.000000,4.000000,4.000000,4.000000,4.000000,4.000000,4.000000,4.000000,4.000000,4.000000,4.000000,4.000000,4.000000,4.000000,4.000000,4.000000,4.000000,4.000000,4.000000,4.000000,4.000000,4.000000,4.000000,4.000000,4.000000,4.000000,4.000000,4.000000,4.000000,4.000000,100.000000
1614391715.201192,46.000000,0.000000,8.147910,-10.092156,-205.197983,-38.466457,-0.827667,-4.272919,-2.033119,2.447583,-4.311054,9.848964,-38.690609,2.195584,20.533808,11.485201,34.824135,65.968620,23.082443,-0.937657,4.028538,17.462069,1.821524,13.945398,17.810261,-3.636839,-19.350695,-34.412621,-6.123164,-8.571757,-29.049198,-23.477192,-45.525547,-171.624573,8064.000000,0.000000,4.000000,,,,0.000000,4.000000,4.000000,4.000000,4.000000,4.000000,4.000000,4.000000,4.000000,4.000000,4.000000,4.000000,4.000000,4.000000,4.000000,4.000000,4.000000,4.000000,4.000000,4.000000,4.000000,4.000000,4.000000,4.000000,4.000000,4.000000,4.000000,4.000000,4.000000,4.000000,4.000000,4.000000,4.000000,100.000000
1614391715.208942,47.000000,0.000000,8.139763,-7.005142,-204.992783,-37.915169,-1.852481,-4.781466,-1.005445,8.598982,-2.768281,9.326294,-34.549351,5.783132,27.179941,17.114740,40.943157,80.261620,23.059362,15.986358,27.614252,27.188196,8.486369,23.162222,18.818092,-1.069100,-15.228780,-33.352566,-3.552938,-8.563186,-27.481688,-21.402431,-42.915920,-185.299103,8064.000000,0.000000,4.000000,,,,0.000000,4.000000,4.000000,4.000000,4.000000,4.000000,4.000000,4.000000,4.000000,4.000000,4.000000,4.000000,4.000000,4.000000,4.000000,4.000000,4.000000,4.000000,4.000000,4.000000,4.000000,4.000000,4.000000,4.000000,4.000000,4.000000,4.000000,4.000000,4.000000,4.000000,4.000000,4.000000,4.000000,100.000000
1614391715.216791,48.000000,0.000000,8.131623,-7.510957,-195.044189,-37.364433,0.200654,-2.212583,-1.517260,10.128844,-2.765513,9.316968,-31.437880,7.315811,27.152761,18.636087,47.568882,84.796745,23.036303,20.072935,36.304588,30.750753,18.734293,27.241623,18.286453,2.008892,-5.982782,-30.755112,-4.575026,-8.554623,-27.454206,-19.842567,-43.898643,-186.139450,8064.000000,0.000000,4.000000,,,,0.000000,4.000000,4.000000,4.000000,4.000000,4.000000,4.000000,4.000000,4.000000,4.000000,4.000000,4.000000,4.000000,4.000000,4.000000,4.000000,4.000000,4.000000,4.000000,4.000000,4.000000,4.000000,4.000000,4.000000,4.000000,4.000000,4.000000,4.000000,4.000000,4.000000,4.000000,4.000000,4.000000,100.000000
1614391715.224540,49.000000,0.000000,8.123491,-6.990625,-184.592743,-36.814247,5.328658,-0.159088,-1.515743,9.605895,-2.762747,10.846112,-31.919262,6.795674,26.612787,23.232836,48.034134,93.942719,23.013266,18.514400,24.986231,31.232822,22.818123,25.675920,18.268167,3.545345,-1.361414,-26.108973,-4.570451,-8.546068,-24.349829,-17.771442,-43.854748,-172.107162,8064.000000,0.000000,4.000000,,,,0.000000,4.000000,4.000000,4.000000,4.000000,4.000000,4.000000,4.000000,4.000000,4.000000,4.000000,4.000000,4.000000,4.000000,4.000000,4.000000,4.000000,4.000000,4.000000,4.000000,4.000000,4.000000,4.000000,4.000000,4.000000,4.000000,4.000000,4.000000,4.000000,4.000000,4.000000,4.000000,4.000000,100.000000
1614391715.232389,50.000000,0.000000,8.115368,-8.009275,-186.972260,-37.803078,6.348970,-0.671749,-1.001407,10.621930,-2.759984,4.168600,-31.887344,7.301699,27.611816,28.337809,47.986099,107.694931,22.990253,13.880502,16.243296,28.637487,20.744022,25.650244,18.249899,3.541800,-3.411335,-24.544401,-4.053060,-8.537522,-23.299837,-18.266493,-43.298073,-171.422226,8064.000000,0.000000,4.000000,,,,0.000000,4.000000,4.000000,4.000000,4.000000,4.000000,4.000000,4.000000,4.000000,4.000000,4.000000,4.000000,4.000000,4.000000,4.000000,4.000000,4.000000,4.000000,4.000000,4.000000,4.000000,4.000000,4.000000,4.000000,4.000000,4.000000,4.000000,4.000000,4.000000,4.000000,4.000000,4.000000,4.000000,100.000000
1614391715.240139,51.000000,0.000000,8.107252,-7.488446,-190.887848,-39.303734,6.855442,-0.671078,-2.026046,8.560026,-2.757225,-0.450954,-31.855455,6.781577,26.045742,21.129984,47.425293,89.638519,22.967262,-3.056456,16.227053,23.993465,21.748920,26.137415,18.231649,3.538258,-3.407923,-25.545498,-4.561828,-8.528984,-25.327820,-19.273867,-43.254772,-178.943115,8064.000000,0.000000,4.000000,,,,0.000000,4.000000,4.000000,4.000000,4.000000,4.000000,4.000000,4.000000,4.000000,4.000000,4.000000,4.000000,4.000000,4.000000,4.000000,4.000000,4.000000,4.000000,4.000000,4.000000,4.000000,4.000000,4.000000,4.000000,4.000000,4.000000,4.000000,4.000000,4.000000,4.000000,4.000000,4.000000,4.000000,100.000000
1614391715.247988,52.000000,0.000000,8.099145,-4.404035,-184.030289,-33.623405,9.925509,-1.183227,-1.511200,6.500184,-1.216006,5.703343,-31.823601,6.774795,27.558159,21.108854,47.377869,80.318108,22.944296,-0.489297,15.698006,27.046394,21.727171,25.598457,18.213417,3.534720,-1.866054,-22.955851,-4.557266,-8.520455,-17.610184,-16.177670,-43.724339,-178.764175,8064.000000,0.000000,4.000000,,,,0.000000,4.000000,4.000000,4.000000,4.000000,4.000000,4.000000,4.000000,4.000000,4.000000,4.000000,4.000000,4.000000,4.000000,4.000000,4.000000,4.000000,4.000000,4.000000,4.000000,4.000000,4.000000,4.000000,4.000000,4.000000,4.000000,4.000000,4.000000,4.000000,4.000000,4.000000,4.000000,4.000000,100.000000
1614391715.255737,53.000000,0.000000,8.603867,-7.476553,-178.205231,-31.025679,6.325840,-0.669223,-0.996868,8.544966,0.836492,11.338666,-31.278957,7.280841,29.581882,34.421078,48.868950,111.519844,22.921350,23.613756,12.605385,32.147552,17.090059,25.572859,18.195204,5.582467,-5.453932,-20.881613,-4.552709,-8.511935,-12.464369,-14.110210,-43.680614,-179.611053,8064.000000,0.000000,4.000000,,,,0.000000,4.000000,4.000000,4.000000,4.000000,4.000000,4.000000,4.000000,4.000000,4.000000,4.000000,4.000000,4.000000,4.000000,4.000000,4.000000,4.000000,4.000000,4.000000,4.000000,4.000000,4.000000,4.000000,4.000000,4.000000,4.000000,4.000000,4.000000,4.000000,4.000000,4.000000,4.000000,4.000000,100.000000
1614391715.263486,54.000000,0.000000,7.056801,-15.161385,-185.206512,-40.738243,-2.911254,-0.155734,-4.072794,6.997959,0.835656,8.250403,-33.811779,5.735098,24.936916,29.258451,42.153416,108.331398,22.385609,20.513220,12.592779,24.935919,12.970405,25.547285,17.664188,7.628167,-10.063862,-21.373550,-4.548156,-8.503423,-24.759598,-18.711485,-43.636932,-185.072464,8064.000000,0.000000,4.000000,,,,0.000000,4.000000,4.000000,4.000000,4.000000,4.000000,4.000000,4.000000,4.000000,4.000000,4.000000,4.000000,4.000000,4.000000,4.000000,4.000000,4.000000,4.000000,4.000000,4.000000,4.000000,4.000000,4.000000,4.000000,4.000000,4.000000,4.000000,4.000000,4.000000,4.000000,4.000000,4.000000,4.000000,100.000000
1614391715.271236,55.000000,0.000000,4.998462,-15.659044,-195.277725,-45.312889,-5.985266,-2.206860,-4.581542,2.375576,0.834820,4.139589,-37.880531,3.165261,19.270954,7.690732,28.265108,75.915375,22.876043,-2.584217,14.118648,18.244316,12.957435,25.521738,17.646524,7.107718,-11.592260,-21.864998,-4.543608,-8.494920,-28.324581,-22.795338,-43.593296,-185.913025,7936.000000,0.000000,4.000000,,,,0.000000,4.000000,4.000000,4.000000,4.000000,4.000000,4.000000,4.000000,4.000000,4.000000,4.000000,4.000000,4.000000,4.000000,4.000000,4.000000,4.000000,4.000000,4.000000,4.000000,4.000000,4.000000,4.000000,4.000000,4.000000,4.000000,4.000000,4.000000,4.000000,4.000000,4.000000,4.000000,4.000000,100.000000
1614391715.279085,56.000000,0.000000,3.967823,-12.053641,-199.185013,-36.549629,-3.927999,0.359449,0.038424,1.347560,1.346806,2.596988,-39.893932,2.649275,18.226042,-1.547728,20.031715,53.275356,22.853168,-15.914966,0.771196,17.200430,13.457297,25.496216,18.141697,7.100610,-9.016565,-21.330313,-4.539064,-8.486424,-15.988564,-18.669977,-43.549706,-184.701477,8064.000000,0.000000,4.000000,,,,0.000000,4.000000,4.000000,4.000000,4.000000,4.000000,4.000000,4.000000,4.000000,4.000000,4.000000,4.000000,4.000000,4.000000,4.000000,4.000000,4.000000,4.000000,4.000000,4.000000,4.000000,4.000000,4.000000,4.000000,4.000000,4.000000,4.000000,4.000000,4.000000,4.000000,4.000000,4.000000,4.000000,100.000000
1614391715.286834,57.000000,0.000000,3.963855,-11.528767,-198.473007,-32.923336,-4.436892,6.000116,1.576847,1.859033,0.319818,2.081571,-39.854038,3.159446,18.720636,-1.033360,17.960402,50.657978,22.317493,-27.693922,-17.178293,12.567845,12.931020,25.470720,18.123556,7.093510,-6.956266,-21.821802,-4.534525,-8.477939,-15.972576,-14.035923,-43.506153,-184.003952,8064.000000,0.000000,4.000000,,,,0.000000,4.000000,4.000000,4.000000,4.000000,4.000000,4.000000,4.000000,4.000000,4.000000,4.000000,4.000000,4.000000,4.000000,4.000000,4.000000,4.000000,4.000000,4.000000,4.000000,4.000000,4.000000,4.000000,4.000000,4.000000,4.000000,4.000000,4.000000,4.000000,4.000000,4.000000,4.000000,4.000000,100.000000
1614391715.294484,58.000000,0.000000,4.985532,-12.030059,-198.787354,-37.505795,-5.458096,3.942833,-1.501653,1.857174,-0.193322,1.566669,-38.788544,3.156287,19.727556,6.147161,18.968082,60.863731,23.320818,-23.563665,-3.314961,16.657843,12.918089,25.445250,17.079792,7.086416,-8.487772,-21.799980,-4.529990,-8.982281,-24.674551,-14.534708,-43.462646,-185.358414,8064.000000,0.000000,4.000000,,,,0.000000,4.000000,4.000000,4.000000,4.000000,4.000000,4.000000,4.000000,4.000000,4.000000,4.000000,4.000000,4.000000,4.000000,4.000000,4.000000,4.000000,4.000000,4.000000,4.000000,4.000000,4.000000,4.000000,4.000000,4.000000,4.000000,4.000000,4.000000,4.000000,4.000000,4.000000,4.000000,4.000000,100.000000
1614391715.302233,59.000000,0.000000,7.031828,-12.018029,-199.101379,-37.981110,-5.452638,-0.676494,-2.012971,4.419419,2.370974,1.052281,-34.134373,3.153131,21.759111,22.038450,26.128601,84.392609,25.348780,-3.540101,23.867842,29.461697,12.905170,24.906984,20.139635,7.079329,-10.530566,-21.778181,-5.038281,-8.460478,-20.034492,-15.545815,-43.419186,-188.249985,8064.000000,0.000000,4.000000,,,,0.000000,4.000000,4.000000,4.000000,4.000000,4.000000,4.000000,4.000000,4.000000,4.000000,4.000000,4.000000,4.000000,4.000000,4.000000,4.000000,4.000000,4.000000,4.000000,4.000000,4.000000,4.000000,4.000000,4.000000,4.000000,4.000000,4.000000,4.000000,4.000000,4.000000,4.000000,4.000000,4.000000,100.000000
1614391715.309882,60.000000,0.000000,8.563258,-11.493190,-197.876633,-36.917488,-4.421544,2.401106,-2.010958,5.953461,4.419885,2.076870,-31.023314,3.149977,22.250172,23.554873,32.256317,86.872322,26.349072,-4.562202,19.741409,30.970697,12.892265,25.394897,24.734880,6.559430,-10.520036,-21.243582,-4.520422,-8.452018,-14.886253,-14.504627,-43.375767,-188.061722,8064.000000,0.000000,4.000000,,,,0.000000,4.000000,4.000000,4.000000,4.000000,4.000000,4.000000,4.000000,4.000000,4.000000,4.000000,4.000000,4.000000,4.000000,4.000000,4.000000,4.000000,4.000000,4.000000,4.000000,4.000000,4.000000,4.000000,4.000000,4.000000,4.000000,4.000000,4.000000,4.000000,4.000000,4.000000,4.000000,4.000000,100.000000
1614391715.317632,61.000000,0.000000,8.041875,-9.943235,-198.191589,-37.393391,-4.929943,7.014089,-1.496127,4.921867,3.389824,1.561973,-33.556393,3.146827,23.253563,11.736446,32.736881,82.170067,26.322721,-9.173024,-2.329614,25.811522,13.905014,24.343861,24.197325,7.065691,-11.022336,-22.247980,-4.515902,-8.956387,-16.409828,-14.490123,-43.845211,-187.873672,8064.000000,0.000000,4.000000,,,,0.000000,4.000000,4.000000,4.000000,4.000000,4.000000,4.000000,4.000000,4.000000,4.000000,4.000000,4.000000,4.000000,4.000000,4.000000,4.000000,4.000000,4.000000,4.000000,4.000000,4.000000,4.000000,4.000000,4.000000,4.000000,4.000000,4.000000,4.000000,4.000000,4.000000,4.000000,4.000000,4.000000,100.000000
1614391715.325281,62.000000,0.000000,8.033833,-7.882010,-197.480576,-37.355999,-5.950654,7.007075,4.146395,10.045150,6.463357,1.047590,-28.907454,3.143681,25.794413,12.750351,32.704147,88.241737,25.783579,0.579739,-10.532413,25.785709,12.865468,21.755415,21.609024,7.058625,-9.472852,-21.712912,-5.024206,-6.383327,-14.854957,-15.501273,-43.288544,-190.762711,8064.000000,0.000000,4.000000,,,,0.000000,4.000000,4.000000,4.000000,4.000000,4.000000,4.000000,4.000000,4.000000,4.000000,4.000000,4.000000,4.000000,4.000000,4.000000,4.000000,4.000000,4.000000,4.000000,4.000000,4.000000,4.000000,4.000000,4.000000,4.000000,4.000000,4.000000,4.000000,4.000000,4.000000,4.000000,4.000000,4.000000,100.000000
1614391715.333031,63.000000,0.000000,8.025799,-5.822846,-190.616425,-37.831463,-0.816498,8.538529,9.783274,18.753054,16.200483,9.764491,-17.596495,3.140537,26.281439,22.481190,31.132980,79.435547,27.296257,-3.523405,-2.316752,26.272743,13.365423,21.733660,21.587416,6.538746,-4.847995,-17.075813,-2.967900,-0.223098,-12.788820,-13.947310,-38.117050,-190.059128,8064.000000,0.000000,4.000000,,,,0.000000,4.000000,4.000000,4.000000,4.000000,4.000000,4.000000,4.000000,4.000000,4.000000,4.000000,4.000000,4.000000,4.000000,4.000000,4.000000,4.000000,4.000000,4.000000,4.000000,4.000000,4.000000,4.000000,4.000000,4.000000,4.000000,4.000000,4.000000,4.000000,4.000000,4.000000,4.000000,4.000000,100.000000
1614391715.340680,64.000000,0.000000,8.017773,-4.791382,-183.246323,-37.793633,7.902267,11.094093,9.773491,21.298403,20.286846,19.498316,-12.450692,3.137397,28.306438,23.484350,35.204411,88.586884,28.807423,2.633964,19.224026,28.297752,22.070007,25.814489,21.565828,9.096310,-2.279044,-13.468994,1.137632,3.366869,-10.724750,-9.830799,-35.514832,-185.253693,0.000000,185.000000,4.000000,,,,0.000000,4.000000,4.000000,4.000000,4.000000,4.000000,4.000000,4.000000,4.000000,4.000000,4.000000,4.000000,4.000000,4.000000,4.000000,4.000000,4.000000,4.000000,4.000000,4.000000,4.000000,4.000000,4.000000,4.000000,4.000000,4.000000,4.000000,4.000000,4.000000,4.000000,4.000000,4.000000,4.000000,100.000000
1614391715.348529,65.000000,0.000000,8.009755,-3.760950,-181.524612,-33.140453,10.971288,10.057359,9.250896,20.251463,18.728098,19.478819,-13.463882,3.134259,32.893517,20.896763,45.425617,121.318810,29.804256,25.195433,37.153519,33.397659,28.201782,29.891239,22.057083,13.189777,-3.302406,-13.968346,3.187776,2.337861,-6.611460,-7.256866,-35.992138,-183.529968,0.000000,196.000000,4.000000,,,,0.000000,4.000000,4.000000,4.000000,4.000000,4.000000,4.000000,4.000000,4.000000,4.000000,4.000000,4.000000,4.000000,4.000000,4.000000,4.000000,4.000000,4.000000,4.000000,4.000000,4.000000,4.000000,4.000000,4.000000,4.000000,4.000000,4.000000,4.000000,4.000000,4.000000,4.000000,4.000000,4.000000,100.000000
1614391715.356278,66.000000,0.000000,8.001745,-2.218727,-182.368729,-30.030390,9.934675,10.047301,10.267287,20.231213,18.709370,16.895237,-12.937598,3.131125,32.860622,22.414328,40.764805,103.248772,30.287271,8.759981,22.757393,28.748878,20.994093,28.835707,21.522205,14.715050,-3.299104,-14.467197,2.671768,2.335523,-5.066387,-7.249609,-32.879223,-177.705414,0.000000,168.000000,4.000000,,,,0.000000,4.000000,4.000000,4.000000,4.000000,4.000000,4.000000,4.000000,4.000000,4.000000,4.000000,4.000000,4.000000,4.000000,4.000000,4.000000,4.000000,4.000000,4.000000,4.000000,4.000000,4.000000,4.000000,4.000000,4.000000,4.000000,4.000000,4.000000,4.000000,4.000000,4.000000,4.000000,4.000000,100.000000
1614391715.364128,67.000000,0.000000,7.993744,-0.165227,-182.186356,-30.000359,12.488844,10.550075,8.205737,20.723801,19.203482,19.442444,-14.463122,3.127994,29.750839,24.443195,26.365068,70.837830,28.205704,-20.479548,-9.573058,16.412437,13.280792,21.627384,17.398119,14.700335,-2.782984,-13.939910,2.669096,2.846008,-5.061321,-7.755180,-28.743778,-164.194382,0.000000,180.000000,4.000000,,,,0.000000,4.000000,4.000000,4.000000,4.000000,4.000000,4.000000,4.000000,4.000000,4.000000,4.000000,4.000000,4.000000,4.000000,4.000000,4.000000,4.000000,4.000000,4.000000,4.000000,4.000000,4.000000,4.000000,4.000000,4.000000,4.000000,4.000000,4.000000,4.000000,4.000000,4.000000,4.000000,4.000000,100.000000
1614391715.371877,68.000000,0.000000,7.985750,-0.677882,-180.978531,-28.431896,14.014816,9.001062,5.633429,20.190258,16.620176,18.397362,-20.602505,2.612045,29.208269,20.316189,22.748959,86.664429,23.562113,-8.151377,-21.358356,13.319101,12.754691,16.990372,13.790977,13.147173,-3.293022,-14.438790,3.179248,2.330342,-5.056260,-7.234604,-28.202215,-159.927628,0.000000,197.000000,4.000000,,,,0.000000,4.000000,4.000000,4.000000,4.000000,4.000000,4.000000,4.000000,4.000000,4.000000,4.000000,4.000000,4.000000,4.000000,4.000000,4.000000,4.000000,4.000000,4.000000,4.000000,4.000000,4.000000,4.000000,4.000000,4.000000,4.000000,4.000000,4.000000,4.000000,4.000000,4.000000,4.000000,4.000000,100.000000
1614391715.379726,69.000000,0.000000,7.977764,-0.677204,-177.720627,-26.352182,13.487981,6.940780,5.114975,20.170067,14.552274,15.814861,-21.607544,3.635074,29.179060,18.244591,25.290312,94.782898,21.487268,-2.502199,-1.336998,15.357064,12.741936,18.511845,13.777186,11.082744,-3.802549,-14.424352,2.663248,2.328011,-8.640946,-7.740190,-27.661192,-166.947174,0.000000,187.000000,4.000000,,,,0.000000,4.000000,4.000000,4.000000,4.000000,4.000000,4.000000,4.000000,4.000000,4.000000,4.000000,4.000000,4.000000,4.000000,4.000000,4.000000,4.000000,4.000000,4.000000,4.000000,4.000000,4.000000,4.000000,4.000000,4.000000,4.000000,4.000000,4.000000,4.000000,4.000000,4.000000,4.000000,4.000000,100.000000
1614391715.387476,70.000000,0.000000,7.969787,1.887576,-174.465988,-25.300190,13.474493,5.908198,5.622681,20.149897,14.537721,16.311867,-17.483372,6.195542,29.662701,24.893011,23.726561,70.072723,22.491423,-19.422773,21.228441,14.316067,16.318937,21.570255,14.276230,10.046020,-3.285926,-14.409927,2.660585,2.325683,-7.093844,-7.732450,-25.069427,-167.805878,0.000000,172.000000,4.000000,,,,0.000000,4.000000,4.000000,4.000000,4.000000,4.000000,4.000000,4.000000,4.000000,4.000000,4.000000,4.000000,4.000000,4.000000,4.000000,4.000000,4.000000,4.000000,4.000000,4.000000,4.000000,4.000000,4.000000,4.000000,4.000000,4.000000,4.000000,4.000000,4.000000,4.000000,4.000000,4.000000,4.000000,100.000000
1614391715.395325,71.000000,0.000000,7.961817,3.424150,-174.291519,-23.736427,11.409737,6.415110,5.617058,20.129747,15.036004,14.244272,-19.004351,5.163705,29.633039,24.868118,25.241295,74.618042,22.468931,-12.736685,19.668751,13.788930,18.866722,21.548685,13.749133,10.548794,-3.795461,-14.395517,2.657924,2.323358,0.605557,-7.724718,-24.018719,-160.971405,0.000000,188.000000,4.000000,,,,0.000000,4.000000,4.000000,4.000000,4.000000,4.000000,4.000000,4.000000,4.000000,4.000000,4.000000,4.000000,4.000000,4.000000,4.000000,4.000000,4.000000,4.000000,4.000000,4.000000,4.000000,4.000000,4.000000,4.000000,4.000000,4.000000,4.000000,4.000000,4.000000,4.000000,4.000000,4.000000,4.000000,100.000000
1614391715.403074,72.000000,0.000000,7.953855,2.907905,-174.630051,-22.687050,10.372685,6.408695,5.611441,18.571156,14.508147,12.691566,-24.626371,3.620080,27.039303,10.484277,27.780157,93.004959,21.933641,2.147847,7.854211,14.800782,12.694009,21.014315,13.735384,10.025425,-4.304486,-15.406763,2.655266,2.321034,-1.446330,-8.229814,-22.969059,-154.143768,0.000000,173.000000,4.000000,,,,0.000000,4.000000,4.000000,4.000000,4.000000,4.000000,4.000000,4.000000,4.000000,4.000000,4.000000,4.000000,4.000000,4.000000,4.000000,4.000000,4.000000,4.000000,4.000000,4.000000,4.000000,4.000000,4.000000,4.000000,4.000000,4.000000,4.000000,4.000000,4.000000,4.000000,4.000000,4.000000,4.000000,100.000000
1614391715.410923,73.000000,0.000000,7.945901,2.904997,-170.865677,-22.151543,14.464877,5.889466,5.605830,15.988482,15.006459,16.268620,-25.114565,5.667742,25.986624,8.935330,27.752377,86.758110,21.911707,-5.033788,4.769433,14.273161,10.630033,20.993301,13.721648,11.041040,-0.710438,-13.852895,2.139791,2.318713,-4.008986,-7.708763,-21.407627,-151.425522,0.000000,177.000000,4.000000,,,,0.000000,4.000000,4.000000,4.000000,4.000000,4.000000,4.000000,4.000000,4.000000,4.000000,4.000000,4.000000,4.000000,4.000000,4.000000,4.000000,4.000000,4.000000,4.000000,4.000000,4.000000,4.000000,4.000000,4.000000,4.000000,4.000000,4.000000,4.000000,4.000000,4.000000,4.000000,4.000000,4.000000,100.000000
1614391715.418673,74.000000,0.000000,8.450776,3.414913,-163.515320,-20.078110,17.527336,5.883576,5.087403,15.972493,18.068377,19.842094,-22.012527,7.200536,30.576021,24.311010,30.288727,86.671349,21.889795,-7.592857,4.764664,13.746067,20.362991,20.459488,14.220747,13.081282,5.956940,-9.223658,2.650471,2.316395,4.712971,-3.598490,-21.386219,-149.735626,0.000000,203.000000,4.000000,,,,0.000000,4.000000,4.000000,4.000000,4.000000,4.000000,4.000000,4.000000,4.000000,4.000000,4.000000,4.000000,4.000000,4.000000,4.000000,4.000000,4.000000,4.000000,4.000000,4.000000,4.000000,4.000000,4.000000,4.000000,4.000000,4.000000,4.000000,4.000000,4.000000,4.000000,4.000000,4.000000,4.000000,100.000000
1614391715.426522,75.000000,0.000000,6.903863,1.360216,-157.197968,-18.519569,16.996988,6.390513,5.082316,15.956521,18.563128,19.822252,-21.477695,6.167694,33.109547,29.927725,34.873821,102.482117,22.380726,1.132685,5.785541,14.757962,24.958014,21.464668,13.693706,14.093841,8.515085,-7.675972,2.647821,2.314078,5.733899,0.507672,-21.364834,-148.560257,0.000000,192.000000,4.000000,,,,0.000000,4.000000,4.000000,4.000000,4.000000,4.000000,4.000000,4.000000,4.000000,4.000000,4.000000,4.000000,4.000000,4.000000,4.000000,4.000000,4.000000,4.000000,4.000000,4.000000,4.000000,4.000000,4.000000,4.000000,4.000000,4.000000,4.000000,4.000000,4.000000,4.000000,4.000000,4.000000,4.000000,100.000000
1614391715.434271,76.000000,0.000000,4.332857,-1.205247,-154.476654,-19.013870,16.467171,5.871302,6.102875,16.453384,15.980463,19.289610,-20.943398,6.674347,32.563618,30.410618,35.864590,114.687325,21.845526,2.670014,8.343858,13.717563,20.830492,20.930384,13.167192,14.079747,6.455288,-7.155476,1.619532,1.798944,-0.938501,-1.031297,-21.343470,-148.924515,0.000000,186.000000,4.000000,,,,0.000000,4.000000,4.000000,4.000000,4.000000,4.000000,4.000000,4.000000,4.000000,4.000000,4.000000,4.000000,4.000000,4.000000,4.000000,4.000000,4.000000,4.000000,4.000000,4.000000,4.000000,4.000000,4.000000,4.000000,4.000000,4.000000,4.000000,4.000000,4.000000,4.000000,4.000000,4.000000,4.000000,100.000000
1614391715.442120,77.000000,0.000000,3.815704,-0.691221,-153.809357,-17.456396,16.963524,6.378252,5.583951,18.488214,14.426021,19.270319,-17.845530,6.667673,33.556694,36.021233,34.290264,119.188019,22.336500,0.103241,5.258591,13.191025,19.271200,19.883812,16.743769,13.040027,9.012936,-2.020115,3.156374,2.309965,4.190642,-0.517445,-21.834946,-149.801224,0.000000,200.000000,4.000000,,,,0.000000,4.000000,4.000000,4.000000,4.000000,4.000000,4.000000,4.000000,4.000000,4.000000,4.000000,4.000000,4.000000,4.000000,4.000000,4.000000,4.000000,4.000000,4.000000,4.000000,4.000000,4.000000,4.000000,4.000000,4.000000,4.000000,4.000000,4.000000,4.000000,4.000000,4.000000,4.000000,4.000000,100.000000
1614391715.449870,78.000000,0.000000,3.811888,1.873572,-152.629913,-15.387657,16.946560,9.448796,5.065547,19.495367,14.924416,21.302332,-14.750762,6.148184,32.497498,36.498032,36.307255,110.350883,24.365446,1.128779,13.458460,22.921423,23.867313,27.556236,23.393690,14.052628,17.209051,4.135751,9.307064,4.358937,10.340298,6.149739,-15.659265,-142.984756,0.000000,181.000000,4.000000,,,,0.000000,4.000000,4.000000,4.000000,4.000000,4.000000,4.000000,4.000000,4.000000,4.000000,4.000000,4.000000,4.000000,4.000000,4.000000,4.000000,4.000000,4.000000,4.000000,4.000000,4.000000,4.000000,4.000000,4.000000,4.000000,4.000000,4.000000,4.000000,4.000000,4.000000,4.000000,4.000000,4.000000,100.000000
1614391715.457719,79.000000,0.000000,4.320897,3.410161,-149.400360,-14.346628,16.929613,13.029091,9.675866,22.552794,14.909491,26.409233,-12.684729,8.706139,32.977821,41.076920,41.399155,99.984123,25.879541,5.230214,36.009106,37.770298,29.484472,38.810730,25.421579,20.705242,22.832867,4.644436,13.913141,6.405860,9.304317,11.271794,-6.925657,-133.098190,0.000000,173.000000,4.000000,,,,0.000000,4.000000,4.000000,4.000000,4.000000,4.000000,4.000000,4.000000,4.000000,4.000000,4.000000,4.000000,4.000000,4.000000,4.000000,4.000000,4.000000,4.000000,4.000000,4.000000,4.000000,4.000000,4.000000,4.000000,4.000000,4.000000,4.000000,4.000000,4.000000,4.000000,4.000000,4.000000,4.000000,100.000000
1614391715.465468,80.000000,0.000000,7.906319,5.458032,-150.276596,-14.332282,17.425505,14.554523,13.768754,24.581524,15.407402,30.998209,-8.569480,13.312818,39.098690,53.856354,43.409035,106.550804,27.904945,7.276266,37.511559,40.809448,31.506269,40.823204,25.908978,27.864023,22.297215,3.614151,14.412048,5.886634,11.859115,11.260523,-6.918731,-134.503555,0.000000,186.000000,4.000000,,,,0.000000,4.000000,4.000000,4.000000,4.000000,4.000000,4.000000,4.000000,4.000000,4.000000,4.000000,4.000000,4.000000,4.000000,4.000000,4.000000,4.000000,4.000000,4.000000,4.000000,4.000000,4.000000,4.000000,4.000000,4.000000,4.000000,4.000000,4.000000,4.000000,4.000000,4.000000,4.000000,4.000000,100.000000
1614391715.473317,81.000000,0.000000,10.975336,6.991036,-160.382736,-16.369232,16.895258,13.514328,10.678062,18.915916,14.879174,30.967211,-5.483987,14.325146,37.521130,50.212753,43.365627,114.136566,30.441143,8.294631,25.166353,40.768639,30.961943,39.243919,28.447172,28.861801,22.274916,4.123357,13.371996,5.880747,11.847256,10.223621,-10.501556,-141.548538,0.000000,201.000000,4.000000,,,,0.000000,4.000000,4.000000,4.000000,4.000000,4.000000,4.000000,4.000000,4.000000,4.000000,4.000000,4.000000,4.000000,4.000000,4.000000,4.000000,4.000000,4.000000,4.000000,4.000000,4.000000,4.000000,4.000000,4.000000,4.000000,4.000000,4.000000,4.000000,4.000000,4.000000,4.000000,4.000000,4.000000,100.000000
1614391715.481067,82.000000,0.000000,11.477181,6.984045,-169.453125,-18.404144,16.878363,12.987993,5.539179,12.230333,13.838654,29.397781,-5.991324,13.797999,27.740017,34.265106,41.783802,100.689095,27.846598,9.311977,31.807854,41.240692,31.443800,41.255955,27.905905,28.832939,22.765463,4.119234,12.845803,5.874866,6.707203,10.726218,-9.465413,-140.381348,0.000000,195.000000,4.000000,,,,0.000000,4.000000,4.000000,4.000000,4.000000,4.000000,4.000000,4.000000,4.000000,4.000000,4.000000,4.000000,4.000000,4.000000,4.000000,4.000000,4.000000,4.000000,4.000000,4.000000,4.000000,4.000000,4.000000,4.000000,4.000000,4.000000,4.000000,4.000000,4.000000,4.000000,4.000000,4.000000,4.000000,100.000000
1614391715.488916,83.000000,0.000000,12.491345,6.977061,-168.258026,-18.385740,17.887125,15.026287,5.533640,12.730924,16.388918,27.317102,-5.985333,13.271381,25.660995,27.051353,31.998426,76.485840,20.126444,5.712922,30.750404,29.917400,29.361074,34.035213,26.339537,29.316927,19.152952,4.115114,10.781675,5.868992,5.674855,11.228312,-11.507230,-140.240967,0.000000,196.000000,4.000000,,,,0.000000,4.000000,4.000000,4.000000,4.000000,4.000000,4.000000,4.000000,4.000000,4.000000,4.000000,4.000000,4.000000,4.000000,4.000000,4.000000,4.000000,4.000000,4.000000,4.000000,4.000000,4.000000,4.000000,4.000000,4.000000,4.000000,4.000000,4.000000,4.000000,4.000000,4.000000,4.000000,4.000000,100.000000
1614391715.496665,84.000000,0.000000,9.401931,4.918802,-169.115417,-22.469919,15.305136,12.959979,5.528106,10.666911,14.321247,25.238503,-4.953706,10.181187,24.096872,19.331995,17.607454,62.563202,17.542215,-3.523561,6.617090,12.964406,22.152227,20.155024,24.261915,23.646584,13.492774,3.598179,6.155509,5.863123,2.079436,9.678622,-19.188030,-153.946884,0.000000,195.000000,4.000000,,,,0.000000,4.000000,4.000000,4.000000,4.000000,4.000000,4.000000,4.000000,4.000000,4.000000,4.000000,4.000000,4.000000,4.000000,4.000000,4.000000,4.000000,4.000000,4.000000,4.000000,4.000000,4.000000,4.000000,4.000000,4.000000,4.000000,4.000000,4.000000,4.000000,4.000000,4.000000,4.000000,4.000000,100.000000
1614391715.504315,85.000000,0.000000,4.264324,0.811319,-176.125778,-30.652576,8.110343,2.177788,2.445655,5.015218,4.563336,23.674803,-6.487214,6.581262,15.867647,10.081894,11.948821,73.782692,18.550314,-7.622601,-2.107476,8.336057,16.489048,15.519485,18.596628,17.981911,9.376718,1.543298,0.508328,5.857260,-7.153412,7.104841,-22.758587,-172.767288,0.000000,188.000000,4.000000,,,,0.000000,4.000000,4.000000,4.000000,4.000000,4.000000,4.000000,4.000000,4.000000,4.000000,4.000000,4.000000,4.000000,4.000000,4.000000,4.000000,4.000000,4.000000,4.000000,4.000000,4.000000,4.000000,4.000000,4.000000,4.000000,4.000000,4.000000,4.000000,4.000000,4.000000,4.000000,4.000000,4.000000,100.000000
1614391715.512064,86.000000,0.000000,7.336982,-1.240775,-179.539398,-34.211666,2.461207,-1.926954,1.417568,7.061485,1.994670,22.625488,-5.455086,6.061860,16.364601,16.738478,17.065077,100.888390,19.044584,0.590150,3.535657,10.891824,16.472559,17.555246,14.988287,16.938288,7.828879,-2.047988,-1.543463,5.851402,-11.248823,6.584916,-21.197367,-177.209900,0.000000,204.000000,4.000000,,,,0.000000,4.000000,4.000000,4.000000,4.000000,4.000000,4.000000,4.000000,4.000000,4.000000,4.000000,4.000000,4.000000,4.000000,4.000000,4.000000,4.000000,4.000000,4.000000,4.000000,4.000000,4.000000,4.000000,4.000000,4.000000,4.000000,4.000000,4.000000,4.000000,4.000000,4.000000,4.000000,4.000000,100.000000
1614391715.519713,87.000000,0.000000,10.919389,-0.726713,-179.359863,-33.151814,2.458746,5.254460,1.928971,12.695450,10.197803,23.115683,-4.936810,6.568619,20.963621,27.490971,23.201859,105.915710,17.999899,7.769047,6.096224,12.932214,16.456087,17.537691,17.024582,14.357247,7.308230,-3.584402,-1.029099,5.845551,-9.186292,6.578331,-21.176168,-168.314743,0.000000,196.000000,4.000000,,,,0.000000,4.000000,4.000000,4.000000,4.000000,4.000000,4.000000,4.000000,4.000000,4.000000,4.000000,4.000000,4.000000,4.000000,4.000000,4.000000,4.000000,4.000000,4.000000,4.000000,4.000000,4.000000,4.000000,4.000000,4.000000,4.000000,4.000000,4.000000,4.000000,4.000000,4.000000,4.000000,4.000000,100.000000
1614391715.527463,88.000000,0.000000,6.805905,-0.725987,-183.283066,-35.169945,1.943467,4.736385,1.927042,11.657113,10.187606,23.605387,-12.624182,6.049230,13.763169,21.309633,22.665836,78.117485,17.981899,-7.110517,10.192692,13.944922,15.926810,16.494513,15.981915,9.727506,6.275280,-4.093638,-1.540890,5.839705,-9.177106,1.956368,-21.667812,-164.556686,0.000000,188.000000,4.000000,,,,0.000000,4.000000,4.000000,4.000000,4.000000,4.000000,4.000000,4.000000,4.000000,4.000000,4.000000,4.000000,4.000000,4.000000,4.000000,4.000000,4.000000,4.000000,4.000000,4.000000,4.000000,4.000000,4.000000,4.000000,4.000000,4.000000,4.000000,4.000000,4.000000,4.000000,4.000000,4.000000,4.000000,100.000000
1614391715.535112,89.000000,0.000000,3.209356,-1.238081,-189.253632,-37.186058,-0.622579,-3.986300,1.925115,8.568533,3.510751,17.427937,-23.380789,6.556001,6.057099,14.108837,16.489325,57.013729,18.989557,-31.205971,0.438910,13.418158,17.449345,16.990839,13.914652,11.256240,7.807467,-3.576724,-1.539349,5.833866,-9.680749,-1.122511,-21.133324,-172.084442,0.000000,200.000000,4.000000,,,,0.000000,4.000000,4.000000,4.000000,4.000000,4.000000,4.000000,4.000000,4.000000,4.000000,4.000000,4.000000,4.000000,4.000000,4.000000,4.000000,4.000000,4.000000,4.000000,4.000000,4.000000,4.000000,4.000000,4.000000,4.000000,4.000000,4.000000,4.000000,4.000000,4.000000,4.000000,4.000000,4.000000,100.000000
1614391715.542862,90.000000,0.000000,4.231788,-0.724023,-192.654114,-37.148872,-1.647598,-6.033596,1.923190,8.559964,2.994420,9.205379,-25.921509,7.062265,6.563862,14.607549,12.883091,65.674660,18.457748,-32.713226,-14.433324,11.866278,11.790871,17.999489,13.387917,14.321907,7.286839,-3.573147,-1.024989,5.828032,-9.671068,-1.121389,-21.112192,-175.502106,0.000000,182.000000,4.000000,,,,0.000000,4.000000,4.000000,4.000000,4.000000,4.000000,4.000000,4.000000,4.000000,4.000000,4.000000,4.000000,4.000000,4.000000,4.000000,4.000000,4.000000,4.000000,4.000000,4.000000,4.000000,4.000000,4.000000,4.000000,4.000000,4.000000,4.000000,4.000000,4.000000,4.000000,4.000000,4.000000,4.000000,100.000000
1614391715.550511,91.000000,0.000000,4.227556,-1.236119,-196.564026,-36.598904,-1.645950,-5.001921,1.408447,9.064224,4.017066,6.119251,-24.869947,5.003921,7.070119,11.003198,12.357388,68.685913,12.285443,-18.321539,-5.700942,9.803129,-0.015792,16.443027,9.784784,12.256303,0.612885,-3.569574,-3.075246,5.822204,-9.661397,-1.120267,-21.091080,-175.326599,0.000000,196.000000,4.000000,,,,0.000000,4.000000,4.000000,4.000000,4.000000,4.000000,4.000000,4.000000,4.000000,4.000000,4.000000,4.000000,4.000000,4.000000,4.000000,4.000000,4.000000,4.000000,4.000000,4.000000,4.000000,4.000000,4.000000,4.000000,4.000000,4.000000,4.000000,4.000000,4.000000,4.000000,4.000000,4.000000,4.000000,100.000000
1614391715.558260,92.000000,0.000000,3.710508,-1.234883,-199.957214,-36.562302,-1.131483,-5.509739,1.407038,9.055161,3.500229,10.215696,-25.357897,2.947635,6.550228,6.889630,12.857850,55.283894,7.144953,-17.277576,-4.156780,4.152300,-7.195264,11.811200,5.672436,9.167123,-6.054394,-3.566005,-4.610633,5.816381,-8.626095,-1.631968,-21.069988,-183.356400,0.000000,202.000000,4.000000,,,,0.000000,4.000000,4.000000,4.000000,4.000000,4.000000,4.000000,4.000000,4.000000,4.000000,4.000000,4.000000,4.000000,4.000000,4.000000,4.000000,4.000000,4.000000,4.000000,4.000000,4.000000,4.000000,4.000000,4.000000,4.000000,4.000000,4.000000,4.000000,4.000000,4.000000,4.000000,4.000000,4.000000,100.000000
1614391715.565910,93.000000,0.000000,4.219618,-0.208007,-199.757248,-37.038563,-1.130352,-4.478589,2.431272,8.533285,4.009549,14.820865,-24.306898,3.457508,7.569319,9.446843,12.844993,61.382454,6.624988,-19.824402,-22.614161,0.045584,-6.675248,9.235287,6.179584,9.670776,-2.458596,-3.562438,-5.118843,5.810565,-9.643110,-0.091874,-20.536097,-191.378174,0.000000,185.000000,4.000000,,,,0.000000,4.000000,4.000000,4.000000,4.000000,4.000000,4.000000,4.000000,4.000000,4.000000,4.000000,4.000000,4.000000,4.000000,4.000000,4.000000,4.000000,4.000000,4.000000,4.000000,4.000000,4.000000,4.000000,4.000000,4.000000,4.000000,4.000000,4.000000,4.000000,4.000000,4.000000,4.000000,4.000000,100.000000
1614391715.573759,94.000000,0.000000,3.189757,-1.233440,-199.557495,-40.078445,-1.129222,-5.499751,0.890379,8.524752,3.492719,14.293223,-25.308233,2.428410,6.023288,9.950216,11.806506,80.808250,6.618363,-2.881500,-10.796676,1.071179,-2.053188,11.277333,5.660584,10.686747,2.159247,-3.558876,-5.626544,5.804755,-9.633467,-1.117423,-20.515562,-189.648331,0.000000,195.000000,4.000000,,,,0.000000,4.000000,4.000000,4.000000,4.000000,4.000000,4.000000,4.000000,4.000000,4.000000,4.000000,4.000000,4.000000,4.000000,4.000000,4.000000,4.000000,4.000000,4.000000,4.000000,4.000000,4.000000,4.000000,4.000000,4.000000,4.000000,4.000000,4.000000,4.000000,4.000000,4.000000,4.000000,4.000000,100.000000
1614391715.581508,95.000000,0.000000,4.725029,-1.232207,-197.819473,-41.064007,-1.128092,-5.494251,2.427950,11.080329,3.489227,17.355854,-23.744463,2.938802,9.607008,11.991549,13.845983,86.881287,12.252770,16.095741,21.521814,5.685493,8.718096,13.317338,7.193385,9.650419,2.669908,-3.555317,-3.056815,5.798950,-2.957167,-1.629126,-21.007866,-181.253555,0.000000,206.000000,4.000000,,,,0.000000,4.000000,4.000000,4.000000,4.000000,4.000000,4.000000,4.000000,4.000000,4.000000,4.000000,4.000000,4.000000,4.000000,4.000000,4.000000,4.000000,4.000000,4.000000,4.000000,4.000000,4.000000,4.000000,4.000000,4.000000,4.000000,4.000000,4.000000,4.000000,4.000000,4.000000,4.000000,4.000000,100.000000
1614391715.589357,96.000000,0.000000,11.386971,3.384410,-191.467804,-35.894741,-1.126964,6.306115,11.656292,15.684633,9.126763,29.646191,-10.387385,10.628171,24.469196,26.851353,26.139828,93.461075,23.009748,18.130926,21.500292,12.859295,16.914507,14.329661,14.878499,9.127948,9.333905,-3.551762,3.612908,5.793151,5.250919,9.654554,-20.474037,-173.892807,8064.000000,0.000000,4.000000,,,,0.000000,4.000000,4.000000,4.000000,4.000000,4.000000,4.000000,4.000000,4.000000,4.000000,4.000000,4.000000,4.000000,4.000000,4.000000,4.000000,4.000000,4.000000,4.000000,4.000000,4.000000,4.000000,4.000000,4.000000,4.000000,4.000000,4.000000,4.000000,4.000000,4.000000,4.000000,4.000000,4.000000,100.000000
1614391715.597107,97.000000,0.000000,15.990968,6.970769,-186.148132,-32.269100,-1.125837,17.581860,18.311302,17.720230,15.271482,39.872955,-2.171870,14.207286,33.162674,37.593731,35.344460,106.188126,27.089302,15.035872,7.632638,18.487461,15.359130,16.366613,21.530287,16.298307,18.042521,-3.548210,7.199039,5.787358,6.271309,22.465412,-20.453564,-170.129181,8192.000000,0.000000,4.000000,,,,0.000000,4.000000,4.000000,4.000000,4.000000,4.000000,4.000000,4.000000,4.000000,4.000000,4.000000,4.000000,4.000000,4.000000,4.000000,4.000000,4.000000,4.000000,4.000000,4.000000,4.000000,4.000000,4.000000,4.000000,4.000000,4.000000,4.000000,4.000000,4.000000,4.000000,4.000000,4.000000,4.000000,100.000000
1614391715.604956,98.000000,0.000000,15.462156,4.399696,-188.013275,-35.826576,-1.124712,14.487355,14.703247,14.112767,13.717750,36.243336,-8.323544,3.423848,26.975668,32.940754,34.283474,109.671684,23.472469,17.072119,8.137825,16.930511,12.779668,17.888708,21.508757,21.923035,19.050119,-3.544662,6.679019,5.781570,5.239397,16.801922,-24.022854,-170.471863,8064.000000,0.000000,4.000000,,,,0.000000,4.000000,4.000000,4.000000,4.000000,4.000000,4.000000,4.000000,4.000000,4.000000,4.000000,4.000000,4.000000,4.000000,4.000000,4.000000,4.000000,4.000000,4.000000,4.000000,4.000000,4.000000,4.000000,4.000000,4.000000,4.000000,4.000000,4.000000,4.000000,4.000000,4.000000,4.000000,4.000000,100.000000
1614391715.612705,99.000000,0.000000,14.933874,2.344014,-191.414993,-36.816391,-1.636407,9.344663,9.560339,9.996090,10.627109,30.566069,-14.469067,-5.810345,21.307665,28.292427,32.710728,105.459450,21.910536,6.798637,8.642509,14.862299,13.279709,17.358000,20.974428,15.747266,18.005426,-3.541117,6.159520,5.775789,6.259798,6.528709,-28.101395,-169.788574,8064.000000,0.000000,4.000000,,,,0.000000,4.000000,4.000000,4.000000,4.000000,4.000000,4.000000,4.000000,4.000000,4.000000,4.000000,4.000000,4.000000,4.000000,4.000000,4.000000,4.000000,4.000000,4.000000,4.000000,4.000000,4.000000,4.000000,4.000000,4.000000,4.000000,4.000000,4.000000,4.000000,4.000000,4.000000,4.000000,4.000000,100.000000
1614391715.620554,100.000000,0.000000,15.944581,3.880132,-187.633835,-30.625727,-0.609130,10.873779,9.037958,8.447633,11.129302,31.048323,-12.916136,-4.266073,22.311998,29.802597,30.626734,83.302704,22.914267,-16.285086,7.608224,16.898720,13.266429,17.340641,21.466274,14.193057,22.089987,-3.537576,7.179001,5.770013,5.740718,10.624744,-28.073294,-169.105972,8064.000000,0.000000,4.000000,,,,0.000000,4.000000,4.000000,4.000000,4.000000,4.000000,4.000000,4.000000,4.000000,4.000000,4.000000,4.000000,4.000000,4.000000,4.000000,4.000000,4.000000,4.000000,4.000000,4.000000,4.000000,4.000000,4.000000,4.000000,4.000000,4.000000,4.000000,4.000000,4.000000,4.000000,4.000000,4.000000,4.000000,100.000000
1614391715.628304,101.000000,0.000000,15.415816,2.337790,-182.318008,-27.518179,1.442761,10.350085,9.541740,8.952005,11.630993,29.991634,-12.390399,-3.236166,22.802507,29.772795,23.416620,58.091198,22.378531,-21.909826,13.241642,18.933102,12.740342,17.323301,21.444807,25.460915,23.606358,-3.534039,6.146182,5.764243,5.734977,15.742325,-27.532400,-169.962509,8064.000000,0.000000,4.000000,,,,0.000000,4.000000,4.000000,4.000000,4.000000,4.000000,4.000000,4.000000,4.000000,4.000000,4.000000,4.000000,4.000000,4.000000,4.000000,4.000000,4.000000,4.000000,4.000000,4.000000,4.000000,4.000000,4.000000,4.000000,4.000000,4.000000,4.000000,4.000000,4.000000,4.000000,4.000000,4.000000,4.000000,100.000000
1614391715.636153,102.000000,0.000000,15.400400,-0.741471,-184.699783,-32.618866,2.466959,10.339735,8.506557,8.943053,11.106542,26.371899,-13.916471,-5.284212,21.754065,28.204559,21.854742,77.520287,21.843332,-2.913557,16.305323,19.426991,12.214782,17.305979,21.423363,26.461096,19.993008,-3.530504,4.088753,5.758479,5.216422,12.649659,-28.530508,-169.792542,8064.000000,0.000000,4.000000,,,,0.000000,4.000000,4.000000,4.000000,4.000000,4.000000,4.000000,4.000000,4.000000,4.000000,4.000000,4.000000,4.000000,4.000000,4.000000,4.000000,4.000000,4.000000,4.000000,4.000000,4.000000,4.000000,4.000000,4.000000,4.000000,4.000000,4.000000,4.000000,4.000000,4.000000,4.000000,4.000000,4.000000,100.000000
1614391715.643902,103.000000,0.000000,14.872179,-0.740729,-189.643295,-36.175991,2.977313,10.329395,9.010872,8.421290,11.095435,26.345526,-13.902554,-2.714825,20.193848,29.201996,22.345709,105.647896,22.334309,5.294485,12.699274,16.330639,13.228208,17.288671,19.863478,14.639762,18.947374,-3.526974,2.546203,6.265541,1.108641,10.585728,-27.476337,-168.597107,8064.000000,0.000000,4.000000,,,,0.000000,4.000000,4.000000,4.000000,4.000000,4.000000,4.000000,4.000000,4.000000,4.000000,4.000000,4.000000,4.000000,4.000000,4.000000,4.000000,4.000000,4.000000,4.000000,4.000000,4.000000,4.000000,4.000000,4.000000,4.000000,4.000000,4.000000,4.000000,4.000000,4.000000,4.000000,4.000000,4.000000,100.000000
1614391715.651752,104.000000,0.000000,12.293204,-1.252809,-189.966461,-35.626995,2.974336,3.652399,8.489040,8.925690,10.571519,26.319181,-13.375831,0.364813,21.712116,25.583050,17.707977,92.721733,18.722231,1.186626,9.096831,11.698924,13.214979,17.271383,17.279512,12.573840,18.928427,-3.523447,1.005195,5.233634,-1.969391,7.498219,-28.474503,-172.018250,8064.000000,0.000000,4.000000,,,,0.000000,4.000000,4.000000,4.000000,4.000000,4.000000,4.000000,4.000000,4.000000,4.000000,4.000000,4.000000,4.000000,4.000000,4.000000,4.000000,4.000000,4.000000,4.000000,4.000000,4.000000,4.000000,4.000000,4.000000,4.000000,4.000000,4.000000,4.000000,4.000000,4.000000,4.000000,4.000000,4.000000,100.000000
1614391715.659501,105.000000,0.000000,8.178348,-5.354120,-189.776505,-38.668289,-0.105562,-4.556382,4.377987,8.916763,7.996845,19.626196,-12.336814,-4.250937,23.228865,17.865160,14.613347,78.270035,11.524022,3.749542,10.113376,11.174405,10.124842,17.254112,16.749413,14.612549,9.165908,-3.519923,-2.072733,3.177119,-2.480242,1.336875,-34.599873,-178.512894,8064.000000,0.000000,4.000000,,,,0.000000,4.000000,4.000000,4.000000,4.000000,4.000000,4.000000,4.000000,4.000000,4.000000,4.000000,4.000000,4.000000,4.000000,4.000000,4.000000,4.000000,4.000000,4.000000,4.000000,4.000000,4.000000,4.000000,4.000000,4.000000,4.000000,4.000000,4.000000,4.000000,4.000000,4.000000,4.000000,4.000000,100.000000
1614391715.667350,106.000000,0.000000,3.554784,-8.425690,-191.125183,-43.757828,-2.669559,-6.090287,1.296686,8.907846,6.963207,15.504004,-15.401401,-11.426173,12.436406,13.744731,6.906426,66.909714,7.409934,-12.151643,7.539160,8.599128,8.576255,17.236858,17.245483,8.956910,-1.099668,-3.516404,-5.660404,1.635480,-1.964941,-1.741385,-39.180656,-181.411316,8064.000000,0.000000,4.000000,,,,0.000000,4.000000,4.000000,4.000000,4.000000,4.000000,4.000000,4.000000,4.000000,4.000000,4.000000,4.000000,4.000000,4.000000,4.000000,4.000000,4.000000,4.000000,4.000000,4.000000,4.000000,4.000000,4.000000,4.000000,4.000000,4.000000,4.000000,4.000000,4.000000,4.000000,4.000000,4.000000,4.000000,100.000000
1614391715.675099,107.000000,0.000000,0.474306,-8.417264,-187.857132,-44.226891,-0.102786,-4.545735,1.295389,8.898939,7.469064,18.565424,-18.462921,-12.440388,1.654739,12.705345,-5.920993,41.201778,5.351242,-39.318977,-9.904277,-1.153061,9.080500,14.142697,17.228237,5.358210,-0.072927,-3.512887,-4.629103,2.146665,-1.962976,-0.714003,-38.628658,-180.717087,8064.000000,0.000000,4.000000,,,,0.000000,4.000000,4.000000,4.000000,4.000000,4.000000,4.000000,4.000000,4.000000,4.000000,4.000000,4.000000,4.000000,4.000000,4.000000,4.000000,4.000000,4.000000,4.000000,4.000000,4.000000,4.000000,4.000000,4.000000,4.000000,4.000000,4.000000,4.000000,4.000000,4.000000,4.000000,4.000000,4.000000,100.000000
1614391715.682949,108.000000,0.000000,-0.038988,-7.896026,-185.617996,-42.644199,-2.666786,-5.054009,1.806915,8.890040,7.461596,16.495577,-12.803433,-10.889486,11.396674,14.743921,4.854158,66.801605,3.294609,-15.177095,-22.202065,-4.741652,2.917573,11.564452,17.211010,5.865672,-3.662598,-5.560657,-4.111653,2.144518,-2.473834,-0.713289,-38.590027,-180.536362,8064.000000,0.000000,4.000000,,,,0.000000,4.000000,4.000000,4.000000,4.000000,4.000000,4.000000,4.000000,4.000000,4.000000,4.000000,4.000000,4.000000,4.000000,4.000000,4.000000,4.000000,4.000000,4.000000,4.000000,4.000000,4.000000,4.000000,4.000000,4.000000,4.000000,4.000000,4.000000,4.000000,4.000000,4.000000,4.000000,4.000000,100.000000
1614391715.690698,109.000000,0.000000,0.473871,-7.888130,-190.047760,-44.140018,-11.894889,-5.561776,1.292287,8.881150,6.941313,11.350876,-8.688066,-12.417058,21.641687,21.395844,24.849304,99.555313,3.291314,17.658594,-10.897811,1.929757,-4.264832,9.501606,16.168158,-0.806860,-14.428166,-8.119198,-7.697285,1.629553,-7.086744,-1.225396,-39.577080,-177.278900,8064.000000,0.000000,4.000000,,,,0.000000,4.000000,4.000000,4.000000,4.000000,4.000000,4.000000,4.000000,4.000000,4.000000,4.000000,4.000000,4.000000,4.000000,4.000000,4.000000,4.000000,4.000000,4.000000,4.000000,4.000000,4.000000,4.000000,4.000000,4.000000,4.000000,4.000000,4.000000,4.000000,4.000000,4.000000,4.000000,4.000000,100.000000
1614391715.698547,110.000000,0.000000,-0.039423,-8.393063,-183.191055,-43.070236,-9.318892,-4.530573,1.803815,8.872269,7.447193,17.493370,-16.371685,-11.379000,12.902097,19.323166,19.696249,82.019859,3.288023,-4.410347,-2.168965,4.491930,3.944561,8.466463,14.100707,-3.882976,-11.849635,-6.572618,-11.279331,2.140744,-9.130939,-0.711350,-37.999043,-172.486237,8064.000000,0.000000,4.000000,,,,0.000000,4.000000,4.000000,4.000000,4.000000,4.000000,4.000000,4.000000,4.000000,4.000000,4.000000,4.000000,4.000000,4.000000,4.000000,4.000000,4.000000,4.000000,4.000000,4.000000,4.000000,4.000000,4.000000,4.000000,4.000000,4.000000,4.000000,4.000000,4.000000,4.000000,4.000000,4.000000,4.000000,100.000000
1614391715.706296,111.000000,0.000000,-0.039384,-7.359028,-164.033508,-35.847679,5.049402,-2.474761,1.802011,8.863397,7.439745,26.193827,-17.380955,-6.239416,5.196887,8.534613,7.881682,49.630150,3.284735,-36.200809,-4.730898,1.410515,17.786770,12.560561,13.060966,6.377317,-1.581376,-4.001942,-9.729590,2.138603,-4.506424,-1.223459,-34.884117,-165.647079,8064.000000,0.000000,4.000000,,,,0.000000,4.000000,4.000000,4.000000,4.000000,4.000000,4.000000,4.000000,4.000000,4.000000,4.000000,4.000000,4.000000,4.000000,4.000000,4.000000,4.000000,4.000000,4.000000,4.000000,4.000000,4.000000,4.000000,4.000000,4.000000,4.000000,4.000000,4.000000,4.000000,4.000000,4.000000,4.000000,4.000000,100.000000
1614391715.714046,112.000000,0.000000,0.473476,-5.300387,-159.766907,-31.196447,11.711020,-0.933824,1.800210,8.854533,7.432305,26.680452,-5.568702,-3.669074,9.807075,11.090180,13.002006,61.375393,4.819911,-16.164606,9.119987,2.947566,17.768984,19.214666,13.047904,15.088888,-0.041333,-3.997940,-8.181399,2.136465,-1.424995,-0.709415,-34.849236,-158.814774,8064.000000,0.000000,4.000000,,,,0.000000,4.000000,4.000000,4.000000,4.000000,4.000000,4.000000,4.000000,4.000000,4.000000,4.000000,4.000000,4.000000,4.000000,4.000000,4.000000,4.000000,4.000000,4.000000,4.000000,4.000000,4.000000,4.000000,4.000000,4.000000,4.000000,4.000000,4.000000,4.000000,4.000000,4.000000,4.000000,4.000000,100.000000
1614391715.721795,113.000000,0.000000,0.473003,-3.756625,-169.863541,-32.703712,9.135205,-0.932891,1.798409,8.845678,7.424873,25.115311,-0.434928,-4.178225,11.848550,23.899603,19.142849,83.365295,6.353553,-1.276647,21.418558,8.072824,12.110188,20.221094,13.547677,14.048159,2.522811,-3.481122,-8.686038,2.134328,-1.936390,-0.195886,-35.327206,-157.630310,8064.000000,0.000000,4.000000,,,,0.000000,4.000000,4.000000,4.000000,4.000000,4.000000,4.000000,4.000000,4.000000,4.000000,4.000000,4.000000,4.000000,4.000000,4.000000,4.000000,4.000000,4.000000,4.000000,4.000000,4.000000,4.000000,4.000000,4.000000,4.000000,4.000000,4.000000,4.000000,4.000000,4.000000,4.000000,4.000000,4.000000,100.000000
1614391715.729445,114.000000,0.000000,0.472530,-4.265689,-170.719330,-31.645369,9.638891,-0.931958,1.796611,8.836833,7.417449,26.115837,-1.972955,-4.174047,10.298240,25.414165,17.585245,74.563988,4.808738,-19.224089,0.371499,6.526289,13.123720,17.123949,13.534129,13.008470,10.212596,-0.913538,-8.164532,2.132194,-1.934454,-1.734151,-29.138033,-156.447052,8064.000000,0.000000,4.000000,,,,0.000000,4.000000,4.000000,4.000000,4.000000,4.000000,4.000000,4.000000,4.000000,4.000000,4.000000,4.000000,4.000000,4.000000,4.000000,4.000000,4.000000,4.000000,4.000000,4.000000,4.000000,4.000000,4.000000,4.000000,4.000000,4.000000,4.000000,4.000000,4.000000,4.000000,4.000000,4.000000,4.000000,100.000000
1614391715.737194,115.000000,0.000000,0.472057,-4.774244,-164.907578,-26.485518,10.654893,-0.931026,1.794814,8.827996,7.410031,26.602541,-2.483803,-4.169873,9.775121,20.260546,15.003557,67.822754,2.239827,-25.871531,-17.064770,2.930019,13.110596,16.594006,13.007774,14.533922,11.740845,0.625837,-8.156367,2.130062,-1.932519,-0.193955,-21.416586,-145.008545,8064.000000,0.000000,4.000000,,,,0.000000,4.000000,4.000000,4.000000,4.000000,4.000000,4.000000,4.000000,4.000000,4.000000,4.000000,4.000000,4.000000,4.000000,4.000000,4.000000,4.000000,4.000000,4.000000,4.000000,4.000000,4.000000,4.000000,4.000000,4.000000,4.000000,4.000000,4.000000,4.000000,4.000000,4.000000,4.000000,4.000000,100.000000
1614391715.744843,116.000000,0.000000,0.471585,-2.718188,-161.665756,-24.407749,9.618597,-1.442915,1.793019,8.306348,7.402621,25.550299,-8.635165,-4.165703,10.278167,21.265926,15.501374,75.447235,5.827331,-14.563608,5.516397,12.157858,12.584665,19.141514,14.020408,14.006568,11.216284,0.112390,-8.661032,4.179214,-1.417766,5.960084,-19.343887,-132.043030,8064.000000,0.000000,4.000000,,,,0.000000,4.000000,4.000000,4.000000,4.000000,4.000000,4.000000,4.000000,4.000000,4.000000,4.000000,4.000000,4.000000,4.000000,4.000000,4.000000,4.000000,4.000000,4.000000,4.000000,4.000000,4.000000,4.000000,4.000000,4.000000,4.000000,4.000000,4.000000,4.000000,4.000000,4.000000,4.000000,4.000000,100.000000
1614391715.752593,117.000000,0.000000,0.471113,1.387095,-157.914337,-25.408983,9.608978,1.122630,1.791226,8.810862,6.882398,25.524748,-12.729094,-2.623076,11.293530,21.244659,21.126898,82.551277,13.000990,-7.882378,29.100624,25.991854,20.777208,21.173655,16.570490,13.479741,13.769170,2.163560,-2.498524,6.226317,1.147754,10.569510,-20.863007,-131.398163,8064.000000,0.000000,4.000000,,,,0.000000,4.000000,4.000000,4.000000,4.000000,4.000000,4.000000,4.000000,4.000000,4.000000,4.000000,4.000000,4.000000,4.000000,4.000000,4.000000,4.000000,4.000000,4.000000,4.000000,4.000000,4.000000,4.000000,4.000000,4.000000,4.000000,4.000000,4.000000,4.000000,4.000000,4.000000,4.000000,4.000000,100.000000
1614391715.760242,118.000000,0.000000,0.470642,3.436990,-154.679504,-24.870754,9.599370,3.172790,1.789435,8.802051,7.388336,26.012043,-8.100980,-0.569171,9.743774,18.146492,16.490387,64.520012,15.552092,-20.182188,16.763832,21.863298,23.320534,21.152481,17.579561,13.466261,14.781042,4.212678,3.145000,6.220090,1.659427,10.046119,-20.329323,-131.779587,8064.000000,0.000000,4.000000,,,,0.000000,4.000000,4.000000,4.000000,4.000000,4.000000,4.000000,4.000000,4.000000,4.000000,4.000000,4.000000,4.000000,4.000000,4.000000,4.000000,4.000000,4.000000,4.000000,4.000000,4.000000,4.000000,4.000000,4.000000,4.000000,4.000000,4.000000,4.000000,4.000000,4.000000,4.000000,4.000000,4.000000,100.000000
1614391715.767991,119.000000,0.000000,0.470172,2.920732,-155.037643,-24.845882,9.589770,1.631155,1.787646,8.280428,6.868127,25.473211,-6.554418,-0.055781,6.657107,17.102705,3.140563,41.378567,12.459617,-37.597904,-4.791394,6.969640,14.066444,16.515944,15.510699,13.452795,14.253440,3.695645,0.064932,3.649768,1.657767,10.036073,-18.770531,-129.596527,8064.000000,0.000000,4.000000,,,,0.000000,4.000000,4.000000,4.000000,4.000000,4.000000,4.000000,4.000000,4.000000,4.000000,4.000000,4.000000,4.000000,4.000000,4.000000,4.000000,4.000000,4.000000,4.000000,4.000000,4.000000,4.000000,4.000000,4.000000,4.000000,4.000000,4.000000,4.000000,4.000000,4.000000,4.000000,4.000000,4.000000,100.000000
1614391715.775641,120.000000,0.000000,-0.043119,2.917812,-153.344147,-25.333857,9.580180,3.167986,1.785858,9.297789,6.861259,25.960558,-3.983761,-0.568546,11.265835,17.598423,9.291268,68.003853,10.395875,-26.791075,-6.837884,2.860106,7.385711,12.396863,13.443906,13.439342,14.239186,3.691950,-3.524877,2.107656,1.656110,10.026037,-20.803043,-132.031036,8064.000000,0.000000,4.000000,,,,0.000000,4.000000,4.000000,4.000000,4.000000,4.000000,4.000000,4.000000,4.000000,4.000000,4.000000,4.000000,4.000000,4.000000,4.000000,4.000000,4.000000,4.000000,4.000000,4.000000,4.000000,4.000000,4.000000,4.000000,4.000000,4.000000,4.000000,4.000000,4.000000,4.000000,4.000000,4.000000,4.000000,100.000000
1614391715.783390,121.000000,0.000000,0.982565,3.427714,-149.088242,-20.693138,9.570601,9.831485,1.784072,11.339773,9.418500,27.985880,3.712531,-0.567977,17.921236,17.580824,22.615311,92.551231,11.411120,-5.225822,5.476646,6.959810,8.403966,13.922928,12.917642,13.425902,14.224948,3.688258,1.094033,2.105549,1.654454,10.528831,-21.295061,-130.360535,8064.000000,0.000000,4.000000,,,,0.000000,4.000000,4.000000,4.000000,4.000000,4.000000,4.000000,4.000000,4.000000,4.000000,4.000000,4.000000,4.000000,4.000000,4.000000,4.000000,4.000000,4.000000,4.000000,4.000000,4.000000,4.000000,4.000000,4.000000,4.000000,4.000000,4.000000,4.000000,4.000000,4.000000,4.000000,4.000000,4.000000,100.000000
1614391715.791040,122.000000,0.000000,3.545685,2.911466,-146.887863,-14.518600,9.561029,14.437037,1.782288,12.354074,13.511646,29.496355,2.683177,-0.567409,14.826391,16.537603,16.951670,60.150990,10.886889,-14.964186,11.112195,6.440030,9.421204,16.473108,13.930365,12.899656,14.210723,3.684570,3.657041,2.103443,2.165620,14.620867,-12.042996,-116.896843,8064.000000,0.000000,4.000000,,,,0.000000,4.000000,4.000000,4.000000,4.000000,4.000000,4.000000,4.000000,4.000000,4.000000,4.000000,4.000000,4.000000,4.000000,4.000000,4.000000,4.000000,4.000000,4.000000,4.000000,4.000000,4.000000,4.000000,4.000000,4.000000,4.000000,4.000000,4.000000,4.000000,4.000000,4.000000,4.000000,4.000000,100.000000
1614391715.798789,123.000000,0.000000,4.567780,2.908555,-147.253799,-12.965619,9.551469,13.396959,1.780506,12.341721,15.036595,29.466858,-2.447711,-0.566842,14.811565,17.033886,15.396256,46.244686,10.363181,-22.128710,7.511339,5.920770,8.386141,17.482275,13.403614,12.886757,14.196512,3.680885,2.627743,2.101340,4.214736,17.683168,-5.877107,-112.164558,8064.000000,0.000000,4.000000,,,,0.000000,4.000000,4.000000,4.000000,4.000000,4.000000,4.000000,4.000000,4.000000,4.000000,4.000000,4.000000,4.000000,4.000000,4.000000,4.000000,4.000000,4.000000,4.000000,4.000000,4.000000,4.000000,4.000000,4.000000,4.000000,4.000000,4.000000,4.000000,4.000000,4.000000,4.000000,4.000000,4.000000,100.000000
1614391715.806438,124.000000,0.000000,4.050392,2.905646,-147.619370,-13.978295,9.541917,12.870742,1.778725,12.329379,14.508739,28.924572,0.118839,-0.566275,18.386497,18.555313,26.662912,79.018951,10.865639,-4.670683,1.349982,7.453310,7.352114,16.951973,8.774826,13.899510,13.669495,3.677204,3.137936,2.099238,5.748983,17.152666,-14.589178,-124.360092,8064.000000,0.000000,4.000000,,,,0.000000,4.000000,4.000000,4.000000,4.000000,4.000000,4.000000,4.000000,4.000000,4.000000,4.000000,4.000000,4.000000,4.000000,4.000000,4.000000,4.000000,4.000000,4.000000,4.000000,4.000000,4.000000,4.000000,4.000000,4.000000,4.000000,4.000000,4.000000,4.000000,4.000000,4.000000,4.000000,4.000000,100.000000
1614391715.814287,125.000000,0.000000,4.046342,2.389920,-146.958923,-13.964316,9.532375,13.883512,1.776947,10.265767,14.494230,29.408468,0.118720,-0.565709,12.727085,15.972655,22.533684,82.529678,10.854773,-8.255755,0.322991,6.420216,10.421685,15.909380,5.689128,13.372790,14.681466,3.673527,0.570696,2.097139,5.230413,16.622692,-21.754076,-127.825470,8064.000000,0.000000,4.000000,,,,0.000000,4.000000,4.000000,4.000000,4.000000,4.000000,4.000000,4.000000,4.000000,4.000000,4.000000,4.000000,4.000000,4.000000,4.000000,4.000000,4.000000,4.000000,4.000000,4.000000,4.000000,4.000000,4.000000,4.000000,4.000000,4.000000,4.000000,4.000000,4.000000,4.000000,4.000000,4.000000,4.000000,100.000000
1614391715.822037,126.000000,0.000000,4.042295,2.900350,-144.760681,-13.437531,9.522843,13.356809,1.775170,9.742681,14.992557,29.379059,-1.932680,-0.565143,13.227179,18.520784,17.895767,60.908688,10.843918,-16.965448,6.476514,7.952257,18.616392,21.534496,5.683439,12.333777,17.230888,3.669853,0.057304,2.095042,5.225183,20.195812,-14.040014,-114.364311,8064.000000,0.000000,4.000000,,,,0.000000,4.000000,4.000000,4.000000,4.000000,4.000000,4.000000,4.000000,4.000000,4.000000,4.000000,4.000000,4.000000,4.000000,4.000000,4.000000,4.000000,4.000000,4.000000,4.000000,4.000000,4.000000,4.000000,4.000000,4.000000,4.000000,4.000000,4.000000,4.000000,4.000000,4.000000,4.000000,4.000000,100.000000
1614391715.829886,127.000000,0.000000,4.038253,4.948732,-143.077469,-13.936914,9.513320,13.343451,1.773395,13.835503,14.464743,28.836859,5.761560,-0.564578,28.085747,32.861240,28.647100,85.463165,10.833075,1.000235,13.136703,16.149433,19.623417,29.205269,6.190576,18.988110,18.239298,3.666183,4.672632,2.092947,5.219958,24.278181,-8.384949,-107.070465,8064.000000,0.000000,4.000000,,,,0.000000,4.000000,4.000000,4.000000,4.000000,4.000000,4.000000,4.000000,4.000000,4.000000,4.000000,4.000000,4.000000,4.000000,4.000000,4.000000,4.000000,4.000000,4.000000,4.000000,4.000000,4.000000,4.000000,4.000000,4.000000,4.000000,4.000000,4.000000,4.000000,4.000000,4.000000,4.000000,4.000000,100.000000
1614391715.837635,0.000000,0.000000,4.034215,6.995065,-142.934387,-13.922977,9.503807,13.330108,1.771621,16.385769,14.963099,29.320843,12.935286,-0.564013,29.596121,36.930943,26.567173,88.967445,11.335062,-0.026407,14.149208,17.671745,12.937126,22.509398,5.671565,25.122969,17.708239,3.662517,3.642318,2.090854,5.727558,25.279545,-9.402205,-109.014671,0.000000,190.000000,4.000000,,,,0.000000,4.000000,4.000000,4.000000,4.000000,4.000000,4.000000,4.000000,4.000000,4.000000,4.000000,4.000000,4.000000,4.000000,4.000000,4.000000,4.000000,4.000000,4.000000,4.000000,4.000000,4.000000,4.000000,4.000000,4.000000,4.000000,4.000000,4.000000,4.000000,4.000000,4.000000,4.000000,4.000000,100.000000
1614391715.845485,1.000000,0.000000,4.030180,6.475250,-142.791458,-13.909055,10.007123,13.316778,1.769850,15.856564,15.460957,29.291523,8.306966,-0.563449,14.694731,19.458113,11.155990,56.570786,9.785265,-24.641766,11.058136,6.884843,8.308805,8.640734,6.178714,17.918358,17.690529,3.658855,-4.053632,2.088763,5.721831,23.715803,-9.392803,-107.880020,0.000000,208.000000,4.000000,,,,0.000000,4.000000,4.000000,4.000000,4.000000,4.000000,4.000000,4.000000,4.000000,4.000000,4.000000,4.000000,4.000000,4.000000,4.000000,4.000000,4.000000,4.000000,4.000000,4.000000,4.000000,4.000000,4.000000,4.000000,4.000000,4.000000,4.000000,4.000000,4.000000,4.000000,4.000000,4.000000,4.000000,100.000000
1614391715.853234,2.000000,0.000000,4.026150,6.468775,-142.648666,-13.382325,8.971476,13.303461,1.768080,15.840707,13.394214,28.749411,4.196095,-0.562886,8.526190,11.233527,9.606372,49.334728,7.724198,-28.206867,-1.260615,-1.327170,7.274854,4.529529,6.172535,9.182490,18.185659,3.655196,-6.100860,2.086674,4.177647,24.717728,-9.383410,-108.797775,0.000000,174.000000,4.000000,,,,0.000000,4.000000,4.000000,4.000000,4.000000,4.000000,4.000000,4.000000,4.000000,4.000000,4.000000,4.000000,4.000000,4.000000,4.000000,4.000000,4.000000,4.000000,4.000000,4.000000,4.000000,4.000000,4.000000,4.000000,4.000000,4.000000,4.000000,4.000000,4.000000,4.000000,4.000000,4.000000,4.000000,100.000000
1614391715.861083,3.000000,0.000000,4.022124,6.462306,-142.506012,-14.907405,8.962503,13.802979,1.766312,16.337687,11.842358,29.746302,4.704719,-0.562323,11.081766,21.478704,12.673689,62.105904,6.690833,-27.153019,-19.208073,-0.300202,4.703477,6.576282,6.166363,9.173308,17.654654,3.651541,-4.043478,1.571767,5.199111,24.693010,-9.374026,-116.381287,0.000000,179.000000,4.000000,,,,0.000000,4.000000,4.000000,4.000000,4.000000,4.000000,4.000000,4.000000,4.000000,4.000000,4.000000,4.000000,4.000000,4.000000,4.000000,4.000000,4.000000,4.000000,4.000000,4.000000,4.000000,4.000000,4.000000,4.000000,4.000000,4.000000,4.000000,4.000000,4.000000,4.000000,4.000000,4.000000,4.000000,100.000000
1614391715.868832,4.000000,0.000000,4.018102,6.455843,-142.363510,-17.456600,10.492002,12.250713,1.764545,16.321348,10.804874,28.690914,5.725656,-0.561761,10.557864,24.021328,12.661016,67.172005,6.684142,-25.074583,-12.522197,-0.299902,4.698773,5.544064,6.160196,10.189775,15.585716,3.647889,-4.552255,2.083016,6.219553,21.591394,-8.339011,-118.829010,0.000000,206.000000,4.000000,,,,0.000000,4.000000,4.000000,4.000000,4.000000,4.000000,4.000000,4.000000,4.000000,4.000000,4.000000,4.000000,4.000000,4.000000,4.000000,4.000000,4.000000,4.000000,4.000000,4.000000,4.000000,4.000000,4.000000,4.000000,4.000000,4.000000,4.000000,4.000000,4.000000,4.000000,4.000000,4.000000,4.000000,100.000000
1614391715.876682,5.000000,0.000000,4.014084,6.449388,-143.246780,-17.951963,6.378947,7.110258,2.275601,15.279387,6.178685,23.534018,5.207109,-0.561199,9.521665,18.356281,16.238098,84.027908,7.190278,-5.049509,9.028787,-1.325243,4.694075,5.025700,5.641215,9.153945,14.031670,3.131421,-5.060523,2.080933,1.085128,17.467239,-11.920416,-122.299927,0.000000,196.000000,4.000000,,,,0.000000,4.000000,4.000000,4.000000,4.000000,4.000000,4.000000,4.000000,4.000000,4.000000,4.000000,4.000000,4.000000,4.000000,4.000000,4.000000,4.000000,4.000000,4.000000,4.000000,4.000000,4.000000,4.000000,4.000000,4.000000,4.000000,4.000000,4.000000,4.000000,4.000000,4.000000,4.000000,4.000000,100.000000
1614391715.884431,6.000000,0.000000,4.010070,6.442938,-147.206100,-17.421190,-1.319740,2.487763,0.222044,11.161543,0.018660,17.869459,-0.439123,-1.073458,7.460861,13.722540,9.555193,71.636192,6.670267,-12.223947,1.327450,-0.811097,4.176560,5.533494,6.148395,9.144792,13.504817,3.641110,-5.055462,1.566032,-1.992880,14.885669,-17.036701,-130.895569,0.000000,192.000000,4.000000,,,,0.000000,4.000000,4.000000,4.000000,4.000000,4.000000,4.000000,4.000000,4.000000,4.000000,4.000000,4.000000,4.000000,4.000000,4.000000,4.000000,4.000000,4.000000,4.000000,4.000000,4.000000,4.000000,4.000000,4.000000,4.000000,4.000000,4.000000,4.000000,4.000000,4.000000,4.000000,4.000000,4.000000,100.000000
1614391715.892280,7.000000,0.000000,4.006060,6.436495,-149.110168,-17.916590,-0.292779,1.972455,-1.829461,8.073459,-1.007000,17.338768,-6.079710,-0.559564,3.350837,3.452407,-4.813337,39.256859,3.073853,-44.519417,-15.596954,-0.810286,7.249307,5.527961,6.142246,9.135647,13.491312,5.175931,-4.024765,2.590106,6.214241,17.434885,-11.378638,-125.123650,0.000000,188.000000,4.000000,,,,0.000000,4.000000,4.000000,4.000000,4.000000,4.000000,4.000000,4.000000,4.000000,4.000000,4.000000,4.000000,4.000000,4.000000,4.000000,4.000000,4.000000,4.000000,4.000000,4.000000,4.000000,4.000000,4.000000,4.000000,4.000000,4.000000,4.000000,4.000000,4.000000,4.000000,4.000000,4.000000,4.000000,100.000000
1614391715.900029,8.000000,0.000000,4.002054,6.430059,-146.396957,-15.847392,8.425463,1.970482,-2.340451,8.065385,-0.493172,19.372711,-4.535169,-0.559005,2.321845,-1.166430,-2.757241,44.345810,4.096420,-37.295410,-7.376229,0.728986,11.857442,9.112177,5.110463,10.152152,13.990642,7.222036,-0.943818,4.638799,13.900334,24.084118,-2.136491,-110.126732,0.000000,204.000000,4.000000,,,,0.000000,4.000000,4.000000,4.000000,4.000000,4.000000,4.000000,4.000000,4.000000,4.000000,4.000000,4.000000,4.000000,4.000000,4.000000,4.000000,4.000000,4.000000,4.000000,4.000000,4.000000,4.000000,4.000000,4.000000,4.000000,4.000000,4.000000,4.000000,4.000000,4.000000,4.000000,4.000000,4.000000,100.000000
1614391715.907879,9.000000,0.000000,3.998052,6.423629,-142.147995,-11.216160,9.955499,1.968512,-1.825291,8.057320,0.532962,21.404621,-2.992172,-0.558446,5.909266,10.116788,9.553208,77.121979,12.810273,-4.437600,-1.215007,5.856462,12.871225,12.692808,7.156635,12.193281,16.540754,7.727635,-0.942874,6.172621,12.860793,28.162598,-1.108713,-111.555069,0.000000,187.000000,4.000000,,,,0.000000,4.000000,4.000000,4.000000,4.000000,4.000000,4.000000,4.000000,4.000000,4.000000,4.000000,4.000000,4.000000,4.000000,4.000000,4.000000,4.000000,4.000000,4.000000,4.000000,4.000000,4.000000,4.000000,4.000000,4.000000,4.000000,4.000000,4.000000,4.000000,4.000000,4.000000,4.000000,4.000000,100.000000
1614391715.915628,10.000000,0.000000,3.994054,6.417205,-141.493027,-9.666482,9.432722,6.581928,-1.823465,8.562082,4.634993,21.896038,-0.937898,-0.045067,9.493100,20.363081,13.646219,88.839722,18.951309,0.695042,-0.188151,9.953170,12.345533,13.705756,12.277683,13.719550,18.062674,7.207087,-1.454752,8.217731,12.335112,28.134436,-2.646066,-117.597359,0.000000,200.000000,4.000000,,,,0.000000,4.000000,4.000000,4.000000,4.000000,4.000000,4.000000,4.000000,4.000000,4.000000,4.000000,4.000000,4.000000,4.000000,4.000000,4.000000,4.000000,4.000000,4.000000,4.000000,4.000000,4.000000,4.000000,4.000000,4.000000,4.000000,4.000000,4.000000,4.000000,4.000000,4.000000,4.000000,4.000000,100.000000
1614391715.923477,11.000000,0.000000,3.990060,6.410788,-140.838715,-10.169636,13.013033,10.677910,-1.821642,10.604802,7.707281,21.361320,3.678425,2.519081,10.509249,21.881180,16.709496,83.109863,18.419537,7.873835,21.863319,10.968858,12.846009,13.179230,13.803867,13.193009,17.018970,6.687059,4.187729,9.747974,13.861238,27.593481,-1.617779,-111.325912,0.000000,203.000000,4.000000,,,,0.000000,4.000000,4.000000,4.000000,4.000000,4.000000,4.000000,4.000000,4.000000,4.000000,4.000000,4.000000,4.000000,4.000000,4.000000,4.000000,4.000000,4.000000,4.000000,4.000000,4.000000,4.000000,4.000000,4.000000,4.000000,4.000000,4.000000,4.000000,4.000000,4.000000,4.000000,4.000000,4.000000,100.000000
1614391715.931227,12.000000,0.000000,3.986070,6.404377,-140.697876,-10.159467,12.487200,9.641591,-2.332641,12.132659,7.186753,21.852779,4.187567,4.055023,10.498739,21.346478,21.308170,89.693420,18.401117,18.122372,32.097866,11.470709,12.320342,13.166051,13.277243,13.179817,18.540413,7.706013,6.747643,9.738227,10.770453,28.078707,-1.616161,-113.778694,0.000000,185.000000,4.000000,,,,0.000000,4.000000,4.000000,4.000000,4.000000,4.000000,4.000000,4.000000,4.000000,4.000000,4.000000,4.000000,4.000000,4.000000,4.000000,4.000000,4.000000,4.000000,4.000000,4.000000,4.000000,4.000000,4.000000,4.000000,4.000000,4.000000,4.000000,4.000000,4.000000,4.000000,4.000000,4.000000,4.000000,100.000000
1614391715.939076,13.000000,0.000000,3.982084,6.397973,-142.095642,-9.636486,10.423430,9.631949,-1.817487,13.146168,7.179566,21.830927,1.106456,1.999686,10.488240,16.196926,15.645838,72.680649,17.357075,-7.536777,3.347820,9.920776,12.820843,13.152884,13.776786,13.166637,21.598795,10.262410,-0.438591,9.728488,10.246862,28.050629,-2.127366,-120.844398,0.000000,212.000000,4.000000,,,,0.000000,4.000000,4.000000,4.000000,4.000000,4.000000,4.000000,4.000000,4.000000,4.000000,4.000000,4.000000,4.000000,4.000000,4.000000,4.000000,4.000000,4.000000,4.000000,4.000000,4.000000,4.000000,4.000000,4.000000,4.000000,4.000000,4.000000,4.000000,4.000000,4.000000,4.000000,4.000000,4.000000,100.000000
1614391715.946825,14.000000,0.000000,4.490922,6.904396,-143.492004,-9.626850,9.900187,10.647959,-1.302850,11.594560,7.685207,22.321917,1.105350,-0.053595,10.477753,10.539703,5.886602,48.505402,11.185872,-25.477959,-17.681170,5.295472,12.295201,13.139731,11.711727,13.666291,19.525915,9.739326,-5.566358,8.180298,7.672513,28.022577,-2.638059,-118.159454,0.000000,210.000000,4.000000,,,,0.000000,4.000000,4.000000,4.000000,4.000000,4.000000,4.000000,4.000000,4.000000,4.000000,4.000000,4.000000,4.000000,4.000000,4.000000,4.000000,4.000000,4.000000,4.000000,4.000000,4.000000,4.000000,4.000000,4.000000,4.000000,4.000000,4.000000,4.000000,4.000000,4.000000,4.000000,4.000000,4.000000,100.000000
1614391715.954474,15.000000,0.000000,2.947969,6.897491,-145.399796,-10.130044,4.249261,8.073208,-3.865649,6.967581,7.164701,22.299595,1.617065,-0.566362,10.467275,10.016343,6.906356,62.303051,6.559301,-5.965301,-11.509642,3.238894,8.693162,13.126592,6.571810,13.139804,14.891005,4.601382,-4.535151,6.120836,-1.565928,24.404812,-8.789267,-124.707962,0.000000,170.000000,4.000000,,,,0.000000,4.000000,4.000000,4.000000,4.000000,4.000000,4.000000,4.000000,4.000000,4.000000,4.000000,4.000000,4.000000,4.000000,4.000000,4.000000,4.000000,4.000000,4.000000,4.000000,4.000000,4.000000,4.000000,4.000000,4.000000,4.000000,4.000000,4.000000,4.000000,4.000000,4.000000,4.000000,4.000000,100.000000
1614391715.962224,16.000000,0.000000,0.380919,5.864953,-150.382599,-10.119914,-0.370373,2.424109,-4.887424,4.396511,7.157537,20.738834,-0.948655,-0.565796,10.456807,7.442225,9.976373,68.907417,6.552742,-11.087541,-10.985312,3.235655,5.094726,13.113465,5.539598,10.049741,12.824831,3.571140,-4.017795,4.576253,-6.179747,22.841946,-14.934323,-137.403763,0.000000,187.000000,4.000000,,,,0.000000,4.000000,4.000000,4.000000,4.000000,4.000000,4.000000,4.000000,4.000000,4.000000,4.000000,4.000000,4.000000,4.000000,4.000000,4.000000,4.000000,4.000000,4.000000,4.000000,4.000000,4.000000,4.000000,4.000000,4.000000,4.000000,4.000000,4.000000,4.000000,4.000000,4.000000,4.000000,4.000000,100.000000
1614391715.969873,17.000000,0.000000,0.893359,6.884728,-151.770691,-9.596973,6.296664,1.396044,-2.831255,4.904934,7.150380,22.256556,-2.998988,-0.052410,10.446350,2.306577,5.351012,36.530815,7.059010,-40.820042,-18.666634,1.181137,4.576810,13.100352,6.046878,9.014050,13.837647,6.131671,-5.039418,5.597318,-0.532542,26.921667,-9.278363,-133.676620,0.000000,217.000000,4.000000,,,,0.000000,4.000000,4.000000,4.000000,4.000000,4.000000,4.000000,4.000000,4.000000,4.000000,4.000000,4.000000,4.000000,4.000000,4.000000,4.000000,4.000000,4.000000,4.000000,4.000000,4.000000,4.000000,4.000000,4.000000,4.000000,4.000000,4.000000,4.000000,4.000000,4.000000,4.000000,4.000000,4.000000,100.000000
1614391715.977623,18.000000,0.000000,0.379645,6.877844,-150.593277,-11.125837,8.341649,2.933110,-1.289962,4.387209,7.143229,22.747120,-2.483169,-1.590819,10.435905,1.791450,0.730276,27.776335,6.539130,-28.471531,-12.494121,-0.358505,5.085054,13.087252,6.040832,10.030678,14.336631,7.664001,-5.034379,6.617362,2.544914,24.843464,-1.576778,-128.927551,0.000000,187.000000,4.000000,,,,0.000000,4.000000,4.000000,4.000000,4.000000,4.000000,4.000000,4.000000,4.000000,4.000000,4.000000,4.000000,4.000000,4.000000,4.000000,4.000000,4.000000,4.000000,4.000000,4.000000,4.000000,4.000000,4.000000,4.000000,4.000000,4.000000,4.000000,4.000000,4.000000,4.000000,4.000000,4.000000,4.000000,100.000000
1614391715.985272,19.000000,0.000000,-4.236120,2.255581,-156.596527,-15.217276,0.641000,0.366074,-1.801493,1.305899,7.136086,14.006425,-2.480685,-6.204613,10.425468,2.302479,1.242367,54.415226,6.532591,-4.853315,-1.712396,2.718776,5.079969,13.074164,5.521970,8.482185,11.245371,7.143517,-4.516524,2.508181,-1.047375,15.587852,-10.805970,-131.875549,0.000000,195.000000,4.000000,,,,0.000000,4.000000,4.000000,4.000000,4.000000,4.000000,4.000000,4.000000,4.000000,4.000000,4.000000,4.000000,4.000000,4.000000,4.000000,4.000000,4.000000,4.000000,4.000000,4.000000,4.000000,4.000000,4.000000,4.000000,4.000000,4.000000,4.000000,4.000000,4.000000,4.000000,4.000000,4.000000,4.000000,100.000000
1614391715.993021,20.000000,0.000000,-7.308806,-0.823597,-162.080948,-17.766161,-2.949385,-1.685574,-1.799691,0.278952,7.128950,7.838572,-2.478205,-8.762510,10.415043,2.812997,1.753945,53.847988,7.038879,-25.874104,-2.736325,2.203237,4.562068,13.061090,6.029269,5.909600,9.182843,6.623553,-4.512007,-2.109712,-2.071968,13.008161,-20.538754,-127.128296,0.000000,197.000000,4.000000,,,,0.000000,4.000000,4.000000,4.000000,4.000000,4.000000,4.000000,4.000000,4.000000,4.000000,4.000000,4.000000,4.000000,4.000000,4.000000,4.000000,4.000000,4.000000,4.000000,4.000000,4.000000,4.000000,4.000000,4.000000,4.000000,4.000000,4.000000,4.000000,4.000000,4.000000,4.000000,4.000000,4.000000,100.000000
1614391716.000671,21.000000,0.000000,-7.301497,1.228508,-159.867584,-17.748396,-0.895153,2.418675,-1.797892,1.817134,7.121821,12.446118,-2.475727,-6.189645,10.404628,8.451210,0.726550,45.589012,7.031840,-38.668743,-3.759229,-1.388710,4.044686,12.535209,6.023240,7.442153,11.737763,7.642570,-4.507495,2.507782,1.007027,18.636179,-12.313087,-125.975525,0.000000,209.000000,4.000000,,,,0.000000,4.000000,4.000000,4.000000,4.000000,4.000000,4.000000,4.000000,4.000000,4.000000,4.000000,4.000000,4.000000,4.000000,4.000000,4.000000,4.000000,4.000000,4.000000,4.000000,4.000000,4.000000,4.000000,4.000000,4.000000,4.000000,4.000000,4.000000,4.000000,4.000000,4.000000,4.000000,4.000000,100.000000
1614391716.008420,22.000000,0.000000,-6.781376,3.278562,-157.143616,-17.217827,-1.407079,6.518821,-1.796094,4.379420,7.114699,14.484954,-2.473251,-4.132174,10.394223,14.083784,2.777105,71.184448,7.537629,-9.399303,5.475299,1.689602,6.091923,13.548314,6.530037,9.485992,13.264487,10.199030,-3.990167,9.684761,3.057302,20.668823,-4.095645,-139.695709,0.000000,211.000000,4.000000,,,,0.000000,4.000000,4.000000,4.000000,4.000000,4.000000,4.000000,4.000000,4.000000,4.000000,4.000000,4.000000,4.000000,4.000000,4.000000,4.000000,4.000000,4.000000,4.000000,4.000000,4.000000,4.000000,4.000000,4.000000,4.000000,4.000000,4.000000,4.000000,4.000000,4.000000,4.000000,4.000000,4.000000,100.000000
1614391716.016069,23.000000,0.000000,-6.774594,2.249642,-158.012115,-17.713428,-1.918492,6.512302,-1.794298,4.887861,7.107584,10.880725,-2.470778,-4.128042,11.409470,15.095342,5.851251,87.010704,8.042912,2.917788,6.495465,3.226374,5.573011,14.047586,6.523507,9.989326,8.635838,10.188831,-3.986177,6.598154,1.515783,19.622515,-7.681293,-145.197037,0.000000,189.000000,4.000000,,,,0.000000,4.000000,4.000000,4.000000,4.000000,4.000000,4.000000,4.000000,4.000000,4.000000,4.000000,4.000000,4.000000,4.000000,4.000000,4.000000,4.000000,4.000000,4.000000,4.000000,4.000000,4.000000,4.000000,4.000000,4.000000,4.000000,4.000000,4.000000,4.000000,4.000000,4.000000,4.000000,4.000000,100.000000
1614391716.023819,24.000000,0.000000,-6.767820,2.247393,-155.802826,-17.182896,-1.403753,5.480149,-1.792503,4.882973,7.100477,11.895486,-2.468307,-4.123914,10.372419,13.541784,5.332580,71.539078,7.009228,-14.521028,-1.203339,2.710327,3.003335,11.982257,6.004163,8.953696,5.550279,7.101719,-5.007832,0.950530,0.488626,20.115713,-10.750535,-135.308243,0.000000,187.000000,4.000000,,,,0.000000,4.000000,4.000000,4.000000,4.000000,4.000000,4.000000,4.000000,4.000000,4.000000,4.000000,4.000000,4.000000,4.000000,4.000000,4.000000,4.000000,4.000000,4.000000,4.000000,4.000000,4.000000,4.000000,4.000000,4.000000,4.000000,4.000000,4.000000,4.000000,4.000000,4.000000,4.000000,4.000000,100.000000
1614391716.031468,25.000000,0.000000,-6.761052,2.757966,-153.082916,-16.652891,-0.889529,6.500309,-1.790711,7.955013,7.093376,14.960513,-2.465839,-3.606969,10.362047,14.041063,6.352888,65.826508,7.515039,-12.968045,15.208121,15.015309,13.256742,14.534377,6.510979,9.457563,8.621652,7.094617,-1.413080,1.975220,6.641984,20.095596,-8.175682,-127.993446,0.000000,195.000000,4.000000,,,,0.000000,4.000000,4.000000,4.000000,4.000000,4.000000,4.000000,4.000000,4.000000,4.000000,4.000000,4.000000,4.000000,4.000000,4.000000,4.000000,4.000000,4.000000,4.000000,4.000000,4.000000,4.000000,4.000000,4.000000,4.000000,4.000000,4.000000,4.000000,4.000000,4.000000,4.000000,4.000000,4.000000,100.000000
1614391716.039317,26.000000,0.000000,-5.728650,2.755208,-151.904190,-16.636238,-0.888639,6.493809,-1.276100,8.459879,7.086283,15.458373,-2.463373,-3.603362,12.402967,17.616766,11.987560,73.965813,8.533165,-0.134564,35.705734,25.256704,23.499895,21.186510,7.017289,12.525029,11.177133,8.113164,0.126794,2.998886,10.225085,21.101141,-7.141866,-130.942383,0.000000,173.000000,4.000000,,,,0.000000,4.000000,4.000000,4.000000,4.000000,4.000000,4.000000,4.000000,4.000000,4.000000,4.000000,4.000000,4.000000,4.000000,4.000000,4.000000,4.000000,4.000000,4.000000,4.000000,4.000000,4.000000,4.000000,4.000000,4.000000,4.000000,4.000000,4.000000,4.000000,4.000000,4.000000,4.000000,4.000000,100.000000
1614391716.047067,27.000000,0.000000,-7.261383,2.752453,-152.777939,-16.619602,-1.913392,5.974495,-1.787644,3.323214,7.079196,14.417274,-1.948089,-4.112579,5.723897,16.573507,11.975573,65.686714,1.345145,-18.595968,4.387977,9.846831,11.681524,16.037119,2.394887,13.025324,10.653135,3.489666,-8.591281,0.431785,-2.092832,19.541578,-12.775749,-141.067841,0.000000,188.000000,4.000000,,,,0.000000,4.000000,4.000000,4.000000,4.000000,4.000000,4.000000,4.000000,4.000000,4.000000,4.000000,4.000000,4.000000,4.000000,4.000000,4.000000,4.000000,4.000000,4.000000,4.000000,4.000000,4.000000,4.000000,4.000000,4.000000,4.000000,4.000000,4.000000,4.000000,4.000000,4.000000,4.000000,4.000000,100.000000
1614391716.054916,28.000000,0.000000,-11.356686,2.749700,-154.163620,-16.602983,-0.885837,5.968521,-1.785856,0.242968,7.072117,13.377215,-2.458961,-4.108467,-7.615160,4.249242,3.245649,34.851799,-9.938251,-50.885063,-27.924103,-11.188656,-2.689132,1.149286,-3.761354,6.858453,9.104020,0.409253,-15.249356,-2.132750,-13.372790,14.393832,-20.968102,-148.619080,0.000000,174.000000,4.000000,,,,0.000000,4.000000,4.000000,4.000000,4.000000,4.000000,4.000000,4.000000,4.000000,4.000000,4.000000,4.000000,4.000000,4.000000,4.000000,4.000000,4.000000,4.000000,4.000000,4.000000,4.000000,4.000000,4.000000,4.000000,4.000000,4.000000,4.000000,4.000000,4.000000,4.000000,4.000000,4.000000,4.000000,100.000000
1614391716.062665,29.000000,0.000000,-13.909431,2.746950,-154.522278,-16.586380,-0.884951,6.475372,-1.271250,1.268366,7.065045,15.415120,-4.507784,-3.591538,-13.761391,-4.985776,-2.911443,8.150282,-12.492415,-54.936745,-14.562846,-12.715929,0.390480,-1.928786,-5.808875,1.723389,10.633378,1.947306,-12.670005,-1.617796,-5.667110,13.353798,-20.434313,-147.957642,0.000000,175.000000,4.000000,,,,0.000000,4.000000,4.000000,4.000000,4.000000,4.000000,4.000000,4.000000,4.000000,4.000000,4.000000,4.000000,4.000000,4.000000,4.000000,4.000000,4.000000,4.000000,4.000000,4.000000,4.000000,4.000000,4.000000,4.000000,4.000000,4.000000,4.000000,4.000000,4.000000,4.000000,4.000000,4.000000,4.000000,100.000000
1614391716.070514,30.000000,0.000000,-14.921163,2.744204,-158.983139,-21.185179,-7.037912,4.930436,-2.808440,1.267097,5.519519,13.861243,-6.041738,-5.639228,-11.183527,-5.493611,-2.395711,23.526747,-11.454283,-33.856167,3.400434,-10.139111,-4.225295,2.175707,-6.828707,2.234486,9.597103,0.406897,-13.682976,-1.616179,-1.558879,15.391726,-17.849777,-149.860977,0.000000,206.000000,4.000000,,,,0.000000,4.000000,4.000000,4.000000,4.000000,4.000000,4.000000,4.000000,4.000000,4.000000,4.000000,4.000000,4.000000,4.000000,4.000000,4.000000,4.000000,4.000000,4.000000,4.000000,4.000000,4.000000,4.000000,4.000000,4.000000,4.000000,4.000000,4.000000,4.000000,4.000000,4.000000,4.000000,4.000000,100.000000
1614391716.078264,31.000000,0.000000,-17.470345,1.202998,-170.619019,-29.881941,-12.671900,1.335762,-6.908196,0.753010,2.949897,4.103793,-6.035697,-7.684871,-11.685163,-5.488117,-1.367674,53.246811,-14.006930,-28.181284,-15.577325,-13.718715,-17.041582,-2.954674,-8.873160,0.693790,-0.156083,-4.208895,-19.823139,-3.665844,-13.865012,11.273770,-28.601158,-159.454697,0.000000,191.000000,4.000000,,,,0.000000,4.000000,4.000000,4.000000,4.000000,4.000000,4.000000,4.000000,4.000000,4.000000,4.000000,4.000000,4.000000,4.000000,4.000000,4.000000,4.000000,4.000000,4.000000,4.000000,4.000000,4.000000,4.000000,4.000000,4.000000,4.000000,4.000000,4.000000,4.000000,4.000000,4.000000,4.000000,4.000000,100.000000
1614391716.086113,32.000000,0.000000,-17.452873,-0.849487,-178.653534,-35.493084,-13.172049,-1.229677,-9.465390,0.752257,2.946947,1.022766,-6.029661,-8.190007,-13.211940,-3.944168,-3.417589,42.424332,-16.044207,-43.024899,-17.613029,-10.628073,-11.896336,-6.028643,-9.377108,-3.922288,-8.873877,-4.717506,-17.239214,-5.200640,-18.466532,7.672753,-38.828968,-163.397812,8064.000000,0.000000,4.000000,,,,0.000000,4.000000,4.000000,4.000000,4.000000,4.000000,4.000000,4.000000,4.000000,4.000000,4.000000,4.000000,4.000000,4.000000,4.000000,4.000000,4.000000,4.000000,4.000000,4.000000,4.000000,4.000000,4.000000,4.000000,4.000000,4.000000,4.000000,4.000000,4.000000,4.000000,4.000000,4.000000,4.000000,100.000000
1614391716.093862,33.000000,0.000000,-14.871319,-1.361458,-177.962067,-34.944771,-12.646056,-1.741268,-8.943105,0.751504,3.456820,12.303794,-5.510810,-7.668996,-8.070523,4.777725,-2.901351,36.740883,-11.925597,-32.725464,7.019968,0.151786,-4.704952,2.182514,-8.342090,-4.944007,-4.762438,-4.199968,-12.093769,-5.708260,-11.268579,10.742003,-32.123470,-160.157486,8064.000000,0.000000,4.000000,,,,0.000000,4.000000,4.000000,4.000000,4.000000,4.000000,4.000000,4.000000,4.000000,4.000000,4.000000,4.000000,4.000000,4.000000,4.000000,4.000000,4.000000,4.000000,4.000000,4.000000,4.000000,4.000000,4.000000,4.000000,4.000000,4.000000,4.000000,4.000000,4.000000,4.000000,4.000000,4.000000,4.000000,100.000000
1614391716.101712,34.000000,0.000000,-13.830806,-0.847276,-177.271271,-35.422646,-11.607769,-1.226706,-8.934161,3.314855,2.940543,18.445337,-3.454018,-7.661327,-1.908607,10.926794,3.255397,69.524651,-3.708544,-0.897865,15.218077,4.767018,-0.597683,8.846998,-4.231184,-3.400601,3.960273,-2.657307,-11.568854,-5.702552,-8.693207,12.782543,-22.347757,-156.920410,8064.000000,0.000000,4.000000,,,,0.000000,4.000000,4.000000,4.000000,4.000000,4.000000,4.000000,4.000000,4.000000,4.000000,4.000000,4.000000,4.000000,4.000000,4.000000,4.000000,4.000000,4.000000,4.000000,4.000000,4.000000,4.000000,4.000000,4.000000,4.000000,4.000000,4.000000,4.000000,4.000000,4.000000,4.000000,4.000000,4.000000,100.000000
1614391716.109461,35.000000,0.000000,-11.765694,1.204853,-176.581192,-35.387226,-5.442315,-1.738300,-9.438047,7.926925,3.963243,17.401251,-1.912102,-7.653666,0.657405,9.890225,5.816244,67.403847,2.449011,-5.512352,10.074654,3.223790,17.864452,9.863792,1.414073,0.192543,12.161441,2.473556,-7.454722,-0.568644,-9.197334,13.795402,-22.838230,-155.737854,8064.000000,0.000000,4.000000,,,,0.000000,4.000000,4.000000,4.000000,4.000000,4.000000,4.000000,4.000000,4.000000,4.000000,4.000000,4.000000,4.000000,4.000000,4.000000,4.000000,4.000000,4.000000,4.000000,4.000000,4.000000,4.000000,4.000000,4.000000,4.000000,4.000000,4.000000,4.000000,4.000000,4.000000,4.000000,4.000000,4.000000,100.000000
1614391716.117310,36.000000,0.000000,-7.138543,2.742110,-173.327682,-30.736452,-0.821488,-1.223741,-7.890148,8.944639,6.523383,20.973593,-2.423011,-8.158833,1.169568,9.367515,4.271966,37.080032,4.497844,-24.481197,11.603040,3.220566,30.667101,13.443672,3.463941,8.397478,19.841587,4.009543,-1.293421,8.149873,-4.572752,17.884171,-23.841034,-154.043655,8064.000000,0.000000,4.000000,,,,0.000000,4.000000,4.000000,4.000000,4.000000,4.000000,4.000000,4.000000,4.000000,4.000000,4.000000,4.000000,4.000000,4.000000,4.000000,4.000000,4.000000,4.000000,4.000000,4.000000,4.000000,4.000000,4.000000,4.000000,4.000000,4.000000,4.000000,4.000000,4.000000,4.000000,4.000000,4.000000,4.000000,100.000000
1614391716.125059,37.000000,0.000000,-5.592943,2.739367,-173.154358,-28.141615,-0.820667,-1.222517,-5.318155,8.422874,7.542500,26.080824,-2.420588,-6.612212,4.245321,16.024815,12.985643,63.709621,3.980526,-7.020820,16.719643,4.242987,20.380024,17.532793,2.434836,16.081388,20.334566,3.492714,0.246334,10.193006,-0.978436,20.430389,-22.791552,-153.889603,8064.000000,0.000000,4.000000,,,,0.000000,4.000000,4.000000,4.000000,4.000000,4.000000,4.000000,4.000000,4.000000,4.000000,4.000000,4.000000,4.000000,4.000000,4.000000,4.000000,4.000000,4.000000,4.000000,4.000000,4.000000,4.000000,4.000000,4.000000,4.000000,4.000000,4.000000,4.000000,4.000000,4.000000,4.000000,4.000000,4.000000,100.000000
1614391716.132909,38.000000,0.000000,-6.612991,2.736628,-175.032486,-32.216038,-1.332667,-1.221295,-4.800017,8.414452,7.022137,26.054743,-2.418167,-4.041498,6.805179,21.649815,24.254709,92.363861,3.976545,5.806714,15.677281,4.238744,15.231439,17.515261,2.432401,16.065308,17.750130,5.540503,-0.779553,4.541787,-1.490278,19.897139,-22.768759,-153.735718,8064.000000,0.000000,4.000000,,,,0.000000,4.000000,4.000000,4.000000,4.000000,4.000000,4.000000,4.000000,4.000000,4.000000,4.000000,4.000000,4.000000,4.000000,4.000000,4.000000,4.000000,4.000000,4.000000,4.000000,4.000000,4.000000,4.000000,4.000000,4.000000,4.000000,4.000000,4.000000,4.000000,4.000000,4.000000,4.000000,4.000000,100.000000
1614391716.140658,39.000000,0.000000,-6.606378,2.733891,-176.395905,-35.260742,-0.818514,-1.220073,-5.308037,8.918858,7.015115,25.515867,-2.415749,-5.575918,7.311194,20.602524,18.589428,65.092010,3.972569,-13.686273,0.789809,2.696043,18.293131,16.472103,2.942790,12.972319,18.245199,7.586245,-0.778774,1.973142,-2.001608,20.902882,-22.745991,-153.069153,8064.000000,0.000000,4.000000,,,,0.000000,4.000000,4.000000,4.000000,4.000000,4.000000,4.000000,4.000000,4.000000,4.000000,4.000000,4.000000,4.000000,4.000000,4.000000,4.000000,4.000000,4.000000,4.000000,4.000000,4.000000,4.000000,4.000000,4.000000,4.000000,4.000000,4.000000,4.000000,4.000000,4.000000,4.000000,4.000000,4.000000,100.000000
1614391716.148507,40.000000,0.000000,-6.086951,2.731158,-179.296432,-34.712662,-1.330516,-1.218853,-5.302729,8.397118,7.008100,24.977531,-2.413333,-7.108803,6.791062,17.504999,8.827250,58.873070,3.455775,-15.723868,-4.852006,2.693347,14.685094,15.942811,2.427026,13.472167,16.175673,7.578658,-0.265174,2.483990,-1.486786,19.343517,-23.748886,-154.454544,8064.000000,0.000000,4.000000,,,,0.000000,4.000000,4.000000,4.000000,4.000000,4.000000,4.000000,4.000000,4.000000,4.000000,4.000000,4.000000,4.000000,4.000000,4.000000,4.000000,4.000000,4.000000,4.000000,4.000000,4.000000,4.000000,4.000000,4.000000,4.000000,4.000000,4.000000,4.000000,4.000000,4.000000,4.000000,4.000000,4.000000,100.000000
1614391716.156256,41.000000,0.000000,-6.593685,3.241247,-183.219711,-34.165131,-1.329185,-1.217634,-5.297427,8.388721,7.001092,24.952555,-2.410920,-5.050412,6.784271,15.949032,8.305601,70.096245,3.452320,-7.503016,21.819513,6.280397,15.183229,16.952509,2.424599,13.458695,13.595394,7.058259,-0.777730,1.968685,-1.998120,16.760071,-26.289240,-156.351379,8064.000000,0.000000,4.000000,,,,0.000000,4.000000,4.000000,4.000000,4.000000,4.000000,4.000000,4.000000,4.000000,4.000000,4.000000,4.000000,4.000000,4.000000,4.000000,4.000000,4.000000,4.000000,4.000000,4.000000,4.000000,4.000000,4.000000,4.000000,4.000000,4.000000,4.000000,4.000000,4.000000,4.000000,4.000000,4.000000,4.000000,100.000000
1614391716.163906,42.000000,0.000000,-6.587091,1.699544,-183.549301,-34.643784,-1.327856,-1.216417,-5.292129,8.380332,6.994091,25.953243,-2.408509,-3.506901,6.777487,13.881801,7.271655,43.872307,3.448867,-22.367308,33.592564,6.274117,12.603944,15.909916,2.422174,12.932416,16.145901,7.051201,-0.776952,1.453896,-1.996122,18.281773,-27.288591,-157.733490,8064.000000,0.000000,4.000000,,,,0.000000,4.000000,4.000000,4.000000,4.000000,4.000000,4.000000,4.000000,4.000000,4.000000,4.000000,4.000000,4.000000,4.000000,4.000000,4.000000,4.000000,4.000000,4.000000,4.000000,4.000000,4.000000,4.000000,4.000000,4.000000,4.000000,4.000000,4.000000,4.000000,4.000000,4.000000,4.000000,4.000000,100.000000
1614391716.171655,43.000000,0.000000,-6.580504,-0.353437,-183.878571,-35.121960,-1.839349,-1.215200,-5.286837,8.371952,6.987097,21.824726,-2.406100,-4.016214,6.770710,12.842278,1.623357,39.213051,3.445419,-26.960325,1.251280,-2.450106,-5.357378,9.740159,2.419752,12.919483,14.591293,7.044149,-0.776175,1.965263,-1.994126,19.289131,-27.261303,-157.062927,8064.000000,0.000000,4.000000,,,,0.000000,4.000000,4.000000,4.000000,4.000000,4.000000,4.000000,4.000000,4.000000,4.000000,4.000000,4.000000,4.000000,4.000000,4.000000,4.000000,4.000000,4.000000,4.000000,4.000000,4.000000,4.000000,4.000000,4.000000,4.000000,4.000000,4.000000,4.000000,4.000000,4.000000,4.000000,4.000000,4.000000,100.000000
1614391716.179305,44.000000,0.000000,-6.573924,-1.378725,-182.669052,-35.086838,-1.324689,-1.726806,-5.281550,8.363580,6.980110,12.059311,-2.403694,-4.012198,6.763938,12.829436,0.083273,66.353325,3.441973,-9.497467,-13.108946,-4.498938,-7.403303,10.756061,2.417333,11.368102,7.910036,6.011465,-0.775399,1.963297,-1.992132,14.654458,-27.746862,-156.393051,8064.000000,0.000000,4.000000,,,,0.000000,4.000000,4.000000,4.000000,4.000000,4.000000,4.000000,4.000000,4.000000,4.000000,4.000000,4.000000,4.000000,4.000000,4.000000,4.000000,4.000000,4.000000,4.000000,4.000000,4.000000,4.000000,4.000000,4.000000,4.000000,4.000000,4.000000,4.000000,4.000000,4.000000,4.000000,4.000000,4.000000,100.000000
1614391716.187054,45.000000,0.000000,-6.054529,-0.864526,-182.486389,-34.538933,-1.323364,-1.212258,-5.276268,8.355216,6.973130,8.457508,-2.401290,-4.008186,6.757174,11.790965,0.596010,62.184406,3.438531,-3.334124,19.724676,8.838895,11.065639,20.488894,2.414915,9.305452,4.312382,4.979812,-1.287444,1.961334,-1.990139,11.562881,-26.180653,-159.826401,8064.000000,0.000000,4.000000,,,,0.000000,4.000000,4.000000,4.000000,4.000000,4.000000,4.000000,4.000000,4.000000,4.000000,4.000000,4.000000,4.000000,4.000000,4.000000,4.000000,4.000000,4.000000,4.000000,4.000000,4.000000,4.000000,4.000000,4.000000,4.000000,4.000000,4.000000,4.000000,4.000000,4.000000,4.000000,4.000000,4.000000,100.000000
1614391716.194703,46.000000,0.000000,-6.561295,-0.863661,-183.842361,-35.017212,-1.834861,-1.211046,-5.783813,8.346861,6.966156,13.064435,-2.398889,-4.004178,6.750418,14.343277,3.159516,60.070938,2.922272,-5.382071,27.397259,18.573645,14.644317,25.083790,2.925321,8.783326,5.846531,2.410730,-0.260516,1.959373,-1.988149,12.064138,-27.180113,-165.307602,8064.000000,0.000000,4.000000,,,,0.000000,4.000000,4.000000,4.000000,4.000000,4.000000,4.000000,4.000000,4.000000,4.000000,4.000000,4.000000,4.000000,4.000000,4.000000,4.000000,4.000000,4.000000,4.000000,4.000000,4.000000,4.000000,4.000000,4.000000,4.000000,4.000000,4.000000,4.000000,4.000000,4.000000,4.000000,4.000000,4.000000,100.000000
1614391716.202453,47.000000,0.000000,-7.067554,-0.862798,-178.017502,-34.982197,-1.320206,-1.722656,-5.265209,8.338514,6.959190,17.153934,-2.909311,-4.000173,6.743667,22.534061,7.258921,82.574974,4.457811,-4.863869,0.703195,18.042252,6.424544,23.520245,1.896755,8.774543,12.507351,2.408319,1.791027,1.957413,-2.498982,13.077715,-28.178576,-160.526901,8064.000000,0.000000,4.000000,,,,0.000000,4.000000,4.000000,4.000000,4.000000,4.000000,4.000000,4.000000,4.000000,4.000000,4.000000,4.000000,4.000000,4.000000,4.000000,4.000000,4.000000,4.000000,4.000000,4.000000,4.000000,4.000000,4.000000,4.000000,4.000000,4.000000,4.000000,4.000000,4.000000,4.000000,4.000000,4.000000,4.000000,100.000000
1614391716.210102,48.000000,0.000000,-3.470743,-1.374755,-164.506149,-29.819010,3.296499,-0.182471,-3.208661,8.330175,6.952231,17.136782,-1.367940,-3.996173,7.762564,26.614092,9.815764,76.851372,7.530277,-6.910287,8.907620,18.024210,11.033504,24.009544,2.920499,9.278589,20.699972,11.123859,3.327698,1.955456,-1.983662,15.628740,-19.432447,-148.571503,8064.000000,0.000000,4.000000,,,,0.000000,4.000000,4.000000,4.000000,4.000000,4.000000,4.000000,4.000000,4.000000,4.000000,4.000000,4.000000,4.000000,4.000000,4.000000,4.000000,4.000000,4.000000,4.000000,4.000000,4.000000,4.000000,4.000000,4.000000,4.000000,4.000000,4.000000,4.000000,4.000000,4.000000,4.000000,4.000000,4.000000,100.000000
1614391716.217851,49.000000,0.000000,-3.980093,-0.860560,-157.674973,-23.635344,6.370126,1.868993,-1.154171,8.834666,6.945279,17.119644,0.684710,-3.992177,7.754802,24.536196,11.344410,61.389904,8.035567,-4.852095,35.565380,20.057467,17.689137,23.472715,6.507322,11.833413,25.294657,20.856325,2.811549,1.953501,0.069604,19.202854,-8.643785,-143.294739,8192.000000,0.000000,4.000000,,,,0.000000,4.000000,4.000000,4.000000,4.000000,4.000000,4.000000,4.000000,4.000000,4.000000,4.000000,4.000000,4.000000,4.000000,4.000000,4.000000,4.000000,4.000000,4.000000,4.000000,4.000000,4.000000,4.000000,4.000000,4.000000,4.000000,4.000000,4.000000,4.000000,4.000000,4.000000,4.000000,4.000000,100.000000
1614391716.225501,50.000000,0.000000,-10.642779,-0.346879,-159.055756,-22.586067,6.876576,2.892765,-1.665837,8.313011,6.938334,17.615345,1.709666,-3.988185,6.208586,24.511660,13.897168,74.661850,7.001890,0.280962,28.350327,17.473307,16.645807,19.859499,3.936712,13.360041,23.730900,21.861111,3.321558,1.951547,2.120816,20.209293,-11.712064,-144.177078,8064.000000,0.000000,4.000000,,,,0.000000,4.000000,4.000000,4.000000,4.000000,4.000000,4.000000,4.000000,4.000000,4.000000,4.000000,4.000000,4.000000,4.000000,4.000000,4.000000,4.000000,4.000000,4.000000,4.000000,4.000000,4.000000,4.000000,4.000000,4.000000,4.000000,4.000000,4.000000,4.000000,4.000000,4.000000,4.000000,4.000000,100.000000
1614391716.233250,51.000000,0.000000,-14.734701,-2.910635,-160.435165,-23.076302,5.844059,2.377052,-1.664171,8.304698,6.931396,18.110550,1.707957,-3.984197,8.253659,29.615353,17.985836,92.535904,8.020530,2.844784,20.116848,18.481474,15.603520,19.326818,-0.169789,12.833860,20.117426,15.685403,3.318237,1.949596,2.118695,20.189083,-18.879839,-145.058548,8064.000000,0.000000,4.000000,,,,0.000000,4.000000,4.000000,4.000000,4.000000,4.000000,4.000000,4.000000,4.000000,4.000000,4.000000,4.000000,4.000000,4.000000,4.000000,4.000000,4.000000,4.000000,4.000000,4.000000,4.000000,4.000000,4.000000,4.000000,4.000000,4.000000,4.000000,4.000000,4.000000,4.000000,4.000000,4.000000,4.000000,100.000000
1614391716.240900,52.000000,0.000000,-13.181504,-4.446186,-161.813187,-22.540405,5.838214,2.374675,-1.662507,8.809214,6.924464,17.579618,0.680608,-3.467392,7.219764,25.995995,16.942209,86.289520,7.499688,0.277837,30.353142,18.975813,15.587917,22.384415,1.368842,13.333847,17.533207,10.028691,3.314919,1.947646,1.603756,19.656075,-16.296856,-143.375031,8064.000000,0.000000,4.000000,,,,0.000000,4.000000,4.000000,4.000000,4.000000,4.000000,4.000000,4.000000,4.000000,4.000000,4.000000,4.000000,4.000000,4.000000,4.000000,4.000000,4.000000,4.000000,4.000000,4.000000,4.000000,4.000000,4.000000,4.000000,4.000000,4.000000,4.000000,4.000000,4.000000,4.000000,4.000000,4.000000,4.000000,100.000000
1614391716.248649,53.000000,0.000000,-13.168323,-1.877637,-162.677017,-23.030685,7.370838,2.885121,-1.148024,5.723481,6.917540,17.562038,-2.396996,-3.976745,-5.095148,6.995639,-2.561913,53.895538,0.825522,-24.850647,14.938173,3.059402,11.469765,15.182543,0.854653,13.320514,17.515673,3.351996,3.311604,1.945698,2.114973,20.149239,-14.229278,-142.718826,8064.000000,0.000000,4.000000,,,,0.000000,4.000000,4.000000,4.000000,4.000000,4.000000,4.000000,4.000000,4.000000,4.000000,4.000000,4.000000,4.000000,4.000000,4.000000,4.000000,4.000000,4.000000,4.000000,4.000000,4.000000,4.000000,4.000000,4.000000,4.000000,4.000000,4.000000,4.000000,4.000000,4.000000,4.000000,4.000000,4.000000,100.000000
1614391716.256298,54.000000,0.000000,-14.180796,-0.337298,-162.514343,-25.058937,5.312185,1.856595,-1.659696,1.102373,6.910622,18.057299,-5.471522,-3.972768,-15.859283,-8.908792,-28.713198,21.533951,-8.406073,-47.902718,-11.743432,-17.969299,2.227526,-1.242896,-6.838509,9.717449,16.472517,-2.292382,1.257010,2.456573,1.600037,18.590628,-19.343254,-149.242783,8064.000000,0.000000,4.000000,,,,0.000000,4.000000,4.000000,4.000000,4.000000,4.000000,4.000000,4.000000,4.000000,4.000000,4.000000,4.000000,4.000000,4.000000,4.000000,4.000000,4.000000,4.000000,4.000000,4.000000,4.000000,4.000000,4.000000,4.000000,4.000000,4.000000,4.000000,4.000000,4.000000,4.000000,4.000000,4.000000,4.000000,100.000000
1614391716.264048,55.000000,0.000000,-13.140974,-0.849781,-167.480026,-28.623621,-3.923897,-0.709365,-1.658037,0.588450,7.416532,15.987959,-6.491692,-3.455975,-13.279322,-6.335781,-26.633202,47.153442,-11.987411,-29.906097,-4.552201,-17.951328,-2.902907,-6.882679,-9.908594,6.117988,10.302197,-5.367012,-2.333991,0.402834,-0.452845,12.931011,-24.452114,-159.862762,7936.000000,0.000000,4.000000,,,,0.000000,4.000000,4.000000,4.000000,4.000000,4.000000,4.000000,4.000000,4.000000,4.000000,4.000000,4.000000,4.000000,4.000000,4.000000,4.000000,4.000000,4.000000,4.000000,4.000000,4.000000,4.000000,4.000000,4.000000,4.000000,4.000000,4.000000,4.000000,4.000000,4.000000,4.000000,4.000000,4.000000,100.000000
