title:13, start timestamp:1614392022.125985, stop timestamp:1614392068.014541, headset type:EPOCFLEX, headset serial:F00001ED, headset firmware:f12, subject name:s10, channels:75, sampling rate:128, samples:5927      , version:2.0
Timestamp,EEG.Counter,EEG.Interpolated,EEG.Cz,EEG.Fz,EEG.Fp1,EEG.AF3,EEG.F7,EEG.F3,EEG.FC1,EEG.C3,EEG.FC5,EEG.T7,EEG.CP5,EEG.CP1,EEG.P3,EEG.P7,EEG.PO3,EEG.O1,EEG.Pz,EEG.Oz,EEG.O2,EEG.PO4,EEG.P8,EEG.P4,EEG.CP2,EEG.CP6,EEG.T8,EEG.FC6,EEG.C4,EEG.FC2,EEG.F4,EEG.F8,EEG.AF4,EEG.Fp2,EEG.HighBitFlex,EEG.RawCq,EEG.Battery,MarkerIndex,MarkerType,MarkerValueInt,EEG.MarkerHardware,CQ.Cz,CQ.Fz,CQ.Fp1,CQ.AF3,CQ.F7,CQ.F3,CQ.FC1,CQ.C3,CQ.FC5,CQ.T7,CQ.CP5,CQ.CP1,CQ.P3,CQ.P7,CQ.PO3,CQ.O1,CQ.Pz,CQ.Oz,CQ.O2,CQ.PO4,CQ.P8,CQ.P4,CQ.CP2,CQ.CP6,CQ.T8,CQ.FC6,CQ.C4,CQ.FC2,CQ.F4,CQ.F8,CQ.AF4,CQ.Fp2,CQ.Overall
1614392022.125985,102.000000,0.000000,-4.280474,11.238385,-82.911682,21.473410,-12.778220,14.172573,12.951926,5.641250,4.683532,3.110228,1.012759,5.629454,1.370836,-4.466127,-3.504191,201.434753,17.847498,158.294647,136.502335,18.791906,13.940761,12.222000,16.240103,3.164223,16.877356,16.561275,3.938059,7.206853,14.837915,-9.378343,9.916856,-73.599289,8064.000000,0.000000,4.000000,,,,0.000000,4.000000,4.000000,4.000000,4.000000,4.000000,4.000000,4.000000,4.000000,4.000000,4.000000,4.000000,4.000000,4.000000,4.000000,4.000000,2.000000,4.000000,4.000000,4.000000,4.000000,4.000000,4.000000,4.000000,4.000000,4.000000,4.000000,4.000000,4.000000,4.000000,4.000000,4.000000,4.000000,83.333336
1614392022.133735,103.000000,0.000000,-3.763373,11.227147,-87.956970,23.503218,-12.252621,14.671222,4.733846,6.661250,3.140387,-2.021087,2.550208,6.649465,2.395106,0.153723,4.704442,229.951263,13.727087,172.495316,135.853012,18.260294,12.388358,9.645676,14.172582,3.161058,17.373299,12.442150,-0.168443,5.661185,12.771795,-10.907426,7.855657,-77.115433,8064.000000,0.000000,4.000000,,,,0.000000,4.000000,4.000000,4.000000,4.000000,4.000000,4.000000,4.000000,4.000000,4.000000,4.000000,4.000000,4.000000,4.000000,4.000000,4.000000,2.000000,4.000000,4.000000,4.000000,4.000000,4.000000,4.000000,4.000000,4.000000,4.000000,4.000000,4.000000,4.000000,4.000000,4.000000,4.000000,4.000000,83.333336
1614392022.141484,104.000000,0.000000,-6.836533,11.728740,-87.356194,17.325869,-17.368574,14.143729,-5.014477,-0.012078,0.573144,-11.249835,-4.119009,6.129995,-1.709853,-20.359251,-6.582314,199.977722,10.123616,148.220261,131.614594,14.652290,11.863150,7.584748,10.568666,0.593795,16.330284,10.378427,-0.168275,4.117063,9.682100,-11.922159,-0.870148,-78.576782,8064.000000,0.000000,4.000000,,,,0.000000,4.000000,4.000000,4.000000,4.000000,4.000000,4.000000,4.000000,4.000000,4.000000,4.000000,4.000000,4.000000,4.000000,4.000000,4.000000,2.000000,4.000000,4.000000,4.000000,4.000000,4.000000,4.000000,4.000000,4.000000,4.000000,4.000000,4.000000,4.000000,4.000000,4.000000,4.000000,4.000000,83.333336
1614392022.149133,105.000000,0.000000,-11.445081,10.178550,-94.448326,1.923928,-24.017872,10.539843,-6.547925,-8.730015,0.572570,-13.802689,-10.268736,1.508481,-5.810708,-35.723507,-17.857782,175.675186,7.549390,128.584854,122.252213,11.560716,3.133338,8.602804,7.481174,-0.432440,10.672929,5.239843,-4.270670,0.523202,4.544213,-13.961519,-9.587226,-78.498199,8064.000000,0.000000,4.000000,,,,0.000000,4.000000,4.000000,4.000000,4.000000,4.000000,4.000000,4.000000,4.000000,4.000000,4.000000,4.000000,4.000000,4.000000,4.000000,4.000000,2.000000,4.000000,4.000000,4.000000,4.000000,4.000000,4.000000,4.000000,4.000000,4.000000,4.000000,4.000000,4.000000,4.000000,4.000000,4.000000,4.000000,83.333336
1614392022.156883,106.000000,0.000000,-12.459276,8.117089,-99.994904,-2.693381,-20.916931,7.452379,-5.002915,-9.746926,0.571998,-12.250423,-7.694365,-1.569951,-5.804897,-18.251886,-13.737361,202.166168,8.054662,131.533203,101.617142,9.497872,-7.639026,2.953176,7.473692,-2.483290,5.534050,-3.483346,-11.445887,-3.067065,0.437105,-14.973199,-10.603280,-78.419701,8064.000000,0.000000,4.000000,,,,0.000000,4.000000,4.000000,4.000000,4.000000,4.000000,4.000000,4.000000,4.000000,4.000000,4.000000,4.000000,4.000000,4.000000,4.000000,4.000000,2.000000,4.000000,4.000000,4.000000,4.000000,4.000000,4.000000,4.000000,4.000000,4.000000,4.000000,4.000000,4.000000,4.000000,4.000000,4.000000,4.000000,83.333336
1614392022.164532,107.000000,0.000000,-11.933997,7.083331,-95.792343,5.514441,-15.767809,6.932106,-5.510733,-9.224359,0.571426,-12.750994,-6.148209,-1.568381,-5.286272,-4.387480,-15.262085,202.476822,8.559427,118.068336,91.259109,6.924272,-7.631387,-2.690803,7.979039,-7.096191,5.015696,-2.967042,-12.460082,-3.063998,0.436668,-13.932585,-8.541394,-79.366928,8064.000000,0.000000,4.000000,,,,0.000000,4.000000,4.000000,4.000000,4.000000,4.000000,4.000000,4.000000,4.000000,4.000000,4.000000,4.000000,4.000000,4.000000,4.000000,4.000000,2.000000,4.000000,4.000000,4.000000,4.000000,4.000000,4.000000,4.000000,4.000000,4.000000,4.000000,4.000000,4.000000,4.000000,4.000000,4.000000,4.000000,83.333336
1614392022.172281,108.000000,0.000000,-11.922063,7.589068,-94.158089,8.585850,-16.264862,5.386713,-5.505222,-8.702313,1.083675,-13.251063,-6.142061,-1.053992,-5.793806,-7.972836,-20.887850,175.607681,8.038048,106.668213,103.988365,6.917348,-0.957089,0.901632,7.971060,-9.140377,6.549141,3.702592,-8.345057,-2.548113,0.949052,-12.893011,-6.481571,-79.800377,8064.000000,0.000000,4.000000,,,,0.000000,4.000000,4.000000,4.000000,4.000000,4.000000,4.000000,4.000000,4.000000,4.000000,4.000000,4.000000,4.000000,4.000000,4.000000,4.000000,2.000000,4.000000,4.000000,4.000000,4.000000,4.000000,4.000000,4.000000,4.000000,4.000000,4.000000,4.000000,4.000000,4.000000,4.000000,4.000000,4.000000,83.333336
1614392022.179931,109.000000,0.000000,-12.422961,7.581479,-100.217781,6.525981,-16.248596,2.817224,-4.986896,-4.591047,-0.968691,-12.212172,2.069209,-1.565759,-0.659807,0.240265,-4.456705,208.252579,9.055651,139.382065,121.833092,11.525815,2.120791,5.516115,7.963089,-8.105596,5.516952,2.673248,-7.311072,-3.058386,0.948103,-16.469862,-4.936628,-81.259041,8064.000000,0.000000,4.000000,,,,0.000000,4.000000,4.000000,4.000000,4.000000,4.000000,4.000000,4.000000,4.000000,4.000000,4.000000,4.000000,4.000000,4.000000,4.000000,4.000000,2.000000,4.000000,4.000000,4.000000,4.000000,4.000000,4.000000,4.000000,4.000000,4.000000,4.000000,4.000000,4.000000,4.000000,4.000000,4.000000,4.000000,83.333336
1614392022.187680,110.000000,0.000000,-11.897717,7.573898,-101.656021,7.032276,-15.719527,2.814406,-4.981909,-0.996713,-5.583107,-12.199959,8.220986,-1.051373,6.007520,10.496434,15.547752,240.864853,8.533774,172.063187,128.377930,15.104033,-0.958253,4.484957,7.955126,-8.097489,1.408870,-1.431989,-8.329402,-2.542507,0.434334,-21.068777,-5.957333,-83.741882,8064.000000,0.000000,4.000000,,,,0.000000,4.000000,4.000000,4.000000,4.000000,4.000000,4.000000,4.000000,4.000000,4.000000,4.000000,4.000000,4.000000,4.000000,4.000000,4.000000,2.000000,4.000000,4.000000,4.000000,4.000000,4.000000,4.000000,4.000000,4.000000,4.000000,4.000000,4.000000,4.000000,4.000000,4.000000,4.000000,4.000000,83.333336
1614392022.195329,111.000000,0.000000,-11.885820,7.566324,-90.272316,8.050885,-15.703808,3.324412,-4.976927,-0.995716,-5.577524,-12.187759,1.033278,-1.050321,3.437410,-2.847395,3.224512,208.316284,4.935497,144.198822,125.685448,13.037646,-2.495756,3.967652,7.947171,-8.089393,2.433103,-0.404916,-7.808252,-2.539964,0.946720,-16.432323,-4.412914,-77.504295,8064.000000,0.000000,4.000000,,,,0.000000,4.000000,4.000000,4.000000,4.000000,4.000000,4.000000,4.000000,4.000000,4.000000,4.000000,4.000000,4.000000,4.000000,4.000000,4.000000,2.000000,4.000000,4.000000,4.000000,4.000000,4.000000,4.000000,4.000000,4.000000,4.000000,4.000000,4.000000,4.000000,4.000000,4.000000,4.000000,4.000000,83.333336
1614392022.203079,112.000000,0.000000,-11.873935,7.558757,-83.515373,8.042834,-14.662463,3.321088,-4.971951,-0.994720,-2.495023,-10.124290,-6.147242,-1.049271,-4.258336,-17.203522,-21.906918,175.800278,1.340818,111.746925,122.482841,10.460506,5.199047,4.989325,8.452044,-8.081303,8.071695,3.185232,-7.287623,-2.537424,1.458594,-10.262045,-1.844398,-70.247307,8064.000000,0.000000,4.000000,,,,0.000000,4.000000,4.000000,4.000000,4.000000,4.000000,4.000000,4.000000,4.000000,4.000000,4.000000,4.000000,4.000000,4.000000,4.000000,4.000000,2.000000,4.000000,4.000000,4.000000,4.000000,4.000000,4.000000,4.000000,4.000000,4.000000,4.000000,4.000000,4.000000,4.000000,4.000000,4.000000,4.000000,83.333336
1614392022.210728,113.000000,0.000000,-11.862061,7.551198,-93.688271,6.496330,-17.724724,3.317767,-4.966979,-4.583469,-3.005348,-8.575704,-5.628274,-1.048221,-6.305359,-16.673498,-27.013216,180.239868,-0.711805,117.276207,120.821892,10.450046,11.347694,4.471515,6.392310,-8.073221,7.550803,3.694868,-7.793156,-2.022067,0.431495,-13.328706,-4.919477,-79.920647,8064.000000,0.000000,4.000000,,,,0.000000,4.000000,4.000000,4.000000,4.000000,4.000000,4.000000,4.000000,4.000000,4.000000,4.000000,4.000000,4.000000,4.000000,4.000000,4.000000,2.000000,4.000000,4.000000,4.000000,4.000000,4.000000,4.000000,4.000000,4.000000,4.000000,4.000000,4.000000,4.000000,4.000000,4.000000,4.000000,4.000000,83.333336
1614392022.218478,114.000000,0.000000,-11.850199,7.543647,-104.363815,3.925731,-24.886486,3.314449,-4.962011,-8.681450,-3.515164,-8.054307,-5.109826,-1.047173,-4.760592,-14.605542,-21.857998,212.880142,-2.249555,126.902519,119.162613,10.439596,7.233782,4.979865,4.334636,-7.552328,-0.149056,0.101429,-7.785363,-3.045686,-1.620219,-17.417942,-11.581224,-92.148415,8064.000000,0.000000,4.000000,,,,0.000000,4.000000,4.000000,4.000000,4.000000,4.000000,4.000000,4.000000,4.000000,4.000000,4.000000,4.000000,4.000000,4.000000,4.000000,4.000000,2.000000,4.000000,4.000000,4.000000,4.000000,4.000000,4.000000,4.000000,4.000000,4.000000,4.000000,4.000000,4.000000,4.000000,4.000000,4.000000,4.000000,83.333336
1614392022.226127,115.000000,0.000000,-11.838348,7.536104,-102.208168,3.408984,-27.938522,3.311135,-4.957049,-9.185589,-2.998828,-8.559073,-6.130357,-1.046126,-5.268652,-16.129398,-22.348961,218.308289,-2.760126,128.314072,119.043449,10.429156,4.149626,4.462064,3.817481,-9.083237,-2.200189,0.101328,-7.777577,-7.658024,-3.157060,-14.836421,-12.595284,-87.440887,8064.000000,0.000000,4.000000,,,,0.000000,4.000000,4.000000,4.000000,4.000000,4.000000,4.000000,4.000000,4.000000,4.000000,4.000000,4.000000,4.000000,4.000000,4.000000,4.000000,2.000000,4.000000,4.000000,4.000000,4.000000,4.000000,4.000000,4.000000,4.000000,4.000000,4.000000,4.000000,4.000000,4.000000,4.000000,4.000000,4.000000,83.333336
1614392022.233876,116.000000,0.000000,-11.826509,5.477286,-100.054680,3.918396,-27.397764,3.307823,-4.952092,-8.663583,-2.995829,-8.550514,-6.124227,-1.045080,-5.776204,-17.651731,-23.865072,215.013046,-2.244545,129.211411,118.924408,10.418727,5.171117,0.355038,4.326484,-11.638256,-1.172347,5.229432,-7.769800,-10.214469,-3.153903,-12.770302,-10.018586,-80.686775,8064.000000,0.000000,4.000000,,,,0.000000,4.000000,4.000000,4.000000,4.000000,4.000000,4.000000,4.000000,4.000000,4.000000,4.000000,4.000000,4.000000,4.000000,4.000000,4.000000,2.000000,4.000000,4.000000,4.000000,4.000000,4.000000,4.000000,4.000000,4.000000,4.000000,4.000000,4.000000,4.000000,4.000000,4.000000,4.000000,4.000000,83.333336
1614392022.241526,117.000000,0.000000,-11.814683,3.420526,-102.005905,3.401657,-27.370365,3.304516,-4.947140,-8.654920,-2.992833,-8.541965,-5.605282,-1.044035,-5.257607,-19.172541,-22.302746,218.900604,-2.242301,118.825783,112.138817,10.921129,1.576202,-3.235061,4.322157,-12.139439,-1.171175,7.788304,-7.762030,-10.204254,-2.125108,-13.783173,-8.982926,-84.195831,8064.000000,0.000000,4.000000,,,,0.000000,4.000000,4.000000,4.000000,4.000000,4.000000,4.000000,4.000000,4.000000,4.000000,4.000000,4.000000,4.000000,4.000000,4.000000,4.000000,2.000000,4.000000,4.000000,4.000000,4.000000,4.000000,4.000000,4.000000,4.000000,4.000000,4.000000,4.000000,4.000000,4.000000,4.000000,4.000000,4.000000,83.333336
1614392022.249275,118.000000,0.000000,-11.802869,3.929926,-96.262871,3.398255,-23.240431,3.301211,-4.942193,-6.594982,-2.989841,-8.533422,-5.599677,-1.042991,-5.252350,-16.589266,-19.203520,218.168884,-2.752879,115.117210,99.206161,9.884567,-3.553579,-3.744646,4.317835,-11.614479,0.881278,6.242055,-8.267089,-10.194050,-0.071701,-14.282210,-8.973944,-85.650101,8064.000000,0.000000,4.000000,,,,0.000000,4.000000,4.000000,4.000000,4.000000,4.000000,4.000000,4.000000,4.000000,4.000000,4.000000,4.000000,4.000000,4.000000,4.000000,4.000000,2.000000,4.000000,4.000000,4.000000,4.000000,4.000000,4.000000,4.000000,4.000000,4.000000,4.000000,4.000000,4.000000,4.000000,4.000000,4.000000,4.000000,83.333336
1614392022.256924,119.000000,0.000000,-12.303886,3.925996,-93.602509,3.907678,-16.037704,3.297910,-4.937251,-5.562746,-2.986851,-8.524889,-5.594077,-1.041948,-5.759918,-12.982932,-17.133034,216.925079,-3.262946,136.540558,102.696701,8.849041,-4.062846,-3.740901,3.800697,-11.602864,2.418859,6.748633,-7.746001,-7.619753,1.466832,-13.242287,-9.477790,-84.538811,8064.000000,0.000000,4.000000,,,,0.000000,4.000000,4.000000,4.000000,4.000000,4.000000,4.000000,4.000000,4.000000,4.000000,4.000000,4.000000,4.000000,4.000000,4.000000,4.000000,2.000000,4.000000,4.000000,4.000000,4.000000,4.000000,4.000000,4.000000,4.000000,4.000000,4.000000,4.000000,4.000000,4.000000,4.000000,4.000000,4.000000,83.333336
1614392022.264674,120.000000,0.000000,-11.265942,3.922071,-102.226852,2.878129,-14.996025,3.294612,-4.932313,-4.531542,-2.983864,-8.516364,-5.588483,-1.553726,-5.754158,-11.944308,-14.038979,222.349167,-3.259684,148.711716,118.491440,11.404295,-2.007501,-3.224340,4.309717,-11.591261,2.416440,6.741885,-7.738255,-2.996749,0.439724,-14.254685,-8.442671,-84.454269,8064.000000,0.000000,4.000000,,,,0.000000,4.000000,4.000000,4.000000,4.000000,4.000000,4.000000,4.000000,4.000000,4.000000,4.000000,4.000000,4.000000,4.000000,4.000000,4.000000,2.000000,4.000000,4.000000,4.000000,4.000000,4.000000,4.000000,4.000000,4.000000,4.000000,4.000000,4.000000,4.000000,4.000000,4.000000,4.000000,4.000000,83.333336
1614392022.272323,121.000000,0.000000,-8.690573,5.969430,-100.073349,5.952174,-16.519491,3.291317,-4.927382,-1.450088,-2.980880,-8.507848,-5.582894,-1.039352,-4.722763,-8.342621,-12.999298,204.178101,-1.717962,122.409149,110.680641,7.803147,-3.543955,-3.733936,4.305407,-11.579670,4.465305,6.735143,-8.243337,-1.968111,1.464925,-13.727611,-6.895767,-78.728790,8064.000000,0.000000,4.000000,,,,0.000000,4.000000,4.000000,4.000000,4.000000,4.000000,4.000000,4.000000,4.000000,4.000000,4.000000,4.000000,4.000000,4.000000,4.000000,4.000000,2.000000,4.000000,4.000000,4.000000,4.000000,4.000000,4.000000,4.000000,4.000000,4.000000,4.000000,4.000000,4.000000,4.000000,4.000000,4.000000,4.000000,83.333336
1614392022.280172,122.000000,0.000000,-8.169062,8.014743,-89.716858,12.612888,-14.964510,3.288026,-5.435275,-2.987099,-2.977899,-9.012160,-5.577312,-1.551133,-5.230861,-8.334278,-18.627325,171.666229,-3.254706,94.594437,90.057137,0.615857,-3.027591,-4.243023,3.788281,-11.568090,9.076224,8.779690,-5.670991,-2.478964,4.027563,-11.662601,-5.350410,-73.009033,8064.000000,0.000000,4.000000,,,,0.000000,4.000000,4.000000,4.000000,4.000000,4.000000,4.000000,4.000000,4.000000,4.000000,4.000000,4.000000,4.000000,4.000000,4.000000,4.000000,2.000000,4.000000,4.000000,4.000000,4.000000,4.000000,4.000000,4.000000,4.000000,4.000000,4.000000,4.000000,4.000000,4.000000,4.000000,4.000000,4.000000,83.333336
1614392022.287922,123.000000,0.000000,-7.648072,7.493908,-95.268173,14.651558,-16.488007,3.797559,-4.917019,-8.112317,-2.974921,-8.490328,-5.571734,-1.549582,-6.251271,-9.351584,-14.506133,180.212524,-2.225810,112.961380,102.787598,8.820369,9.795950,2.427887,5.322954,-11.556522,10.092790,10.309371,-1.049936,-1.963664,5.049177,-10.112476,-5.345059,-76.012947,8064.000000,0.000000,4.000000,,,,0.000000,4.000000,4.000000,4.000000,4.000000,4.000000,4.000000,4.000000,4.000000,4.000000,4.000000,4.000000,4.000000,4.000000,4.000000,4.000000,2.000000,4.000000,4.000000,4.000000,4.000000,4.000000,4.000000,4.000000,4.000000,4.000000,4.000000,4.000000,4.000000,4.000000,4.000000,4.000000,4.000000,83.333336
1614392022.295771,124.000000,0.000000,-3.025039,5.435132,-103.890854,11.559983,-21.599724,2.255300,-2.347999,-7.591384,-2.971946,-8.481837,-5.566163,2.041711,0.934468,2.965459,10.123757,212.852814,11.622569,145.668930,135.505325,26.247446,23.119488,12.681870,9.933016,-11.544966,10.082697,10.811883,0.489576,-2.474521,4.531307,-9.076723,-5.339714,-80.552322,8064.000000,0.000000,4.000000,,,,0.000000,4.000000,4.000000,4.000000,4.000000,4.000000,4.000000,4.000000,4.000000,4.000000,4.000000,4.000000,4.000000,4.000000,4.000000,4.000000,2.000000,4.000000,4.000000,4.000000,4.000000,4.000000,4.000000,4.000000,4.000000,4.000000,4.000000,4.000000,4.000000,4.000000,4.000000,4.000000,4.000000,83.333336
1614392022.303520,125.000000,0.000000,0.054909,3.891235,-97.120293,10.522782,-22.603765,0.201762,-0.807190,-4.506870,-2.968974,-8.986176,-5.560596,6.142233,10.164303,12.706083,19.857224,241.357910,24.431459,157.830948,141.010834,30.836582,21.557907,16.771751,12.487185,-11.533421,9.559793,10.801070,-0.536555,-2.472047,4.526775,-7.016365,-5.334374,-80.471771,8064.000000,0.000000,4.000000,,,,0.000000,4.000000,4.000000,4.000000,4.000000,4.000000,4.000000,4.000000,4.000000,4.000000,4.000000,4.000000,4.000000,4.000000,4.000000,4.000000,2.000000,4.000000,4.000000,4.000000,4.000000,4.000000,4.000000,4.000000,4.000000,4.000000,4.000000,4.000000,4.000000,4.000000,4.000000,4.000000,4.000000,83.333336
1614392022.311369,126.000000,0.000000,-0.970787,3.887344,-90.869324,11.537900,-18.991417,-0.824081,-1.832023,-5.015183,-2.966005,-6.413087,-5.555036,6.648911,4.000292,0.898506,-2.726737,208.808868,20.817286,125.365433,121.382652,26.703182,15.895323,16.242159,10.423416,-11.521888,9.550234,9.764628,-0.536018,-1.956754,4.522249,-5.983707,-5.329040,-80.904121,8064.000000,0.000000,4.000000,,,,0.000000,4.000000,4.000000,4.000000,4.000000,4.000000,4.000000,4.000000,4.000000,4.000000,4.000000,4.000000,4.000000,4.000000,4.000000,4.000000,2.000000,4.000000,4.000000,4.000000,4.000000,4.000000,4.000000,4.000000,4.000000,4.000000,4.000000,4.000000,4.000000,4.000000,4.000000,4.000000,4.000000,83.333336
1614392022.319119,127.000000,0.000000,-0.969816,3.370636,-90.265640,11.013542,-16.408323,-0.310436,-0.804550,-5.522989,-2.963039,-1.791289,-5.549480,6.129442,-7.798580,-8.333162,-20.672728,176.292358,10.540057,102.675964,107.415115,23.599556,17.417889,14.687455,8.361711,-11.510365,10.053504,7.190762,-0.022662,-4.518900,4.517726,-6.490544,-3.272429,-79.797569,8064.000000,0.000000,4.000000,,,,0.000000,4.000000,4.000000,4.000000,4.000000,4.000000,4.000000,4.000000,4.000000,4.000000,4.000000,4.000000,4.000000,4.000000,4.000000,4.000000,2.000000,4.000000,4.000000,4.000000,4.000000,4.000000,4.000000,4.000000,4.000000,4.000000,4.000000,4.000000,4.000000,4.000000,4.000000,4.000000,4.000000,83.333336
1614392022.326968,0.000000,0.000000,-0.456026,5.418548,-86.585625,11.002528,-15.879095,-0.310126,1.760357,-2.953363,-2.960076,-0.763857,-5.543931,6.636133,-4.713859,-2.683804,-15.011029,191.500687,8.478235,114.880981,111.923080,17.934931,10.733805,11.595845,7.840528,-11.498856,8.504989,6.157929,-0.535460,-4.514381,4.513209,-6.484053,-1.217875,-76.640854,0.000000,177.000000,4.000000,,,,0.000000,4.000000,4.000000,4.000000,4.000000,4.000000,4.000000,4.000000,4.000000,4.000000,4.000000,4.000000,4.000000,4.000000,4.000000,4.000000,2.000000,4.000000,4.000000,4.000000,4.000000,4.000000,4.000000,4.000000,4.000000,4.000000,4.000000,4.000000,4.000000,4.000000,4.000000,4.000000,4.000000,83.333336
1614392022.334717,1.000000,0.000000,-0.968391,10.028514,-85.986221,11.504346,-15.350395,-0.309815,2.784237,-0.899128,-2.957116,-1.275914,-5.538387,6.116677,2.470343,0.395803,-7.303710,218.488678,9.495398,132.714813,126.170135,14.327252,-3.635904,12.097070,7.832688,-11.487356,3.368279,6.664592,-0.534924,-0.407303,4.508696,-6.477569,-1.729477,-80.666779,0.000000,185.000000,4.000000,,,,0.000000,4.000000,4.000000,4.000000,4.000000,4.000000,4.000000,4.000000,4.000000,4.000000,4.000000,4.000000,4.000000,4.000000,4.000000,4.000000,2.000000,4.000000,4.000000,4.000000,4.000000,4.000000,4.000000,4.000000,4.000000,4.000000,4.000000,4.000000,4.000000,4.000000,4.000000,4.000000,4.000000,83.333336
1614392022.342567,2.000000,0.000000,-1.480243,11.556947,-91.541260,10.980021,-15.847865,-0.822326,2.268633,-1.411049,-2.954159,-0.761817,-6.045670,5.597739,-0.096230,-1.143054,-7.296407,224.424026,5.896159,130.018005,120.915756,9.697540,-7.734832,11.572152,7.312035,-11.988689,1.826449,6.657928,-0.534389,1.644387,4.504187,-6.471092,-2.240568,-84.175850,0.000000,206.000000,4.000000,,,,0.000000,4.000000,4.000000,4.000000,4.000000,4.000000,4.000000,4.000000,4.000000,4.000000,4.000000,4.000000,4.000000,4.000000,4.000000,4.000000,2.000000,4.000000,4.000000,4.000000,4.000000,4.000000,4.000000,4.000000,4.000000,4.000000,4.000000,4.000000,4.000000,4.000000,4.000000,4.000000,4.000000,83.333336
1614392022.350316,3.000000,0.000000,-0.965942,11.545389,-92.988182,10.456221,-15.319197,-0.308683,2.266364,-1.409638,-3.464025,-1.273876,-5.013983,6.617783,-1.634596,-5.757296,-11.391675,191.891907,0.762058,107.323875,96.179459,-0.568567,-7.727097,0.278529,7.817543,-11.976701,4.388725,6.138449,-0.533855,1.642742,4.499683,-6.464621,-2.238328,-75.373726,0.000000,200.000000,4.000000,,,,0.000000,4.000000,4.000000,4.000000,4.000000,4.000000,4.000000,4.000000,4.000000,4.000000,4.000000,4.000000,4.000000,4.000000,4.000000,4.000000,2.000000,4.000000,4.000000,4.000000,4.000000,4.000000,4.000000,4.000000,4.000000,4.000000,4.000000,4.000000,4.000000,4.000000,4.000000,4.000000,4.000000,83.333336
1614392022.358165,4.000000,0.000000,-0.964976,11.533844,-91.356735,11.471406,-15.303878,-0.308375,2.264098,-1.408229,-2.434920,-0.759782,-5.521789,4.559883,-2.145782,-16.520769,-17.021309,159.392334,-3.341269,89.267838,89.416611,-6.209024,-10.283473,-6.901237,6.784085,-11.451903,6.435618,6.645131,-2.071782,5.230843,4.495183,-6.458156,-1.210448,-68.118866,0.000000,177.000000,4.000000,,,,0.000000,4.000000,4.000000,4.000000,4.000000,4.000000,4.000000,4.000000,4.000000,4.000000,4.000000,4.000000,4.000000,4.000000,4.000000,4.000000,2.000000,4.000000,4.000000,4.000000,4.000000,4.000000,4.000000,4.000000,4.000000,4.000000,4.000000,4.000000,4.000000,4.000000,4.000000,4.000000,4.000000,83.333336
1614392022.365914,5.000000,0.000000,-1.476832,9.471028,-91.778198,10.947114,-17.339855,-0.820887,2.261834,-1.406821,-2.945306,-0.759022,-8.593190,1.478400,-5.220559,-18.042709,-15.978646,173.079086,-4.363568,100.973442,101.122070,-3.125892,-2.580882,1.310792,4.726018,-11.953272,5.916362,6.125666,-4.120993,5.225612,3.977867,-6.451698,-1.722058,-72.666130,0.000000,187.000000,4.000000,,,,0.000000,4.000000,4.000000,4.000000,4.000000,4.000000,4.000000,4.000000,4.000000,4.000000,4.000000,4.000000,4.000000,4.000000,4.000000,4.000000,2.000000,4.000000,4.000000,4.000000,4.000000,4.000000,4.000000,4.000000,4.000000,4.000000,4.000000,4.000000,4.000000,4.000000,4.000000,4.000000,4.000000,83.333336
1614392022.373564,6.000000,0.000000,1.601568,7.410275,-92.712059,5.807961,-19.886618,0.205575,2.259572,-1.405414,-3.968002,-4.348006,-7.558956,5.579485,0.938508,-7.255436,-9.808822,205.726517,6.410026,129.590408,110.251717,3.031080,9.729392,8.488969,7.285395,-11.428498,4.884805,6.632360,-4.116872,1.630643,4.486710,-6.445246,-3.258798,-76.696030,0.000000,194.000000,4.000000,,,,0.000000,4.000000,4.000000,4.000000,4.000000,4.000000,4.000000,4.000000,4.000000,4.000000,4.000000,4.000000,4.000000,4.000000,4.000000,4.000000,2.000000,4.000000,4.000000,4.000000,4.000000,4.000000,4.000000,4.000000,4.000000,4.000000,4.000000,4.000000,4.000000,4.000000,4.000000,4.000000,4.000000,83.333336
1614392022.381313,7.000000,0.000000,7.753813,6.890044,-91.593704,3.750871,-19.353912,4.820754,2.257312,-1.404008,-0.374290,-4.343658,-1.910372,15.830317,12.732441,-1.094335,-6.722090,222.956696,21.788231,148.947998,126.038895,15.848561,12.796585,7.967659,12.919135,-4.750403,8.469664,8.677011,-2.061473,3.167474,7.046326,-6.438801,1.872666,-76.106514,0.000000,170.000000,4.000000,,,,0.000000,4.000000,4.000000,4.000000,4.000000,4.000000,4.000000,4.000000,4.000000,4.000000,4.000000,4.000000,4.000000,4.000000,4.000000,4.000000,2.000000,4.000000,4.000000,4.000000,4.000000,4.000000,4.000000,4.000000,4.000000,4.000000,4.000000,4.000000,4.000000,4.000000,4.000000,4.000000,4.000000,83.333336
1614392022.388963,8.000000,0.000000,11.335803,7.395975,-87.912369,6.824044,-16.257635,7.892857,2.255055,-1.402604,3.728648,1.301711,-1.395641,17.865768,7.591504,-1.093240,-7.228188,223.246552,24.330545,154.440079,136.682083,25.576303,13.296609,8.472512,16.495960,2.433834,15.640681,10.719615,-0.008129,3.677127,8.577741,-5.919541,8.537460,-75.517586,0.000000,196.000000,4.000000,,,,0.000000,4.000000,4.000000,4.000000,4.000000,4.000000,4.000000,4.000000,4.000000,4.000000,4.000000,4.000000,4.000000,4.000000,4.000000,4.000000,2.000000,4.000000,4.000000,4.000000,4.000000,4.000000,4.000000,4.000000,4.000000,4.000000,4.000000,4.000000,4.000000,4.000000,4.000000,4.000000,4.000000,83.333336
1614392022.396712,9.000000,0.000000,9.273185,7.388579,-87.311638,5.278758,-15.215735,6.346502,2.252800,-1.401202,0.647997,1.300409,-4.983989,10.668415,-5.749421,-1.092147,-10.297883,217.895111,14.562626,131.721542,120.135155,17.858419,9.180749,4.361475,13.402541,3.969862,15.112220,10.708896,-0.520942,-0.941935,8.056343,-6.426443,3.913538,-75.954887,0.000000,175.000000,4.000000,,,,0.000000,4.000000,4.000000,4.000000,4.000000,4.000000,4.000000,4.000000,4.000000,4.000000,4.000000,4.000000,4.000000,4.000000,4.000000,4.000000,2.000000,4.000000,4.000000,4.000000,4.000000,4.000000,4.000000,4.000000,4.000000,4.000000,4.000000,4.000000,4.000000,4.000000,4.000000,4.000000,4.000000,83.333336
1614392022.404361,10.000000,0.000000,7.212630,7.381190,-88.249962,0.145274,-15.713341,3.776053,2.250547,-1.399800,-3.455215,-1.777814,-6.004646,6.042362,-5.230851,-1.091055,-14.902969,186.907974,7.881396,99.282127,96.425270,7.071330,-4.161766,-4.873655,6.209651,2.940251,10.481723,10.185366,-4.622985,-3.505095,8.048286,-6.420016,-1.731401,-76.391754,0.000000,170.000000,4.000000,,,,0.000000,4.000000,4.000000,4.000000,4.000000,4.000000,4.000000,4.000000,4.000000,4.000000,4.000000,4.000000,4.000000,4.000000,4.000000,4.000000,4.000000,4.000000,4.000000,4.000000,4.000000,4.000000,4.000000,4.000000,4.000000,4.000000,4.000000,4.000000,4.000000,4.000000,4.000000,4.000000,4.000000,100.000000
1614392022.412111,11.000000,0.000000,6.692596,7.373809,-84.571968,-0.880512,-15.697627,3.259456,2.248296,-1.398401,-3.451760,2.326528,-4.973000,6.549140,4.005149,2.499780,-10.272682,169.797989,5.309412,94.567459,92.739105,6.551438,-10.311450,-6.407243,4.152159,1.911670,9.958421,10.688002,-7.695285,-2.475949,8.040238,-5.387955,1.347253,-75.802544,0.000000,201.000000,4.000000,,,,0.000000,4.000000,4.000000,4.000000,4.000000,4.000000,4.000000,4.000000,4.000000,4.000000,4.000000,4.000000,4.000000,4.000000,4.000000,4.000000,4.000000,4.000000,4.000000,4.000000,4.000000,4.000000,4.000000,4.000000,4.000000,4.000000,4.000000,4.000000,4.000000,4.000000,4.000000,4.000000,4.000000,100.000000
1614392022.419760,12.000000,0.000000,6.685904,7.366436,-83.974579,0.658830,-15.169109,3.256197,2.246048,-1.397002,-2.935488,1.298560,-5.480847,6.542591,6.052426,9.163946,2.045283,202.448715,4.791282,127.293404,109.056618,6.544886,-3.121651,-3.323913,7.224930,0.371297,8.410001,10.677313,-7.687590,-1.960653,8.032198,-7.946670,0.320265,-75.213921,0.000000,180.000000,4.000000,,,,0.000000,4.000000,4.000000,4.000000,4.000000,4.000000,4.000000,4.000000,4.000000,4.000000,4.000000,4.000000,4.000000,4.000000,4.000000,4.000000,4.000000,4.000000,4.000000,4.000000,4.000000,4.000000,4.000000,4.000000,4.000000,4.000000,4.000000,4.000000,4.000000,4.000000,4.000000,4.000000,4.000000,100.000000
1614392022.427509,13.000000,0.000000,6.166398,7.359069,-94.659836,0.145351,-16.179581,3.252941,2.243802,-1.395605,-2.932553,-6.907866,-5.475367,5.510407,5.020732,8.129142,4.607340,231.989853,4.786491,151.268677,134.075775,5.512701,4.573778,-3.320589,8.243346,-0.654716,6.863129,8.615354,-7.167081,-2.984333,8.024166,-12.554108,-7.885183,-76.677170,0.000000,158.000000,4.000000,,,,0.000000,4.000000,4.000000,4.000000,4.000000,4.000000,4.000000,4.000000,4.000000,4.000000,4.000000,4.000000,4.000000,4.000000,4.000000,4.000000,4.000000,4.000000,4.000000,4.000000,4.000000,4.000000,4.000000,4.000000,4.000000,4.000000,4.000000,4.000000,4.000000,4.000000,4.000000,4.000000,4.000000,100.000000
1614392022.435159,14.000000,0.000000,6.160231,7.351710,-101.744659,0.145205,-18.727505,3.249688,2.241558,-0.881389,-0.878338,-4.849677,-5.469892,6.017718,6.554173,3.505628,-6.166498,207.142471,3.243243,132.143051,133.941696,7.558470,5.082025,-2.804448,7.722282,-0.141240,11.471651,6.555457,-7.672735,-2.468528,8.016142,-14.080015,-10.441401,-79.164597,0.000000,156.000000,4.000000,,,,0.000000,4.000000,4.000000,4.000000,4.000000,4.000000,4.000000,4.000000,4.000000,4.000000,4.000000,4.000000,4.000000,4.000000,4.000000,4.000000,4.000000,4.000000,4.000000,4.000000,4.000000,4.000000,4.000000,4.000000,4.000000,4.000000,4.000000,4.000000,4.000000,4.000000,4.000000,4.000000,4.000000,100.000000
1614392022.442908,15.000000,0.000000,6.666891,7.344358,-100.104454,-0.367761,-19.734417,3.246438,2.752137,-2.418969,1.173822,2.334660,-5.464421,7.037341,2.445055,0.425199,-14.878280,174.627640,-0.862564,105.344238,105.602623,2.422706,0.461558,-4.340105,7.201740,0.371721,10.434538,6.036080,-7.665062,-1.953239,8.008125,-13.553115,-8.892498,-79.085426,0.000000,179.000000,4.000000,,,,0.000000,4.000000,4.000000,4.000000,4.000000,4.000000,4.000000,4.000000,4.000000,4.000000,4.000000,4.000000,4.000000,4.000000,4.000000,4.000000,4.000000,4.000000,4.000000,4.000000,4.000000,4.000000,4.000000,4.000000,4.000000,4.000000,4.000000,4.000000,4.000000,4.000000,4.000000,4.000000,4.000000,100.000000
1614392022.450558,16.000000,0.000000,4.608943,5.285732,-97.953072,0.658248,-19.201862,2.730371,0.698103,-4.467833,0.659828,0.281043,-5.971777,3.440560,-7.813800,-5.729072,-15.376223,167.273529,-3.938625,101.649147,94.214973,-4.759204,-4.667109,-6.899868,5.143256,-2.705574,3.244616,6.030045,-7.657397,-3.489748,8.000117,-14.052382,-9.396426,-77.980705,0.000000,141.000000,4.000000,,,,0.000000,4.000000,4.000000,4.000000,4.000000,4.000000,4.000000,4.000000,4.000000,4.000000,4.000000,4.000000,4.000000,4.000000,4.000000,4.000000,4.000000,4.000000,4.000000,4.000000,4.000000,4.000000,4.000000,4.000000,4.000000,4.000000,4.000000,2.000000,4.000000,4.000000,4.000000,4.000000,4.000000,83.333336
1614392022.458307,17.000000,0.000000,2.553051,3.741984,-95.803833,0.144770,-18.669840,3.753282,-1.353877,-5.489006,0.659168,-5.360263,-5.452985,-0.665445,-9.857268,-12.390010,-12.283923,172.747284,-2.396225,116.932114,113.607933,4.989145,3.542687,-0.226301,3.599651,-7.318253,2.728551,6.536835,-7.649740,-5.537540,7.992117,-13.525509,-8.874209,-80.979645,0.000000,214.000000,4.000000,,,,0.000000,4.000000,4.000000,4.000000,4.000000,4.000000,4.000000,4.000000,4.000000,4.000000,4.000000,4.000000,4.000000,4.000000,4.000000,4.000000,4.000000,4.000000,4.000000,4.000000,4.000000,4.000000,4.000000,4.000000,4.000000,4.000000,4.000000,2.000000,4.000000,4.000000,4.000000,4.000000,4.000000,83.333336
1614392022.465956,18.000000,0.000000,2.037678,3.738242,-101.349052,-4.470760,-19.163990,2.723888,-1.352523,-4.970696,1.171330,-6.380544,-4.934712,-1.690420,-3.180745,-12.890440,-8.681895,185.395050,1.708736,129.122879,124.776375,17.804668,12.257092,5.414951,4.108872,-8.336576,6.315566,6.530298,-7.642090,-6.557643,7.984125,-13.511984,-8.352514,-85.514046,0.000000,186.000000,4.000000,,,,0.000000,4.000000,4.000000,4.000000,4.000000,4.000000,4.000000,4.000000,4.000000,4.000000,4.000000,4.000000,4.000000,4.000000,4.000000,4.000000,4.000000,4.000000,4.000000,4.000000,4.000000,4.000000,4.000000,4.000000,4.000000,4.000000,4.000000,2.000000,4.000000,4.000000,4.000000,4.000000,4.000000,83.333336
1614392022.473706,19.000000,0.000000,2.548461,3.734504,-109.452835,-7.030392,-20.170467,-1.381400,-1.863991,-4.965725,0.144517,-7.912625,-7.493880,-1.688730,-2.151923,-12.877550,-7.647573,199.568619,4.783950,123.352730,112.856728,13.684300,-2.114139,-1.257131,4.104763,-7.302598,2.719507,5.498127,-7.634448,-6.551085,7.976141,-15.036933,-10.395444,-87.479820,0.000000,199.000000,4.000000,,,,0.000000,4.000000,4.000000,4.000000,4.000000,4.000000,4.000000,4.000000,4.000000,4.000000,4.000000,4.000000,4.000000,4.000000,4.000000,4.000000,4.000000,4.000000,4.000000,4.000000,4.000000,4.000000,4.000000,4.000000,4.000000,4.000000,4.000000,2.000000,4.000000,4.000000,4.000000,4.000000,4.000000,83.333336
1614392022.481355,20.000000,0.000000,2.033092,3.217949,-95.497231,-2.920797,-15.534913,0.158443,-1.862127,-4.960760,0.657193,-8.930353,-8.512027,-1.687041,-5.739515,-11.839031,-7.127104,197.830597,5.291986,105.280655,98.384895,5.978308,-17.496639,-4.845617,4.100658,-9.859398,0.665506,8.569551,-7.626813,-6.544535,7.968165,-12.457793,-6.282484,-85.341057,0.000000,171.000000,4.000000,,,,0.000000,4.000000,4.000000,4.000000,4.000000,4.000000,4.000000,4.000000,4.000000,4.000000,4.000000,4.000000,4.000000,4.000000,4.000000,4.000000,4.000000,4.000000,4.000000,4.000000,4.000000,4.000000,4.000000,4.000000,4.000000,4.000000,4.000000,2.000000,4.000000,4.000000,4.000000,4.000000,4.000000,83.333336
1614392022.489104,21.000000,0.000000,2.543879,3.727552,-82.068398,0.159047,-12.442455,8.363412,1.216658,-4.955799,1.169357,-8.408603,-6.452233,3.442851,-2.144032,-8.237449,-5.581516,187.376358,4.773874,103.636917,101.363434,6.485150,-9.786836,2.338716,4.096558,-12.413641,4.767404,15.740469,-7.619187,-3.461067,7.960196,-7.317131,0.390465,-86.281357,0.000000,160.000000,4.000000,,,,0.000000,4.000000,4.000000,4.000000,4.000000,4.000000,4.000000,4.000000,4.000000,4.000000,4.000000,4.000000,4.000000,4.000000,4.000000,4.000000,4.000000,4.000000,4.000000,4.000000,4.000000,4.000000,4.000000,4.000000,4.000000,4.000000,4.000000,2.000000,4.000000,4.000000,4.000000,4.000000,4.000000,83.333336
1614392022.496754,22.000000,0.000000,2.028515,3.211004,-101.473511,0.158888,-20.122320,9.380690,1.215441,-4.950843,-3.960018,-10.964296,-4.907319,4.977870,2.473497,-9.254852,-6.601575,193.855652,4.769100,129.174301,124.851814,6.991486,1.505002,5.926121,4.092461,-10.349945,4.762637,16.237549,-8.124388,-2.431965,7.952237,-8.335455,-1.661208,-86.707893,0.000000,189.000000,4.000000,,,,0.000000,4.000000,4.000000,4.000000,4.000000,4.000000,4.000000,4.000000,4.000000,4.000000,4.000000,4.000000,4.000000,4.000000,4.000000,4.000000,4.000000,4.000000,4.000000,4.000000,4.000000,4.000000,4.000000,4.000000,4.000000,4.000000,4.000000,2.000000,4.000000,4.000000,4.000000,4.000000,4.000000,83.333336
1614392022.504503,23.000000,0.000000,2.539307,3.720613,-111.628448,0.158729,-25.230402,7.320027,-0.837056,-4.945892,-6.520161,-11.978973,-5.415232,1.895969,1.445382,-8.219956,-8.133435,210.584869,3.738690,144.942566,140.111588,5.958853,0.990677,3.868912,3.575548,-8.801134,6.809156,13.657209,-8.629084,-3.967994,7.431464,-9.352760,-5.762111,-81.492981,0.000000,210.000000,4.000000,,,,0.000000,4.000000,4.000000,4.000000,4.000000,4.000000,4.000000,4.000000,4.000000,4.000000,4.000000,4.000000,4.000000,4.000000,4.000000,4.000000,4.000000,4.000000,4.000000,4.000000,4.000000,4.000000,4.000000,4.000000,4.000000,4.000000,4.000000,2.000000,4.000000,4.000000,4.000000,4.000000,4.000000,83.333336
1614392022.512152,24.000000,0.000000,5.100870,5.768175,-92.542458,-0.354250,-18.538506,10.902451,2.240704,-4.940946,0.153026,-7.864430,-5.409817,4.458176,4.008039,3.583135,-0.945815,220.630692,5.273413,135.054031,122.535568,5.952894,4.066609,3.865044,4.084793,-7.253871,15.520296,16.207655,-6.056353,0.651358,8.449674,-1.651100,-3.192246,-75.257645,0.000000,194.000000,4.000000,,,,0.000000,4.000000,4.000000,4.000000,4.000000,4.000000,4.000000,4.000000,4.000000,4.000000,4.000000,4.000000,4.000000,4.000000,4.000000,4.000000,4.000000,4.000000,4.000000,4.000000,4.000000,4.000000,4.000000,4.000000,4.000000,4.000000,4.000000,2.000000,4.000000,4.000000,4.000000,4.000000,4.000000,83.333336
1614392022.520002,25.000000,0.000000,6.121410,7.300868,-87.834534,0.671745,-14.930223,13.455651,6.341027,-4.936006,5.281078,-4.779643,-5.404407,9.069102,4.516852,5.630834,1.106413,216.820313,4.242498,124.149750,101.387398,5.434121,9.190748,4.886819,4.080709,-5.708156,21.145802,20.294010,-2.460552,8.343015,10.492506,4.504397,-2.163413,-74.669563,0.000000,193.000000,4.000000,,,,0.000000,4.000000,4.000000,4.000000,4.000000,4.000000,4.000000,4.000000,4.000000,4.000000,4.000000,4.000000,4.000000,4.000000,4.000000,4.000000,4.000000,4.000000,4.000000,4.000000,4.000000,4.000000,4.000000,4.000000,4.000000,4.000000,4.000000,2.000000,4.000000,4.000000,4.000000,4.000000,4.000000,83.333336
1614392022.527751,26.000000,0.000000,6.115289,7.293567,-92.874901,7.850560,-15.428114,10.878093,6.334686,-4.931069,4.250156,-4.774863,-5.399003,9.572853,-5.231255,-8.733771,-17.869053,184.295807,0.135692,119.410217,102.311646,5.941507,7.643095,4.369112,2.538166,-5.189627,20.099014,21.299358,-0.919630,7.309031,12.020474,5.012714,-1.135608,-75.107712,0.000000,182.000000,4.000000,,,,0.000000,4.000000,4.000000,4.000000,4.000000,4.000000,4.000000,4.000000,4.000000,4.000000,4.000000,4.000000,4.000000,4.000000,4.000000,4.000000,4.000000,4.000000,4.000000,4.000000,4.000000,4.000000,4.000000,4.000000,4.000000,4.000000,4.000000,2.000000,4.000000,4.000000,4.000000,4.000000,4.000000,83.333336
1614392022.535600,27.000000,0.000000,9.186096,9.337556,-80.987152,11.945273,-9.771660,10.354394,7.353993,-2.362036,4.245906,-2.205986,-5.393604,14.178665,-9.841408,-10.776320,-29.133234,151.803818,5.263761,117.752342,111.440109,11.576591,11.225196,4.364743,6.638192,-2.107514,19.566095,24.867802,5.235136,5.250440,11.495634,7.571804,8.096296,-74.006966,0.000000,197.000000,4.000000,,,,0.000000,4.000000,4.000000,4.000000,4.000000,4.000000,4.000000,4.000000,4.000000,4.000000,4.000000,4.000000,4.000000,4.000000,4.000000,4.000000,4.000000,4.000000,4.000000,4.000000,4.000000,4.000000,4.000000,4.000000,4.000000,4.000000,4.000000,2.000000,4.000000,4.000000,4.000000,4.000000,4.000000,83.333336
1614392022.543350,28.000000,0.000000,12.766654,11.379500,-76.290787,10.907687,-8.223427,10.344040,9.910741,1.230070,5.267301,-0.665318,-5.388210,20.318333,2.988946,4.619072,-6.539999,179.857147,17.053370,133.019211,122.097900,17.206041,17.880638,3.847558,13.811041,5.074080,20.059349,28.432678,10.870926,10.373394,11.484138,8.589872,14.242046,-74.958603,0.000000,180.000000,4.000000,,,,0.000000,4.000000,4.000000,4.000000,4.000000,4.000000,4.000000,4.000000,4.000000,4.000000,4.000000,4.000000,4.000000,4.000000,4.000000,4.000000,4.000000,4.000000,4.000000,4.000000,4.000000,4.000000,4.000000,4.000000,4.000000,4.000000,4.000000,2.000000,4.000000,4.000000,4.000000,4.000000,4.000000,83.333336
1614392022.551199,29.000000,0.000000,13.779529,11.368120,-81.342697,11.409600,-10.266486,10.333695,9.900830,2.767301,4.236393,-0.664653,-5.382822,19.272373,15.806470,12.306761,18.081926,212.497803,20.626059,142.629776,132.745026,17.188835,15.811475,4.356531,14.822871,7.633109,21.064930,28.404245,8.295953,12.927123,11.472654,8.068462,12.689343,-72.832359,0.000000,189.000000,4.000000,,,,0.000000,4.000000,4.000000,4.000000,4.000000,4.000000,4.000000,4.000000,4.000000,4.000000,4.000000,4.000000,4.000000,4.000000,4.000000,4.000000,4.000000,4.000000,4.000000,4.000000,4.000000,4.000000,4.000000,4.000000,4.000000,4.000000,4.000000,2.000000,4.000000,4.000000,4.000000,4.000000,4.000000,83.333336
1614392022.558948,30.000000,0.000000,13.252929,10.843932,-71.517769,14.987934,-3.589553,12.887465,9.378109,2.251714,4.744977,3.438576,-5.377439,16.688999,16.816305,9.730351,16.525383,189.208374,19.066973,120.435867,126.458435,17.171646,11.693099,7.429097,15.833689,7.112655,24.120789,27.350201,7.774836,11.888556,11.461182,13.701420,16.779219,-63.528759,0.000000,195.000000,4.000000,,,,0.000000,4.000000,4.000000,4.000000,4.000000,4.000000,4.000000,4.000000,4.000000,4.000000,4.000000,4.000000,4.000000,4.000000,4.000000,4.000000,4.000000,4.000000,4.000000,4.000000,4.000000,4.000000,4.000000,4.000000,4.000000,4.000000,4.000000,2.000000,4.000000,4.000000,4.000000,4.000000,4.000000,83.333336
1614392022.566797,31.000000,0.000000,13.239676,10.833088,-64.266762,14.460126,-2.047502,12.361756,9.368731,2.249462,4.740232,7.024881,-5.372062,17.185129,15.773848,8.694981,9.329370,156.711472,19.560726,106.982094,111.460182,18.692936,14.245509,7.421669,22.484522,11.208107,28.712053,27.835670,13.408087,13.927949,11.449720,18.815924,20.865004,-55.772923,0.000000,189.000000,4.000000,,,,0.000000,4.000000,4.000000,4.000000,4.000000,4.000000,4.000000,4.000000,4.000000,4.000000,4.000000,4.000000,4.000000,4.000000,4.000000,4.000000,4.000000,4.000000,4.000000,4.000000,4.000000,4.000000,4.000000,4.000000,4.000000,4.000000,4.000000,2.000000,4.000000,4.000000,4.000000,4.000000,4.000000,83.333336
1614392022.574547,32.000000,0.000000,13.226436,10.822255,-74.971725,11.368743,-14.865967,5.682728,9.359363,2.247212,0.120107,5.479394,-5.879510,12.552560,16.783714,10.224747,11.371323,188.862457,18.515524,132.516144,120.579491,20.212704,15.256905,6.388606,26.564602,14.786642,30.221802,27.295013,12.369038,15.965302,11.438271,14.694543,14.690291,-55.204327,8064.000000,0.000000,4.000000,,,,0.000000,4.000000,4.000000,4.000000,4.000000,4.000000,4.000000,4.000000,4.000000,4.000000,4.000000,4.000000,4.000000,4.000000,4.000000,4.000000,4.000000,4.000000,4.000000,4.000000,4.000000,4.000000,4.000000,4.000000,4.000000,4.000000,4.000000,2.000000,4.000000,4.000000,4.000000,4.000000,4.000000,83.333336
1614392022.582396,33.000000,0.000000,13.213209,10.811433,-83.614700,10.331733,-23.569050,2.087302,9.350003,1.732145,-2.956936,2.396992,-5.360810,8.950264,16.766932,10.727343,15.462516,221.494110,20.548290,157.511826,147.125580,25.833517,15.241648,12.023243,25.512396,13.746215,27.627478,27.780540,6.202822,15.436517,10.914012,11.090105,8.008935,-58.226048,8064.000000,0.000000,4.000000,,,,0.000000,4.000000,4.000000,4.000000,4.000000,4.000000,4.000000,4.000000,4.000000,4.000000,4.000000,4.000000,4.000000,4.000000,4.000000,4.000000,4.000000,4.000000,4.000000,4.000000,4.000000,4.000000,4.000000,4.000000,4.000000,4.000000,4.000000,2.000000,4.000000,4.000000,4.000000,4.000000,4.000000,83.333336
1614392022.590145,34.000000,0.000000,13.199996,10.800621,-84.043907,10.834222,-23.032660,3.110856,9.340653,2.243233,-0.902697,2.394595,-5.355449,14.582339,16.237343,6.614051,14.934233,206.913635,24.117485,148.636368,143.388718,28.371786,16.252047,15.088142,25.999704,13.732469,22.984467,28.265579,6.196620,15.933901,11.415918,11.591836,8.513746,-58.680641,8064.000000,0.000000,4.000000,,,,0.000000,4.000000,4.000000,4.000000,4.000000,4.000000,4.000000,4.000000,4.000000,4.000000,4.000000,4.000000,4.000000,4.000000,4.000000,4.000000,4.000000,4.000000,4.000000,4.000000,4.000000,4.000000,4.000000,4.000000,4.000000,4.000000,4.000000,2.000000,4.000000,4.000000,4.000000,4.000000,4.000000,83.333336
1614392022.597994,35.000000,0.000000,13.186796,10.789821,-84.472687,10.823387,-23.009626,3.107745,9.331312,1.728169,1.149488,2.392200,-6.375735,15.593398,16.221106,1.479232,8.252631,190.296463,16.913881,116.692856,110.937630,21.163927,12.646051,10.970490,23.409601,12.693095,23.474302,26.698853,6.703243,13.353865,11.404502,12.093064,9.530873,-59.134781,8064.000000,0.000000,4.000000,,,,0.000000,4.000000,4.000000,4.000000,4.000000,4.000000,4.000000,4.000000,4.000000,4.000000,4.000000,4.000000,4.000000,4.000000,4.000000,4.000000,4.000000,4.000000,4.000000,4.000000,4.000000,4.000000,4.000000,4.000000,4.000000,4.000000,4.000000,2.000000,4.000000,4.000000,4.000000,4.000000,4.000000,83.333336
1614392022.605744,36.000000,0.000000,12.660789,10.779031,-81.824112,10.812564,-20.935335,2.591816,9.321981,1.726441,0.635518,2.902629,-3.292436,13.526523,15.179244,6.605958,5.680276,192.670273,10.230300,102.217194,106.211311,22.681225,18.274431,15.062084,20.822090,9.603478,28.066212,28.210615,6.183720,8.212305,10.880277,11.568151,8.495702,-59.588467,8064.000000,0.000000,4.000000,,,,0.000000,4.000000,4.000000,4.000000,4.000000,4.000000,4.000000,4.000000,4.000000,4.000000,4.000000,4.000000,4.000000,4.000000,4.000000,4.000000,4.000000,4.000000,4.000000,4.000000,4.000000,4.000000,4.000000,4.000000,4.000000,4.000000,4.000000,2.000000,4.000000,4.000000,4.000000,4.000000,4.000000,83.333336
1614392022.613593,37.000000,0.000000,13.160949,10.768251,-78.665359,10.801751,-13.734913,3.102045,8.799838,6.852920,0.122062,5.463829,5.941626,23.256586,16.702526,15.830121,19.520750,201.195557,24.066223,134.935486,138.925613,41.632904,37.230515,27.867535,27.467934,11.645157,31.115068,33.310612,9.767280,9.229734,11.895038,11.556582,8.487206,-59.016060,8064.000000,0.000000,4.000000,,,,0.000000,4.000000,4.000000,4.000000,4.000000,4.000000,4.000000,4.000000,4.000000,4.000000,4.000000,4.000000,4.000000,4.000000,4.000000,4.000000,4.000000,4.000000,4.000000,4.000000,4.000000,4.000000,4.000000,4.000000,4.000000,4.000000,4.000000,2.000000,4.000000,4.000000,4.000000,4.000000,4.000000,83.333336
1614392022.621342,38.000000,0.000000,15.711890,10.757483,-77.048233,10.790950,-10.644255,3.098943,9.303859,12.487093,0.634760,6.996827,10.038248,31.951279,21.814030,17.865574,29.757639,220.481537,38.913952,167.621063,154.684128,47.745117,35.654823,30.916590,32.055851,17.787359,30.571133,33.790119,13.347256,14.348710,14.447246,10.006564,8.991539,-59.982685,8064.000000,0.000000,4.000000,,,,0.000000,4.000000,4.000000,4.000000,4.000000,4.000000,4.000000,4.000000,4.000000,4.000000,4.000000,4.000000,4.000000,4.000000,4.000000,4.000000,4.000000,4.000000,4.000000,4.000000,4.000000,4.000000,4.000000,4.000000,4.000000,4.000000,4.000000,2.000000,4.000000,4.000000,4.000000,4.000000,4.000000,83.333336
1614392022.629092,39.000000,0.000000,16.721819,10.746726,-77.996826,10.780159,-11.659252,3.095844,9.294556,12.987426,0.634125,3.400086,6.951287,25.765480,23.843496,16.822067,18.445831,215.645676,31.182732,141.812424,122.221748,31.799934,16.644810,24.731827,26.895590,21.359314,29.002100,28.628124,11.282626,15.872823,15.458439,8.458097,8.982548,-65.050903,8064.000000,0.000000,4.000000,,,,0.000000,4.000000,4.000000,4.000000,4.000000,4.000000,4.000000,4.000000,4.000000,4.000000,4.000000,4.000000,4.000000,4.000000,4.000000,4.000000,4.000000,4.000000,4.000000,4.000000,4.000000,4.000000,4.000000,4.000000,4.000000,4.000000,4.000000,2.000000,4.000000,4.000000,4.000000,4.000000,4.000000,83.333336
1614392022.636841,40.000000,0.000000,17.217918,10.735979,-83.559853,10.769379,-11.134772,3.092748,8.259620,9.897515,0.633491,-0.705878,4.893054,19.073048,21.255550,16.805244,6.119692,183.635147,25.510523,112.439835,113.894394,22.537365,17.140985,22.142994,25.330233,21.337955,27.434637,26.548214,9.732882,14.831308,14.930161,5.885536,8.973565,-70.114059,8064.000000,0.000000,4.000000,,,,0.000000,4.000000,4.000000,4.000000,4.000000,4.000000,4.000000,4.000000,4.000000,4.000000,4.000000,4.000000,4.000000,4.000000,4.000000,4.000000,4.000000,4.000000,4.000000,4.000000,4.000000,4.000000,4.000000,4.000000,4.000000,4.000000,4.000000,2.000000,4.000000,4.000000,4.000000,4.000000,4.000000,83.333336
1614392022.644490,41.000000,0.000000,19.764803,10.725244,-88.091682,10.758609,-11.123637,3.089655,9.277001,9.374798,0.632858,-1.730813,6.939443,20.079617,19.183014,17.814081,11.754599,188.066895,33.690140,138.481247,136.344604,27.130213,26.354614,22.633671,31.971569,20.803797,26.894382,28.060127,10.748791,15.329298,14.915230,4.341188,9.477412,-70.043945,8064.000000,0.000000,4.000000,,,,0.000000,4.000000,4.000000,4.000000,4.000000,4.000000,4.000000,4.000000,4.000000,4.000000,4.000000,4.000000,4.000000,4.000000,4.000000,4.000000,4.000000,4.000000,4.000000,4.000000,4.000000,4.000000,4.000000,4.000000,4.000000,4.000000,4.000000,2.000000,4.000000,4.000000,4.000000,4.000000,4.000000,83.333336
1614392022.652240,42.000000,0.000000,19.745037,10.714519,-86.465126,10.747850,-11.112514,3.086566,14.395929,9.878243,0.632225,-1.216262,8.983785,20.572357,19.676651,17.796267,16.871048,207.366013,27.502604,142.958145,124.413383,27.615904,19.148771,22.098217,33.478058,21.808634,26.867487,27.519247,10.738042,15.826789,15.413136,5.362488,8.955114,-69.461082,8192.000000,0.000000,4.000000,,,,0.000000,4.000000,4.000000,4.000000,4.000000,4.000000,4.000000,4.000000,4.000000,4.000000,4.000000,4.000000,4.000000,4.000000,4.000000,4.000000,4.000000,4.000000,4.000000,4.000000,4.000000,4.000000,4.000000,4.000000,4.000000,4.000000,4.000000,2.000000,4.000000,4.000000,4.000000,4.000000,4.000000,83.333336
1614392022.659889,43.000000,0.000000,17.161190,10.703804,-84.327377,11.249924,-11.614222,3.083479,15.919995,9.355544,0.631593,-1.727866,8.974801,19.526144,19.656975,13.163085,11.213152,182.030441,11.577665,110.507492,98.135124,23.485723,12.975777,22.076118,29.342016,21.274004,26.840620,26.978907,9.701663,13.759680,14.884902,3.305844,9.458980,-70.417259,8064.000000,0.000000,4.000000,,,,0.000000,4.000000,4.000000,4.000000,4.000000,4.000000,4.000000,4.000000,4.000000,4.000000,4.000000,4.000000,4.000000,4.000000,4.000000,4.000000,4.000000,4.000000,4.000000,4.000000,4.000000,4.000000,4.000000,4.000000,4.000000,4.000000,4.000000,2.000000,4.000000,4.000000,4.000000,4.000000,4.000000,83.333336
1614392022.667638,44.000000,0.000000,16.631208,10.693100,-86.807159,10.213033,-12.628248,3.593216,12.827152,9.346189,0.630961,-1.213318,8.453006,19.506618,19.124496,8.021717,9.150657,168.002258,12.078908,109.884171,100.088272,22.949417,13.988442,21.541222,28.287035,20.227089,26.813780,27.464748,10.717602,11.694638,14.870017,-1.825667,9.449520,-69.834023,8064.000000,0.000000,4.000000,,,,0.000000,4.000000,4.000000,4.000000,4.000000,4.000000,4.000000,4.000000,4.000000,4.000000,4.000000,4.000000,4.000000,4.000000,4.000000,4.000000,4.000000,4.000000,4.000000,4.000000,4.000000,4.000000,4.000000,4.000000,4.000000,4.000000,4.000000,2.000000,4.000000,4.000000,4.000000,4.000000,4.000000,83.333336
1614392022.675288,45.000000,0.000000,15.076116,10.682406,-90.310089,7.638717,-14.666903,2.051162,14.352786,9.336843,0.630330,-3.263386,8.957374,19.999931,19.105371,12.116260,12.218430,200.654770,21.810419,134.902481,106.142029,24.464930,9.359069,20.494040,28.771568,17.642759,24.735683,25.898823,10.194064,11.682943,15.367968,-2.849483,6.363148,-69.764191,8064.000000,0.000000,4.000000,,,,0.000000,4.000000,4.000000,4.000000,4.000000,4.000000,4.000000,4.000000,4.000000,4.000000,4.000000,4.000000,4.000000,4.000000,4.000000,4.000000,4.000000,4.000000,4.000000,4.000000,4.000000,4.000000,4.000000,4.000000,4.000000,4.000000,4.000000,2.000000,4.000000,4.000000,4.000000,4.000000,4.000000,83.333336
1614392022.683037,46.000000,0.000000,13.009758,10.671724,-92.271065,6.605437,-17.216337,-0.514992,17.415356,9.327506,0.629700,-5.824226,8.948416,19.979931,18.060625,11.591323,4.001083,198.915649,23.327070,121.947075,106.548714,22.902002,6.272787,18.422262,28.742796,12.496912,21.121204,23.821642,8.132587,10.645619,13.814137,-3.872274,1.741400,-76.873909,8064.000000,0.000000,4.000000,,,,0.000000,4.000000,4.000000,4.000000,4.000000,4.000000,4.000000,4.000000,4.000000,4.000000,4.000000,4.000000,4.000000,4.000000,4.000000,4.000000,4.000000,4.000000,4.000000,4.000000,4.000000,4.000000,4.000000,4.000000,4.000000,4.000000,4.000000,2.000000,4.000000,4.000000,4.000000,4.000000,4.000000,83.333336
1614392022.690687,47.000000,0.000000,13.509568,11.173873,-91.153152,7.111652,-18.224762,-1.027298,15.346659,9.318178,0.629070,-2.228658,8.426647,20.472773,14.965642,0.810501,-9.849072,166.409042,21.252460,105.927689,117.724213,20.314999,9.856257,16.865379,28.201233,7.356210,19.048801,23.797819,6.585994,8.583693,11.749042,-8.483787,1.226838,-84.489349,8064.000000,0.000000,4.000000,,,,0.000000,4.000000,4.000000,4.000000,4.000000,4.000000,4.000000,4.000000,4.000000,4.000000,4.000000,4.000000,4.000000,4.000000,4.000000,4.000000,4.000000,4.000000,4.000000,4.000000,4.000000,4.000000,4.000000,4.000000,4.000000,4.000000,4.000000,2.000000,4.000000,4.000000,4.000000,4.000000,4.000000,83.333336
1614392022.698436,48.000000,0.000000,11.957597,11.162699,-88.497894,7.104540,-16.155256,-1.026270,13.280030,9.821681,0.115621,3.414596,11.495144,19.939478,15.976317,7.476357,-3.172557,179.575974,22.256849,126.847404,121.709053,19.269041,11.384863,14.797232,28.685852,6.323213,19.542572,24.799664,6.579408,8.575109,11.737292,-9.500943,2.251252,-84.404854,8064.000000,0.000000,4.000000,,,,0.000000,4.000000,4.000000,4.000000,4.000000,4.000000,4.000000,4.000000,4.000000,4.000000,4.000000,4.000000,4.000000,4.000000,4.000000,4.000000,4.000000,4.000000,4.000000,4.000000,4.000000,4.000000,4.000000,4.000000,4.000000,4.000000,4.000000,2.000000,4.000000,4.000000,4.000000,4.000000,4.000000,83.333336
1614392022.706085,49.000000,0.000000,8.868716,10.638716,-87.383759,9.148718,-14.600639,0.513217,12.753930,9.299038,1.141146,2.385541,16.099033,19.919538,22.114187,31.058624,17.343437,212.216904,23.260233,145.694916,117.997597,21.301056,11.373478,14.782434,29.169987,6.316890,19.523029,22.723581,7.085649,6.515251,11.725555,-6.414520,2.249001,-80.217888,8064.000000,0.000000,4.000000,,,,0.000000,4.000000,4.000000,4.000000,4.000000,4.000000,4.000000,4.000000,4.000000,4.000000,4.000000,4.000000,4.000000,4.000000,4.000000,4.000000,4.000000,4.000000,4.000000,4.000000,4.000000,4.000000,4.000000,4.000000,4.000000,4.000000,4.000000,2.000000,4.000000,4.000000,4.000000,4.000000,4.000000,83.333336
1614392022.713835,50.000000,0.000000,9.885489,11.140898,-87.809196,10.678031,-15.098859,4.102448,12.741176,9.802560,3.704108,3.921617,17.108576,21.438082,23.630535,34.617310,17.326094,203.799561,23.236973,138.882553,122.494987,23.843857,13.926207,15.280473,27.089535,5.797752,19.503508,20.136755,7.591384,4.457454,10.175368,-5.895285,1.221111,-80.137672,8064.000000,0.000000,4.000000,,,,0.000000,4.000000,4.000000,4.000000,4.000000,4.000000,4.000000,4.000000,4.000000,4.000000,4.000000,4.000000,4.000000,4.000000,4.000000,4.000000,4.000000,4.000000,4.000000,4.000000,4.000000,4.000000,4.000000,4.000000,4.000000,4.000000,4.000000,2.000000,4.000000,4.000000,4.000000,4.000000,4.000000,83.333336
1614392022.721484,51.000000,0.000000,8.337142,11.642577,-86.695747,11.692994,-15.083760,7.175268,14.266896,10.305578,4.726044,13.148464,14.527364,18.852541,18.991520,18.685255,1.411331,171.288071,18.598352,124.384697,120.834030,23.820013,15.450743,13.213910,25.523983,8.868877,19.484003,20.629438,4.506869,4.965817,7.601090,-5.889390,2.245531,-80.057533,8064.000000,0.000000,4.000000,,,,0.000000,4.000000,4.000000,4.000000,4.000000,4.000000,4.000000,4.000000,4.000000,4.000000,4.000000,4.000000,4.000000,4.000000,4.000000,4.000000,4.000000,4.000000,4.000000,4.000000,4.000000,4.000000,4.000000,4.000000,4.000000,4.000000,4.000000,2.000000,4.000000,4.000000,4.000000,4.000000,4.000000,83.333336
1614392022.729233,52.000000,0.000000,-0.389144,7.528371,-89.173149,10.655660,-15.068676,8.193734,10.150065,5.679888,4.721318,11.596854,13.487196,10.115740,16.408426,17.128109,0.897099,182.911652,14.477189,128.875702,114.046532,24.309013,15.948112,12.175056,24.985640,10.911291,17.926058,17.531887,-1.651484,2.909569,0.926822,-6.909141,2.756106,-79.977478,8064.000000,0.000000,4.000000,,,,0.000000,4.000000,4.000000,4.000000,4.000000,4.000000,4.000000,4.000000,4.000000,4.000000,4.000000,4.000000,4.000000,4.000000,4.000000,4.000000,4.000000,4.000000,4.000000,4.000000,4.000000,4.000000,4.000000,4.000000,4.000000,4.000000,4.000000,2.000000,4.000000,4.000000,4.000000,4.000000,4.000000,83.333336
1614392022.736883,53.000000,0.000000,-6.029780,-0.684286,-97.801926,5.003978,-15.053608,4.595797,-0.629316,-2.530921,3.690956,-3.799358,11.935246,4.464598,12.802274,18.136621,7.050048,215.549255,15.488354,143.618622,118.035049,24.797525,14.906523,10.111598,20.345268,3.208072,14.318389,10.334867,-6.265217,-3.760007,-10.868977,-12.543258,-2.374855,-80.410316,8064.000000,0.000000,4.000000,,,,0.000000,4.000000,4.000000,4.000000,4.000000,4.000000,4.000000,4.000000,4.000000,4.000000,4.000000,4.000000,4.000000,4.000000,4.000000,4.000000,4.000000,4.000000,4.000000,4.000000,4.000000,4.000000,4.000000,4.000000,4.000000,4.000000,4.000000,2.000000,4.000000,4.000000,4.000000,4.000000,4.000000,83.333336
1614392022.744732,54.000000,0.000000,-4.998110,-4.786166,-102.319511,-0.129231,-15.038554,-2.588286,-6.782532,-6.118133,0.097521,-13.539148,5.256645,4.972954,3.558702,1.195408,-9.367258,183.026016,12.908762,130.654480,110.737526,18.106060,11.814693,2.409179,14.171078,-4.487444,11.739967,5.196328,-7.284593,-7.858811,-15.986312,-17.146099,-10.577609,-81.868370,8064.000000,0.000000,4.000000,,,,0.000000,4.000000,4.000000,4.000000,4.000000,4.000000,4.000000,4.000000,4.000000,4.000000,4.000000,4.000000,4.000000,4.000000,4.000000,4.000000,4.000000,4.000000,4.000000,4.000000,4.000000,4.000000,4.000000,4.000000,4.000000,4.000000,4.000000,2.000000,4.000000,4.000000,4.000000,4.000000,4.000000,83.333336
1614392022.752481,55.000000,0.000000,-5.505932,-3.755738,-103.242828,-1.154742,-15.023516,-4.636980,-6.262929,-5.599195,-2.979499,-13.525609,4.738568,5.480802,-1.060241,-7.010915,-19.101480,150.535294,6.742007,111.549469,89.601143,8.344364,8.213135,-4.259897,12.105624,-4.995777,12.241048,5.191131,-8.302949,-6.312491,-12.380583,-19.693056,-14.156775,-84.863426,8064.000000,0.000000,4.000000,,,,0.000000,4.000000,4.000000,4.000000,4.000000,4.000000,4.000000,4.000000,4.000000,4.000000,4.000000,4.000000,4.000000,4.000000,4.000000,4.000000,4.000000,4.000000,4.000000,4.000000,4.000000,4.000000,4.000000,4.000000,4.000000,4.000000,4.000000,2.000000,4.000000,4.000000,4.000000,4.000000,4.000000,83.333336
1614392022.760330,56.000000,0.000000,-5.500426,-3.751983,-102.113945,-0.127947,-14.495671,1.008683,-5.743846,-5.593596,-3.489340,-9.922339,13.964599,4.449680,3.556203,8.380712,5.533006,183.205276,9.812188,130.925095,89.511543,9.361661,5.640820,-4.255637,14.657621,-6.529243,12.228807,4.673120,-8.294646,-6.306178,-10.829741,-20.699003,-12.604156,-87.855484,8064.000000,0.000000,4.000000,,,,0.000000,4.000000,4.000000,4.000000,4.000000,4.000000,4.000000,4.000000,4.000000,4.000000,4.000000,4.000000,4.000000,4.000000,4.000000,4.000000,4.000000,4.000000,4.000000,4.000000,4.000000,4.000000,4.000000,4.000000,4.000000,4.000000,4.000000,2.000000,4.000000,4.000000,4.000000,4.000000,4.000000,83.333336
1614392022.768080,57.000000,0.000000,-4.982105,-4.261051,-94.832344,-0.640639,-12.429893,3.571777,-6.250923,-5.588002,-2.973030,-4.271392,12.412172,5.470871,7.142391,10.936433,16.296703,205.073349,14.417761,139.512131,99.678444,13.454864,3.583897,-3.225740,13.104502,-8.573996,12.216578,5.181267,-7.773531,-6.812693,-10.818911,-18.114202,-10.540270,-82.639420,8064.000000,0.000000,4.000000,,,,0.000000,4.000000,4.000000,4.000000,4.000000,4.000000,4.000000,4.000000,4.000000,4.000000,4.000000,4.000000,4.000000,4.000000,4.000000,4.000000,4.000000,4.000000,4.000000,4.000000,4.000000,4.000000,4.000000,4.000000,4.000000,4.000000,4.000000,2.000000,4.000000,4.000000,4.000000,4.000000,4.000000,83.333336
1614392022.775929,58.000000,0.000000,-9.079687,-3.743970,-88.070847,-1.152819,-10.879003,2.542564,-6.244672,-6.095234,-2.970057,-0.677377,-0.420753,4.952579,5.083966,-8.048862,-9.360620,172.560577,8.249497,107.064919,94.963379,6.261922,4.093133,-4.248156,7.450372,-5.488498,12.204362,5.688906,-7.765758,-6.293059,-7.731169,-14.506344,-9.504088,-75.890114,8064.000000,0.000000,4.000000,,,,0.000000,4.000000,4.000000,4.000000,4.000000,4.000000,4.000000,4.000000,4.000000,4.000000,4.000000,4.000000,4.000000,4.000000,4.000000,4.000000,4.000000,4.000000,4.000000,4.000000,4.000000,4.000000,4.000000,4.000000,4.000000,4.000000,4.000000,2.000000,4.000000,4.000000,4.000000,4.000000,4.000000,83.333336
1614392022.783678,59.000000,0.000000,-11.121890,-3.740226,-87.469955,-0.126025,-11.380944,3.052842,-5.212786,-5.063498,-3.992728,-1.189520,-1.958794,5.460448,4.053241,-12.143377,-16.017925,160.080338,4.138683,106.957855,96.919701,1.640275,4.089040,-3.731087,7.442922,-5.483010,12.192158,4.144756,-7.757992,-6.286767,-6.697796,-13.466196,-8.981764,-78.378326,8064.000000,0.000000,4.000000,,,,0.000000,4.000000,4.000000,4.000000,4.000000,4.000000,4.000000,4.000000,4.000000,4.000000,4.000000,4.000000,4.000000,4.000000,4.000000,4.000000,4.000000,4.000000,4.000000,4.000000,4.000000,4.000000,4.000000,4.000000,4.000000,4.000000,4.000000,2.000000,4.000000,4.000000,4.000000,4.000000,4.000000,83.333336
1614392022.791528,60.000000,0.000000,-5.469742,-3.736485,-84.305565,2.951024,-10.856742,3.049789,-0.079368,-0.443050,-2.963094,-1.188331,5.222652,7.506269,7.126111,0.176458,7.587836,192.740768,9.262750,134.543198,104.515091,8.818122,3.059310,-3.214535,15.127787,-3.426245,12.692785,10.294457,-7.237413,-6.280479,-6.178278,-11.401448,-8.972782,-76.761490,8064.000000,0.000000,4.000000,,,,0.000000,4.000000,4.000000,4.000000,4.000000,4.000000,4.000000,4.000000,4.000000,4.000000,4.000000,4.000000,4.000000,4.000000,4.000000,4.000000,4.000000,4.000000,4.000000,4.000000,4.000000,4.000000,4.000000,4.000000,4.000000,4.000000,4.000000,2.000000,4.000000,4.000000,4.000000,4.000000,4.000000,83.333336
1614392022.799277,61.000000,0.000000,-0.336067,-3.732749,-82.169975,3.460893,-10.845885,3.046739,5.561737,2.634316,1.655253,-0.161501,6.243071,9.550045,9.170267,3.766025,10.657171,186.906998,12.330410,123.126610,98.769547,12.911868,6.645994,-2.698500,18.702402,6.320771,12.680093,18.489290,-5.691714,-6.274199,-2.069536,-9.338765,-8.450989,-66.941139,8064.000000,0.000000,4.000000,,,,0.000000,4.000000,4.000000,4.000000,4.000000,4.000000,4.000000,4.000000,4.000000,4.000000,4.000000,4.000000,4.000000,4.000000,4.000000,4.000000,4.000000,4.000000,4.000000,4.000000,4.000000,4.000000,4.000000,4.000000,4.000000,4.000000,4.000000,2.000000,4.000000,4.000000,4.000000,4.000000,4.000000,83.333336
1614392022.807126,62.000000,0.000000,1.202730,-3.729016,-88.241653,3.457433,-11.860681,4.582154,6.068996,2.631682,5.243341,-0.674160,4.185546,9.027675,8.648276,2.223798,-0.635537,167.745728,11.292439,113.772713,103.798981,14.437418,11.767553,-1.157340,18.170879,11.442656,12.154593,17.957981,-3.121920,-6.780746,1.522277,-9.842246,-8.955359,-65.848557,8064.000000,0.000000,4.000000,,,,0.000000,4.000000,4.000000,4.000000,4.000000,4.000000,4.000000,4.000000,4.000000,4.000000,4.000000,4.000000,4.000000,4.000000,4.000000,4.000000,4.000000,4.000000,4.000000,4.000000,4.000000,4.000000,4.000000,4.000000,4.000000,4.000000,4.000000,2.000000,4.000000,4.000000,4.000000,4.000000,4.000000,83.333336
1614392022.814875,63.000000,0.000000,2.739989,-3.725287,-79.948280,8.582180,-8.259076,6.628854,6.062927,2.116230,4.725278,-1.186306,5.719822,9.018647,8.639628,2.221574,1.416381,189.116440,11.793967,131.607666,117.028519,20.064007,8.678863,1.920740,18.665529,10.918392,12.655258,14.350280,0.470946,-6.773965,1.007935,-7.268301,-9.459224,-67.321167,8064.000000,0.000000,4.000000,,,,0.000000,4.000000,4.000000,4.000000,4.000000,4.000000,4.000000,4.000000,4.000000,4.000000,4.000000,4.000000,4.000000,4.000000,4.000000,4.000000,4.000000,4.000000,4.000000,4.000000,4.000000,4.000000,4.000000,4.000000,4.000000,4.000000,4.000000,2.000000,4.000000,4.000000,4.000000,4.000000,4.000000,83.333336
1614392022.822725,64.000000,0.000000,-1.365315,-3.721562,-64.996536,10.624880,-6.712356,7.135046,6.569685,2.626934,4.720552,-0.672300,5.714102,9.009628,8.630988,-2.396032,-5.764523,176.106812,8.192430,114.552979,97.937126,12.864454,2.003517,0.380358,11.980197,11.933115,13.155423,10.746185,-1.580807,-5.741549,1.006927,-6.235393,-7.398482,-62.638462,0.000000,185.000000,4.000000,,,,0.000000,4.000000,4.000000,4.000000,4.000000,4.000000,4.000000,4.000000,4.000000,4.000000,4.000000,4.000000,4.000000,4.000000,4.000000,4.000000,4.000000,4.000000,4.000000,4.000000,4.000000,4.000000,4.000000,4.000000,4.000000,4.000000,4.000000,2.000000,4.000000,4.000000,4.000000,4.000000,4.000000,83.333336
1614392022.830474,65.000000,0.000000,-8.030616,-3.717840,-78.777695,1.383486,-16.962053,6.615090,4.511833,2.111487,4.203012,-1.697268,3.657106,6.949337,8.622357,-3.932098,-22.681835,153.366608,1.004750,88.797394,74.249451,-3.045846,0.463052,-6.799510,1.198986,2.177592,6.475601,0.991850,-8.245893,-7.787090,-1.045362,-13.921465,-9.955187,-75.909157,0.000000,193.000000,4.000000,,,,0.000000,4.000000,4.000000,4.000000,4.000000,4.000000,4.000000,4.000000,4.000000,4.000000,4.000000,4.000000,4.000000,4.000000,4.000000,4.000000,4.000000,4.000000,4.000000,4.000000,4.000000,4.000000,4.000000,4.000000,4.000000,4.000000,4.000000,2.000000,4.000000,4.000000,4.000000,4.000000,4.000000,83.333336
1614392022.838323,66.000000,0.000000,-9.048226,-4.226943,-96.647636,-5.284564,-22.073298,6.608475,2.456039,2.109375,-0.929397,-6.310956,1.089346,4.891105,8.613735,-4.953807,-23.171974,177.828629,-0.534717,108.195778,91.611099,-5.094082,-0.050231,-10.895274,-1.879136,-15.773303,-1.736002,-5.675809,-12.340212,-10.856226,-5.659701,-20.061390,-18.150360,-93.269150,0.000000,190.000000,4.000000,,,,0.000000,4.000000,4.000000,4.000000,4.000000,4.000000,4.000000,4.000000,4.000000,4.000000,4.000000,4.000000,4.000000,4.000000,4.000000,4.000000,4.000000,4.000000,4.000000,4.000000,4.000000,4.000000,4.000000,4.000000,4.000000,4.000000,4.000000,2.000000,4.000000,4.000000,4.000000,4.000000,4.000000,83.333336
1614392022.846072,67.000000,0.000000,-9.039179,-1.145793,-84.243294,-2.202357,-13.846095,6.601866,1.427942,2.620086,-7.082314,-8.868748,-3.014307,5.399035,8.605122,-16.743725,-24.687263,165.855927,0.491459,106.549118,99.211792,-5.088988,-2.101463,-10.371558,-0.851616,-19.860094,-3.272728,-0.541928,-11.302230,-6.229985,-7.192503,-15.938764,-11.465543,-80.868187,0.000000,159.000000,4.000000,,,,0.000000,4.000000,4.000000,4.000000,4.000000,4.000000,4.000000,4.000000,4.000000,4.000000,4.000000,4.000000,4.000000,4.000000,4.000000,4.000000,4.000000,4.000000,4.000000,4.000000,4.000000,4.000000,4.000000,4.000000,4.000000,4.000000,4.000000,2.000000,4.000000,4.000000,4.000000,4.000000,4.000000,83.333336
1614392022.853922,68.000000,0.000000,-9.030139,2.445096,-81.082130,-0.661693,-10.755326,6.595264,-2.163230,0.566184,-7.588052,-8.859879,-6.601037,5.393635,8.596517,-21.855186,-38.508732,133.382370,-0.021853,74.134880,70.907455,-14.827489,-5.176285,-11.899649,-1.363585,-12.660747,-1.730994,2.535537,-11.290928,0.955732,-7.185311,-12.333081,0.340795,-70.018089,0.000000,170.000000,4.000000,,,,0.000000,4.000000,4.000000,4.000000,4.000000,4.000000,4.000000,4.000000,4.000000,4.000000,4.000000,4.000000,4.000000,4.000000,4.000000,4.000000,4.000000,4.000000,4.000000,4.000000,4.000000,4.000000,4.000000,4.000000,4.000000,4.000000,4.000000,2.000000,4.000000,4.000000,4.000000,4.000000,4.000000,83.333336
1614392022.861671,69.000000,0.000000,-8.508288,3.981113,-103.565147,-4.763595,-19.975340,6.588669,-6.263631,-1.998485,-6.554823,-10.389481,-6.081615,5.388242,8.587920,-9.525639,-30.265093,158.377197,-0.021831,91.496643,70.836548,-15.838302,-11.837775,-14.451852,-0.849401,-12.135265,-3.267724,0.481720,-12.818099,-0.583685,-7.178125,-14.372030,-6.839033,-84.307045,0.000000,187.000000,4.000000,,,,0.000000,4.000000,4.000000,4.000000,4.000000,4.000000,4.000000,4.000000,4.000000,4.000000,4.000000,4.000000,4.000000,4.000000,4.000000,4.000000,4.000000,4.000000,4.000000,4.000000,4.000000,4.000000,4.000000,4.000000,4.000000,4.000000,4.000000,2.000000,4.000000,4.000000,4.000000,4.000000,4.000000,83.333336
1614392022.869320,70.000000,0.000000,-10.038241,3.464311,-104.487228,-4.246011,-22.519466,6.582080,-5.744546,-1.483666,-8.086729,-12.430373,-6.075533,5.382854,8.579331,-6.439190,-11.773290,191.039337,-0.021809,123.200020,96.406738,-9.155797,-15.415681,-14.437400,-1.361372,-13.148771,-3.264457,1.506879,-11.266819,-2.634384,-7.170948,-13.844838,-15.550143,-86.786835,0.000000,201.000000,4.000000,,,,0.000000,4.000000,4.000000,4.000000,4.000000,4.000000,4.000000,4.000000,4.000000,4.000000,4.000000,4.000000,4.000000,4.000000,4.000000,4.000000,4.000000,4.000000,4.000000,4.000000,4.000000,4.000000,4.000000,4.000000,4.000000,4.000000,4.000000,2.000000,4.000000,4.000000,4.000000,4.000000,4.000000,83.333336
1614392022.877070,71.000000,0.000000,-6.951281,3.460847,-90.023766,-2.703304,-19.420025,6.575499,-2.149059,-1.995003,-6.027360,-13.443583,-7.607920,4.864650,8.570752,-15.150700,-17.915363,160.591888,0.491033,102.563995,91.182121,-9.659462,-13.861804,-15.448604,-1.360011,-9.033058,-2.235551,1.505372,-8.691450,2.496456,-7.163776,-12.292532,-8.355105,-74.905182,0.000000,193.000000,4.000000,,,,0.000000,4.000000,4.000000,4.000000,4.000000,4.000000,4.000000,4.000000,4.000000,4.000000,4.000000,4.000000,4.000000,4.000000,4.000000,4.000000,4.000000,4.000000,4.000000,4.000000,4.000000,4.000000,4.000000,4.000000,4.000000,4.000000,4.000000,2.000000,4.000000,4.000000,4.000000,4.000000,4.000000,83.333336
1614392022.884719,72.000000,0.000000,3.824902,3.970206,-93.010666,-5.777523,-19.400604,6.568923,0.417193,-1.993007,1.670974,-9.840396,-1.446465,6.398247,8.562181,-9.494523,-21.487190,145.559494,3.054645,91.179382,84.424271,-5.547238,-12.309481,-12.356232,5.308016,-8.511205,-3.258956,1.503867,-8.169938,6.083703,-4.592510,-14.331521,-6.808289,-77.394379,0.000000,184.000000,4.000000,,,,0.000000,4.000000,4.000000,4.000000,4.000000,4.000000,4.000000,4.000000,4.000000,4.000000,4.000000,4.000000,4.000000,4.000000,4.000000,4.000000,4.000000,4.000000,4.000000,4.000000,4.000000,4.000000,4.000000,4.000000,4.000000,4.000000,4.000000,2.000000,4.000000,4.000000,4.000000,4.000000,4.000000,83.333336
1614392022.892469,73.000000,0.000000,11.000564,3.453416,-85.738167,0.894921,-13.740178,6.562354,3.493699,2.624370,9.361611,-2.138248,10.349853,8.955952,8.553619,2.822664,-4.542626,178.234451,4.590052,120.831795,103.827026,7.791642,-5.630504,-0.036183,13.507836,-6.964232,-2.230057,7.143388,-6.110486,4.539157,2.591570,-13.291549,-7.827122,-71.163139,0.000000,187.000000,4.000000,,,,0.000000,4.000000,4.000000,4.000000,4.000000,4.000000,4.000000,4.000000,4.000000,4.000000,4.000000,4.000000,4.000000,4.000000,4.000000,4.000000,4.000000,4.000000,4.000000,4.000000,4.000000,4.000000,4.000000,4.000000,4.000000,4.000000,4.000000,2.000000,4.000000,4.000000,4.000000,4.000000,4.000000,83.333336
1614392022.900118,74.000000,0.000000,9.963923,3.449962,-64.113968,13.714539,-3.982849,6.555792,6.054308,8.775592,8.839429,3.504916,14.442067,9.459816,8.545066,3.332661,2.641403,178.569031,4.072641,129.428909,111.928329,14.963338,7.195639,8.681802,15.032790,1.247860,5.977302,15.854194,2.100753,4.534618,8.230003,-4.047488,1.924295,-50.579151,0.000000,196.000000,4.000000,,,,0.000000,4.000000,4.000000,4.000000,4.000000,4.000000,4.000000,4.000000,4.000000,4.000000,4.000000,4.000000,4.000000,4.000000,4.000000,4.000000,4.000000,4.000000,4.000000,4.000000,4.000000,4.000000,4.000000,4.000000,4.000000,4.000000,4.000000,2.000000,4.000000,4.000000,4.000000,4.000000,4.000000,83.333336
1614392022.907867,75.000000,0.000000,9.441137,3.446512,-71.742157,11.136722,-5.004507,6.549236,6.048254,10.818098,4.215205,3.501411,12.376343,8.937535,8.536521,2.816508,1.613121,177.877655,4.068568,126.735374,112.842041,13.409913,13.342290,8.160299,13.992116,7.400458,14.689273,20.453724,7.739678,5.042904,8.734594,-2.504979,1.409550,-57.708061,0.000000,175.000000,4.000000,,,,0.000000,4.000000,4.000000,4.000000,4.000000,4.000000,4.000000,4.000000,4.000000,4.000000,4.000000,4.000000,4.000000,4.000000,4.000000,4.000000,4.000000,4.000000,4.000000,4.000000,4.000000,4.000000,4.000000,4.000000,4.000000,4.000000,4.000000,2.000000,4.000000,4.000000,4.000000,4.000000,4.000000,83.333336
1614392022.915517,76.000000,0.000000,10.457337,3.443066,-92.183235,-3.233389,-12.178989,6.542686,6.042205,9.781639,1.134067,1.446627,12.876787,8.928598,9.040805,5.377794,8.790995,210.520279,4.064500,146.095825,126.575356,13.396503,12.303307,7.639319,13.465303,6.880238,16.213045,19.920450,7.219118,4.525041,7.700219,-9.169141,-8.335449,-82.778557,0.000000,188.000000,4.000000,,,,0.000000,4.000000,4.000000,4.000000,4.000000,4.000000,4.000000,4.000000,4.000000,4.000000,4.000000,4.000000,4.000000,4.000000,4.000000,4.000000,4.000000,4.000000,4.000000,4.000000,4.000000,4.000000,4.000000,4.000000,4.000000,4.000000,4.000000,2.000000,4.000000,4.000000,4.000000,4.000000,4.000000,83.333336
1614392022.923266,77.000000,0.000000,6.857137,3.439623,-82.860283,-4.768618,-8.064246,6.536144,5.523343,9.259037,0.620112,4.522104,13.376731,9.432490,8.518944,6.910878,10.320665,203.643097,4.060435,142.359985,120.294937,13.895927,12.291003,9.170141,11.400556,6.360537,17.222473,20.413349,7.211898,4.520516,8.205338,-4.031766,-3.711729,-82.695778,0.000000,170.000000,4.000000,,,,0.000000,4.000000,4.000000,4.000000,4.000000,4.000000,4.000000,4.000000,4.000000,4.000000,4.000000,4.000000,4.000000,4.000000,4.000000,4.000000,4.000000,4.000000,4.000000,4.000000,4.000000,4.000000,4.000000,4.000000,4.000000,4.000000,4.000000,2.000000,4.000000,4.000000,4.000000,4.000000,4.000000,83.333336
1614392022.930915,78.000000,0.000000,2.747715,3.949004,-67.392807,3.954100,-1.902336,7.042428,6.030640,11.301060,0.619492,9.132966,12.850533,9.423058,9.023245,9.980890,5.694960,171.131760,4.569195,115.038132,98.123360,10.292288,11.765891,8.648150,10.363514,7.379817,19.769354,21.418577,7.204687,5.028816,8.709954,5.203035,3.984291,-67.741287,0.000000,157.000000,4.000000,,,,0.000000,4.000000,4.000000,4.000000,4.000000,4.000000,4.000000,4.000000,4.000000,4.000000,4.000000,4.000000,4.000000,4.000000,4.000000,4.000000,4.000000,4.000000,4.000000,4.000000,4.000000,4.000000,4.000000,4.000000,4.000000,4.000000,4.000000,2.000000,4.000000,4.000000,4.000000,4.000000,4.000000,83.333336
1614392022.938665,79.000000,0.000000,1.719327,3.432234,-76.556183,0.873223,-9.592741,7.548206,6.537430,9.751298,1.131693,8.098192,12.837683,8.900814,9.527042,9.458089,5.176445,176.088837,4.564626,120.564125,100.076515,8.743534,12.779766,7.101041,10.353150,7.372437,20.262405,18.320236,2.582097,3.485326,6.649962,-1.981655,0.390563,-66.647903,0.000000,193.000000,4.000000,,,,0.000000,4.000000,4.000000,4.000000,4.000000,4.000000,4.000000,4.000000,4.000000,4.000000,4.000000,4.000000,4.000000,4.000000,4.000000,4.000000,4.000000,4.000000,4.000000,4.000000,4.000000,4.000000,4.000000,4.000000,4.000000,4.000000,4.000000,2.000000,4.000000,4.000000,4.000000,4.000000,4.000000,83.333336
1614392022.946314,80.000000,0.000000,2.230428,0.864699,-89.300140,-8.358419,-20.865200,6.515017,2.428328,0.510777,0.617741,1.423427,8.722281,8.891913,6.440592,0.217862,-3.033860,174.374283,3.534420,136.853821,108.181564,10.786073,15.331089,8.632401,10.342797,6.339424,19.216501,16.763454,-1.010228,1.430558,3.566389,-10.184802,-2.686751,-71.709465,0.000000,207.000000,4.000000,,,,0.000000,4.000000,4.000000,4.000000,4.000000,4.000000,4.000000,4.000000,4.000000,4.000000,4.000000,4.000000,4.000000,4.000000,4.000000,4.000000,4.000000,4.000000,4.000000,4.000000,4.000000,4.000000,4.000000,4.000000,4.000000,4.000000,4.000000,4.000000,4.000000,4.000000,4.000000,4.000000,4.000000,100.000000
1614392022.954063,81.000000,0.000000,2.228198,-0.161806,-89.723663,-6.298779,-20.844336,7.021323,-1.676664,-5.130759,0.617123,-1.654919,5.636636,9.395842,3.357229,-5.936203,-13.287236,156.251190,4.043707,119.793884,93.201591,6.159902,9.161912,7.598128,10.845275,6.845905,19.710106,19.310793,-0.496398,0.403487,4.588464,-8.123335,-1.145603,-70.612114,0.000000,195.000000,4.000000,,,,0.000000,4.000000,4.000000,4.000000,4.000000,4.000000,4.000000,4.000000,4.000000,4.000000,4.000000,4.000000,4.000000,4.000000,4.000000,4.000000,4.000000,4.000000,4.000000,4.000000,4.000000,4.000000,4.000000,4.000000,4.000000,4.000000,4.000000,4.000000,4.000000,4.000000,4.000000,4.000000,4.000000,100.000000
1614392022.961713,82.000000,0.000000,1.713149,-0.161645,-87.582657,0.374186,-17.746567,7.527122,0.889115,-2.561526,2.154968,-0.114803,5.631000,6.822343,0.276948,-4.391805,-14.812410,167.376999,4.039663,97.622810,75.159668,-5.128310,-3.667763,-1.640240,6.219046,6.839059,18.664755,18.265842,-0.495901,0.915904,7.660798,-5.551109,-0.631637,-68.490219,0.000000,186.000000,4.000000,,,,0.000000,4.000000,4.000000,4.000000,4.000000,4.000000,4.000000,4.000000,4.000000,4.000000,4.000000,4.000000,4.000000,4.000000,4.000000,4.000000,4.000000,4.000000,4.000000,4.000000,4.000000,4.000000,4.000000,4.000000,4.000000,4.000000,4.000000,4.000000,4.000000,4.000000,4.000000,4.000000,4.000000,100.000000
1614392022.969462,83.000000,0.000000,-0.339846,-1.699944,-88.007896,-3.728752,-22.857025,1.878569,-0.137415,-4.097426,0.614351,-2.165970,1.522804,2.712957,-7.928457,-9.002797,-23.515547,165.158340,-4.169505,94.961082,69.443489,-14.353951,-8.279479,-11.382189,-0.453840,2.729656,16.594807,10.042447,-3.572328,0.914988,4.063394,-5.545558,-2.682287,-74.575577,0.000000,212.000000,4.000000,,,,0.000000,4.000000,4.000000,4.000000,4.000000,4.000000,4.000000,4.000000,4.000000,4.000000,4.000000,4.000000,4.000000,4.000000,4.000000,4.000000,4.000000,4.000000,4.000000,4.000000,4.000000,4.000000,4.000000,4.000000,4.000000,4.000000,4.000000,4.000000,4.000000,4.000000,4.000000,4.000000,4.000000,100.000000
1614392022.977112,84.000000,0.000000,-1.877968,-3.749527,-97.150658,-12.955792,-30.526476,-8.892540,-7.316765,-9.221534,-8.104212,-7.804830,-7.196667,0.658962,-14.074374,-18.737385,-33.235622,148.070099,-12.883285,98.455864,74.502251,-14.339597,-7.245559,-11.370807,-1.479027,-2.401279,15.552571,4.904200,-4.594397,0.914073,-0.043234,-7.078474,-8.833451,-84.757408,0.000000,194.000000,4.000000,,,,0.000000,4.000000,4.000000,4.000000,4.000000,4.000000,4.000000,4.000000,4.000000,4.000000,4.000000,4.000000,4.000000,4.000000,4.000000,4.000000,4.000000,4.000000,4.000000,4.000000,4.000000,4.000000,4.000000,4.000000,4.000000,4.000000,4.000000,4.000000,4.000000,4.000000,4.000000,4.000000,4.000000,100.000000
1614392022.984961,85.000000,0.000000,-1.363270,-4.771418,-108.335556,-15.506940,-33.572872,-13.499032,-10.386372,-9.212313,-14.762774,-12.412410,-11.292035,1.683944,-11.496198,-19.744287,-22.945974,175.614334,-5.690914,107.588181,88.273895,-5.094488,-7.751134,-8.282513,-1.477548,-4.962980,13.485737,4.386475,-4.076982,0.913159,0.469630,-14.250883,-13.440002,-88.775215,0.000000,185.000000,4.000000,,,,0.000000,4.000000,4.000000,4.000000,4.000000,4.000000,4.000000,4.000000,4.000000,4.000000,4.000000,4.000000,4.000000,4.000000,4.000000,4.000000,4.000000,4.000000,4.000000,4.000000,4.000000,4.000000,4.000000,4.000000,4.000000,4.000000,4.000000,4.000000,4.000000,4.000000,4.000000,4.000000,4.000000,100.000000
1614392022.992710,86.000000,0.000000,-2.387547,-3.228185,-104.124657,-13.952971,-32.513660,-9.382969,-8.837523,-8.690279,-14.235191,-12.399997,-8.716640,1.682260,-6.869317,-16.647621,-11.128158,189.284882,8.673752,117.737000,99.467674,7.731120,-4.666460,-7.761410,0.062391,-5.470838,11.933789,5.407730,-4.072905,0.912245,-0.556481,-15.262273,-12.400921,-86.635155,0.000000,207.000000,4.000000,,,,0.000000,4.000000,4.000000,4.000000,4.000000,4.000000,4.000000,4.000000,4.000000,4.000000,4.000000,4.000000,4.000000,4.000000,4.000000,4.000000,4.000000,4.000000,4.000000,4.000000,4.000000,4.000000,4.000000,4.000000,4.000000,4.000000,4.000000,4.000000,4.000000,4.000000,4.000000,4.000000,4.000000,100.000000
1614392023.000559,87.000000,0.000000,-0.846698,1.390428,-90.687202,-14.451838,-29.917044,-5.271022,-7.803045,-8.168769,-13.708136,-11.874777,-6.656641,1.167757,-5.836806,-15.092511,-10.604209,156.787903,12.254822,119.670547,102.957954,13.877234,2.004873,-5.189546,7.754636,-3.926905,16.024420,13.094629,-4.068832,0.911333,1.495358,-8.067523,-9.824417,-84.497238,0.000000,232.000000,4.000000,,,,0.000000,4.000000,4.000000,4.000000,4.000000,4.000000,4.000000,4.000000,4.000000,4.000000,4.000000,4.000000,4.000000,4.000000,4.000000,4.000000,4.000000,4.000000,4.000000,4.000000,4.000000,4.000000,4.000000,4.000000,4.000000,4.000000,4.000000,4.000000,4.000000,4.000000,4.000000,4.000000,4.000000,100.000000
1614392023.008309,88.000000,0.000000,6.333636,3.953140,-88.545227,-14.950207,-29.374306,-4.240110,-6.256780,-4.570856,-14.207248,-12.375722,-6.137164,1.679410,-3.266867,-11.487676,-3.926938,156.631104,10.704105,121.089340,110.034485,12.837716,4.566971,-0.056151,16.464830,0.692406,19.598139,22.312304,-1.500661,0.910422,6.622068,-4.982533,-9.301772,-82.874283,0.000000,181.000000,4.000000,,,,0.000000,4.000000,4.000000,4.000000,4.000000,4.000000,4.000000,4.000000,4.000000,4.000000,4.000000,4.000000,4.000000,4.000000,4.000000,4.000000,4.000000,4.000000,4.000000,4.000000,4.000000,4.000000,4.000000,4.000000,4.000000,4.000000,4.000000,4.000000,4.000000,4.000000,4.000000,4.000000,4.000000,100.000000
1614392023.016158,89.000000,0.000000,9.404225,3.436366,-92.559250,-15.448077,-31.909033,-4.748691,-5.737703,-6.617568,-14.193041,-14.414629,-5.618207,1.677731,-1.725139,-8.912086,0.692374,185.705246,11.206222,122.506706,116.078293,13.337699,6.100866,1.482366,18.499647,3.255816,19.065720,22.802813,0.039301,0.909511,5.076984,-7.028832,-8.266829,-81.252945,0.000000,187.000000,4.000000,,,,0.000000,4.000000,4.000000,4.000000,4.000000,4.000000,4.000000,4.000000,4.000000,4.000000,4.000000,4.000000,4.000000,4.000000,4.000000,4.000000,4.000000,4.000000,4.000000,4.000000,4.000000,4.000000,4.000000,4.000000,4.000000,4.000000,4.000000,4.000000,4.000000,4.000000,4.000000,4.000000,4.000000,100.000000
1614392023.023907,90.000000,0.000000,6.317898,3.432930,-90.928230,-14.406988,-31.877125,-4.231121,-5.219145,-10.713514,-14.178847,-16.451496,-6.638229,1.163232,-3.261875,-8.903173,-3.410883,175.263138,12.220656,120.332924,114.936577,13.837182,8.146047,0.455243,17.455507,2.226920,18.533834,20.215908,-0.473559,0.908602,1.482164,-5.483342,-9.797025,-80.146049,0.000000,184.000000,4.000000,,,,0.000000,4.000000,4.000000,4.000000,4.000000,4.000000,4.000000,4.000000,4.000000,4.000000,4.000000,4.000000,4.000000,4.000000,4.000000,4.000000,4.000000,4.000000,4.000000,4.000000,4.000000,4.000000,4.000000,4.000000,4.000000,4.000000,4.000000,4.000000,4.000000,4.000000,4.000000,4.000000,4.000000,100.000000
1614392023.031756,91.000000,0.000000,5.285939,3.942317,-90.324478,-13.879761,-32.358067,-3.714070,-4.701105,-8.138698,-13.139028,-15.409404,-5.093130,1.674890,0.331130,-4.278885,6.848938,178.677612,11.182795,125.853615,113.795998,13.310524,8.137900,0.967608,17.950872,2.737513,19.540941,20.195692,-0.473085,0.907693,2.506322,-5.990679,-12.351330,-80.065910,0.000000,201.000000,4.000000,,,,0.000000,4.000000,4.000000,4.000000,4.000000,4.000000,4.000000,4.000000,4.000000,4.000000,4.000000,4.000000,4.000000,4.000000,4.000000,4.000000,4.000000,4.000000,4.000000,4.000000,4.000000,4.000000,4.000000,4.000000,4.000000,4.000000,4.000000,4.000000,4.000000,4.000000,4.000000,4.000000,4.000000,100.000000
1614392023.039506,92.000000,0.000000,6.306294,0.861452,-92.798256,-16.429983,-34.376991,-4.735997,-6.234866,-4.540816,-11.074607,-10.778609,-3.549575,1.673215,5.971825,-1.197683,14.534397,201.063034,11.171612,125.214935,105.989891,13.297214,7.616942,1.479461,17.932920,5.298878,19.008579,18.637033,-0.472612,0.906786,4.042278,-5.471868,-9.774876,-78.447380,0.000000,173.000000,4.000000,,,,0.000000,4.000000,4.000000,4.000000,4.000000,4.000000,4.000000,4.000000,4.000000,4.000000,4.000000,4.000000,4.000000,4.000000,4.000000,4.000000,4.000000,4.000000,4.000000,4.000000,4.000000,4.000000,4.000000,4.000000,4.000000,4.000000,4.000000,4.000000,4.000000,4.000000,4.000000,4.000000,4.000000,100.000000
1614392023.047355,93.000000,0.000000,5.787167,-0.677871,-85.525970,-12.310989,-24.086205,-4.731261,-4.177349,-4.536275,-9.525070,-7.690908,-3.033205,1.158721,1.350468,-1.709306,-2.403214,177.272232,11.160440,110.217926,93.063393,12.771096,7.609325,-1.598941,17.402168,6.832041,18.989571,22.208141,-0.472139,0.905879,6.089518,1.713091,-3.098434,-69.650986,0.000000,185.000000,4.000000,,,,0.000000,4.000000,4.000000,4.000000,4.000000,4.000000,4.000000,4.000000,4.000000,4.000000,4.000000,4.000000,4.000000,4.000000,4.000000,4.000000,4.000000,4.000000,4.000000,4.000000,4.000000,4.000000,4.000000,4.000000,4.000000,4.000000,4.000000,4.000000,4.000000,4.000000,4.000000,4.000000,4.000000,100.000000
1614392023.055104,94.000000,0.000000,7.832662,1.886909,-77.235321,-0.503807,-8.164682,-1.649606,3.519136,-3.506098,-10.028366,-8.196037,0.559572,3.208844,-2.240626,5.471890,-7.529016,170.941116,11.149280,120.364120,99.124176,12.758325,7.601716,-4.161445,16.871944,6.312388,18.970581,30.391060,-0.471667,0.904973,10.698812,6.326763,-0.531234,-59.324921,0.000000,209.000000,4.000000,,,,0.000000,4.000000,4.000000,4.000000,4.000000,4.000000,4.000000,4.000000,4.000000,4.000000,4.000000,4.000000,4.000000,4.000000,4.000000,4.000000,4.000000,4.000000,4.000000,4.000000,4.000000,4.000000,4.000000,4.000000,4.000000,4.000000,4.000000,4.000000,4.000000,4.000000,4.000000,4.000000,4.000000,100.000000
1614392023.062954,95.000000,0.000000,9.363291,3.423484,-81.773468,3.599261,-13.284723,-1.135136,6.079720,-0.938489,-10.018337,-8.187841,7.738500,7.308199,5.453923,16.235649,11.452871,203.590683,11.650951,142.295044,114.409660,13.771208,7.594114,-2.106002,17.367893,6.306076,18.951611,30.873489,-0.471195,0.904068,9.149652,1.705051,-1.556343,-61.316879,0.000000,193.000000,4.000000,,,,0.000000,4.000000,4.000000,4.000000,4.000000,4.000000,4.000000,4.000000,4.000000,4.000000,4.000000,4.000000,4.000000,4.000000,4.000000,4.000000,4.000000,4.000000,4.000000,4.000000,4.000000,4.000000,4.000000,4.000000,4.000000,4.000000,4.000000,4.000000,4.000000,4.000000,4.000000,4.000000,4.000000,100.000000
1614392023.070703,96.000000,0.000000,9.353928,3.420061,-86.307076,0.005918,-24.553490,-3.698104,2.483896,-0.937550,-10.008319,-7.666833,6.705120,7.813712,9.038213,13.142490,10.928598,190.053757,11.126479,121.127106,106.602943,10.167693,7.073700,-3.642357,18.376167,6.299770,18.932659,26.227232,-0.470724,0.903164,4.012297,-2.912038,-1.554787,-67.922226,8064.000000,0.000000,4.000000,,,,0.000000,4.000000,4.000000,4.000000,4.000000,4.000000,4.000000,4.000000,4.000000,4.000000,4.000000,4.000000,4.000000,4.000000,4.000000,4.000000,4.000000,4.000000,4.000000,4.000000,4.000000,4.000000,4.000000,4.000000,4.000000,4.000000,4.000000,4.000000,4.000000,4.000000,4.000000,4.000000,4.000000,100.000000
1614392023.078552,97.000000,0.000000,9.344574,3.416641,-81.605385,-0.506908,-20.939192,-2.155944,1.455772,-1.449433,-9.998311,-8.171987,-0.993893,5.754616,1.849687,2.872938,-6.518228,157.556015,8.551250,97.929054,91.111725,1.952397,7.579447,-10.305382,14.255226,6.293470,18.913727,26.713825,-0.470254,0.902261,4.521106,-2.396306,-1.040412,-66.828667,8064.000000,0.000000,4.000000,,,,0.000000,4.000000,4.000000,4.000000,4.000000,4.000000,4.000000,4.000000,4.000000,4.000000,4.000000,4.000000,4.000000,4.000000,4.000000,4.000000,4.000000,4.000000,4.000000,4.000000,4.000000,4.000000,4.000000,4.000000,4.000000,4.000000,4.000000,4.000000,4.000000,4.000000,4.000000,4.000000,4.000000,100.000000
1614392023.086301,98.000000,0.000000,9.335229,3.413224,-82.036598,0.006419,-15.277227,2.461597,2.479957,-1.447984,-9.988313,-8.163815,-3.044181,4.723220,0.822196,2.357244,-4.973248,177.398453,6.491417,118.343941,95.636002,0.411983,9.623149,-6.192512,13.215330,6.287177,18.894814,26.687111,-0.982604,0.388538,2.465302,-1.881089,-1.552192,-64.710556,8064.000000,0.000000,4.000000,,,,0.000000,4.000000,4.000000,4.000000,4.000000,4.000000,4.000000,4.000000,4.000000,4.000000,4.000000,4.000000,4.000000,4.000000,4.000000,4.000000,4.000000,4.000000,4.000000,4.000000,4.000000,4.000000,4.000000,4.000000,4.000000,4.000000,4.000000,4.000000,4.000000,4.000000,4.000000,4.000000,4.000000,100.000000
1614392023.094151,99.000000,0.000000,9.838715,3.922631,-87.595589,1.032054,-18.338873,3.997597,1.964656,-1.446536,-9.978324,-8.155651,-1.502675,5.744138,1.847015,2.354887,-0.865711,178.246704,7.510567,122.328163,100.155746,4.514135,11.664808,4.070091,19.868782,6.280890,19.388739,23.583502,-0.468801,2.952252,-2.152547,-2.904849,-1.550640,-65.671486,8064.000000,0.000000,4.000000,,,,0.000000,4.000000,4.000000,4.000000,4.000000,4.000000,4.000000,4.000000,4.000000,4.000000,4.000000,4.000000,4.000000,4.000000,4.000000,4.000000,4.000000,4.000000,4.000000,4.000000,4.000000,4.000000,4.000000,4.000000,4.000000,4.000000,4.000000,4.000000,4.000000,4.000000,4.000000,4.000000,4.000000,100.000000
1614392023.101900,100.000000,0.000000,12.392979,6.482811,-83.918251,5.646406,-18.833355,2.455137,1.962692,-1.445089,-7.917064,-8.660316,-3.039634,5.225574,-4.308678,-3.288494,-11.634075,145.760757,7.503056,96.051987,83.132515,0.919877,11.653143,-1.575005,17.797630,6.274609,19.369350,22.534277,0.044489,5.000582,-1.637574,-2.901944,-1.549089,-62.016071,8064.000000,0.000000,4.000000,,,,0.000000,4.000000,4.000000,4.000000,4.000000,4.000000,4.000000,4.000000,4.000000,4.000000,4.000000,4.000000,4.000000,4.000000,4.000000,4.000000,4.000000,4.000000,4.000000,4.000000,4.000000,4.000000,4.000000,4.000000,4.000000,4.000000,4.000000,4.000000,4.000000,4.000000,4.000000,4.000000,4.000000,100.000000
1614392023.109549,101.000000,0.000000,12.893406,7.501969,-78.706131,7.179222,-17.276060,2.965503,1.960729,-1.443644,-6.370686,-8.138835,-1.498133,5.220348,-3.791549,0.817359,-13.160903,164.589355,6.469912,105.699532,69.716049,-3.696427,10.103028,-9.778558,8.549064,6.268334,16.273058,20.973280,-0.981197,2.944299,0.928166,-2.386222,-1.547540,-58.877132,8064.000000,0.000000,4.000000,,,,0.000000,4.000000,4.000000,4.000000,4.000000,4.000000,4.000000,4.000000,4.000000,4.000000,4.000000,4.000000,4.000000,4.000000,4.000000,4.000000,4.000000,4.000000,4.000000,4.000000,4.000000,4.000000,4.000000,4.000000,4.000000,4.000000,4.000000,4.000000,4.000000,4.000000,4.000000,4.000000,4.000000,100.000000
1614392023.117299,102.000000,0.000000,13.393332,6.981647,-79.140244,7.684863,-17.771605,3.475358,1.958768,-1.955021,-5.851494,-8.130696,3.631570,5.215128,5.955832,11.072952,-0.327229,197.245285,8.001904,129.183578,87.082230,6.563680,12.144208,-2.076472,10.591797,5.749245,15.743964,19.413847,0.045425,0.890073,0.927238,-1.871015,-1.545992,-63.433640,8064.000000,0.000000,4.000000,,,,0.000000,4.000000,4.000000,4.000000,4.000000,4.000000,4.000000,4.000000,4.000000,4.000000,4.000000,4.000000,4.000000,4.000000,4.000000,4.000000,4.000000,4.000000,4.000000,4.000000,4.000000,4.000000,4.000000,4.000000,4.000000,4.000000,4.000000,4.000000,4.000000,4.000000,4.000000,4.000000,4.000000,100.000000
1614392023.124948,103.000000,0.000000,13.379939,6.974665,-79.573921,10.754101,-17.241013,2.959062,2.469630,-0.414605,-6.358463,-9.148207,6.192041,5.209913,9.539620,10.549059,5.314124,184.227524,12.609286,127.003105,115.713097,21.428911,15.208986,6.130733,17.760693,6.769137,16.241041,19.394432,5.173585,0.889183,0.413490,-2.381964,-1.544446,-68.498413,8064.000000,0.000000,4.000000,,,,0.000000,4.000000,4.000000,4.000000,4.000000,4.000000,4.000000,4.000000,4.000000,4.000000,4.000000,4.000000,4.000000,4.000000,4.000000,4.000000,4.000000,4.000000,4.000000,4.000000,4.000000,4.000000,4.000000,4.000000,4.000000,4.000000,4.000000,4.000000,4.000000,4.000000,4.000000,4.000000,4.000000,100.000000
1614392023.132697,104.000000,0.000000,9.776816,7.480511,-79.494347,9.204885,-15.172489,2.956103,1.441519,1.637092,-6.352105,-7.087776,5.160208,5.204703,7.991619,6.948766,3.257527,175.838165,15.160780,129.440201,121.751228,22.945944,13.142495,4.073320,13.127546,9.326470,10.583774,17.836576,5.681232,-1.162988,-0.099744,-2.379582,-1.542902,-70.994011,8064.000000,0.000000,4.000000,,,,0.000000,4.000000,4.000000,4.000000,4.000000,4.000000,4.000000,4.000000,4.000000,4.000000,4.000000,4.000000,4.000000,4.000000,4.000000,4.000000,4.000000,4.000000,4.000000,4.000000,4.000000,4.000000,4.000000,4.000000,4.000000,4.000000,4.000000,4.000000,4.000000,4.000000,4.000000,4.000000,4.000000,100.000000
1614392023.140347,105.000000,0.000000,5.664475,6.960210,-79.414856,4.580296,-13.618855,2.953147,1.952898,2.661096,-6.345753,-1.952483,5.155048,5.199498,13.111833,11.557201,3.767090,198.226440,14.632798,138.028717,111.885895,19.333254,10.052430,3.043606,9.011855,9.829965,7.496267,16.793098,3.624269,-3.213108,0.413176,-2.377203,-1.028538,-65.794815,8064.000000,0.000000,4.000000,,,,0.000000,4.000000,4.000000,4.000000,4.000000,4.000000,4.000000,4.000000,4.000000,4.000000,4.000000,4.000000,4.000000,4.000000,4.000000,4.000000,4.000000,4.000000,4.000000,4.000000,4.000000,4.000000,4.000000,4.000000,4.000000,4.000000,4.000000,4.000000,4.000000,4.000000,4.000000,4.000000,4.000000,100.000000
1614392023.148096,106.000000,0.000000,5.145990,7.466070,-78.309799,6.114177,-13.605237,2.950194,2.463766,2.658435,-6.339407,0.100751,5.662714,5.194298,17.201284,14.622567,4.788964,193.925644,14.618166,134.300949,109.722725,20.852383,15.170583,4.579024,13.105407,9.307314,13.129797,18.314768,3.620644,-2.697074,1.438404,-4.938928,-0.514689,-59.062355,8064.000000,0.000000,4.000000,,,,0.000000,4.000000,4.000000,4.000000,4.000000,4.000000,4.000000,4.000000,4.000000,4.000000,4.000000,4.000000,4.000000,4.000000,4.000000,4.000000,4.000000,4.000000,4.000000,4.000000,4.000000,4.000000,4.000000,4.000000,4.000000,4.000000,4.000000,4.000000,4.000000,4.000000,4.000000,4.000000,4.000000,100.000000
1614392023.155746,107.000000,0.000000,5.140844,6.432963,-82.334053,5.595243,-16.155733,2.434423,-0.615621,1.117315,-6.333067,-0.924990,5.144230,5.189104,14.619981,13.582304,3.758534,187.065048,15.116368,138.269211,112.689926,18.780249,17.719515,3.548804,14.117943,9.810827,10.552565,17.270811,-0.998361,-4.232838,-5.229701,-9.036553,-3.078277,-64.644318,8064.000000,0.000000,4.000000,,,,0.000000,4.000000,4.000000,4.000000,4.000000,4.000000,4.000000,4.000000,4.000000,4.000000,4.000000,4.000000,4.000000,4.000000,4.000000,4.000000,4.000000,4.000000,4.000000,4.000000,4.000000,4.000000,4.000000,4.000000,4.000000,4.000000,4.000000,4.000000,4.000000,4.000000,4.000000,4.000000,4.000000,100.000000
1614392023.163495,108.000000,0.000000,5.648524,3.862428,-85.841461,4.051186,-18.190861,2.944809,-4.717569,-0.935084,-6.839555,-0.924065,5.139086,5.183915,12.041259,13.055902,3.754776,200.724136,14.588431,135.566833,106.936211,11.581981,8.471025,0.981152,14.103825,8.262555,1.311242,15.715079,-7.151208,-6.792708,-10.865497,-11.078799,-6.152122,-72.271980,8064.000000,0.000000,4.000000,,,,0.000000,4.000000,4.000000,4.000000,4.000000,4.000000,4.000000,4.000000,4.000000,4.000000,4.000000,4.000000,4.000000,4.000000,4.000000,4.000000,4.000000,4.000000,4.000000,4.000000,4.000000,4.000000,4.000000,4.000000,4.000000,4.000000,4.000000,4.000000,4.000000,4.000000,4.000000,4.000000,4.000000,100.000000
1614392023.171144,109.000000,0.000000,9.745440,3.345745,-82.165878,11.739442,-16.121387,4.993146,-3.174390,-1.446970,-5.807075,-0.410321,5.133947,5.178731,12.542038,9.965922,3.751021,194.369568,14.573843,115.944084,102.213890,9.006296,4.359991,-0.558290,13.576900,5.177369,6.438136,15.699364,-3.041493,-4.734633,-5.726427,-7.990797,-4.607509,-68.097145,8064.000000,0.000000,4.000000,,,,0.000000,4.000000,4.000000,4.000000,4.000000,4.000000,4.000000,4.000000,4.000000,4.000000,4.000000,4.000000,4.000000,4.000000,4.000000,4.000000,4.000000,4.000000,4.000000,4.000000,4.000000,4.000000,4.000000,4.000000,4.000000,4.000000,4.000000,4.000000,4.000000,4.000000,4.000000,4.000000,4.000000,100.000000
1614392023.178894,110.000000,0.000000,13.325438,3.342399,-77.981148,13.266164,-14.053984,7.039435,-1.632754,-1.445523,-3.749985,-0.922731,5.128813,5.173553,12.016675,5.853392,3.747270,181.867508,14.559269,123.520454,111.342445,12.074212,13.586400,4.570473,13.050503,7.736294,17.200930,13.119562,3.628215,-3.191437,-0.079674,-3.880242,-7.167004,-64.439301,8064.000000,0.000000,4.000000,,,,0.000000,4.000000,4.000000,4.000000,4.000000,4.000000,4.000000,4.000000,4.000000,4.000000,4.000000,4.000000,4.000000,4.000000,4.000000,4.000000,4.000000,4.000000,4.000000,4.000000,4.000000,4.000000,4.000000,4.000000,4.000000,4.000000,4.000000,4.000000,4.000000,4.000000,4.000000,4.000000,4.000000,100.000000
1614392023.186543,111.000000,0.000000,13.312112,1.287775,-80.467270,2.996488,-13.527109,6.519575,-1.631122,-1.444077,-2.207774,-0.408988,5.123684,5.168379,12.004659,5.847539,4.256343,187.326660,14.544709,137.243088,122.513153,16.677523,20.752300,11.232569,16.627195,14.908045,20.260651,12.593622,4.137407,-2.162605,1.458867,-1.825080,-14.852144,-63.862045,8064.000000,0.000000,4.000000,,,,0.000000,4.000000,4.000000,4.000000,4.000000,4.000000,4.000000,4.000000,4.000000,4.000000,4.000000,4.000000,4.000000,4.000000,4.000000,4.000000,4.000000,4.000000,4.000000,4.000000,4.000000,4.000000,4.000000,4.000000,4.000000,4.000000,4.000000,4.000000,4.000000,4.000000,4.000000,4.000000,4.000000,100.000000
1614392023.194292,112.000000,0.000000,13.811621,8.465974,-82.950905,2.480671,-11.462300,7.538697,1.960253,1.121469,-2.718386,-0.408579,6.144201,5.163210,12.505474,5.328871,3.739266,182.011139,15.042985,114.541740,113.672691,17.173666,17.141806,10.708516,17.123390,18.995701,20.753210,18.222054,3.107629,0.403660,8.636895,-2.336075,-10.734728,-56.618694,8064.000000,0.000000,4.000000,,,,0.000000,4.000000,4.000000,4.000000,4.000000,4.000000,4.000000,4.000000,4.000000,4.000000,4.000000,4.000000,4.000000,4.000000,4.000000,4.000000,4.000000,4.000000,4.000000,4.000000,4.000000,4.000000,4.000000,4.000000,4.000000,4.000000,4.000000,4.000000,4.000000,4.000000,4.000000,4.000000,4.000000,100.000000
1614392023.201942,113.000000,0.000000,13.284988,17.175457,-81.329491,7.606395,-11.450838,6.505517,6.573678,2.145989,-2.715668,-0.920991,4.086775,5.158047,9.928866,2.759439,0.145783,167.470154,14.002301,102.632324,92.020554,8.438543,7.381073,1.979859,6.337035,16.412603,10.476048,18.716652,0.540419,0.916077,10.166719,-1.820919,2.609340,-60.151821,8064.000000,0.000000,4.000000,,,,0.000000,4.000000,4.000000,4.000000,4.000000,4.000000,4.000000,4.000000,4.000000,4.000000,4.000000,4.000000,4.000000,4.000000,4.000000,4.000000,4.000000,4.000000,4.000000,4.000000,4.000000,4.000000,4.000000,4.000000,4.000000,4.000000,4.000000,4.000000,4.000000,4.000000,4.000000,4.000000,4.000000,100.000000
1614392023.209791,114.000000,0.000000,10.194780,12.030076,-81.760986,2.470584,-16.054771,1.883627,5.541463,-0.933080,-2.200132,-0.407249,1.518586,5.152889,5.303553,2.243859,-3.444106,166.789856,9.885735,118.427132,86.287506,-1.826305,-0.318615,-4.688788,-1.874430,9.729524,-2.354941,15.108192,-3.562686,-1.648941,5.028348,-2.331918,8.760577,-76.501923,8064.000000,0.000000,4.000000,,,,0.000000,4.000000,4.000000,4.000000,4.000000,4.000000,4.000000,4.000000,4.000000,4.000000,4.000000,4.000000,4.000000,4.000000,4.000000,4.000000,4.000000,4.000000,4.000000,4.000000,4.000000,4.000000,4.000000,4.000000,4.000000,4.000000,4.000000,4.000000,4.000000,4.000000,4.000000,4.000000,4.000000,100.000000
1614392023.217540,115.000000,0.000000,10.184586,8.428303,-85.268967,-1.121630,-17.577179,-0.682359,6.048742,-1.444968,-2.710752,-0.406842,2.029888,5.660557,4.785429,2.241616,-2.927841,167.135895,5.260465,118.821526,95.944809,-2.850120,0.707344,-6.735381,1.204368,5.104410,5.339721,20.221289,-2.020662,-3.185754,5.536140,-1.816766,5.162073,-82.066444,8064.000000,0.000000,4.000000,,,,0.000000,4.000000,4.000000,4.000000,4.000000,4.000000,4.000000,4.000000,4.000000,4.000000,4.000000,4.000000,4.000000,4.000000,4.000000,4.000000,4.000000,4.000000,4.000000,4.000000,4.000000,4.000000,4.000000,4.000000,4.000000,4.000000,4.000000,4.000000,4.000000,4.000000,4.000000,4.000000,4.000000,100.000000
1614392023.225390,116.000000,0.000000,6.584657,13.035259,-90.824722,-0.094868,-16.533960,-1.707318,6.555514,-1.956343,-2.195221,-4.508999,1.002217,5.654896,5.293464,3.265015,-2.924913,173.122604,3.203922,113.061676,97.900146,-1.308808,3.270739,-7.241466,3.254445,7.150587,9.949766,16.098503,-3.044282,-2.669748,-0.623242,-1.302129,-0.484115,-85.574127,8064.000000,0.000000,4.000000,,,,0.000000,4.000000,4.000000,4.000000,4.000000,4.000000,4.000000,4.000000,4.000000,4.000000,4.000000,4.000000,4.000000,4.000000,4.000000,4.000000,4.000000,4.000000,4.000000,4.000000,4.000000,4.000000,4.000000,4.000000,4.000000,4.000000,4.000000,4.000000,4.000000,4.000000,4.000000,4.000000,4.000000,100.000000
1614392023.233139,117.000000,0.000000,-2.139876,7.381198,-97.400566,-6.761439,-19.594349,-3.756893,1.933574,-6.569771,-3.731487,-8.607055,-5.665452,3.085139,4.262529,1.723288,-4.460450,185.769989,3.200718,125.256302,96.263786,-2.333141,0.703366,-7.234225,2.225550,5.604975,-5.444799,-0.327851,-8.169443,-2.667078,-17.545696,-5.916211,-7.150298,-103.437271,8064.000000,0.000000,4.000000,,,,0.000000,4.000000,4.000000,4.000000,4.000000,4.000000,4.000000,4.000000,4.000000,4.000000,4.000000,4.000000,4.000000,4.000000,4.000000,4.000000,4.000000,4.000000,4.000000,4.000000,4.000000,4.000000,4.000000,4.000000,4.000000,4.000000,4.000000,4.000000,4.000000,4.000000,4.000000,4.000000,4.000000,100.000000
1614392023.240988,118.000000,0.000000,-6.753121,-4.421055,-104.482651,-14.959806,-24.702961,-4.778777,-4.735027,-9.640125,-7.317499,-8.598447,-10.275171,1.543592,5.283908,-6.483563,-2.404708,180.456009,3.710338,132.310532,107.449577,1.258936,0.189842,-7.226990,2.223324,-2.605758,-9.029098,-1.865985,-8.161274,-2.664411,-21.117893,-12.576962,-13.809813,-111.538963,8064.000000,0.000000,4.000000,,,,0.000000,4.000000,4.000000,4.000000,4.000000,4.000000,4.000000,4.000000,4.000000,4.000000,4.000000,4.000000,4.000000,4.000000,4.000000,4.000000,4.000000,4.000000,4.000000,4.000000,4.000000,4.000000,4.000000,4.000000,4.000000,4.000000,4.000000,4.000000,4.000000,4.000000,4.000000,4.000000,4.000000,100.000000
1614392023.248737,119.000000,0.000000,-3.156624,-5.442275,-111.044838,-15.457667,-28.268002,-4.261178,-6.268753,-8.604844,-9.874285,-8.077028,-9.239255,2.054869,4.765803,-12.630926,-5.992046,158.224274,3.193807,122.434639,108.367767,2.283318,2.753755,-6.706943,2.221101,-4.141614,5.851726,10.443573,-4.050548,-2.661747,-11.866007,-12.051564,-18.411388,-100.658188,8064.000000,0.000000,4.000000,,,,0.000000,4.000000,4.000000,4.000000,4.000000,4.000000,4.000000,4.000000,4.000000,4.000000,4.000000,4.000000,4.000000,4.000000,4.000000,4.000000,4.000000,4.000000,4.000000,4.000000,4.000000,4.000000,4.000000,4.000000,4.000000,4.000000,4.000000,4.000000,4.000000,4.000000,4.000000,4.000000,4.000000,100.000000
1614392023.256587,120.000000,0.000000,-1.102185,-3.385551,-114.010712,-13.903748,-31.316656,-4.256917,-5.236844,-8.596239,-9.864410,-8.581772,-9.230016,-1.536929,-3.444091,-12.618295,-18.293747,146.783997,3.703434,108.978867,85.695297,-4.898452,2.238181,-6.700236,3.757341,1.503553,10.461259,13.510053,-3.533677,-2.659085,-9.802858,-8.449769,-20.444260,-95.942146,8064.000000,0.000000,4.000000,,,,0.000000,4.000000,4.000000,4.000000,4.000000,4.000000,4.000000,4.000000,4.000000,4.000000,4.000000,4.000000,4.000000,4.000000,4.000000,4.000000,4.000000,4.000000,4.000000,4.000000,4.000000,4.000000,4.000000,4.000000,4.000000,4.000000,4.000000,4.000000,4.000000,4.000000,4.000000,4.000000,4.000000,100.000000
1614392023.264336,121.000000,0.000000,-2.639545,-4.407806,-114.922340,-14.915485,-32.310982,-4.252659,-5.744427,-9.100463,-9.854546,-8.573190,-9.733606,-5.125136,-10.107313,-12.605677,-21.352377,158.944916,3.699730,106.818604,80.481392,-7.970477,-0.328160,-6.180715,6.317687,2.014870,6.861054,10.419620,-4.555784,-2.656426,-9.793056,-9.979780,-19.910995,-103.538513,8064.000000,0.000000,4.000000,,,,0.000000,4.000000,4.000000,4.000000,4.000000,4.000000,4.000000,4.000000,4.000000,4.000000,4.000000,4.000000,4.000000,4.000000,4.000000,4.000000,4.000000,4.000000,4.000000,4.000000,4.000000,4.000000,4.000000,4.000000,4.000000,4.000000,4.000000,4.000000,4.000000,4.000000,4.000000,4.000000,4.000000,100.000000
1614392023.272185,122.000000,0.000000,-1.611264,-2.352116,-114.294601,-14.900570,-31.765848,-4.248407,-5.738683,-8.578542,-9.844691,-8.051796,-7.672591,-1.530267,-9.584385,-11.567430,-13.125896,174.683395,4.208851,116.968201,100.400917,-3.347122,0.184989,-6.174534,4.772907,-1.576888,7.367013,11.947661,-4.038408,-2.653769,-4.142237,-9.456981,-20.403904,-103.947792,8064.000000,0.000000,4.000000,,,,0.000000,4.000000,4.000000,4.000000,4.000000,4.000000,4.000000,4.000000,4.000000,4.000000,4.000000,4.000000,4.000000,4.000000,4.000000,4.000000,4.000000,4.000000,4.000000,4.000000,4.000000,4.000000,4.000000,4.000000,4.000000,4.000000,4.000000,4.000000,4.000000,4.000000,4.000000,4.000000,4.000000,100.000000
1614392023.279934,123.000000,0.000000,0.954450,0.214338,-113.154663,-14.372849,-31.734083,-4.244158,-5.220123,-8.569963,-9.834846,-8.043745,-5.613636,2.061007,-10.087622,-7.966119,-11.061487,168.354874,3.691822,120.440971,104.403076,-0.779672,-0.328017,-6.681180,2.716852,-1.575311,8.898108,12.448535,-3.521549,-2.651115,-2.086813,-5.857780,-18.332218,-96.151543,8064.000000,0.000000,4.000000,,,,0.000000,4.000000,4.000000,4.000000,4.000000,4.000000,4.000000,4.000000,4.000000,4.000000,4.000000,4.000000,4.000000,4.000000,4.000000,4.000000,4.000000,4.000000,4.000000,4.000000,4.000000,4.000000,4.000000,4.000000,4.000000,4.000000,4.000000,4.000000,4.000000,4.000000,4.000000,4.000000,4.000000,100.000000
1614392023.287784,124.000000,0.000000,1.979136,-0.298697,-110.990227,-14.358476,-31.702349,-4.239914,-5.214903,-8.561394,-9.825011,-8.035701,-5.608022,1.546125,-10.590354,-5.394050,-10.537605,166.648056,3.688130,121.346176,97.632004,0.759569,-2.891792,-6.161679,2.714136,-0.548095,7.863569,11.923265,-4.030848,-2.648464,-2.597546,-5.851922,-13.185680,-91.440002,8064.000000,0.000000,4.000000,,,,0.000000,4.000000,4.000000,4.000000,4.000000,4.000000,4.000000,4.000000,4.000000,4.000000,4.000000,4.000000,4.000000,4.000000,4.000000,4.000000,4.000000,4.000000,4.000000,4.000000,4.000000,4.000000,4.000000,4.000000,4.000000,4.000000,4.000000,4.000000,4.000000,4.000000,4.000000,4.000000,4.000000,100.000000
1614392023.295533,125.000000,0.000000,1.977157,-0.298398,-109.340775,-14.344117,-31.670647,-4.235674,-5.209688,-8.552833,-9.815187,-8.027665,-6.115235,1.544579,-4.938738,-1.286092,-3.860401,191.609604,4.710083,125.840210,96.508736,2.810092,-3.914541,-7.693979,1.172960,-1.060367,7.855705,11.911343,-4.026817,-2.645816,-2.594949,-9.435814,-12.659675,-92.374207,8064.000000,0.000000,4.000000,,,,0.000000,4.000000,4.000000,4.000000,4.000000,4.000000,4.000000,4.000000,4.000000,4.000000,4.000000,4.000000,4.000000,4.000000,4.000000,4.000000,4.000000,4.000000,4.000000,4.000000,4.000000,4.000000,4.000000,4.000000,4.000000,4.000000,4.000000,4.000000,4.000000,4.000000,4.000000,4.000000,4.000000,100.000000
1614392023.303382,126.000000,0.000000,1.975180,0.214721,-109.231438,-14.329773,-31.638975,-4.231439,-5.204479,-8.544279,-9.805371,-8.019637,-5.083478,1.030214,-8.010723,-0.259165,-15.651413,178.597488,1.628450,99.560524,77.437866,-6.936308,-3.397806,-14.352951,-0.879495,-1.059307,7.847850,11.899431,-4.022790,-2.643170,-6.182097,-9.426378,-15.211118,-92.281830,8064.000000,0.000000,4.000000,,,,0.000000,4.000000,4.000000,4.000000,4.000000,4.000000,4.000000,4.000000,4.000000,4.000000,4.000000,4.000000,4.000000,4.000000,4.000000,4.000000,4.000000,4.000000,4.000000,4.000000,4.000000,4.000000,4.000000,4.000000,4.000000,4.000000,4.000000,4.000000,4.000000,4.000000,4.000000,4.000000,4.000000,100.000000
1614392023.311132,127.000000,0.000000,0.947564,0.214506,-109.122208,-14.315443,-31.607336,-4.227207,-5.199274,-8.535735,-9.795567,-8.524438,-6.104036,-1.534919,-21.848866,-10.002496,-37.687042,146.111206,-8.116769,67.153275,53.770683,-22.313988,-3.394408,-20.492445,-1.391436,-1.058248,7.840002,12.400352,-4.018768,-2.640527,-10.278480,-8.391311,-15.708727,-90.651085,8064.000000,0.000000,4.000000,,,,0.000000,4.000000,4.000000,4.000000,4.000000,4.000000,4.000000,4.000000,4.000000,4.000000,4.000000,4.000000,4.000000,4.000000,4.000000,4.000000,4.000000,4.000000,4.000000,4.000000,4.000000,4.000000,4.000000,4.000000,4.000000,4.000000,4.000000,4.000000,4.000000,4.000000,4.000000,4.000000,4.000000,100.000000
1614392023.318881,0.000000,0.000000,2.997898,-0.298529,-109.525902,-14.301127,-32.601372,-4.222980,-5.194075,-8.527200,-10.298591,-8.003094,-5.585112,-2.559025,-19.775736,-10.505314,-27.392946,155.195862,-10.672754,91.701508,67.050247,-24.855776,-3.903834,-22.010414,-2.415686,-1.057189,6.806521,10.849490,-4.527569,-2.637886,-10.781021,-12.998303,-15.180198,-93.637360,0.000000,186.000000,4.000000,,,,0.000000,4.000000,4.000000,4.000000,4.000000,4.000000,4.000000,4.000000,4.000000,4.000000,4.000000,4.000000,4.000000,4.000000,4.000000,4.000000,4.000000,4.000000,4.000000,4.000000,4.000000,4.000000,4.000000,4.000000,4.000000,4.000000,4.000000,4.000000,4.000000,4.000000,4.000000,4.000000,4.000000,100.000000
1614392023.326630,1.000000,0.000000,9.661567,-0.298230,-111.980476,-14.286827,-35.645691,-4.218757,-5.701702,-8.518672,-9.775472,-7.995090,-0.964142,-2.043646,-1.807241,1.300064,-1.724527,187.861176,-5.021056,124.430313,96.213966,-16.625792,-3.387110,-21.988403,2.714935,-1.056132,7.312535,11.351461,-3.497401,-2.635248,-10.257420,-16.575048,-15.677838,-94.569359,0.000000,205.000000,4.000000,,,,0.000000,4.000000,4.000000,4.000000,4.000000,4.000000,4.000000,4.000000,4.000000,4.000000,4.000000,4.000000,4.000000,4.000000,4.000000,4.000000,4.000000,4.000000,4.000000,4.000000,4.000000,4.000000,4.000000,4.000000,4.000000,4.000000,4.000000,4.000000,4.000000,4.000000,4.000000,4.000000,4.000000,100.000000
1614392023.334280,2.000000,0.000000,13.754470,0.214889,-112.894142,-14.272540,-36.122868,-4.214538,-5.183179,-8.510154,-9.765697,-10.038377,2.113745,-2.041602,-0.779793,-3.316621,-4.286905,178.442551,-5.016035,112.511017,104.835701,-11.993781,0.206021,-18.889492,8.866066,-1.567897,11.407786,12.878572,-0.416980,-2.632613,-10.247163,-12.968730,-15.149340,-89.346588,0.000000,188.000000,4.000000,,,,0.000000,4.000000,4.000000,4.000000,4.000000,4.000000,4.000000,4.000000,4.000000,4.000000,4.000000,4.000000,4.000000,4.000000,4.000000,4.000000,4.000000,4.000000,4.000000,4.000000,4.000000,4.000000,4.000000,4.000000,4.000000,4.000000,4.000000,4.000000,4.000000,4.000000,4.000000,4.000000,4.000000,100.000000
1614392023.342029,3.000000,0.000000,13.227895,-1.836608,-112.268425,-13.745447,-28.394436,-4.210324,-5.177996,-8.501643,-10.268751,-10.541160,2.111632,-3.065201,-10.009783,-17.672279,-16.077490,145.956406,-7.062301,100.090813,99.089836,-10.956146,0.718636,-14.768038,6.293097,-0.540688,10.370738,8.763128,-1.955025,-2.629981,-10.236916,-12.442941,-16.672651,-87.718781,0.000000,177.000000,4.000000,,,,0.000000,4.000000,4.000000,4.000000,4.000000,4.000000,4.000000,4.000000,4.000000,4.000000,4.000000,4.000000,4.000000,4.000000,4.000000,4.000000,4.000000,4.000000,4.000000,4.000000,4.000000,4.000000,4.000000,4.000000,4.000000,4.000000,4.000000,4.000000,4.000000,4.000000,4.000000,4.000000,4.000000,100.000000
1614392023.349678,4.000000,0.000000,12.701846,-4.398874,-112.156158,-14.244522,-20.673735,-4.206113,-5.685638,-8.493142,-7.181560,-8.479336,2.109520,-1.523675,-2.820286,-12.526402,-9.907567,164.271988,0.124249,116.400978,100.016388,-3.252883,-0.307724,-12.701988,3.209882,2.023956,7.283444,4.651801,-4.004352,-2.627351,-10.226679,-18.584345,-19.220081,-91.220802,0.000000,191.000000,4.000000,,,,0.000000,4.000000,4.000000,4.000000,4.000000,4.000000,4.000000,4.000000,4.000000,4.000000,4.000000,4.000000,4.000000,4.000000,4.000000,4.000000,4.000000,4.000000,4.000000,4.000000,4.000000,4.000000,4.000000,4.000000,4.000000,4.000000,4.000000,4.000000,4.000000,4.000000,4.000000,4.000000,4.000000,100.000000
1614392023.357428,5.000000,0.000000,13.201964,-3.881655,-112.556824,-14.230277,-19.627420,-4.201907,-4.654312,-6.433366,-3.071814,-7.958036,2.107411,2.580413,7.438945,-3.283106,-3.743813,170.774384,7.816432,113.207649,108.121506,5.981139,6.359250,-9.612363,8.847697,2.534752,12.404366,12.852278,-0.410604,-2.624723,-9.703631,-20.617043,-18.688042,-91.642403,0.000000,194.000000,4.000000,,,,0.000000,4.000000,4.000000,4.000000,4.000000,4.000000,4.000000,4.000000,4.000000,4.000000,4.000000,4.000000,4.000000,4.000000,4.000000,4.000000,4.000000,4.000000,4.000000,4.000000,4.000000,4.000000,4.000000,4.000000,4.000000,4.000000,4.000000,4.000000,4.000000,4.000000,4.000000,4.000000,4.000000,100.000000
1614392023.365077,6.000000,0.000000,12.675942,-0.800850,-112.444267,-13.703227,-20.120613,-4.197705,-1.572734,-4.375651,-2.043101,-7.437258,1.592483,6.167576,4.867404,-4.305464,-6.304172,142.911301,8.321436,94.120087,100.321075,4.949517,6.865712,-6.525827,13.967054,4.070679,18.545807,23.095835,2.666730,-2.622098,-7.129825,-15.981040,-15.592430,-90.012299,0.000000,203.000000,4.000000,,,,0.000000,4.000000,4.000000,4.000000,4.000000,4.000000,4.000000,4.000000,4.000000,4.000000,4.000000,4.000000,4.000000,4.000000,4.000000,4.000000,4.000000,4.000000,4.000000,4.000000,4.000000,4.000000,4.000000,4.000000,4.000000,4.000000,4.000000,4.000000,4.000000,4.000000,4.000000,4.000000,4.000000,100.000000
1614392023.372826,7.000000,0.000000,13.176086,0.225592,-111.819000,-14.202344,-20.100492,-4.193508,-1.058341,-4.884096,-2.553878,-7.429821,2.616531,5.135768,1.272793,-1.737056,-5.272226,159.691467,7.287474,99.154167,72.015625,-4.799022,-10.577051,-11.134686,14.465908,6.117890,13.911877,21.021458,0.612781,-2.106656,-5.584234,-16.990700,-16.602478,-95.050491,0.000000,187.000000,4.000000,,,,0.000000,4.000000,4.000000,4.000000,4.000000,4.000000,4.000000,4.000000,4.000000,4.000000,4.000000,4.000000,4.000000,4.000000,4.000000,4.000000,4.000000,4.000000,4.000000,4.000000,4.000000,4.000000,4.000000,4.000000,4.000000,4.000000,4.000000,4.000000,4.000000,4.000000,4.000000,4.000000,4.000000,100.000000
1614392023.380476,8.000000,0.000000,11.111629,-0.287454,-113.758461,-16.752245,-22.131674,-4.189314,-3.621386,-4.879212,-2.038504,-15.627519,1.075453,5.643453,2.297161,-2.760960,-1.164390,189.275360,6.254545,109.824249,64.251305,-8.896788,-20.822886,-17.277397,12.912981,3.034849,8.256939,15.872231,-0.926293,-3.130190,-7.629931,-22.614735,-19.149979,-102.134926,0.000000,190.000000,4.000000,,,,0.000000,4.000000,4.000000,4.000000,4.000000,4.000000,4.000000,4.000000,4.000000,4.000000,4.000000,4.000000,4.000000,4.000000,4.000000,4.000000,4.000000,4.000000,4.000000,4.000000,4.000000,4.000000,4.000000,4.000000,4.000000,4.000000,4.000000,4.000000,4.000000,4.000000,4.000000,4.000000,4.000000,100.000000
1614392023.388225,9.000000,0.000000,8.536414,-0.287167,-116.208809,-18.273952,-24.673645,-4.185125,-5.156226,-4.361512,-2.549286,-23.304199,-4.053827,6.150630,1.269223,-16.091532,-2.701687,156.778397,4.197009,97.406731,85.212692,-8.375070,-12.596933,-17.772942,4.694940,-3.122032,5.684580,14.830718,-1.951008,-6.203983,-9.673584,-24.643402,-19.643650,-103.058434,0.000000,188.000000,4.000000,,,,0.000000,4.000000,4.000000,4.000000,4.000000,4.000000,4.000000,4.000000,4.000000,4.000000,4.000000,4.000000,4.000000,4.000000,4.000000,4.000000,4.000000,4.000000,4.000000,4.000000,4.000000,4.000000,4.000000,4.000000,4.000000,4.000000,4.000000,4.000000,4.000000,4.000000,4.000000,4.000000,4.000000,100.000000
1614392023.395875,10.000000,0.000000,9.040699,0.225941,-115.579781,-17.742859,-24.648972,-4.180940,-6.176711,-5.895612,-2.546737,-21.742434,-7.126697,1.529094,1.780774,-19.665184,-10.391294,128.416489,3.167171,84.488808,88.204399,-10.417977,-5.404850,-17.242348,-1.976422,-5.170192,4.140434,9.174862,-4.513160,-6.197779,-10.689551,-23.593119,-19.111185,-100.391273,0.000000,204.000000,4.000000,,,,0.000000,4.000000,4.000000,4.000000,4.000000,4.000000,4.000000,4.000000,4.000000,4.000000,4.000000,4.000000,4.000000,4.000000,4.000000,4.000000,4.000000,4.000000,4.000000,4.000000,4.000000,4.000000,4.000000,4.000000,4.000000,4.000000,4.000000,4.000000,4.000000,4.000000,4.000000,4.000000,4.000000,100.000000
1614392023.403624,11.000000,0.000000,12.108581,-0.287106,-112.387276,-17.725117,-24.111502,-4.176759,-5.657713,-4.351255,-2.031369,-20.182230,-5.581109,-2.574999,2.291814,-11.953211,-13.457825,161.108597,3.676824,100.301758,74.270042,-12.458841,-7.963547,-17.737926,3.153759,-5.677842,6.700396,7.627225,-3.995826,-2.601838,-10.166041,-23.569525,-18.579254,-99.265244,0.000000,190.000000,4.000000,,,,0.000000,4.000000,4.000000,4.000000,4.000000,4.000000,4.000000,4.000000,4.000000,4.000000,4.000000,4.000000,4.000000,4.000000,4.000000,4.000000,4.000000,4.000000,4.000000,4.000000,4.000000,4.000000,4.000000,4.000000,4.000000,4.000000,4.000000,4.000000,4.000000,4.000000,4.000000,4.000000,4.000000,100.000000
1614392023.411273,12.000000,0.000000,12.609293,-0.286819,-111.249245,-18.220211,-24.600210,-4.685402,-4.626414,-1.269981,-4.080620,-18.623585,-5.575527,-2.572424,-8.992530,-13.479719,-13.957188,176.844910,3.673147,113.534790,75.734238,-13.472023,-8.468404,-17.720188,7.253170,-4.133703,6.180875,11.209341,-4.504651,-2.086416,-10.155875,-24.058777,-20.099136,-98.140335,0.000000,186.000000,4.000000,,,,0.000000,4.000000,4.000000,4.000000,4.000000,4.000000,4.000000,4.000000,4.000000,4.000000,4.000000,4.000000,4.000000,4.000000,4.000000,4.000000,4.000000,4.000000,4.000000,4.000000,4.000000,4.000000,4.000000,4.000000,4.000000,4.000000,4.000000,4.000000,4.000000,4.000000,4.000000,4.000000,4.000000,100.000000
1614392023.419023,13.000000,0.000000,11.571043,-0.286532,-113.189278,-17.176350,-24.575611,-3.655076,-6.673070,-4.858454,-6.127821,-12.963937,-7.108413,-3.082672,-22.829691,-15.517522,-23.174000,146.411667,3.156653,94.446899,80.786705,-13.971372,-6.408654,-18.215288,3.143353,-2.078287,0.533668,7.095568,-5.012967,-5.161252,-10.658540,-23.521896,-23.668779,-99.067833,0.000000,205.000000,4.000000,,,,0.000000,4.000000,4.000000,4.000000,4.000000,4.000000,4.000000,4.000000,4.000000,4.000000,4.000000,4.000000,4.000000,4.000000,4.000000,4.000000,4.000000,4.000000,4.000000,4.000000,4.000000,4.000000,4.000000,4.000000,4.000000,4.000000,4.000000,4.000000,4.000000,4.000000,4.000000,4.000000,4.000000,100.000000
1614392023.426672,14.000000,0.000000,14.636395,-0.286245,-108.460701,-12.543789,-20.961290,-1.600139,-5.127935,-6.904878,-4.583232,-7.822767,-0.947459,-1.541128,-17.678656,-2.681491,-24.176466,153.444733,3.666317,89.737068,83.270020,-6.265092,-2.299681,-15.120150,2.114568,-2.076209,5.661340,6.062831,2.684354,-5.156091,-9.109420,-23.498375,-19.542547,-98.455948,0.000000,178.000000,4.000000,,,,0.000000,4.000000,4.000000,4.000000,4.000000,4.000000,4.000000,4.000000,4.000000,4.000000,4.000000,4.000000,4.000000,4.000000,4.000000,4.000000,4.000000,4.000000,4.000000,4.000000,4.000000,4.000000,4.000000,4.000000,4.000000,4.000000,4.000000,4.000000,4.000000,4.000000,4.000000,4.000000,4.000000,100.000000
1614392023.434421,15.000000,0.000000,19.237143,-0.285959,-94.506088,-7.915861,-13.248022,-0.060077,4.620782,1.307155,-2.527367,-3.199560,8.284258,3.588619,-3.302003,8.090421,-11.844598,169.188721,6.226754,106.057587,94.981621,5.023224,2.830824,-6.387081,7.240659,1.515611,20.014652,17.338820,13.450900,-0.535550,-6.536208,-20.397953,-10.292235,-88.613899,0.000000,187.000000,4.000000,,,,0.000000,4.000000,4.000000,4.000000,4.000000,4.000000,4.000000,4.000000,4.000000,4.000000,4.000000,4.000000,4.000000,4.000000,4.000000,4.000000,4.000000,4.000000,4.000000,4.000000,4.000000,4.000000,4.000000,4.000000,4.000000,4.000000,4.000000,4.000000,4.000000,4.000000,4.000000,4.000000,4.000000,100.000000
