title:17, start timestamp:1614736407.941353, stop timestamp:1614736453.404494, headset type:EPOCFLEX, headset serial:F00001ED, headset firmware:f12, subject name:s16, channels:75, sampling rate:128, samples:5870      , version:2.0
Timestamp,EEG.Counter,EEG.Interpolated,EEG.Cz,EEG.Fz,EEG.Fp1,EEG.F7,EEG.F3,EEG.FC1,EEG.C3,EEG.FC5,EEG.FT9,EEG.T7,EEG.TP9,EEG.CP5,EEG.CP1,EEG.P3,EEG.P7,EEG.O1,EEG.Pz,EEG.Oz,EEG.O2,EEG.P8,EEG.P4,EEG.CP2,EEG.CP6,EEG.TP10,EEG.T8,EEG.FT10,EEG.FC6,EEG.C4,EEG.FC2,EEG.F4,EEG.F8,EEG.Fp2,EEG.HighBitFlex,EEG.RawCq,EEG.Battery,MarkerIndex,MarkerType,MarkerValueInt,EEG.MarkerHardware,CQ.Cz,CQ.Fz,CQ.Fp1,CQ.F7,CQ.F3,CQ.FC1,CQ.C3,CQ.FC5,CQ.FT9,CQ.T7,CQ.TP9,CQ.CP5,CQ.CP1,CQ.P3,CQ.P7,CQ.O1,CQ.Pz,CQ.Oz,CQ.O2,CQ.P8,CQ.P4,CQ.CP2,CQ.CP6,CQ.TP10,CQ.T8,CQ.FT10,CQ.FC6,CQ.C4,CQ.FC2,CQ.F4,CQ.F8,CQ.Fp2,CQ.Overall
1614736407.941353,102.000000,0.000000,-6.264007,7.034904,-29.155668,15.532335,20.544132,6.938672,13.356381,16.369682,18.142910,26.030928,33.066788,24.180820,18.127586,27.729614,35.754585,9.396976,8.945791,37.734600,18.879318,-3.631063,13.870017,7.543520,24.525379,18.462826,17.066994,11.685099,55.749294,8.762993,3.162602,6.995224,10.857294,-32.435654,8064.000000,0.000000,4.000000,,,,0.000000,4.000000,4.000000,4.000000,4.000000,4.000000,4.000000,4.000000,4.000000,4.000000,4.000000,4.000000,4.000000,4.000000,4.000000,4.000000,4.000000,4.000000,4.000000,4.000000,4.000000,4.000000,4.000000,4.000000,4.000000,4.000000,4.000000,4.000000,4.000000,4.000000,4.000000,4.000000,4.000000,100.000000
1614736407.949002,103.000000,0.000000,-6.257743,9.079150,-30.152153,13.978341,17.446665,6.931733,11.291743,15.840492,21.201691,13.184383,9.443976,6.207921,7.340227,14.368551,23.923958,-7.535498,-6.960591,24.363533,-0.626741,-19.012047,-4.092571,-2.720433,19.885469,-1.042817,12.947363,12.699055,45.949955,0.036281,3.159439,8.013869,10.846437,-38.044243,8064.000000,0.000000,4.000000,,,,0.000000,4.000000,4.000000,4.000000,4.000000,4.000000,4.000000,4.000000,4.000000,4.000000,4.000000,4.000000,4.000000,4.000000,4.000000,4.000000,4.000000,4.000000,4.000000,4.000000,4.000000,4.000000,4.000000,4.000000,4.000000,4.000000,4.000000,4.000000,4.000000,4.000000,4.000000,4.000000,4.000000,100.000000
1614736407.956752,104.000000,0.000000,-6.251485,8.557251,-25.506617,15.502825,16.916399,6.411981,10.254810,10.696446,20.154848,-2.726237,-7.488544,-6.105979,-4.461985,1.020850,13.643622,-27.527962,-19.261322,8.954554,-17.036371,-49.249447,-25.626940,-12.461303,7.045071,-25.144339,6.267749,13.711996,16.673235,-11.245807,3.156280,9.544317,11.348411,-45.698509,8064.000000,0.000000,4.000000,,,,0.000000,4.000000,4.000000,4.000000,4.000000,4.000000,4.000000,4.000000,4.000000,4.000000,4.000000,4.000000,4.000000,4.000000,4.000000,4.000000,4.000000,4.000000,4.000000,4.000000,4.000000,4.000000,4.000000,4.000000,4.000000,4.000000,4.000000,4.000000,4.000000,4.000000,4.000000,4.000000,4.000000,100.000000
1614736407.964401,105.000000,0.000000,-6.245234,13.164079,-16.763163,22.153988,23.053328,6.918389,6.141992,10.172930,23.211617,-5.800434,-13.122082,-6.099873,-6.508805,-3.082735,4.399210,-43.910690,-18.216421,-4.387734,-25.737284,-63.559170,-28.678236,-12.961662,-5.782487,-32.811501,4.723020,21.390593,18.195024,-13.285843,3.153124,11.586055,10.824242,-29.242552,8064.000000,0.000000,4.000000,,,,0.000000,4.000000,4.000000,4.000000,4.000000,4.000000,4.000000,4.000000,4.000000,4.000000,4.000000,4.000000,4.000000,4.000000,4.000000,4.000000,4.000000,4.000000,4.000000,4.000000,4.000000,4.000000,4.000000,4.000000,4.000000,4.000000,4.000000,4.000000,4.000000,4.000000,4.000000,4.000000,4.000000,100.000000
1614736407.972150,106.000000,0.000000,-6.751809,15.715016,-13.156655,26.234398,23.030275,6.911471,-0.530817,10.675577,27.290970,-5.794634,-24.903831,-14.811722,-5.989475,-9.746319,-16.118010,-64.892418,-18.198204,-16.178219,-44.685905,-64.521255,-25.572634,-12.948700,-13.981833,-31.240229,3.692656,24.958944,36.125546,-10.708454,3.149971,13.625751,10.813417,-27.674849,8064.000000,0.000000,4.000000,,,,0.000000,4.000000,4.000000,4.000000,4.000000,4.000000,4.000000,4.000000,4.000000,4.000000,4.000000,4.000000,4.000000,4.000000,4.000000,4.000000,4.000000,4.000000,4.000000,4.000000,4.000000,4.000000,4.000000,4.000000,4.000000,4.000000,4.000000,4.000000,4.000000,4.000000,4.000000,4.000000,4.000000,100.000000
1614736407.979800,107.000000,0.000000,-6.232237,12.622378,-14.681960,25.182524,18.904680,6.391739,-2.068748,7.075158,27.776499,-0.147813,-34.109695,-20.950756,-5.470665,-20.505804,-31.999329,-84.827530,-18.692825,-21.290245,-60.025833,-67.020836,-25.547062,-9.858829,-17.557594,-31.721809,0.612040,23.908344,33.525318,-10.697746,3.146821,14.637766,11.315425,-49.698456,8064.000000,0.000000,4.000000,,,,0.000000,4.000000,4.000000,4.000000,4.000000,4.000000,4.000000,4.000000,4.000000,4.000000,4.000000,4.000000,4.000000,4.000000,4.000000,4.000000,4.000000,4.000000,4.000000,4.000000,4.000000,4.000000,4.000000,4.000000,4.000000,4.000000,4.000000,4.000000,4.000000,4.000000,4.000000,4.000000,4.000000,100.000000
1614736407.987549,108.000000,0.000000,-6.226005,12.096936,-17.231380,25.670160,18.885777,7.923809,-0.528217,6.042441,27.235901,6.006181,-32.024303,-10.160575,-1.362631,-17.408375,-28.890406,-89.870903,-9.956184,-21.781775,-60.478630,-62.851250,-17.316387,-5.233585,-14.463114,-31.690088,2.149889,22.345976,23.235384,-5.046022,3.143674,12.571847,7.714365,-55.289783,8064.000000,0.000000,4.000000,,,,0.000000,4.000000,4.000000,4.000000,4.000000,4.000000,4.000000,4.000000,4.000000,4.000000,4.000000,4.000000,4.000000,4.000000,4.000000,4.000000,4.000000,4.000000,4.000000,4.000000,4.000000,4.000000,4.000000,4.000000,4.000000,4.000000,4.000000,4.000000,4.000000,4.000000,4.000000,4.000000,4.000000,100.000000
1614736407.995199,109.000000,0.000000,-7.245420,11.572019,-17.726969,25.131670,19.379711,9.967167,-0.527689,7.062040,27.721487,-6.307518,-29.428179,-1.945286,2.228476,-1.493530,-15.528181,-76.960526,-2.766741,-20.734352,-52.725842,-49.455063,-3.965737,-4.715531,-5.217882,-23.966089,5.737483,20.785168,24.237789,4.702613,3.140530,11.020813,1.039985,-47.542187,8064.000000,0.000000,4.000000,,,,0.000000,4.000000,4.000000,4.000000,4.000000,4.000000,4.000000,4.000000,4.000000,4.000000,4.000000,4.000000,4.000000,4.000000,4.000000,4.000000,4.000000,4.000000,4.000000,4.000000,4.000000,4.000000,4.000000,4.000000,4.000000,4.000000,4.000000,4.000000,4.000000,4.000000,4.000000,4.000000,4.000000,100.000000
1614736408.002948,110.000000,0.000000,-4.674071,8.996344,-14.119499,24.080898,19.360331,10.982841,-1.039982,6.542158,27.180944,-15.019159,-21.193621,0.107941,4.790349,8.251553,-0.128038,-58.934845,-3.789615,-13.021310,-35.237221,-31.969711,1.679254,-0.608251,2.992465,-8.044687,4.706104,19.225922,26.777653,6.749193,3.137389,11.522613,0.013304,-46.469002,8064.000000,0.000000,4.000000,,,,0.000000,4.000000,4.000000,4.000000,4.000000,4.000000,4.000000,4.000000,4.000000,4.000000,4.000000,4.000000,4.000000,4.000000,4.000000,4.000000,4.000000,4.000000,4.000000,4.000000,4.000000,4.000000,4.000000,4.000000,4.000000,4.000000,4.000000,4.000000,4.000000,4.000000,4.000000,4.000000,4.000000,100.000000
1614736408.010597,111.000000,0.000000,2.510090,7.961706,-12.054097,31.749125,18.828150,10.459038,-1.551763,6.535615,27.666584,1.918937,-2.198069,6.261680,8.375303,11.320225,10.641321,-43.491295,2.880841,4.427608,-9.560957,-8.860819,11.933986,10.674408,8.117678,8.373613,6.239860,19.719515,25.212414,6.229623,3.134252,10.998270,2.577393,-38.730225,8064.000000,0.000000,4.000000,,,,0.000000,4.000000,4.000000,4.000000,4.000000,4.000000,4.000000,4.000000,4.000000,4.000000,4.000000,4.000000,4.000000,4.000000,4.000000,4.000000,4.000000,4.000000,4.000000,4.000000,4.000000,4.000000,4.000000,4.000000,4.000000,4.000000,4.000000,4.000000,4.000000,4.000000,4.000000,4.000000,4.000000,100.000000
1614736408.018446,112.000000,0.000000,5.584503,7.953745,-9.990762,39.409683,19.322142,10.448579,3.577994,10.118823,30.203020,14.737531,9.599001,11.383623,10.418210,15.411469,13.707603,-26.524725,15.185652,16.730873,6.858860,-1.159650,23.716923,16.817579,18.878790,16.057547,13.413107,18.674154,25.187202,9.813137,3.131118,11.500092,3.600456,-27.922264,8064.000000,0.000000,4.000000,,,,0.000000,4.000000,4.000000,4.000000,4.000000,4.000000,4.000000,4.000000,4.000000,4.000000,4.000000,4.000000,4.000000,4.000000,4.000000,4.000000,4.000000,4.000000,4.000000,4.000000,4.000000,4.000000,4.000000,4.000000,4.000000,4.000000,4.000000,4.000000,4.000000,4.000000,4.000000,4.000000,4.000000,100.000000
1614736408.026196,113.000000,0.000000,4.553277,7.945791,-0.750001,39.883095,21.354101,10.438130,10.241083,14.211268,33.762562,10.620229,12.666325,10.346599,9.382151,17.447338,15.745177,-11.626406,13.119184,17.739784,7.877643,-16.543106,16.513720,12.698198,29.116322,15.015849,8.784309,19.168301,24.136374,8.264862,3.127987,10.975771,3.084035,-30.971266,8064.000000,0.000000,4.000000,,,,0.000000,4.000000,4.000000,4.000000,4.000000,4.000000,4.000000,4.000000,4.000000,4.000000,4.000000,4.000000,4.000000,4.000000,4.000000,4.000000,4.000000,4.000000,4.000000,4.000000,4.000000,4.000000,4.000000,4.000000,4.000000,4.000000,4.000000,4.000000,4.000000,4.000000,4.000000,4.000000,4.000000,100.000000
1614736408.034045,114.000000,0.000000,5.061544,9.989127,6.430236,43.945774,22.871210,10.427692,8.692380,14.709878,34.754440,13.686532,13.679299,9.310611,9.885589,16.404251,20.344816,-11.101959,2.336835,19.260506,6.844124,-27.295794,-0.938692,5.506013,20.882078,8.846987,-5.583449,20.687595,24.625057,-1.486992,3.124859,7.375052,3.080951,-28.889011,8064.000000,0.000000,4.000000,,,,0.000000,4.000000,4.000000,4.000000,4.000000,4.000000,4.000000,4.000000,4.000000,4.000000,4.000000,4.000000,4.000000,4.000000,4.000000,4.000000,4.000000,4.000000,4.000000,4.000000,4.000000,4.000000,4.000000,4.000000,4.000000,4.000000,4.000000,4.000000,4.000000,4.000000,4.000000,4.000000,4.000000,100.000000
1614736408.041794,115.000000,0.000000,4.030842,11.517600,8.987908,50.568497,22.848339,10.417264,6.632406,14.182347,34.719685,19.826693,8.537416,9.814120,8.850062,15.362206,21.862934,-16.219063,-0.229605,18.728424,4.785998,-28.806959,-6.578779,-1.166160,0.861195,-3.982373,-10.706071,18.615625,26.651714,-8.152172,3.121734,4.803575,4.103511,-11.424226,8064.000000,0.000000,4.000000,,,,0.000000,4.000000,4.000000,4.000000,4.000000,4.000000,4.000000,4.000000,4.000000,4.000000,4.000000,4.000000,4.000000,4.000000,4.000000,4.000000,4.000000,4.000000,4.000000,4.000000,4.000000,4.000000,4.000000,4.000000,4.000000,4.000000,4.000000,4.000000,4.000000,4.000000,4.000000,4.000000,4.000000,100.000000
1614736408.049644,116.000000,0.000000,1.462708,12.531723,11.543023,46.928185,22.312670,10.406847,11.241158,14.680985,34.684963,16.217121,-0.701891,10.317127,5.764289,12.269920,15.174403,-21.843868,1.309086,7.940465,-5.475198,-42.111485,-4.520918,-5.267558,-8.370435,-15.260442,-5.567160,20.135471,20.984037,-10.195302,3.118612,6.337232,6.150690,-2.694852,8064.000000,0.000000,4.000000,,,,0.000000,4.000000,4.000000,4.000000,4.000000,4.000000,4.000000,4.000000,4.000000,4.000000,4.000000,4.000000,4.000000,4.000000,4.000000,4.000000,4.000000,4.000000,4.000000,4.000000,4.000000,4.000000,4.000000,4.000000,4.000000,4.000000,4.000000,4.000000,4.000000,4.000000,4.000000,4.000000,4.000000,100.000000
1614736408.057393,117.000000,0.000000,0.435605,16.621756,14.095582,43.804333,22.803177,10.396441,12.768378,14.666305,35.163101,14.149622,-9.931958,7.742707,5.245704,5.590983,0.287434,-42.847668,0.794957,-4.887989,-23.931261,-54.889889,-5.542038,-5.775111,-7.336424,-18.834925,-5.561593,31.910208,17.373310,-9.159466,3.115494,7.356536,7.683001,-5.769081,8064.000000,0.000000,4.000000,,,,0.000000,4.000000,4.000000,4.000000,4.000000,4.000000,4.000000,4.000000,4.000000,4.000000,4.000000,4.000000,4.000000,4.000000,4.000000,4.000000,4.000000,4.000000,4.000000,4.000000,4.000000,4.000000,4.000000,4.000000,4.000000,4.000000,4.000000,4.000000,4.000000,4.000000,4.000000,4.000000,4.000000,100.000000
1614736408.065242,118.000000,0.000000,0.947990,20.194878,16.645590,46.837452,23.293194,10.386044,7.114584,14.138818,35.127937,14.648293,-24.793821,0.555477,5.753279,-0.055633,-13.046186,-69.984306,-0.744300,-14.113870,-42.881691,-56.886280,-7.587778,-4.743694,-8.354729,-25.482758,-6.581672,37.519321,30.689270,-7.611845,2.599558,8.374821,7.675318,-5.763311,8064.000000,0.000000,4.000000,,,,0.000000,4.000000,4.000000,4.000000,4.000000,4.000000,4.000000,4.000000,4.000000,4.000000,4.000000,4.000000,4.000000,4.000000,4.000000,4.000000,4.000000,4.000000,4.000000,4.000000,4.000000,4.000000,4.000000,4.000000,4.000000,4.000000,4.000000,4.000000,4.000000,4.000000,4.000000,4.000000,4.000000,100.000000
1614736408.072991,119.000000,0.000000,0.947042,19.661861,13.039200,41.662407,23.269901,10.375658,5.569008,14.637500,34.067169,8.479798,-35.538258,-2.009181,4.209064,-4.158142,-17.648525,-81.709190,-3.307658,-24.868986,-58.223423,-68.624268,-10.657114,-4.738951,-8.859194,-40.329067,-5.549449,26.199753,40.402172,-6.578592,3.109778,10.930549,7.667643,-6.270369,8192.000000,0.000000,4.000000,,,,0.000000,4.000000,4.000000,4.000000,4.000000,4.000000,4.000000,4.000000,4.000000,4.000000,4.000000,4.000000,4.000000,4.000000,4.000000,4.000000,4.000000,4.000000,4.000000,4.000000,4.000000,4.000000,4.000000,4.000000,4.000000,4.000000,4.000000,4.000000,4.000000,4.000000,4.000000,4.000000,4.000000,100.000000
1614736408.080841,120.000000,0.000000,0.946095,19.129379,-2.871275,31.877157,22.220991,10.365282,7.101901,14.622862,34.033100,3.855934,-29.348873,1.582572,6.768958,-4.153984,-17.630877,-76.499275,-2.791530,-28.433861,-62.780582,-82.401794,-13.210559,-5.759853,-4.747771,-40.801559,-6.569541,17.455603,31.130999,-4.007911,5.670771,10.919618,6.634334,-13.956407,8064.000000,0.000000,4.000000,,,,0.000000,4.000000,4.000000,4.000000,4.000000,4.000000,4.000000,4.000000,4.000000,4.000000,4.000000,4.000000,4.000000,4.000000,4.000000,4.000000,4.000000,4.000000,4.000000,4.000000,4.000000,4.000000,4.000000,4.000000,4.000000,4.000000,4.000000,4.000000,4.000000,4.000000,4.000000,4.000000,4.000000,100.000000
1614736408.088590,121.000000,0.000000,0.432328,19.110250,-10.560712,31.332458,23.224411,10.354917,6.581978,12.044137,35.537529,1.287976,-13.934910,1.580989,16.505779,3.029658,-12.997861,-65.140732,3.877928,-15.072094,-48.358829,-68.473236,-8.581964,2.451035,-5.768664,-19.222298,-8.101433,20.002251,24.946022,2.149944,7.203562,10.908698,7.653341,-19.583475,8064.000000,0.000000,4.000000,,,,0.000000,4.000000,4.000000,4.000000,4.000000,4.000000,4.000000,4.000000,4.000000,4.000000,4.000000,4.000000,4.000000,4.000000,4.000000,4.000000,4.000000,4.000000,4.000000,4.000000,4.000000,4.000000,4.000000,4.000000,4.000000,4.000000,4.000000,4.000000,4.000000,4.000000,4.000000,4.000000,4.000000,100.000000
1614736408.096439,122.000000,0.000000,1.970357,14.988576,-4.396305,29.762665,22.688366,10.857383,6.062576,7.416708,29.348146,-9.482543,-1.613283,2.605050,22.130299,14.821500,-4.266914,-53.280716,9.002255,-2.236509,-25.746368,-38.661175,2.708669,17.833200,-6.788537,-0.228716,-6.554870,19.982248,29.023640,6.763178,6.683538,11.410610,7.132867,-21.615173,8064.000000,0.000000,4.000000,,,,0.000000,4.000000,4.000000,4.000000,4.000000,4.000000,4.000000,4.000000,4.000000,4.000000,4.000000,4.000000,4.000000,4.000000,4.000000,4.000000,4.000000,4.000000,4.000000,4.000000,4.000000,4.000000,4.000000,4.000000,4.000000,4.000000,4.000000,4.000000,4.000000,4.000000,4.000000,4.000000,4.000000,100.000000
1614736408.104188,123.000000,0.000000,4.019669,9.332561,-10.545754,22.553415,14.973370,8.795243,6.569334,4.845189,17.523926,-9.985881,7.106279,6.192188,20.569706,20.447704,-1.698545,-40.406921,9.506074,-0.182990,-13.925750,-21.699438,10.398269,22.430752,1.423380,1.309974,-5.009853,15.859702,24.892052,6.756415,7.189675,9.347918,-2.105035,-21.593559,8064.000000,0.000000,4.000000,,,,0.000000,4.000000,4.000000,4.000000,4.000000,4.000000,4.000000,4.000000,4.000000,4.000000,4.000000,4.000000,4.000000,4.000000,4.000000,4.000000,4.000000,4.000000,4.000000,4.000000,4.000000,4.000000,4.000000,4.000000,4.000000,4.000000,4.000000,4.000000,4.000000,4.000000,4.000000,4.000000,4.000000,100.000000
1614736408.112038,124.000000,0.000000,5.041290,7.271947,-15.150593,18.941118,6.240448,5.196704,6.562765,3.301882,15.967940,4.383080,9.663276,3.621893,20.549137,19.401615,-1.696846,-28.571644,7.958106,1.868475,-13.399004,-17.575174,10.387870,18.305756,10.652726,-1.255438,-5.517664,14.305381,21.790237,3.672735,5.644024,8.312928,-7.743956,-16.956581,8064.000000,0.000000,4.000000,,,,0.000000,4.000000,4.000000,4.000000,4.000000,4.000000,4.000000,4.000000,4.000000,4.000000,4.000000,4.000000,4.000000,4.000000,4.000000,4.000000,4.000000,4.000000,4.000000,4.000000,4.000000,4.000000,4.000000,4.000000,4.000000,4.000000,4.000000,4.000000,4.000000,4.000000,4.000000,4.000000,4.000000,100.000000
1614736408.119787,125.000000,0.000000,5.036249,8.290316,3.838916,23.537561,9.311131,2.627405,6.556202,2.785759,26.721203,3.353055,10.166433,4.131092,22.067049,20.920675,13.176645,-18.799482,8.462969,3.917888,-14.924067,-14.480676,8.839021,14.184886,13.206176,2.848382,-5.512146,15.829536,28.435114,0.079319,1.535816,12.407180,2.007378,-17.965265,8064.000000,0.000000,4.000000,,,,0.000000,4.000000,4.000000,4.000000,4.000000,4.000000,4.000000,4.000000,4.000000,4.000000,4.000000,4.000000,4.000000,4.000000,4.000000,4.000000,4.000000,4.000000,4.000000,4.000000,4.000000,4.000000,4.000000,4.000000,4.000000,4.000000,4.000000,4.000000,4.000000,4.000000,4.000000,4.000000,4.000000,100.000000
1614736408.127636,126.000000,0.000000,4.518392,8.282025,4.347898,29.155050,15.455666,3.137598,6.549645,3.295794,31.309866,-6.906708,12.207548,9.255166,14.865495,21.412575,27.522444,-12.626837,10.505788,4.939611,-12.345039,-12.414913,7.291720,5.452753,10.116047,2.332712,-4.993814,15.813707,26.868217,-1.972042,-1.029823,15.471696,11.236139,-32.306274,8064.000000,0.000000,4.000000,,,,0.000000,4.000000,4.000000,4.000000,4.000000,4.000000,4.000000,4.000000,4.000000,4.000000,4.000000,4.000000,4.000000,4.000000,4.000000,4.000000,4.000000,4.000000,4.000000,4.000000,4.000000,4.000000,4.000000,4.000000,4.000000,4.000000,4.000000,4.000000,4.000000,4.000000,4.000000,4.000000,4.000000,100.000000
1614736408.135386,127.000000,0.000000,-1.127152,6.735282,-17.707731,26.561792,11.850466,3.134460,6.543096,1.754037,26.150352,-1.258776,2.451751,3.092065,4.081398,7.545009,13.648767,-17.742414,3.315795,4.934672,-12.845515,-19.069164,-2.971982,-7.886034,3.952085,-10.490133,-5.501640,14.259432,23.251606,-2.995711,-0.515972,13.917762,9.173621,-29.709866,8064.000000,0.000000,4.000000,,,,0.000000,4.000000,4.000000,4.000000,4.000000,4.000000,4.000000,4.000000,4.000000,4.000000,4.000000,4.000000,4.000000,4.000000,4.000000,4.000000,4.000000,4.000000,4.000000,4.000000,4.000000,4.000000,4.000000,4.000000,4.000000,4.000000,4.000000,4.000000,4.000000,4.000000,4.000000,4.000000,4.000000,100.000000
1614736408.143135,0.000000,0.000000,-6.767050,8.779829,-6.920794,21.407024,11.838615,2.618505,6.536553,-0.298999,23.560099,0.280945,-19.089163,-7.680258,-1.563708,-11.436895,-7.390523,-41.827236,-13.610598,-4.301032,-29.755747,-37.511635,-18.353624,-13.006352,0.358389,-22.274515,-5.496139,17.834917,33.997585,-6.069638,-0.515456,15.955127,6.087525,-4.551950,0.000000,198.000000,4.000000,,,,0.000000,4.000000,4.000000,4.000000,4.000000,4.000000,4.000000,4.000000,4.000000,4.000000,4.000000,4.000000,4.000000,4.000000,4.000000,4.000000,4.000000,4.000000,4.000000,4.000000,4.000000,4.000000,4.000000,4.000000,4.000000,4.000000,4.000000,4.000000,4.000000,4.000000,4.000000,4.000000,4.000000,100.000000
1614736408.150884,1.000000,0.000000,-6.760283,14.412075,18.727154,24.462542,19.519085,3.128707,6.530016,-0.811521,27.126282,-15.103951,-30.864944,-9.211040,-1.562145,-19.117765,-10.460055,-65.887970,-22.827757,-17.630064,-51.777271,-59.012585,-22.950657,-11.967705,-0.667611,-25.841984,-5.490643,26.022209,32.425125,-6.063569,-1.027762,19.016094,7.619899,-1.470475,0.000000,192.000000,4.000000,,,,0.000000,4.000000,4.000000,4.000000,4.000000,4.000000,4.000000,4.000000,4.000000,4.000000,4.000000,4.000000,4.000000,4.000000,4.000000,4.000000,4.000000,4.000000,4.000000,4.000000,4.000000,4.000000,4.000000,4.000000,4.000000,4.000000,4.000000,4.000000,4.000000,4.000000,4.000000,4.000000,4.000000,100.000000
1614736408.158534,2.000000,0.000000,-6.240703,13.884842,6.913554,22.386797,14.371360,2.612758,6.523486,0.214932,28.124796,-20.729874,-35.449463,-13.817213,-2.073403,-20.637110,-18.141903,-79.668236,-21.266468,-23.766281,-63.007545,-77.927933,-26.517448,-12.468558,-7.333610,-38.636654,-5.485152,24.970547,4.700392,-5.544685,-0.513913,13.868874,7.612279,-19.930544,0.000000,196.000000,4.000000,,,,0.000000,4.000000,4.000000,4.000000,4.000000,4.000000,4.000000,4.000000,4.000000,4.000000,4.000000,4.000000,4.000000,4.000000,4.000000,4.000000,4.000000,4.000000,4.000000,4.000000,4.000000,4.000000,4.000000,4.000000,4.000000,4.000000,4.000000,4.000000,4.000000,4.000000,4.000000,4.000000,4.000000,100.000000
1614736408.166283,3.000000,0.000000,-7.260103,8.229932,-16.170282,11.082358,0.510835,0.046043,6.516963,-0.298104,24.506929,-20.709143,-51.311451,-24.059807,-4.635432,-28.308781,-41.200684,-99.075752,-22.783663,-36.050205,-73.713768,-96.311539,-38.798622,-11.943269,-12.454481,-57.059555,-7.530949,19.304550,2.644410,-8.616063,-1.026220,8.726799,7.091846,-13.243946,0.000000,205.000000,4.000000,,,,0.000000,4.000000,4.000000,4.000000,4.000000,4.000000,4.000000,4.000000,4.000000,4.000000,4.000000,4.000000,4.000000,4.000000,4.000000,4.000000,4.000000,4.000000,4.000000,4.000000,4.000000,4.000000,4.000000,4.000000,4.000000,4.000000,4.000000,4.000000,4.000000,4.000000,4.000000,4.000000,4.000000,100.000000
1614736408.173932,4.000000,0.000000,-6.227201,7.708881,-14.615651,12.609737,4.612888,-0.979644,5.997625,-0.810626,22.431139,-27.355101,-61.003731,-24.548567,-5.656438,-30.844574,-47.826149,-112.822830,-20.196775,-49.347488,-78.768265,-95.189590,-37.734184,-12.444146,-11.929206,-52.899933,-9.574700,24.413450,35.462276,-6.556165,0.000447,13.846277,7.084754,3.692375,0.000000,193.000000,4.000000,,,,0.000000,4.000000,4.000000,4.000000,4.000000,4.000000,4.000000,4.000000,4.000000,4.000000,4.000000,4.000000,4.000000,4.000000,4.000000,4.000000,4.000000,4.000000,4.000000,4.000000,4.000000,4.000000,4.000000,4.000000,4.000000,4.000000,4.000000,4.000000,4.000000,4.000000,4.000000,4.000000,4.000000,100.000000
1614736408.181682,5.000000,0.000000,-3.656872,11.803737,-8.960010,20.802256,13.326224,-0.465844,6.504448,0.215826,22.921530,-21.686720,-43.506828,-18.882992,-2.573858,-18.506037,-27.265503,-95.274109,-10.432990,-36.990452,-59.715134,-66.889267,-16.157990,-11.406061,-12.430098,-31.821392,-9.052305,30.542883,43.119125,0.629878,2.564549,23.576021,7.077670,-11.695933,0.000000,200.000000,4.000000,,,,0.000000,4.000000,4.000000,4.000000,4.000000,4.000000,4.000000,4.000000,4.000000,4.000000,4.000000,4.000000,4.000000,4.000000,4.000000,4.000000,4.000000,4.000000,4.000000,4.000000,4.000000,4.000000,4.000000,4.000000,4.000000,4.000000,4.000000,4.000000,4.000000,4.000000,4.000000,4.000000,4.000000,100.000000
1614736408.189331,6.000000,0.000000,-2.114753,12.304753,-12.027972,14.114787,5.620590,-0.465378,6.497944,-1.322852,23.411428,-6.280418,-17.309475,-14.248725,-1.032823,-4.128557,-8.263879,-65.435242,-5.807172,-16.953459,-39.655418,-42.206997,-3.321318,-5.753629,-6.776642,-19.481878,-6.479150,23.845675,19.999081,3.193351,3.587626,26.116549,6.557771,-29.632956,0.000000,201.000000,4.000000,,,,0.000000,4.000000,4.000000,4.000000,4.000000,4.000000,4.000000,4.000000,4.000000,4.000000,4.000000,4.000000,4.000000,4.000000,4.000000,4.000000,4.000000,4.000000,4.000000,4.000000,4.000000,4.000000,4.000000,4.000000,4.000000,4.000000,4.000000,4.000000,4.000000,4.000000,4.000000,4.000000,4.000000,100.000000
1614736408.197080,7.000000,0.000000,-2.625459,11.266808,-13.041586,6.921185,-2.077338,-0.977733,5.978625,-3.885631,22.875196,-2.684394,-2.933191,-6.029348,-2.057431,-1.047505,-5.178692,-49.985195,-5.288544,-14.885224,-35.513199,-37.036583,-4.343637,-0.106850,7.076289,-13.308550,-5.447030,18.180803,22.543184,1.651696,2.558397,24.551970,6.551213,-17.808451,0.000000,173.000000,4.000000,,,,0.000000,4.000000,4.000000,4.000000,4.000000,4.000000,4.000000,4.000000,4.000000,4.000000,4.000000,4.000000,4.000000,4.000000,4.000000,4.000000,4.000000,4.000000,4.000000,4.000000,4.000000,4.000000,4.000000,4.000000,4.000000,4.000000,4.000000,4.000000,4.000000,4.000000,4.000000,4.000000,4.000000,100.000000
1614736408.204730,8.000000,0.000000,-2.622834,11.768361,-8.925980,14.093751,2.027303,1.074526,6.998288,-2.343284,23.365141,-2.168889,2.197947,0.130527,-1.029733,-3.097740,-7.224795,-42.755722,-0.155051,-12.306236,-29.836660,-37.512367,-0.749550,0.406077,12.710238,-1.500370,-5.441583,21.752365,39.443718,2.162865,3.581480,25.553059,7.057483,-2.918847,0.000000,180.000000,4.000000,,,,0.000000,4.000000,4.000000,4.000000,4.000000,4.000000,4.000000,4.000000,4.000000,4.000000,4.000000,4.000000,4.000000,4.000000,4.000000,4.000000,4.000000,4.000000,4.000000,4.000000,4.000000,4.000000,4.000000,4.000000,4.000000,4.000000,4.000000,4.000000,4.000000,4.000000,4.000000,4.000000,4.000000,100.000000
1614736408.212479,9.000000,0.000000,-2.107390,11.756593,-4.814490,18.695042,4.589379,3.124734,9.042571,2.787264,25.393059,3.474305,4.247031,-0.895244,2.048220,-1.556181,-2.089365,-36.559120,1.383566,-3.575981,-21.088875,-36.449215,0.789661,0.405671,9.620605,4.654977,-5.436141,23.269075,27.609404,1.135061,3.577899,25.527506,6.537605,-6.505672,0.000000,199.000000,4.000000,,,,0.000000,4.000000,4.000000,4.000000,4.000000,4.000000,4.000000,4.000000,4.000000,4.000000,4.000000,4.000000,4.000000,4.000000,4.000000,4.000000,4.000000,4.000000,4.000000,4.000000,4.000000,4.000000,4.000000,4.000000,4.000000,4.000000,4.000000,4.000000,4.000000,4.000000,4.000000,4.000000,4.000000,100.000000
1614736408.220129,10.000000,0.000000,-2.105283,11.744836,-3.784034,17.650705,4.071969,3.121609,10.571990,3.810118,26.906126,3.470831,3.217143,-0.894349,3.071813,-0.016163,6.117852,-34.984100,-4.258843,-2.033944,-19.016504,-33.848663,-6.903437,-2.671658,7.046882,0.034937,-5.430705,22.220165,16.299742,-2.968638,-0.528244,24.989157,7.043888,-7.524807,0.000000,178.000000,4.000000,,,,0.000000,4.000000,4.000000,4.000000,4.000000,4.000000,4.000000,4.000000,4.000000,4.000000,4.000000,4.000000,4.000000,4.000000,4.000000,4.000000,4.000000,4.000000,4.000000,4.000000,4.000000,4.000000,4.000000,4.000000,4.000000,4.000000,4.000000,4.000000,4.000000,4.000000,4.000000,4.000000,4.000000,100.000000
1614736408.227878,11.000000,0.000000,-4.154460,11.733091,-3.780250,21.735619,6.119179,3.118488,10.048598,2.780667,26.879221,11.159668,3.213926,4.747571,2.043100,-2.067429,9.701478,-31.872192,-6.818687,-0.493448,-16.946205,-32.789173,-12.024738,-10.874114,3.450091,-0.990739,-4.912454,24.249226,28.591135,-7.581054,-3.604638,25.476990,14.216331,3.764769,0.000000,189.000000,4.000000,,,,0.000000,4.000000,4.000000,4.000000,4.000000,4.000000,4.000000,4.000000,4.000000,4.000000,4.000000,4.000000,4.000000,4.000000,4.000000,4.000000,4.000000,4.000000,4.000000,4.000000,4.000000,4.000000,4.000000,4.000000,4.000000,4.000000,4.000000,4.000000,4.000000,4.000000,4.000000,4.000000,4.000000,100.000000
1614736408.235527,12.000000,0.000000,-6.201587,11.721358,-4.289290,25.303627,8.164342,3.115369,9.525729,3.290707,26.339521,24.994661,1.672251,5.255644,2.553878,-3.603823,11.230238,-34.404423,-6.299048,1.558327,-19.493362,-38.397411,-10.987073,-15.991445,-3.220026,-4.066671,-2.343439,26.789080,25.485620,-8.599114,-1.549752,24.938692,21.894423,9.914850,0.000000,197.000000,4.000000,,,,0.000000,4.000000,4.000000,4.000000,4.000000,4.000000,4.000000,4.000000,4.000000,4.000000,4.000000,4.000000,4.000000,4.000000,4.000000,4.000000,4.000000,4.000000,4.000000,4.000000,4.000000,4.000000,4.000000,4.000000,4.000000,4.000000,4.000000,4.000000,4.000000,4.000000,4.000000,4.000000,4.000000,100.000000
1614736408.243277,13.000000,0.000000,-6.708206,11.709637,-4.285001,25.278324,10.207459,3.112254,9.516203,3.287416,26.826002,15.738898,-8.585832,1.660645,3.064144,-1.036117,5.065161,-55.395660,-10.395313,-7.161180,-37.422588,-49.641064,-15.078650,-14.949813,-4.242446,-22.524143,-0.802634,26.249470,4.947315,-6.539233,-0.009740,22.349649,20.334066,9.392116,0.000000,191.000000,4.000000,,,,0.000000,4.000000,4.000000,4.000000,4.000000,4.000000,4.000000,4.000000,4.000000,4.000000,4.000000,4.000000,4.000000,4.000000,4.000000,4.000000,4.000000,4.000000,4.000000,4.000000,4.000000,4.000000,4.000000,4.000000,4.000000,4.000000,4.000000,4.000000,4.000000,4.000000,4.000000,4.000000,4.000000,100.000000
1614736408.250926,14.000000,0.000000,-6.188678,11.697927,-0.690973,25.253046,13.786996,3.109141,10.532328,3.284129,26.799175,-9.917867,-28.577246,-2.956400,-2.067125,-6.163286,-18.016827,-82.519753,-13.974661,-21.512993,-56.872345,-64.463219,-25.832802,-14.934863,-3.212563,-45.578541,-3.365934,25.710400,15.198778,-4.994232,-1.035372,20.276018,16.723989,9.895543,0.000000,171.000000,4.000000,,,,0.000000,4.000000,4.000000,4.000000,4.000000,4.000000,4.000000,4.000000,4.000000,4.000000,4.000000,4.000000,4.000000,4.000000,4.000000,4.000000,4.000000,4.000000,4.000000,4.000000,4.000000,4.000000,4.000000,4.000000,4.000000,4.000000,4.000000,4.000000,4.000000,4.000000,4.000000,4.000000,4.000000,100.000000
1614736408.258675,15.000000,0.000000,-6.182489,11.686230,-1.715923,21.125229,15.824491,3.106032,9.496155,3.793665,26.772377,-19.138718,-42.907642,-9.620111,-8.731725,-25.131481,-42.614193,-101.924408,-13.960687,-34.311993,-69.123161,-88.501320,-32.473637,-15.432749,-5.260633,-55.789375,-7.977952,26.197510,46.465630,-5.502059,-1.034336,21.794205,11.579060,2.706161,0.000000,181.000000,4.000000,,,,0.000000,4.000000,4.000000,4.000000,4.000000,4.000000,4.000000,4.000000,4.000000,4.000000,4.000000,4.000000,4.000000,4.000000,4.000000,4.000000,4.000000,4.000000,4.000000,4.000000,4.000000,4.000000,4.000000,4.000000,4.000000,4.000000,4.000000,4.000000,4.000000,4.000000,4.000000,4.000000,4.000000,100.000000
1614736408.266325,16.000000,0.000000,-6.176306,11.161722,-9.919335,13.411796,15.295846,3.102926,5.896915,2.764230,26.745604,-11.427272,-41.839096,-13.200234,-9.748634,-33.824299,-43.597221,-110.540436,-13.433906,-41.457169,-83.413017,-107.387177,-35.005264,-14.904495,-11.922039,-55.220764,-11.559718,26.171312,45.393524,-5.496556,-0.520481,20.746769,1.311070,-11.142699,0.000000,196.000000,4.000000,,,,0.000000,4.000000,4.000000,4.000000,4.000000,4.000000,4.000000,4.000000,4.000000,4.000000,4.000000,4.000000,4.000000,4.000000,4.000000,4.000000,4.000000,4.000000,4.000000,4.000000,4.000000,4.000000,4.000000,4.000000,4.000000,4.000000,4.000000,4.000000,4.000000,4.000000,4.000000,4.000000,4.000000,100.000000
1614736408.274074,17.000000,0.000000,-6.170130,11.663382,-11.960698,13.911203,15.280550,3.099823,7.429480,3.274287,26.718859,-5.261998,-32.053665,-6.007547,-6.149142,-18.918680,-27.143368,-99.147842,-13.420471,-37.313148,-84.355240,-92.920815,-34.457439,-14.889590,-18.576784,-54.139900,-13.599441,26.145142,13.040438,-4.978239,-0.519961,9.956791,-5.356907,-11.131557,0.000000,204.000000,4.000000,,,,0.000000,4.000000,4.000000,4.000000,4.000000,4.000000,4.000000,4.000000,4.000000,4.000000,4.000000,4.000000,4.000000,4.000000,4.000000,4.000000,4.000000,4.000000,4.000000,4.000000,4.000000,4.000000,4.000000,4.000000,4.000000,4.000000,4.000000,4.000000,4.000000,4.000000,4.000000,4.000000,4.000000,100.000000
1614736408.281724,18.000000,0.000000,-6.163960,11.651718,-5.794891,19.538319,15.265269,3.096724,13.063076,5.835115,26.692141,-5.769557,-22.278023,1.690768,-5.117352,-5.053607,-11.731609,-73.920486,-13.919871,-27.532244,-58.117043,-60.007381,-26.217854,-14.874701,-17.532566,-44.854992,-12.047379,26.118996,-0.818757,-6.511723,-0.519441,1.228886,-2.274627,-1.889656,0.000000,196.000000,4.000000,,,,0.000000,4.000000,4.000000,4.000000,4.000000,4.000000,4.000000,4.000000,4.000000,4.000000,4.000000,4.000000,4.000000,4.000000,4.000000,4.000000,4.000000,4.000000,4.000000,4.000000,4.000000,4.000000,4.000000,4.000000,4.000000,4.000000,4.000000,4.000000,4.000000,4.000000,4.000000,4.000000,4.000000,100.000000
1614736408.289573,19.000000,0.000000,-6.157796,11.127246,-3.737814,21.057241,15.250004,3.093627,11.511551,4.290818,26.665447,-5.250967,-14.050616,3.227539,-5.625055,-6.074194,-1.976288,-53.846569,-13.393131,-15.197020,-30.366617,-37.383270,-12.858302,-14.859826,-10.848366,-19.681932,-7.932768,26.092876,19.182062,-9.069313,-0.518922,6.868682,-0.221071,-5.990330,0.000000,180.000000,4.000000,,,,0.000000,4.000000,4.000000,4.000000,4.000000,4.000000,4.000000,4.000000,4.000000,4.000000,4.000000,4.000000,4.000000,4.000000,4.000000,4.000000,4.000000,4.000000,4.000000,4.000000,4.000000,4.000000,4.000000,4.000000,4.000000,4.000000,4.000000,4.000000,4.000000,4.000000,4.000000,4.000000,4.000000,100.000000
1614736408.297322,20.000000,0.000000,-6.151638,12.141760,-3.734076,21.036184,15.234754,3.090533,4.320552,0.183963,26.638783,2.446592,-8.395539,3.737132,-4.593789,-6.068120,3.153894,-43.023491,-10.302814,-1.848489,-22.131123,-31.192041,-6.178777,-14.844967,-6.222133,2.389031,-4.335092,26.066784,33.521854,-9.573065,-0.518403,16.605404,-1.246491,-8.548443,0.000000,205.000000,4.000000,,,,0.000000,4.000000,4.000000,4.000000,4.000000,4.000000,4.000000,4.000000,4.000000,4.000000,4.000000,4.000000,4.000000,4.000000,4.000000,4.000000,4.000000,4.000000,4.000000,4.000000,4.000000,4.000000,4.000000,4.000000,4.000000,4.000000,4.000000,4.000000,4.000000,4.000000,4.000000,4.000000,4.000000,100.000000
1614736408.305171,21.000000,0.000000,-6.145486,14.180900,-0.140599,22.040789,15.219520,3.087443,2.264950,-0.841862,27.637785,3.982607,-7.361503,1.169293,-5.102015,-4.010770,4.176381,-39.903545,-9.266871,3.794385,-24.160273,-29.622389,-9.762341,-14.830122,-6.215911,-0.690281,-4.843577,26.553537,22.206282,-8.537850,-0.517884,18.127260,5.934243,4.280619,0.000000,207.000000,4.000000,,,,0.000000,4.000000,4.000000,4.000000,4.000000,4.000000,4.000000,4.000000,4.000000,4.000000,4.000000,4.000000,4.000000,4.000000,4.000000,4.000000,4.000000,4.000000,4.000000,4.000000,4.000000,4.000000,4.000000,4.000000,4.000000,4.000000,4.000000,4.000000,4.000000,4.000000,4.000000,4.000000,4.000000,100.000000
1614736408.312921,22.000000,0.000000,-6.139341,15.192360,-0.140458,20.480288,15.717120,3.084355,2.775505,-0.328199,26.071686,-3.200863,-8.892603,0.142482,-5.096913,-7.083682,3.146563,-39.863640,-9.770425,5.329052,-23.110472,-28.054304,-10.778220,-14.815291,-7.235336,-9.920360,-5.864375,25.501343,11.927665,-9.042133,-0.517366,16.570671,17.210360,12.481466,0.000000,184.000000,4.000000,,,,0.000000,4.000000,4.000000,4.000000,4.000000,4.000000,4.000000,4.000000,4.000000,4.000000,4.000000,4.000000,4.000000,4.000000,4.000000,4.000000,4.000000,4.000000,4.000000,4.000000,4.000000,4.000000,4.000000,4.000000,4.000000,4.000000,4.000000,4.000000,4.000000,4.000000,4.000000,4.000000,4.000000,100.000000
1614736408.320770,23.000000,0.000000,-6.133202,15.689988,0.885324,23.023909,15.188582,3.081271,3.285550,-0.327871,26.558434,0.392082,-6.832428,6.296186,-2.014893,-8.615060,7.245981,-30.593008,-8.735013,14.041672,-16.933516,-30.590353,-10.254622,-15.313296,-6.715281,-7.859157,-4.320048,25.475842,10.890096,-9.545912,-0.516849,17.579741,19.757252,9.904882,0.000000,190.000000,4.000000,,,,0.000000,4.000000,4.000000,4.000000,4.000000,4.000000,4.000000,4.000000,4.000000,4.000000,4.000000,4.000000,4.000000,4.000000,4.000000,4.000000,4.000000,4.000000,4.000000,4.000000,4.000000,4.000000,4.000000,4.000000,4.000000,4.000000,4.000000,4.000000,4.000000,4.000000,4.000000,4.000000,4.000000,100.000000
1614736408.328519,24.000000,0.000000,-6.127069,15.674298,2.935720,28.129089,15.173394,3.078190,3.282265,2.236559,28.070337,1.930151,-10.928161,1.674505,-3.038519,-9.632086,5.187453,-28.511133,-10.777560,11.463528,-16.403761,-43.380276,-18.962317,-15.297983,-6.195745,-15.543606,-5.341370,26.988829,12.417667,-8.510725,-0.516332,18.074982,12.558008,7.843696,0.000000,160.000000,4.000000,,,,0.000000,4.000000,4.000000,4.000000,4.000000,4.000000,4.000000,4.000000,4.000000,4.000000,4.000000,4.000000,4.000000,4.000000,4.000000,4.000000,4.000000,4.000000,4.000000,4.000000,4.000000,4.000000,4.000000,4.000000,4.000000,4.000000,4.000000,4.000000,4.000000,4.000000,4.000000,4.000000,4.000000,100.000000
1614736408.336368,25.000000,0.000000,-6.120942,11.556060,-8.349267,19.383013,15.671041,3.075111,-3.387684,1.208682,20.349958,-21.148703,-25.789026,-16.788708,-9.702147,-19.366043,-14.304914,-53.610828,-21.023193,-10.599217,-35.361717,-62.824074,-38.430534,-14.257045,-10.292113,-39.117805,-12.515515,21.320814,26.764225,-9.527855,-0.515816,17.544086,6.904424,-9.600045,0.000000,187.000000,4.000000,,,,0.000000,4.000000,4.000000,4.000000,4.000000,4.000000,4.000000,4.000000,4.000000,4.000000,4.000000,4.000000,4.000000,4.000000,4.000000,4.000000,4.000000,4.000000,4.000000,4.000000,4.000000,4.000000,4.000000,4.000000,4.000000,4.000000,4.000000,4.000000,4.000000,4.000000,4.000000,4.000000,4.000000,100.000000
1614736408.344118,26.000000,0.000000,-6.114820,7.441939,-29.366558,5.004655,13.091268,3.072036,-11.589425,-3.407912,6.483455,-34.460888,-38.070930,-25.489868,-13.282189,-28.064627,-36.341892,-78.685425,-24.079092,-23.921951,-62.505840,-80.709969,-49.161335,-15.781249,-21.563871,-54.463303,-17.631205,12.581544,30.327204,-13.108070,-0.515300,17.013721,6.897520,-34.205830,0.000000,219.000000,4.000000,,,,0.000000,4.000000,4.000000,4.000000,4.000000,4.000000,4.000000,4.000000,4.000000,4.000000,4.000000,4.000000,4.000000,4.000000,4.000000,4.000000,4.000000,4.000000,4.000000,4.000000,4.000000,4.000000,4.000000,4.000000,4.000000,4.000000,4.000000,4.000000,4.000000,4.000000,4.000000,4.000000,4.000000,100.000000
1614736408.351967,27.000000,0.000000,-6.108706,7.434497,-34.978218,0.384266,8.462791,3.068964,-9.013733,-4.430145,3.400049,-10.836682,-39.571320,-21.361814,-9.166343,-23.421177,-39.382473,-83.222122,-19.439629,-23.385210,-71.161285,-89.347206,-38.342941,-14.739826,-27.183334,-50.306274,-16.587933,16.158707,13.373799,-10.018040,-0.514785,16.996708,6.377801,-23.915215,0.000000,197.000000,4.000000,,,,0.000000,4.000000,4.000000,4.000000,4.000000,4.000000,4.000000,4.000000,4.000000,4.000000,4.000000,4.000000,4.000000,4.000000,4.000000,4.000000,4.000000,4.000000,4.000000,4.000000,4.000000,4.000000,4.000000,4.000000,4.000000,4.000000,4.000000,4.000000,4.000000,4.000000,4.000000,4.000000,4.000000,100.000000
1614736408.359716,28.000000,0.000000,-5.589777,7.939884,-21.609905,2.435164,6.915867,3.065895,-4.902155,-4.425714,11.601777,8.661334,-39.531750,-19.289169,-6.593074,-17.243910,-30.112320,-83.651718,-17.881727,-25.925926,-64.936279,-81.565552,-19.330238,-6.519958,-22.027945,-41.538021,-14.007242,25.886137,22.591194,-2.828534,-0.514270,17.492533,5.858603,2.262547,0.000000,173.000000,4.000000,,,,0.000000,4.000000,4.000000,4.000000,4.000000,4.000000,4.000000,4.000000,4.000000,4.000000,4.000000,4.000000,4.000000,4.000000,4.000000,4.000000,4.000000,4.000000,4.000000,4.000000,4.000000,4.000000,4.000000,4.000000,4.000000,4.000000,4.000000,4.000000,4.000000,4.000000,4.000000,4.000000,4.000000,100.000000
1614736408.367565,29.000000,0.000000,-6.609828,7.419123,-9.793425,7.048113,7.934592,3.062829,-3.871612,-4.421289,16.205559,2.498827,-34.364014,-13.628855,-5.048019,-16.201025,-22.389900,-81.003967,-12.735641,-25.387180,-59.230316,-57.381424,-10.592960,0.666049,-13.800789,-34.829815,-9.377851,26.373072,49.235271,-0.774424,-0.513756,16.962219,13.545053,4.311567,0.000000,214.000000,4.000000,,,,0.000000,4.000000,4.000000,4.000000,4.000000,4.000000,4.000000,4.000000,4.000000,4.000000,4.000000,4.000000,4.000000,4.000000,4.000000,4.000000,4.000000,4.000000,4.000000,4.000000,4.000000,4.000000,4.000000,4.000000,4.000000,4.000000,4.000000,4.000000,4.000000,4.000000,4.000000,4.000000,4.000000,100.000000
1614736408.375315,30.000000,0.000000,-6.090397,9.975806,-6.193887,14.733373,7.413837,3.059767,-0.277997,3.788261,17.727816,-0.067775,-23.047598,-5.922919,-2.991689,-12.082260,-13.136742,-67.076805,-0.928034,-18.695126,-46.863392,-30.657373,-11.608008,-1.385900,-4.043399,-26.589859,1.913579,24.295416,37.903984,-1.799290,-0.513242,16.945257,21.736635,3.794435,0.000000,199.000000,4.000000,,,,0.000000,4.000000,4.000000,4.000000,4.000000,4.000000,4.000000,4.000000,4.000000,4.000000,4.000000,4.000000,4.000000,4.000000,4.000000,4.000000,4.000000,4.000000,4.000000,4.000000,4.000000,4.000000,4.000000,4.000000,4.000000,4.000000,4.000000,4.000000,4.000000,4.000000,4.000000,4.000000,4.000000,100.000000
1614736408.382964,31.000000,0.000000,-3.520205,14.581216,-3.110770,18.821203,7.919244,3.056707,3.824846,14.040883,21.299831,7.624600,-18.409164,-3.865714,-0.937415,-5.403511,-3.380015,-56.240501,3.175458,-15.086688,-27.329350,-15.754922,-10.570759,-3.948616,6.217055,-13.742756,10.116794,27.348043,21.968643,-1.284671,0.000092,20.518055,21.202078,15.072692,0.000000,195.000000,4.000000,,,,0.000000,4.000000,4.000000,4.000000,4.000000,4.000000,4.000000,4.000000,4.000000,4.000000,4.000000,4.000000,4.000000,4.000000,4.000000,4.000000,4.000000,4.000000,4.000000,4.000000,4.000000,4.000000,4.000000,4.000000,4.000000,4.000000,4.000000,4.000000,4.000000,4.000000,4.000000,4.000000,4.000000,100.000000
1614736408.390714,32.000000,0.000000,-4.542325,16.105095,-2.082019,17.776741,10.988248,3.053650,3.308200,14.539662,23.329813,6.591335,-19.929218,-4.887489,-0.936478,-4.372467,-0.299712,-50.030415,-1.443102,-6.353652,-16.532789,-14.713526,-9.021727,-3.431847,9.287761,-2.446961,9.593856,29.884798,35.280010,-4.873129,-0.512729,25.112921,22.206518,13.519157,8064.000000,0.000000,4.000000,,,,0.000000,4.000000,4.000000,4.000000,4.000000,4.000000,4.000000,4.000000,4.000000,4.000000,4.000000,4.000000,4.000000,4.000000,4.000000,4.000000,4.000000,4.000000,4.000000,4.000000,4.000000,4.000000,4.000000,4.000000,4.000000,4.000000,4.000000,4.000000,4.000000,4.000000,4.000000,4.000000,4.000000,100.000000
1614736408.398563,33.000000,0.000000,-9.153168,14.550529,-10.285065,13.143579,12.002901,3.050596,3.304892,9.396917,23.306484,0.430898,-16.832365,-4.369781,-1.448362,-5.393735,-0.299412,-40.236794,-2.467299,8.011676,-13.439333,-18.288555,-11.063987,-4.966877,7.740012,-1.418874,4.968878,29.342093,30.116524,-11.534923,-2.563498,24.574987,28.850977,6.838972,8064.000000,0.000000,4.000000,,,,0.000000,4.000000,4.000000,4.000000,4.000000,4.000000,4.000000,4.000000,4.000000,4.000000,4.000000,4.000000,4.000000,4.000000,4.000000,4.000000,4.000000,4.000000,4.000000,4.000000,4.000000,4.000000,4.000000,4.000000,4.000000,4.000000,4.000000,4.000000,4.000000,4.000000,4.000000,4.000000,4.000000,100.000000
1614736408.406312,34.000000,0.000000,-10.169656,12.484696,-16.941446,7.489410,9.939615,3.047546,2.788767,6.823418,22.770357,-1.107995,-14.764251,-4.365411,-1.446914,-5.388341,1.752169,-35.068352,-1.439191,13.644690,-7.272048,-16.731806,-10.540103,-7.526012,8.757913,-1.930275,2.399806,29.312752,5.983843,-13.574670,-4.612216,21.473490,26.770845,5.293671,8064.000000,0.000000,4.000000,,,,0.000000,4.000000,4.000000,4.000000,4.000000,4.000000,4.000000,4.000000,4.000000,4.000000,4.000000,4.000000,4.000000,4.000000,4.000000,4.000000,4.000000,4.000000,4.000000,4.000000,4.000000,4.000000,4.000000,4.000000,4.000000,4.000000,4.000000,4.000000,4.000000,4.000000,4.000000,4.000000,4.000000,100.000000
1614736408.413961,35.000000,0.000000,-9.133844,11.446570,-13.334762,5.943460,7.878394,3.044498,3.298798,8.867877,22.747587,-3.670990,-14.236666,-4.873866,-1.958287,-5.895773,2.263237,-35.033283,-1.950572,10.554122,-7.264776,-20.817638,-11.555203,-8.031307,8.749155,-1.415524,2.397406,29.283438,14.182987,-12.535455,-4.094784,20.426376,17.000484,-10.609058,8064.000000,0.000000,4.000000,,,,0.000000,4.000000,4.000000,4.000000,4.000000,4.000000,4.000000,4.000000,4.000000,4.000000,4.000000,4.000000,4.000000,4.000000,4.000000,4.000000,4.000000,4.000000,4.000000,4.000000,4.000000,4.000000,4.000000,4.000000,4.000000,4.000000,4.000000,4.000000,4.000000,4.000000,4.000000,4.000000,4.000000,100.000000
1614736408.421711,36.000000,0.000000,-9.637531,11.435124,-18.962452,4.911875,7.357695,3.041454,3.808320,10.397470,22.724838,-5.718601,-12.171147,-5.381813,-1.956329,-6.915519,1.748154,-39.100815,-4.512724,4.389721,-20.078024,-42.848103,-18.723135,-7.510455,6.689124,-14.747442,0.856547,29.254154,41.348293,-13.035740,-4.090689,21.431591,12.880919,-24.444603,8192.000000,0.000000,4.000000,,,,0.000000,4.000000,4.000000,4.000000,4.000000,4.000000,4.000000,4.000000,4.000000,4.000000,4.000000,4.000000,4.000000,4.000000,4.000000,4.000000,4.000000,4.000000,4.000000,4.000000,4.000000,4.000000,4.000000,4.000000,4.000000,4.000000,4.000000,4.000000,4.000000,4.000000,4.000000,4.000000,4.000000,100.000000
1614736408.429360,37.000000,0.000000,-10.140715,11.423689,-31.251183,1.830040,8.375978,3.038412,-1.836514,0.643483,22.702114,-3.148779,-16.261539,-6.914893,-1.441552,-11.011168,0.207944,-58.548893,-7.585135,-10.999284,-45.186150,-67.933456,-26.396721,-7.502944,7.708076,-38.835258,-4.785335,29.224901,40.794121,-13.022704,-4.086598,21.410158,10.816756,-10.574005,8064.000000,0.000000,4.000000,,,,0.000000,4.000000,4.000000,4.000000,4.000000,4.000000,4.000000,4.000000,4.000000,4.000000,4.000000,4.000000,4.000000,4.000000,4.000000,4.000000,4.000000,4.000000,4.000000,4.000000,4.000000,4.000000,4.000000,4.000000,4.000000,4.000000,4.000000,4.000000,4.000000,4.000000,4.000000,4.000000,4.000000,100.000000
1614736408.437110,38.000000,0.000000,-9.617753,11.412266,-32.245571,-3.299995,6.316320,3.035374,-7.475703,-10.639212,22.679411,-11.350759,-32.142715,-7.933619,-2.465752,-19.205284,-12.099957,-82.080086,-9.628832,-31.501104,-72.320450,-82.737320,-27.908785,-8.008263,5.649086,-51.616936,-14.524139,27.657213,19.214867,-12.496861,-4.082512,20.875927,2.600811,-10.050611,8064.000000,0.000000,4.000000,,,,0.000000,4.000000,4.000000,4.000000,4.000000,4.000000,4.000000,4.000000,4.000000,4.000000,4.000000,4.000000,4.000000,4.000000,4.000000,4.000000,4.000000,4.000000,4.000000,4.000000,4.000000,4.000000,4.000000,4.000000,4.000000,4.000000,4.000000,4.000000,4.000000,4.000000,4.000000,4.000000,4.000000,100.000000
1614736408.444759,39.000000,0.000000,-9.608135,9.862391,-37.341530,-8.937720,-4.459227,3.032339,-6.442586,-12.679854,22.656733,-26.724024,-39.802879,-9.976967,-0.924824,-22.263002,-28.498112,-93.280060,-11.157664,-41.213192,-79.940437,-90.346893,-24.803953,-7.487433,-6.151435,-45.411472,-21.689102,22.501352,16.631550,-12.484364,-3.565609,20.342232,-2.529994,-35.168766,8064.000000,0.000000,4.000000,,,,0.000000,4.000000,4.000000,4.000000,4.000000,4.000000,4.000000,4.000000,4.000000,4.000000,4.000000,4.000000,4.000000,4.000000,4.000000,4.000000,4.000000,4.000000,4.000000,4.000000,4.000000,4.000000,4.000000,4.000000,4.000000,4.000000,4.000000,4.000000,4.000000,4.000000,4.000000,4.000000,4.000000,100.000000
1614736408.452508,40.000000,0.000000,-9.598527,7.801247,-49.099060,-8.415962,-12.147076,3.029306,-5.410503,-12.154354,22.634075,-22.594736,-22.327179,-7.915708,5.742767,-11.471508,-25.905512,-88.571396,-7.043943,-25.787365,-55.245113,-72.820648,-12.471457,-5.428664,-15.888874,-24.340422,-13.462285,18.376286,38.153381,-10.420597,-4.074864,21.860352,1.062279,-34.620777,8064.000000,0.000000,4.000000,,,,0.000000,4.000000,4.000000,4.000000,4.000000,4.000000,4.000000,4.000000,4.000000,4.000000,4.000000,4.000000,4.000000,4.000000,4.000000,4.000000,4.000000,4.000000,4.000000,4.000000,4.000000,4.000000,4.000000,4.000000,4.000000,4.000000,4.000000,4.000000,4.000000,4.000000,4.000000,4.000000,4.000000,100.000000
1614736408.460158,41.000000,0.000000,-9.588929,7.280625,-32.126884,2.361684,-5.468261,3.026277,-2.840990,-7.526815,22.611443,-1.546500,0.772071,4.399900,10.352409,3.411758,-0.238581,-63.354618,3.732332,5.007653,-22.369356,-39.927315,7.541015,-3.371953,-7.667857,2.350586,10.140921,17.845089,41.192150,-5.794792,-6.634892,18.248747,6.189422,-7.919488,8064.000000,0.000000,4.000000,,,,0.000000,4.000000,4.000000,4.000000,4.000000,4.000000,4.000000,4.000000,4.000000,4.000000,4.000000,4.000000,4.000000,4.000000,4.000000,4.000000,4.000000,4.000000,4.000000,4.000000,4.000000,4.000000,4.000000,4.000000,4.000000,4.000000,4.000000,4.000000,4.000000,4.000000,4.000000,4.000000,4.000000,100.000000
1614736408.467907,42.000000,0.000000,-9.579340,7.786165,-5.428092,10.564451,6.332078,3.023251,6.905441,3.249942,23.101650,8.198637,6.925145,14.139090,9.829236,9.049372,21.812941,-31.496391,10.395267,21.925722,-3.372628,-10.656617,19.328346,-3.881402,10.801350,18.758492,21.925652,18.340065,19.099674,-3.737715,-7.653897,9.512549,6.696053,-5.860287,8064.000000,0.000000,4.000000,,,,0.000000,4.000000,4.000000,4.000000,4.000000,4.000000,4.000000,4.000000,4.000000,4.000000,4.000000,4.000000,4.000000,4.000000,4.000000,4.000000,4.000000,4.000000,4.000000,4.000000,4.000000,4.000000,4.000000,4.000000,4.000000,4.000000,4.000000,4.000000,4.000000,4.000000,4.000000,4.000000,4.000000,100.000000
1614736408.475556,43.000000,0.000000,-10.082581,7.778379,-11.576510,10.041066,8.377028,3.020227,10.488279,5.810795,21.540087,5.626336,5.892579,11.048027,8.793766,9.040322,23.842409,-20.695663,6.795127,19.852514,0.220488,-12.184422,15.206453,-3.877520,15.405932,20.278194,9.596034,17.808905,12.413909,-7.836542,-8.159064,5.400473,6.176537,-24.315966,8064.000000,0.000000,4.000000,,,,0.000000,4.000000,4.000000,4.000000,4.000000,4.000000,4.000000,4.000000,4.000000,4.000000,4.000000,4.000000,4.000000,4.000000,4.000000,4.000000,4.000000,4.000000,4.000000,4.000000,4.000000,4.000000,4.000000,4.000000,4.000000,4.000000,4.000000,4.000000,4.000000,4.000000,4.000000,4.000000,4.000000,100.000000
1614736408.483406,44.000000,0.000000,-9.046858,7.257780,-25.923908,10.543845,7.343010,3.017207,2.785483,0.676779,19.467266,3.056607,6.912327,5.908774,7.246511,9.544103,18.177542,-20.674967,1.660127,17.781380,-2.343835,-15.761981,9.037400,-3.873643,6.159758,19.232275,-3.746895,17.791096,13.427135,-12.444090,-8.663726,8.471995,6.683180,-21.727547,8064.000000,0.000000,4.000000,,,,0.000000,4.000000,4.000000,4.000000,4.000000,4.000000,4.000000,4.000000,4.000000,4.000000,4.000000,4.000000,4.000000,4.000000,4.000000,4.000000,4.000000,4.000000,4.000000,4.000000,4.000000,4.000000,4.000000,4.000000,4.000000,4.000000,4.000000,4.000000,4.000000,4.000000,4.000000,4.000000,4.000000,100.000000
1614736408.491155,45.000000,0.000000,-6.986528,8.788984,-19.744139,12.071763,9.386950,3.527010,-0.807046,0.163282,19.447798,4.079191,7.418235,6.928506,5.700802,8.508918,18.159363,-13.474806,1.145647,20.327702,-4.392773,-15.746220,6.977081,-3.869769,-1.025889,21.777145,-5.794431,18.286125,4.182940,-10.380363,-3.526857,10.514806,7.189318,-3.757101,8064.000000,0.000000,4.000000,,,,0.000000,4.000000,4.000000,4.000000,4.000000,4.000000,4.000000,4.000000,4.000000,4.000000,4.000000,4.000000,4.000000,4.000000,4.000000,4.000000,4.000000,4.000000,4.000000,4.000000,4.000000,4.000000,4.000000,4.000000,4.000000,4.000000,4.000000,4.000000,4.000000,4.000000,4.000000,4.000000,4.000000,100.000000
1614736408.498904,46.000000,0.000000,-5.441081,10.831477,-17.160292,6.418665,9.377563,3.010663,-0.806239,-0.862523,18.402710,5.100753,6.897997,5.895937,5.695102,5.423486,18.654024,-16.025433,1.657321,18.256092,-2.849919,-24.448421,5.431642,-3.865900,0.513598,20.216908,-5.275815,18.267839,19.050550,-8.831522,5.707439,12.042752,6.669308,-1.189241,8064.000000,0.000000,4.000000,,,,0.000000,4.000000,4.000000,4.000000,4.000000,4.000000,4.000000,4.000000,4.000000,4.000000,4.000000,4.000000,4.000000,4.000000,4.000000,4.000000,4.000000,4.000000,4.000000,4.000000,4.000000,4.000000,4.000000,4.000000,4.000000,4.000000,4.000000,4.000000,4.000000,4.000000,4.000000,4.000000,4.000000,100.000000
1614736408.506554,47.000000,0.000000,-5.948460,11.846287,-23.809797,-1.792881,5.265621,3.007652,-3.882356,-3.938583,15.307384,0.993088,2.788535,0.761836,5.689406,4.905241,10.943063,-32.932484,1.142844,12.596810,-7.975274,-32.629101,2.862108,-3.862034,0.513085,6.863357,-2.706437,18.249571,40.057140,-10.873972,6.727373,13.569171,6.662639,-10.418821,8064.000000,0.000000,4.000000,,,,0.000000,4.000000,4.000000,4.000000,4.000000,4.000000,4.000000,4.000000,4.000000,4.000000,4.000000,4.000000,4.000000,4.000000,4.000000,4.000000,4.000000,4.000000,4.000000,4.000000,4.000000,4.000000,4.000000,4.000000,4.000000,4.000000,4.000000,4.000000,4.000000,4.000000,4.000000,4.000000,4.000000,100.000000
1614736408.514403,48.000000,0.000000,-5.942512,11.834440,-25.837271,-0.765447,5.260355,3.517465,-2.852832,-3.421824,15.292076,-6.187392,-9.521946,-1.290208,5.683717,4.387516,2.214171,-47.771347,0.628880,7.456008,-24.890375,-35.160576,0.807964,-2.319710,-2.051531,-5.451199,3.962936,18.231321,20.529905,-3.170790,3.130902,13.555602,6.655976,-8.869941,8064.000000,0.000000,4.000000,,,,0.000000,4.000000,4.000000,4.000000,4.000000,4.000000,4.000000,4.000000,4.000000,4.000000,4.000000,4.000000,4.000000,4.000000,4.000000,4.000000,4.000000,4.000000,4.000000,4.000000,4.000000,4.000000,4.000000,4.000000,4.000000,4.000000,4.000000,4.000000,4.000000,4.000000,4.000000,4.000000,4.000000,100.000000
1614736408.522152,49.000000,0.000000,-5.936569,8.232862,-29.401176,0.260959,3.716634,0.949845,-0.285877,-6.495325,14.251143,-8.745308,-21.307297,-1.288918,6.190854,-1.770718,-3.941889,-58.492805,1.141072,1.807526,-34.609074,-40.766441,-2.782588,-0.266108,1.540264,-3.907286,3.958973,18.213091,11.791427,10.678535,3.127771,14.567687,6.649320,-7.322609,8064.000000,0.000000,4.000000,,,,0.000000,4.000000,4.000000,4.000000,4.000000,4.000000,4.000000,4.000000,4.000000,4.000000,4.000000,4.000000,4.000000,4.000000,4.000000,4.000000,4.000000,4.000000,4.000000,4.000000,4.000000,4.000000,4.000000,4.000000,4.000000,4.000000,4.000000,4.000000,4.000000,4.000000,4.000000,4.000000,4.000000,100.000000
1614736408.530001,50.000000,0.000000,-5.930632,4.122066,-37.576904,-10.508533,-7.056314,-3.666489,-6.439437,-17.770882,3.467661,-7.198101,-25.388554,-5.390193,2.594919,-13.050999,-12.143076,-69.203545,1.139931,-6.912230,-32.010365,-50.982082,-4.831087,-0.265842,9.231031,-5.954660,1.390911,18.194878,38.446301,12.719138,4.150284,17.117222,6.129850,-21.674261,8064.000000,0.000000,4.000000,,,,0.000000,4.000000,4.000000,4.000000,4.000000,4.000000,4.000000,4.000000,4.000000,4.000000,4.000000,4.000000,4.000000,4.000000,4.000000,4.000000,4.000000,4.000000,4.000000,4.000000,4.000000,4.000000,4.000000,4.000000,4.000000,4.000000,4.000000,4.000000,4.000000,4.000000,4.000000,4.000000,4.000000,100.000000
1614736408.537751,51.000000,0.000000,-5.924702,3.605123,-42.154713,-20.754435,-14.228745,-5.201284,-12.074023,-24.419777,-2.689653,-11.806287,-24.850344,-13.077110,-2.023060,-17.653332,-18.284779,-72.211266,1.138791,-13.571984,-35.568096,-52.469563,-4.826256,-0.778397,11.785903,-16.205116,4.979264,18.176682,35.330933,9.116675,3.120493,17.612925,7.662182,-29.857716,8064.000000,0.000000,4.000000,,,,0.000000,4.000000,4.000000,4.000000,4.000000,4.000000,4.000000,4.000000,4.000000,4.000000,4.000000,4.000000,4.000000,4.000000,4.000000,4.000000,4.000000,4.000000,4.000000,4.000000,4.000000,4.000000,4.000000,4.000000,4.000000,4.000000,4.000000,4.000000,4.000000,4.000000,4.000000,4.000000,4.000000,100.000000
1614736408.545600,52.000000,0.000000,-5.918777,4.114338,-39.548454,-15.605474,-11.650414,-4.683263,-7.959385,-19.779972,3.466883,-16.409866,-23.287031,-11.525572,-2.021037,-14.045935,-16.728033,-71.626236,1.137652,-11.507131,-36.045349,-36.519657,-4.308609,-0.264798,10.235656,-11.573526,9.589669,18.158504,17.859705,9.620378,3.117373,17.082491,10.218622,-21.622728,8064.000000,0.000000,4.000000,,,,0.000000,4.000000,4.000000,4.000000,4.000000,4.000000,4.000000,4.000000,4.000000,4.000000,4.000000,4.000000,4.000000,4.000000,4.000000,4.000000,4.000000,4.000000,4.000000,4.000000,4.000000,4.000000,4.000000,4.000000,4.000000,4.000000,4.000000,4.000000,4.000000,4.000000,4.000000,4.000000,4.000000,100.000000
1614736408.553349,53.000000,0.000000,-5.912858,4.110224,-33.355061,-4.820639,-11.125942,-3.652938,-3.336041,-12.067884,9.104442,-11.265250,-18.135540,-5.360200,-2.019016,-11.467787,-7.480535,-72.067429,1.136514,-7.905879,-20.111868,-15.970318,-4.817121,-0.264533,13.302343,5.873945,9.580080,18.140347,34.252102,7.559476,3.114255,17.065409,10.721224,-16.472900,8064.000000,0.000000,4.000000,,,,0.000000,4.000000,4.000000,4.000000,4.000000,4.000000,4.000000,4.000000,4.000000,4.000000,4.000000,4.000000,4.000000,4.000000,4.000000,4.000000,4.000000,4.000000,4.000000,4.000000,4.000000,4.000000,4.000000,4.000000,4.000000,4.000000,4.000000,4.000000,4.000000,4.000000,4.000000,4.000000,4.000000,100.000000
1614736408.561199,54.000000,0.000000,-5.906945,3.593293,-29.219139,-3.790177,-7.525073,0.453279,-4.871167,-8.466073,8.069696,-7.151421,-7.348174,-5.354840,-2.016997,-8.892216,4.321817,-59.174847,1.135378,-4.821051,-6.245602,-7.236399,-4.299483,-0.777089,18.417246,12.534738,9.057679,18.122206,34.217850,2.936532,3.111141,15.509882,10.197682,-19.533352,8064.000000,0.000000,4.000000,,,,0.000000,4.000000,4.000000,4.000000,4.000000,4.000000,4.000000,4.000000,4.000000,4.000000,4.000000,4.000000,4.000000,4.000000,4.000000,4.000000,4.000000,4.000000,4.000000,4.000000,4.000000,4.000000,4.000000,4.000000,4.000000,4.000000,4.000000,4.000000,4.000000,4.000000,4.000000,4.000000,4.000000,100.000000
1614736408.568948,55.000000,0.000000,-6.413859,4.102520,-28.164280,-5.324848,1.713221,3.529748,-4.866295,-7.431966,7.035985,-8.169910,6.505329,-4.323844,3.626046,-0.678196,14.061085,-32.449005,1.134243,7.491463,-4.188074,-8.767624,-4.295184,-0.263491,18.911650,13.035023,9.561442,18.104084,7.516964,1.907955,3.108030,13.955911,10.187485,-20.026638,8192.000000,0.000000,4.000000,,,,0.000000,4.000000,4.000000,4.000000,4.000000,4.000000,4.000000,4.000000,4.000000,4.000000,4.000000,4.000000,4.000000,4.000000,4.000000,4.000000,4.000000,4.000000,4.000000,4.000000,4.000000,4.000000,4.000000,4.000000,4.000000,4.000000,4.000000,4.000000,4.000000,4.000000,4.000000,4.000000,4.000000,100.000000
1614736408.576797,56.000000,0.000000,-5.894625,4.098418,-20.443808,-3.268241,1.711508,3.013398,-1.784506,-7.937355,9.080232,-1.495074,13.165490,3.372787,9.263445,5.476329,17.636768,-14.980659,1.133108,20.304483,-1.106963,-7.733215,-4.290889,1.788054,17.867096,17.124552,9.039060,18.085979,18.278679,-0.658056,3.104922,12.403494,10.690118,-21.032253,8064.000000,0.000000,4.000000,,,,0.000000,4.000000,4.000000,4.000000,4.000000,4.000000,4.000000,4.000000,4.000000,4.000000,4.000000,4.000000,4.000000,4.000000,4.000000,4.000000,4.000000,4.000000,4.000000,4.000000,4.000000,4.000000,4.000000,4.000000,4.000000,4.000000,4.000000,4.000000,4.000000,4.000000,4.000000,4.000000,4.000000,100.000000
1614736408.584546,57.000000,0.000000,-3.324627,4.094319,-16.320801,-4.803434,-6.495332,3.010385,-0.244260,-6.903777,8.558331,6.198729,14.177965,7.984799,10.279823,5.470852,17.619131,-12.914395,1.131975,22.848282,6.586452,-8.238302,-4.799418,3.324728,17.849230,19.158710,9.542842,18.067894,45.439888,-1.683039,3.101817,13.929552,10.166607,-18.447119,8064.000000,0.000000,4.000000,,,,0.000000,4.000000,4.000000,4.000000,4.000000,4.000000,4.000000,4.000000,4.000000,4.000000,4.000000,4.000000,4.000000,4.000000,4.000000,4.000000,4.000000,4.000000,4.000000,4.000000,4.000000,4.000000,4.000000,4.000000,4.000000,4.000000,4.000000,4.000000,4.000000,4.000000,4.000000,4.000000,4.000000,100.000000
1614736408.592396,58.000000,0.000000,-1.782841,4.090225,-32.201916,-11.465298,-7.001657,3.520195,-0.756836,-6.896873,4.447208,-6.627983,15.189428,4.899891,9.243902,5.465382,15.037409,-12.388660,1.643664,21.799793,6.579865,-17.460833,-4.281798,2.808582,18.857021,17.088268,9.533298,18.049826,30.522652,2.934029,3.098715,16.479725,10.156441,-14.326107,8192.000000,0.000000,4.000000,,,,0.000000,4.000000,4.000000,4.000000,4.000000,4.000000,4.000000,4.000000,4.000000,4.000000,4.000000,4.000000,4.000000,4.000000,4.000000,4.000000,4.000000,4.000000,4.000000,4.000000,4.000000,4.000000,4.000000,4.000000,4.000000,4.000000,4.000000,4.000000,4.000000,4.000000,4.000000,4.000000,4.000000,100.000000
1614736408.600145,59.000000,0.000000,-2.293879,4.086135,-47.041508,-15.556396,-5.969014,3.003854,-0.756080,-11.505361,0.340197,-28.159817,9.020393,2.330889,8.721838,4.947095,9.381346,-17.504477,-0.409262,19.213890,-7.785689,-35.904911,-4.277517,3.318594,17.299702,10.917335,3.369919,18.031776,3.825462,3.956736,2.582796,14.411963,9.633464,-28.157934,8064.000000,0.000000,4.000000,,,,0.000000,4.000000,4.000000,4.000000,4.000000,4.000000,4.000000,4.000000,4.000000,4.000000,4.000000,4.000000,4.000000,4.000000,4.000000,4.000000,4.000000,4.000000,4.000000,4.000000,4.000000,4.000000,4.000000,4.000000,4.000000,4.000000,4.000000,4.000000,4.000000,4.000000,4.000000,4.000000,4.000000,100.000000
1614736408.607994,60.000000,0.000000,-2.291585,4.594869,-43.917542,-16.053661,-9.552789,3.000850,-0.755323,-14.570778,0.339857,-30.182940,-7.911705,2.841379,6.149013,0.326764,4.243760,-34.410049,-2.972955,9.451087,-26.239443,-52.792084,-5.298880,3.315276,11.128556,-3.452557,-1.761656,18.013744,11.001124,-1.175426,3.093034,10.294987,9.111010,-38.386189,8064.000000,0.000000,4.000000,,,,0.000000,4.000000,4.000000,4.000000,4.000000,4.000000,4.000000,4.000000,4.000000,4.000000,4.000000,4.000000,4.000000,4.000000,4.000000,4.000000,4.000000,4.000000,4.000000,4.000000,4.000000,4.000000,4.000000,4.000000,4.000000,4.000000,4.000000,4.000000,4.000000,4.000000,4.000000,4.000000,4.000000,100.000000
1614736408.615743,61.000000,0.000000,-2.289293,4.077454,-39.258240,-14.499146,-6.979134,2.997849,-0.754568,-6.863900,0.852338,-16.819422,-18.160202,2.838537,5.117223,-2.750486,2.188234,-49.247433,-2.969982,2.262149,-32.879868,-60.944420,-3.755120,2.286319,5.989223,-11.654233,-1.247074,17.995731,25.861917,-2.712712,5.654043,11.823153,8.589078,-17.322161,8064.000000,0.000000,4.000000,,,,0.000000,4.000000,4.000000,4.000000,4.000000,4.000000,4.000000,4.000000,4.000000,4.000000,4.000000,4.000000,4.000000,4.000000,4.000000,4.000000,4.000000,4.000000,4.000000,4.000000,4.000000,4.000000,4.000000,4.000000,4.000000,4.000000,4.000000,4.000000,4.000000,4.000000,4.000000,4.000000,4.000000,100.000000
1614736408.623593,62.000000,0.000000,-2.287004,2.022094,-38.193340,-7.817980,0.207333,2.994852,-0.753814,0.322451,0.338665,-9.623116,-17.116402,2.835699,5.624927,-2.747736,-1.403698,-53.300751,-2.454192,1.747066,-32.334167,-63.447578,0.864020,4.848135,6.496054,-11.642578,-2.784288,18.490557,19.169390,-1.171538,7.186851,12.324151,6.016387,-8.074068,8064.000000,0.000000,4.000000,,,,0.000000,4.000000,4.000000,4.000000,4.000000,4.000000,4.000000,4.000000,4.000000,4.000000,4.000000,4.000000,4.000000,4.000000,4.000000,4.000000,4.000000,4.000000,4.000000,4.000000,4.000000,4.000000,4.000000,4.000000,4.000000,4.000000,4.000000,4.000000,4.000000,4.000000,4.000000,4.000000,4.000000,100.000000
1614736408.631342,63.000000,0.000000,-2.284717,0.481611,-30.975662,-1.143495,1.745587,2.991857,-0.753060,0.322129,0.338326,-7.562211,-17.612106,2.320043,5.619302,-2.232167,-2.427935,-50.683350,-2.964558,1.745319,-33.840298,-52.614899,2.914438,11.509954,9.053660,-15.733500,1.833881,17.959246,20.175861,-1.170366,6.666843,10.773365,8.061652,-30.117277,8064.000000,0.000000,4.000000,,,,0.000000,4.000000,4.000000,4.000000,4.000000,4.000000,4.000000,4.000000,4.000000,4.000000,4.000000,4.000000,4.000000,4.000000,4.000000,4.000000,4.000000,4.000000,4.000000,4.000000,4.000000,4.000000,4.000000,4.000000,4.000000,4.000000,4.000000,4.000000,4.000000,4.000000,4.000000,4.000000,4.000000,100.000000
1614736408.638991,64.000000,0.000000,-2.282432,-0.031691,-27.867764,0.396110,1.743842,2.988865,-0.752307,0.834627,0.850808,-2.939264,-14.004750,2.317723,5.613682,-2.742756,6.292441,-42.940357,-2.448773,4.820497,-23.037226,-28.459721,4.449985,15.088188,10.070248,-9.563920,18.755123,18.454105,48.873634,-1.682016,6.660176,14.352335,23.438206,-28.035877,0.000000,195.000000,4.000000,,,,0.000000,4.000000,4.000000,4.000000,4.000000,4.000000,4.000000,4.000000,4.000000,4.000000,4.000000,4.000000,4.000000,4.000000,4.000000,4.000000,4.000000,4.000000,4.000000,4.000000,4.000000,4.000000,4.000000,4.000000,4.000000,4.000000,4.000000,4.000000,4.000000,4.000000,4.000000,4.000000,4.000000,100.000000
1614736408.646741,65.000000,0.000000,-2.280150,0.481161,-36.045025,0.908534,0.716457,2.985876,-0.751554,-0.704669,0.849958,-1.910684,-4.247156,3.341046,5.608068,-2.227192,13.978456,-35.717930,-0.395042,11.995163,-6.603931,-17.149208,10.086560,14.560279,11.085819,8.394361,22.326113,19.461292,59.593990,-1.680334,7.166337,17.927727,28.542973,-2.879636,0.000000,209.000000,4.000000,,,,0.000000,4.000000,4.000000,4.000000,4.000000,4.000000,4.000000,4.000000,4.000000,4.000000,4.000000,4.000000,4.000000,4.000000,4.000000,4.000000,4.000000,4.000000,4.000000,4.000000,4.000000,4.000000,4.000000,4.000000,4.000000,4.000000,4.000000,4.000000,4.000000,4.000000,4.000000,4.000000,4.000000,100.000000
1614736408.654390,66.000000,0.000000,-2.277870,0.480680,-43.188465,-3.707759,-6.976567,2.982890,-0.750803,-9.934733,0.849108,-11.652363,-0.653165,0.260782,5.602460,-2.224965,6.272171,-35.682213,1.143814,14.547271,-6.084507,-27.901291,10.076474,14.032898,11.587554,8.898787,1.790966,14.313626,28.765165,-1.165834,6.646350,14.832875,3.899045,-14.671628,0.000000,178.000000,4.000000,,,,0.000000,4.000000,4.000000,4.000000,4.000000,4.000000,4.000000,4.000000,4.000000,4.000000,4.000000,4.000000,4.000000,4.000000,4.000000,4.000000,4.000000,4.000000,4.000000,4.000000,4.000000,4.000000,4.000000,4.000000,4.000000,4.000000,4.000000,4.000000,4.000000,4.000000,4.000000,4.000000,4.000000,100.000000
1614736408.662139,67.000000,0.000000,-2.275592,-0.032622,-43.145275,-13.447640,-10.046514,2.467087,-0.750052,-16.078646,0.848259,-21.897121,-1.165332,-5.380505,5.596858,-2.222740,-2.452050,-36.672169,2.681132,14.019903,-12.232268,-37.616978,6.476654,14.531686,5.934940,1.710402,-13.082621,5.581364,11.300504,-1.164668,6.639703,13.279581,-13.027931,-45.939007,0.000000,196.000000,4.000000,,,,0.000000,4.000000,4.000000,4.000000,4.000000,4.000000,4.000000,4.000000,4.000000,4.000000,4.000000,4.000000,4.000000,4.000000,4.000000,4.000000,4.000000,4.000000,4.000000,4.000000,4.000000,4.000000,4.000000,4.000000,4.000000,4.000000,4.000000,4.000000,4.000000,4.000000,4.000000,4.000000,4.000000,100.000000
1614736408.669789,68.000000,0.000000,-2.273316,0.480232,-41.050850,-15.998296,-6.959544,2.464620,-0.749302,-15.036925,0.847410,-22.900864,-0.651346,-4.862304,5.591261,-2.220517,-1.936778,-34.071396,4.729733,13.493062,-11.707216,-35.528080,8.521460,14.517154,0.287980,8.888179,-12.556717,3.011680,21.545614,-5.266067,6.633064,13.266302,-1.220031,-46.918709,0.000000,197.000000,4.000000,,,,0.000000,4.000000,4.000000,4.000000,4.000000,4.000000,4.000000,4.000000,4.000000,4.000000,4.000000,4.000000,4.000000,4.000000,4.000000,4.000000,4.000000,4.000000,4.000000,4.000000,4.000000,4.000000,4.000000,4.000000,4.000000,4.000000,4.000000,4.000000,4.000000,4.000000,4.000000,4.000000,4.000000,100.000000
1614736408.677538,69.000000,0.000000,-2.271043,0.479751,-41.009800,-13.931015,-10.542329,3.487796,-0.748553,-13.996247,0.846563,-21.339502,-3.214797,-5.370262,5.585670,-2.218297,-2.447662,-36.601425,5.237824,11.428288,-15.798073,-38.569473,3.384733,10.912893,-0.225129,8.879291,-13.056981,3.008669,14.857401,-8.850545,5.087969,9.150472,-1.218811,-35.589741,0.000000,178.000000,4.000000,,,,0.000000,4.000000,4.000000,4.000000,4.000000,4.000000,4.000000,4.000000,4.000000,4.000000,4.000000,4.000000,4.000000,4.000000,4.000000,4.000000,4.000000,4.000000,4.000000,4.000000,4.000000,4.000000,4.000000,4.000000,4.000000,4.000000,4.000000,4.000000,4.000000,4.000000,4.000000,4.000000,4.000000,100.000000
1614736408.685188,70.000000,0.000000,-2.781592,-0.033549,-44.558533,-17.506828,-18.224094,2.458667,-0.747804,-15.520713,0.845716,-24.907906,-7.826967,-9.467456,5.580084,-2.216079,-6.034957,-43.744312,4.719765,9.878398,-28.602787,-49.300137,-10.977626,5.260955,-2.789006,-7.539845,-17.659309,-0.584084,2.534851,-9.867335,1.493138,5.038757,-18.653490,-39.143894,0.000000,199.000000,4.000000,,,,0.000000,4.000000,4.000000,4.000000,4.000000,4.000000,4.000000,4.000000,4.000000,4.000000,4.000000,4.000000,4.000000,4.000000,4.000000,4.000000,4.000000,4.000000,4.000000,4.000000,4.000000,4.000000,4.000000,4.000000,4.000000,4.000000,4.000000,4.000000,4.000000,4.000000,4.000000,4.000000,4.000000,100.000000
1614736408.692937,71.000000,0.000000,-2.265990,0.479305,-38.872948,-17.489321,-17.180229,2.456209,-0.747056,-14.479550,1.357691,-26.421459,-9.357602,-5.355424,5.574504,-2.213862,-7.567384,-47.803131,4.715045,8.842878,-34.215210,-57.968784,-17.633316,3.717232,-10.478525,-17.275896,-19.180111,-0.583500,14.327188,-9.344647,-1.072458,4.008077,-12.993811,-38.591930,0.000000,183.000000,4.000000,,,,0.000000,4.000000,4.000000,4.000000,4.000000,4.000000,4.000000,4.000000,4.000000,4.000000,4.000000,4.000000,4.000000,4.000000,4.000000,4.000000,4.000000,4.000000,4.000000,4.000000,4.000000,4.000000,4.000000,4.000000,4.000000,4.000000,4.000000,4.000000,4.000000,4.000000,4.000000,4.000000,4.000000,100.000000
1614736408.700586,72.000000,0.000000,-0.725263,2.530108,-24.475101,-7.728242,-13.573305,9.120420,-0.746309,-10.875328,3.920436,-20.241192,-12.937988,4.393521,5.568930,-3.237290,-7.046996,-48.780972,4.710330,7.808394,-34.180996,-70.218506,-14.025938,5.251976,-13.032149,-16.232979,-16.596828,2.494007,19.953886,-6.771200,-1.071386,6.055351,4.967901,-29.835388,0.000000,168.000000,4.000000,,,,0.000000,4.000000,4.000000,4.000000,4.000000,4.000000,4.000000,4.000000,4.000000,4.000000,4.000000,4.000000,4.000000,4.000000,4.000000,4.000000,4.000000,4.000000,4.000000,4.000000,4.000000,4.000000,4.000000,4.000000,4.000000,4.000000,4.000000,4.000000,4.000000,4.000000,4.000000,4.000000,4.000000,100.000000
1614736408.708336,73.000000,0.000000,1.326744,4.578860,-32.142933,-4.130770,-13.559731,13.726684,-0.745563,-7.274709,4.942157,-14.067104,-16.514793,5.414769,5.563361,-2.721232,-5.501488,-51.809113,4.705620,6.262124,-39.787838,-87.584190,-12.473451,6.272366,-9.429373,-15.191105,-14.016129,0.440231,4.036497,-5.225967,-1.070314,6.049295,8.039856,-36.985039,0.000000,189.000000,4.000000,,,,0.000000,4.000000,4.000000,4.000000,4.000000,4.000000,4.000000,4.000000,4.000000,4.000000,4.000000,4.000000,4.000000,4.000000,4.000000,4.000000,4.000000,4.000000,4.000000,4.000000,4.000000,4.000000,4.000000,4.000000,4.000000,4.000000,4.000000,4.000000,4.000000,4.000000,4.000000,4.000000,4.000000,100.000000
1614736408.715985,74.000000,0.000000,1.325418,4.061460,-54.674892,-11.306127,-14.571813,8.071931,-0.744817,-8.293075,2.373112,-14.053038,-17.523920,1.819610,5.557797,-2.205690,-7.034448,-55.859867,4.700915,0.614837,-50.517284,-92.624809,-10.922516,6.266093,-8.907124,-16.714375,-17.591856,-0.073030,7.109384,-6.759203,-1.069244,2.966323,5.467714,-46.178825,0.000000,197.000000,4.000000,,,,0.000000,4.000000,4.000000,4.000000,4.000000,4.000000,4.000000,4.000000,4.000000,4.000000,4.000000,4.000000,4.000000,4.000000,4.000000,4.000000,4.000000,4.000000,4.000000,4.000000,4.000000,4.000000,4.000000,4.000000,4.000000,4.000000,4.000000,4.000000,4.000000,4.000000,4.000000,4.000000,4.000000,100.000000
1614736408.723734,75.000000,0.000000,0.811272,4.057399,-51.030476,-16.423025,-14.044420,1.910013,-0.744073,-10.848885,0.319457,-17.115908,-19.557678,1.817791,4.013778,-4.767587,-7.540234,-57.855289,4.183393,-4.513983,-50.466766,-72.532181,-7.321850,5.234186,-9.411036,-17.723301,-16.035803,4.029607,38.384327,-2.649880,-0.555354,8.604383,5.975067,-32.286491,0.000000,170.000000,4.000000,,,,0.000000,4.000000,4.000000,4.000000,4.000000,4.000000,4.000000,4.000000,4.000000,4.000000,4.000000,4.000000,4.000000,4.000000,4.000000,4.000000,4.000000,4.000000,4.000000,4.000000,4.000000,4.000000,4.000000,4.000000,4.000000,4.000000,4.000000,4.000000,4.000000,4.000000,4.000000,4.000000,4.000000,100.000000
1614736408.731384,76.000000,0.000000,1.323281,4.053341,-35.082008,-15.893782,-13.004735,2.933744,-1.256149,-11.350856,0.319137,-14.534689,-12.358633,2.328793,5.548226,-1.173076,4.774999,-49.079487,4.179210,9.849504,-26.826555,-39.639137,4.993165,7.280234,-1.196497,-2.833783,5.518694,6.589680,57.833122,9.660462,2.009304,25.518854,6.994733,-23.023436,0.000000,203.000000,4.000000,,,,0.000000,4.000000,4.000000,4.000000,4.000000,4.000000,4.000000,4.000000,4.000000,4.000000,4.000000,4.000000,4.000000,4.000000,4.000000,4.000000,4.000000,4.000000,4.000000,4.000000,4.000000,4.000000,4.000000,4.000000,4.000000,4.000000,4.000000,4.000000,4.000000,4.000000,4.000000,4.000000,4.000000,100.000000
1614736408.739133,77.000000,0.000000,1.321958,4.049288,-37.611031,-11.775324,-14.017371,3.443631,-0.742072,-11.339505,0.318818,-5.802206,10.217828,2.326464,9.132421,11.648610,23.744583,-23.902201,4.687851,34.455040,6.020784,-6.778986,27.552275,14.452441,16.240597,29.989563,27.051638,11.711296,48.544518,17.343109,5.084218,32.160004,15.192866,-33.769642,0.000000,197.000000,4.000000,,,,0.000000,4.000000,4.000000,4.000000,4.000000,4.000000,4.000000,4.000000,4.000000,4.000000,4.000000,4.000000,4.000000,4.000000,4.000000,4.000000,4.000000,4.000000,4.000000,4.000000,4.000000,4.000000,4.000000,4.000000,4.000000,4.000000,4.000000,4.000000,4.000000,4.000000,4.000000,4.000000,4.000000,100.000000
1614736408.746783,78.000000,0.000000,0.807815,4.045239,-34.496494,-5.096882,-14.516174,2.414546,-1.254151,-8.764063,1.856961,-4.257942,21.489662,1.811317,7.584827,18.816448,29.361864,0.737086,4.170343,40.061611,27.553225,12.202151,40.345234,23.155937,34.685894,50.985214,29.075869,20.417534,36.701103,17.325768,6.617595,24.948355,23.895622,-24.505104,0.000000,186.000000,4.000000,,,,0.000000,4.000000,4.000000,4.000000,4.000000,4.000000,4.000000,4.000000,4.000000,4.000000,4.000000,4.000000,4.000000,4.000000,4.000000,4.000000,4.000000,4.000000,4.000000,4.000000,4.000000,4.000000,4.000000,4.000000,4.000000,4.000000,4.000000,4.000000,4.000000,4.000000,4.000000,4.000000,4.000000,100.000000
1614736408.754632,79.000000,0.000000,1.832649,4.041193,-18.051743,2.600522,-6.809350,2.412132,-1.252897,-5.678376,4.932027,-3.228043,21.468172,2.835147,9.628525,16.233530,28.819681,11.505580,7.243095,41.047192,39.320545,14.241232,41.843349,25.184063,45.420441,54.523972,29.046791,22.961218,48.972092,17.308441,6.610977,23.384945,24.897367,2.186067,0.000000,193.000000,4.000000,,,,0.000000,4.000000,4.000000,4.000000,4.000000,4.000000,4.000000,4.000000,4.000000,4.000000,4.000000,4.000000,4.000000,4.000000,4.000000,4.000000,4.000000,4.000000,4.000000,4.000000,4.000000,4.000000,4.000000,4.000000,4.000000,4.000000,4.000000,4.000000,4.000000,4.000000,4.000000,4.000000,4.000000,100.000000
1614736408.762381,80.000000,0.000000,4.394918,4.037153,-10.854203,9.264588,2.941048,2.922540,2.338100,-2.082954,11.593761,14.211082,35.805679,11.037440,25.003511,22.883963,36.995991,21.237663,17.492262,58.442039,51.076096,15.252631,51.545097,25.158880,48.964764,62.161758,38.761333,21.912617,65.846199,19.855234,6.604366,27.976946,27.436573,4.235163,0.000000,202.000000,4.000000,,,,0.000000,4.000000,4.000000,4.000000,4.000000,4.000000,4.000000,4.000000,4.000000,4.000000,4.000000,4.000000,4.000000,4.000000,4.000000,4.000000,4.000000,4.000000,4.000000,4.000000,4.000000,4.000000,4.000000,4.000000,4.000000,4.000000,4.000000,4.000000,4.000000,4.000000,4.000000,4.000000,4.000000,100.000000
1614736408.770230,81.000000,0.000000,5.416164,4.033115,-8.792067,12.332247,6.527851,2.919617,6.951146,2.534513,18.761656,25.991743,48.077564,20.257172,35.234917,35.681591,43.625660,27.370272,24.654257,61.460522,47.948097,8.570712,52.519192,26.159361,53.018360,63.638058,36.671291,22.403524,57.062405,21.886662,6.597762,28.461788,29.460419,-10.128046,0.000000,208.000000,4.000000,,,,0.000000,4.000000,4.000000,4.000000,4.000000,4.000000,4.000000,4.000000,4.000000,4.000000,4.000000,4.000000,4.000000,4.000000,4.000000,4.000000,4.000000,4.000000,4.000000,4.000000,4.000000,4.000000,4.000000,4.000000,4.000000,4.000000,4.000000,4.000000,4.000000,4.000000,4.000000,4.000000,4.000000,100.000000
1614736408.777980,82.000000,0.000000,4.897928,3.516262,-14.424300,11.807095,5.495682,2.916698,6.944195,4.583261,17.204432,15.709341,36.234615,21.775377,29.045837,30.004885,37.428188,14.009569,20.014219,39.347778,25.336044,-15.027602,28.364109,22.543459,46.811497,41.523136,17.660261,21.355480,34.954060,17.762211,6.591164,27.407686,22.251471,-13.707662,0.000000,209.000000,4.000000,,,,0.000000,4.000000,4.000000,4.000000,4.000000,4.000000,4.000000,4.000000,4.000000,4.000000,4.000000,4.000000,4.000000,4.000000,4.000000,4.000000,4.000000,4.000000,4.000000,4.000000,4.000000,4.000000,4.000000,4.000000,4.000000,4.000000,4.000000,4.000000,4.000000,4.000000,4.000000,4.000000,4.000000,100.000000
1614736408.785829,83.000000,0.000000,4.893030,4.538386,-34.409878,11.795287,4.464545,2.913781,6.424430,5.091498,8.982100,7.488503,14.147099,12.522832,23.888586,5.872315,19.442043,-14.209569,10.763435,21.359713,-3.407240,-47.320267,5.771643,15.341428,25.226225,10.712382,3.796447,21.846945,24.662695,6.975218,6.584573,26.867458,17.101013,-9.078569,0.000000,177.000000,4.000000,,,,0.000000,4.000000,4.000000,4.000000,4.000000,4.000000,4.000000,4.000000,4.000000,4.000000,4.000000,4.000000,4.000000,4.000000,4.000000,4.000000,4.000000,4.000000,4.000000,4.000000,4.000000,4.000000,4.000000,4.000000,4.000000,4.000000,4.000000,4.000000,4.000000,4.000000,4.000000,4.000000,4.000000,100.000000
1614736408.793578,84.000000,0.000000,4.888137,7.097950,-37.452389,6.142466,5.998542,2.910867,6.930827,3.547945,7.947476,1.327169,-8.943972,-2.361486,18.736492,-13.620736,-8.269707,-46.503052,2.034723,3.389635,-30.583321,-78.555000,-3.977718,9.685061,7.765100,-14.426535,3.279830,22.850739,32.330338,0.301576,6.577988,28.379051,17.596733,-10.095132,0.000000,201.000000,4.000000,,,,0.000000,4.000000,4.000000,4.000000,4.000000,4.000000,4.000000,4.000000,4.000000,4.000000,4.000000,4.000000,4.000000,4.000000,4.000000,4.000000,4.000000,4.000000,4.000000,4.000000,4.000000,4.000000,4.000000,4.000000,4.000000,4.000000,4.000000,4.000000,4.000000,4.000000,4.000000,4.000000,4.000000,100.000000
1614736408.801427,85.000000,0.000000,4.883249,8.116494,-24.594423,-10.786754,5.479723,2.907956,6.923896,-3.122269,8.965170,-27.904928,-35.088875,-15.179637,5.897243,-23.350706,-36.979385,-78.764244,-5.659619,-26.357344,-55.168121,-99.502083,-14.230151,6.598453,0.577848,-34.412109,1.225268,15.135580,47.682625,0.814095,6.571410,26.812212,10.912470,-27.520935,0.000000,216.000000,4.000000,,,,0.000000,4.000000,4.000000,4.000000,4.000000,4.000000,4.000000,4.000000,4.000000,4.000000,4.000000,4.000000,4.000000,4.000000,4.000000,4.000000,4.000000,4.000000,4.000000,4.000000,4.000000,4.000000,4.000000,4.000000,4.000000,4.000000,4.000000,4.000000,4.000000,4.000000,4.000000,4.000000,4.000000,100.000000
1614736408.809177,86.000000,0.000000,4.878366,5.544275,-35.851879,-24.622120,-4.782166,2.905048,5.378510,-12.862737,1.776717,-53.518047,-50.438400,-21.318304,0.250320,-28.455561,-48.224457,-92.531631,-8.218062,-37.613037,-64.343719,-99.915405,-17.805664,5.566213,-6.089396,-42.070004,-6.468265,6.915316,40.968273,4.915845,6.052019,18.067451,1.670788,-43.390850,0.000000,200.000000,4.000000,,,,0.000000,4.000000,4.000000,4.000000,4.000000,4.000000,4.000000,4.000000,4.000000,4.000000,4.000000,4.000000,4.000000,4.000000,4.000000,4.000000,4.000000,4.000000,4.000000,4.000000,4.000000,4.000000,4.000000,4.000000,4.000000,4.000000,4.000000,4.000000,4.000000,4.000000,4.000000,4.000000,4.000000,100.000000
1614736408.817026,87.000000,0.000000,4.873487,4.000269,-57.867310,-27.674421,-16.572256,2.902143,1.783388,-17.978079,-6.430188,-40.644016,-41.157192,-20.271345,3.839813,-19.196335,-30.740335,-75.516022,-4.107280,-20.652348,-53.510147,-80.841125,-8.044269,8.124749,-3.519204,-30.745882,-5.948976,9.472504,22.978588,12.090417,6.558787,12.408358,1.156297,-30.526945,0.000000,199.000000,4.000000,,,,0.000000,4.000000,4.000000,4.000000,4.000000,4.000000,4.000000,4.000000,4.000000,4.000000,4.000000,4.000000,4.000000,4.000000,4.000000,4.000000,4.000000,4.000000,4.000000,4.000000,4.000000,4.000000,4.000000,4.000000,4.000000,4.000000,4.000000,4.000000,4.000000,4.000000,4.000000,4.000000,4.000000,100.000000
1614736408.824775,88.000000,0.000000,4.868614,3.996269,-55.758163,-26.108286,-16.555683,2.899241,-0.782498,-17.960102,-7.449399,-13.936707,-18.039112,-14.097227,5.374435,-0.715600,-3.530108,-51.337940,-0.000609,-5.759901,-34.482277,-56.657722,1.707365,12.732010,8.792007,-11.740778,2.774922,11.001493,39.878689,17.719351,9.629151,18.549795,2.693602,-23.316931,0.000000,200.000000,4.000000,,,,0.000000,4.000000,4.000000,4.000000,4.000000,4.000000,4.000000,4.000000,4.000000,4.000000,4.000000,4.000000,4.000000,4.000000,4.000000,4.000000,4.000000,4.000000,4.000000,4.000000,4.000000,4.000000,4.000000,4.000000,4.000000,4.000000,4.000000,4.000000,4.000000,4.000000,4.000000,4.000000,4.000000,100.000000
1614736408.832624,89.000000,0.000000,4.863745,2.453811,-48.010098,-26.594997,-13.462205,2.896342,-0.781715,-18.967783,-6.416308,-10.845847,-2.123637,-9.980566,4.343420,6.464602,8.268293,-36.927631,1.025033,-0.113115,-22.652924,-41.216450,5.295401,14.770559,14.937061,-3.523909,9.438813,0.734081,58.813168,15.650351,10.645164,20.069708,1.665268,-48.421822,0.000000,200.000000,4.000000,,,,0.000000,4.000000,4.000000,4.000000,4.000000,4.000000,4.000000,4.000000,4.000000,4.000000,4.000000,4.000000,4.000000,4.000000,4.000000,4.000000,4.000000,4.000000,4.000000,4.000000,4.000000,4.000000,4.000000,4.000000,4.000000,4.000000,4.000000,4.000000,4.000000,4.000000,4.000000,4.000000,4.000000,100.000000
1614736408.840374,90.000000,0.000000,4.858881,-0.112746,-50.013367,-28.106865,-13.961563,2.893446,-1.293754,-19.461636,-6.922712,-17.501667,-1.608693,-8.432123,4.851897,4.919676,9.798487,-26.121471,1.024008,3.989562,-22.630272,-37.585491,6.315747,13.730148,13.896483,-4.033206,8.916554,-6.446141,29.010765,13.070598,7.557595,9.793227,2.176423,-58.116989,0.000000,214.000000,4.000000,,,,0.000000,4.000000,4.000000,4.000000,4.000000,4.000000,4.000000,4.000000,4.000000,4.000000,4.000000,4.000000,4.000000,4.000000,4.000000,4.000000,4.000000,4.000000,4.000000,4.000000,4.000000,4.000000,4.000000,4.000000,4.000000,4.000000,4.000000,4.000000,4.000000,4.000000,4.000000,4.000000,4.000000,100.000000
1614736408.848023,91.000000,0.000000,5.366843,-0.112633,-47.912071,-22.950552,-13.947602,2.890552,-0.779640,-12.262686,-6.915790,-9.279037,0.444198,-2.269845,5.359865,9.017321,16.968176,-17.890221,1.022984,7.575316,-20.043539,-38.060726,6.822252,13.203597,13.882586,0.073392,8.394817,-4.388412,2.827908,13.570347,6.011576,4.655229,1.661426,-38.571690,0.000000,189.000000,4.000000,,,,0.000000,4.000000,4.000000,4.000000,4.000000,4.000000,4.000000,4.000000,4.000000,4.000000,4.000000,4.000000,4.000000,4.000000,4.000000,4.000000,4.000000,4.000000,4.000000,4.000000,4.000000,4.000000,4.000000,4.000000,4.000000,4.000000,4.000000,4.000000,4.000000,4.000000,4.000000,4.000000,4.000000,100.000000
1614736408.855773,92.000000,0.000000,3.823014,0.400300,-42.735954,-12.158371,-13.420834,2.887662,1.785242,-2.506834,-6.908874,3.037934,8.648882,5.937553,5.867326,17.213432,23.617874,-14.282588,1.534781,13.208766,-6.690162,-35.458561,6.815429,15.241675,14.381525,10.329729,9.412064,-4.896844,23.337900,8.941392,7.031205,10.291599,3.198226,-32.379272,0.000000,165.000000,4.000000,,,,0.000000,4.000000,4.000000,4.000000,4.000000,4.000000,4.000000,4.000000,4.000000,4.000000,4.000000,4.000000,4.000000,4.000000,4.000000,4.000000,4.000000,4.000000,4.000000,4.000000,4.000000,4.000000,4.000000,4.000000,4.000000,4.000000,4.000000,4.000000,4.000000,4.000000,4.000000,4.000000,4.000000,100.000000
1614736408.863622,93.000000,0.000000,1.255089,0.399900,-40.129116,-5.992366,-13.920234,2.884774,3.321919,1.085417,-6.389144,5.086178,8.640233,7.470077,7.912741,17.709040,21.030153,-12.217023,1.020426,18.323763,-2.580908,-37.987206,6.808614,12.149511,14.879964,13.909142,9.402652,-4.891948,45.878666,0.214502,6.511353,13.358231,8.323233,-35.423817,0.000000,177.000000,4.000000,,,,0.000000,4.000000,4.000000,4.000000,4.000000,4.000000,4.000000,4.000000,4.000000,4.000000,4.000000,4.000000,4.000000,4.000000,4.000000,4.000000,4.000000,4.000000,4.000000,4.000000,4.000000,4.000000,4.000000,4.000000,4.000000,4.000000,4.000000,4.000000,4.000000,4.000000,4.000000,4.000000,4.000000,100.000000
1614736408.871371,94.000000,0.000000,0.741013,0.399500,-34.960781,-7.012015,-7.752467,2.881889,2.805776,1.084331,-4.331473,2.516989,4.529028,6.436965,9.443290,13.588766,16.906559,-13.230447,1.019406,15.228516,-12.834737,-47.179989,6.801805,2.393772,14.352263,9.792669,8.880428,0.753970,44.807144,-4.401097,3.940740,12.832052,12.417474,-23.593521,0.000000,198.000000,4.000000,,,,0.000000,4.000000,4.000000,4.000000,4.000000,4.000000,4.000000,4.000000,4.000000,4.000000,4.000000,4.000000,4.000000,4.000000,4.000000,4.000000,4.000000,4.000000,4.000000,4.000000,4.000000,4.000000,4.000000,4.000000,4.000000,4.000000,4.000000,4.000000,4.000000,4.000000,4.000000,4.000000,4.000000,100.000000
1614736408.879021,95.000000,0.000000,0.740272,0.399101,-29.284796,-6.492182,-2.103689,2.879007,2.802970,3.647350,-2.275860,-1.588092,-0.090885,6.943349,8.921025,10.498254,10.222986,-23.473627,1.018386,9.572262,-17.950108,-52.773834,5.769362,-2.736827,11.260988,8.757236,8.871548,6.394242,39.121311,-1.832593,2.398337,15.383323,13.943518,-15.877621,0.000000,194.000000,4.000000,,,,0.000000,4.000000,4.000000,4.000000,4.000000,4.000000,4.000000,4.000000,4.000000,4.000000,4.000000,4.000000,4.000000,4.000000,4.000000,4.000000,4.000000,4.000000,4.000000,4.000000,4.000000,4.000000,4.000000,4.000000,4.000000,4.000000,4.000000,4.000000,4.000000,4.000000,4.000000,4.000000,4.000000,100.000000
1614736408.886770,96.000000,0.000000,1.252353,0.398702,-29.255510,-5.972870,-5.691329,3.388949,3.825809,4.669343,-2.786404,-10.817273,-11.372846,3.346662,8.912105,3.308268,-5.684673,-41.398872,1.017368,3.408843,-22.547543,-59.387726,5.250772,2.394115,11.249727,6.184376,8.862677,9.464770,37.030910,2.784624,2.395939,16.906401,13.929574,-17.400204,8064.000000,0.000000,4.000000,,,,0.000000,4.000000,4.000000,4.000000,4.000000,4.000000,4.000000,4.000000,4.000000,4.000000,4.000000,4.000000,4.000000,4.000000,4.000000,4.000000,4.000000,4.000000,4.000000,4.000000,4.000000,4.000000,4.000000,4.000000,4.000000,4.000000,4.000000,4.000000,4.000000,4.000000,4.000000,4.000000,4.000000,100.000000
1614736408.894419,97.000000,0.000000,3.302382,0.398303,-30.251896,-8.018179,-10.301023,1.847098,0.745060,-1.489172,-2.783618,-18.498764,-22.643524,-3.836172,8.903193,-6.951450,-21.576424,-60.844650,1.016351,-8.389438,-37.909611,-77.277054,6.783983,7.007105,12.776938,-4.591039,8.853813,13.045050,44.173367,4.833121,2.906363,16.889494,11.864363,-14.305882,8064.000000,0.000000,4.000000,,,,0.000000,4.000000,4.000000,4.000000,4.000000,4.000000,4.000000,4.000000,4.000000,4.000000,4.000000,4.000000,4.000000,4.000000,4.000000,4.000000,4.000000,4.000000,4.000000,4.000000,4.000000,4.000000,4.000000,4.000000,4.000000,4.000000,4.000000,4.000000,4.000000,4.000000,4.000000,4.000000,4.000000,100.000000
1614736408.902169,98.000000,0.000000,4.837542,0.397905,-29.196003,-9.548622,-9.265080,-0.718851,-4.896711,-6.615888,-2.780834,-18.993086,-29.287548,-9.986181,8.894289,-11.559883,-25.144592,-74.117142,1.015334,-19.150278,-51.717854,-93.097214,3.700276,5.974457,8.148777,-16.381321,8.844959,15.596107,46.693295,5.853930,2.903457,16.872604,10.314036,-19.932600,8064.000000,0.000000,4.000000,,,,0.000000,4.000000,4.000000,4.000000,4.000000,4.000000,4.000000,4.000000,4.000000,4.000000,4.000000,4.000000,4.000000,4.000000,4.000000,4.000000,4.000000,4.000000,4.000000,4.000000,4.000000,4.000000,4.000000,4.000000,4.000000,4.000000,4.000000,4.000000,4.000000,4.000000,4.000000,4.000000,4.000000,100.000000
1614736408.909818,99.000000,0.000000,5.345524,0.397507,-32.243732,-15.180099,-10.281456,-1.230953,-7.968738,-9.173375,-4.829336,-19.999733,-33.360825,-13.565939,8.885395,-11.548324,-26.145088,-75.068665,0.501498,-22.208052,-55.255878,-89.414375,-2.457270,5.968482,3.012423,-21.493143,9.861755,14.042049,35.364552,8.412178,2.387733,16.342911,10.303722,-33.246002,8064.000000,0.000000,4.000000,,,,0.000000,4.000000,4.000000,4.000000,4.000000,4.000000,4.000000,4.000000,4.000000,4.000000,4.000000,4.000000,4.000000,4.000000,4.000000,4.000000,4.000000,4.000000,4.000000,4.000000,4.000000,4.000000,4.000000,4.000000,4.000000,4.000000,4.000000,4.000000,4.000000,4.000000,4.000000,4.000000,4.000000,100.000000
1614736408.917567,100.000000,0.000000,5.340179,0.397109,-38.878155,-24.908508,-13.348098,-0.716901,-7.960769,-12.753945,-6.875788,-22.543837,-24.609514,-11.501091,8.363689,-9.485493,-25.606123,-56.532059,1.013817,-20.134562,-46.995495,-65.735214,2.160572,6.988155,1.470949,-17.369087,8.826253,14.540828,36.354828,9.429407,2.898166,17.352209,6.703675,-37.828140,8064.000000,0.000000,4.000000,,,,0.000000,4.000000,4.000000,4.000000,4.000000,4.000000,4.000000,4.000000,4.000000,4.000000,4.000000,4.000000,4.000000,4.000000,4.000000,4.000000,4.000000,4.000000,4.000000,4.000000,4.000000,4.000000,4.000000,4.000000,4.000000,4.000000,4.000000,4.000000,4.000000,4.000000,4.000000,4.000000,4.000000,100.000000
1614736408.925217,101.000000,0.000000,4.822018,0.396712,-41.403378,-30.011805,-13.847570,-1.229005,-8.465629,-14.792473,-6.356092,-22.008472,-3.559264,-2.771641,8.868146,-0.245238,-8.657439,-26.219114,4.089726,-7.806735,-25.922859,-40.541275,17.030207,6.468347,3.520760,-1.454282,8.817427,13.500646,45.549240,9.932797,4.946550,16.822037,2.081587,-39.328773,8064.000000,0.000000,4.000000,,,,0.000000,4.000000,4.000000,4.000000,4.000000,4.000000,4.000000,4.000000,4.000000,4.000000,4.000000,4.000000,4.000000,4.000000,4.000000,4.000000,4.000000,4.000000,4.000000,4.000000,4.000000,4.000000,4.000000,4.000000,4.000000,4.000000,4.000000,4.000000,4.000000,4.000000,4.000000,4.000000,4.000000,100.000000
1614736408.932966,102.000000,0.000000,5.330017,0.396315,-40.849155,-29.981794,-13.320902,-0.714956,-7.944342,-15.290502,-6.349736,-21.986464,8.239167,3.384977,11.423381,12.062699,11.864038,-4.654434,8.188201,11.175431,-7.435398,-34.346889,23.679842,6.461878,12.235188,17.521532,9.834250,9.384581,27.554974,9.410045,6.992885,7.574446,1.566685,-40.315086,8064.000000,0.000000,4.000000,,,,0.000000,4.000000,4.000000,4.000000,4.000000,4.000000,4.000000,4.000000,4.000000,4.000000,4.000000,4.000000,4.000000,4.000000,4.000000,4.000000,4.000000,4.000000,4.000000,4.000000,4.000000,4.000000,4.000000,4.000000,4.000000,4.000000,4.000000,4.000000,4.000000,4.000000,4.000000,4.000000,4.000000,100.000000
1614736408.940615,103.000000,0.000000,5.324687,0.395919,-40.808304,-28.926170,-13.307581,1.849862,-4.859475,-14.762390,-6.343386,-19.913195,9.769390,3.894412,13.463239,17.691662,15.954739,-0.034395,9.205654,20.395025,-3.838219,-43.543312,16.476675,6.455416,20.940903,21.606575,5.209032,6.298274,6.501778,3.759609,6.473072,-2.176718,3.103580,-39.761951,8064.000000,0.000000,4.000000,,,,0.000000,4.000000,4.000000,4.000000,4.000000,4.000000,4.000000,4.000000,4.000000,4.000000,4.000000,4.000000,4.000000,4.000000,4.000000,4.000000,4.000000,4.000000,4.000000,4.000000,4.000000,4.000000,4.000000,4.000000,4.000000,4.000000,4.000000,4.000000,4.000000,4.000000,4.000000,4.000000,4.000000,100.000000
1614736408.948365,104.000000,0.000000,2.755260,0.395523,-41.280315,-25.307501,-13.294273,3.386474,-3.828974,-9.619423,-6.337043,-15.277897,11.810903,2.864877,12.936955,17.161150,13.887502,-0.547181,8.683628,15.759245,-5.372842,-47.602333,7.742250,6.961782,18.355858,14.405480,-7.616690,6.291975,15.213224,-4.962100,6.466599,-2.687362,1.562015,-49.465778,8064.000000,0.000000,4.000000,,,,0.000000,4.000000,4.000000,4.000000,4.000000,4.000000,4.000000,4.000000,4.000000,4.000000,4.000000,4.000000,4.000000,4.000000,4.000000,4.000000,4.000000,4.000000,4.000000,4.000000,4.000000,4.000000,4.000000,4.000000,4.000000,4.000000,4.000000,4.000000,4.000000,4.000000,4.000000,4.000000,4.000000,100.000000
1614736408.956014,105.000000,0.000000,-1.862880,-0.117693,-40.726215,-19.128347,-13.280979,2.870267,-4.337966,-3.968778,-6.330706,-15.262619,10.773451,2.862012,12.411198,17.143990,17.463358,-2.085096,8.162124,14.717845,-4.854649,-47.554729,6.196046,6.441999,11.670835,12.339793,-14.788561,7.311324,29.044165,-6.495599,6.972953,-1.146213,-3.567752,-55.570160,8064.000000,0.000000,4.000000,,,,0.000000,4.000000,4.000000,4.000000,4.000000,4.000000,4.000000,4.000000,4.000000,4.000000,4.000000,4.000000,4.000000,4.000000,4.000000,4.000000,4.000000,4.000000,4.000000,4.000000,4.000000,4.000000,4.000000,4.000000,4.000000,4.000000,4.000000,4.000000,4.000000,4.000000,4.000000,4.000000,4.000000,100.000000
1614736408.963764,106.000000,0.000000,-3.399479,0.395245,-40.685490,-17.057938,-13.267698,2.867396,-4.333628,-2.426347,-6.324375,-13.708895,4.608831,4.397612,13.424428,16.614025,15.907434,-10.288138,9.179603,16.754410,-5.875435,-48.532814,8.241133,6.948378,10.120704,13.353094,-11.696849,9.355295,30.040762,-5.976283,4.401877,-2.170708,-5.102646,-37.053051,8192.000000,0.000000,4.000000,,,,0.000000,4.000000,4.000000,4.000000,4.000000,4.000000,4.000000,4.000000,4.000000,4.000000,4.000000,4.000000,4.000000,4.000000,4.000000,4.000000,4.000000,4.000000,4.000000,4.000000,4.000000,4.000000,4.000000,4.000000,4.000000,4.000000,4.000000,4.000000,4.000000,4.000000,4.000000,4.000000,4.000000,100.000000
1614736408.971413,107.000000,0.000000,-2.370439,0.907670,-41.157627,-17.553699,-13.254431,2.864529,-3.816474,-2.936741,-6.318051,-12.156725,-8.729112,1.316291,11.872541,8.392282,-0.518731,-33.867596,8.657602,2.891501,-14.587508,-52.586845,3.104686,6.941429,10.110582,2.570510,-6.556947,10.884401,25.395336,-5.457486,3.371834,-2.168538,0.030662,-20.092920,8064.000000,0.000000,4.000000,,,,0.000000,4.000000,4.000000,4.000000,4.000000,4.000000,4.000000,4.000000,4.000000,4.000000,4.000000,4.000000,4.000000,4.000000,4.000000,4.000000,4.000000,4.000000,4.000000,4.000000,4.000000,4.000000,4.000000,4.000000,4.000000,4.000000,4.000000,4.000000,4.000000,4.000000,4.000000,4.000000,4.000000,100.000000
1614736408.979262,108.000000,0.000000,-2.368068,-0.118878,-40.090828,-17.536146,-13.753997,2.861665,-5.863939,-6.010728,-6.311733,-29.067644,-34.361408,-13.044000,3.655541,-12.128931,-23.595135,-66.141418,0.443816,-21.213955,-39.188305,-71.508621,-10.744573,2.831924,10.613293,-22.560265,-5.524749,10.873517,20.241735,-5.452028,5.932565,-1.653548,3.107554,-25.201033,8064.000000,0.000000,4.000000,,,,0.000000,4.000000,4.000000,4.000000,4.000000,4.000000,4.000000,4.000000,4.000000,4.000000,4.000000,4.000000,4.000000,4.000000,4.000000,4.000000,4.000000,4.000000,4.000000,4.000000,4.000000,4.000000,4.000000,4.000000,4.000000,4.000000,4.000000,4.000000,4.000000,4.000000,4.000000,4.000000,4.000000,100.000000
1614736408.987011,109.000000,0.000000,-2.878520,1.419702,-37.486633,-18.031431,-12.714602,2.858803,-9.447819,-10.107281,-6.305421,-47.500114,-56.891148,-24.825829,-5.066063,-34.168083,-39.468975,-92.229126,-11.351500,-32.987614,-69.405525,-101.693520,-19.964598,-2.811934,4.448833,-44.076168,-7.570507,10.349823,23.298418,-7.497859,6.952273,-1.651895,2.078805,-31.842497,8064.000000,0.000000,4.000000,,,,0.000000,4.000000,4.000000,4.000000,4.000000,4.000000,4.000000,4.000000,4.000000,4.000000,4.000000,4.000000,4.000000,4.000000,4.000000,4.000000,4.000000,4.000000,4.000000,4.000000,4.000000,4.000000,4.000000,4.000000,4.000000,4.000000,4.000000,4.000000,4.000000,4.000000,4.000000,4.000000,4.000000,100.000000
1614736408.994861,110.000000,0.000000,-2.362822,4.495205,-36.423504,-16.987759,-10.650605,2.855944,-13.028114,-11.635635,-6.299116,-32.068001,-64.526566,-25.313822,-8.137920,-38.236481,-40.967968,-98.803558,-15.955532,-34.493088,-75.489967,-107.745674,-21.995914,-5.373224,-7.863308,-47.621834,-10.127039,10.339473,28.403324,-3.387797,6.432501,-2.163064,2.589547,-35.913219,8064.000000,0.000000,4.000000,,,,0.000000,4.000000,4.000000,4.000000,4.000000,4.000000,4.000000,4.000000,4.000000,4.000000,4.000000,4.000000,4.000000,4.000000,4.000000,4.000000,4.000000,4.000000,4.000000,4.000000,4.000000,4.000000,4.000000,4.000000,4.000000,4.000000,4.000000,4.000000,4.000000,4.000000,4.000000,4.000000,4.000000,100.000000
1614736409.002610,111.000000,0.000000,-2.360459,0.900967,-36.899902,-19.022053,-9.614313,2.853088,-11.989446,-11.111179,-6.292816,-11.010291,-56.769730,-21.185944,-6.591321,-21.787987,-35.798794,-85.371422,-13.888294,-28.817568,-50.799095,-83.022545,-18.896996,-5.367851,-8.881085,-36.292160,-6.527168,10.841954,17.605690,6.872002,6.938889,-1.648080,1.048496,-44.595253,8064.000000,0.000000,4.000000,,,,0.000000,4.000000,4.000000,4.000000,4.000000,4.000000,4.000000,4.000000,4.000000,4.000000,4.000000,4.000000,4.000000,4.000000,4.000000,4.000000,4.000000,4.000000,4.000000,4.000000,4.000000,4.000000,4.000000,4.000000,4.000000,4.000000,4.000000,4.000000,4.000000,4.000000,4.000000,4.000000,4.000000,100.000000
1614736409.010459,112.000000,0.000000,-2.358098,-5.766601,-36.863003,-24.131235,-8.579058,2.850235,-9.413354,-10.587248,-6.286523,-18.178768,-32.610397,-13.472451,-1.969345,-7.920045,-25.506586,-61.696308,-10.797483,-12.891315,-26.645731,-54.734394,-6.057586,-2.285560,4.461129,-18.819971,-1.905256,8.779830,12.459879,5.326668,3.855027,-1.646432,-1.516655,-48.140404,8064.000000,0.000000,4.000000,,,,0.000000,4.000000,4.000000,4.000000,4.000000,4.000000,4.000000,4.000000,4.000000,4.000000,4.000000,4.000000,4.000000,4.000000,4.000000,4.000000,4.000000,4.000000,4.000000,4.000000,4.000000,4.000000,4.000000,4.000000,4.000000,4.000000,4.000000,4.000000,4.000000,4.000000,4.000000,4.000000,4.000000,100.000000
1614736409.018209,113.000000,0.000000,-2.355740,-7.812116,-36.826141,-25.132746,-9.596120,2.847385,-7.865479,-11.089480,-6.280237,-26.365717,-5.398300,-3.202568,1.109548,-5.860843,-3.429797,-35.480766,-4.120019,-1.596372,-17.388315,-34.166836,11.384369,4.383392,13.687437,-0.339613,-2.928992,2.617204,29.883316,-2.370966,-3.328315,-2.670426,-1.002318,-44.502518,8064.000000,0.000000,4.000000,,,,0.000000,4.000000,4.000000,4.000000,4.000000,4.000000,4.000000,4.000000,4.000000,4.000000,4.000000,4.000000,4.000000,4.000000,4.000000,4.000000,4.000000,4.000000,4.000000,4.000000,4.000000,4.000000,4.000000,4.000000,4.000000,4.000000,4.000000,4.000000,4.000000,4.000000,4.000000,4.000000,4.000000,100.000000
1614736409.026058,114.000000,0.000000,-2.353384,-6.265842,-36.276493,-19.979406,-11.124986,2.844537,-3.242229,-11.078391,-6.273957,-15.057301,8.966073,4.492942,5.723823,5.427069,19.650555,-12.881184,6.140511,9.174456,-3.524773,-19.260876,20.603754,9.507214,14.186570,18.635086,1.689322,-1.487977,41.135487,1.733969,-4.863449,0.921988,4.126890,-42.919556,8064.000000,0.000000,4.000000,,,,0.000000,4.000000,4.000000,4.000000,4.000000,4.000000,4.000000,4.000000,4.000000,4.000000,4.000000,4.000000,4.000000,4.000000,4.000000,4.000000,4.000000,4.000000,4.000000,4.000000,4.000000,4.000000,4.000000,4.000000,4.000000,4.000000,4.000000,4.000000,4.000000,4.000000,4.000000,4.000000,4.000000,100.000000
1614736409.033807,115.000000,0.000000,-2.351031,-7.285218,-37.265858,-16.882505,-4.447194,3.354513,6.504603,-4.913467,-6.267683,-6.324295,21.264799,12.693578,19.564253,29.011385,27.323212,-0.560610,15.877960,34.293488,19.555676,-10.523666,24.685715,11.036168,19.813410,36.052349,11.944042,-0.973669,37.504604,10.450184,-1.268842,8.100553,6.686865,-43.389458,8064.000000,0.000000,4.000000,,,,0.000000,4.000000,4.000000,4.000000,4.000000,4.000000,4.000000,4.000000,4.000000,4.000000,4.000000,4.000000,4.000000,4.000000,4.000000,4.000000,4.000000,4.000000,4.000000,4.000000,4.000000,4.000000,4.000000,4.000000,4.000000,4.000000,4.000000,4.000000,4.000000,4.000000,4.000000,4.000000,4.000000,100.000000
1614736409.041656,116.000000,0.000000,-2.348680,-7.277933,-38.767052,-17.891264,-2.391465,2.325518,12.651945,4.322216,-6.261415,-9.907714,29.448662,18.321909,28.262636,40.264427,25.244608,3.029694,17.913364,44.515602,25.177145,-12.051604,26.712311,10.512311,27.485903,40.118858,9.880816,-0.459875,35.928638,8.901272,-0.241932,10.143734,6.680179,-43.346066,8064.000000,0.000000,4.000000,,,,0.000000,4.000000,4.000000,4.000000,4.000000,4.000000,4.000000,4.000000,4.000000,4.000000,4.000000,4.000000,4.000000,4.000000,4.000000,4.000000,4.000000,4.000000,4.000000,4.000000,4.000000,4.000000,4.000000,4.000000,4.000000,4.000000,4.000000,4.000000,4.000000,4.000000,4.000000,4.000000,4.000000,100.000000
1614736409.049406,117.000000,0.000000,-2.346331,-6.757834,-41.292389,-17.873371,-17.260868,-0.240910,8.023909,3.292253,-6.255154,-11.949088,12.496137,14.201023,21.567707,26.378008,22.655260,-2.614361,13.280066,27.035191,10.792994,-22.808783,22.583035,9.988978,25.407135,29.822330,-1.411116,-0.972235,29.738865,4.789806,-3.831433,9.107949,6.673498,-43.302719,8064.000000,0.000000,4.000000,,,,0.000000,4.000000,4.000000,4.000000,4.000000,4.000000,4.000000,4.000000,4.000000,4.000000,4.000000,4.000000,4.000000,4.000000,4.000000,4.000000,4.000000,4.000000,4.000000,4.000000,4.000000,4.000000,4.000000,4.000000,4.000000,4.000000,4.000000,4.000000,4.000000,4.000000,4.000000,4.000000,4.000000,100.000000
1614736409.057255,118.000000,0.000000,-2.343985,-7.263897,-40.738277,-17.342678,-21.858992,-1.266310,3.400500,-2.864886,-6.248899,-8.860216,-13.157385,7.007335,14.366652,3.274706,11.350554,-17.996363,13.266787,15.726104,-1.525492,-35.606487,15.380964,11.517451,19.227882,15.433534,-2.948166,-0.971263,20.478357,5.810658,-4.853243,9.098842,5.641184,-41.720955,8064.000000,0.000000,4.000000,,,,0.000000,4.000000,4.000000,4.000000,4.000000,4.000000,4.000000,4.000000,4.000000,4.000000,4.000000,4.000000,4.000000,4.000000,4.000000,4.000000,4.000000,4.000000,4.000000,4.000000,4.000000,4.000000,4.000000,4.000000,4.000000,4.000000,4.000000,4.000000,4.000000,4.000000,4.000000,4.000000,4.000000,100.000000
1614736409.065004,119.000000,0.000000,-2.341641,-6.230992,-39.159077,-17.325335,-6.965338,-0.752224,3.909920,-2.862021,-6.242650,-13.466741,-25.964741,-1.717621,9.224081,-13.138825,-10.712079,-36.439903,13.253520,9.043711,-15.882941,-46.852932,3.057891,9.454652,17.670193,-3.043438,-1.919577,-0.457471,20.457878,6.317667,-1.771467,9.602563,1.532978,-42.704876,8064.000000,0.000000,4.000000,,,,0.000000,4.000000,4.000000,4.000000,4.000000,4.000000,4.000000,4.000000,4.000000,4.000000,4.000000,4.000000,4.000000,4.000000,4.000000,4.000000,4.000000,4.000000,4.000000,4.000000,4.000000,4.000000,4.000000,4.000000,4.000000,4.000000,4.000000,4.000000,4.000000,4.000000,4.000000,4.000000,4.000000,100.000000
1614736409.072853,120.000000,0.000000,-2.339299,-3.660658,-44.248123,-18.846472,-3.881449,-0.751471,0.829087,-4.397620,-6.236407,-28.325068,-39.784931,-12.997954,-4.118476,-21.843636,-28.137264,-53.839363,-1.118708,-14.042256,-46.636288,-71.421463,-15.919526,-0.298393,16.114061,-24.578856,-10.122786,-0.457014,15.309216,-0.355317,-0.744054,9.080140,-1.032657,-43.687813,8064.000000,0.000000,4.000000,,,,0.000000,4.000000,4.000000,4.000000,4.000000,4.000000,4.000000,4.000000,4.000000,4.000000,4.000000,4.000000,4.000000,4.000000,4.000000,4.000000,4.000000,4.000000,4.000000,4.000000,4.000000,4.000000,4.000000,4.000000,4.000000,4.000000,4.000000,4.000000,4.000000,4.000000,4.000000,4.000000,4.000000,100.000000
1614736409.080603,121.000000,0.000000,-2.336960,-3.144177,-54.460285,-21.391727,-13.108337,-0.750720,-6.351229,-13.111172,-6.742991,-34.450588,-54.616940,-18.625982,-14.883589,-27.462816,-31.186050,-69.682961,-18.040667,-30.438471,-74.794777,-100.067993,-26.672836,-7.477582,4.815896,-35.323509,-18.317791,-0.456557,1.447752,-7.021628,-3.820233,9.071060,-1.544445,-35.951817,8064.000000,0.000000,4.000000,,,,0.000000,4.000000,4.000000,4.000000,4.000000,4.000000,4.000000,4.000000,4.000000,4.000000,4.000000,4.000000,4.000000,4.000000,4.000000,4.000000,4.000000,4.000000,4.000000,4.000000,4.000000,4.000000,4.000000,4.000000,4.000000,4.000000,4.000000,4.000000,4.000000,4.000000,4.000000,4.000000,4.000000,100.000000
1614736409.088252,122.000000,0.000000,-2.847444,-3.141033,-53.380184,-21.883156,-12.069588,-0.749969,-9.421802,-18.739086,-5.710607,-21.595627,-50.459759,-14.504792,-14.355885,-26.409714,-26.539480,-71.151733,-16.484165,-26.305468,-75.232803,-103.044846,-23.056421,-5.931643,-8.009433,-34.775364,-17.273832,-0.456100,4.010407,-5.988966,-2.790772,9.061989,-1.030080,-32.838943,7936.000000,0.000000,4.000000,,,,0.000000,4.000000,4.000000,4.000000,4.000000,4.000000,4.000000,4.000000,4.000000,4.000000,4.000000,4.000000,4.000000,4.000000,4.000000,4.000000,4.000000,4.000000,4.000000,4.000000,4.000000,4.000000,4.000000,4.000000,4.000000,4.000000,4.000000,4.000000,4.000000,4.000000,4.000000,4.000000,4.000000,100.000000
1614736409.096001,123.000000,0.000000,-2.331776,-0.060969,-41.531933,-19.297171,-10.006236,-0.749219,-7.873918,-19.745989,-3.653615,-9.779159,-42.204170,-11.926185,-14.854349,-18.690996,-27.025761,-60.824177,-9.801013,-24.227880,-60.285778,-84.480263,-20.982082,-3.874429,-8.514244,-35.253410,-9.051430,-0.455644,29.134602,-4.957335,0.288942,9.052927,-1.029050,-45.626617,8064.000000,0.000000,4.000000,,,,0.000000,4.000000,4.000000,4.000000,4.000000,4.000000,4.000000,4.000000,4.000000,4.000000,4.000000,4.000000,4.000000,4.000000,4.000000,4.000000,4.000000,4.000000,4.000000,4.000000,4.000000,4.000000,4.000000,4.000000,4.000000,4.000000,4.000000,4.000000,4.000000,4.000000,4.000000,4.000000,4.000000,100.000000
1614736409.103651,124.000000,0.000000,-2.329444,0.451913,-35.849373,-17.739412,-8.457768,-0.748470,-9.404506,-18.187780,-2.624320,-11.307841,-43.700428,-13.965541,-12.788213,-18.672304,-25.460274,-59.224888,-14.406597,-23.690832,-46.892159,-62.344501,-16.345716,-4.896195,-3.890345,-25.474566,-2.375712,-0.455189,43.464443,-10.593404,-1.762629,9.043874,-1.540841,-54.811760,8064.000000,0.000000,4.000000,,,,0.000000,4.000000,4.000000,4.000000,4.000000,4.000000,4.000000,4.000000,4.000000,4.000000,4.000000,4.000000,4.000000,4.000000,4.000000,4.000000,4.000000,4.000000,4.000000,4.000000,4.000000,4.000000,4.000000,4.000000,4.000000,4.000000,4.000000,4.000000,4.000000,4.000000,4.000000,4.000000,4.000000,100.000000
1614736409.111400,125.000000,0.000000,-3.352756,-3.138283,-41.967369,-17.721672,-0.244183,-1.260542,-6.830998,-12.528567,-2.621696,-10.783712,-30.836214,-9.336190,1.070729,-14.551068,-3.896352,-53.524639,-10.289626,-7.256885,-24.281164,-37.666771,5.209092,-4.891299,-1.322352,2.756037,-1.860516,-0.454733,23.933798,-13.146914,-4.324969,9.034830,-1.539301,-51.167202,8064.000000,0.000000,4.000000,,,,0.000000,4.000000,4.000000,4.000000,4.000000,4.000000,4.000000,4.000000,4.000000,4.000000,4.000000,4.000000,4.000000,4.000000,4.000000,4.000000,4.000000,4.000000,4.000000,4.000000,4.000000,4.000000,4.000000,4.000000,4.000000,4.000000,4.000000,4.000000,4.000000,4.000000,4.000000,4.000000,4.000000,100.000000
1614736409.119050,126.000000,0.000000,0.240341,-3.135145,-45.515148,-18.729591,-1.782400,-0.233640,1.893781,-8.413474,-3.131894,-2.567801,-1.574609,2.980838,14.402992,7.514765,24.825493,-25.265985,8.695023,16.340117,8.050809,-19.167566,27.255165,-4.373588,5.345637,28.394306,-1.858655,-0.454279,5.448326,-8.518381,-1.756541,9.025795,-1.024941,-48.551933,8064.000000,0.000000,4.000000,,,,0.000000,4.000000,4.000000,4.000000,4.000000,4.000000,4.000000,4.000000,4.000000,4.000000,4.000000,4.000000,4.000000,4.000000,4.000000,4.000000,4.000000,4.000000,4.000000,4.000000,4.000000,4.000000,4.000000,4.000000,4.000000,4.000000,4.000000,4.000000,4.000000,4.000000,4.000000,4.000000,4.000000,100.000000
1614736409.126799,127.000000,0.000000,5.368306,-2.619189,-36.238861,-15.633939,-8.960105,2.330696,7.020092,-5.840958,-2.103121,2.562972,13.811581,9.644524,17.465511,30.584173,37.108360,1.425947,18.429916,31.708391,22.914553,-16.071476,31.843294,-4.369214,15.596702,32.981297,0.707306,-0.453824,21.340313,-4.407299,-0.216323,9.016769,-1.536736,-52.093124,8064.000000,0.000000,4.000000,,,,0.000000,4.000000,4.000000,4.000000,4.000000,4.000000,4.000000,4.000000,4.000000,4.000000,4.000000,4.000000,4.000000,4.000000,4.000000,4.000000,4.000000,4.000000,4.000000,4.000000,4.000000,4.000000,4.000000,4.000000,4.000000,4.000000,4.000000,4.000000,4.000000,4.000000,4.000000,4.000000,4.000000,100.000000
1614736409.134448,0.000000,0.000000,4.337296,-7.744775,-24.920572,-9.464459,0.279625,3.354006,7.525893,2.370011,0.975905,1.534768,12.772128,11.173341,16.422405,33.630512,36.558430,3.988623,16.360205,33.727966,19.814714,-15.029763,26.683247,-4.364845,19.170849,28.845751,2.757881,-0.453371,35.165127,-5.428533,-3.293030,9.007752,-1.535200,-50.502571,0.000000,190.000000,4.000000,,,,0.000000,4.000000,4.000000,4.000000,4.000000,4.000000,4.000000,4.000000,4.000000,4.000000,4.000000,4.000000,4.000000,4.000000,4.000000,4.000000,4.000000,4.000000,4.000000,4.000000,4.000000,4.000000,4.000000,4.000000,4.000000,4.000000,4.000000,4.000000,4.000000,4.000000,4.000000,4.000000,4.000000,100.000000
1614736409.142198,1.000000,0.000000,2.281677,-10.813953,-25.921291,-5.865251,9.510115,2.837831,8.031188,9.547128,4.051852,1.020413,10.708075,10.649347,17.944445,22.314831,36.009052,0.394891,15.831024,28.566032,18.256439,-18.604477,19.989895,-3.847659,18.126036,27.791264,2.242302,-0.965738,16.668423,-5.423104,-4.828198,8.998745,1.543259,-47.887966,0.000000,177.000000,4.000000,,,,0.000000,4.000000,4.000000,4.000000,4.000000,4.000000,4.000000,4.000000,4.000000,4.000000,4.000000,4.000000,4.000000,4.000000,4.000000,4.000000,4.000000,4.000000,4.000000,4.000000,4.000000,4.000000,4.000000,4.000000,4.000000,4.000000,4.000000,4.000000,4.000000,4.000000,4.000000,4.000000,4.000000,100.000000
1614736409.149847,2.000000,0.000000,1.766575,-7.726216,-31.536396,-5.859386,1.808296,3.347814,1.356490,5.435017,5.073441,-0.006249,6.594802,1.407928,17.413679,10.497643,27.255095,-2.682427,12.738270,25.973364,15.674080,-36.534592,8.687855,-3.330991,18.620731,18.019884,2.240060,-0.451951,5.882524,-4.904860,-4.310550,8.989746,6.669920,-50.917000,0.000000,169.000000,4.000000,,,,0.000000,4.000000,4.000000,4.000000,4.000000,4.000000,4.000000,4.000000,4.000000,4.000000,4.000000,4.000000,4.000000,4.000000,4.000000,4.000000,4.000000,4.000000,4.000000,4.000000,4.000000,4.000000,4.000000,4.000000,4.000000,4.000000,4.000000,4.000000,4.000000,4.000000,4.000000,4.000000,4.000000,100.000000
1614736409.157596,3.000000,0.000000,-3.363397,-6.180028,-32.530502,-5.853527,-6.398640,1.806005,-9.414098,0.814197,5.581188,-4.621627,-6.745126,-12.439633,7.139856,-0.794905,6.202199,-16.525898,2.981942,19.793543,-4.854415,-50.344208,-0.551602,-3.840481,17.576469,-3.023777,1.724999,2.112603,18.697153,-4.899956,-4.306240,9.493577,6.663250,-47.276340,0.000000,193.000000,4.000000,,,,0.000000,4.000000,4.000000,4.000000,4.000000,4.000000,4.000000,4.000000,4.000000,4.000000,4.000000,4.000000,4.000000,4.000000,4.000000,4.000000,4.000000,4.000000,4.000000,4.000000,4.000000,4.000000,4.000000,4.000000,4.000000,4.000000,4.000000,4.000000,4.000000,4.000000,4.000000,4.000000,4.000000,100.000000
1614736409.165246,4.000000,0.000000,-9.513880,-6.686669,-31.472330,-6.360494,-5.879421,-3.324006,-12.994427,0.300563,5.062787,-11.283672,-25.712740,-17.555399,-6.713438,-13.101803,-11.752722,-37.535015,-5.738988,-1.764711,-37.157253,-56.447712,-6.192077,-4.349461,16.533251,-17.379728,2.236095,3.136132,26.883585,-4.382236,-4.301933,8.971263,6.143767,-30.305986,0.000000,205.000000,4.000000,,,,0.000000,4.000000,4.000000,4.000000,4.000000,4.000000,4.000000,4.000000,4.000000,4.000000,4.000000,4.000000,4.000000,4.000000,4.000000,4.000000,4.000000,4.000000,4.000000,4.000000,4.000000,4.000000,4.000000,4.000000,4.000000,4.000000,4.000000,4.000000,4.000000,4.000000,4.000000,4.000000,4.000000,100.000000
1614736409.172995,5.000000,0.000000,-10.017186,-4.115880,-31.953678,-5.328492,-5.360721,-5.371964,-10.930150,0.813082,4.032083,-15.887773,-40.558823,-15.999382,-10.809289,-24.883574,-17.894815,-55.446198,-11.374275,-24.839870,-62.761120,-76.904083,-17.467936,-3.319470,12.414154,-27.618759,2.233859,3.645816,28.395163,-6.941956,-4.297631,8.962292,7.163264,-24.634655,0.000000,198.000000,4.000000,,,,0.000000,4.000000,4.000000,4.000000,4.000000,4.000000,4.000000,4.000000,4.000000,4.000000,4.000000,4.000000,4.000000,4.000000,4.000000,4.000000,4.000000,4.000000,4.000000,4.000000,4.000000,4.000000,4.000000,4.000000,4.000000,4.000000,4.000000,4.000000,4.000000,4.000000,4.000000,4.000000,4.000000,100.000000
1614736409.180645,6.000000,0.000000,-10.519990,-2.573302,-36.537109,-7.374445,-5.868181,-4.340951,-12.457682,0.299449,6.592153,-18.435987,-44.108006,-15.983382,-9.260017,-28.961252,-21.466663,-72.826645,-14.439824,-30.968876,-71.416306,-104.006668,-30.270981,-7.931535,-2.982875,-46.565498,-4.947862,3.642170,19.648819,-11.550398,-4.293334,9.466150,4.591999,-40.507458,0.000000,198.000000,4.000000,,,,0.000000,4.000000,4.000000,4.000000,4.000000,4.000000,4.000000,4.000000,4.000000,4.000000,4.000000,4.000000,4.000000,4.000000,4.000000,4.000000,4.000000,4.000000,4.000000,4.000000,4.000000,4.000000,4.000000,4.000000,4.000000,4.000000,4.000000,4.000000,4.000000,4.000000,4.000000,4.000000,4.000000,100.000000
1614736409.188494,7.000000,0.000000,-14.099214,-5.134831,-51.372368,-20.700405,-8.939236,-4.336610,-15.522147,-1.752133,2.482997,-18.417551,-40.986977,-17.505861,-13.353322,-27.906651,-26.573402,-81.984589,-14.425385,-27.348164,-70.832069,-110.056503,-32.804813,-17.667194,-16.313227,-55.236881,-14.173683,0.561605,3.218914,-13.077310,-4.289040,8.431043,-1.053619,-56.877205,0.000000,200.000000,4.000000,,,,0.000000,4.000000,4.000000,4.000000,4.000000,4.000000,4.000000,4.000000,4.000000,4.000000,4.000000,4.000000,4.000000,4.000000,4.000000,4.000000,4.000000,4.000000,4.000000,4.000000,4.000000,4.000000,4.000000,4.000000,4.000000,4.000000,4.000000,4.000000,4.000000,4.000000,4.000000,4.000000,4.000000,100.000000
1614736409.196243,8.000000,0.000000,-14.085114,-7.180979,-65.167145,-33.500217,-15.084143,-4.845094,-15.506625,-5.340124,-12.391281,-17.886314,-42.484451,-15.949893,-12.314327,-30.442846,-24.495546,-78.825684,-14.923779,-28.346457,-70.248421,-96.613113,-30.207905,-23.803373,-17.322554,-43.386772,-13.646689,-4.567162,5.266977,-16.141155,-4.284751,3.807227,-2.078207,-58.871609,0.000000,186.000000,4.000000,,,,0.000000,4.000000,4.000000,4.000000,4.000000,4.000000,4.000000,4.000000,4.000000,4.000000,4.000000,4.000000,4.000000,4.000000,4.000000,4.000000,4.000000,4.000000,4.000000,4.000000,4.000000,4.000000,4.000000,4.000000,4.000000,4.000000,4.000000,4.000000,4.000000,4.000000,4.000000,4.000000,4.000000,100.000000
1614736409.204092,9.000000,0.000000,-12.532567,-6.660977,-58.948135,-32.953896,-16.607519,-4.327429,-14.978298,-7.898887,-19.045557,-17.868427,-42.954788,-8.754457,-7.686628,-25.284199,-17.804384,-72.593010,-13.370394,-29.856571,-60.434582,-76.003685,-32.741798,-23.266748,-17.305231,-31.548515,-6.966376,-4.049774,11.928377,-19.714758,-4.280467,1.239317,-0.024846,-49.069149,0.000000,178.000000,4.000000,,,,0.000000,4.000000,4.000000,4.000000,4.000000,4.000000,4.000000,4.000000,4.000000,4.000000,4.000000,4.000000,4.000000,4.000000,4.000000,4.000000,4.000000,4.000000,4.000000,4.000000,4.000000,4.000000,4.000000,4.000000,4.000000,4.000000,4.000000,4.000000,4.000000,4.000000,4.000000,4.000000,4.000000,100.000000
1614736409.211842,10.000000,0.000000,-14.571317,-6.654316,-42.991753,-26.254276,-11.462708,-4.323101,-14.963320,-7.378167,-12.359844,-17.850559,-31.629780,-2.079035,-6.653301,-10.387119,-11.632734,-59.187084,-6.177536,-19.057484,-32.681839,-56.440498,-26.555212,-16.063995,-15.236644,-17.157991,-6.446589,-1.481622,4.224141,-15.592479,-4.789007,1.750898,-2.076104,-37.738029,0.000000,199.000000,4.000000,,,,0.000000,4.000000,4.000000,4.000000,4.000000,4.000000,4.000000,4.000000,4.000000,4.000000,4.000000,4.000000,4.000000,4.000000,4.000000,4.000000,4.000000,4.000000,4.000000,4.000000,4.000000,4.000000,4.000000,4.000000,4.000000,4.000000,4.000000,4.000000,4.000000,4.000000,4.000000,4.000000,4.000000,100.000000
1614736409.219691,11.000000,0.000000,-12.505464,-7.160482,-39.871838,-25.715200,-8.887142,-4.318778,-15.461177,-4.293866,-9.783381,-14.755785,-14.675074,-1.051315,0.532840,-0.633143,1.199412,-32.461231,2.033769,3.525676,-3.931208,-42.025085,-3.964554,-1.176136,-1.375253,8.500192,-4.901681,-1.480140,13.963507,-6.346117,-4.271397,1.749148,-2.586848,-36.161827,0.000000,183.000000,4.000000,,,,0.000000,4.000000,4.000000,4.000000,4.000000,4.000000,4.000000,4.000000,4.000000,4.000000,4.000000,4.000000,4.000000,4.000000,4.000000,4.000000,4.000000,4.000000,4.000000,4.000000,4.000000,4.000000,4.000000,4.000000,4.000000,4.000000,4.000000,4.000000,4.000000,4.000000,4.000000,4.000000,4.000000,100.000000
1614736409.227440,12.000000,0.000000,-2.236548,-6.127681,-43.934528,-24.663845,-9.391075,-4.314459,-14.932896,-2.751111,-10.799239,-6.023081,-6.455270,1.513839,14.378461,-0.632510,18.634109,-12.428769,7.159941,17.881124,8.380415,-31.726650,12.962488,11.132732,11.446634,25.927589,6.385272,3.136724,30.359798,2.378178,-2.215843,1.234578,8.184970,-37.664127,0.000000,184.000000,4.000000,,,,0.000000,4.000000,4.000000,4.000000,4.000000,4.000000,4.000000,4.000000,4.000000,4.000000,4.000000,4.000000,4.000000,4.000000,4.000000,4.000000,4.000000,4.000000,4.000000,4.000000,4.000000,4.000000,4.000000,4.000000,4.000000,4.000000,4.000000,4.000000,4.000000,4.000000,4.000000,4.000000,4.000000,100.000000
1614736409.235289,13.000000,0.000000,6.483637,-3.557451,-35.685467,-21.049437,-9.381684,-4.310145,-14.917962,-5.825283,-3.608953,-0.888853,-6.448815,5.102068,14.876903,-1.657518,22.205219,-13.954802,9.716884,14.786321,6.833573,-28.618000,10.898243,10.095959,16.050573,24.876020,14.584015,9.800255,20.073029,10.068108,-0.162346,1.746164,14.330630,-33.011078,0.000000,198.000000,4.000000,,,,0.000000,4.000000,4.000000,4.000000,4.000000,4.000000,4.000000,4.000000,4.000000,4.000000,4.000000,4.000000,4.000000,4.000000,4.000000,4.000000,4.000000,4.000000,4.000000,4.000000,4.000000,4.000000,4.000000,4.000000,4.000000,4.000000,4.000000,4.000000,4.000000,4.000000,4.000000,4.000000,4.000000,100.000000
1614736409.243039,14.000000,0.000000,5.964334,-2.528252,-28.983114,-20.515568,-8.859482,-4.305835,-15.415865,-5.306637,2.035682,-5.503348,-6.442366,-0.544059,5.631257,-3.707143,12.439425,-20.094694,7.655884,11.694611,1.185714,-32.179127,6.784781,4.957658,21.162727,18.697298,12.518148,7.226352,25.181162,8.519578,-0.675004,1.744418,3.034249,-37.593452,0.000000,191.000000,4.000000,,,,0.000000,4.000000,4.000000,4.000000,4.000000,4.000000,4.000000,4.000000,4.000000,4.000000,4.000000,4.000000,4.000000,4.000000,4.000000,4.000000,4.000000,4.000000,4.000000,4.000000,4.000000,4.000000,4.000000,4.000000,4.000000,4.000000,4.000000,4.000000,4.000000,4.000000,4.000000,4.000000,4.000000,100.000000
1614736409.250888,15.000000,0.000000,4.419908,-3.038544,-36.646439,-19.982231,-9.363443,-4.814350,-14.374808,1.365337,1.520826,-6.523486,-7.461565,-5.158900,4.087164,-6.267538,9.350061,-22.125881,5.084126,12.195737,-8.559061,-34.711048,8.829278,4.439880,20.115923,13.550396,9.941528,4.142202,49.258545,0.818750,-0.674329,0.717032,2.518394,-42.171246,0.000000,175.000000,4.000000,,,,0.000000,4.000000,4.000000,4.000000,4.000000,4.000000,4.000000,4.000000,4.000000,4.000000,4.000000,4.000000,4.000000,4.000000,4.000000,4.000000,4.000000,4.000000,4.000000,4.000000,4.000000,4.000000,4.000000,4.000000,4.000000,4.000000,4.000000,4.000000,4.000000,4.000000,4.000000,4.000000,4.000000,100.000000
