title:10, start timestamp:1614074516.959043, stop timestamp:1614074562.934870, headset type:EPOCFLEX, headset serial:F00001ED, headset firmware:f12, subject name:s07, channels:75, sampling rate:128, samples:5934      , version:2.0
Timestamp,EEG.Counter,EEG.Interpolated,EEG.Cz,EEG.Fz,EEG.Fp1,EEG.AF3,EEG.F7,EEG.F3,EEG.FC1,EEG.C3,EEG.FC5,EEG.T7,EEG.CP5,EEG.CP1,EEG.P3,EEG.P7,EEG.PO3,EEG.O1,EEG.Pz,EEG.Oz,EEG.O2,EEG.PO4,EEG.P8,EEG.P4,EEG.CP2,EEG.CP6,EEG.T8,EEG.FC6,EEG.C4,EEG.FC2,EEG.F4,EEG.F8,EEG.AF4,EEG.Fp2,EEG.HighBitFlex,EEG.RawCq,EEG.Battery,MarkerIndex,MarkerType,MarkerValueInt,EEG.MarkerHardware,CQ.Cz,CQ.Fz,CQ.Fp1,CQ.AF3,CQ.F7,CQ.F3,CQ.FC1,CQ.C3,CQ.FC5,CQ.T7,CQ.CP5,CQ.CP1,CQ.P3,CQ.P7,CQ.PO3,CQ.O1,CQ.Pz,CQ.Oz,CQ.O2,CQ.PO4,CQ.P8,CQ.P4,CQ.CP2,CQ.CP6,CQ.T8,CQ.FC6,CQ.C4,CQ.FC2,CQ.F4,CQ.F8,CQ.AF4,CQ.Fp2,CQ.Overall
1614074516.959043,70.000000,0.000000,-4.040744,-1.471585,-0.380234,0.668346,-2.996524,-2.674768,5.052231,9.863031,-4.743895,6.690028,7.533447,12.259974,-5.028854,1.034147,-9.579528,12.234503,-2.648767,98.236786,51.148663,-10.677712,5.731485,-9.277902,5.974502,-13.780859,-23.681515,-21.500502,-18.369820,-11.340514,-13.657633,-27.622450,-13.665159,-27.032894,0.000000,186.000000,4.000000,,,,0.000000,4.000000,4.000000,4.000000,4.000000,4.000000,4.000000,4.000000,4.000000,4.000000,4.000000,4.000000,2.000000,4.000000,4.000000,2.000000,4.000000,4.000000,4.000000,4.000000,2.000000,2.000000,4.000000,4.000000,4.000000,4.000000,4.000000,4.000000,4.000000,4.000000,4.000000,4.000000,4.000000,50.000000
1614074516.966893,71.000000,0.000000,-0.959780,-1.982934,-2.943956,1.180498,-2.480707,-3.184914,4.021538,8.827528,-2.687869,8.221799,3.423350,6.606688,-8.100748,-0.505349,-8.544307,7.606884,-2.646118,88.907784,37.251358,-18.359343,0.084728,-8.755804,3.404425,-13.767078,-24.170654,-21.479002,-17.838629,-11.329174,-13.643975,-29.646109,-13.138674,-28.031502,0.000000,187.000000,4.000000,,,,0.000000,4.000000,4.000000,4.000000,4.000000,4.000000,4.000000,4.000000,4.000000,4.000000,4.000000,4.000000,2.000000,4.000000,4.000000,2.000000,4.000000,4.000000,4.000000,4.000000,2.000000,2.000000,4.000000,4.000000,4.000000,4.000000,4.000000,4.000000,4.000000,4.000000,4.000000,4.000000,4.000000,50.000000
1614074516.974642,72.000000,0.000000,-4.035743,-6.083515,-14.223063,-6.000170,-11.708996,-9.335575,-8.290175,4.203315,-8.839027,-1.530012,-15.554433,4.035979,-20.913160,-18.966383,-9.048583,8.112097,-6.233215,94.972717,55.162827,-19.879444,-5.556382,-12.849612,2.888200,-13.753311,-24.146484,-21.457523,-19.872072,-11.317844,-13.630331,-31.154924,-21.330664,-28.516293,0.000000,183.000000,4.000000,,,,0.000000,4.000000,4.000000,4.000000,4.000000,4.000000,4.000000,4.000000,4.000000,4.000000,4.000000,4.000000,2.000000,4.000000,4.000000,2.000000,4.000000,4.000000,4.000000,4.000000,2.000000,2.000000,4.000000,4.000000,4.000000,4.000000,4.000000,4.000000,4.000000,4.000000,4.000000,4.000000,4.000000,50.000000
1614074516.982492,73.000000,0.000000,-7.621451,-8.641534,-17.798584,-8.558272,-18.363953,-8.813419,-13.922911,-2.467555,-14.984035,-12.810534,-28.359390,4.031943,-24.994810,-37.921776,-9.552356,7.591164,-9.816726,102.057236,59.723045,-18.833923,-8.114928,-17.452147,2.885312,-13.739557,-22.583876,-19.897604,-21.390661,-11.306526,-13.616701,-30.610949,-27.976000,-26.949314,0.000000,206.000000,4.000000,,,,0.000000,4.000000,4.000000,4.000000,4.000000,4.000000,4.000000,4.000000,4.000000,4.000000,4.000000,4.000000,2.000000,4.000000,4.000000,2.000000,4.000000,4.000000,4.000000,4.000000,2.000000,2.000000,4.000000,4.000000,4.000000,4.000000,4.000000,4.000000,4.000000,4.000000,4.000000,4.000000,4.000000,50.000000
1614074516.990241,74.000000,0.000000,-5.562548,-6.581610,-10.088477,-2.908688,-13.217384,-0.599478,-7.755142,-2.977907,-8.302383,-9.720799,-14.997698,7.104834,-11.636483,-17.371033,-8.004341,40.404087,-1.088960,120.416718,37.612041,-19.840731,-8.619634,-14.870592,3.395247,-13.725819,-20.510010,-17.826424,-17.266706,-11.295220,-13.603085,-26.477774,-22.306997,-24.358261,0.000000,197.000000,4.000000,,,,0.000000,4.000000,4.000000,4.000000,4.000000,4.000000,4.000000,4.000000,4.000000,4.000000,4.000000,4.000000,2.000000,4.000000,4.000000,2.000000,4.000000,4.000000,4.000000,4.000000,2.000000,2.000000,4.000000,4.000000,4.000000,4.000000,4.000000,4.000000,4.000000,4.000000,4.000000,4.000000,4.000000,50.000000
1614074516.998091,75.000000,0.000000,-4.018524,-5.036567,-8.539927,-0.341677,-10.640064,1.965225,-5.183284,-2.462109,0.423868,-2.018771,-7.803213,-1.620220,-5.983820,4.697620,-5.432234,63.440605,4.040334,125.424500,25.266737,-20.333712,-9.123835,-13.830081,1.853391,-13.712092,-19.976679,-17.295776,-14.172517,-11.283925,-13.589481,-22.861551,-16.130844,-23.821083,0.000000,151.000000,4.000000,,,,0.000000,4.000000,4.000000,4.000000,4.000000,4.000000,4.000000,4.000000,4.000000,4.000000,4.000000,4.000000,2.000000,4.000000,4.000000,2.000000,4.000000,4.000000,4.000000,4.000000,2.000000,2.000000,4.000000,4.000000,4.000000,4.000000,4.000000,4.000000,4.000000,4.000000,4.000000,4.000000,4.000000,50.000000
1614074517.005840,76.000000,0.000000,-4.527326,-5.544351,-10.069849,-1.879797,-10.629424,-0.600843,-6.203742,-4.510929,-0.089377,-2.016753,-16.513359,-18.028856,-17.259888,-7.614769,-5.426802,31.069471,-12.373962,101.709335,34.985062,-20.313377,-10.140351,-20.482918,-2.251027,-14.211201,-20.469522,-17.791302,-14.158344,-11.272641,-13.575891,-22.838690,-17.653175,-24.310083,0.000000,190.000000,4.000000,,,,0.000000,4.000000,4.000000,4.000000,4.000000,4.000000,4.000000,4.000000,4.000000,4.000000,4.000000,4.000000,2.000000,4.000000,4.000000,2.000000,4.000000,4.000000,4.000000,4.000000,2.000000,2.000000,4.000000,4.000000,4.000000,4.000000,4.000000,4.000000,4.000000,4.000000,4.000000,4.000000,4.000000,50.000000
1614074517.013690,77.000000,0.000000,-2.471516,-5.538807,-2.880292,-1.877917,-1.900846,0.425399,-3.120615,2.673069,-1.627749,2.087828,-11.881461,-17.498007,-21.858013,-15.299462,-5.934196,-1.269290,-23.643641,97.505058,40.591103,-20.293064,-12.181494,-24.052177,-4.812879,-16.248272,-19.936234,-17.773510,-14.144186,-11.261369,-13.562316,-23.328672,-18.148342,-23.772951,0.000000,206.000000,4.000000,,,,0.000000,4.000000,4.000000,4.000000,4.000000,4.000000,4.000000,4.000000,4.000000,4.000000,4.000000,4.000000,4.000000,4.000000,4.000000,2.000000,4.000000,4.000000,4.000000,4.000000,2.000000,2.000000,4.000000,4.000000,4.000000,4.000000,4.000000,4.000000,4.000000,4.000000,4.000000,4.000000,4.000000,50.000000
1614074517.021439,78.000000,0.000000,-0.417763,-5.020447,1.225152,-0.850398,4.254901,2.989076,-1.066213,12.413986,0.425161,6.701125,0.438113,-3.121534,-14.656668,-2.463650,-2.338518,27.962749,-18.491791,115.869095,38.499229,-18.734310,-13.194953,-24.540947,-3.269604,-17.770485,-20.429117,-17.242916,-14.642862,-10.737287,-13.548754,-22.792522,-17.104553,-24.261999,0.000000,167.000000,4.000000,,,,0.000000,4.000000,4.000000,4.000000,4.000000,4.000000,4.000000,4.000000,4.000000,4.000000,4.000000,4.000000,4.000000,4.000000,4.000000,2.000000,4.000000,4.000000,4.000000,4.000000,2.000000,2.000000,4.000000,4.000000,4.000000,4.000000,4.000000,4.000000,4.000000,4.000000,4.000000,4.000000,4.000000,50.000000
1614074517.029289,79.000000,0.000000,-0.930165,-5.528247,-3.391457,-1.362368,-0.364739,2.473266,-2.090787,9.324649,-0.088085,-1.510704,-7.767453,-2.092772,-12.077909,-1.948366,1.766384,41.268120,-14.883556,117.804504,52.819702,-17.689934,-11.643296,-25.542046,-1.215052,-16.727074,-20.921509,-18.251314,-13.602579,-11.752191,-13.535205,-23.282551,-17.087448,-24.237738,0.000000,202.000000,4.000000,,,,0.000000,4.000000,4.000000,4.000000,4.000000,4.000000,4.000000,4.000000,4.000000,4.000000,4.000000,4.000000,4.000000,4.000000,4.000000,2.000000,4.000000,4.000000,4.000000,4.000000,2.000000,2.000000,4.000000,4.000000,4.000000,4.000000,4.000000,4.000000,4.000000,4.000000,4.000000,4.000000,4.000000,50.000000
1614074517.037038,80.000000,0.000000,-0.929235,-5.522719,-6.464989,-1.361006,-4.466938,1.445152,-2.088696,5.212760,-0.600817,-4.586117,-15.964814,-7.218884,-14.117112,-7.587443,2.277439,12.508903,-10.253288,114.096962,71.228424,-15.620962,-6.503448,-16.285734,0.837445,-13.120603,-17.823664,-18.233063,-5.896668,-11.227617,-13.521669,-23.259268,-17.583181,-23.700680,0.000000,212.000000,4.000000,,,,0.000000,4.000000,4.000000,4.000000,4.000000,4.000000,4.000000,4.000000,4.000000,4.000000,4.000000,4.000000,4.000000,4.000000,4.000000,2.000000,4.000000,4.000000,4.000000,4.000000,2.000000,2.000000,4.000000,4.000000,4.000000,4.000000,4.000000,4.000000,4.000000,4.000000,4.000000,4.000000,4.000000,50.000000
1614074517.044888,81.000000,0.000000,-0.928306,-5.517197,-4.920063,-1.359645,-2.924010,2.469348,-1.573787,7.258829,-0.087396,2.597957,-6.718080,-5.673203,-11.026073,-1.938830,1.762341,-2.888222,-1.525086,108.854660,61.926426,-10.477136,-1.368739,-2.423295,2.887889,-6.953636,-13.703277,-15.650727,0.775895,-6.601005,-13.508148,-22.723188,-17.565599,-24.702620,0.000000,191.000000,4.000000,,,,0.000000,4.000000,4.000000,4.000000,4.000000,4.000000,4.000000,4.000000,4.000000,4.000000,4.000000,4.000000,4.000000,4.000000,4.000000,2.000000,4.000000,4.000000,4.000000,4.000000,2.000000,2.000000,4.000000,4.000000,4.000000,4.000000,4.000000,4.000000,4.000000,4.000000,4.000000,4.000000,4.000000,50.000000
1614074517.052637,82.000000,0.000000,-0.927378,-5.511679,-4.915143,-1.358285,-2.921086,2.466878,-3.623496,-0.440737,-2.651411,-4.584128,-7.737003,-9.257274,-9.476584,-0.911250,1.760578,11.473640,-4.600484,91.309906,40.838856,-8.928197,-0.854550,-6.523436,1.346540,-2.844118,-12.663932,-14.096616,1.287940,-3.517481,-11.956179,-23.726107,-17.548033,-24.165096,0.000000,203.000000,4.000000,,,,0.000000,4.000000,4.000000,4.000000,4.000000,4.000000,4.000000,4.000000,4.000000,4.000000,4.000000,4.000000,4.000000,4.000000,4.000000,2.000000,4.000000,4.000000,4.000000,4.000000,2.000000,2.000000,4.000000,4.000000,4.000000,4.000000,4.000000,4.000000,4.000000,4.000000,4.000000,4.000000,4.000000,50.000000
1614074517.060487,83.000000,0.000000,-0.926450,-5.506167,-5.935868,-1.356927,-3.943805,-0.612512,-6.696795,-13.260809,-4.700042,-19.964159,-25.165163,-20.530067,-17.672235,-8.089826,0.733177,28.385244,-11.775371,93.782700,39.772377,-14.047474,-1.366516,-16.773323,-0.706089,-2.328454,-13.164088,-14.595340,0.261011,-3.513964,-9.892941,-22.676739,-17.530485,-19.012726,0.000000,211.000000,4.000000,,,,0.000000,4.000000,4.000000,4.000000,4.000000,4.000000,4.000000,4.000000,4.000000,4.000000,4.000000,4.000000,4.000000,4.000000,4.000000,2.000000,4.000000,4.000000,4.000000,4.000000,2.000000,2.000000,4.000000,4.000000,4.000000,4.000000,4.000000,4.000000,4.000000,4.000000,4.000000,4.000000,4.000000,50.000000
1614074517.068236,84.000000,0.000000,-0.925524,-5.500661,-6.442753,-1.868391,-4.452682,-5.227283,-6.177278,-12.734728,-4.182521,-19.944195,-29.755383,-26.150564,-25.859692,-10.645839,1.245264,31.433783,-12.276416,114.201736,46.912090,-16.597528,-0.852329,-10.089883,1.345899,-2.838946,-13.150925,-11.503821,1.286391,-4.023270,-9.370227,-15.987396,-18.025776,-12.839868,0.000000,189.000000,4.000000,,,,0.000000,4.000000,4.000000,4.000000,4.000000,4.000000,4.000000,4.000000,4.000000,4.000000,4.000000,4.000000,4.000000,4.000000,4.000000,2.000000,4.000000,4.000000,4.000000,4.000000,2.000000,2.000000,4.000000,4.000000,4.000000,4.000000,4.000000,4.000000,4.000000,4.000000,4.000000,4.000000,4.000000,50.000000
1614074517.076086,85.000000,0.000000,-0.924598,-5.495161,-5.410669,-1.866522,-3.422588,-5.734877,-5.658280,-4.516865,-5.203979,-15.821688,-24.084602,-21.509027,-23.269730,-9.609552,2.269660,28.325424,-11.238499,105.882408,40.198513,-12.991188,-1.364297,-0.849024,3.395836,-2.323286,-12.624953,-6.876933,0.772284,-3.506426,-9.873677,-10.843204,-17.494928,-12.314207,0.000000,182.000000,4.000000,,,,0.000000,4.000000,4.000000,4.000000,4.000000,4.000000,4.000000,4.000000,4.000000,4.000000,4.000000,4.000000,4.000000,4.000000,4.000000,2.000000,4.000000,4.000000,4.000000,4.000000,2.000000,2.000000,4.000000,4.000000,4.000000,4.000000,4.000000,4.000000,4.000000,4.000000,4.000000,4.000000,4.000000,50.000000
1614074517.083835,86.000000,0.000000,-0.923674,-5.489666,-4.892438,-0.839015,-3.419166,-5.216321,-6.678263,2.667139,-3.660314,-14.267405,-23.547697,-14.308032,-20.169537,-11.651224,-1.835174,26.758638,-11.740080,92.956009,29.901905,-12.978197,-1.875754,-1.873816,2.879619,-2.320963,-13.125149,-5.844415,0.771511,-3.502920,-9.863803,-12.370822,-16.964613,-14.865995,0.000000,221.000000,4.000000,,,,0.000000,4.000000,4.000000,4.000000,4.000000,4.000000,4.000000,4.000000,4.000000,4.000000,4.000000,4.000000,4.000000,4.000000,4.000000,2.000000,4.000000,4.000000,4.000000,4.000000,2.000000,2.000000,4.000000,4.000000,4.000000,4.000000,4.000000,4.000000,4.000000,4.000000,4.000000,4.000000,4.000000,50.000000
1614074517.091585,87.000000,0.000000,-0.922750,-5.996996,-6.426007,-1.863817,-3.928567,-5.211105,-3.081841,9.331139,5.061295,-3.483906,-14.806200,-12.755262,-19.123726,-10.101111,-0.294877,27.244699,-12.241160,112.863052,43.718155,-15.529322,-0.335416,-2.897583,2.363919,-2.831462,-13.112023,-6.864211,-0.254901,-3.499417,-9.341119,-14.922554,-18.486111,-16.389591,0.000000,197.000000,4.000000,,,,0.000000,4.000000,4.000000,4.000000,4.000000,4.000000,4.000000,4.000000,4.000000,4.000000,4.000000,4.000000,4.000000,4.000000,4.000000,2.000000,4.000000,4.000000,4.000000,4.000000,2.000000,2.000000,4.000000,4.000000,4.000000,4.000000,4.000000,4.000000,4.000000,4.000000,4.000000,4.000000,4.000000,50.000000
1614074517.099334,88.000000,0.000000,-0.921827,-4.965358,-2.829838,-0.836312,1.203567,-3.667433,7.690472,12.398730,11.210080,9.340091,2.644503,-15.306610,-6.796911,4.780784,16.628494,43.627712,-13.254560,129.160446,68.802643,-16.539433,1.716201,-1.869045,2.874376,-2.828631,-13.098911,-6.344526,-3.844390,-5.034379,-9.844599,-15.420452,-15.390701,-16.886023,0.000000,196.000000,4.000000,,,,0.000000,4.000000,4.000000,4.000000,4.000000,4.000000,4.000000,4.000000,4.000000,4.000000,4.000000,4.000000,4.000000,4.000000,4.000000,2.000000,4.000000,4.000000,4.000000,4.000000,2.000000,2.000000,4.000000,4.000000,4.000000,4.000000,4.000000,4.000000,4.000000,4.000000,4.000000,4.000000,4.000000,50.000000
1614074517.106984,89.000000,0.000000,-0.920905,-2.909111,5.378120,5.318371,11.971594,-1.612483,13.836627,14.437613,10.173228,17.023058,14.949552,-13.240021,8.594501,26.314465,29.432379,76.404594,-10.164383,124.928726,69.759483,-17.035715,3.252947,-4.944098,1.845860,-2.825802,-14.111454,-6.851002,-7.430289,-7.593447,-9.834754,-16.430672,-7.170182,-16.869137,0.000000,228.000000,4.000000,,,,0.000000,4.000000,4.000000,4.000000,4.000000,4.000000,4.000000,4.000000,4.000000,4.000000,4.000000,4.000000,4.000000,4.000000,4.000000,2.000000,4.000000,4.000000,4.000000,4.000000,2.000000,2.000000,4.000000,4.000000,4.000000,4.000000,4.000000,4.000000,4.000000,4.000000,4.000000,4.000000,4.000000,50.000000
1614074517.114734,90.000000,0.000000,-0.919985,-1.367740,9.475307,10.954078,16.575006,-1.610871,9.720226,15.961637,10.163055,18.031677,13.908960,-3.996012,6.534625,25.262510,21.197819,81.456398,-2.461911,131.983276,58.407669,-14.454576,4.788155,-6.990437,2.356835,-3.848618,-13.071701,-6.844151,-7.422859,-8.098675,-9.824919,-15.901422,-7.163012,-16.339447,0.000000,171.000000,4.000000,,,,0.000000,4.000000,4.000000,4.000000,4.000000,4.000000,4.000000,4.000000,4.000000,4.000000,4.000000,4.000000,4.000000,4.000000,4.000000,2.000000,4.000000,4.000000,4.000000,4.000000,2.000000,2.000000,4.000000,4.000000,4.000000,4.000000,4.000000,4.000000,4.000000,4.000000,4.000000,4.000000,4.000000,50.000000
1614074517.122383,91.000000,0.000000,-0.919065,-1.879193,5.363267,7.353380,8.353304,-2.634901,5.607942,10.817471,8.614430,6.218773,-2.515205,-3.479195,-9.369346,-2.967881,6.304826,49.067249,0.104654,138.005142,70.656952,-7.773455,6.321828,-5.444984,3.380119,-3.331949,-13.058629,-6.324487,-6.902616,-7.577755,-9.302274,-15.885520,-14.848157,-17.861568,0.000000,146.000000,4.000000,,,,0.000000,4.000000,4.000000,4.000000,4.000000,4.000000,4.000000,4.000000,4.000000,4.000000,4.000000,4.000000,4.000000,4.000000,4.000000,2.000000,4.000000,4.000000,4.000000,4.000000,2.000000,2.000000,4.000000,4.000000,4.000000,4.000000,4.000000,4.000000,4.000000,4.000000,4.000000,4.000000,4.000000,50.000000
1614074517.130133,92.000000,0.000000,-0.918145,-1.877314,-4.385686,-2.910383,-3.962742,-5.196368,1.499770,4.139987,-0.624953,-8.659241,-19.435766,-10.142383,-18.590746,-20.400810,-2.932249,16.710489,-1.433913,115.303040,78.278603,-8.791322,6.315506,-6.465180,1.838277,-2.302975,-14.071212,-8.882265,-6.895713,-7.570178,-10.318612,-18.433737,-18.423052,-20.407810,0.000000,187.000000,4.000000,,,,0.000000,4.000000,4.000000,4.000000,4.000000,4.000000,4.000000,4.000000,4.000000,4.000000,4.000000,4.000000,4.000000,4.000000,4.000000,2.000000,4.000000,4.000000,4.000000,4.000000,2.000000,2.000000,4.000000,4.000000,4.000000,4.000000,4.000000,4.000000,4.000000,4.000000,4.000000,4.000000,4.000000,50.000000
1614074517.137782,93.000000,0.000000,-0.917227,-1.875437,-7.971044,-5.984396,-4.471600,-6.216813,0.472629,6.187129,-2.675610,-6.086479,-10.698382,-1.414292,-10.879847,-4.995794,-1.390855,38.745060,4.721367,101.341583,57.174686,-11.859454,4.770730,-5.945895,6.964644,-3.839134,-9.954576,-9.899024,-4.837535,-7.562607,-9.795473,-18.415302,-16.866167,-19.874580,0.000000,136.000000,4.000000,,,,0.000000,4.000000,4.000000,4.000000,4.000000,4.000000,4.000000,4.000000,4.000000,4.000000,4.000000,4.000000,4.000000,4.000000,4.000000,2.000000,4.000000,4.000000,4.000000,4.000000,2.000000,2.000000,4.000000,4.000000,4.000000,4.000000,4.000000,4.000000,4.000000,4.000000,4.000000,4.000000,4.000000,50.000000
1614074517.145532,94.000000,0.000000,1.134972,-1.873561,2.806158,3.252357,12.455949,-2.620853,10.215747,11.821967,10.660399,6.740120,11.876419,18.587122,5.541289,19.624586,13.482331,71.526825,14.460236,129.958191,53.014946,-2.616825,7.330061,6.880564,24.393578,-0.245551,0.311788,-5.786561,-0.730133,-6.529404,-5.170293,-9.678939,-17.362122,-17.290604,0.000000,207.000000,4.000000,,,,0.000000,4.000000,4.000000,4.000000,4.000000,4.000000,4.000000,4.000000,4.000000,4.000000,4.000000,4.000000,4.000000,4.000000,4.000000,2.000000,4.000000,4.000000,4.000000,4.000000,2.000000,2.000000,4.000000,4.000000,4.000000,4.000000,4.000000,4.000000,4.000000,4.000000,4.000000,4.000000,4.000000,50.000000
1614074517.153182,95.000000,0.000000,3.185119,-1.871688,11.521300,8.890131,21.674261,1.997153,15.333735,12.322966,19.367687,10.835944,13.915825,25.235203,12.202415,26.271627,20.135515,80.686073,19.573980,157.007721,73.987572,3.026817,13.989398,18.668554,32.061493,14.113668,6.465322,-2.191030,4.398802,-3.958772,-2.088200,-4.028234,-17.857580,-16.247673,0.000000,207.000000,4.000000,,,,0.000000,4.000000,4.000000,4.000000,4.000000,4.000000,4.000000,4.000000,4.000000,4.000000,4.000000,4.000000,4.000000,4.000000,4.000000,2.000000,4.000000,4.000000,4.000000,4.000000,2.000000,2.000000,4.000000,4.000000,4.000000,4.000000,4.000000,4.000000,4.000000,4.000000,4.000000,4.000000,4.000000,50.000000
1614074517.160931,96.000000,0.000000,2.156293,-1.869816,1.766189,2.214574,9.857716,2.507976,5.574812,9.746540,11.656012,7.235365,2.619858,15.466377,3.472264,13.424844,3.705123,72.913078,16.990305,141.978912,70.836662,-12.873646,16.539511,12.496040,18.696096,20.766222,4.407575,-3.214480,3.881582,-2.929172,-2.086112,-6.588309,-17.326902,-16.744246,8064.000000,0.000000,4.000000,,,,0.000000,4.000000,4.000000,4.000000,4.000000,4.000000,4.000000,4.000000,4.000000,4.000000,4.000000,4.000000,4.000000,4.000000,4.000000,2.000000,4.000000,4.000000,4.000000,4.000000,2.000000,2.000000,4.000000,4.000000,4.000000,4.000000,4.000000,4.000000,4.000000,4.000000,4.000000,4.000000,4.000000,50.000000
1614074517.168581,97.000000,0.000000,-0.409966,-1.867946,-5.927885,-2.915846,4.719653,1.479827,0.441032,7.685512,5.490510,5.176847,0.565956,8.271423,-6.274798,-0.947556,-11.170377,64.122215,6.716904,116.708733,44.611980,-27.732567,11.907587,1.714314,6.369708,7.924942,-0.725037,-5.262548,-1.250504,-6.515986,-2.084025,-8.633002,-17.309576,-17.240322,8064.000000,0.000000,4.000000,,,,0.000000,4.000000,4.000000,4.000000,4.000000,4.000000,4.000000,4.000000,4.000000,4.000000,4.000000,4.000000,4.000000,4.000000,4.000000,2.000000,4.000000,4.000000,4.000000,4.000000,2.000000,2.000000,4.000000,4.000000,4.000000,4.000000,4.000000,4.000000,4.000000,4.000000,4.000000,4.000000,4.000000,50.000000
1614074517.176330,98.000000,0.000000,-1.435197,-1.866078,3.308813,-1.374468,15.996984,4.042450,7.620079,8.703467,11.126045,10.299875,8.257697,16.468281,-4.217242,5.207238,-7.056642,55.852966,-0.982121,111.463814,33.285316,-28.217655,8.818756,-1.877144,8.927441,-3.365034,-4.826877,-6.282927,-3.813356,-10.612035,-2.594762,-8.111549,-17.292265,-16.197439,8064.000000,0.000000,4.000000,,,,0.000000,4.000000,4.000000,4.000000,4.000000,4.000000,4.000000,4.000000,4.000000,4.000000,4.000000,4.000000,4.000000,4.000000,4.000000,2.000000,4.000000,4.000000,4.000000,4.000000,2.000000,2.000000,4.000000,4.000000,4.000000,4.000000,4.000000,4.000000,4.000000,4.000000,4.000000,4.000000,4.000000,50.000000
1614074517.183980,99.000000,0.000000,-0.920941,-1.864212,11.510633,-0.860273,20.596373,6.602510,10.176561,10.746046,15.217483,16.956242,14.403286,26.195402,9.120309,25.714851,1.155543,68.104805,1.070143,116.480560,47.611008,-27.163795,9.835579,-3.413729,10.969795,-2.848848,-6.360511,-8.327926,-3.809543,-11.627064,-5.156270,-8.103437,-17.274973,-16.694063,8064.000000,0.000000,4.000000,,,,0.000000,4.000000,4.000000,4.000000,4.000000,4.000000,4.000000,4.000000,4.000000,4.000000,4.000000,4.000000,4.000000,4.000000,4.000000,2.000000,4.000000,4.000000,4.000000,4.000000,2.000000,2.000000,4.000000,4.000000,4.000000,4.000000,4.000000,4.000000,4.000000,4.000000,4.000000,4.000000,4.000000,50.000000
1614074517.191829,100.000000,0.000000,-0.920020,-1.862348,8.935019,-1.885054,14.421929,5.570266,7.602282,11.760941,14.176624,18.477747,17.465805,23.605104,16.803497,31.842983,2.692849,94.703369,6.197278,124.056381,75.768524,-23.034069,12.902666,0.179429,9.420364,-3.358820,-5.841330,-10.370879,-3.805733,-10.589795,-6.689575,-8.608154,-17.257698,-18.215830,8064.000000,0.000000,4.000000,,,,0.000000,4.000000,4.000000,4.000000,4.000000,4.000000,4.000000,4.000000,4.000000,4.000000,4.000000,4.000000,4.000000,4.000000,4.000000,2.000000,4.000000,4.000000,4.000000,4.000000,2.000000,2.000000,4.000000,4.000000,4.000000,4.000000,4.000000,4.000000,4.000000,4.000000,4.000000,4.000000,4.000000,50.000000
1614074517.199579,101.000000,0.000000,-1.431921,-1.860486,8.413263,-1.883169,13.381866,5.564696,9.133142,12.262000,13.649628,16.407988,17.448339,18.966114,7.555923,18.477806,-1.412408,78.711227,5.678260,130.086182,79.795319,-12.241803,13.402584,7.871557,9.923764,-3.355461,-5.835489,-8.309227,-3.289107,-11.092026,-6.170065,-8.086726,-17.240440,-13.582231,8064.000000,0.000000,4.000000,,,,0.000000,4.000000,4.000000,4.000000,4.000000,4.000000,4.000000,4.000000,4.000000,4.000000,4.000000,4.000000,4.000000,4.000000,4.000000,2.000000,4.000000,4.000000,4.000000,4.000000,2.000000,2.000000,4.000000,4.000000,4.000000,4.000000,4.000000,4.000000,4.000000,4.000000,4.000000,4.000000,4.000000,50.000000
1614074517.207429,102.000000,0.000000,-1.430489,-1.345805,10.456132,-1.368465,16.445408,6.584773,7.072726,11.224097,13.123158,18.955683,11.277045,18.947147,-4.759325,9.228559,-6.026381,46.324821,5.672582,124.827881,52.536037,-7.101357,5.696874,3.761121,6.324097,3.827382,-6.342474,-5.736815,-5.337100,-11.080935,-6.163895,-8.078639,-16.710381,-6.389161,8064.000000,0.000000,4.000000,,,,0.000000,4.000000,4.000000,4.000000,4.000000,4.000000,4.000000,4.000000,4.000000,4.000000,4.000000,4.000000,4.000000,4.000000,4.000000,2.000000,4.000000,4.000000,4.000000,4.000000,2.000000,2.000000,4.000000,4.000000,4.000000,4.000000,4.000000,4.000000,4.000000,4.000000,4.000000,4.000000,4.000000,50.000000
1614074517.215178,103.000000,0.000000,-0.916238,-2.882920,6.343112,-0.341456,11.300757,2.475624,2.450269,7.623130,8.494650,16.885445,2.547820,12.774355,-6.293027,10.757792,-0.892149,54.483627,6.692551,127.779976,53.509140,-8.632716,-2.001131,-4.447768,-0.348894,8.951759,-5.823311,-6.243898,-6.357404,-11.069853,-6.157731,-8.583381,-16.693668,-4.844310,8064.000000,0.000000,4.000000,,,,0.000000,4.000000,4.000000,4.000000,4.000000,4.000000,4.000000,4.000000,4.000000,4.000000,4.000000,4.000000,4.000000,4.000000,4.000000,2.000000,4.000000,4.000000,4.000000,4.000000,2.000000,2.000000,4.000000,4.000000,4.000000,4.000000,4.000000,4.000000,4.000000,4.000000,4.000000,4.000000,4.000000,50.000000
1614074517.223028,104.000000,0.000000,-0.402501,-4.931319,-0.842718,-2.392396,1.033046,-3.680698,0.909357,5.051404,1.306668,0.971123,-2.582933,4.556452,-6.799554,3.054727,2.185666,83.659912,6.685858,133.293228,78.583839,-8.111263,-1.999130,-1.366397,0.164276,8.429987,-5.817488,-6.750475,-0.710021,-11.058784,-6.151573,-7.549157,-17.189796,-5.352286,8064.000000,0.000000,4.000000,,,,0.000000,4.000000,4.000000,4.000000,4.000000,4.000000,4.000000,4.000000,4.000000,4.000000,4.000000,4.000000,4.000000,4.000000,4.000000,2.000000,4.000000,4.000000,4.000000,4.000000,2.000000,2.000000,4.000000,4.000000,4.000000,4.000000,4.000000,4.000000,4.000000,4.000000,4.000000,4.000000,4.000000,50.000000
1614074517.230777,105.000000,0.000000,-1.940560,-5.952029,-2.893158,-4.954107,-4.609012,-5.728300,0.908448,2.482250,-4.335665,-14.414463,-5.144453,3.526255,-10.895319,-15.409866,-7.560109,54.858303,6.166352,114.185570,63.120640,-8.103152,-1.484310,1.711892,3.241034,7.908737,-6.324491,-5.718084,4.418894,-11.047725,-6.145422,-9.080069,-15.634145,-1.757190,8064.000000,0.000000,4.000000,,,,0.000000,4.000000,4.000000,4.000000,4.000000,4.000000,4.000000,4.000000,4.000000,4.000000,4.000000,4.000000,4.000000,4.000000,4.000000,2.000000,4.000000,4.000000,4.000000,4.000000,2.000000,2.000000,4.000000,4.000000,4.000000,4.000000,4.000000,4.000000,4.000000,4.000000,4.000000,4.000000,4.000000,50.000000
1614074517.238627,106.000000,0.000000,0.112662,-5.433257,-0.838982,-4.436332,-4.604403,-5.209751,1.933180,0.941306,-5.356970,-13.887228,-7.190591,4.035549,-5.243398,-13.855995,-4.988446,30.188061,6.160185,99.199593,35.878029,-8.095049,-1.995646,-1.879563,2.212152,8.926469,-5.805346,-7.763648,4.927296,-11.036676,-6.139276,-13.173553,-12.541588,-3.293895,8064.000000,0.000000,4.000000,,,,0.000000,4.000000,4.000000,4.000000,4.000000,4.000000,4.000000,4.000000,4.000000,4.000000,4.000000,4.000000,4.000000,4.000000,4.000000,2.000000,4.000000,4.000000,4.000000,4.000000,2.000000,2.000000,4.000000,4.000000,4.000000,4.000000,4.000000,4.000000,4.000000,4.000000,4.000000,4.000000,4.000000,50.000000
1614074517.246376,107.000000,0.000000,5.240755,-5.427824,-4.427887,-6.483178,-3.574158,-5.204541,3.469708,2.478827,-4.838792,-6.181033,-3.080836,4.544334,7.069538,8.209143,12.965260,62.978386,6.666846,109.356804,44.047279,-6.035672,-1.480830,-2.903325,2.209940,8.404722,-5.799540,-14.422551,4.409548,-11.025640,-6.133137,-15.724482,-15.093148,-10.470088,8064.000000,0.000000,4.000000,,,,0.000000,4.000000,4.000000,4.000000,4.000000,4.000000,4.000000,4.000000,4.000000,4.000000,4.000000,4.000000,4.000000,4.000000,4.000000,2.000000,4.000000,4.000000,4.000000,4.000000,2.000000,2.000000,4.000000,4.000000,4.000000,4.000000,4.000000,4.000000,4.000000,4.000000,4.000000,4.000000,4.000000,50.000000
1614074517.254226,108.000000,0.000000,4.722693,-5.422396,-11.602946,-14.169003,-4.596225,-5.712157,5.517521,5.040450,-5.346774,-5.662032,2.563271,4.026969,8.088109,12.303498,12.439474,72.146179,4.608897,102.067955,48.105797,-4.491175,-4.043452,-6.490165,2.207730,5.832215,-6.306561,-18.510693,-0.210246,-11.014614,-6.127004,-17.247219,-22.770363,-14.049361,8064.000000,0.000000,4.000000,,,,0.000000,4.000000,4.000000,4.000000,4.000000,4.000000,4.000000,4.000000,4.000000,4.000000,4.000000,4.000000,4.000000,4.000000,4.000000,2.000000,4.000000,4.000000,4.000000,4.000000,2.000000,2.000000,4.000000,4.000000,4.000000,4.000000,4.000000,4.000000,4.000000,4.000000,4.000000,4.000000,4.000000,50.000000
1614074517.261975,109.000000,0.000000,-0.410234,-5.416973,-13.129805,-16.206116,-4.591629,-5.193624,4.999183,2.471307,-4.828607,-7.194831,-0.003395,-4.695006,1.413355,2.547605,1.657804,45.407364,-0.523917,94.786400,42.416668,-6.537965,-5.577870,-13.663162,-0.358580,3.262280,-5.787434,-17.466541,-6.363882,-11.003600,-6.120877,-18.768433,-23.773233,-13.522491,8064.000000,0.000000,4.000000,,,,0.000000,4.000000,4.000000,4.000000,4.000000,4.000000,4.000000,4.000000,4.000000,4.000000,4.000000,4.000000,4.000000,4.000000,4.000000,2.000000,4.000000,4.000000,4.000000,4.000000,2.000000,2.000000,4.000000,4.000000,4.000000,4.000000,4.000000,4.000000,4.000000,4.000000,4.000000,4.000000,4.000000,50.000000
1614074517.269825,110.000000,0.000000,-1.948286,-5.411556,-10.039752,-10.036063,0.028348,-5.188431,4.994184,-0.095267,0.817247,2.043133,-1.541853,-10.844157,0.386300,8.698903,11.399735,75.105545,-2.574675,127.512131,62.887070,-10.121171,0.068734,-11.085397,-1.896683,0.694915,-1.166262,-15.397792,-7.895980,-10.992597,-6.114756,-17.724024,-16.057154,-12.483328,8064.000000,0.000000,4.000000,,,,0.000000,4.000000,4.000000,4.000000,4.000000,4.000000,4.000000,4.000000,4.000000,4.000000,4.000000,4.000000,4.000000,4.000000,4.000000,2.000000,4.000000,4.000000,4.000000,4.000000,2.000000,2.000000,4.000000,4.000000,4.000000,4.000000,4.000000,4.000000,4.000000,4.000000,4.000000,4.000000,4.000000,50.000000
1614074517.277574,111.000000,0.000000,-1.433517,-5.406145,-8.491251,-7.974745,6.182166,-5.183242,4.989190,5.033034,6.970276,14.861603,7.177637,-5.705108,2.950016,22.023539,23.696028,107.850952,0.504822,154.051285,77.183159,-7.034127,5.709691,-4.407644,-0.356325,-0.331421,1.911827,-13.843932,-7.375263,-10.981604,-6.108641,-15.142198,-12.451352,-10.932384,8064.000000,0.000000,4.000000,,,,0.000000,4.000000,4.000000,4.000000,4.000000,4.000000,4.000000,4.000000,4.000000,4.000000,4.000000,4.000000,4.000000,4.000000,4.000000,2.000000,4.000000,4.000000,4.000000,4.000000,2.000000,2.000000,4.000000,4.000000,4.000000,4.000000,4.000000,4.000000,4.000000,4.000000,4.000000,4.000000,4.000000,50.000000
1614074517.285424,112.000000,0.000000,-0.406442,-5.400738,-9.508401,-8.479590,8.227265,-5.690879,4.984200,13.233129,10.040229,19.462126,16.914049,0.967263,4.485528,22.001514,21.621050,76.461052,4.606882,128.769028,66.849564,4.254959,6.216801,-1.326313,2.720955,2.233013,1.909915,-13.830089,-7.367888,-10.970622,-6.102532,-15.639875,-13.977363,-8.870169,8064.000000,0.000000,4.000000,,,,0.000000,4.000000,4.000000,4.000000,4.000000,4.000000,4.000000,4.000000,4.000000,4.000000,4.000000,4.000000,4.000000,4.000000,4.000000,2.000000,4.000000,4.000000,4.000000,4.000000,2.000000,2.000000,4.000000,4.000000,4.000000,4.000000,4.000000,4.000000,4.000000,4.000000,4.000000,4.000000,4.000000,50.000000
1614074517.293173,113.000000,0.000000,3.183708,-5.395338,-8.986072,-7.958291,7.706218,-5.172368,4.979216,16.296820,10.543009,17.391382,18.948418,1.479117,4.993863,20.953871,19.035326,55.871769,7.166378,119.409492,71.398102,11.943011,7.749046,2.264756,3.743875,6.846165,1.395185,-13.816258,-4.283597,-11.472472,-6.096430,-15.111415,-13.450564,-9.374119,8064.000000,0.000000,4.000000,,,,0.000000,4.000000,4.000000,4.000000,4.000000,4.000000,4.000000,4.000000,4.000000,4.000000,4.000000,4.000000,4.000000,4.000000,4.000000,2.000000,4.000000,4.000000,4.000000,4.000000,2.000000,2.000000,4.000000,4.000000,4.000000,4.000000,4.000000,4.000000,4.000000,4.000000,4.000000,4.000000,4.000000,50.000000
1614074517.301023,114.000000,0.000000,1.642063,-5.389942,-8.464265,-10.514435,6.672871,-5.167196,4.974237,15.254881,8.994004,15.322708,13.801264,1.477638,4.476048,20.420097,20.041933,78.892822,9.723313,142.879822,85.685677,10.392607,10.305400,5.339415,1.176028,8.890600,1.906610,-13.802443,-0.176749,-9.922538,-6.090333,-15.096304,-12.924294,-9.364745,8064.000000,0.000000,4.000000,,,,0.000000,4.000000,4.000000,4.000000,4.000000,4.000000,4.000000,4.000000,4.000000,4.000000,4.000000,4.000000,4.000000,4.000000,4.000000,2.000000,4.000000,4.000000,4.000000,4.000000,2.000000,2.000000,4.000000,4.000000,4.000000,4.000000,4.000000,4.000000,4.000000,4.000000,4.000000,4.000000,4.000000,50.000000
1614074517.308772,115.000000,0.000000,3.178882,-5.384552,-8.968621,-14.606484,4.614915,-8.238952,4.969263,15.239626,6.933729,14.794565,7.633616,0.450519,4.984393,12.707370,21.047531,70.608803,10.226411,146.839508,85.599991,8.843753,9.782273,6.359716,4.764596,8.368890,1.904704,-13.788640,1.874710,-7.861333,-6.084243,-15.594028,-15.475471,-8.842560,8064.000000,0.000000,4.000000,,,,0.000000,4.000000,4.000000,4.000000,4.000000,4.000000,4.000000,4.000000,4.000000,4.000000,4.000000,4.000000,4.000000,4.000000,4.000000,2.000000,4.000000,4.000000,4.000000,4.000000,2.000000,2.000000,4.000000,4.000000,4.000000,4.000000,4.000000,4.000000,4.000000,4.000000,4.000000,4.000000,4.000000,50.000000
1614074517.316422,116.000000,0.000000,14.457754,-5.379168,-8.959653,-16.130339,3.071839,-8.743533,5.477114,15.737207,6.413974,13.241309,5.061880,2.501350,4.979409,6.027996,20.513664,50.538189,10.729005,129.256775,81.411827,12.424652,9.772491,8.917459,19.631626,7.847700,1.902799,-13.774851,4.436937,-6.827831,-5.565339,-14.552793,-16.998457,-8.833717,8064.000000,0.000000,4.000000,,,,0.000000,4.000000,4.000000,4.000000,4.000000,4.000000,4.000000,4.000000,4.000000,4.000000,4.000000,4.000000,4.000000,4.000000,4.000000,2.000000,4.000000,4.000000,4.000000,4.000000,2.000000,2.000000,4.000000,4.000000,4.000000,4.000000,4.000000,4.000000,4.000000,4.000000,4.000000,4.000000,4.000000,50.000000
1614074517.324171,117.000000,0.000000,12.904835,-5.373789,-8.950693,-16.627029,3.581588,-4.119405,5.471637,15.208650,6.407560,9.125504,6.082459,7.627054,2.410327,4.483506,9.723919,70.487656,10.718276,115.281357,69.022720,8.822484,8.224257,7.370080,24.740200,8.865494,-0.150386,-13.761076,3.919680,-7.333824,-6.072594,-15.051061,-16.981459,-8.312063,8064.000000,0.000000,4.000000,,,,0.000000,4.000000,4.000000,4.000000,4.000000,4.000000,4.000000,4.000000,4.000000,4.000000,4.000000,4.000000,4.000000,4.000000,4.000000,2.000000,4.000000,4.000000,4.000000,4.000000,2.000000,2.000000,4.000000,4.000000,4.000000,4.000000,4.000000,4.000000,4.000000,4.000000,4.000000,4.000000,4.000000,50.000000
1614074517.331821,118.000000,0.000000,-1.979865,-5.368415,-8.941742,-13.020659,2.552365,-1.038363,2.389242,14.680620,5.888332,5.013813,1.460992,1.465581,-2.207468,-0.136362,-2.593497,73.494087,4.040891,101.832748,46.902416,-8.622235,5.651930,-2.893700,12.407767,8.343807,-3.739979,-13.747315,3.402940,-7.326490,-6.066521,-21.702677,-16.964478,-9.842213,8064.000000,0.000000,4.000000,,,,0.000000,4.000000,4.000000,4.000000,4.000000,4.000000,4.000000,4.000000,4.000000,4.000000,4.000000,4.000000,4.000000,4.000000,4.000000,2.000000,4.000000,4.000000,4.000000,4.000000,2.000000,2.000000,4.000000,4.000000,4.000000,4.000000,4.000000,4.000000,4.000000,4.000000,4.000000,4.000000,4.000000,50.000000
1614074517.339571,119.000000,0.000000,-3.516346,-5.363047,-8.932800,-5.828151,3.575454,-1.550145,1.361212,15.178760,6.395265,5.521620,-4.694315,-13.407680,-6.307825,-2.187508,-3.616545,41.112900,-6.219560,93.525787,37.624744,-20.921307,6.159099,-6.993371,4.190231,0.643156,-5.787521,-13.733568,5.450819,-6.806343,-5.547634,-25.783537,-16.947514,-8.806729,8064.000000,0.000000,4.000000,,,,0.000000,4.000000,4.000000,4.000000,4.000000,4.000000,4.000000,4.000000,4.000000,4.000000,4.000000,4.000000,4.000000,4.000000,4.000000,2.000000,4.000000,4.000000,4.000000,4.000000,2.000000,2.000000,4.000000,4.000000,4.000000,4.000000,4.000000,4.000000,4.000000,4.000000,4.000000,4.000000,4.000000,50.000000
1614074517.347220,120.000000,0.000000,2.641016,-5.357684,-8.923868,-4.796682,4.597519,-1.548594,1.872671,16.189222,6.901690,5.516099,-5.202441,-15.445554,-7.839979,-2.185320,-2.074466,37.994865,-9.290264,94.457901,39.125580,-20.387564,3.588837,-6.473557,6.750144,-7.049795,-6.294554,-13.719834,-0.195658,-7.312357,-7.080548,-23.193651,-16.930565,-7.772282,8064.000000,0.000000,4.000000,,,,0.000000,4.000000,4.000000,4.000000,4.000000,4.000000,4.000000,4.000000,4.000000,4.000000,4.000000,4.000000,4.000000,4.000000,4.000000,2.000000,4.000000,4.000000,4.000000,4.000000,2.000000,2.000000,4.000000,4.000000,4.000000,4.000000,4.000000,4.000000,4.000000,4.000000,4.000000,4.000000,4.000000,50.000000
1614074517.354970,121.000000,0.000000,-2.489830,-5.352326,-8.402123,-7.868809,2.028819,-2.059866,-1.206125,15.147392,5.869147,6.536224,-3.145957,-5.686519,-4.755216,-2.695956,-2.585213,64.623535,-9.280973,94.876259,42.163380,-20.367176,-1.030136,-11.082468,6.230573,-7.042745,-5.262619,-13.706115,-9.426231,-7.305045,-9.124749,-24.196098,-16.913635,-14.943996,8064.000000,0.000000,4.000000,,,,0.000000,4.000000,4.000000,4.000000,4.000000,4.000000,4.000000,4.000000,4.000000,4.000000,4.000000,4.000000,4.000000,4.000000,4.000000,2.000000,4.000000,4.000000,4.000000,4.000000,2.000000,2.000000,4.000000,4.000000,4.000000,4.000000,4.000000,4.000000,4.000000,4.000000,4.000000,4.000000,4.000000,50.000000
1614074517.362619,122.000000,0.000000,-4.538622,-5.346973,-8.906542,-8.373760,6.642175,-0.006524,-2.230560,16.670706,6.376099,15.247636,5.575138,0.473014,3.454668,8.588792,5.109680,71.738403,-8.758872,107.601898,57.505833,-16.757065,9.740125,-5.430360,6.224342,-7.548523,-3.718894,-13.692409,-2.750138,-7.297740,-9.628446,-25.710365,-16.896721,-23.134180,8064.000000,0.000000,4.000000,,,,0.000000,4.000000,4.000000,4.000000,4.000000,4.000000,4.000000,4.000000,4.000000,4.000000,4.000000,4.000000,4.000000,4.000000,4.000000,2.000000,4.000000,4.000000,4.000000,4.000000,2.000000,2.000000,4.000000,4.000000,4.000000,4.000000,4.000000,4.000000,4.000000,4.000000,4.000000,4.000000,4.000000,50.000000
1614074517.370369,123.000000,0.000000,4.183865,-5.341627,-8.897635,-7.852566,16.891943,5.121687,4.438338,25.371984,9.446646,26.514441,19.928537,3.549464,11.656342,24.990459,16.899443,70.128204,0.480656,140.314804,82.063713,1.721230,29.217564,18.164814,12.884785,-4.464051,-1.663893,-13.678716,10.585945,-7.290442,-9.618816,-21.069269,-16.879826,-20.034122,8064.000000,0.000000,4.000000,,,,0.000000,4.000000,4.000000,4.000000,4.000000,4.000000,4.000000,4.000000,4.000000,4.000000,4.000000,4.000000,4.000000,4.000000,4.000000,2.000000,4.000000,4.000000,4.000000,4.000000,2.000000,2.000000,4.000000,4.000000,4.000000,4.000000,4.000000,4.000000,4.000000,4.000000,4.000000,4.000000,4.000000,50.000000
1614074517.378019,124.000000,0.000000,6.743784,-5.336285,-8.375917,-8.357533,14.310948,3.065284,8.023643,27.910715,8.924378,24.949465,20.934250,7.648479,12.670326,27.529572,16.882544,74.673454,10.736586,149.405258,90.186775,13.001560,32.778091,27.890240,17.487284,10.412208,-1.662229,-13.665037,13.139462,-7.283152,-9.609198,-17.458456,-16.862946,-15.398705,8192.000000,0.000000,4.000000,,,,0.000000,4.000000,4.000000,4.000000,4.000000,4.000000,4.000000,4.000000,4.000000,4.000000,4.000000,4.000000,4.000000,4.000000,4.000000,2.000000,4.000000,4.000000,4.000000,4.000000,2.000000,2.000000,4.000000,4.000000,4.000000,4.000000,4.000000,4.000000,4.000000,4.000000,4.000000,4.000000,4.000000,50.000000
1614074517.385768,125.000000,0.000000,2.634476,-5.330949,-9.393182,-8.349176,1.988945,-1.553167,2.887414,13.011009,4.300069,12.104002,7.579982,9.179292,5.478168,17.245632,6.096430,65.368011,8.674567,116.948166,64.968384,2.732148,21.463261,9.913631,17.982618,19.632565,-3.711849,-13.138552,9.536579,-7.275868,-9.599588,-21.543562,-16.846083,-17.947409,8064.000000,0.000000,4.000000,,,,0.000000,4.000000,4.000000,4.000000,4.000000,4.000000,4.000000,4.000000,4.000000,4.000000,4.000000,4.000000,4.000000,4.000000,4.000000,2.000000,4.000000,4.000000,4.000000,4.000000,2.000000,2.000000,4.000000,4.000000,4.000000,4.000000,4.000000,4.000000,4.000000,4.000000,4.000000,4.000000,4.000000,50.000000
1614074517.393418,126.000000,0.000000,2.119021,-5.325618,-12.973533,-8.340827,-1.602787,-1.551613,0.320424,-4.437899,1.731667,2.348308,1.931376,8.144471,-1.193976,4.407873,-1.601974,55.559055,3.537687,105.549164,42.852131,-8.039815,13.749490,-2.403975,16.938993,10.894983,-7.810701,-15.176695,7.988581,-6.755772,-11.641272,-26.137403,-16.829235,-20.493563,8064.000000,0.000000,4.000000,,,,0.000000,4.000000,4.000000,4.000000,4.000000,4.000000,4.000000,4.000000,4.000000,4.000000,4.000000,4.000000,4.000000,4.000000,4.000000,2.000000,4.000000,4.000000,4.000000,4.000000,2.000000,2.000000,4.000000,4.000000,4.000000,4.000000,4.000000,4.000000,4.000000,4.000000,4.000000,4.000000,4.000000,50.000000
1614074517.401167,127.000000,0.000000,3.142543,-4.807472,-16.550303,-8.332486,0.450098,-2.062882,1.858565,-8.536025,2.755576,0.807498,0.903804,8.136327,-2.731244,-6.365766,-0.574731,62.682983,3.021329,138.264130,63.834923,-8.031775,13.222920,4.265096,13.845132,0.627678,-9.854173,-16.699980,5.416490,-7.261837,-13.168092,-27.136908,-16.812407,-20.473070,8064.000000,0.000000,4.000000,,,,0.000000,4.000000,4.000000,4.000000,4.000000,4.000000,4.000000,4.000000,4.000000,4.000000,4.000000,4.000000,4.000000,4.000000,4.000000,2.000000,4.000000,4.000000,4.000000,4.000000,2.000000,2.000000,4.000000,4.000000,4.000000,4.000000,4.000000,4.000000,4.000000,4.000000,4.000000,4.000000,4.000000,50.000000
1614074517.408817,0.000000,0.000000,2.626580,-5.315485,-16.020931,-8.324154,-1.088814,-1.035178,1.856707,-5.963387,2.752820,1.832332,-9.866330,10.692293,-4.266974,-10.461964,-4.163900,53.902355,-0.571436,128.895096,76.591599,-9.049384,13.722518,2.722369,9.728723,0.627050,-9.844318,-14.631998,3.872612,-7.254575,-11.103642,-23.520027,-16.795595,-19.426956,0.000000,177.000000,4.000000,,,,0.000000,4.000000,4.000000,4.000000,4.000000,4.000000,4.000000,4.000000,4.000000,4.000000,4.000000,4.000000,4.000000,4.000000,4.000000,2.000000,4.000000,4.000000,4.000000,4.000000,2.000000,2.000000,4.000000,4.000000,4.000000,4.000000,4.000000,4.000000,4.000000,4.000000,4.000000,4.000000,4.000000,50.000000
1614074517.416667,1.000000,0.000000,2.623953,-5.310169,-12.927988,-8.315829,-0.574905,4.094062,0.829209,-9.034347,2.237247,1.317679,-18.061592,11.707242,-7.339630,-8.913040,-15.441788,34.874092,-7.750351,96.458511,44.207314,-12.630078,7.554949,-9.075225,9.206173,1.139244,-9.321654,-13.078904,2.843098,-4.170397,-9.041256,-16.829840,-16.778799,-13.766503,0.000000,203.000000,4.000000,,,,0.000000,4.000000,4.000000,4.000000,4.000000,4.000000,4.000000,4.000000,4.000000,4.000000,4.000000,4.000000,4.000000,4.000000,4.000000,2.000000,4.000000,4.000000,4.000000,4.000000,2.000000,2.000000,4.000000,4.000000,4.000000,4.000000,4.000000,4.000000,4.000000,4.000000,4.000000,4.000000,4.000000,50.000000
1614074517.424416,2.000000,0.000000,2.621330,-4.792038,-12.402240,-8.307514,-1.087150,3.064327,1.341200,-11.589415,2.747830,-4.324665,-14.966608,11.695535,-7.332291,-9.416948,-14.400705,51.762295,-9.281063,109.182564,34.419518,-14.155910,1.393548,-11.117432,7.658505,-0.400357,-9.312332,-14.091467,-0.749489,-4.166227,-9.545034,-14.248907,-16.762020,-8.624532,0.000000,184.000000,4.000000,,,,0.000000,4.000000,4.000000,4.000000,4.000000,4.000000,4.000000,4.000000,4.000000,4.000000,4.000000,4.000000,4.000000,4.000000,4.000000,2.000000,4.000000,4.000000,4.000000,4.000000,2.000000,2.000000,4.000000,4.000000,4.000000,4.000000,4.000000,4.000000,4.000000,4.000000,4.000000,4.000000,4.000000,50.000000
1614074517.432266,3.000000,0.000000,2.618708,-6.325708,-13.415478,-8.299207,-1.086063,-2.066942,1.339859,-7.475261,2.232262,-6.884442,-12.900359,11.683839,-6.299317,-9.920351,-4.129894,74.787453,-9.271782,131.124664,50.795353,-18.244318,0.879334,-10.080673,5.599565,0.112864,-9.815841,-13.564555,-5.364124,-10.828727,-9.535490,-15.773120,-16.745258,-8.103086,0.000000,178.000000,4.000000,,,,0.000000,4.000000,4.000000,4.000000,4.000000,4.000000,4.000000,4.000000,4.000000,4.000000,4.000000,4.000000,4.000000,4.000000,4.000000,2.000000,4.000000,4.000000,4.000000,4.000000,2.000000,2.000000,4.000000,4.000000,4.000000,4.000000,4.000000,4.000000,4.000000,4.000000,4.000000,4.000000,4.000000,50.000000
1614074517.440015,4.000000,0.000000,2.616089,-8.370665,-10.837960,-8.290907,5.581690,-0.526414,1.851340,-3.878042,2.742850,8.507057,-8.272074,11.672155,-7.831480,-4.269405,-2.587302,54.712669,-8.749689,98.685844,36.385586,-23.354279,2.416916,-13.660336,5.593966,-1.425710,-6.729102,-10.474067,-7.922863,-15.433283,-9.013134,-13.193244,-16.215693,-8.607804,0.000000,223.000000,4.000000,,,,0.000000,4.000000,4.000000,4.000000,4.000000,4.000000,4.000000,4.000000,4.000000,4.000000,4.000000,4.000000,4.000000,4.000000,4.000000,2.000000,4.000000,4.000000,4.000000,4.000000,2.000000,2.000000,4.000000,4.000000,4.000000,4.000000,4.000000,4.000000,4.000000,4.000000,4.000000,4.000000,4.000000,50.000000
1614074517.447865,5.000000,0.000000,3.126294,-8.875114,-5.698917,-8.282617,14.294057,1.525394,1.849488,-2.335703,5.304210,26.960089,5.069531,12.173304,-0.131340,2.914351,1.005028,34.145134,-3.612735,100.125626,39.938942,-18.715540,2.414499,-10.056932,6.101192,-3.988387,3.534038,-9.437952,-6.889298,-14.392209,-9.516941,-8.564667,-16.712297,-8.599196,0.000000,207.000000,4.000000,,,,0.000000,4.000000,4.000000,4.000000,4.000000,4.000000,4.000000,4.000000,4.000000,4.000000,4.000000,4.000000,4.000000,4.000000,4.000000,2.000000,4.000000,4.000000,4.000000,4.000000,2.000000,2.000000,4.000000,4.000000,4.000000,4.000000,4.000000,4.000000,4.000000,4.000000,4.000000,4.000000,4.000000,50.000000
1614074517.455614,6.000000,0.000000,3.123168,-8.866239,-4.154757,-8.274334,15.305404,-1.040234,1.334818,1.256376,6.837368,27.958769,13.782411,13.699592,12.689303,5.988360,13.311716,55.649452,2.544724,132.846008,72.719521,-7.414773,3.950546,-1.328927,6.095091,2.169447,10.197170,-9.941335,-4.831127,-14.377816,-9.507424,-7.017640,-16.695585,-9.103417,0.000000,161.000000,4.000000,,,,0.000000,4.000000,4.000000,4.000000,4.000000,4.000000,4.000000,4.000000,4.000000,4.000000,4.000000,4.000000,4.000000,4.000000,4.000000,2.000000,4.000000,4.000000,4.000000,4.000000,2.000000,2.000000,4.000000,4.000000,4.000000,4.000000,4.000000,4.000000,4.000000,4.000000,4.000000,4.000000,4.000000,50.000000
1614074517.463464,7.000000,0.000000,2.607224,-8.857372,-5.176243,-8.266059,13.751637,-2.577655,1.846304,4.844863,6.317709,25.366709,14.281448,15.224354,17.292000,7.008012,17.400969,82.260468,7.157564,136.302902,70.595512,-3.304794,9.074800,2.774966,6.088996,12.936508,4.545948,-9.931394,-3.287834,-12.824977,-9.497917,-7.010623,-15.653248,-7.555852,0.000000,187.000000,4.000000,,,,0.000000,4.000000,4.000000,4.000000,4.000000,4.000000,4.000000,4.000000,4.000000,4.000000,4.000000,4.000000,4.000000,4.000000,4.000000,2.000000,4.000000,4.000000,4.000000,4.000000,2.000000,2.000000,4.000000,4.000000,4.000000,4.000000,4.000000,4.000000,4.000000,4.000000,4.000000,4.000000,4.000000,50.000000
1614074517.471213,8.000000,0.000000,3.117437,-8.848516,-5.171067,-8.257793,14.763526,-1.549436,1.844458,5.352839,6.311392,24.315701,12.215885,16.747591,13.684963,5.975364,13.793823,77.562820,9.714509,119.756348,52.063381,-4.839951,9.578547,3.285012,6.082907,15.487675,-2.125265,-9.408641,-3.284547,-9.735229,-9.488419,-8.029253,-17.176056,-10.625220,0.000000,196.000000,4.000000,,,,0.000000,4.000000,4.000000,4.000000,4.000000,4.000000,4.000000,4.000000,4.000000,4.000000,4.000000,4.000000,4.000000,4.000000,4.000000,2.000000,4.000000,4.000000,4.000000,4.000000,2.000000,2.000000,4.000000,4.000000,4.000000,4.000000,4.000000,4.000000,4.000000,4.000000,4.000000,4.000000,4.000000,50.000000
1614074517.479063,9.000000,0.000000,3.114320,-8.839666,-4.653075,-8.249536,14.748763,-1.547887,-2.259951,4.321846,6.305080,9.932410,5.537003,14.166741,8.030253,-0.184458,11.728747,53.895515,7.653512,118.610954,66.883110,-4.322290,0.851019,-3.384940,6.076824,10.856802,-2.123140,-9.399233,-2.768442,-11.776776,-9.478930,-11.098146,-21.261444,-18.306902,0.000000,200.000000,4.000000,,,,0.000000,4.000000,4.000000,4.000000,4.000000,4.000000,4.000000,4.000000,4.000000,4.000000,4.000000,4.000000,4.000000,4.000000,4.000000,2.000000,4.000000,4.000000,4.000000,4.000000,2.000000,2.000000,4.000000,4.000000,4.000000,4.000000,4.000000,4.000000,4.000000,4.000000,4.000000,4.000000,4.000000,50.000000
1614074517.486812,10.000000,0.000000,-0.478538,-8.830827,-5.161242,-8.241286,14.221193,-1.546339,-6.360255,0.214959,6.298775,-5.462137,-3.186483,3.896164,1.868377,-5.825299,7.614455,38.457005,0.979192,99.005157,55.021358,-4.317968,-8.893422,-14.150785,6.070747,8.281843,-1.608196,-9.902654,-3.791314,-13.303461,-9.469452,-11.087049,-24.317106,-19.827057,0.000000,202.000000,4.000000,,,,0.000000,4.000000,4.000000,4.000000,4.000000,4.000000,4.000000,4.000000,4.000000,4.000000,4.000000,4.000000,4.000000,4.000000,4.000000,2.000000,4.000000,4.000000,4.000000,4.000000,2.000000,2.000000,4.000000,4.000000,4.000000,4.000000,4.000000,4.000000,4.000000,4.000000,4.000000,4.000000,4.000000,50.000000
1614074517.494662,11.000000,0.000000,-4.580624,-8.821997,-5.156081,-8.233045,14.206972,-2.057613,-6.353895,-3.374999,6.292477,-6.995137,-6.773040,-6.876963,0.328047,-5.306653,5.555558,44.059574,-2.098710,89.162567,28.299669,-4.826471,-11.448630,-18.239199,5.039035,4.170997,-2.632229,-9.892752,-6.351625,-11.238875,-9.459982,-11.075962,-23.779968,-14.166204,0.000000,149.000000,4.000000,,,,0.000000,4.000000,4.000000,4.000000,4.000000,4.000000,4.000000,4.000000,4.000000,4.000000,4.000000,4.000000,4.000000,4.000000,4.000000,2.000000,4.000000,4.000000,4.000000,4.000000,2.000000,2.000000,4.000000,4.000000,4.000000,4.000000,4.000000,4.000000,4.000000,4.000000,4.000000,4.000000,4.000000,50.000000
1614074517.502411,12.000000,0.000000,-5.088864,-8.813174,-5.150925,-8.224812,14.192765,-2.055555,-6.347541,-3.371624,6.286184,-5.962501,-5.740626,-7.895727,0.840539,-5.301347,3.498721,51.707825,-3.122252,99.842636,40.066242,-6.872926,-8.873079,-18.733780,5.546817,-4.551123,-3.142417,-9.370038,-7.883735,-11.740457,-9.450522,-18.244373,-23.243368,-13.639217,0.000000,206.000000,4.000000,,,,0.000000,4.000000,4.000000,4.000000,4.000000,4.000000,4.000000,4.000000,4.000000,4.000000,4.000000,4.000000,4.000000,4.000000,4.000000,2.000000,4.000000,4.000000,4.000000,4.000000,2.000000,2.000000,4.000000,4.000000,4.000000,4.000000,4.000000,4.000000,4.000000,4.000000,4.000000,4.000000,4.000000,50.000000
1614074517.510261,13.000000,0.000000,-4.570954,-8.804361,-5.145774,-8.216587,14.691393,-1.540679,-5.828373,-1.829791,6.279898,-5.443717,0.931781,-6.349370,-2.750045,-5.296045,-5.735547,42.938168,-5.170412,84.870995,41.051815,-11.994259,-10.402668,-25.381714,6.054090,-8.136315,-2.113634,-10.899130,-6.850211,-14.292819,-9.441072,-25.918436,-23.732944,-16.702501,0.000000,212.000000,4.000000,,,,0.000000,4.000000,4.000000,4.000000,4.000000,4.000000,4.000000,4.000000,4.000000,4.000000,4.000000,4.000000,4.000000,4.000000,4.000000,2.000000,4.000000,4.000000,4.000000,4.000000,2.000000,2.000000,4.000000,4.000000,4.000000,4.000000,4.000000,4.000000,4.000000,4.000000,4.000000,4.000000,4.000000,50.000000
1614074517.518010,14.000000,0.000000,-5.079204,-6.744275,-5.140628,-8.208370,13.138240,-2.051959,-3.258442,0.736141,6.273618,-0.310069,8.110336,-7.881482,-1.208833,1.375917,0.424034,45.972153,-6.190883,81.196381,26.138969,-15.572008,-15.520471,-28.433254,4.509575,-7.102538,-2.111520,-13.452332,-6.843360,-14.791347,-9.431630,-27.430979,-23.709211,-16.685799,0.000000,171.000000,4.000000,,,,0.000000,4.000000,4.000000,4.000000,4.000000,4.000000,4.000000,4.000000,4.000000,4.000000,4.000000,4.000000,4.000000,4.000000,4.000000,2.000000,4.000000,4.000000,4.000000,4.000000,2.000000,2.000000,4.000000,4.000000,4.000000,4.000000,4.000000,4.000000,4.000000,4.000000,4.000000,4.000000,4.000000,50.000000
1614074517.525860,15.000000,0.000000,-5.074125,-5.199069,-5.135488,-8.200162,11.073820,-2.049907,-2.229542,5.350790,6.267344,2.254344,10.153508,-5.822319,6.484683,9.066849,21.962072,63.362076,-4.646230,113.935699,45.087189,-9.915410,-9.351104,-21.225334,7.581988,-8.121077,-3.135050,-13.951701,-7.862158,-14.263735,-9.422199,-26.377907,-24.198324,-16.669113,0.000000,203.000000,4.000000,,,,0.000000,4.000000,4.000000,4.000000,4.000000,4.000000,4.000000,4.000000,4.000000,4.000000,4.000000,4.000000,4.000000,4.000000,4.000000,2.000000,4.000000,4.000000,4.000000,4.000000,2.000000,2.000000,4.000000,4.000000,4.000000,4.000000,4.000000,4.000000,4.000000,4.000000,4.000000,4.000000,4.000000,50.000000
1614074517.533609,16.000000,0.000000,-2.504948,-5.193870,-5.643173,-8.704782,10.037105,1.541886,-2.227313,7.909542,6.261077,2.252090,9.117714,1.362991,8.016660,9.570602,25.017033,62.273075,0.999442,125.616631,61.965179,4.453479,12.709529,-3.255391,17.830816,-6.574494,-0.567812,-13.937750,-5.290193,-14.249471,-9.412777,-21.736145,-23.661304,-16.139624,0.000000,201.000000,4.000000,,,,0.000000,4.000000,4.000000,4.000000,4.000000,4.000000,4.000000,4.000000,4.000000,4.000000,4.000000,4.000000,4.000000,4.000000,4.000000,2.000000,4.000000,4.000000,4.000000,4.000000,2.000000,2.000000,4.000000,4.000000,4.000000,4.000000,4.000000,4.000000,4.000000,4.000000,4.000000,4.000000,4.000000,50.000000
1614074517.541359,17.000000,0.000000,-0.451161,-5.188676,-4.099068,-8.183257,10.539888,5.642909,1.364658,7.901632,6.254816,7.378043,9.108596,5.464192,8.008643,9.048212,24.479195,66.313362,10.229212,132.670502,69.595520,16.756718,29.107077,19.824787,25.505293,4.201312,7.125063,-14.436632,1.894584,-14.748042,-9.403364,-12.996460,-23.124823,-13.046561,0.000000,199.000000,4.000000,,,,0.000000,4.000000,4.000000,4.000000,4.000000,4.000000,4.000000,4.000000,4.000000,4.000000,4.000000,4.000000,4.000000,4.000000,4.000000,2.000000,4.000000,4.000000,4.000000,4.000000,2.000000,2.000000,4.000000,4.000000,4.000000,4.000000,4.000000,4.000000,4.000000,4.000000,4.000000,4.000000,4.000000,50.000000
1614074517.549108,18.000000,0.000000,-0.963530,-5.183487,-2.043687,-8.175074,10.016528,6.150086,4.953037,7.893731,6.248561,13.011690,9.612308,4.945908,13.128839,13.141727,37.788048,92.400894,14.834367,165.358353,97.218231,21.868166,28.052328,26.984449,24.966969,14.453521,9.682041,-13.396555,4.969613,-14.733294,-9.393961,-10.419361,-24.640160,-13.546334,0.000000,204.000000,4.000000,,,,0.000000,4.000000,4.000000,4.000000,4.000000,4.000000,4.000000,4.000000,4.000000,4.000000,4.000000,4.000000,4.000000,4.000000,4.000000,2.000000,4.000000,4.000000,4.000000,4.000000,2.000000,2.000000,4.000000,4.000000,4.000000,4.000000,4.000000,4.000000,4.000000,4.000000,4.000000,4.000000,4.000000,50.000000
1614074517.556758,19.000000,0.000000,-0.962567,-5.178304,-1.528823,-9.192539,10.519332,5.631115,5.460905,7.373016,6.242312,13.511499,9.602695,4.428141,14.654173,14.667048,31.596415,87.693115,13.281071,151.346832,90.454353,21.333479,23.921711,15.162594,20.839437,15.977529,6.595436,-13.895979,4.451822,-14.205740,-9.384566,-11.947403,-22.051416,-12.507148,0.000000,196.000000,4.000000,,,,0.000000,4.000000,4.000000,4.000000,4.000000,4.000000,4.000000,4.000000,4.000000,4.000000,4.000000,4.000000,4.000000,4.000000,4.000000,2.000000,4.000000,4.000000,4.000000,4.000000,2.000000,2.000000,4.000000,4.000000,4.000000,4.000000,4.000000,4.000000,4.000000,4.000000,4.000000,4.000000,4.000000,50.000000
1614074517.564508,20.000000,0.000000,-0.961604,-2.609023,0.011168,-4.055142,9.995992,5.625484,4.942623,8.391284,6.236070,12.985168,8.567451,4.936533,11.049775,12.088278,15.154563,63.502853,13.780610,118.887794,58.056202,21.312145,24.410610,8.993585,17.228853,14.935910,5.050379,-15.420544,4.447371,-12.653073,-7.836720,-10.396994,-13.311417,-5.315153,0.000000,204.000000,4.000000,,,,0.000000,4.000000,4.000000,4.000000,4.000000,4.000000,4.000000,4.000000,4.000000,4.000000,4.000000,4.000000,4.000000,4.000000,4.000000,2.000000,4.000000,4.000000,4.000000,4.000000,2.000000,2.000000,4.000000,4.000000,4.000000,4.000000,4.000000,4.000000,4.000000,4.000000,4.000000,4.000000,4.000000,50.000000
1614074517.572157,21.000000,0.000000,-0.960643,0.983330,4.626541,6.205324,9.985996,6.132679,4.424860,12.485457,7.255475,13.485003,10.610167,4.418777,16.679750,18.230036,24.882998,73.695763,17.356573,132.615067,69.280197,22.316473,24.386200,12.574335,16.185984,15.433795,5.558149,-7.199996,7.007026,-10.076318,-4.239140,-7.822495,-7.657080,2.382470,0.000000,166.000000,4.000000,,,,0.000000,4.000000,4.000000,4.000000,4.000000,4.000000,4.000000,4.000000,4.000000,4.000000,4.000000,4.000000,4.000000,4.000000,4.000000,2.000000,4.000000,4.000000,4.000000,4.000000,2.000000,2.000000,4.000000,4.000000,4.000000,4.000000,4.000000,4.000000,4.000000,4.000000,4.000000,4.000000,4.000000,50.000000
1614074517.579907,22.000000,0.000000,-0.959682,2.520808,6.673196,11.327323,12.027292,8.177829,5.446076,16.062716,9.812323,16.035620,15.727761,4.414358,22.816917,30.519499,28.960678,76.698990,16.313576,150.943985,87.159637,19.730055,23.336172,13.587401,16.682619,15.418361,5.552591,6.140538,11.102583,-5.963677,-1.670799,-5.763390,-8.675063,6.995472,0.000000,175.000000,4.000000,,,,0.000000,4.000000,4.000000,4.000000,4.000000,4.000000,4.000000,4.000000,4.000000,4.000000,4.000000,4.000000,4.000000,4.000000,4.000000,2.000000,4.000000,4.000000,4.000000,4.000000,2.000000,2.000000,4.000000,4.000000,4.000000,4.000000,4.000000,4.000000,4.000000,4.000000,4.000000,4.000000,4.000000,50.000000
1614074517.587556,23.000000,0.000000,-0.958722,2.005466,6.153703,10.290355,14.579368,9.708113,8.004732,15.533832,10.315331,18.070866,17.250496,4.409943,15.614613,28.437696,11.495821,56.622292,11.169057,120.023811,60.918629,14.582119,22.800016,12.035353,16.153114,14.890121,5.034218,9.211321,10.065839,-3.393611,-2.181948,-3.706345,-9.179209,9.552579,0.000000,192.000000,4.000000,,,,0.000000,4.000000,4.000000,4.000000,4.000000,4.000000,4.000000,4.000000,4.000000,4.000000,4.000000,4.000000,4.000000,4.000000,4.000000,2.000000,4.000000,4.000000,4.000000,4.000000,2.000000,2.000000,4.000000,4.000000,4.000000,4.000000,4.000000,4.000000,4.000000,4.000000,4.000000,4.000000,4.000000,50.000000
1614074517.595306,24.000000,0.000000,-0.957763,2.003461,5.634728,9.767244,14.564788,9.185584,7.483907,13.467016,7.740912,14.975872,12.617860,4.405533,7.906691,15.075925,6.356120,66.822075,7.055324,121.955070,55.729507,8.926512,23.290037,9.459215,16.136963,14.875232,5.029183,4.586725,3.901927,-2.877397,-2.179766,-4.728279,-8.144389,6.978924,0.000000,199.000000,4.000000,,,,0.000000,4.000000,4.000000,4.000000,4.000000,4.000000,4.000000,4.000000,4.000000,4.000000,4.000000,4.000000,4.000000,4.000000,4.000000,2.000000,4.000000,4.000000,4.000000,4.000000,2.000000,2.000000,4.000000,4.000000,4.000000,4.000000,4.000000,4.000000,4.000000,4.000000,4.000000,4.000000,4.000000,50.000000
1614074517.602956,25.000000,0.000000,-1.469626,2.514278,6.141914,10.783118,13.524582,9.176398,4.912321,11.402267,6.194710,10.858333,7.477037,4.401128,6.360322,8.394183,6.862584,72.909103,6.022628,139.269012,68.494293,2.763739,23.266747,3.295909,16.633646,14.860356,5.024155,4.582138,-0.204539,-3.387340,-1.664766,-7.287653,-8.649065,2.356560,0.000000,208.000000,4.000000,,,,0.000000,4.000000,4.000000,4.000000,4.000000,4.000000,4.000000,4.000000,4.000000,4.000000,4.000000,4.000000,4.000000,4.000000,4.000000,2.000000,4.000000,4.000000,4.000000,4.000000,2.000000,2.000000,4.000000,4.000000,4.000000,4.000000,4.000000,4.000000,4.000000,4.000000,4.000000,4.000000,4.000000,50.000000
1614074517.610705,26.000000,0.000000,-1.468157,2.511764,7.161414,10.772335,14.536698,9.680042,7.471511,11.390864,6.701336,9.309012,5.418278,4.396727,3.277039,9.924250,-1.349407,40.528500,5.503785,109.386154,47.400154,-1.854410,23.243479,0.215690,16.617012,13.307034,5.531951,6.116017,0.308486,-2.871132,-2.175922,-7.793186,-8.640416,1.841383,0.000000,177.000000,4.000000,,,,0.000000,4.000000,4.000000,4.000000,4.000000,4.000000,4.000000,4.000000,4.000000,4.000000,4.000000,4.000000,4.000000,4.000000,4.000000,2.000000,4.000000,4.000000,4.000000,4.000000,2.000000,2.000000,4.000000,4.000000,4.000000,4.000000,4.000000,4.000000,4.000000,4.000000,4.000000,4.000000,4.000000,50.000000
1614074517.618355,27.000000,0.000000,-0.953868,1.996432,2.538867,8.710280,13.496521,7.619080,7.464040,11.892295,5.156173,4.684319,5.412860,3.366689,-0.828802,9.401505,4.292968,45.103355,5.498281,98.507538,35.557884,-2.365376,23.220236,0.728295,16.600395,11.242446,3.987957,4.571440,0.308178,-3.381081,-2.173746,-7.272573,-9.144596,1.839542,0.000000,151.000000,4.000000,,,,0.000000,4.000000,4.000000,4.000000,4.000000,4.000000,4.000000,4.000000,4.000000,4.000000,4.000000,4.000000,4.000000,4.000000,4.000000,2.000000,4.000000,4.000000,4.000000,4.000000,2.000000,2.000000,4.000000,4.000000,4.000000,4.000000,4.000000,4.000000,4.000000,4.000000,4.000000,4.000000,4.000000,50.000000
1614074517.626104,28.000000,0.000000,-1.465735,1.994435,-4.130338,6.137467,9.380460,5.560179,2.328371,8.803479,2.586914,-1.987032,4.894626,3.876143,-0.315153,8.366463,10.442521,77.878769,6.005603,125.075691,61.676170,-1.337369,23.197016,0.727567,16.583794,10.718383,1.932687,4.566868,-0.204951,-3.377700,-2.171572,-7.265300,-8.622631,1.837702,0.000000,188.000000,4.000000,,,,0.000000,4.000000,4.000000,4.000000,4.000000,4.000000,4.000000,4.000000,4.000000,4.000000,4.000000,4.000000,4.000000,4.000000,4.000000,2.000000,4.000000,4.000000,4.000000,4.000000,2.000000,2.000000,4.000000,4.000000,4.000000,4.000000,4.000000,4.000000,4.000000,4.000000,4.000000,4.000000,4.000000,50.000000
1614074517.633754,29.000000,0.000000,-1.977089,2.505261,-5.664669,6.644151,6.294157,5.554619,0.274760,4.692111,2.584327,-2.497865,4.889732,4.385087,0.197983,8.870916,2.739771,65.493195,5.486777,125.976257,75.973465,-1.336032,23.173819,3.803762,16.567211,11.220485,1.417934,4.562302,-0.204746,-3.374322,-2.169400,-7.770855,-8.614008,2.348685,0.000000,130.000000,4.000000,,,,0.000000,4.000000,4.000000,4.000000,4.000000,4.000000,4.000000,4.000000,4.000000,4.000000,4.000000,4.000000,4.000000,4.000000,4.000000,2.000000,4.000000,4.000000,4.000000,4.000000,2.000000,2.000000,4.000000,4.000000,4.000000,4.000000,4.000000,4.000000,4.000000,4.000000,4.000000,4.000000,4.000000,50.000000
1614074517.641504,30.000000,0.000000,2.640272,0.451474,-6.684646,3.560583,6.287863,4.010603,1.300126,3.661778,1.556102,-1.982547,5.397663,3.355061,2.249067,9.374866,8.890878,51.581547,5.994111,121.234901,67.179550,-1.334696,23.150644,8.415343,16.550644,11.209264,-0.121945,3.019278,0.308279,-3.370948,-2.167231,-9.301546,-10.656676,-2.269048,0.000000,182.000000,4.000000,,,,0.000000,4.000000,4.000000,4.000000,4.000000,4.000000,4.000000,4.000000,4.000000,4.000000,4.000000,4.000000,4.000000,4.000000,4.000000,2.000000,4.000000,4.000000,4.000000,4.000000,2.000000,2.000000,4.000000,4.000000,4.000000,4.000000,4.000000,4.000000,4.000000,4.000000,4.000000,4.000000,4.000000,50.000000
1614074517.649153,31.000000,0.000000,9.304298,-1.087439,-9.754884,-4.648106,6.281575,1.442490,1.811647,4.170937,-0.496736,-2.493385,5.392265,5.915809,6.349382,9.365492,22.728140,71.017143,8.552219,129.831619,63.009804,-1.333361,23.640314,9.432570,16.534092,11.710876,-2.173105,0.964976,0.307971,-3.880398,-2.165064,-11.343527,-12.697302,-8.933446,0.000000,192.000000,4.000000,,,,0.000000,4.000000,4.000000,4.000000,4.000000,4.000000,4.000000,4.000000,4.000000,4.000000,4.000000,4.000000,4.000000,4.000000,4.000000,2.000000,4.000000,4.000000,4.000000,4.000000,2.000000,2.000000,4.000000,4.000000,4.000000,4.000000,4.000000,4.000000,4.000000,4.000000,4.000000,4.000000,4.000000,50.000000
1614074517.657003,32.000000,0.000000,10.833456,-0.060711,-6.668206,-5.156278,6.788114,1.441047,3.861117,4.166766,2.067863,2.124493,4.874052,16.679123,8.394315,9.356126,14.500284,67.356384,9.569308,124.573578,70.126282,-0.819207,23.616674,8.910316,16.517559,11.699164,-2.683753,0.451191,0.820484,-2.338056,-2.162899,-11.332183,-13.197425,-8.924512,8064.000000,0.000000,4.000000,,,,0.000000,4.000000,4.000000,4.000000,4.000000,4.000000,4.000000,4.000000,4.000000,4.000000,4.000000,4.000000,4.000000,4.000000,4.000000,2.000000,4.000000,4.000000,4.000000,4.000000,2.000000,2.000000,4.000000,4.000000,4.000000,4.000000,4.000000,4.000000,4.000000,4.000000,4.000000,4.000000,4.000000,50.000000
1614074517.664752,33.000000,0.000000,9.796982,1.990632,0.005129,1.002725,9.345428,1.952427,4.882897,3.649779,6.681180,8.789035,6.407640,24.354752,8.385921,8.833949,4.742194,58.571079,10.072559,127.013107,76.209999,-0.305568,23.080238,8.388585,16.501041,10.661824,-2.168249,1.476381,0.306843,0.228385,-2.160736,-11.320850,-12.671407,-5.838665,8064.000000,0.000000,4.000000,,,,0.000000,4.000000,4.000000,4.000000,4.000000,4.000000,4.000000,4.000000,4.000000,4.000000,4.000000,4.000000,4.000000,4.000000,4.000000,2.000000,4.000000,4.000000,4.000000,4.000000,2.000000,2.000000,4.000000,4.000000,4.000000,4.000000,4.000000,4.000000,4.000000,4.000000,4.000000,4.000000,4.000000,50.000000
1614074517.672602,34.000000,0.000000,10.812825,2.501462,2.569226,2.027363,10.874544,1.437654,4.878014,4.158949,6.674499,9.805887,8.452514,21.766294,8.377534,11.389218,7.301555,75.435585,9.549666,132.527115,59.210712,-4.920647,24.082798,4.790453,16.997360,12.702445,-2.166080,0.449263,-0.206285,0.740977,-2.158575,-12.335171,-12.658735,-5.320005,8064.000000,0.000000,4.000000,,,,0.000000,4.000000,4.000000,4.000000,4.000000,4.000000,4.000000,4.000000,4.000000,4.000000,4.000000,4.000000,4.000000,4.000000,4.000000,2.000000,4.000000,4.000000,4.000000,4.000000,2.000000,2.000000,4.000000,4.000000,4.000000,4.000000,4.000000,4.000000,4.000000,4.000000,4.000000,4.000000,4.000000,50.000000
1614074517.680351,35.000000,0.000000,7.725090,4.550242,7.182042,3.563797,10.350849,2.461857,4.873136,4.154791,5.642183,9.283260,8.956882,17.641964,6.317875,13.429111,2.166048,68.693481,5.437552,104.702286,29.920732,-11.582393,21.494614,-0.342543,14.929081,10.638460,-2.676735,-4.166571,0.819563,0.227416,-2.156417,-11.297194,-12.646077,-1.724942,8064.000000,0.000000,4.000000,,,,0.000000,4.000000,4.000000,4.000000,4.000000,4.000000,4.000000,4.000000,4.000000,4.000000,4.000000,4.000000,4.000000,4.000000,4.000000,2.000000,4.000000,4.000000,4.000000,4.000000,2.000000,2.000000,4.000000,4.000000,4.000000,4.000000,4.000000,4.000000,4.000000,4.000000,4.000000,4.000000,4.000000,50.000000
1614074517.688201,36.000000,0.000000,2.589159,6.084154,13.328706,8.688438,10.340498,5.023498,3.329801,3.637815,6.662182,9.273977,8.947925,19.675604,4.260275,11.364400,-7.579708,45.547867,1.842371,93.828346,38.608761,-14.134912,10.703888,-5.470405,10.811588,-0.654230,-2.161237,-7.239327,-0.719719,0.227188,-2.154260,-11.285897,-12.633430,2.379347,8064.000000,0.000000,4.000000,,,,0.000000,4.000000,4.000000,4.000000,4.000000,4.000000,4.000000,4.000000,4.000000,4.000000,4.000000,4.000000,4.000000,4.000000,4.000000,2.000000,4.000000,4.000000,4.000000,4.000000,2.000000,2.000000,4.000000,4.000000,4.000000,4.000000,4.000000,4.000000,4.000000,4.000000,4.000000,4.000000,4.000000,50.000000
1614074517.695950,37.000000,0.000000,2.073750,5.565249,12.289736,8.166929,10.330158,6.044116,1.275190,4.146998,6.142699,9.777524,8.938977,18.117468,4.256014,9.301753,-7.572128,56.271549,1.840529,126.042213,71.390663,-11.556675,4.026517,-9.567499,9.262315,-7.833063,-2.159076,-6.206447,-5.847204,0.226961,-2.152106,-14.351535,-12.620797,1.864147,8064.000000,0.000000,4.000000,,,,0.000000,4.000000,4.000000,4.000000,4.000000,4.000000,4.000000,4.000000,4.000000,4.000000,4.000000,4.000000,4.000000,4.000000,4.000000,2.000000,4.000000,4.000000,4.000000,4.000000,2.000000,2.000000,4.000000,4.000000,4.000000,4.000000,4.000000,4.000000,4.000000,4.000000,4.000000,4.000000,4.000000,50.000000
1614074517.703800,38.000000,0.000000,2.584496,5.559684,9.200523,6.620301,10.319828,5.525251,0.761094,4.655672,6.136557,9.254926,6.365936,9.894221,4.251759,9.292452,-6.026094,69.035789,1.838688,124.890533,56.447479,-12.057940,4.535311,-10.070752,8.740232,-7.312409,-2.669738,-6.200241,-7.379818,0.226734,-2.149954,-12.285901,-12.608176,1.862283,8064.000000,0.000000,4.000000,,,,0.000000,4.000000,4.000000,4.000000,4.000000,4.000000,4.000000,4.000000,4.000000,4.000000,4.000000,4.000000,4.000000,4.000000,4.000000,2.000000,4.000000,4.000000,4.000000,4.000000,2.000000,2.000000,4.000000,4.000000,4.000000,4.000000,4.000000,4.000000,4.000000,4.000000,4.000000,4.000000,4.000000,50.000000
1614074517.711549,39.000000,0.000000,2.069092,5.554124,9.191322,9.177783,10.309507,5.519725,0.760333,3.112554,6.130420,9.245671,6.359570,17.063814,4.760327,9.795979,-6.020068,56.146244,2.862490,95.022049,24.083340,-13.584343,4.017955,-6.983758,8.731492,-10.382020,-1.641427,-7.219681,-3.782695,0.226507,-2.147804,-3.042846,-13.108389,4.424523,8064.000000,0.000000,4.000000,,,,0.000000,4.000000,4.000000,4.000000,4.000000,4.000000,4.000000,4.000000,4.000000,4.000000,4.000000,4.000000,4.000000,4.000000,4.000000,2.000000,4.000000,4.000000,4.000000,4.000000,2.000000,2.000000,4.000000,4.000000,4.000000,4.000000,4.000000,4.000000,4.000000,4.000000,4.000000,4.000000,4.000000,50.000000
1614074517.719399,40.000000,0.000000,2.579843,5.548570,9.694952,9.681426,10.299198,5.514206,1.785213,6.186365,6.124290,9.236425,9.942954,38.585213,4.242746,9.273363,-1.398664,52.500355,9.013474,112.875748,53.802845,-3.314348,8.629322,1.741174,17.440708,-8.320355,2.462779,-1.058615,-0.701989,0.226281,-2.145656,0.037120,-12.069639,5.958560,8064.000000,0.000000,4.000000,,,,0.000000,4.000000,4.000000,4.000000,4.000000,4.000000,4.000000,4.000000,4.000000,4.000000,4.000000,4.000000,4.000000,4.000000,4.000000,2.000000,4.000000,4.000000,4.000000,4.000000,2.000000,2.000000,4.000000,4.000000,4.000000,4.000000,4.000000,4.000000,4.000000,4.000000,4.000000,4.000000,4.000000,50.000000
1614074517.727148,41.000000,0.000000,5.141366,5.543022,9.172437,6.594821,10.288899,5.508691,5.885993,12.846846,6.118165,9.227189,13.522755,44.187653,4.238504,9.264090,1.679658,70.909393,13.619845,145.583389,86.569557,13.099222,18.364283,11.483023,25.115576,6.046939,5.537239,8.686033,0.837174,0.226054,-2.143510,0.037083,-9.493467,5.439781,8064.000000,0.000000,4.000000,,,,0.000000,4.000000,4.000000,4.000000,4.000000,4.000000,4.000000,4.000000,4.000000,4.000000,4.000000,4.000000,4.000000,4.000000,4.000000,2.000000,4.000000,4.000000,4.000000,4.000000,2.000000,2.000000,4.000000,4.000000,4.000000,4.000000,4.000000,4.000000,4.000000,4.000000,4.000000,4.000000,4.000000,50.000000
1614074517.734998,42.000000,0.000000,6.674686,5.537478,9.163264,5.562586,10.278610,4.990362,8.957029,12.833999,6.112047,9.217961,12.996411,34.399876,5.259906,9.767646,1.165158,79.556435,13.606225,137.232666,68.534271,11.547662,18.858738,9.933079,18.936615,13.220380,6.044522,9.190167,3.913260,0.225828,-2.141367,2.601148,-8.458333,5.434341,8192.000000,0.000000,4.000000,,,,0.000000,4.000000,4.000000,4.000000,4.000000,4.000000,4.000000,4.000000,4.000000,4.000000,4.000000,4.000000,4.000000,4.000000,4.000000,2.000000,4.000000,4.000000,4.000000,4.000000,2.000000,2.000000,4.000000,4.000000,4.000000,4.000000,4.000000,4.000000,4.000000,4.000000,4.000000,4.000000,4.000000,50.000000
1614074517.742747,43.000000,0.000000,6.155190,5.531941,8.641280,6.069843,10.268332,6.011013,8.435252,5.128857,6.105935,9.208744,8.880851,29.237270,1.664903,6.680955,0.651172,52.297386,13.079799,105.300568,36.158043,-8.976707,13.198854,1.718017,9.174088,10.130236,3.474375,1.488670,2.883706,0.225603,-2.139225,1.060086,-8.962695,5.428907,8064.000000,0.000000,4.000000,,,,0.000000,4.000000,4.000000,4.000000,4.000000,4.000000,4.000000,4.000000,4.000000,4.000000,4.000000,4.000000,4.000000,4.000000,4.000000,2.000000,4.000000,4.000000,4.000000,4.000000,2.000000,2.000000,4.000000,4.000000,4.000000,4.000000,4.000000,4.000000,4.000000,4.000000,4.000000,4.000000,4.000000,50.000000
1614074517.750597,44.000000,0.000000,6.149035,5.526409,9.145459,6.063774,10.258063,8.056284,8.426817,0.508343,6.099829,9.199535,3.230944,24.592648,-2.952147,2.058890,1.163342,30.193808,13.579539,101.605522,52.532139,-16.147217,8.570271,-1.360624,8.652093,8.581644,-0.118843,-2.615383,-1.734562,0.225377,-1.624266,-3.043539,-8.953732,5.423478,8064.000000,0.000000,4.000000,,,,0.000000,4.000000,4.000000,4.000000,4.000000,4.000000,4.000000,4.000000,4.000000,4.000000,4.000000,4.000000,4.000000,4.000000,4.000000,2.000000,4.000000,4.000000,4.000000,4.000000,2.000000,2.000000,4.000000,4.000000,4.000000,4.000000,4.000000,4.000000,4.000000,4.000000,4.000000,4.000000,4.000000,50.000000
1614074517.758346,45.000000,0.000000,6.655707,5.520883,9.649135,6.057710,10.247806,9.586689,8.931211,-0.004986,6.093729,9.190335,0.663611,15.337287,-3.462015,1.544010,1.162178,62.984127,13.565960,116.888535,58.120636,-3.310557,-5.284453,-6.487469,9.669083,2.932037,-2.682827,-2.612768,-3.784110,0.225152,-2.135462,-1.502034,-8.431958,5.418055,8064.000000,0.000000,4.000000,,,,0.000000,4.000000,4.000000,4.000000,4.000000,4.000000,4.000000,4.000000,4.000000,4.000000,4.000000,4.000000,4.000000,4.000000,4.000000,2.000000,4.000000,4.000000,4.000000,4.000000,2.000000,2.000000,4.000000,4.000000,4.000000,4.000000,4.000000,4.000000,4.000000,4.000000,4.000000,4.000000,4.000000,50.000000
1614074517.766196,46.000000,0.000000,6.136230,5.515362,7.588203,6.051652,10.237557,9.064282,8.922279,0.507840,5.574815,8.668324,1.688588,13.270667,-3.458553,1.542466,0.648196,79.844223,12.526752,112.669083,34.985592,3.872241,-14.509938,-10.583545,8.633772,-6.301664,-2.167323,-2.610155,-3.267505,0.224926,-2.133327,-0.987711,-8.936346,5.412637,8064.000000,0.000000,4.000000,,,,0.000000,4.000000,4.000000,4.000000,4.000000,4.000000,4.000000,4.000000,4.000000,4.000000,4.000000,4.000000,4.000000,4.000000,4.000000,2.000000,4.000000,4.000000,4.000000,4.000000,2.000000,2.000000,4.000000,4.000000,4.000000,4.000000,4.000000,4.000000,4.000000,4.000000,4.000000,4.000000,4.000000,50.000000
1614074517.773945,47.000000,0.000000,6.130095,5.509847,6.042153,6.045600,10.227320,9.055218,8.400537,2.558614,7.620522,8.659657,1.174079,14.795858,-3.455095,1.028103,1.160368,47.456684,13.539867,91.530769,36.489067,-0.234195,-2.187736,-3.393474,11.189241,-7.833824,-2.165156,-3.633186,-3.264238,0.224702,-0.079911,-3.550826,-8.927410,5.407224,8064.000000,0.000000,4.000000,,,,0.000000,4.000000,4.000000,4.000000,4.000000,4.000000,4.000000,4.000000,4.000000,4.000000,4.000000,4.000000,4.000000,4.000000,4.000000,2.000000,4.000000,4.000000,4.000000,4.000000,2.000000,2.000000,4.000000,4.000000,4.000000,4.000000,4.000000,4.000000,4.000000,4.000000,4.000000,4.000000,4.000000,50.000000
1614074517.781595,48.000000,0.000000,6.636785,5.504337,8.087394,6.039555,10.729913,9.558983,8.392136,4.094517,9.664184,10.702279,1.172905,11.191319,4.240668,6.155281,3.210490,37.152817,13.526327,83.234108,37.478218,-2.285243,0.891375,-1.851619,14.254975,-3.723426,-3.188632,-3.116732,-3.260973,0.224477,0.945810,-5.085737,-9.431303,5.914638,8064.000000,0.000000,4.000000,,,,0.000000,4.000000,4.000000,4.000000,4.000000,4.000000,4.000000,4.000000,4.000000,4.000000,4.000000,4.000000,4.000000,4.000000,4.000000,2.000000,4.000000,4.000000,4.000000,4.000000,2.000000,2.000000,4.000000,4.000000,4.000000,4.000000,4.000000,4.000000,4.000000,4.000000,4.000000,4.000000,4.000000,50.000000
1614074517.789345,49.000000,0.000000,5.604507,5.498832,9.617767,6.033515,9.180721,9.036604,9.409385,4.090423,9.654520,12.742859,1.684552,7.077563,11.928735,13.841433,5.258561,69.936172,9.923058,87.766258,12.825356,-0.744496,-12.955670,-14.670280,8.599694,-3.206882,-5.749546,-2.600795,-4.796174,0.224252,-1.106418,-6.619112,-8.909051,5.395902,8064.000000,0.000000,4.000000,,,,0.000000,4.000000,4.000000,4.000000,4.000000,4.000000,4.000000,4.000000,4.000000,4.000000,4.000000,4.000000,4.000000,4.000000,4.000000,2.000000,4.000000,4.000000,4.000000,4.000000,2.000000,2.000000,4.000000,4.000000,4.000000,4.000000,4.000000,4.000000,4.000000,4.000000,4.000000,4.000000,4.000000,50.000000
1614074517.796994,50.000000,0.000000,2.521979,5.493333,7.556868,6.027482,6.607438,9.540387,7.861514,4.086332,10.670506,12.730116,1.682868,7.070486,8.327063,13.827592,5.253303,60.635471,5.297750,97.934906,24.607403,0.281889,-9.352971,-16.194073,5.001351,-3.716496,-6.256617,-3.111015,-6.329839,0.224028,-3.156594,-7.638134,-8.900143,2.826404,8064.000000,0.000000,4.000000,,,,0.000000,4.000000,4.000000,4.000000,4.000000,4.000000,4.000000,4.000000,4.000000,4.000000,4.000000,4.000000,4.000000,4.000000,4.000000,2.000000,4.000000,4.000000,4.000000,4.000000,2.000000,2.000000,4.000000,4.000000,4.000000,4.000000,4.000000,4.000000,4.000000,4.000000,4.000000,4.000000,4.000000,50.000000
1614074517.804744,51.000000,0.000000,2.519458,5.487840,4.985209,6.021454,6.088010,8.505206,3.751088,4.595066,9.634194,12.717385,1.681185,7.576236,4.728992,12.275302,3.709588,36.985092,5.805273,126.042099,57.403309,1.820069,9.630741,-3.357365,13.714298,-3.199959,-3.173437,-1.569442,-2.733766,0.223804,-1.614976,-5.066393,-9.404062,1.285116,8064.000000,0.000000,4.000000,,,,0.000000,4.000000,4.000000,4.000000,4.000000,4.000000,4.000000,4.000000,4.000000,4.000000,4.000000,4.000000,4.000000,4.000000,4.000000,2.000000,4.000000,4.000000,4.000000,4.000000,2.000000,2.000000,4.000000,4.000000,4.000000,4.000000,4.000000,4.000000,4.000000,4.000000,4.000000,4.000000,4.000000,50.000000
1614074517.812393,52.000000,0.000000,5.593861,5.482352,5.493043,6.015433,6.594743,4.906957,1.183234,3.564830,2.957894,12.704668,1.679504,7.055839,5.237084,14.827129,6.269981,69.768616,5.286647,146.428879,54.268982,2.331069,14.749315,2.799839,20.880072,-2.683939,0.419480,3.047512,0.858711,0.223580,3.002024,-3.522866,-7.856197,3.847933,8064.000000,0.000000,4.000000,,,,0.000000,4.000000,4.000000,4.000000,4.000000,4.000000,4.000000,4.000000,4.000000,4.000000,4.000000,4.000000,4.000000,4.000000,4.000000,2.000000,4.000000,4.000000,4.000000,4.000000,2.000000,2.000000,4.000000,4.000000,4.000000,4.000000,4.000000,4.000000,4.000000,4.000000,4.000000,4.000000,4.000000,50.000000
1614074517.820143,53.000000,0.000000,4.562626,5.476870,5.487551,6.009418,6.588148,1.825127,-0.869231,0.484342,-2.173269,12.691963,0.652183,7.048783,-0.921999,9.684097,7.289352,70.211670,0.665975,118.077316,28.060865,2.328738,11.657642,1.258577,15.218165,-0.117152,1.957522,6.121387,0.857853,0.223357,5.563125,-4.032163,-3.232956,5.895368,8064.000000,0.000000,4.000000,,,,0.000000,4.000000,4.000000,4.000000,4.000000,4.000000,4.000000,4.000000,4.000000,4.000000,4.000000,4.000000,4.000000,4.000000,4.000000,2.000000,4.000000,4.000000,4.000000,4.000000,2.000000,2.000000,4.000000,4.000000,4.000000,4.000000,4.000000,4.000000,4.000000,4.000000,4.000000,4.000000,4.000000,50.000000
1614074517.827793,54.000000,0.000000,-0.057321,5.471393,5.482063,6.516229,6.581560,1.823302,-5.996567,-2.593065,-1.658275,12.679272,-4.476674,7.554555,-10.664667,-2.120459,2.666678,37.833767,-1.898793,85.651550,27.519985,2.326409,11.133164,-0.281143,8.023460,1.421427,1.955564,4.063984,0.344174,0.223133,5.557561,-3.515311,-0.665621,5.376652,8064.000000,0.000000,4.000000,,,,0.000000,4.000000,4.000000,4.000000,4.000000,4.000000,4.000000,4.000000,4.000000,4.000000,4.000000,4.000000,4.000000,4.000000,4.000000,2.000000,4.000000,4.000000,4.000000,4.000000,2.000000,2.000000,4.000000,4.000000,4.000000,4.000000,4.000000,4.000000,4.000000,4.000000,4.000000,4.000000,4.000000,50.000000
1614074517.835542,55.000000,0.000000,-2.108546,5.465922,5.476581,4.971251,6.574978,1.821479,-7.016211,-3.616113,-1.656617,12.666593,-6.523479,7.547000,-10.654002,-4.682441,0.099909,51.642086,-1.896894,101.976158,35.184772,2.324083,8.045108,-1.819323,9.041078,-1.144097,-0.097673,1.495818,0.343830,0.222910,5.039183,-4.024616,-1.690596,5.371275,8064.000000,0.000000,4.000000,,,,0.000000,4.000000,4.000000,4.000000,4.000000,4.000000,4.000000,4.000000,4.000000,4.000000,4.000000,4.000000,4.000000,4.000000,4.000000,2.000000,4.000000,4.000000,4.000000,4.000000,2.000000,2.000000,4.000000,4.000000,4.000000,4.000000,4.000000,4.000000,4.000000,4.000000,4.000000,4.000000,4.000000,50.000000
1614074517.843192,56.000000,0.000000,-0.567976,5.460456,5.471105,2.914998,6.055583,1.819657,-1.368169,-3.099677,-1.142140,12.653926,-1.901571,7.539454,-7.053605,0.963267,5.740834,84.410957,-1.382177,127.515205,32.072666,2.321759,4.960140,-2.330324,11.596139,-3.707056,-2.148858,0.981501,1.369127,0.222687,5.034144,-3.507771,-1.688906,5.365904,8064.000000,0.000000,4.000000,,,,0.000000,4.000000,4.000000,4.000000,4.000000,4.000000,4.000000,4.000000,4.000000,4.000000,4.000000,4.000000,4.000000,4.000000,4.000000,2.000000,4.000000,4.000000,4.000000,4.000000,2.000000,2.000000,4.000000,4.000000,4.000000,4.000000,4.000000,4.000000,4.000000,4.000000,4.000000,4.000000,4.000000,50.000000
1614074517.850941,57.000000,0.000000,1.996695,5.454995,5.465633,2.399262,6.562348,1.305017,1.710122,-3.096577,1.423105,12.641272,1.690074,7.531914,-6.020910,2.500766,8.812016,52.018856,0.157667,115.079994,28.963669,2.319437,4.442359,-2.327994,12.610184,-1.652067,-2.146709,1.493340,3.931861,0.222465,5.541931,-4.017084,-1.174396,5.360538,8064.000000,0.000000,4.000000,,,,0.000000,4.000000,4.000000,4.000000,4.000000,4.000000,4.000000,4.000000,4.000000,4.000000,4.000000,4.000000,4.000000,4.000000,4.000000,2.000000,4.000000,4.000000,4.000000,4.000000,2.000000,2.000000,4.000000,4.000000,4.000000,4.000000,4.000000,4.000000,4.000000,4.000000,4.000000,4.000000,4.000000,50.000000
1614074517.858591,58.000000,0.000000,3.020339,5.449540,4.434526,0.858401,7.068606,-0.234749,1.708412,-3.606301,2.960143,12.628631,2.201204,7.524382,-0.373864,3.011086,7.777564,37.607861,2.208791,103.682869,34.062912,2.317118,3.925097,-2.838487,12.597574,-0.624774,-3.683023,0.466206,1.876647,0.222242,5.536388,-7.602810,-3.224504,5.355177,8064.000000,0.000000,4.000000,,,,0.000000,4.000000,4.000000,4.000000,4.000000,4.000000,4.000000,4.000000,4.000000,4.000000,4.000000,4.000000,4.000000,4.000000,4.000000,2.000000,4.000000,4.000000,4.000000,4.000000,2.000000,2.000000,4.000000,4.000000,4.000000,4.000000,4.000000,4.000000,4.000000,4.000000,4.000000,4.000000,4.000000,50.000000
1614074517.866341,59.000000,0.000000,0.966037,4.931270,2.891631,-1.193739,6.035896,-1.772976,0.681062,-3.089874,2.444362,12.616002,4.250285,7.516858,7.318818,7.623459,12.385171,70.390770,2.206583,122.553543,45.823719,2.314801,6.998095,-2.835648,10.533694,-5.752354,-6.243443,-2.098363,-3.253435,0.222020,2.966750,-10.672131,-5.272562,5.862642,8064.000000,0.000000,4.000000,,,,0.000000,4.000000,4.000000,4.000000,4.000000,4.000000,4.000000,4.000000,4.000000,4.000000,4.000000,4.000000,4.000000,4.000000,4.000000,2.000000,4.000000,4.000000,4.000000,4.000000,2.000000,2.000000,4.000000,4.000000,4.000000,4.000000,4.000000,4.000000,4.000000,4.000000,4.000000,4.000000,4.000000,50.000000
1614074517.873990,60.000000,0.000000,-1.599032,5.439159,0.837457,-1.705366,7.055501,-2.284024,0.680381,-3.599605,2.441918,12.603386,5.784496,7.509341,9.362781,9.667117,15.962529,88.269096,2.204376,128.072021,45.265076,2.312486,14.683404,-0.268710,8.984699,-6.772243,-6.237200,-3.121906,-4.275823,0.221798,1.425321,-12.199920,-5.780109,5.856780,8064.000000,0.000000,4.000000,,,,0.000000,4.000000,4.000000,4.000000,4.000000,4.000000,4.000000,4.000000,4.000000,4.000000,4.000000,4.000000,4.000000,4.000000,4.000000,2.000000,4.000000,4.000000,4.000000,4.000000,2.000000,2.000000,4.000000,4.000000,4.000000,4.000000,4.000000,4.000000,4.000000,4.000000,4.000000,4.000000,4.000000,50.000000
1614074517.881840,61.000000,0.000000,-1.084612,7.997823,1.862260,-1.703661,12.176651,-1.768919,4.782265,-3.596005,2.439476,12.077962,5.265892,6.476190,8.327777,9.144629,13.382463,61.514156,2.202172,103.328560,26.758272,2.310173,17.232822,1.270020,8.975715,-1.124445,-3.666860,-2.605963,-2.733085,0.221576,3.475178,-11.162079,-4.748688,4.825282,8064.000000,0.000000,4.000000,,,,0.000000,4.000000,4.000000,4.000000,4.000000,4.000000,4.000000,4.000000,4.000000,4.000000,4.000000,4.000000,4.000000,4.000000,4.000000,2.000000,4.000000,4.000000,4.000000,4.000000,2.000000,2.000000,4.000000,4.000000,4.000000,4.000000,4.000000,4.000000,4.000000,4.000000,4.000000,4.000000,4.000000,50.000000
1614074517.889589,62.000000,0.000000,-1.083528,9.528287,7.501424,-0.676316,14.728577,1.309773,7.341585,-3.079589,2.437037,13.091525,5.260625,3.905612,6.268167,9.135486,11.317800,33.760338,2.199969,90.404716,22.116129,2.307863,14.651488,0.755930,8.966739,1.440782,-2.124731,-2.090537,-2.730352,0.221354,5.522985,-3.971429,-2.692657,6.871739,8064.000000,0.000000,4.000000,,,,0.000000,4.000000,4.000000,4.000000,4.000000,4.000000,4.000000,4.000000,4.000000,4.000000,4.000000,4.000000,4.000000,4.000000,4.000000,2.000000,4.000000,4.000000,4.000000,4.000000,2.000000,2.000000,4.000000,4.000000,4.000000,4.000000,4.000000,4.000000,4.000000,4.000000,4.000000,4.000000,4.000000,50.000000
1614074517.897439,63.000000,0.000000,-1.595265,9.518759,9.032384,1.888463,10.098464,5.411027,3.231680,-4.102150,2.434600,12.052793,4.742544,2.363244,4.210617,9.126349,11.306481,37.829140,2.197769,110.827133,45.170937,2.305555,18.226580,1.780815,7.932131,-0.099120,-1.096966,-2.601267,-4.778903,0.221133,5.004642,2.699209,-1.664324,9.428969,8064.000000,0.000000,4.000000,,,,0.000000,4.000000,4.000000,4.000000,4.000000,4.000000,4.000000,4.000000,4.000000,4.000000,4.000000,4.000000,4.000000,4.000000,4.000000,2.000000,4.000000,4.000000,4.000000,4.000000,2.000000,2.000000,4.000000,4.000000,4.000000,4.000000,4.000000,4.000000,4.000000,4.000000,4.000000,4.000000,4.000000,50.000000
1614074517.905188,64.000000,0.000000,-1.080849,8.996419,4.407967,2.912215,5.985801,4.379975,0.664345,-3.585227,2.432165,7.425355,5.763443,4.924984,3.693586,9.117224,12.320816,70.611824,2.195572,131.741943,61.023201,2.303250,27.439123,4.855957,11.513943,0.926620,1.468234,-2.598665,-0.671561,0.220912,4.999637,-2.431696,-1.149839,4.804156,0.000000,202.000000,4.000000,,,,0.000000,4.000000,4.000000,4.000000,4.000000,4.000000,4.000000,4.000000,4.000000,4.000000,4.000000,4.000000,4.000000,4.000000,4.000000,2.000000,4.000000,4.000000,4.000000,4.000000,2.000000,2.000000,4.000000,4.000000,4.000000,4.000000,4.000000,4.000000,4.000000,4.000000,4.000000,4.000000,4.000000,50.000000
1614074517.913038,65.000000,0.000000,1.997155,7.448961,2.865098,2.396483,7.005456,1.811493,4.253425,3.085025,2.429733,6.392289,9.860244,9.535443,4.202713,9.108107,12.308496,81.823265,2.193376,119.302513,37.372433,2.300946,24.847582,5.876742,16.117813,3.489796,1.979586,-1.570426,7.534239,0.733512,4.994637,-8.583110,-1.661510,-1.867315,0.000000,197.000000,4.000000,,,,0.000000,4.000000,4.000000,4.000000,4.000000,4.000000,4.000000,4.000000,4.000000,4.000000,4.000000,4.000000,4.000000,4.000000,4.000000,2.000000,4.000000,4.000000,4.000000,4.000000,2.000000,2.000000,4.000000,4.000000,4.000000,4.000000,4.000000,4.000000,4.000000,4.000000,4.000000,4.000000,4.000000,50.000000
1614074517.920787,66.000000,0.000000,3.020799,4.364589,-0.727511,2.906907,5.972810,1.809681,4.249171,10.774247,2.427303,8.949999,12.927306,13.115651,3.685690,8.586178,8.706443,49.433746,1.678362,97.644745,5.027369,1.785825,9.950938,4.332404,15.076055,5.537588,-1.099316,-4.132958,4.962602,-0.292863,0.887078,-7.548886,-4.736771,-2.378268,0.000000,196.000000,4.000000,,,,0.000000,4.000000,4.000000,4.000000,4.000000,4.000000,4.000000,4.000000,4.000000,4.000000,4.000000,4.000000,4.000000,4.000000,4.000000,2.000000,4.000000,4.000000,4.000000,4.000000,2.000000,2.000000,4.000000,4.000000,4.000000,4.000000,4.000000,4.000000,4.000000,4.000000,4.000000,4.000000,4.000000,50.000000
1614074517.928637,67.000000,0.000000,2.504958,1.283301,-10.983194,2.391179,3.402735,2.320692,0.655178,12.301934,2.424876,8.941049,12.401559,18.743561,6.246107,10.116053,6.133634,49.384315,2.702325,110.880440,17.330034,2.296860,2.761500,5.353713,12.496876,3.480769,-3.149499,-9.257030,-5.811591,-3.369493,-3.216373,-7.028517,-9.860240,-1.863069,0.000000,203.000000,4.000000,,,,0.000000,4.000000,4.000000,4.000000,4.000000,4.000000,4.000000,4.000000,4.000000,4.000000,4.000000,4.000000,4.000000,4.000000,4.000000,2.000000,4.000000,4.000000,4.000000,4.000000,2.000000,2.000000,4.000000,4.000000,4.000000,4.000000,4.000000,4.000000,4.000000,4.000000,4.000000,4.000000,4.000000,50.000000
1614074517.936386,68.000000,0.000000,4.553735,1.282018,-11.485031,2.388788,2.373691,1.805551,1.167344,11.263991,2.422451,8.419288,12.389157,23.853024,11.880886,14.721321,9.204424,82.155441,4.750905,134.872116,50.133217,2.807383,8.912585,10.989385,16.074121,-3.702199,-1.607888,-10.786235,-4.267318,-2.853303,-0.649054,-8.559950,-8.824739,-1.861206,0.000000,193.000000,4.000000,,,,0.000000,4.000000,4.000000,4.000000,4.000000,4.000000,4.000000,4.000000,4.000000,4.000000,4.000000,4.000000,4.000000,4.000000,4.000000,2.000000,4.000000,4.000000,4.000000,4.000000,2.000000,2.000000,4.000000,4.000000,4.000000,4.000000,4.000000,4.000000,4.000000,4.000000,4.000000,4.000000,4.000000,50.000000
1614074517.944236,69.000000,0.000000,7.113284,3.844839,-3.268418,4.437682,2.884138,1.803745,4.243100,11.765548,2.420029,11.487791,12.376768,18.188145,14.945929,16.757883,11.759322,72.329697,5.771795,124.993660,45.980518,0.240473,12.493416,12.516856,20.160612,-6.262599,0.957822,-9.236987,3.942078,-0.286347,4.479800,-3.936005,-3.174888,-2.372165,0.000000,202.000000,4.000000,,,,0.000000,4.000000,4.000000,4.000000,4.000000,4.000000,4.000000,4.000000,4.000000,4.000000,4.000000,4.000000,4.000000,4.000000,4.000000,2.000000,4.000000,4.000000,4.000000,4.000000,2.000000,2.000000,4.000000,4.000000,4.000000,4.000000,4.000000,4.000000,4.000000,4.000000,4.000000,4.000000,4.000000,50.000000
1614074517.951985,70.000000,0.000000,4.542068,5.379456,-4.803611,5.458885,2.881253,1.801941,5.264497,10.728142,2.417608,11.476303,11.851570,7.400725,14.930983,16.228304,12.260383,65.590698,5.766023,109.996872,19.267872,-1.298229,10.942461,6.863314,19.627630,-1.128132,0.956864,-10.253390,3.425315,-1.311702,5.500962,0.170495,-2.146072,-3.908255,0.000000,189.000000,4.000000,,,,0.000000,4.000000,4.000000,4.000000,4.000000,4.000000,4.000000,4.000000,4.000000,4.000000,4.000000,4.000000,4.000000,4.000000,4.000000,2.000000,4.000000,4.000000,4.000000,4.000000,2.000000,2.000000,4.000000,4.000000,4.000000,4.000000,4.000000,4.000000,4.000000,4.000000,4.000000,4.000000,4.000000,50.000000
1614074517.959835,71.000000,0.000000,3.511885,5.374076,-9.414192,2.889323,2.878372,1.800139,4.746412,11.743054,2.415191,9.413545,12.865360,6.880504,14.916052,16.212076,13.273764,90.653313,5.760257,117.066360,26.940912,0.754352,12.469980,4.805169,19.095182,-0.101363,2.494369,-10.755958,-0.680674,-3.874493,4.469820,-0.855316,-4.708028,-4.929987,0.000000,187.000000,4.000000,,,,0.000000,4.000000,4.000000,4.000000,4.000000,4.000000,4.000000,4.000000,4.000000,4.000000,4.000000,4.000000,4.000000,4.000000,4.000000,2.000000,4.000000,4.000000,4.000000,4.000000,2.000000,2.000000,4.000000,4.000000,4.000000,4.000000,4.000000,4.000000,4.000000,4.000000,4.000000,4.000000,4.000000,50.000000
1614074517.967584,72.000000,0.000000,5.046834,5.368702,-4.276573,2.373614,2.875494,1.798339,4.741666,10.705670,2.412776,8.891311,11.314033,13.540291,14.388315,16.195864,6.593823,77.742149,5.754497,121.051857,47.426792,2.804879,15.534433,9.415749,20.101728,0.924380,7.107259,-5.104177,0.345647,-3.870618,4.978170,0.684000,-5.728961,-2.360955,0.000000,178.000000,4.000000,,,,0.000000,4.000000,4.000000,4.000000,4.000000,4.000000,4.000000,4.000000,4.000000,4.000000,4.000000,4.000000,4.000000,4.000000,4.000000,2.000000,4.000000,4.000000,4.000000,4.000000,2.000000,2.000000,4.000000,4.000000,4.000000,4.000000,4.000000,4.000000,4.000000,4.000000,4.000000,4.000000,4.000000,50.000000
1614074517.975434,73.000000,0.000000,4.528967,5.876153,0.343088,2.884060,2.872618,1.796541,4.736924,5.053939,1.897542,8.369599,8.225796,15.065211,15.399568,16.179668,3.510306,62.792610,5.748742,131.187210,53.533211,2.289254,16.031719,12.996076,19.568806,9.641404,9.664254,1.054774,0.858122,-2.841107,5.486012,6.324342,-4.697591,-1.332953,0.000000,205.000000,4.000000,,,,0.000000,4.000000,4.000000,4.000000,4.000000,4.000000,4.000000,4.000000,4.000000,4.000000,4.000000,4.000000,4.000000,4.000000,4.000000,2.000000,4.000000,4.000000,4.000000,4.000000,2.000000,2.000000,4.000000,4.000000,4.000000,4.000000,4.000000,4.000000,4.000000,4.000000,4.000000,4.000000,4.000000,50.000000
1614074517.983183,74.000000,0.000000,2.473156,5.357457,-3.759819,2.368356,2.869746,1.794744,4.732187,5.048885,2.921286,8.874050,11.294494,12.998864,21.538013,19.753231,17.352949,95.550331,8.307096,157.722702,49.889935,2.286965,15.502867,12.470260,21.600519,16.298429,8.628949,2.079360,0.344443,-3.351086,4.967706,6.830838,-5.205714,-1.331620,0.000000,198.000000,4.000000,,,,0.000000,4.000000,4.000000,4.000000,4.000000,4.000000,4.000000,4.000000,4.000000,4.000000,4.000000,4.000000,4.000000,4.000000,4.000000,2.000000,4.000000,4.000000,4.000000,4.000000,2.000000,2.000000,4.000000,4.000000,4.000000,4.000000,4.000000,4.000000,4.000000,4.000000,4.000000,4.000000,4.000000,50.000000
1614074517.991033,75.000000,0.000000,4.521965,5.864920,-5.807341,2.878808,2.866876,1.792950,4.727455,14.274606,4.969647,13.993382,18.462687,18.626892,26.644682,22.810402,14.258674,91.865036,10.350071,144.231644,33.429787,2.284678,15.487364,10.406507,23.630201,15.769310,8.620320,1.051640,1.369740,-3.347735,4.962739,3.747084,-5.200509,-1.330288,0.000000,150.000000,4.000000,,,,0.000000,4.000000,4.000000,4.000000,4.000000,4.000000,4.000000,4.000000,4.000000,4.000000,4.000000,4.000000,4.000000,4.000000,4.000000,2.000000,4.000000,4.000000,4.000000,4.000000,2.000000,2.000000,4.000000,4.000000,4.000000,4.000000,4.000000,4.000000,4.000000,4.000000,4.000000,4.000000,4.000000,50.000000
1614074517.998782,76.000000,0.000000,6.568725,5.346235,-4.775893,2.363109,3.376830,2.303977,4.722728,20.414177,6.503139,15.005029,18.957045,30.915956,24.053934,23.813232,-11.909431,59.465481,8.801259,111.779716,24.678410,2.282393,13.933415,8.344818,22.068110,15.240721,9.124520,1.563409,-2.734194,-3.344387,4.957776,3.230517,-5.195308,-4.405881,0.000000,191.000000,4.000000,,,,0.000000,4.000000,4.000000,4.000000,4.000000,4.000000,4.000000,4.000000,4.000000,4.000000,4.000000,4.000000,4.000000,4.000000,4.000000,2.000000,4.000000,4.000000,4.000000,4.000000,2.000000,2.000000,4.000000,4.000000,4.000000,4.000000,4.000000,4.000000,4.000000,4.000000,4.000000,4.000000,4.000000,50.000000
1614074518.006432,77.000000,0.000000,6.049335,3.802427,-6.309578,-1.228998,2.347812,0.250391,4.718005,15.778378,5.983815,10.374640,15.348343,32.936321,20.952957,23.276598,-8.820599,71.200890,9.305279,118.847420,35.422962,1.767290,11.355379,8.336473,19.994759,13.174198,8.602575,1.049025,-6.834023,-3.341043,4.952818,1.688825,-5.190113,-9.016860,0.000000,189.000000,4.000000,,,,0.000000,4.000000,4.000000,4.000000,4.000000,4.000000,4.000000,4.000000,4.000000,4.000000,4.000000,4.000000,4.000000,4.000000,4.000000,2.000000,4.000000,4.000000,4.000000,4.000000,2.000000,2.000000,4.000000,4.000000,4.000000,4.000000,4.000000,4.000000,4.000000,4.000000,4.000000,4.000000,4.000000,50.000000
1614074518.014182,78.000000,0.000000,6.043286,1.747342,-8.867372,-4.817513,2.858284,-1.801141,4.713287,8.070292,5.977831,9.851444,16.358635,22.134155,22.983286,22.740501,14.265145,103.950203,10.321614,148.472168,32.310616,1.252702,11.344024,8.328137,17.410662,9.058459,8.593973,1.047976,-4.775908,-3.337702,4.947865,-0.364146,-5.184923,-9.520663,0.000000,161.000000,4.000000,,,,0.000000,4.000000,4.000000,4.000000,4.000000,4.000000,4.000000,4.000000,4.000000,4.000000,4.000000,4.000000,4.000000,4.000000,4.000000,2.000000,4.000000,4.000000,4.000000,4.000000,2.000000,2.000000,4.000000,4.000000,4.000000,4.000000,4.000000,4.000000,4.000000,4.000000,4.000000,4.000000,4.000000,50.000000
1614074518.021831,79.000000,0.000000,6.037243,1.232774,-9.371325,-5.325516,3.368247,-2.312160,4.708574,4.472478,5.971853,12.918515,14.803816,16.983816,18.857738,19.128017,6.045752,82.820610,4.157446,131.913437,22.534716,-1.312653,12.358321,5.242886,8.675303,7.510940,8.585379,1.046928,-5.283952,-3.334364,4.942917,-0.363782,-5.179738,-8.485502,0.000000,202.000000,4.000000,,,,0.000000,4.000000,4.000000,4.000000,4.000000,4.000000,4.000000,4.000000,4.000000,4.000000,4.000000,4.000000,4.000000,4.000000,4.000000,2.000000,4.000000,4.000000,4.000000,4.000000,2.000000,2.000000,4.000000,4.000000,4.000000,4.000000,4.000000,4.000000,4.000000,4.000000,4.000000,4.000000,4.000000,50.000000
1614074518.029581,80.000000,0.000000,6.031206,1.744362,-8.336312,-4.294549,-0.224865,-1.797028,4.703865,3.442365,5.965881,11.879956,9.660807,18.505295,9.608111,15.519145,-7.293627,50.430096,-2.000557,110.755882,35.332695,-3.362622,11.833142,0.622259,4.564064,3.400864,9.089614,-1.518222,-10.406874,-3.331030,4.937974,-1.901880,-4.661737,-8.989837,0.000000,204.000000,4.000000,,,,0.000000,4.000000,4.000000,4.000000,4.000000,4.000000,4.000000,4.000000,4.000000,4.000000,4.000000,4.000000,4.000000,4.000000,4.000000,2.000000,4.000000,4.000000,4.000000,4.000000,2.000000,2.000000,4.000000,4.000000,4.000000,4.000000,4.000000,4.000000,4.000000,4.000000,4.000000,4.000000,4.000000,50.000000
1614074518.037231,81.000000,0.000000,6.025175,1.742618,-9.866437,-6.341537,-4.840025,-1.795231,4.699162,3.951743,5.959916,8.791153,8.625504,15.922687,13.188248,15.503626,4.508538,62.174538,4.155290,120.388718,42.476849,2.794586,11.821309,0.108816,8.149242,0.833361,8.567704,-3.055165,-5.268261,-3.327699,5.445857,-4.464080,-5.169896,-8.980847,0.000000,214.000000,4.000000,,,,0.000000,4.000000,4.000000,4.000000,4.000000,4.000000,4.000000,4.000000,4.000000,4.000000,4.000000,4.000000,4.000000,4.000000,4.000000,2.000000,4.000000,4.000000,4.000000,4.000000,2.000000,2.000000,4.000000,4.000000,4.000000,4.000000,4.000000,4.000000,4.000000,4.000000,4.000000,4.000000,4.000000,50.000000
1614074518.044980,82.000000,0.000000,6.019149,0.715234,-12.420673,-8.386477,-2.783903,-1.793436,4.694462,3.434971,5.953956,7.756721,10.668161,14.881123,25.995571,18.052225,14.247620,87.753387,12.869083,129.499100,42.434372,14.073843,14.886411,5.236912,11.730837,5.447912,8.046316,-0.488007,3.967776,-3.324371,4.927590,-3.433975,-5.164726,-8.971867,0.000000,187.000000,4.000000,,,,0.000000,4.000000,4.000000,4.000000,4.000000,4.000000,4.000000,4.000000,4.000000,4.000000,4.000000,4.000000,4.000000,4.000000,4.000000,2.000000,4.000000,4.000000,4.000000,4.000000,2.000000,2.000000,4.000000,4.000000,4.000000,4.000000,4.000000,4.000000,4.000000,4.000000,4.000000,4.000000,4.000000,50.000000
1614074518.052630,83.000000,0.000000,6.013130,-1.336763,-12.921073,-8.890911,2.347086,-1.791642,4.689768,3.431536,5.948002,9.287426,13.221596,17.430344,30.584961,19.572634,14.746192,96.896400,13.369035,133.984985,55.725269,18.162333,16.409986,9.334239,14.796029,11.083490,11.115192,1.563763,5.502270,-3.321047,2.871381,-0.353618,-4.646741,-8.962894,0.000000,200.000000,4.000000,,,,0.000000,4.000000,4.000000,4.000000,4.000000,4.000000,4.000000,4.000000,4.000000,4.000000,4.000000,4.000000,4.000000,4.000000,4.000000,2.000000,4.000000,4.000000,4.000000,4.000000,2.000000,2.000000,4.000000,4.000000,4.000000,4.000000,4.000000,4.000000,4.000000,4.000000,4.000000,4.000000,4.000000,50.000000
1614074518.060379,84.000000,0.000000,6.007117,-2.361067,-12.908153,-8.369200,3.370380,-1.789851,4.685078,3.940925,5.942054,11.329420,17.823759,18.438555,29.015915,19.040241,20.372471,118.337967,12.330025,141.543304,51.054161,16.092890,12.291012,5.735161,18.883797,12.098047,12.642539,1.049379,3.445486,-3.317726,1.330048,0.159556,-6.180556,-8.953932,0.000000,191.000000,4.000000,,,,0.000000,4.000000,4.000000,4.000000,4.000000,4.000000,4.000000,4.000000,4.000000,4.000000,4.000000,4.000000,4.000000,4.000000,4.000000,2.000000,4.000000,4.000000,4.000000,4.000000,2.000000,2.000000,4.000000,4.000000,4.000000,4.000000,4.000000,4.000000,4.000000,4.000000,4.000000,4.000000,4.000000,50.000000
1614074518.068029,85.000000,0.000000,6.001110,-1.845886,-12.382423,-8.360830,2.341369,-1.788061,4.680393,3.936984,5.936111,12.856552,18.318756,19.445757,28.474077,19.534021,21.377741,124.886299,13.343335,141.401764,30.490286,17.615257,6.124875,0.601221,16.300812,9.521847,8.014512,1.048329,2.416399,-3.314408,0.815897,-0.353424,-8.225657,-8.944978,0.000000,143.000000,4.000000,,,,0.000000,4.000000,4.000000,4.000000,4.000000,4.000000,4.000000,4.000000,4.000000,4.000000,4.000000,4.000000,4.000000,4.000000,4.000000,2.000000,4.000000,4.000000,4.000000,4.000000,2.000000,2.000000,4.000000,4.000000,4.000000,4.000000,4.000000,4.000000,4.000000,2.000000,4.000000,4.000000,4.000000,50.000000
1614074518.075779,86.000000,0.000000,5.995109,-1.844040,-12.882862,-8.352469,2.851848,-1.786273,4.675713,3.933047,5.930175,12.330875,12.146590,17.887850,23.830219,20.027308,15.715337,92.453720,13.842813,147.927032,40.716206,21.187386,4.067468,1.113440,12.181946,3.358479,4.929574,1.047281,0.875521,-3.311094,1.327902,-0.353071,-8.730252,-8.936032,0.000000,190.000000,4.000000,,,,0.000000,4.000000,4.000000,4.000000,4.000000,4.000000,4.000000,4.000000,4.000000,4.000000,4.000000,4.000000,4.000000,4.000000,4.000000,2.000000,4.000000,4.000000,4.000000,4.000000,2.000000,2.000000,4.000000,4.000000,4.000000,4.000000,4.000000,4.000000,4.000000,2.000000,4.000000,4.000000,4.000000,50.000000
1614074518.083428,87.000000,0.000000,5.989114,-1.842196,-13.382799,-8.856937,2.848996,-1.784486,4.671037,3.929114,5.924245,11.805724,7.519059,5.049449,17.652542,18.981640,14.161160,70.822807,12.290508,161.625259,62.213951,17.576454,4.576221,4.702071,12.169765,0.791018,7.488747,1.046234,0.361825,-3.307782,1.326574,-0.352718,-8.721522,-8.927096,0.000000,196.000000,4.000000,,,,0.000000,4.000000,4.000000,4.000000,4.000000,4.000000,4.000000,4.000000,4.000000,4.000000,4.000000,4.000000,4.000000,4.000000,4.000000,2.000000,4.000000,4.000000,4.000000,4.000000,2.000000,2.000000,4.000000,4.000000,4.000000,4.000000,4.000000,4.000000,4.000000,2.000000,4.000000,4.000000,4.000000,50.000000
1614074518.091178,88.000000,0.000000,5.983125,-2.353174,-8.241212,-7.822440,4.384609,-1.782702,4.666366,3.412364,5.918321,12.306739,8.024361,-4.699190,20.711813,19.988298,15.685460,86.649414,10.739757,156.335419,58.049171,12.430674,4.571645,4.697369,9.080671,5.405612,9.532540,1.045187,0.361463,-3.304475,1.325248,-0.352365,-8.712801,-9.430990,0.000000,178.000000,4.000000,,,,0.000000,4.000000,4.000000,4.000000,4.000000,4.000000,4.000000,4.000000,4.000000,4.000000,4.000000,4.000000,4.000000,4.000000,4.000000,2.000000,4.000000,4.000000,4.000000,4.000000,2.000000,2.000000,4.000000,4.000000,4.000000,4.000000,4.000000,4.000000,4.000000,2.000000,4.000000,4.000000,4.000000,50.000000
1614074518.098827,89.000000,0.000000,3.925859,-1.838000,-2.079124,-4.224874,6.431506,-1.780919,4.661699,3.921772,5.912403,12.807253,8.529157,-3.156029,23.255203,23.045235,15.156955,97.332001,9.703376,133.102158,42.093689,12.418242,4.054253,4.179851,4.969027,7.964308,7.984546,1.044142,0.361102,-3.301170,1.323922,0.160808,-6.652806,-7.883098,0.000000,213.000000,4.000000,,,,0.000000,4.000000,4.000000,4.000000,4.000000,4.000000,4.000000,4.000000,4.000000,4.000000,4.000000,4.000000,4.000000,4.000000,4.000000,2.000000,4.000000,4.000000,4.000000,4.000000,2.000000,2.000000,4.000000,4.000000,4.000000,4.000000,4.000000,4.000000,4.000000,2.000000,4.000000,4.000000,4.000000,50.000000
1614074518.106577,90.000000,0.000000,2.383472,0.215120,-1.051404,-1.143726,6.937895,-1.779138,4.657038,3.405030,5.906490,8.691881,5.956525,-8.793899,13.488359,20.970907,14.628977,72.106461,7.129570,107.328033,24.615696,13.944286,4.563019,4.688491,7.015340,7.443523,8.489383,1.043098,0.360741,-3.297869,1.322598,-0.352174,-4.594871,-5.823932,0.000000,179.000000,4.000000,,,,0.000000,4.000000,4.000000,4.000000,4.000000,4.000000,4.000000,4.000000,4.000000,4.000000,4.000000,4.000000,4.000000,4.000000,4.000000,2.000000,4.000000,4.000000,4.000000,4.000000,2.000000,2.000000,4.000000,4.000000,4.000000,4.000000,4.000000,4.000000,4.000000,2.000000,4.000000,4.000000,4.000000,50.000000
1614074518.114227,91.000000,0.000000,2.381089,2.266186,-1.050353,-0.629762,6.418137,-1.777359,4.652380,3.401625,5.900584,4.580625,3.386466,-19.041515,3.218461,13.770449,14.614347,55.111279,5.071158,98.502762,14.334670,10.340598,4.558455,5.196623,8.546786,7.948901,8.993713,1.042055,0.360380,-3.294571,1.321276,-0.351821,-5.103096,-4.792467,0.000000,127.000000,4.000000,,,,0.000000,4.000000,4.000000,4.000000,4.000000,4.000000,4.000000,4.000000,4.000000,4.000000,4.000000,4.000000,4.000000,4.000000,4.000000,2.000000,4.000000,4.000000,4.000000,4.000000,2.000000,2.000000,4.000000,4.000000,4.000000,4.000000,4.000000,4.000000,4.000000,2.000000,4.000000,4.000000,4.000000,50.000000
1614074518.122076,92.000000,0.000000,2.378708,1.751100,-1.562123,-1.654773,6.411718,-1.775582,4.647728,5.962326,5.894683,8.678609,8.511285,-10.304525,6.804986,11.705396,17.676657,72.492065,11.219933,119.942719,29.704950,9.304617,4.553897,4.678606,9.563880,6.402490,6.933438,1.041013,0.360020,-3.291276,1.319954,0.674172,-5.097993,-4.787675,0.000000,189.000000,4.000000,,,,0.000000,4.000000,4.000000,4.000000,4.000000,4.000000,4.000000,4.000000,4.000000,4.000000,4.000000,4.000000,4.000000,4.000000,4.000000,2.000000,4.000000,4.000000,4.000000,4.000000,2.000000,2.000000,4.000000,4.000000,4.000000,4.000000,4.000000,4.000000,4.000000,2.000000,4.000000,4.000000,4.000000,50.000000
1614074518.129826,93.000000,0.000000,2.376329,1.749349,-7.714406,-3.704400,6.405307,-1.773806,4.643081,10.058928,5.888789,15.849417,17.733543,4.064754,11.926386,14.770614,19.197441,74.983673,16.849739,135.720215,50.188068,12.885056,4.036523,4.673928,13.144060,4.857626,5.388043,1.552792,0.359659,-3.287985,1.318635,-2.916246,-5.092896,-5.295708,0.000000,141.000000,4.000000,,,,0.000000,4.000000,4.000000,4.000000,4.000000,4.000000,4.000000,4.000000,4.000000,4.000000,4.000000,4.000000,4.000000,4.000000,4.000000,2.000000,4.000000,4.000000,4.000000,4.000000,2.000000,2.000000,4.000000,4.000000,4.000000,4.000000,4.000000,4.000000,4.000000,2.000000,4.000000,4.000000,4.000000,50.000000
1614074518.137675,94.000000,0.000000,2.373952,1.747599,-13.347718,-4.726336,6.398901,-1.772032,4.638437,11.587330,5.882900,17.372028,20.792732,3.035048,9.350357,15.781485,17.639782,62.600998,11.191863,127.892181,49.112236,11.333709,4.032486,4.669254,12.618095,4.339948,3.844193,-0.500042,0.359300,-3.284697,1.317316,-10.092817,-5.087802,-7.341694,0.000000,180.000000,4.000000,,,,0.000000,4.000000,4.000000,4.000000,4.000000,4.000000,4.000000,4.000000,4.000000,4.000000,4.000000,4.000000,4.000000,4.000000,4.000000,2.000000,4.000000,4.000000,4.000000,4.000000,2.000000,2.000000,4.000000,4.000000,4.000000,4.000000,4.000000,4.000000,4.000000,2.000000,4.000000,4.000000,4.000000,50.000000
1614074518.145425,95.000000,0.000000,2.371578,1.745852,-10.770267,-5.234431,5.879682,-1.770260,4.633799,11.062922,5.877017,12.226452,16.669376,-1.583372,9.341006,14.740062,19.673426,84.589676,5.026825,134.430954,40.345177,5.681350,4.541275,4.151764,8.502913,-0.792597,1.276246,-3.063645,0.358941,-3.281413,1.315999,-12.646827,-5.082715,-8.872814,0.000000,197.000000,4.000000,,,,0.000000,4.000000,4.000000,4.000000,4.000000,4.000000,4.000000,4.000000,4.000000,4.000000,4.000000,4.000000,4.000000,4.000000,4.000000,2.000000,4.000000,4.000000,4.000000,4.000000,2.000000,2.000000,4.000000,4.000000,4.000000,4.000000,4.000000,4.000000,4.000000,2.000000,4.000000,4.000000,4.000000,50.000000
1614074518.153274,96.000000,0.000000,2.369207,1.744106,-8.708216,-4.716376,5.873803,-2.281311,4.629165,11.051860,5.871140,9.137302,12.550142,-0.043327,11.382948,15.750962,18.115290,95.274323,5.021798,139.424728,37.227909,5.162848,4.023912,3.121971,7.981590,-7.458471,0.762150,-2.547761,0.358582,-3.278131,1.314682,-11.095718,-5.077632,-8.863941,8064.000000,0.000000,4.000000,,,,0.000000,4.000000,4.000000,4.000000,4.000000,4.000000,4.000000,4.000000,4.000000,4.000000,4.000000,4.000000,4.000000,4.000000,4.000000,2.000000,4.000000,4.000000,4.000000,4.000000,2.000000,2.000000,4.000000,4.000000,4.000000,4.000000,4.000000,4.000000,4.000000,2.000000,4.000000,4.000000,4.000000,50.000000
1614074518.161024,97.000000,0.000000,2.366838,1.742362,-8.699507,-4.198839,6.893569,-1.766209,4.624536,11.040808,5.865269,8.615345,11.511950,0.982358,9.320283,15.222391,8.353585,62.871353,5.016777,118.772484,38.216320,8.747429,3.507068,0.554747,7.973608,-7.963833,1.274208,-3.058034,0.358223,-3.274853,1.313368,-11.597444,-5.072555,-8.855077,8064.000000,0.000000,4.000000,,,,0.000000,4.000000,4.000000,4.000000,4.000000,4.000000,4.000000,4.000000,4.000000,4.000000,4.000000,4.000000,4.000000,4.000000,4.000000,2.000000,4.000000,4.000000,4.000000,4.000000,2.000000,2.000000,4.000000,4.000000,4.000000,4.000000,4.000000,4.000000,4.000000,2.000000,4.000000,4.000000,4.000000,50.000000
1614074518.168873,98.000000,0.000000,2.364471,1.740619,-9.203629,-5.733102,5.861035,0.799660,5.132732,11.029767,5.859404,7.581089,12.013260,-0.044266,13.413527,16.232809,5.268308,57.167458,7.575862,119.679352,37.152466,9.764322,9.657407,-0.471449,9.504096,-7.955870,0.247293,-3.567796,0.357865,-3.271578,1.312055,-12.611487,-5.067482,-8.846222,8064.000000,0.000000,4.000000,,,,0.000000,4.000000,4.000000,4.000000,4.000000,4.000000,4.000000,4.000000,4.000000,4.000000,4.000000,4.000000,4.000000,4.000000,4.000000,2.000000,4.000000,4.000000,4.000000,4.000000,2.000000,2.000000,4.000000,4.000000,4.000000,4.000000,4.000000,4.000000,4.000000,2.000000,4.000000,4.000000,4.000000,50.000000
1614074518.176623,99.000000,0.000000,2.362107,2.251699,-9.707245,-3.676087,5.855174,2.337322,4.101958,11.018737,5.853544,8.599149,15.078169,-1.069863,24.682163,20.319141,13.980989,82.751312,14.234953,138.021210,31.987106,9.241737,17.340057,7.221330,16.161259,-5.896632,1.785507,1.051156,0.357507,-3.268306,1.310742,-7.983491,-5.062414,-8.837376,8064.000000,0.000000,4.000000,,,,0.000000,4.000000,4.000000,4.000000,4.000000,4.000000,4.000000,4.000000,4.000000,4.000000,4.000000,4.000000,4.000000,4.000000,4.000000,2.000000,4.000000,4.000000,4.000000,4.000000,2.000000,2.000000,4.000000,4.000000,4.000000,4.000000,4.000000,4.000000,4.000000,2.000000,4.000000,4.000000,4.000000,50.000000
1614074518.184472,100.000000,0.000000,2.359744,1.223807,-6.107794,4.019897,12.003165,1.822164,4.610677,11.007718,5.847691,15.257215,18.652834,-0.555972,30.298508,22.862925,18.582392,86.258308,16.271999,136.857559,45.288452,11.283777,20.399641,17.983339,20.247662,3.852855,6.911927,7.716772,0.357149,-3.265038,1.309432,-1.308841,-5.057352,-9.341359,8064.000000,0.000000,4.000000,,,,0.000000,4.000000,4.000000,4.000000,4.000000,4.000000,4.000000,4.000000,4.000000,4.000000,4.000000,4.000000,4.000000,4.000000,4.000000,2.000000,4.000000,4.000000,4.000000,4.000000,2.000000,2.000000,4.000000,4.000000,4.000000,4.000000,4.000000,4.000000,4.000000,2.000000,4.000000,4.000000,4.000000,50.000000
1614074518.192222,101.000000,0.000000,2.357385,-0.828699,-0.460661,5.554339,17.632187,1.820342,5.631707,10.996711,5.841843,20.370163,19.659822,2.521507,29.755388,23.865704,23.179193,100.531021,17.281368,157.233521,73.961113,13.323776,18.840780,20.529459,19.714594,11.541309,9.469117,9.247517,0.356792,-3.261773,1.820943,0.743750,-5.052295,-8.819197,8064.000000,0.000000,4.000000,,,,0.000000,4.000000,4.000000,4.000000,4.000000,4.000000,4.000000,4.000000,4.000000,4.000000,4.000000,4.000000,4.000000,4.000000,4.000000,2.000000,4.000000,4.000000,4.000000,4.000000,2.000000,2.000000,4.000000,4.000000,4.000000,4.000000,4.000000,4.000000,4.000000,2.000000,4.000000,4.000000,4.000000,50.000000
1614074518.200071,102.000000,0.000000,2.355027,-2.366332,-4.049943,-0.092241,16.076094,1.818521,1.010691,10.985714,5.323181,19.324152,19.127342,3.031806,28.187172,21.790554,22.643194,114.789467,17.264088,178.101929,64.656380,11.771991,16.257835,14.867904,19.694880,12.042589,8.434007,8.212628,0.356435,-3.258512,0.280660,-0.795455,-5.047242,-8.297558,8064.000000,0.000000,4.000000,,,,0.000000,4.000000,4.000000,4.000000,4.000000,4.000000,4.000000,4.000000,4.000000,4.000000,4.000000,4.000000,4.000000,4.000000,4.000000,2.000000,4.000000,4.000000,4.000000,4.000000,2.000000,2.000000,4.000000,4.000000,4.000000,4.000000,4.000000,4.000000,4.000000,2.000000,4.000000,4.000000,4.000000,50.000000
1614074518.207821,103.000000,0.000000,2.352672,-2.363966,-9.686919,-2.143431,12.983094,1.816703,-2.580063,10.974729,5.830678,19.304829,19.108215,4.054415,20.979498,18.691841,7.748756,82.366982,8.528875,145.616135,32.284035,1.503808,15.728758,12.288933,18.649542,9.979264,8.425573,8.717236,0.356079,-3.255253,-2.796543,-0.281839,-5.042195,-9.827722,8064.000000,0.000000,4.000000,,,,0.000000,4.000000,4.000000,4.000000,4.000000,4.000000,4.000000,4.000000,4.000000,4.000000,4.000000,4.000000,4.000000,4.000000,4.000000,2.000000,4.000000,4.000000,4.000000,4.000000,2.000000,2.000000,4.000000,4.000000,4.000000,4.000000,4.000000,4.000000,4.000000,2.000000,4.000000,4.000000,4.000000,50.000000
1614074518.215670,104.000000,0.000000,2.350320,-1.848781,0.579178,-0.602826,13.482932,1.814886,1.012260,10.963754,7.876129,19.798344,19.089108,11.742668,14.804671,21.237251,6.715367,81.258980,2.879321,120.342308,33.790211,-7.728465,17.764311,12.276644,16.066792,6.892362,8.417148,8.195698,0.355723,-3.251998,-2.280926,2.282545,-5.549973,-7.253791,8064.000000,0.000000,4.000000,,,,0.000000,4.000000,4.000000,4.000000,4.000000,4.000000,4.000000,4.000000,4.000000,4.000000,4.000000,4.000000,4.000000,4.000000,4.000000,2.000000,4.000000,4.000000,4.000000,4.000000,2.000000,2.000000,4.000000,4.000000,4.000000,4.000000,4.000000,4.000000,4.000000,2.000000,4.000000,4.000000,4.000000,50.000000
1614074518.223420,105.000000,0.000000,2.347969,0.204350,13.399112,-1.115044,13.982269,1.813071,5.626633,10.952789,9.406714,17.727264,19.070019,17.884771,17.353970,26.344219,20.041985,113.998230,9.543108,153.042480,66.576935,0.997212,18.772188,12.264367,15.537904,3.295726,8.408731,8.187503,0.355367,-3.248746,0.798278,3.305904,-3.493141,3.522693,8064.000000,0.000000,4.000000,,,,0.000000,4.000000,4.000000,4.000000,4.000000,4.000000,4.000000,4.000000,4.000000,4.000000,4.000000,4.000000,4.000000,4.000000,4.000000,2.000000,4.000000,4.000000,4.000000,4.000000,2.000000,2.000000,4.000000,4.000000,4.000000,4.000000,4.000000,4.000000,4.000000,2.000000,4.000000,4.000000,4.000000,50.000000
1614074518.231269,106.000000,0.000000,2.345621,1.742607,11.334431,-1.626749,13.455467,1.811258,4.595365,10.941837,9.910129,15.658255,19.563768,15.815605,16.823795,23.753773,7.201430,85.166283,11.584846,150.325333,61.894974,15.868010,19.266235,11.739283,15.522366,4.830892,8.400322,8.692136,0.355012,-3.245497,1.823120,3.302598,-1.438366,7.108914,8192.000000,0.000000,4.000000,,,,0.000000,4.000000,4.000000,4.000000,4.000000,4.000000,4.000000,4.000000,4.000000,4.000000,4.000000,4.000000,4.000000,4.000000,4.000000,2.000000,4.000000,4.000000,4.000000,4.000000,2.000000,2.000000,4.000000,4.000000,4.000000,4.000000,4.000000,4.000000,4.000000,2.000000,4.000000,4.000000,4.000000,50.000000
1614074518.239019,107.000000,0.000000,2.343276,2.253685,4.656429,-1.112302,13.442012,1.809447,4.077949,10.930895,9.900218,15.129776,19.031384,14.261328,13.217228,18.601814,-8.190387,52.773426,5.419416,120.431419,29.525385,10.723937,19.246969,11.727543,15.506843,7.390163,7.879101,6.119341,0.354657,-3.242251,1.308477,3.299295,-1.436928,-2.641784,8064.000000,0.000000,4.000000,,,,0.000000,4.000000,4.000000,4.000000,4.000000,4.000000,4.000000,4.000000,4.000000,4.000000,4.000000,4.000000,4.000000,4.000000,4.000000,2.000000,4.000000,4.000000,4.000000,4.000000,2.000000,2.000000,4.000000,4.000000,4.000000,4.000000,4.000000,4.000000,4.000000,2.000000,4.000000,4.000000,4.000000,50.000000
1614074518.246668,108.000000,0.000000,2.340932,1.738611,6.190234,-1.111190,13.428570,1.807638,5.099512,10.919964,8.351856,15.627466,19.012352,14.759887,15.255293,19.608854,6.176778,85.541168,4.901176,144.926376,33.085602,-3.645761,15.637980,11.202995,16.004156,7.382773,9.409683,5.087580,0.354302,-3.239009,1.307168,3.295996,-0.922670,-8.792989,8064.000000,0.000000,4.000000,,,,0.000000,4.000000,4.000000,4.000000,4.000000,4.000000,4.000000,4.000000,4.000000,4.000000,4.000000,4.000000,4.000000,4.000000,4.000000,2.000000,4.000000,4.000000,4.000000,4.000000,2.000000,2.000000,4.000000,4.000000,4.000000,4.000000,4.000000,4.000000,4.000000,2.000000,4.000000,4.000000,4.000000,50.000000
1614074518.254418,109.000000,0.000000,2.338591,1.736872,7.209685,-1.110078,13.415141,1.805830,4.581592,10.909044,5.266582,15.611839,19.506161,13.206666,11.137473,15.999501,7.709063,108.019730,3.870634,154.525040,49.975594,-6.206218,11.519777,4.525126,13.424050,7.375391,10.938735,9.185057,0.353948,-3.235770,1.305861,3.292700,1.642355,-2.630350,8064.000000,0.000000,4.000000,,,,0.000000,4.000000,4.000000,4.000000,4.000000,4.000000,4.000000,4.000000,4.000000,4.000000,4.000000,4.000000,4.000000,4.000000,4.000000,2.000000,4.000000,4.000000,4.000000,4.000000,2.000000,2.000000,4.000000,4.000000,4.000000,4.000000,4.000000,4.000000,4.000000,2.000000,4.000000,4.000000,4.000000,50.000000
1614074518.262068,110.000000,0.000000,2.336253,1.735135,4.125552,-1.108968,13.914546,2.316845,4.577011,10.898135,6.286956,15.596227,16.922552,15.757562,-1.181357,9.316834,-13.837108,75.604012,-1.774263,122.062820,30.438440,-4.661551,11.508257,-4.197348,8.282421,7.368015,12.466258,12.765615,0.353594,-3.232534,1.304555,5.340689,2.153533,2.500486,8064.000000,0.000000,4.000000,,,,0.000000,4.000000,4.000000,4.000000,4.000000,4.000000,4.000000,4.000000,4.000000,4.000000,4.000000,4.000000,4.000000,4.000000,4.000000,2.000000,4.000000,4.000000,4.000000,4.000000,2.000000,2.000000,4.000000,4.000000,4.000000,4.000000,4.000000,4.000000,4.000000,2.000000,4.000000,4.000000,4.000000,50.000000
1614074518.269817,111.000000,0.000000,2.333917,1.733400,2.070145,-1.107859,12.362170,1.288887,4.572433,10.887237,6.280669,16.093451,12.290245,18.305906,-2.718637,7.769056,-12.284809,50.400204,0.791614,110.145882,15.023386,-9.272273,10.983929,-7.270074,8.786959,7.873467,12.453792,11.727209,0.353240,-3.229302,1.303251,6.873810,2.151380,1.985165,8064.000000,0.000000,4.000000,,,,0.000000,4.000000,4.000000,4.000000,4.000000,4.000000,4.000000,4.000000,4.000000,4.000000,4.000000,4.000000,4.000000,4.000000,4.000000,2.000000,4.000000,4.000000,4.000000,4.000000,2.000000,2.000000,4.000000,4.000000,4.000000,4.000000,4.000000,4.000000,4.000000,2.000000,4.000000,4.000000,4.000000,50.000000
1614074518.277467,112.000000,0.000000,1.818762,-0.319616,2.068074,-1.106751,7.734423,-1.276505,4.567861,10.876349,0.120542,15.051717,10.739493,11.108113,5.489210,6.735646,6.701835,83.170319,5.406207,142.856247,39.623749,-10.288642,6.357560,-6.749983,10.829454,7.865594,9.877235,11.202662,0.352887,-3.226073,1.301947,3.790013,2.149228,0.957539,8064.000000,0.000000,4.000000,,,,0.000000,4.000000,4.000000,4.000000,4.000000,4.000000,4.000000,4.000000,4.000000,4.000000,4.000000,4.000000,4.000000,4.000000,4.000000,2.000000,4.000000,4.000000,4.000000,4.000000,2.000000,2.000000,4.000000,4.000000,4.000000,4.000000,4.000000,4.000000,4.000000,2.000000,4.000000,4.000000,4.000000,50.000000
1614074518.285216,113.000000,0.000000,2.329764,-2.883399,0.527545,-1.105645,5.162586,-2.300869,4.563293,10.865474,-1.418040,11.446921,11.754395,5.968800,8.047823,9.805834,9.259235,110.266632,3.349519,153.482620,51.891815,-8.739892,3.274279,-6.743234,8.767343,4.267985,4.739153,12.217099,0.352534,-3.222847,1.300645,2.247762,1.634258,-0.581880,8064.000000,0.000000,4.000000,,,,0.000000,4.000000,4.000000,4.000000,4.000000,4.000000,4.000000,4.000000,4.000000,4.000000,4.000000,4.000000,4.000000,4.000000,4.000000,2.000000,4.000000,4.000000,4.000000,4.000000,2.000000,2.000000,4.000000,4.000000,4.000000,4.000000,4.000000,4.000000,4.000000,2.000000,4.000000,4.000000,4.000000,50.000000
