title:20, start timestamp:1614075658.884650, stop timestamp:1614075704.781256, headset type:EPOCFLEX, headset serial:F00001ED, headset firmware:f12, subject name:s07, channels:75, sampling rate:128, samples:5930      , version:2.0
Timestamp,EEG.Counter,EEG.Interpolated,EEG.Cz,EEG.Fz,EEG.Fp1,EEG.AF3,EEG.F7,EEG.F3,EEG.FC1,EEG.C3,EEG.FC5,EEG.T7,EEG.CP5,EEG.CP1,EEG.P3,EEG.P7,EEG.PO3,EEG.O1,EEG.Pz,EEG.Oz,EEG.O2,EEG.PO4,EEG.P8,EEG.P4,EEG.CP2,EEG.CP6,EEG.T8,EEG.FC6,EEG.C4,EEG.FC2,EEG.F4,EEG.F8,EEG.AF4,EEG.Fp2,EEG.HighBitFlex,EEG.RawCq,EEG.Battery,MarkerIndex,MarkerType,MarkerValueInt,EEG.MarkerHardware,CQ.Cz,CQ.Fz,CQ.Fp1,CQ.AF3,CQ.F7,CQ.F3,CQ.FC1,CQ.C3,CQ.FC5,CQ.T7,CQ.CP5,CQ.CP1,CQ.P3,CQ.P7,CQ.PO3,CQ.O1,CQ.Pz,CQ.Oz,CQ.O2,CQ.PO4,CQ.P8,CQ.P4,CQ.CP2,CQ.CP6,CQ.T8,CQ.FC6,CQ.C4,CQ.FC2,CQ.F4,CQ.F8,CQ.AF4,CQ.Fp2,CQ.Overall
1614075658.884650,106.000000,0.000000,-2.378091,-2.216104,-10.251646,2.057688,-3.419189,6.643376,-7.062758,-5.764928,-0.946667,-6.892663,-2.057124,7.525729,-6.660096,-23.126772,-31.527946,-4.430313,4.184324,1.560039,-4.948998,-52.466785,2.864910,-1.424220,3.165895,13.217871,-3.603297,-1.474939,5.731284,0.669588,2.867773,0.508251,8.612066,0.942109,8064.000000,0.000000,4.000000,,,,0.000000,4.000000,4.000000,4.000000,4.000000,4.000000,4.000000,4.000000,4.000000,4.000000,4.000000,4.000000,4.000000,4.000000,4.000000,4.000000,4.000000,4.000000,4.000000,4.000000,4.000000,4.000000,4.000000,4.000000,4.000000,4.000000,4.000000,4.000000,4.000000,4.000000,4.000000,4.000000,4.000000,100.000000
1614075658.892299,107.000000,0.000000,-2.888533,-3.239529,-9.215754,1.542810,-6.492693,4.585451,-9.106977,-14.989933,-2.484182,-8.937052,-5.131990,5.466921,-11.781641,-23.616465,-36.111805,-22.887421,-9.153194,-5.621008,-11.097896,-82.670731,-16.625134,-12.704847,-4.016757,6.537986,-11.292002,-3.524745,-2.479575,-0.356722,2.864905,0.507743,8.090633,0.941167,8064.000000,0.000000,4.000000,,,,0.000000,4.000000,4.000000,4.000000,4.000000,4.000000,4.000000,4.000000,4.000000,4.000000,4.000000,4.000000,4.000000,4.000000,4.000000,4.000000,4.000000,4.000000,4.000000,4.000000,4.000000,4.000000,4.000000,4.000000,4.000000,4.000000,4.000000,4.000000,4.000000,4.000000,4.000000,4.000000,4.000000,100.000000
1614075658.900049,108.000000,0.000000,-2.885645,-3.236290,-7.155256,2.054088,-5.460560,2.529584,-11.149152,-21.128788,-2.481698,-4.825551,-5.639679,2.897352,-11.257038,-20.003105,-35.050049,-23.377354,-20.426092,0.025638,-12.625259,-97.972672,-28.403381,-20.384451,-12.217869,-4.750604,-11.280709,-6.598144,-14.271968,-5.997391,1.836399,-1.031227,3.467159,0.940226,8064.000000,0.000000,4.000000,,,,0.000000,4.000000,4.000000,4.000000,4.000000,4.000000,4.000000,4.000000,4.000000,4.000000,4.000000,4.000000,4.000000,4.000000,4.000000,4.000000,4.000000,4.000000,4.000000,4.000000,4.000000,4.000000,4.000000,4.000000,4.000000,4.000000,4.000000,4.000000,4.000000,4.000000,4.000000,4.000000,4.000000,100.000000
1614075658.907698,109.000000,0.000000,-2.882759,-2.207412,-7.660921,2.052033,-2.378176,5.091156,-11.138003,-14.953814,0.084887,-0.205341,-4.608398,2.894454,-11.758602,-16.906179,-36.040642,-16.174490,-20.405666,11.307664,-7.484429,-92.233673,-13.503182,-19.851246,-13.744113,-11.412519,-7.679686,-4.540264,-17.334620,-11.119599,-0.216720,1.021087,1.412409,0.939285,8064.000000,0.000000,4.000000,,,,0.000000,4.000000,4.000000,4.000000,4.000000,4.000000,4.000000,4.000000,4.000000,4.000000,4.000000,4.000000,4.000000,4.000000,4.000000,4.000000,4.000000,4.000000,4.000000,4.000000,4.000000,4.000000,4.000000,4.000000,4.000000,4.000000,4.000000,4.000000,4.000000,4.000000,4.000000,4.000000,4.000000,100.000000
1614075658.915447,110.000000,0.000000,-2.367056,-2.205205,-7.653260,2.049982,4.290869,9.701450,-9.588404,-8.785014,2.136084,0.307685,-5.116610,3.917201,-10.721202,-15.863631,-36.004601,-14.619853,-19.359619,16.424561,5.856389,-82.910675,8.048782,-15.216009,-10.653445,-11.401107,2.071584,0.592482,-11.676258,-11.108479,-0.729323,4.609809,3.975099,1.451167,8064.000000,0.000000,4.000000,,,,0.000000,4.000000,4.000000,4.000000,4.000000,4.000000,4.000000,4.000000,4.000000,4.000000,4.000000,4.000000,4.000000,4.000000,4.000000,4.000000,4.000000,4.000000,4.000000,4.000000,4.000000,4.000000,4.000000,4.000000,4.000000,4.000000,4.000000,4.000000,4.000000,4.000000,4.000000,4.000000,4.000000,100.000000
1614075658.923097,111.000000,0.000000,-3.903150,-2.715820,-7.645607,2.560752,8.901962,10.717390,-10.091636,-9.801870,1.621127,-0.718263,-4.598673,3.913284,-9.684840,-14.822127,-33.917313,-16.656515,-18.827438,18.972239,12.004378,-80.263657,12.143297,-12.123870,-9.617151,-4.723039,9.249000,2.130351,-9.100480,-11.610191,-1.241415,3.579558,4.483945,1.449715,8064.000000,0.000000,4.000000,,,,0.000000,4.000000,4.000000,4.000000,4.000000,4.000000,4.000000,4.000000,4.000000,4.000000,4.000000,4.000000,4.000000,4.000000,4.000000,4.000000,4.000000,4.000000,4.000000,4.000000,4.000000,4.000000,4.000000,4.000000,4.000000,4.000000,4.000000,4.000000,4.000000,4.000000,4.000000,4.000000,4.000000,100.000000
1614075658.930846,112.000000,0.000000,-6.463350,-2.200284,-7.637961,2.045371,8.380240,10.706673,-11.107185,-10.817709,2.132326,2.359378,-0.491510,3.909371,-11.213616,-15.320126,-29.268011,-12.537295,-8.552201,27.158396,9.941092,-69.926987,8.541410,-6.470721,-9.094713,5.025273,8.726930,3.153862,-10.629841,-10.572940,1.323929,5.627261,4.479461,0.422625,8064.000000,0.000000,4.000000,,,,0.000000,4.000000,4.000000,4.000000,4.000000,4.000000,4.000000,4.000000,4.000000,4.000000,4.000000,4.000000,4.000000,4.000000,4.000000,4.000000,4.000000,4.000000,4.000000,4.000000,4.000000,4.000000,4.000000,4.000000,4.000000,4.000000,4.000000,4.000000,4.000000,4.000000,4.000000,4.000000,4.000000,100.000000
1614075658.938495,113.000000,0.000000,-6.456886,-2.198084,-7.117503,2.556146,11.448783,9.157504,-8.019155,-7.729968,5.719938,11.074967,4.637187,5.956743,-4.535737,-15.817626,-18.982334,0.808576,2.738402,29.695339,15.059357,-45.754494,13.661075,-1.336045,-2.418952,10.148454,12.820767,7.253272,-3.439724,-5.434162,6.450811,18.442146,7.039084,1.447843,8064.000000,0.000000,4.000000,,,,0.000000,4.000000,4.000000,4.000000,4.000000,4.000000,4.000000,4.000000,4.000000,4.000000,4.000000,4.000000,4.000000,4.000000,4.000000,4.000000,4.000000,4.000000,4.000000,4.000000,4.000000,4.000000,4.000000,4.000000,4.000000,4.000000,4.000000,4.000000,4.000000,4.000000,4.000000,4.000000,4.000000,100.000000
1614075658.946245,114.000000,0.000000,-5.937609,-5.272809,-8.136026,1.527949,11.950154,5.558603,-6.472674,-4.645315,5.714218,12.089533,8.735113,8.514889,7.776492,-13.750526,-6.142838,12.602639,8.376689,33.768208,29.403271,-27.247202,26.467926,-1.334709,3.737313,12.189587,16.910511,11.861403,2.204742,-5.428728,4.905898,23.039089,6.006404,1.959216,8064.000000,0.000000,4.000000,,,,0.000000,4.000000,4.000000,4.000000,4.000000,4.000000,4.000000,4.000000,4.000000,4.000000,4.000000,4.000000,4.000000,4.000000,4.000000,4.000000,4.000000,4.000000,4.000000,4.000000,4.000000,4.000000,4.000000,4.000000,4.000000,4.000000,4.000000,4.000000,4.000000,4.000000,4.000000,4.000000,4.000000,100.000000
1614075658.953894,115.000000,0.000000,-7.982954,-9.882920,-10.691993,-3.601784,1.681794,2.988942,-14.671329,-8.230413,-1.983804,-5.871274,8.213557,4.403810,4.691792,-21.429083,-5.111055,13.615677,8.881133,48.093414,32.450790,-28.758417,22.851715,-0.820553,-0.368988,14.228680,8.175652,8.259798,-4.976950,-12.602787,-4.329777,9.169896,1.385013,-4.196589,8064.000000,0.000000,4.000000,,,,0.000000,4.000000,4.000000,4.000000,4.000000,4.000000,4.000000,4.000000,4.000000,4.000000,4.000000,4.000000,4.000000,4.000000,4.000000,4.000000,4.000000,4.000000,4.000000,4.000000,4.000000,4.000000,4.000000,4.000000,4.000000,4.000000,4.000000,4.000000,4.000000,4.000000,4.000000,4.000000,4.000000,100.000000
1614075658.961743,116.000000,0.000000,-11.564714,-10.385858,-11.194121,-8.213567,-5.499375,1.960312,-22.348967,-21.042696,-7.622846,-26.378223,-7.179271,-5.857004,-15.312900,-40.382011,-24.593122,0.268728,-3.435441,33.686348,7.290135,-44.627094,-3.324983,-1.845374,-7.035286,11.650348,-1.063294,-3.030513,-12.151461,-15.667107,-8.940831,-3.146966,0.357987,-13.423162,8064.000000,0.000000,4.000000,,,,0.000000,4.000000,4.000000,4.000000,4.000000,4.000000,4.000000,4.000000,4.000000,4.000000,4.000000,4.000000,4.000000,4.000000,4.000000,4.000000,4.000000,4.000000,4.000000,4.000000,4.000000,4.000000,4.000000,4.000000,4.000000,4.000000,4.000000,4.000000,4.000000,4.000000,4.000000,4.000000,4.000000,100.000000
1614075658.969493,117.000000,0.000000,-13.604431,-9.349831,-10.670107,-9.230994,-7.545157,0.932710,-21.813797,-28.713961,-7.615223,-30.967230,-28.710554,-15.081916,-31.707844,-54.187786,-47.132633,-28.449490,-23.432005,1.344968,-21.947924,-69.710670,-25.885761,-14.151221,-11.643636,9.074595,-5.164794,-9.694149,-16.241873,-14.625799,-7.906250,-3.656640,1.383270,-14.435380,8064.000000,0.000000,4.000000,,,,0.000000,4.000000,4.000000,4.000000,4.000000,4.000000,4.000000,4.000000,4.000000,4.000000,4.000000,4.000000,4.000000,4.000000,4.000000,4.000000,4.000000,4.000000,4.000000,4.000000,4.000000,4.000000,4.000000,4.000000,4.000000,4.000000,4.000000,4.000000,4.000000,4.000000,4.000000,4.000000,4.000000,100.000000
1614075658.977342,118.000000,0.000000,-15.642109,-9.853302,-13.736360,-8.708943,-16.768381,-2.657966,-22.304804,-28.685247,-12.222993,-29.397800,-35.861332,-21.220680,-35.778698,-54.646420,-53.752167,-54.574886,-32.126522,-23.784582,-28.079823,-95.794807,-29.449619,-30.547325,-18.811480,8.039880,-15.416039,-9.684455,-24.943581,-15.123994,-7.898344,-2.627342,0.869066,-10.318380,8064.000000,0.000000,4.000000,,,,0.000000,4.000000,4.000000,4.000000,4.000000,4.000000,4.000000,4.000000,4.000000,4.000000,4.000000,4.000000,4.000000,4.000000,4.000000,4.000000,4.000000,4.000000,4.000000,4.000000,4.000000,4.000000,4.000000,4.000000,4.000000,4.000000,4.000000,4.000000,4.000000,4.000000,4.000000,4.000000,4.000000,100.000000
1614075658.985091,119.000000,0.000000,-17.677750,-9.843449,-17.825188,-8.700234,-25.982382,-8.296333,-25.872242,-29.169382,-22.467180,-30.906864,-33.774185,-23.250742,-36.768562,-48.950745,-53.698414,-61.186977,-31.068754,-23.760798,-29.590204,-113.134911,-34.035553,-38.721909,-23.920872,-1.711750,-25.657034,-12.238873,-29.021200,-15.108870,-8.403266,-4.163177,0.355376,-9.795241,8064.000000,0.000000,4.000000,,,,0.000000,4.000000,4.000000,4.000000,4.000000,4.000000,4.000000,4.000000,4.000000,4.000000,4.000000,4.000000,4.000000,4.000000,4.000000,4.000000,4.000000,4.000000,4.000000,4.000000,4.000000,4.000000,4.000000,4.000000,4.000000,4.000000,4.000000,4.000000,4.000000,4.000000,4.000000,4.000000,4.000000,100.000000
1614075658.992940,120.000000,0.000000,-17.660070,-9.833605,-19.345823,-8.691534,-23.905117,-12.390601,-25.333549,-28.114573,-24.495995,-30.363138,-34.766052,-20.150568,-37.757435,-41.209488,-53.644714,-58.561687,-31.037685,-21.172934,-36.227280,-118.149979,-37.078442,-35.093441,-23.896952,-18.633116,-27.169838,-16.842018,-27.966537,-15.093760,-8.394862,-6.210295,0.867842,-10.298267,8064.000000,0.000000,4.000000,,,,0.000000,4.000000,4.000000,4.000000,4.000000,4.000000,4.000000,4.000000,4.000000,4.000000,4.000000,4.000000,4.000000,4.000000,4.000000,4.000000,4.000000,4.000000,4.000000,4.000000,4.000000,4.000000,4.000000,4.000000,4.000000,4.000000,4.000000,4.000000,4.000000,4.000000,4.000000,4.000000,4.000000,100.000000
1614075659.000690,121.000000,0.000000,-17.642412,-9.823771,-20.864939,-8.682842,-20.291470,-11.865390,-22.231293,-20.906971,-18.317652,-26.230209,-31.141544,-15.515033,-33.104294,-37.065712,-48.975685,-49.785179,-28.442545,-9.356890,-23.370541,-106.236961,-24.220850,-23.263475,-22.334593,-26.819611,-23.040104,-16.312357,-29.477034,-15.078667,-7.873647,-6.716906,0.866974,-9.775148,8064.000000,0.000000,4.000000,,,,0.000000,4.000000,4.000000,4.000000,4.000000,4.000000,4.000000,4.000000,4.000000,4.000000,4.000000,4.000000,4.000000,4.000000,4.000000,4.000000,4.000000,4.000000,4.000000,4.000000,4.000000,4.000000,4.000000,4.000000,4.000000,4.000000,4.000000,4.000000,4.000000,4.000000,4.000000,4.000000,4.000000,100.000000
1614075659.008539,122.000000,0.000000,-17.111948,-9.813948,-22.382536,-8.674160,-21.296818,-11.340704,-20.670599,-16.270678,-15.222412,-25.178339,-23.418095,-14.473877,-24.866060,-37.541470,-38.157482,-29.222572,-19.183332,13.729390,2.806676,-79.976875,-3.683809,-7.342777,-16.158413,-14.997919,-10.709373,-10.655019,-18.678326,-11.986665,-6.327312,-4.658906,1.378927,-9.252553,8064.000000,0.000000,4.000000,,,,0.000000,4.000000,4.000000,4.000000,4.000000,4.000000,4.000000,4.000000,4.000000,4.000000,4.000000,4.000000,4.000000,4.000000,4.000000,4.000000,4.000000,4.000000,4.000000,4.000000,4.000000,4.000000,4.000000,4.000000,4.000000,4.000000,4.000000,4.000000,4.000000,4.000000,4.000000,4.000000,4.000000,100.000000
1614075659.016288,123.000000,0.000000,-12.992272,-9.804133,-21.847332,-8.665485,-21.275522,-11.842184,-21.675570,-16.767229,-16.745651,-26.178802,-21.343395,-14.459403,-20.738630,-36.991108,-26.324451,-9.193350,-7.882099,32.177200,13.060280,-54.768692,8.114747,5.997899,-6.911485,3.478617,1.096209,-2.952056,4.930097,-7.359294,-4.269702,-2.090145,1.377548,-9.243300,8064.000000,0.000000,4.000000,,,,0.000000,4.000000,4.000000,4.000000,4.000000,4.000000,4.000000,4.000000,4.000000,4.000000,4.000000,4.000000,4.000000,4.000000,4.000000,4.000000,4.000000,4.000000,4.000000,4.000000,4.000000,4.000000,4.000000,4.000000,4.000000,4.000000,4.000000,4.000000,4.000000,4.000000,4.000000,4.000000,4.000000,100.000000
1614075659.024138,124.000000,0.000000,-9.389537,-9.794330,-22.338306,-8.656820,-20.228605,-11.317521,-21.141073,-16.750462,-16.216085,-24.614161,-22.860512,-14.444943,-20.717892,-36.441296,-17.067358,-4.568771,2.895014,39.324509,10.995937,-41.380592,12.722017,13.684209,-3.827650,9.628985,2.633574,2.179101,10.053371,-6.839114,-3.752612,-0.036773,0.350530,-9.746878,8064.000000,0.000000,4.000000,,,,0.000000,4.000000,4.000000,4.000000,4.000000,4.000000,4.000000,4.000000,4.000000,4.000000,4.000000,4.000000,4.000000,4.000000,4.000000,4.000000,4.000000,4.000000,4.000000,4.000000,4.000000,4.000000,4.000000,4.000000,4.000000,4.000000,4.000000,4.000000,4.000000,4.000000,4.000000,4.000000,4.000000,100.000000
1614075659.031887,125.000000,0.000000,-9.380147,-9.784535,-21.290327,-8.648163,-20.721197,-11.306204,-19.068651,-17.759352,-15.687048,-20.999804,-21.812012,-14.943319,-21.722815,-37.943314,-13.973367,-6.102664,9.558785,37.746723,9.446480,-36.211006,17.324680,14.696166,-3.311002,9.106536,2.630941,2.689743,-3.290015,-7.345095,-4.261680,2.014546,1.888641,-9.737130,8064.000000,0.000000,4.000000,,,,0.000000,4.000000,4.000000,4.000000,4.000000,4.000000,4.000000,4.000000,4.000000,4.000000,4.000000,4.000000,4.000000,4.000000,4.000000,4.000000,4.000000,4.000000,4.000000,4.000000,4.000000,4.000000,4.000000,4.000000,4.000000,4.000000,4.000000,4.000000,4.000000,4.000000,4.000000,4.000000,4.000000,100.000000
1614075659.039736,126.000000,0.000000,-10.396408,-9.774751,-18.704933,-8.639515,-20.700476,-11.294898,-17.511122,-17.741592,-16.184181,-18.414701,-19.226097,-14.928376,-21.188271,-37.905373,-16.010675,-5.070920,8.010765,40.785900,10.975495,-36.687614,13.204791,3.912239,-3.307691,9.610250,0.064207,3.712694,-9.953392,-6.824930,-4.257419,-3.115674,4.450855,-9.214573,8064.000000,0.000000,4.000000,,,,0.000000,4.000000,4.000000,4.000000,4.000000,4.000000,4.000000,4.000000,4.000000,4.000000,4.000000,4.000000,4.000000,4.000000,4.000000,4.000000,4.000000,4.000000,4.000000,4.000000,4.000000,4.000000,4.000000,4.000000,4.000000,4.000000,4.000000,4.000000,4.000000,4.000000,4.000000,4.000000,4.000000,100.000000
1614075659.047485,127.000000,0.000000,-9.360371,-9.764976,-18.686230,-8.630876,-20.679775,-11.283603,-16.980789,-15.159748,-16.167997,-17.883467,-18.181229,-13.887806,-19.628620,-37.354645,-20.610050,-10.194055,-1.228015,38.693832,13.528622,-47.932980,-5.269952,-8.399365,-8.945409,7.036537,-12.243549,-0.393583,-8.917797,-7.843746,-4.253161,-11.830506,1.369481,-12.795102,8064.000000,0.000000,4.000000,,,,0.000000,4.000000,4.000000,4.000000,4.000000,4.000000,4.000000,4.000000,4.000000,4.000000,4.000000,4.000000,4.000000,4.000000,4.000000,4.000000,4.000000,4.000000,4.000000,4.000000,4.000000,4.000000,4.000000,4.000000,4.000000,4.000000,4.000000,4.000000,4.000000,4.000000,4.000000,4.000000,4.000000,100.000000
1614075659.055335,0.000000,0.000000,-9.351010,-9.755211,-21.231646,-8.622245,-20.659096,-11.272319,-17.476629,-21.298435,-16.664650,-19.916864,-18.163048,-14.899560,-21.147453,-42.445496,-28.281748,-22.491552,-9.944736,6.347445,-5.972086,-71.987610,-21.674938,-13.519172,-15.090310,0.362833,-21.462074,-12.188061,-13.011444,-10.400004,-4.248908,-15.921240,-2.734453,-17.910511,0.000000,192.000000,4.000000,,,,0.000000,4.000000,4.000000,4.000000,4.000000,4.000000,4.000000,4.000000,4.000000,4.000000,4.000000,4.000000,4.000000,4.000000,4.000000,4.000000,4.000000,4.000000,4.000000,4.000000,4.000000,4.000000,4.000000,4.000000,4.000000,4.000000,4.000000,4.000000,4.000000,4.000000,4.000000,4.000000,4.000000,100.000000
1614075659.063084,1.000000,0.000000,-10.367300,-9.745456,-21.723234,-8.613623,-20.638437,-11.773868,-16.433512,-28.456623,-16.647985,-22.973871,-18.144886,-13.859019,-21.126307,-44.967152,-33.381672,-29.648548,-12.498893,-20.325569,-32.632782,-87.300240,-25.243008,-12.992831,-16.100861,-3.740093,-21.440613,-18.329720,-17.613817,-11.415246,-4.244659,-13.854037,-3.244539,-16.354139,0.000000,179.000000,4.000000,,,,0.000000,4.000000,4.000000,4.000000,4.000000,4.000000,4.000000,4.000000,4.000000,4.000000,4.000000,4.000000,4.000000,4.000000,4.000000,4.000000,4.000000,4.000000,4.000000,4.000000,4.000000,4.000000,4.000000,4.000000,4.000000,4.000000,4.000000,4.000000,4.000000,4.000000,4.000000,4.000000,4.000000,100.000000
1614075659.070933,2.000000,0.000000,-9.331291,-9.735710,-22.214331,-8.605009,-18.566517,-10.223632,-12.827334,-14.069192,-13.041594,-14.745769,-10.947253,-2.050288,-6.233385,-34.665775,-24.630341,-26.029156,-9.922292,1.233219,-20.805277,-81.571915,-23.679302,-13.492660,-15.571939,-5.787635,-20.393532,-16.260107,-17.596203,-10.891010,-4.240414,-11.276080,-2.215653,-10.696760,0.000000,200.000000,4.000000,,,,0.000000,4.000000,4.000000,4.000000,4.000000,4.000000,4.000000,4.000000,4.000000,4.000000,4.000000,4.000000,4.000000,4.000000,4.000000,4.000000,4.000000,4.000000,4.000000,4.000000,4.000000,4.000000,4.000000,4.000000,4.000000,4.000000,4.000000,4.000000,4.000000,4.000000,4.000000,4.000000,4.000000,100.000000
1614075659.078682,3.000000,0.000000,-6.245037,-9.725975,-24.756220,-8.596404,-14.445386,-8.162127,-8.711943,5.944877,-8.413168,0.140772,1.884207,12.310737,7.619002,-18.733675,-13.836479,-23.439024,-11.450830,16.103781,0.241170,-83.028801,-23.655624,-13.991987,-15.043547,-6.807489,-21.911600,-16.756668,-17.065786,-10.880119,-4.236174,-11.777625,-2.726258,-11.711704,0.000000,172.000000,4.000000,,,,0.000000,4.000000,4.000000,4.000000,4.000000,4.000000,4.000000,4.000000,4.000000,4.000000,4.000000,4.000000,4.000000,4.000000,4.000000,4.000000,4.000000,4.000000,4.000000,4.000000,4.000000,4.000000,4.000000,4.000000,4.000000,4.000000,4.000000,4.000000,4.000000,4.000000,4.000000,4.000000,4.000000,100.000000
1614075659.086332,4.000000,0.000000,-7.777254,-9.716249,-25.757105,-8.587808,-12.892479,-7.641144,-10.241693,-0.727735,-5.840652,2.191913,1.882323,9.734324,-5.721951,-17.689301,-23.053411,-31.620714,-24.259893,-13.143093,-18.220610,-105.509872,-25.683250,-15.003636,-17.592606,-5.775040,-20.351227,-17.252731,-16.535900,-10.869239,-4.231938,-10.227386,-2.723532,-16.315376,0.000000,180.000000,4.000000,,,,0.000000,4.000000,4.000000,4.000000,4.000000,4.000000,4.000000,4.000000,4.000000,4.000000,4.000000,4.000000,4.000000,4.000000,4.000000,4.000000,4.000000,4.000000,4.000000,4.000000,4.000000,4.000000,4.000000,4.000000,4.000000,4.000000,4.000000,4.000000,4.000000,4.000000,4.000000,4.000000,4.000000,100.000000
1614075659.094081,5.000000,0.000000,-12.897681,-9.706532,-25.218527,-8.579220,-13.392406,-7.633502,-17.410938,-17.650084,-5.321990,-6.015407,-14.529816,-6.685668,-28.280331,-31.517765,-46.107281,-40.307041,-38.594608,-21.335077,-27.945978,-111.558212,-22.067823,-17.552734,-20.139116,-6.794906,-15.202670,-12.620094,-17.545006,-11.371190,-4.227706,-3.550492,-2.720808,-17.324703,0.000000,205.000000,4.000000,,,,0.000000,4.000000,4.000000,4.000000,4.000000,4.000000,4.000000,4.000000,4.000000,4.000000,4.000000,4.000000,4.000000,4.000000,4.000000,4.000000,4.000000,4.000000,4.000000,4.000000,4.000000,4.000000,4.000000,4.000000,4.000000,4.000000,4.000000,4.000000,4.000000,4.000000,4.000000,4.000000,4.000000,100.000000
1614075659.101731,6.000000,0.000000,-13.910425,-9.696826,-25.193308,-8.570641,-13.379014,-7.625869,-20.983271,-21.734999,-4.803848,-8.060674,-26.310158,-14.884110,-33.380257,-43.793938,-54.266304,-38.215454,-41.632935,8.429847,1.312737,-89.395370,-6.661140,-16.509541,-14.990771,-6.275291,-9.033621,-8.504910,-15.476178,-10.334178,-4.223478,1.068444,-2.718087,-16.281736,0.000000,176.000000,4.000000,,,,0.000000,4.000000,4.000000,4.000000,4.000000,4.000000,4.000000,4.000000,4.000000,4.000000,4.000000,4.000000,4.000000,4.000000,4.000000,4.000000,4.000000,4.000000,4.000000,4.000000,4.000000,4.000000,4.000000,4.000000,4.000000,4.000000,4.000000,4.000000,4.000000,4.000000,4.000000,4.000000,4.000000,100.000000
1614075659.109580,7.000000,0.000000,-12.870873,-9.687129,-25.168116,-9.074890,-12.852815,-7.618243,-17.885365,-19.661982,-5.311865,-6.514151,-26.283848,-14.356405,-31.295593,-44.775787,-48.571011,-32.536213,-36.463097,18.677828,9.003732,-73.921364,6.678854,-12.390468,-5.745011,1.936113,-6.460485,-5.419482,-7.255574,-7.759741,-4.219254,1.067375,-2.715369,-16.778276,0.000000,151.000000,4.000000,,,,0.000000,4.000000,4.000000,2.000000,4.000000,4.000000,4.000000,4.000000,4.000000,4.000000,4.000000,4.000000,4.000000,4.000000,4.000000,4.000000,4.000000,4.000000,4.000000,4.000000,4.000000,4.000000,4.000000,4.000000,4.000000,4.000000,4.000000,4.000000,4.000000,4.000000,4.000000,4.000000,4.000000,83.333336
1614075659.117329,8.000000,0.000000,-13.370823,-9.677442,-25.142946,-8.040174,-13.352782,-7.610625,-17.354658,-20.667959,-5.306553,-7.533278,-25.231922,-15.880510,-33.315578,-44.218189,-49.548080,-30.965214,-29.759968,13.530945,-5.877067,-68.719231,8.210637,-9.301154,-2.662343,9.626484,-5.941204,-2.337139,-1.094472,-6.726340,-4.215035,3.117590,-2.712654,-16.761497,0.000000,200.000000,4.000000,,,,0.000000,4.000000,4.000000,2.000000,4.000000,4.000000,4.000000,4.000000,4.000000,4.000000,4.000000,4.000000,4.000000,4.000000,4.000000,4.000000,4.000000,4.000000,4.000000,4.000000,4.000000,4.000000,4.000000,4.000000,4.000000,4.000000,4.000000,4.000000,4.000000,4.000000,4.000000,4.000000,4.000000,83.333336
1614075659.125078,9.000000,0.000000,-13.870273,-9.667765,-25.117804,-5.980852,-13.339430,-5.551732,-17.850124,-23.724215,-5.301246,-8.038566,-26.745153,-13.813348,-27.641239,-45.712433,-46.934429,-28.370146,-18.960978,26.337927,1.308297,-53.265900,8.202426,-4.676468,-3.172502,9.616858,-4.396801,-0.796341,-2.631839,-7.232435,-4.210820,4.140113,-2.709941,-16.744736,0.000000,200.000000,4.000000,,,,0.000000,4.000000,4.000000,2.000000,4.000000,4.000000,4.000000,4.000000,4.000000,4.000000,4.000000,4.000000,4.000000,4.000000,4.000000,4.000000,4.000000,4.000000,4.000000,4.000000,4.000000,4.000000,4.000000,4.000000,4.000000,4.000000,4.000000,4.000000,4.000000,4.000000,4.000000,4.000000,4.000000,83.333336
1614075659.132728,10.000000,0.000000,-13.343582,-9.658096,-25.092686,-4.436409,-12.813270,-3.494898,-13.216889,-24.213312,-5.295945,-7.004886,-26.205587,-6.107227,-17.357187,-39.000053,-32.528522,-23.213572,-11.249708,29.388512,4.896732,-42.443401,5.630121,-1.082048,-3.682149,9.094420,-4.905225,-0.795544,-4.167669,-7.225202,-4.206610,0.033409,-2.707232,-16.215170,0.000000,180.000000,4.000000,,,,0.000000,4.000000,4.000000,2.000000,4.000000,4.000000,4.000000,4.000000,4.000000,4.000000,4.000000,4.000000,4.000000,4.000000,4.000000,4.000000,4.000000,4.000000,4.000000,4.000000,4.000000,4.000000,4.000000,4.000000,4.000000,4.000000,4.000000,4.000000,4.000000,4.000000,4.000000,4.000000,4.000000,83.333336
1614075659.140477,11.000000,0.000000,-13.330238,-9.648438,-24.554773,-4.431973,-12.800456,-3.491404,-9.613929,-18.035252,-4.777829,-6.997881,-25.666561,-3.537017,-16.314190,-26.653362,-22.239582,-17.549332,-10.725638,6.795021,-14.595344,-50.606087,-10.272944,-5.183530,-3.678467,9.598146,-11.054166,-1.820390,-7.240424,-6.705156,-4.202403,-3.043548,-2.704524,-15.686135,0.000000,197.000000,4.000000,,,,0.000000,4.000000,4.000000,2.000000,4.000000,4.000000,4.000000,4.000000,4.000000,4.000000,4.000000,4.000000,4.000000,4.000000,4.000000,4.000000,4.000000,4.000000,4.000000,4.000000,4.000000,4.000000,4.000000,4.000000,4.000000,4.000000,4.000000,4.000000,4.000000,4.000000,4.000000,4.000000,4.000000,83.333336
1614075659.148127,12.000000,0.000000,-13.316908,-10.151610,-25.043039,-4.940361,-13.300476,-4.000732,-12.681238,-12.889011,-5.285872,-7.503704,-25.640894,-0.969378,-16.810696,-19.960041,-19.653240,-14.454860,-9.689272,-1.929723,-24.837158,-67.991379,-27.185749,-11.845014,-2.649148,1.896241,-16.684137,-4.895493,-14.925491,-7.211272,-4.198201,-3.553324,-2.701820,-18.234552,0.000000,214.000000,4.000000,,,,0.000000,4.000000,4.000000,2.000000,4.000000,4.000000,4.000000,4.000000,4.000000,4.000000,4.000000,4.000000,4.000000,4.000000,4.000000,4.000000,4.000000,4.000000,4.000000,4.000000,4.000000,4.000000,4.000000,4.000000,4.000000,4.000000,4.000000,4.000000,4.000000,4.000000,4.000000,4.000000,4.000000,83.333336
1614075659.155876,13.000000,0.000000,-13.303592,-9.115818,-25.017996,-4.935421,-12.774356,-3.996732,-14.207018,-12.876122,-5.280585,-6.470559,-25.615253,3.646976,-16.281065,-20.452902,-24.248972,-27.773737,-9.166762,2.174771,-26.350782,-81.769539,-31.773947,-12.858809,-6.749063,-10.413348,-16.667454,-5.403418,-19.525951,-7.204061,-4.194002,-3.036951,-2.699118,-19.754778,0.000000,221.000000,4.000000,,,,0.000000,4.000000,4.000000,2.000000,4.000000,4.000000,4.000000,4.000000,4.000000,4.000000,4.000000,4.000000,4.000000,4.000000,4.000000,4.000000,4.000000,4.000000,4.000000,4.000000,4.000000,4.000000,4.000000,4.000000,4.000000,4.000000,4.000000,4.000000,4.000000,4.000000,4.000000,4.000000,4.000000,83.333336
1614075659.163525,14.000000,0.000000,-13.290288,-6.542600,-24.480158,-4.417665,-12.248760,-3.479915,-12.141529,-12.863246,-4.249664,-8.002550,-25.076818,-0.972055,-21.905809,-29.663218,-40.122158,-52.874168,-19.414005,-14.750482,-36.068024,-92.457001,-32.254993,-20.538258,-19.562826,-13.992678,-19.214888,-4.885193,-22.070528,-7.196856,-4.189808,-2.008273,-2.696419,-17.170921,0.000000,155.000000,4.000000,,,,0.000000,4.000000,4.000000,2.000000,4.000000,4.000000,4.000000,4.000000,4.000000,4.000000,4.000000,4.000000,4.000000,4.000000,4.000000,4.000000,4.000000,4.000000,4.000000,4.000000,4.000000,4.000000,4.000000,4.000000,4.000000,4.000000,4.000000,4.000000,4.000000,4.000000,4.000000,4.000000,4.000000,83.333336
1614075659.171275,15.000000,0.000000,-13.276998,-5.510416,-26.506960,-4.926068,-16.339075,-5.527717,-14.180670,-13.876024,-7.322337,-16.712496,-25.564562,-9.689032,-30.089031,-46.556633,-54.953831,-64.616165,-32.727924,-29.094706,-36.544773,-99.031212,-35.299664,-32.312592,-27.235571,-13.978685,-23.811058,-10.521334,-27.176662,-7.189660,-4.698439,-7.134470,-2.693722,-21.256315,0.000000,176.000000,4.000000,,,,0.000000,4.000000,4.000000,2.000000,4.000000,4.000000,4.000000,4.000000,4.000000,4.000000,4.000000,4.000000,4.000000,4.000000,4.000000,4.000000,4.000000,4.000000,4.000000,4.000000,4.000000,4.000000,4.000000,4.000000,4.000000,4.000000,4.000000,4.000000,4.000000,4.000000,4.000000,4.000000,4.000000,83.333336
1614075659.178924,16.000000,0.000000,-13.263721,-6.017726,-30.583015,-7.485245,-20.425301,-8.599113,-16.730591,-16.426250,-16.032963,-26.952194,-26.051817,-11.217804,-33.135864,-56.253666,-52.334774,-54.807961,-33.720837,-16.757917,-32.405666,-100.983467,-33.725903,-28.177715,-23.618593,-19.605732,-25.325708,-13.587736,-25.611023,-7.182470,-4.693740,-13.794002,-3.203849,-27.388905,0.000000,201.000000,4.000000,,,,0.000000,4.000000,4.000000,2.000000,4.000000,4.000000,4.000000,4.000000,4.000000,4.000000,4.000000,4.000000,4.000000,4.000000,4.000000,4.000000,4.000000,4.000000,4.000000,4.000000,4.000000,4.000000,4.000000,4.000000,4.000000,4.000000,4.000000,4.000000,4.000000,4.000000,4.000000,4.000000,4.000000,83.333336
1614075659.186673,17.000000,0.000000,-13.250457,-6.011708,-32.603714,-9.016221,-20.917696,-7.564872,-14.662579,-16.409824,-21.145136,-30.514986,-25.512945,-13.257869,-31.564268,-52.607666,-45.102951,-39.881359,-27.020451,-2.895006,-33.398899,-95.241455,-25.487047,-10.713640,-18.979589,-19.073307,-24.274742,-8.958763,-18.405926,-7.175287,-2.124944,-12.241746,-2.175004,-22.233311,0.000000,202.000000,4.000000,,,,0.000000,4.000000,4.000000,2.000000,4.000000,4.000000,4.000000,4.000000,4.000000,4.000000,4.000000,4.000000,4.000000,4.000000,4.000000,4.000000,4.000000,4.000000,4.000000,4.000000,4.000000,4.000000,4.000000,4.000000,4.000000,4.000000,4.000000,4.000000,4.000000,4.000000,4.000000,4.000000,4.000000,83.333336
1614075659.194323,18.000000,0.000000,-13.237206,-5.492876,-32.571110,-8.494385,-20.896778,-4.480384,-14.135096,-16.906235,-19.585529,-28.946009,-25.487432,-17.859995,-31.532703,-48.452496,-44.545029,-33.174809,-24.942148,4.287376,-15.929605,-88.479546,-11.615406,-3.010619,-18.447788,-5.720900,-19.635082,-5.360061,-16.336237,-7.168112,-0.071537,-6.588479,0.391273,-15.031590,0.000000,202.000000,4.000000,,,,0.000000,4.000000,4.000000,2.000000,4.000000,4.000000,4.000000,4.000000,4.000000,4.000000,4.000000,4.000000,4.000000,4.000000,4.000000,4.000000,4.000000,4.000000,4.000000,4.000000,4.000000,4.000000,4.000000,4.000000,4.000000,4.000000,4.000000,4.000000,4.000000,4.000000,4.000000,4.000000,4.000000,83.333336
1614075659.202172,19.000000,0.000000,-13.736790,-6.000204,-32.025719,-8.485890,-20.875881,-4.475904,-18.223524,-21.504713,-20.591585,-29.429884,-28.538868,-19.893417,-33.552452,-48.404045,-45.013306,-37.244198,-27.481308,17.616423,10.752992,-87.878242,6.857748,-7.110172,-18.942162,4.541232,-12.435960,-4.841880,-13.755798,-7.160944,-1.097107,-6.069070,1.416523,-16.042200,0.000000,201.000000,4.000000,,,,0.000000,4.000000,4.000000,2.000000,4.000000,4.000000,4.000000,4.000000,4.000000,4.000000,4.000000,4.000000,4.000000,4.000000,4.000000,4.000000,4.000000,4.000000,4.000000,4.000000,4.000000,4.000000,4.000000,4.000000,4.000000,4.000000,4.000000,4.000000,4.000000,4.000000,4.000000,4.000000,4.000000,83.333336
1614075659.209921,20.000000,0.000000,-12.697412,-5.481383,-30.455233,-7.964583,-16.752441,-3.958607,-21.795046,-24.560131,-20.570993,-30.938915,-28.510328,-18.847883,-30.441977,-45.791538,-41.891369,-32.078751,-23.864084,24.778292,15.357623,-79.072418,22.235506,-8.128703,-18.923220,1.972588,-7.295319,2.342449,-3.998453,-7.153783,3.006554,-4.011719,0.902286,-14.487696,0.000000,201.000000,4.000000,,,,0.000000,4.000000,4.000000,2.000000,4.000000,4.000000,4.000000,4.000000,4.000000,4.000000,4.000000,4.000000,4.000000,4.000000,4.000000,4.000000,4.000000,4.000000,4.000000,4.000000,4.000000,4.000000,4.000000,4.000000,4.000000,4.000000,4.000000,4.000000,4.000000,4.000000,4.000000,4.000000,4.000000,83.333336
1614075659.217771,21.000000,0.000000,-8.582150,-5.988722,-28.886316,-5.905337,-13.145946,0.660736,-20.747608,-24.022751,-13.370934,-26.805412,-21.302332,-11.136727,-21.180765,-41.130360,-39.798195,-12.559492,-8.968425,27.317617,12.265343,-53.865143,22.213270,1.110195,-10.186348,1.970615,-2.159818,7.468311,0.620930,-7.146629,10.695855,1.120498,1.414204,-8.319362,0.000000,194.000000,4.000000,,,,0.000000,4.000000,4.000000,2.000000,4.000000,4.000000,4.000000,4.000000,4.000000,4.000000,4.000000,4.000000,4.000000,4.000000,4.000000,4.000000,4.000000,4.000000,4.000000,4.000000,4.000000,4.000000,4.000000,4.000000,4.000000,4.000000,4.000000,4.000000,4.000000,4.000000,4.000000,4.000000,4.000000,83.333336
1614075659.225520,22.000000,0.000000,-5.496645,-5.982733,-28.344608,-4.873791,-12.619979,4.249819,-20.214041,-23.998728,-5.152436,-19.599119,-14.101542,1.182102,-15.518559,-40.063591,-37.707115,-10.495650,5.399518,30.367222,7.124872,-45.606148,-1.398687,3.673187,0.080249,9.660953,-2.670479,1.306997,-0.918153,-7.139482,8.633878,0.606557,0.387149,-10.875145,0.000000,201.000000,4.000000,,,,0.000000,4.000000,4.000000,2.000000,4.000000,4.000000,4.000000,4.000000,4.000000,4.000000,4.000000,4.000000,4.000000,4.000000,4.000000,4.000000,4.000000,4.000000,4.000000,4.000000,4.000000,4.000000,4.000000,4.000000,4.000000,4.000000,4.000000,4.000000,4.000000,4.000000,4.000000,4.000000,4.000000,83.333336
1614075659.233369,23.000000,0.000000,-5.491148,-5.463930,-28.316265,-4.868917,-13.120180,3.732749,-21.219467,-24.487551,-4.121642,-17.528238,-13.574619,5.283484,-17.554323,-39.510704,-36.130947,-35.613361,3.342837,6.747112,-23.651484,-69.150284,-31.653698,-11.715101,-5.048037,7.600009,-20.616526,-6.386618,-4.506978,-6.619523,0.420116,-5.035075,-2.690161,-19.069397,0.000000,199.000000,4.000000,,,,0.000000,4.000000,4.000000,2.000000,4.000000,4.000000,4.000000,4.000000,4.000000,4.000000,4.000000,4.000000,4.000000,4.000000,4.000000,4.000000,4.000000,4.000000,4.000000,4.000000,4.000000,4.000000,4.000000,4.000000,4.000000,4.000000,4.000000,4.000000,4.000000,4.000000,4.000000,4.000000,4.000000,83.333336
1614075659.241118,24.000000,0.000000,-5.485657,-6.996928,-29.313589,-4.864048,-13.619880,3.216195,-20.685429,-23.950243,-5.143162,-17.510710,-14.586686,4.252559,-16.511127,-36.907093,-36.607635,-48.398258,-6.916916,-25.567327,-50.294498,-88.568314,-48.032303,-28.626463,-16.837860,-7.279386,-39.570271,-7.918693,-12.707600,-8.664186,-1.631587,-10.671065,-3.200292,-21.614431,0.000000,190.000000,4.000000,,,,0.000000,4.000000,4.000000,2.000000,4.000000,4.000000,4.000000,4.000000,4.000000,4.000000,4.000000,4.000000,4.000000,4.000000,4.000000,4.000000,4.000000,4.000000,4.000000,4.000000,4.000000,4.000000,4.000000,4.000000,4.000000,4.000000,4.000000,4.000000,4.000000,4.000000,4.000000,4.000000,4.000000,83.333336
1614075659.248968,25.000000,0.000000,-5.480172,-9.041213,-26.207352,-5.372005,-12.580619,3.725800,-20.151922,-23.413471,-4.625198,-11.852174,-12.007997,5.786768,-10.853591,-36.357365,-36.058208,-36.554989,-11.012564,-19.387915,-37.936512,-90.531029,-51.061192,-33.213223,-19.385124,-20.605440,-44.658905,-8.423594,-23.464123,-10.706803,-0.091493,-14.250138,-2.684271,-19.541534,0.000000,207.000000,4.000000,,,,0.000000,4.000000,4.000000,2.000000,4.000000,4.000000,4.000000,4.000000,4.000000,4.000000,4.000000,4.000000,4.000000,4.000000,4.000000,4.000000,4.000000,4.000000,4.000000,4.000000,4.000000,4.000000,4.000000,4.000000,4.000000,4.000000,4.000000,4.000000,4.000000,4.000000,4.000000,4.000000,4.000000,83.333336
1614075659.256717,26.000000,0.000000,-8.038794,-10.057813,-19.514479,-3.828171,-8.978295,3.209253,-21.157412,-24.415699,-4.620573,-6.199296,-7.380604,2.704058,-9.304276,-35.808186,-33.970867,-27.800486,-11.001551,8.836602,-20.462677,-92.491783,-43.830643,-32.667187,-19.878561,-24.687399,-41.537323,-10.979274,-29.594505,-10.696096,-1.117043,-14.235888,-3.707227,-20.547634,0.000000,160.000000,4.000000,,,,0.000000,4.000000,4.000000,2.000000,4.000000,4.000000,4.000000,4.000000,4.000000,4.000000,4.000000,4.000000,4.000000,4.000000,4.000000,4.000000,4.000000,4.000000,4.000000,4.000000,4.000000,4.000000,4.000000,4.000000,4.000000,4.000000,4.000000,4.000000,4.000000,4.000000,4.000000,4.000000,4.000000,83.333336
1614075659.264566,27.000000,0.000000,-10.082037,-9.534934,-16.418041,0.791042,-4.866753,3.206044,-20.623432,-25.416924,-4.615952,-6.193096,-5.321941,-2.939672,-9.807792,-30.131353,-32.911255,-28.285505,-11.503370,16.520073,-19.929394,-87.783905,-24.812454,-24.942213,-22.422785,-25.175531,-29.700912,-8.404192,-27.000807,-10.685400,-1.628747,-12.170370,-1.652238,-21.039907,0.000000,198.000000,4.000000,,,,0.000000,4.000000,4.000000,2.000000,4.000000,4.000000,4.000000,4.000000,4.000000,4.000000,4.000000,4.000000,4.000000,4.000000,4.000000,4.000000,4.000000,4.000000,4.000000,4.000000,4.000000,4.000000,4.000000,4.000000,4.000000,4.000000,4.000000,4.000000,4.000000,4.000000,4.000000,4.000000,4.000000,83.333336
1614075659.272316,28.000000,0.000000,-9.559134,-9.525399,-17.427263,3.354354,-2.810604,3.202838,-18.038708,-23.340225,-6.662618,-8.238185,-11.983286,-2.936732,-8.772344,-27.537119,-31.852703,-28.257219,-11.491866,15.990732,-13.242799,-71.285866,-8.890205,-12.609578,-17.784977,-20.022150,-12.748135,1.347802,-17.230217,-11.187535,1.962626,-8.055635,2.964799,-14.865021,0.000000,183.000000,4.000000,,,,0.000000,4.000000,4.000000,2.000000,4.000000,4.000000,4.000000,4.000000,4.000000,4.000000,4.000000,4.000000,4.000000,4.000000,4.000000,4.000000,4.000000,4.000000,4.000000,4.000000,4.000000,4.000000,4.000000,4.000000,4.000000,4.000000,4.000000,4.000000,4.000000,4.000000,4.000000,4.000000,4.000000,83.333336
1614075659.280165,29.000000,0.000000,-10.575216,-9.515874,-17.409836,2.325358,-2.294973,1.661174,-18.020668,-26.906628,-10.758520,-10.794049,-23.766174,-8.574821,-14.404596,-35.714710,-33.359310,-28.228962,-12.506016,17.000383,-7.075710,-66.599190,-7.855674,-8.494405,-14.177448,-12.309821,-8.120002,6.987480,-11.571961,-10.663527,6.063227,-1.380913,5.013116,-9.209130,0.000000,195.000000,4.000000,,,,0.000000,4.000000,4.000000,2.000000,4.000000,4.000000,4.000000,4.000000,4.000000,4.000000,4.000000,4.000000,4.000000,4.000000,4.000000,4.000000,4.000000,4.000000,4.000000,4.000000,4.000000,4.000000,4.000000,4.000000,4.000000,4.000000,4.000000,4.000000,4.000000,4.000000,4.000000,4.000000,4.000000,83.333336
1614075659.287914,30.000000,0.000000,-12.615924,-9.506358,-16.366785,2.323033,-1.779857,-0.391770,-21.079571,-36.110493,-12.799044,-13.860179,-26.819332,-17.797014,-21.569679,-40.294380,-33.838772,-19.482784,-10.442227,25.188511,-5.530172,-67.045410,-2.719614,-5.921808,-15.188911,-9.733408,-8.624702,5.954852,-13.098850,-10.652864,7.082805,4.261493,4.495282,-8.174280,0.000000,195.000000,4.000000,,,,0.000000,4.000000,4.000000,2.000000,4.000000,4.000000,4.000000,4.000000,4.000000,4.000000,4.000000,4.000000,4.000000,4.000000,4.000000,4.000000,4.000000,4.000000,4.000000,4.000000,4.000000,4.000000,4.000000,4.000000,4.000000,4.000000,4.000000,4.000000,4.000000,4.000000,4.000000,4.000000,4.000000,83.333336
1614075659.295763,31.000000,0.000000,-14.141769,-9.496852,-16.863239,2.833530,-2.290898,-0.904198,-20.545671,-31.971817,-12.786244,-14.359139,-18.587383,-11.112552,-11.804520,-33.074596,-24.061344,-1.001764,-1.713837,54.906910,14.475358,-46.978367,16.257465,6.904627,-11.071158,-7.672393,2.665973,5.948897,-11.034470,-11.155031,7.588543,5.282873,4.490787,-8.678926,0.000000,191.000000,4.000000,,,,0.000000,4.000000,4.000000,2.000000,4.000000,4.000000,4.000000,4.000000,4.000000,4.000000,4.000000,4.000000,4.000000,4.000000,4.000000,4.000000,4.000000,4.000000,4.000000,4.000000,4.000000,4.000000,4.000000,4.000000,4.000000,4.000000,4.000000,4.000000,4.000000,4.000000,4.000000,4.000000,4.000000,83.333336
1614075659.303513,32.000000,0.000000,-12.076345,-7.436073,-17.359198,2.317876,-2.288607,-0.390474,-15.909740,-8.862922,-11.747817,-14.344780,-10.876489,5.308817,2.053439,-27.400497,-13.780873,1.563341,7.005826,65.621239,29.332678,-28.469851,29.061720,15.102851,-5.419062,0.027587,10.868436,6.455768,-2.305486,-8.579774,9.632236,4.764770,4.486296,-8.670247,8064.000000,0.000000,4.000000,,,,0.000000,4.000000,4.000000,2.000000,4.000000,4.000000,4.000000,4.000000,4.000000,4.000000,4.000000,4.000000,4.000000,4.000000,4.000000,4.000000,4.000000,4.000000,4.000000,4.000000,4.000000,4.000000,4.000000,4.000000,4.000000,4.000000,4.000000,4.000000,4.000000,4.000000,4.000000,4.000000,4.000000,83.333336
1614075659.311262,33.000000,0.000000,-4.884782,-5.377355,-16.316196,2.828379,-2.286318,1.661199,-12.816908,7.556198,-9.684787,-14.330435,-7.275869,8.893252,-0.512717,-28.911558,-19.920938,-18.438223,8.537282,33.247921,4.175139,-42.800358,18.776249,10.985184,-2.849540,6.694226,4.190900,5.423672,0.260922,-3.955809,11.161066,4.760005,4.994630,-8.661577,8064.000000,0.000000,4.000000,,,,0.000000,4.000000,4.000000,2.000000,4.000000,4.000000,4.000000,4.000000,4.000000,4.000000,4.000000,4.000000,4.000000,4.000000,4.000000,4.000000,4.000000,4.000000,4.000000,4.000000,4.000000,4.000000,4.000000,4.000000,4.000000,4.000000,4.000000,4.000000,4.000000,4.000000,4.000000,4.000000,4.000000,83.333336
1614075659.319011,34.000000,0.000000,-1.290153,-5.884798,-18.863983,1.799909,-1.771212,1.659538,-10.752809,3.446077,-8.136641,-14.316105,-4.704491,6.833077,-7.178872,-28.882647,-24.003582,-29.189014,6.477462,3.471084,-24.034164,-66.347298,-9.447656,4.820352,-2.333870,7.713173,-0.941496,6.443889,-4.867545,-2.926213,11.149904,5.268065,8.066559,-8.140095,8064.000000,0.000000,4.000000,,,,0.000000,4.000000,4.000000,2.000000,4.000000,4.000000,4.000000,4.000000,4.000000,4.000000,4.000000,4.000000,4.000000,4.000000,4.000000,4.000000,4.000000,4.000000,4.000000,4.000000,4.000000,4.000000,4.000000,4.000000,4.000000,4.000000,4.000000,4.000000,4.000000,4.000000,4.000000,4.000000,4.000000,83.333336
1614075659.326661,35.000000,0.000000,-6.417068,-5.878913,-24.998964,-1.791634,-2.282261,-0.393404,-9.716414,-3.736856,-9.666965,-14.301788,-2.648504,8.364705,-4.094769,-27.315304,-17.312912,-19.929056,2.881241,16.288126,-26.574232,-73.460442,-38.156158,-9.030622,-9.511024,0.525973,-6.068759,4.898983,-8.965241,-3.436107,8.061831,3.211515,8.571313,-10.696057,8064.000000,0.000000,4.000000,,,,0.000000,4.000000,4.000000,2.000000,4.000000,4.000000,4.000000,4.000000,4.000000,4.000000,4.000000,4.000000,4.000000,4.000000,4.000000,4.000000,4.000000,4.000000,4.000000,4.000000,4.000000,4.000000,4.000000,4.000000,4.000000,4.000000,4.000000,4.000000,4.000000,4.000000,4.000000,4.000000,4.000000,83.333336
1614075659.334410,36.000000,0.000000,-10.000395,-5.873034,-29.076530,-4.866765,-2.279979,-0.905831,-9.193878,-5.784401,-11.708581,-14.287487,-4.184317,6.305058,-7.680418,-30.877731,-22.423803,-16.832205,-2.249845,15.759017,-30.650223,-79.028008,-50.425694,-29.021591,-20.783564,-12.807887,-17.344742,-2.285403,-8.956276,-3.432671,2.412744,-0.894261,6.511459,-16.839207,8064.000000,0.000000,4.000000,,,,0.000000,4.000000,4.000000,2.000000,4.000000,4.000000,4.000000,4.000000,4.000000,4.000000,4.000000,4.000000,4.000000,4.000000,4.000000,4.000000,4.000000,4.000000,4.000000,4.000000,4.000000,4.000000,4.000000,4.000000,4.000000,4.000000,4.000000,4.000000,4.000000,4.000000,4.000000,4.000000,4.000000,83.333336
1614075659.342059,37.000000,0.000000,-6.913471,-5.867161,-28.021812,-5.374719,-1.764878,0.120716,-9.697504,-8.855540,-12.209693,-14.273199,-8.282697,1.170549,-19.980431,-35.462238,-37.273174,-32.712811,-4.298877,-5.795203,-37.286240,-87.154106,-43.195782,-30.018211,-20.249960,-21.513027,-21.942781,-6.385682,-8.434499,-2.916418,3.435972,-2.944649,4.966486,-20.412111,8064.000000,0.000000,4.000000,,,,0.000000,4.000000,4.000000,2.000000,4.000000,4.000000,4.000000,4.000000,4.000000,4.000000,4.000000,4.000000,4.000000,4.000000,4.000000,4.000000,4.000000,4.000000,4.000000,4.000000,4.000000,4.000000,4.000000,4.000000,4.000000,4.000000,4.000000,4.000000,4.000000,4.000000,4.000000,4.000000,4.000000,83.333336
1614075659.349809,38.000000,0.000000,-4.855276,-5.861294,-27.480970,-4.856524,-2.788754,-0.392225,-9.687807,-12.949248,-12.197483,-14.258926,-10.325696,-0.369084,-26.114296,-36.452415,-41.851284,-41.910866,-4.294579,-6.302228,-26.992542,-82.964386,-32.383354,-11.013834,-12.024582,-20.978693,-17.818275,-5.353655,-8.938885,-3.426322,7.022280,-2.941704,2.910238,-20.391701,8064.000000,0.000000,4.000000,,,,0.000000,4.000000,4.000000,2.000000,4.000000,4.000000,4.000000,4.000000,4.000000,4.000000,4.000000,4.000000,4.000000,4.000000,4.000000,4.000000,4.000000,4.000000,4.000000,4.000000,4.000000,4.000000,4.000000,4.000000,4.000000,4.000000,4.000000,4.000000,4.000000,4.000000,4.000000,4.000000,4.000000,83.333336
1614075659.357458,39.000000,0.000000,-7.414523,-5.855433,-29.504772,-4.851667,-7.401350,-0.391833,-9.678119,-13.961940,-12.185286,-14.244667,-10.828191,0.144106,-24.549721,-35.903145,-39.758152,-32.638184,-4.290284,9.088689,-14.657857,-72.625015,-29.274048,-1.772050,-10.474095,-18.393612,-16.774815,-5.348301,-9.442766,-3.422895,1.887053,-4.477223,-1.708057,-19.858488,8064.000000,0.000000,4.000000,,,,0.000000,4.000000,4.000000,2.000000,4.000000,4.000000,4.000000,4.000000,4.000000,4.000000,4.000000,4.000000,4.000000,4.000000,4.000000,4.000000,4.000000,4.000000,4.000000,4.000000,4.000000,4.000000,4.000000,4.000000,4.000000,4.000000,4.000000,4.000000,4.000000,4.000000,4.000000,4.000000,4.000000,83.333336
1614075659.365207,40.000000,0.000000,-9.971211,-5.849577,-31.526548,-4.846816,-9.958052,-0.391441,-9.668441,-12.922338,-12.173100,-14.230422,-10.817363,-0.368859,-23.499529,-35.354420,-39.205574,-23.374777,-3.773173,14.720626,-13.104738,-69.475464,-29.757593,-6.898484,-12.002083,-12.734194,-16.758041,-5.855773,-8.920504,-3.419472,-4.268681,-6.524028,-3.757631,-20.351450,8064.000000,0.000000,4.000000,,,,0.000000,4.000000,4.000000,2.000000,4.000000,4.000000,4.000000,4.000000,4.000000,4.000000,4.000000,4.000000,4.000000,4.000000,4.000000,4.000000,4.000000,4.000000,4.000000,4.000000,4.000000,4.000000,4.000000,4.000000,4.000000,4.000000,4.000000,4.000000,4.000000,4.000000,4.000000,4.000000,4.000000,83.333336
1614075659.372857,41.000000,0.000000,-9.448420,-5.843728,-31.495022,-4.841969,-9.435273,-0.391050,-9.145952,-12.909415,-12.160927,-13.703372,-10.293725,2.195613,-21.937569,-33.267784,-35.063805,-23.351402,-4.282220,15.731546,-11.553171,-70.431625,-28.702194,-9.968508,-10.964440,-6.567613,-13.664359,-5.337097,-8.911583,-3.416053,-2.725950,-7.030325,-2.728232,-19.818277,8064.000000,0.000000,4.000000,,,,0.000000,4.000000,4.000000,2.000000,4.000000,4.000000,4.000000,4.000000,4.000000,4.000000,4.000000,4.000000,4.000000,4.000000,4.000000,4.000000,4.000000,4.000000,4.000000,4.000000,4.000000,4.000000,4.000000,4.000000,4.000000,4.000000,4.000000,4.000000,4.000000,4.000000,4.000000,4.000000,4.000000,83.333336
1614075659.380606,42.000000,0.000000,-8.926150,-5.837884,-31.463528,-4.837127,-8.913017,-0.390659,-9.649627,-11.870865,-11.635945,-13.689668,-10.796251,6.808802,-20.377169,-31.183235,-31.438997,-23.840872,-3.252297,19.818378,-10.515978,-70.361198,-27.647852,-7.394437,-9.415014,-5.535404,-12.625054,-5.331760,-8.902671,-3.412637,-1.697583,-6.510474,-2.725504,-19.798460,8064.000000,0.000000,4.000000,,,,0.000000,4.000000,4.000000,2.000000,4.000000,4.000000,4.000000,4.000000,4.000000,4.000000,4.000000,4.000000,4.000000,4.000000,4.000000,4.000000,4.000000,4.000000,4.000000,4.000000,4.000000,4.000000,4.000000,4.000000,4.000000,4.000000,4.000000,4.000000,4.000000,4.000000,4.000000,4.000000,4.000000,83.333336
1614075659.388256,43.000000,0.000000,-9.430045,-5.832046,-31.432064,-4.832290,-9.929745,-0.390268,-9.639977,-12.371814,-11.624310,-13.675979,-10.272635,8.340455,-17.792690,-31.152052,-31.920378,-23.304211,-0.684942,25.952406,-9.479820,-64.136993,-29.158665,-4.822940,-7.354317,-2.965766,-11.586788,-5.326428,-7.355307,-2.896404,-3.747168,-5.991143,-3.235599,-19.778662,8064.000000,0.000000,4.000000,,,,0.000000,4.000000,4.000000,2.000000,4.000000,4.000000,4.000000,4.000000,4.000000,4.000000,4.000000,4.000000,4.000000,4.000000,4.000000,4.000000,4.000000,4.000000,4.000000,4.000000,4.000000,4.000000,4.000000,4.000000,4.000000,4.000000,4.000000,4.000000,4.000000,4.000000,4.000000,4.000000,4.000000,83.333336
1614075659.396005,44.000000,0.000000,-9.933435,-5.826214,-31.400631,-4.827457,-9.406995,-0.389878,-9.117517,-13.385083,-12.125506,-14.175123,-10.262362,7.819293,-15.723615,-32.659359,-30.862818,-22.255266,-0.171437,21.311069,-9.983161,-57.406185,-29.129507,-4.818117,-7.859783,3.703866,-9.523919,-5.321102,-3.758208,-2.893507,-2.717780,-6.497972,-2.719543,-19.758883,8064.000000,0.000000,4.000000,,,,0.000000,4.000000,4.000000,2.000000,4.000000,4.000000,4.000000,4.000000,4.000000,4.000000,4.000000,4.000000,4.000000,4.000000,4.000000,4.000000,4.000000,4.000000,4.000000,4.000000,4.000000,4.000000,4.000000,4.000000,4.000000,4.000000,4.000000,4.000000,4.000000,4.000000,4.000000,4.000000,4.000000,83.333336
1614075659.403654,45.000000,0.000000,-9.410682,-5.820388,-31.369230,-4.822630,-8.884768,-0.389488,-10.134040,-10.807595,-12.113380,-15.186589,-12.816202,6.785833,-20.836096,-32.626701,-34.934517,-24.284292,-1.709727,-4.351267,-27.921896,-66.579552,-29.613197,-7.377401,-7.851923,7.289906,-9.001575,-5.315781,-0.164706,-5.454716,-0.150959,-7.004295,-3.229644,-19.739124,8064.000000,0.000000,4.000000,,,,0.000000,4.000000,4.000000,2.000000,4.000000,4.000000,4.000000,4.000000,4.000000,4.000000,4.000000,4.000000,4.000000,4.000000,4.000000,4.000000,4.000000,4.000000,4.000000,4.000000,4.000000,4.000000,4.000000,4.000000,4.000000,4.000000,4.000000,4.000000,4.000000,4.000000,4.000000,4.000000,4.000000,83.333336
1614075659.411404,46.000000,0.000000,-8.888451,-5.814568,-31.337862,-4.817808,-10.414344,-0.389099,-12.688008,-16.950634,-12.614088,-17.735504,-16.905951,1.650842,-27.481926,-30.542793,-46.694454,-33.490776,-4.272120,-28.962301,-52.509357,-86.000153,-33.173328,-8.908485,-6.305610,4.718513,-8.479753,-5.310465,-2.215824,-6.987723,-0.663629,-5.971650,-2.713594,-19.719385,8064.000000,0.000000,4.000000,,,,0.000000,4.000000,4.000000,2.000000,4.000000,4.000000,4.000000,4.000000,4.000000,4.000000,4.000000,4.000000,4.000000,4.000000,4.000000,4.000000,4.000000,4.000000,4.000000,4.000000,4.000000,4.000000,4.000000,4.000000,4.000000,4.000000,4.000000,4.000000,4.000000,4.000000,4.000000,4.000000,4.000000,83.333336
1614075659.419053,47.000000,0.000000,-10.930843,-5.808753,-31.306524,-4.812990,-12.455212,-0.388710,-13.188141,-35.908043,-19.268141,-23.871616,-23.555712,-4.504655,-30.018547,-36.666096,-52.288788,-43.713696,-9.396052,-28.420517,-55.020950,-95.144920,-35.704258,-8.899577,-12.965971,-0.927231,-8.471273,-5.305154,-13.495659,-6.467915,-0.662965,-6.478498,-0.146778,-19.699665,8064.000000,0.000000,4.000000,,,,0.000000,4.000000,4.000000,2.000000,4.000000,4.000000,4.000000,4.000000,4.000000,4.000000,4.000000,4.000000,4.000000,4.000000,4.000000,4.000000,4.000000,4.000000,4.000000,4.000000,4.000000,4.000000,4.000000,4.000000,4.000000,4.000000,4.000000,4.000000,4.000000,4.000000,4.000000,4.000000,4.000000,83.333336
1614075659.426802,48.000000,0.000000,-13.484015,-5.802944,-31.275217,-4.808177,-13.468397,0.124500,-12.662132,-43.564442,-26.428360,-29.488770,-31.737284,-8.089893,-32.552631,-49.449944,-51.210857,-46.746906,-11.437939,-16.084404,-44.709522,-90.947212,-34.642914,-11.967601,-19.619671,-8.618611,-13.591007,-5.299849,-20.661650,-8.512729,-0.662302,-11.600225,0.879010,-20.192785,8064.000000,0.000000,4.000000,,,,0.000000,4.000000,4.000000,2.000000,4.000000,4.000000,4.000000,4.000000,4.000000,4.000000,4.000000,4.000000,4.000000,4.000000,4.000000,4.000000,4.000000,4.000000,4.000000,4.000000,4.000000,4.000000,4.000000,4.000000,4.000000,4.000000,4.000000,4.000000,4.000000,4.000000,4.000000,4.000000,4.000000,83.333336
1614075659.434452,49.000000,0.000000,-10.393608,-5.797141,-31.756763,-4.803369,-13.454929,-0.388445,-13.162291,-31.213186,-23.837828,-25.869537,-29.141443,-7.056163,-30.468796,-47.862030,-50.134007,-46.700157,-5.272655,-14.017038,-42.613529,-75.984467,-28.454424,-11.442813,-7.292359,-10.661275,-14.603057,-5.294549,-13.461502,-9.017036,-1.174461,-12.101445,1.390952,-19.659773,8064.000000,0.000000,4.000000,,,,0.000000,4.000000,4.000000,2.000000,4.000000,4.000000,4.000000,4.000000,4.000000,4.000000,4.000000,4.000000,4.000000,4.000000,4.000000,4.000000,4.000000,4.000000,4.000000,4.000000,4.000000,4.000000,4.000000,4.000000,4.000000,4.000000,4.000000,4.000000,4.000000,4.000000,4.000000,4.000000,4.000000,83.333336
1614075659.442301,50.000000,0.000000,-5.767830,-5.791344,-32.237827,-5.311386,-12.928654,0.124764,-13.149129,-22.464024,-16.634502,-14.561616,-12.702046,0.643201,-16.079353,-31.916733,-41.878742,-37.935509,2.424926,-7.336355,-32.827324,-58.985405,-14.579815,-0.662139,7.586728,-1.932665,-7.921787,-5.289255,-3.191630,-4.905456,-0.147645,-4.909857,3.440843,-17.588831,8064.000000,0.000000,4.000000,,,,0.000000,4.000000,4.000000,2.000000,4.000000,4.000000,4.000000,4.000000,4.000000,4.000000,4.000000,4.000000,4.000000,4.000000,4.000000,4.000000,4.000000,4.000000,4.000000,4.000000,4.000000,4.000000,4.000000,4.000000,4.000000,4.000000,4.000000,4.000000,4.000000,4.000000,4.000000,4.000000,4.000000,83.333336
1614075659.450050,51.000000,0.000000,-5.249242,-5.272732,-31.692768,-4.793254,-12.915725,-0.388182,-12.623158,-23.980021,-14.566586,-6.854747,-2.432934,9.873327,-2.729941,-24.705330,-22.862505,-12.256549,3.960962,21.388931,-7.666293,-50.721291,1.845021,9.594934,6.553500,7.812858,-4.324122,-3.232683,-1.137156,-3.874909,2.416605,-1.828024,3.437402,-16.032780,8064.000000,0.000000,4.000000,,,,0.000000,4.000000,4.000000,2.000000,4.000000,4.000000,4.000000,4.000000,4.000000,4.000000,4.000000,4.000000,4.000000,4.000000,4.000000,4.000000,4.000000,4.000000,4.000000,4.000000,4.000000,4.000000,4.000000,4.000000,4.000000,4.000000,4.000000,4.000000,4.000000,4.000000,4.000000,4.000000,4.000000,83.333336
1614075659.457900,52.000000,0.000000,-6.269634,-5.780280,-31.661076,-4.788461,-13.928451,-2.951896,-14.148997,-24.468861,-16.603302,-6.335072,-2.430501,11.914736,-0.675929,-24.167803,-10.019130,11.345451,5.495463,50.085491,6.187527,-51.696213,9.022663,9.585339,2.957203,9.856327,-5.345438,-1.178169,-2.161660,-6.435137,3.439830,-3.364657,0.869862,-16.016747,8064.000000,0.000000,4.000000,,,,0.000000,4.000000,4.000000,2.000000,4.000000,4.000000,4.000000,4.000000,4.000000,4.000000,4.000000,4.000000,4.000000,4.000000,4.000000,4.000000,4.000000,4.000000,4.000000,4.000000,4.000000,4.000000,4.000000,4.000000,4.000000,4.000000,4.000000,4.000000,4.000000,4.000000,4.000000,4.000000,4.000000,83.333336
1614075659.465649,53.000000,0.000000,-5.750544,-7.825782,-31.629414,-5.809313,-12.376060,-6.538688,-16.698952,-22.393110,-18.637981,-6.841558,-3.966532,8.825898,-3.239356,-25.169277,-12.573214,5.693080,8.054070,51.061047,4.130057,-51.644516,7.988000,9.062933,3.979887,8.308009,-5.852914,-2.202632,-1.133858,-6.941522,2.923569,-3.361293,0.356172,-16.000731,8064.000000,0.000000,4.000000,,,,0.000000,4.000000,4.000000,2.000000,4.000000,4.000000,4.000000,4.000000,4.000000,4.000000,4.000000,4.000000,4.000000,4.000000,4.000000,4.000000,4.000000,4.000000,4.000000,4.000000,4.000000,4.000000,4.000000,4.000000,4.000000,4.000000,4.000000,4.000000,4.000000,4.000000,4.000000,4.000000,4.000000,83.333336
1614075659.473498,54.000000,0.000000,-5.231972,-9.356418,-24.931118,-3.752222,-5.697018,-8.070611,-17.195072,-23.396358,-18.106522,-6.321895,-9.603591,7.278611,-7.338680,-34.374878,-25.893972,-23.543383,5.994734,36.138191,3.613107,-51.592873,7.467191,9.566690,-1.665119,9.325342,-5.334240,-2.200429,-1.132724,-9.498683,2.920646,-2.845111,0.868636,-13.420628,8064.000000,0.000000,4.000000,,,,0.000000,4.000000,4.000000,2.000000,4.000000,4.000000,4.000000,4.000000,4.000000,4.000000,4.000000,4.000000,4.000000,4.000000,4.000000,4.000000,4.000000,4.000000,4.000000,4.000000,4.000000,4.000000,4.000000,4.000000,4.000000,4.000000,4.000000,4.000000,4.000000,4.000000,4.000000,4.000000,4.000000,83.333336
1614075659.481247,55.000000,0.000000,-5.739561,-9.347061,-11.060033,2.918197,-1.075936,-8.062540,-17.177877,-23.372963,-15.524313,-6.315573,-14.722193,7.271332,-11.433906,-37.417423,-34.586029,-38.904453,2.398995,30.461025,4.635135,-53.079739,7.972545,8.018661,-7.817300,8.803196,-3.277624,-1.172588,-1.644411,-13.591749,2.917725,-0.278163,0.867767,-9.304643,8064.000000,0.000000,4.000000,,,,0.000000,4.000000,4.000000,2.000000,4.000000,4.000000,4.000000,4.000000,4.000000,4.000000,4.000000,4.000000,4.000000,4.000000,4.000000,4.000000,4.000000,4.000000,4.000000,4.000000,4.000000,4.000000,4.000000,4.000000,4.000000,4.000000,4.000000,4.000000,4.000000,4.000000,4.000000,4.000000,4.000000,83.333336
1614075659.489097,56.000000,0.000000,-5.733821,-9.337714,-4.382307,6.505023,-1.587681,-7.541657,-16.647879,-19.247025,-14.995969,-6.822078,-9.066444,7.264061,-9.371190,-21.482571,-22.756571,-21.942472,3.935058,34.020309,2.066397,-50.975380,5.913290,6.472182,-7.809483,8.281572,-1.223064,-2.197056,-1.642767,-12.039696,2.914807,2.799038,4.456643,-5.705595,8064.000000,0.000000,4.000000,,,,0.000000,4.000000,4.000000,2.000000,4.000000,4.000000,4.000000,4.000000,4.000000,4.000000,4.000000,4.000000,4.000000,4.000000,4.000000,4.000000,4.000000,4.000000,4.000000,4.000000,4.000000,4.000000,4.000000,4.000000,4.000000,4.000000,4.000000,4.000000,4.000000,4.000000,4.000000,4.000000,4.000000,83.333336
1614075659.496846,57.000000,0.000000,-5.728087,-9.328377,-5.916386,6.498518,-2.098913,-6.508474,-14.067128,-15.638035,-16.006613,-6.302436,-2.903532,7.769617,-2.695152,-8.127755,-2.733814,2.182034,6.495225,34.499107,1.038689,-51.437222,3.856095,4.927248,-8.314493,9.298932,-1.734662,-1.169218,-1.641124,-10.489194,2.911893,4.847521,8.041930,-5.187068,8064.000000,0.000000,4.000000,,,,0.000000,4.000000,4.000000,2.000000,4.000000,4.000000,4.000000,4.000000,4.000000,4.000000,4.000000,4.000000,4.000000,4.000000,4.000000,4.000000,4.000000,4.000000,4.000000,4.000000,4.000000,4.000000,4.000000,4.000000,4.000000,4.000000,4.000000,4.000000,4.000000,4.000000,4.000000,4.000000,4.000000,83.333336
1614075659.504695,58.000000,0.000000,-5.722360,-9.319048,-5.397649,10.594584,-1.583994,-3.425043,-13.027420,-15.622396,-15.477786,-5.783313,-5.464731,7.249027,-0.641175,-8.632448,3.935587,6.795236,7.514371,32.926147,-0.500811,-52.411427,3.339418,6.973603,-4.203615,8.776813,1.343996,4.985797,-1.639483,-10.478705,2.908981,9.458058,8.546709,-3.643420,8064.000000,0.000000,4.000000,,,,0.000000,4.000000,4.000000,2.000000,4.000000,4.000000,4.000000,4.000000,4.000000,4.000000,4.000000,4.000000,4.000000,4.000000,4.000000,4.000000,4.000000,4.000000,4.000000,4.000000,4.000000,4.000000,4.000000,4.000000,4.000000,4.000000,4.000000,4.000000,4.000000,4.000000,4.000000,4.000000,4.000000,83.333336
1614075659.512445,59.000000,0.000000,-5.716637,-9.309729,-2.315328,14.686553,-0.043948,1.706588,-12.501573,-15.606774,-12.898206,-6.803170,-6.997728,6.728958,-2.178995,-9.649457,-0.170913,5.249979,17.250446,32.893223,-1.525951,-38.000042,6.925822,18.248680,6.569819,9.793676,9.034960,9.596196,-1.125023,-6.365662,2.906072,14.063985,8.538162,0.975608,8064.000000,0.000000,4.000000,,,,0.000000,4.000000,4.000000,2.000000,4.000000,4.000000,4.000000,4.000000,4.000000,4.000000,4.000000,4.000000,4.000000,4.000000,4.000000,4.000000,4.000000,4.000000,4.000000,4.000000,4.000000,4.000000,4.000000,4.000000,4.000000,4.000000,4.000000,4.000000,4.000000,4.000000,4.000000,4.000000,4.000000,83.333336
1614075659.520294,60.000000,0.000000,-5.710920,-9.300419,-1.287372,13.646225,1.494557,4.268983,-9.924968,-14.565526,-11.346847,-6.283547,-3.913807,12.876075,-0.638354,-7.588525,2.906181,8.321652,33.643452,35.424431,6.167882,-16.423580,12.047101,26.435560,12.204275,17.476191,10.564386,8.560959,-1.123898,-2.256732,2.903166,10.460177,7.503983,3.025915,8064.000000,0.000000,4.000000,,,,0.000000,4.000000,4.000000,2.000000,4.000000,4.000000,4.000000,4.000000,4.000000,4.000000,4.000000,4.000000,4.000000,4.000000,4.000000,4.000000,4.000000,4.000000,4.000000,4.000000,4.000000,4.000000,4.000000,4.000000,4.000000,4.000000,4.000000,4.000000,4.000000,4.000000,4.000000,4.000000,4.000000,83.333336
1614075659.528043,61.000000,0.000000,-5.705210,-9.291119,-2.311725,12.094117,2.518703,3.239074,-8.889402,-16.089422,-11.335500,-4.738801,-2.884252,16.452942,-1.150537,-10.657860,1.877634,6.774869,32.071346,35.901829,6.161715,-20.509720,11.522234,16.152714,11.166430,24.638201,6.451258,6.501116,-1.635595,-2.767296,2.900262,4.808691,4.932376,2.510068,8064.000000,0.000000,4.000000,,,,0.000000,4.000000,4.000000,2.000000,4.000000,4.000000,4.000000,4.000000,4.000000,4.000000,4.000000,4.000000,4.000000,4.000000,4.000000,4.000000,4.000000,4.000000,4.000000,4.000000,4.000000,4.000000,4.000000,4.000000,4.000000,4.000000,4.000000,4.000000,4.000000,4.000000,4.000000,4.000000,4.000000,83.333336
1614075659.535892,62.000000,0.000000,-5.699504,-9.281828,-1.796593,10.543562,-0.047918,4.261476,-8.880513,-15.560513,-10.811343,-10.375089,-6.471111,6.692900,-9.867334,-21.929253,-18.124243,1.127069,10.500814,29.712080,-11.280344,-49.719978,0.741481,-0.273695,6.027058,22.049461,-1.247501,4.956153,-1.121139,-3.277349,2.897362,5.829524,4.414623,2.507558,8064.000000,0.000000,4.000000,,,,0.000000,4.000000,4.000000,2.000000,4.000000,4.000000,4.000000,4.000000,4.000000,4.000000,4.000000,4.000000,4.000000,4.000000,4.000000,4.000000,4.000000,4.000000,4.000000,4.000000,4.000000,4.000000,4.000000,4.000000,4.000000,4.000000,4.000000,4.000000,4.000000,4.000000,4.000000,4.000000,4.000000,83.333336
1614075659.543642,63.000000,0.000000,-5.693805,-9.272546,-1.281976,6.943274,-5.688896,3.744393,-8.871633,-15.544951,-12.338994,-23.185226,-13.131307,-4.083024,-20.626698,-40.881683,-38.618938,-9.130468,-4.381481,25.579803,-21.012653,-66.080513,-13.618235,-6.940088,-8.850763,10.232539,-11.502664,1.361454,-1.632838,-2.761252,2.894465,2.746771,4.410209,1.992230,8064.000000,0.000000,4.000000,,,,0.000000,4.000000,4.000000,2.000000,4.000000,4.000000,4.000000,4.000000,4.000000,4.000000,4.000000,4.000000,4.000000,4.000000,4.000000,4.000000,4.000000,4.000000,4.000000,4.000000,4.000000,4.000000,4.000000,4.000000,4.000000,4.000000,4.000000,4.000000,4.000000,4.000000,4.000000,4.000000,4.000000,83.333336
1614075659.551491,64.000000,0.000000,-5.688111,-9.263273,-2.306335,2.833767,-9.785770,-5.490120,-10.401222,-23.734535,-20.018963,-31.367168,-23.374586,-6.643044,-30.349661,-54.686954,-44.734169,-30.659800,-6.428381,21.964479,-19.453180,-67.552895,-21.296925,-12.574173,-22.688066,-4.136667,-19.696289,-4.280933,-5.733769,-2.758490,2.891570,-10.076488,4.405798,3.015879,0.000000,177.000000,4.000000,,,,0.000000,4.000000,4.000000,2.000000,4.000000,4.000000,4.000000,4.000000,4.000000,4.000000,4.000000,4.000000,4.000000,4.000000,4.000000,4.000000,4.000000,4.000000,4.000000,4.000000,4.000000,4.000000,4.000000,4.000000,4.000000,4.000000,4.000000,4.000000,4.000000,4.000000,4.000000,4.000000,4.000000,83.333336
1614075659.559240,65.000000,0.000000,-5.682423,-9.254010,-1.791208,1.805292,-9.263165,-14.715400,-12.954924,-33.967213,-26.152790,-31.848623,-33.607620,-14.841529,-40.062901,-58.734833,-46.740715,-49.603500,-11.550159,3.480977,-28.664495,-78.767395,-25.891012,-21.279549,-23.691019,-16.953043,-22.753517,-7.353576,-9.830600,-2.755732,2.888679,-18.784361,4.914213,1.987222,0.000000,215.000000,4.000000,,,,0.000000,4.000000,4.000000,2.000000,4.000000,4.000000,4.000000,4.000000,4.000000,4.000000,4.000000,4.000000,4.000000,4.000000,4.000000,4.000000,4.000000,4.000000,4.000000,4.000000,4.000000,4.000000,4.000000,4.000000,4.000000,4.000000,4.000000,4.000000,4.000000,4.000000,4.000000,4.000000,4.000000,83.333336
1614075659.566890,66.000000,0.000000,-5.676741,-9.244756,-1.276596,0.265025,-8.741080,-15.726325,-12.941969,-35.984524,-26.639458,-31.816774,-37.163757,-23.544636,-42.074120,-62.265842,-54.386284,-53.656460,-19.743736,-17.548145,-37.353779,-94.073242,-33.557430,-22.283909,-21.616047,-21.551476,-25.294865,-9.397504,-9.307948,-4.291438,2.885790,-18.252756,3.370837,-7.245534,0.000000,193.000000,4.000000,,,,0.000000,4.000000,4.000000,2.000000,4.000000,4.000000,4.000000,4.000000,4.000000,4.000000,4.000000,4.000000,4.000000,4.000000,4.000000,4.000000,4.000000,4.000000,4.000000,4.000000,4.000000,4.000000,4.000000,4.000000,4.000000,4.000000,4.000000,4.000000,4.000000,4.000000,4.000000,4.000000,4.000000,83.333336
1614075659.574639,67.000000,0.000000,-5.671064,-9.235511,-7.941987,-3.324983,-14.373365,-14.172137,-12.929027,-29.281874,-26.099997,-32.810596,-33.536850,-14.290322,-33.826920,-61.690754,-56.383179,-57.192547,-20.236813,-23.684443,-38.854889,-97.568916,-41.216179,-19.697523,-22.620071,-21.017103,-28.346493,-12.465030,-7.760179,-6.338428,2.882904,-17.208862,-1.247918,-16.469059,0.000000,194.000000,4.000000,,,,0.000000,4.000000,4.000000,2.000000,4.000000,4.000000,4.000000,4.000000,4.000000,4.000000,4.000000,4.000000,4.000000,4.000000,4.000000,4.000000,4.000000,4.000000,4.000000,4.000000,4.000000,4.000000,4.000000,4.000000,4.000000,4.000000,4.000000,4.000000,4.000000,4.000000,4.000000,4.000000,4.000000,83.333336
1614075659.582288,68.000000,0.000000,-5.152572,-9.226275,-20.241737,-5.372940,-20.512838,-15.183606,-12.916098,-20.021824,-26.073896,-31.752146,-25.811007,4.185507,-23.536680,-47.782909,-44.019104,-57.648174,-11.498628,-24.686399,-45.482700,-96.958527,-42.200603,-21.216288,-21.058990,-21.508907,-27.805326,-12.965385,-9.803700,-6.844910,2.880021,-18.217295,-3.297952,-16.965410,0.000000,191.000000,4.000000,,,,0.000000,4.000000,4.000000,2.000000,4.000000,4.000000,4.000000,4.000000,4.000000,4.000000,4.000000,4.000000,4.000000,4.000000,4.000000,4.000000,4.000000,4.000000,4.000000,4.000000,4.000000,4.000000,4.000000,4.000000,4.000000,4.000000,4.000000,4.000000,4.000000,4.000000,4.000000,4.000000,4.000000,83.333336
1614075659.590038,69.000000,0.000000,-4.121778,-9.217050,-25.349701,-5.367567,-20.492325,-15.681243,-12.903182,-12.822314,-23.996542,-29.669113,-22.195452,10.847988,-13.769555,-34.914616,-23.975082,-37.590527,4.410307,-12.354021,-34.667984,-83.015411,-30.876352,-19.143789,-14.371264,-20.461756,-22.649317,-7.824214,-8.768256,-7.350886,2.364321,-19.224718,-3.294654,-13.871521,0.000000,188.000000,4.000000,,,,0.000000,4.000000,4.000000,2.000000,4.000000,4.000000,4.000000,4.000000,4.000000,4.000000,4.000000,4.000000,4.000000,4.000000,4.000000,4.000000,4.000000,4.000000,4.000000,4.000000,4.000000,4.000000,4.000000,4.000000,4.000000,4.000000,4.000000,4.000000,4.000000,4.000000,4.000000,4.000000,4.000000,83.333336
1614075659.597687,70.000000,0.000000,-1.040734,-9.720653,-25.324350,-5.362200,-16.882090,-15.152741,-12.890279,-10.758210,-21.921263,-27.588161,-20.634794,12.375602,-6.576298,-33.341240,-12.669057,-15.501654,19.277691,18.427565,-5.915369,-51.650345,-10.845475,-5.791312,-4.100483,-15.313089,-14.934359,-1.662544,-0.041539,-6.830715,2.361957,-18.179852,-3.291359,-13.344829,0.000000,183.000000,4.000000,,,,0.000000,4.000000,4.000000,4.000000,4.000000,4.000000,4.000000,4.000000,4.000000,4.000000,4.000000,4.000000,4.000000,4.000000,4.000000,4.000000,4.000000,4.000000,4.000000,4.000000,4.000000,4.000000,4.000000,4.000000,4.000000,4.000000,4.000000,4.000000,4.000000,4.000000,4.000000,4.000000,4.000000,100.000000
1614075659.605436,71.000000,0.000000,-1.552513,-8.685291,-24.273386,-4.844017,-16.352386,-14.624768,-12.877388,-13.311554,-22.412163,-28.073393,-20.101339,11.850406,-9.646645,-34.846359,-17.271772,-13.434870,16.181490,26.101444,-3.345351,-37.239719,1.473062,3.958070,-1.532280,-7.092649,-12.355322,-0.635241,4.061067,-6.311063,3.385236,-14.059109,-3.288068,-12.818664,0.000000,155.000000,4.000000,,,,0.000000,4.000000,4.000000,4.000000,4.000000,4.000000,4.000000,4.000000,4.000000,4.000000,4.000000,4.000000,4.000000,4.000000,4.000000,4.000000,4.000000,4.000000,4.000000,4.000000,4.000000,4.000000,4.000000,4.000000,4.000000,4.000000,4.000000,4.000000,4.000000,4.000000,4.000000,4.000000,4.000000,100.000000
1614075659.613086,72.000000,0.000000,-9.243269,-9.702247,-24.761932,-5.351994,-17.361675,-15.635784,-12.864511,-18.426449,-22.902571,-29.070961,-24.183802,-0.469137,-17.842127,-33.785870,-26.485270,-17.011179,-1.270588,12.229189,-17.188160,-53.099918,-3.656616,0.877188,-12.812799,-0.418889,-15.932711,-3.711529,-5.686584,-8.868855,1.843389,-14.557870,-3.284780,-12.805845,0.000000,172.000000,4.000000,,,,0.000000,4.000000,4.000000,4.000000,4.000000,4.000000,4.000000,4.000000,4.000000,4.000000,4.000000,4.000000,4.000000,4.000000,4.000000,4.000000,4.000000,4.000000,4.000000,4.000000,4.000000,4.000000,4.000000,4.000000,4.000000,4.000000,4.000000,4.000000,4.000000,4.000000,4.000000,4.000000,4.000000,100.000000
1614075659.620835,73.000000,0.000000,-13.336590,-9.179725,-25.762812,-5.859462,-14.780211,-14.594507,-13.364467,-21.484945,-21.854027,-25.964968,-24.159618,-12.776361,-21.414028,-34.777725,-28.510067,-9.301860,-7.423164,29.652857,-3.837638,-59.200665,-6.729883,-4.764714,-17.928190,-5.033855,-15.916778,-5.246278,-14.398847,-10.911268,-1.235378,-14.030492,-3.281495,-11.767398,0.000000,200.000000,4.000000,,,,0.000000,4.000000,4.000000,4.000000,4.000000,4.000000,4.000000,4.000000,4.000000,4.000000,4.000000,4.000000,4.000000,4.000000,4.000000,4.000000,4.000000,4.000000,4.000000,4.000000,4.000000,4.000000,4.000000,4.000000,4.000000,4.000000,4.000000,4.000000,4.000000,4.000000,4.000000,4.000000,4.000000,100.000000
1614075659.628485,74.000000,0.000000,-8.707869,-4.555160,-19.583202,-0.212577,-8.098764,-6.887605,-12.838282,-17.360895,-17.216787,-19.272335,-13.879048,-11.225122,-19.341331,-34.742950,-26.943094,-3.651532,0.276567,52.187305,14.114918,-48.372231,4.558898,-4.759950,-8.679494,-10.157026,-11.285477,-3.702571,-9.256243,-6.284972,2.355601,2.393795,1.337171,-0.473579,0.000000,197.000000,4.000000,,,,0.000000,4.000000,4.000000,4.000000,4.000000,4.000000,4.000000,4.000000,4.000000,4.000000,4.000000,4.000000,4.000000,4.000000,4.000000,4.000000,4.000000,4.000000,4.000000,4.000000,4.000000,4.000000,4.000000,4.000000,4.000000,4.000000,4.000000,4.000000,4.000000,4.000000,4.000000,4.000000,4.000000,100.000000
1614075659.636234,75.000000,0.000000,-4.596596,1.603241,-4.179004,6.454302,-1.936819,2.350052,-12.312623,-15.805073,-12.071366,-15.663320,-10.788246,-10.701077,-19.321991,-34.195385,-27.941793,-11.853009,2.840393,34.186401,2.305931,-56.528988,6.092801,-5.268010,-8.670815,-0.916100,-8.197268,-1.647586,-4.631602,-2.688944,9.019913,19.827299,9.028141,13.373048,0.000000,173.000000,4.000000,,,,0.000000,4.000000,4.000000,4.000000,4.000000,4.000000,4.000000,4.000000,4.000000,4.000000,4.000000,4.000000,4.000000,4.000000,4.000000,4.000000,4.000000,4.000000,4.000000,4.000000,4.000000,4.000000,4.000000,4.000000,4.000000,4.000000,4.000000,4.000000,4.000000,4.000000,4.000000,4.000000,4.000000,100.000000
1614075659.643883,76.000000,0.000000,-6.643282,1.088818,3.004662,6.960669,-0.909241,3.886163,-13.838772,-18.353371,-11.546474,-17.698938,-18.982586,-16.331402,-22.892412,-40.315037,-31.503595,-24.148848,-2.290652,13.639395,-17.696375,-77.498100,-15.451753,-5.775563,-17.892912,4.213021,-8.701891,-1.133118,-12.319278,-5.763178,9.010893,16.217728,12.096036,10.282752,0.000000,190.000000,4.000000,,,,0.000000,4.000000,4.000000,4.000000,4.000000,4.000000,4.000000,4.000000,4.000000,4.000000,4.000000,4.000000,4.000000,4.000000,4.000000,4.000000,4.000000,4.000000,4.000000,4.000000,4.000000,4.000000,4.000000,4.000000,4.000000,4.000000,4.000000,4.000000,4.000000,4.000000,4.000000,4.000000,4.000000,100.000000
1614075659.651633,77.000000,0.000000,-5.610998,-1.989194,-1.613727,5.415246,-2.446794,3.369457,-12.286471,-6.027325,-11.022107,-16.142778,-11.784116,-4.007378,-14.151570,-40.787540,-29.420809,-24.124699,-0.237080,19.779602,-20.242781,-79.984703,-27.743994,-4.744146,-15.310917,-7.073243,-8.693189,-2.157626,-15.383882,-6.783056,5.924959,4.919459,12.083941,-1.009582,0.000000,199.000000,4.000000,,,,0.000000,4.000000,4.000000,4.000000,4.000000,4.000000,4.000000,4.000000,4.000000,4.000000,4.000000,4.000000,4.000000,4.000000,4.000000,4.000000,4.000000,4.000000,4.000000,4.000000,4.000000,4.000000,4.000000,4.000000,4.000000,4.000000,4.000000,4.000000,4.000000,4.000000,4.000000,4.000000,4.000000,100.000000
1614075659.659282,78.000000,0.000000,2.086921,-1.987205,-1.612113,6.948293,1.145397,10.032754,-5.094698,14.491523,-6.395700,-7.921507,5.663566,19.586372,3.298478,-26.900600,-21.699081,-16.408266,6.429824,21.298283,-15.094334,-72.212410,-21.049583,-5.765043,-6.064837,-8.604631,-8.684496,-1.642648,-4.599267,-3.699349,6.431854,4.401719,12.071856,-1.521393,0.000000,200.000000,4.000000,,,,0.000000,4.000000,4.000000,4.000000,4.000000,4.000000,4.000000,4.000000,4.000000,4.000000,4.000000,4.000000,4.000000,4.000000,4.000000,4.000000,4.000000,4.000000,4.000000,4.000000,4.000000,4.000000,4.000000,4.000000,4.000000,4.000000,4.000000,4.000000,4.000000,4.000000,4.000000,4.000000,4.000000,100.000000
1614075659.667131,79.000000,0.000000,6.700219,-1.472397,-0.584860,5.402883,4.733995,10.535542,-0.474219,12.425750,-5.876484,-1.246919,6.683543,20.592428,5.346462,-16.104469,-18.600458,-16.391859,7.961856,10.507754,-20.720264,-73.678658,-18.977251,-5.246458,-6.571593,3.198845,-8.675812,0.410277,3.610461,-2.670009,6.938243,4.910138,11.034143,3.095513,0.000000,200.000000,4.000000,,,,0.000000,4.000000,4.000000,4.000000,4.000000,4.000000,4.000000,4.000000,4.000000,4.000000,4.000000,4.000000,4.000000,4.000000,4.000000,4.000000,4.000000,4.000000,4.000000,4.000000,4.000000,4.000000,4.000000,4.000000,4.000000,4.000000,4.000000,4.000000,4.000000,4.000000,4.000000,4.000000,4.000000,100.000000
1614075659.674881,80.000000,0.000000,4.129416,-1.983745,-9.815044,-0.756366,-5.014329,-4.859610,-3.037847,-3.484112,-10.485992,-3.296954,-3.066730,8.264143,-3.889654,-18.652466,-21.658781,-16.888287,6.928253,9.984426,-24.802109,-65.399857,-13.830069,5.015199,-7.077842,5.759749,-6.615854,2.461149,0.529927,-3.180160,6.418484,0.802664,8.459006,1.553956,0.000000,201.000000,4.000000,,,,0.000000,4.000000,4.000000,4.000000,4.000000,4.000000,4.000000,4.000000,4.000000,4.000000,4.000000,4.000000,4.000000,4.000000,4.000000,4.000000,4.000000,4.000000,4.000000,4.000000,4.000000,4.000000,4.000000,4.000000,4.000000,4.000000,4.000000,4.000000,4.000000,4.000000,4.000000,4.000000,4.000000,100.000000
1614075659.682630,81.000000,0.000000,1.561184,-1.981762,-16.984716,-1.781251,-12.701622,-16.136801,-5.598912,-6.044731,-12.013968,-5.857759,-3.576484,7.743058,-4.398585,-21.197916,-19.585840,-4.050886,9.998248,24.846237,-2.726025,-41.744709,2.594018,14.240953,-3.481020,8.830913,-5.070776,1.945867,-2.034705,-3.176980,6.412066,-0.223780,7.424907,-2.037342,0.000000,193.000000,4.000000,,,,0.000000,4.000000,4.000000,4.000000,4.000000,4.000000,4.000000,4.000000,4.000000,4.000000,4.000000,4.000000,4.000000,4.000000,4.000000,4.000000,4.000000,4.000000,4.000000,4.000000,4.000000,4.000000,4.000000,4.000000,4.000000,4.000000,4.000000,4.000000,4.000000,4.000000,4.000000,4.000000,4.000000,100.000000
1614075659.690279,82.000000,0.000000,2.072443,-1.979780,-13.890809,1.810274,-4.483792,-11.505280,-5.080492,-5.525866,-10.463492,-5.339081,-2.034446,6.196854,-5.932648,-18.612616,-16.489332,6.209575,11.013890,41.744469,17.789522,-31.959375,8.745270,9.098507,-2.964719,19.078491,-4.552885,1.943921,-1.007030,-3.173802,6.405653,0.802085,7.930302,-2.035304,0.000000,204.000000,4.000000,,,,0.000000,4.000000,4.000000,4.000000,4.000000,4.000000,4.000000,4.000000,4.000000,4.000000,4.000000,4.000000,4.000000,4.000000,4.000000,4.000000,4.000000,4.000000,4.000000,4.000000,4.000000,4.000000,4.000000,4.000000,4.000000,4.000000,4.000000,4.000000,4.000000,4.000000,4.000000,4.000000,4.000000,100.000000
1614075659.698129,83.000000,0.000000,2.070371,-1.977800,-12.338456,1.808464,-3.966488,-6.878390,-5.075412,-9.110084,-12.504312,-9.436306,-7.673437,-5.091394,-17.721586,-19.619644,-21.088226,-0.463301,4.336210,40.677082,2.387117,-45.260750,5.146781,-0.141361,-6.038677,14.444029,-4.548332,1.941977,-1.006023,-3.170629,6.399248,0.801283,7.922372,-1.007628,0.000000,181.000000,4.000000,,,,0.000000,4.000000,4.000000,4.000000,4.000000,4.000000,4.000000,4.000000,4.000000,4.000000,4.000000,4.000000,4.000000,4.000000,4.000000,4.000000,4.000000,4.000000,4.000000,4.000000,4.000000,4.000000,4.000000,4.000000,4.000000,4.000000,4.000000,4.000000,4.000000,4.000000,4.000000,4.000000,4.000000,100.000000
1614075659.705878,84.000000,0.000000,1.555480,-1.975822,-15.915861,-1.270268,-17.808676,-7.897152,-5.583157,-9.100973,-15.055909,-16.606358,-11.255507,-9.188868,-24.883352,-22.676949,-28.246626,-5.078223,-0.796331,32.431274,-14.538347,-57.523182,4.115993,-1.679681,-7.571100,-0.442210,-6.082245,1.940035,-1.517837,-3.167458,6.392848,0.800482,7.914450,-1.519441,0.000000,166.000000,4.000000,,,,0.000000,4.000000,4.000000,4.000000,4.000000,4.000000,4.000000,4.000000,4.000000,4.000000,4.000000,4.000000,4.000000,4.000000,4.000000,4.000000,4.000000,4.000000,4.000000,4.000000,4.000000,4.000000,4.000000,4.000000,4.000000,4.000000,4.000000,4.000000,4.000000,4.000000,4.000000,4.000000,4.000000,100.000000
1614075659.713727,85.000000,0.000000,1.553925,-1.973847,-17.438408,-1.781818,-19.329329,-8.402076,-5.577574,-11.655974,-15.553674,-18.128212,-10.731431,-7.641217,-24.345648,-24.192732,-28.731199,-4.560324,-0.795535,32.398846,-9.395603,-58.491299,-1.016328,-2.703642,-7.050708,-4.031512,-8.640265,2.450916,-2.029140,-3.164291,6.899276,0.799681,7.906535,-1.517921,0.000000,208.000000,4.000000,,,,0.000000,4.000000,4.000000,4.000000,4.000000,4.000000,4.000000,4.000000,4.000000,4.000000,4.000000,4.000000,4.000000,4.000000,4.000000,4.000000,4.000000,4.000000,4.000000,4.000000,4.000000,4.000000,4.000000,4.000000,4.000000,4.000000,4.000000,4.000000,4.000000,4.000000,4.000000,4.000000,4.000000,100.000000
1614075659.721476,86.000000,0.000000,1.552371,-1.971873,-16.395329,-0.754395,-9.053589,-7.368032,-5.571996,-12.157139,-15.025300,-17.084442,-10.720700,-8.659217,-22.782841,-23.655720,-27.164007,-16.863457,-0.281919,18.520292,-20.668259,-59.971272,-12.297363,-5.777862,-6.530837,-1.463378,-8.631625,0.910003,-1.514290,-3.161126,4.841095,-0.226760,7.898629,-1.516404,0.000000,207.000000,4.000000,,,,0.000000,4.000000,4.000000,4.000000,4.000000,4.000000,4.000000,4.000000,4.000000,4.000000,4.000000,4.000000,4.000000,4.000000,4.000000,4.000000,4.000000,4.000000,4.000000,4.000000,4.000000,4.000000,4.000000,4.000000,4.000000,4.000000,4.000000,4.000000,4.000000,4.000000,4.000000,4.000000,4.000000,100.000000
1614075659.729326,87.000000,0.000000,1.550818,-1.969901,-16.378933,-1.266461,-8.018894,-6.847844,-5.053604,1.188351,-15.010275,-17.580179,-8.658697,-2.496711,-17.631853,-23.119244,-29.188126,-26.590181,-0.794458,0.040234,-33.980923,-65.039505,-16.900450,-6.284904,-7.037127,-2.487555,-9.135814,-1.655009,-1.512776,-3.157965,2.784972,-2.277815,7.890730,-1.514887,0.000000,190.000000,4.000000,,,,0.000000,4.000000,4.000000,4.000000,4.000000,4.000000,4.000000,4.000000,4.000000,4.000000,4.000000,4.000000,4.000000,4.000000,4.000000,4.000000,4.000000,4.000000,4.000000,4.000000,4.000000,4.000000,4.000000,4.000000,4.000000,4.000000,4.000000,4.000000,4.000000,4.000000,4.000000,4.000000,4.000000,100.000000
1614075659.737075,88.000000,0.000000,1.549268,-1.967931,-16.875374,-1.265195,-10.062158,-7.353817,-5.048550,9.905111,-14.995264,-16.536959,-3.009013,8.275016,-10.434734,-23.608944,-26.082014,-12.204618,-1.306484,20.040194,-14.459764,-69.077026,-13.293806,-5.765799,-7.542910,-2.997888,-8.613858,-1.653354,-2.024084,-3.154807,2.782187,-3.301178,7.882839,-1.513372,0.000000,219.000000,4.000000,,,,0.000000,4.000000,4.000000,4.000000,4.000000,4.000000,4.000000,4.000000,4.000000,4.000000,4.000000,4.000000,4.000000,4.000000,4.000000,4.000000,4.000000,4.000000,4.000000,4.000000,4.000000,4.000000,4.000000,4.000000,4.000000,4.000000,4.000000,4.000000,4.000000,4.000000,4.000000,4.000000,4.000000,100.000000
1614075659.744924,89.000000,0.000000,1.547718,-1.965963,-16.858500,-1.263930,-6.975172,-7.859283,-6.581963,3.741360,-15.493090,-14.469139,1.609381,11.343664,-8.373017,-24.610977,-19.389265,3.192202,-0.279536,40.532974,-7.778637,-69.520775,-6.101025,-5.247212,-4.458444,-2.994890,-3.477039,-1.651701,-1.509239,-3.151652,2.779405,-3.297877,7.874957,-1.511859,0.000000,200.000000,4.000000,,,,0.000000,4.000000,4.000000,4.000000,4.000000,4.000000,4.000000,4.000000,4.000000,4.000000,4.000000,4.000000,4.000000,4.000000,4.000000,4.000000,4.000000,4.000000,4.000000,4.000000,4.000000,4.000000,4.000000,4.000000,4.000000,4.000000,4.000000,4.000000,4.000000,4.000000,4.000000,4.000000,4.000000,100.000000
1614075659.752673,90.000000,0.000000,1.546170,-1.963997,-16.328819,-1.262666,-4.916915,-6.312963,-4.524099,-0.877766,-14.964776,-12.916208,1.607771,11.845141,-8.877465,-22.535084,-17.318594,-0.400733,-0.279257,17.415518,-28.283680,-66.374329,-1.479540,-3.190683,0.161399,-0.427793,2.680284,-1.650049,3.107655,-3.148501,2.776625,-0.217656,7.867082,-1.510347,0.000000,172.000000,4.000000,,,,0.000000,4.000000,4.000000,4.000000,4.000000,4.000000,4.000000,4.000000,4.000000,4.000000,4.000000,4.000000,4.000000,4.000000,4.000000,4.000000,4.000000,4.000000,4.000000,4.000000,4.000000,4.000000,4.000000,4.000000,4.000000,4.000000,4.000000,4.000000,4.000000,4.000000,4.000000,4.000000,4.000000,100.000000
1614075659.760523,91.000000,0.000000,2.057445,-1.962033,-16.312490,-1.261403,-4.911998,-4.255368,-5.545216,-3.440990,-14.436991,-13.416113,-3.522042,9.782014,-8.355767,-23.538189,-19.865377,-8.605461,-1.304618,7.141692,-20.563087,-59.128468,0.573222,-2.161852,-1.890044,6.239302,3.703245,-1.648399,6.694291,-3.145352,2.773849,3.885126,7.859214,-1.508837,0.000000,204.000000,4.000000,,,,0.000000,4.000000,4.000000,4.000000,4.000000,4.000000,4.000000,4.000000,4.000000,4.000000,4.000000,4.000000,4.000000,4.000000,4.000000,4.000000,4.000000,4.000000,4.000000,4.000000,4.000000,4.000000,4.000000,4.000000,4.000000,4.000000,4.000000,4.000000,4.000000,4.000000,4.000000,4.000000,4.000000,100.000000
1614075659.768272,92.000000,0.000000,0.004105,-1.960071,-16.808998,-1.772962,-5.419907,-3.225471,-15.283260,-17.283703,-16.473835,-13.915517,-11.723648,-4.073922,-8.860231,-32.745422,-21.383974,-9.109676,0.235148,32.775578,5.098501,-49.325748,3.136751,-0.108408,-7.016359,8.797165,1.135439,-2.159571,5.149135,-3.142207,1.232613,4.906882,7.851355,-1.507328,0.000000,162.000000,4.000000,,,,0.000000,4.000000,4.000000,4.000000,4.000000,4.000000,4.000000,4.000000,4.000000,4.000000,4.000000,4.000000,4.000000,4.000000,4.000000,4.000000,4.000000,4.000000,4.000000,4.000000,4.000000,4.000000,4.000000,4.000000,4.000000,4.000000,4.000000,4.000000,4.000000,4.000000,4.000000,4.000000,4.000000,100.000000
1614075659.776121,93.000000,0.000000,-2.560001,-1.958111,-14.740908,-1.258369,-5.414486,-3.735066,-19.370541,-25.984367,-13.893259,-11.850319,-14.276027,-12.274976,-8.338552,-32.199856,-18.285667,-4.485182,4.337477,40.435108,7.657505,-43.122578,7.236178,5.019906,-6.496522,6.224265,-0.916978,-5.234335,2.067063,-3.139065,-0.819902,4.389154,7.843504,-1.505821,0.000000,190.000000,4.000000,,,,0.000000,4.000000,4.000000,4.000000,4.000000,4.000000,4.000000,4.000000,4.000000,4.000000,4.000000,4.000000,4.000000,4.000000,4.000000,4.000000,4.000000,4.000000,4.000000,4.000000,4.000000,4.000000,4.000000,4.000000,4.000000,4.000000,4.000000,4.000000,4.000000,4.000000,4.000000,4.000000,4.000000,100.000000
1614075659.783871,94.000000,0.000000,-2.044621,-1.956153,-10.623603,0.794172,-5.409072,-4.244152,-9.607581,-16.214794,-4.648597,-5.684623,-9.646366,0.557812,-3.714828,-17.808680,-8.523791,0.647509,7.410062,38.856213,11.239591,-41.028172,9.280225,5.527707,-3.413103,4.679579,-0.916061,-5.741921,2.064996,-3.135926,-1.331902,4.384765,7.835660,-2.017135,0.000000,216.000000,4.000000,,,,0.000000,4.000000,4.000000,4.000000,4.000000,4.000000,4.000000,4.000000,4.000000,4.000000,4.000000,4.000000,4.000000,4.000000,4.000000,4.000000,4.000000,4.000000,4.000000,4.000000,4.000000,4.000000,4.000000,4.000000,4.000000,4.000000,4.000000,4.000000,4.000000,4.000000,4.000000,4.000000,4.000000,100.000000
1614075659.791520,95.000000,0.000000,0.521526,-1.954197,-8.561697,2.844660,-4.890842,-3.727087,-3.956948,-2.352426,0.997077,-1.576374,-3.482873,13.890587,-0.634190,-14.201128,-3.899883,3.723784,6.889832,52.150688,21.484762,-40.987144,5.168380,0.906794,-2.896869,5.700541,-2.966427,-3.684897,2.062931,-3.132790,-0.817750,4.380380,7.827825,-1.502298,0.000000,190.000000,4.000000,,,,0.000000,4.000000,4.000000,4.000000,4.000000,4.000000,4.000000,4.000000,4.000000,4.000000,4.000000,4.000000,4.000000,4.000000,4.000000,4.000000,4.000000,4.000000,4.000000,4.000000,4.000000,4.000000,4.000000,4.000000,4.000000,4.000000,4.000000,4.000000,4.000000,4.000000,4.000000,4.000000,4.000000,100.000000
1614075659.799269,96.000000,0.000000,2.059466,-1.952242,-9.065956,1.816174,-6.937234,-3.723360,-5.491452,-0.298791,-0.029561,-4.138900,-2.966570,14.902338,-2.684838,-26.494619,-15.178034,0.643137,6.882942,45.944691,4.540200,-47.612823,-6.631660,1.931528,-4.432434,6.207661,-7.066025,-1.629930,1.035227,-3.642477,-1.329752,4.376000,7.819997,0.550487,8064.000000,0.000000,4.000000,,,,0.000000,4.000000,4.000000,4.000000,4.000000,4.000000,4.000000,4.000000,4.000000,4.000000,4.000000,4.000000,4.000000,4.000000,4.000000,4.000000,4.000000,4.000000,4.000000,4.000000,4.000000,4.000000,4.000000,4.000000,4.000000,4.000000,4.000000,4.000000,4.000000,4.000000,4.000000,4.000000,4.000000,100.000000
1614075659.806919,97.000000,0.000000,2.057407,-1.950290,-10.082531,2.327178,-10.007219,-4.745278,-3.434679,-7.990800,-0.542352,-7.211684,-4.502065,13.861794,-5.759076,-34.160431,-24.393625,-7.562634,6.876059,21.796183,-20.592545,-55.770340,-16.368618,1.416776,-3.915181,2.098889,-9.623061,-1.628300,-1.529911,-3.126014,-0.815602,3.858804,7.812177,1.575577,8064.000000,0.000000,4.000000,,,,0.000000,4.000000,4.000000,4.000000,4.000000,4.000000,4.000000,4.000000,4.000000,4.000000,4.000000,4.000000,4.000000,4.000000,4.000000,4.000000,4.000000,4.000000,4.000000,4.000000,4.000000,4.000000,4.000000,4.000000,4.000000,4.000000,4.000000,4.000000,4.000000,4.000000,4.000000,4.000000,4.000000,100.000000
1614075659.814668,98.000000,0.000000,-1.021574,-1.948340,-8.533987,7.453056,-7.433110,-3.202071,-0.867142,-7.469989,-0.028989,-6.691652,-0.907819,14.360753,-4.727676,-26.946785,-14.625642,-8.067892,6.869183,20.235926,-23.648876,-57.253029,-20.967634,-9.866692,-2.885625,-7.646800,-10.126259,-2.652313,-2.554022,-3.122888,-0.814787,3.854945,7.804365,2.599643,8064.000000,0.000000,4.000000,,,,0.000000,4.000000,4.000000,4.000000,4.000000,4.000000,4.000000,4.000000,4.000000,4.000000,4.000000,4.000000,4.000000,4.000000,4.000000,4.000000,4.000000,4.000000,4.000000,4.000000,4.000000,4.000000,4.000000,4.000000,4.000000,4.000000,4.000000,4.000000,4.000000,4.000000,4.000000,4.000000,4.000000,100.000000
1614075659.822317,99.000000,0.000000,-1.533373,-1.946392,-3.910068,10.522526,-3.323112,1.929336,-1.379095,4.845174,-0.028960,-2.069576,6.272576,15.884853,-1.646025,-7.945479,-4.354606,0.145304,6.862314,27.907997,-18.497023,-59.759880,-17.869743,-13.446568,-3.908380,-11.228896,-6.526389,0.427263,-0.500186,-3.632586,-1.326792,6.415192,7.796560,5.161146,8064.000000,0.000000,4.000000,,,,0.000000,4.000000,4.000000,4.000000,4.000000,4.000000,4.000000,4.000000,4.000000,4.000000,4.000000,4.000000,4.000000,4.000000,4.000000,4.000000,4.000000,4.000000,4.000000,4.000000,4.000000,4.000000,4.000000,4.000000,4.000000,4.000000,4.000000,4.000000,4.000000,4.000000,4.000000,4.000000,4.000000,100.000000
1614075659.830067,100.000000,0.000000,2.570725,-1.944445,-1.342056,9.486362,-1.781328,3.465868,-1.890536,9.968534,-0.541751,1.522237,8.830405,14.330507,-2.157200,7.959902,-6.401534,1.683620,5.829811,27.880089,-13.350320,-62.264221,1.635306,3.489955,-3.904472,-5.576642,5.787830,7.606322,3.090058,-3.116133,0.212996,12.049803,7.788764,8.232907,8064.000000,0.000000,4.000000,,,,0.000000,4.000000,4.000000,4.000000,4.000000,4.000000,4.000000,4.000000,4.000000,4.000000,4.000000,4.000000,4.000000,4.000000,4.000000,4.000000,4.000000,4.000000,4.000000,4.000000,4.000000,4.000000,4.000000,4.000000,4.000000,4.000000,4.000000,4.000000,4.000000,4.000000,4.000000,4.000000,4.000000,100.000000
1614075659.837716,101.000000,0.000000,6.157898,-1.942501,-1.853534,8.964056,0.784556,3.462403,-2.401466,3.291898,-1.566851,0.495074,7.283113,8.675151,-2.667863,7.951942,-6.907953,1.681937,5.311160,37.595798,0.509184,-44.766060,29.838799,19.896721,2.766099,2.121242,18.089735,13.239742,7.702352,1.502368,2.264065,15.114676,7.780975,10.275957,8064.000000,0.000000,4.000000,,,,0.000000,4.000000,4.000000,4.000000,4.000000,4.000000,4.000000,4.000000,4.000000,4.000000,4.000000,4.000000,4.000000,4.000000,4.000000,4.000000,4.000000,4.000000,4.000000,4.000000,4.000000,4.000000,4.000000,4.000000,4.000000,4.000000,4.000000,4.000000,4.000000,4.000000,4.000000,4.000000,4.000000,100.000000
1614075659.845465,102.000000,0.000000,4.613278,-1.940558,0.712422,11.519195,5.399156,8.074325,-1.886244,0.724504,0.485998,1.007399,7.788651,7.640835,1.950189,2.302965,0.278443,15.526409,13.510977,48.327435,10.252265,-16.516167,42.629475,21.928106,10.968461,15.452455,21.661388,13.226502,11.284393,4.577788,3.287442,15.612382,7.773194,12.316963,8064.000000,0.000000,4.000000,,,,0.000000,4.000000,4.000000,4.000000,4.000000,4.000000,4.000000,4.000000,4.000000,4.000000,4.000000,4.000000,4.000000,4.000000,4.000000,4.000000,4.000000,4.000000,4.000000,4.000000,4.000000,4.000000,4.000000,4.000000,4.000000,4.000000,4.000000,4.000000,4.000000,4.000000,4.000000,4.000000,4.000000,100.000000
1614075659.853115,103.000000,0.000000,5.121486,-1.938618,5.327094,13.046137,6.419398,11.655994,0.679744,3.287882,5.100897,5.621777,8.806503,12.761399,6.563624,4.864764,2.842267,28.331396,19.651312,47.766285,7.165090,-8.807343,40.022739,20.880537,9.931851,29.795977,21.126905,12.700455,12.298750,4.573211,2.771334,15.596769,7.765421,13.330287,8064.000000,0.000000,4.000000,,,,0.000000,4.000000,4.000000,4.000000,4.000000,4.000000,4.000000,4.000000,4.000000,4.000000,4.000000,4.000000,4.000000,4.000000,4.000000,4.000000,4.000000,4.000000,4.000000,4.000000,4.000000,4.000000,4.000000,4.000000,4.000000,4.000000,4.000000,4.000000,4.000000,4.000000,4.000000,4.000000,4.000000,100.000000
1614075659.860864,104.000000,0.000000,8.193287,-1.936679,5.834588,13.033091,5.387338,11.131517,1.191885,2.771774,7.147078,9.205898,7.259235,14.799920,6.044240,7.424002,1.300963,27.790243,16.041918,57.974930,9.722027,-20.593407,37.418617,20.859657,4.793715,31.304642,21.105780,13.200575,10.747990,4.055817,2.768563,15.068352,7.244835,13.316957,8064.000000,0.000000,4.000000,,,,0.000000,4.000000,4.000000,4.000000,4.000000,4.000000,4.000000,4.000000,4.000000,4.000000,4.000000,4.000000,4.000000,4.000000,4.000000,4.000000,4.000000,4.000000,4.000000,4.000000,4.000000,4.000000,4.000000,4.000000,4.000000,4.000000,4.000000,4.000000,4.000000,4.000000,4.000000,4.000000,4.000000,100.000000
1614075659.868514,105.000000,0.000000,9.210735,-1.934742,5.828753,13.020058,5.894771,10.094745,3.241975,3.281822,6.627110,9.196692,9.303258,16.323582,6.551016,5.365296,3.350944,31.352196,23.205362,81.506699,26.122562,-22.624096,39.432480,22.377258,3.250460,26.145132,20.571854,13.187374,9.198780,4.564582,2.765794,15.566104,7.750411,12.790819,8064.000000,0.000000,4.000000,,,,0.000000,4.000000,4.000000,4.000000,4.000000,4.000000,4.000000,4.000000,4.000000,4.000000,4.000000,4.000000,4.000000,4.000000,4.000000,4.000000,4.000000,4.000000,4.000000,4.000000,4.000000,4.000000,4.000000,4.000000,4.000000,4.000000,4.000000,4.000000,4.000000,4.000000,4.000000,4.000000,4.000000,100.000000
1614075659.876263,106.000000,0.000000,8.688704,-1.932808,6.335745,13.007037,5.888876,10.597471,7.341298,5.329823,7.133304,10.725957,15.960622,22.973925,11.159849,6.385572,6.424516,37.474689,41.643696,86.553398,30.199003,-15.934805,35.803303,21.842062,5.811312,24.580526,18.499998,12.661366,9.189582,4.047197,2.763028,16.063358,9.793942,13.290849,8192.000000,0.000000,4.000000,,,,0.000000,4.000000,4.000000,4.000000,4.000000,4.000000,4.000000,4.000000,4.000000,4.000000,4.000000,4.000000,4.000000,4.000000,4.000000,4.000000,4.000000,4.000000,4.000000,4.000000,4.000000,4.000000,4.000000,4.000000,4.000000,4.000000,4.000000,4.000000,4.000000,4.000000,4.000000,4.000000,4.000000,100.000000
1614075659.883912,107.000000,0.000000,8.680015,-1.930875,4.278127,12.994030,5.370166,10.586873,9.385239,6.350134,6.613350,13.792154,19.534405,24.489412,14.225613,4.327904,2.828348,24.103882,36.986668,60.825817,10.168804,-27.200920,16.280319,8.999706,3.241398,21.479021,9.763551,12.648705,10.206033,4.043149,2.760265,10.919090,11.835430,12.764737,8064.000000,0.000000,4.000000,,,,0.000000,4.000000,4.000000,4.000000,4.000000,4.000000,4.000000,4.000000,4.000000,4.000000,4.000000,4.000000,4.000000,4.000000,4.000000,4.000000,4.000000,4.000000,4.000000,4.000000,4.000000,4.000000,4.000000,4.000000,4.000000,4.000000,4.000000,4.000000,4.000000,4.000000,4.000000,4.000000,4.000000,100.000000
1614075659.891662,108.000000,0.000000,8.671335,-1.928944,2.735387,13.493856,5.877617,10.576286,10.914314,6.343784,7.119557,11.727080,13.873844,19.336718,9.083182,-3.881552,-4.866788,2.028497,12.847116,28.457300,-7.790083,-56.917309,-6.300063,-7.932370,-4.454151,13.252415,-0.502623,12.636057,3.529160,4.039106,2.757505,4.754325,11.310774,11.213511,8064.000000,0.000000,4.000000,,,,0.000000,4.000000,4.000000,4.000000,4.000000,4.000000,4.000000,4.000000,4.000000,4.000000,4.000000,4.000000,4.000000,4.000000,4.000000,4.000000,4.000000,4.000000,4.000000,4.000000,4.000000,4.000000,4.000000,4.000000,4.000000,4.000000,4.000000,4.000000,4.000000,4.000000,4.000000,4.000000,4.000000,100.000000
1614075659.899311,109.000000,0.000000,7.124202,-1.927015,2.219831,12.454721,6.384560,11.078530,7.313657,-0.329227,7.625258,-0.592339,1.039458,10.086612,-3.233593,-9.005876,-14.092690,-4.127378,1.039398,21.249355,-8.807934,-76.347572,-16.037352,-12.027002,-10.090723,1.957111,-3.066223,13.649061,-13.397446,5.060708,3.267568,4.236750,11.812284,10.176657,8064.000000,0.000000,4.000000,,,,0.000000,4.000000,4.000000,4.000000,4.000000,4.000000,4.000000,4.000000,4.000000,4.000000,4.000000,4.000000,4.000000,4.000000,4.000000,4.000000,4.000000,4.000000,4.000000,4.000000,4.000000,4.000000,4.000000,4.000000,4.000000,4.000000,4.000000,4.000000,4.000000,4.000000,4.000000,4.000000,4.000000,100.000000
1614075659.907160,110.000000,0.000000,2.501693,-1.925088,-3.423414,9.878164,3.814073,11.067452,-3.462888,-10.585308,4.027889,-10.335337,-7.166710,-7.359372,-12.461129,-10.535331,-25.360649,-1.046328,-3.064206,26.869131,-6.747844,-80.886612,-17.046957,-14.066257,-13.670376,-10.352538,-1.011875,13.122592,-18.512253,4.542827,3.264301,4.232513,11.800471,9.653660,8064.000000,0.000000,4.000000,,,,0.000000,4.000000,4.000000,4.000000,4.000000,4.000000,4.000000,4.000000,4.000000,4.000000,4.000000,4.000000,4.000000,4.000000,4.000000,4.000000,4.000000,4.000000,4.000000,4.000000,4.000000,4.000000,4.000000,4.000000,4.000000,4.000000,4.000000,4.000000,4.000000,4.000000,4.000000,4.000000,4.000000,100.000000
1614075659.914910,111.000000,0.000000,1.473551,-1.923163,-9.573837,9.355466,1.246156,10.030744,-10.126092,-12.113184,-0.078703,-10.837822,-7.672364,-16.069962,-13.474309,-14.627359,-33.027596,-4.122204,-12.804731,10.944826,-8.792377,-84.908287,-14.465807,-19.180395,-14.682346,-15.470391,-2.036504,12.083828,-3.109126,3.512643,2.235395,3.715460,11.275851,9.131186,8064.000000,0.000000,4.000000,,,,0.000000,4.000000,4.000000,4.000000,4.000000,4.000000,4.000000,4.000000,4.000000,4.000000,4.000000,4.000000,4.000000,4.000000,4.000000,4.000000,4.000000,4.000000,4.000000,4.000000,4.000000,4.000000,4.000000,4.000000,4.000000,4.000000,4.000000,4.000000,4.000000,4.000000,4.000000,4.000000,4.000000,100.000000
1614075659.922759,112.000000,0.000000,6.600282,-1.408419,-9.564263,9.346110,3.296192,11.559175,-7.039042,-5.947225,-0.591444,-9.801343,-4.587768,-5.284661,-12.435194,-17.689655,-28.892004,-6.682185,-13.817568,-3.937914,-9.296406,-74.054146,0.420454,-6.340703,-9.539459,-7.249793,-2.034468,14.123027,11.252957,7.098874,3.771621,9.865591,12.803037,11.173336,8064.000000,0.000000,4.000000,,,,0.000000,4.000000,4.000000,4.000000,4.000000,4.000000,4.000000,4.000000,4.000000,4.000000,4.000000,4.000000,4.000000,4.000000,4.000000,4.000000,4.000000,4.000000,4.000000,4.000000,4.000000,4.000000,4.000000,4.000000,4.000000,4.000000,4.000000,4.000000,4.000000,4.000000,4.000000,4.000000,4.000000,100.000000
1614075659.930508,113.000000,0.000000,7.619323,-1.919831,-10.067519,7.285482,-1.835309,8.470693,-4.980721,-4.402816,-3.667776,-10.304362,-3.044719,4.464213,-12.935579,-15.620684,-19.119522,-3.085759,-2.521699,18.630127,-2.620443,-43.210861,16.317469,19.306664,-0.299150,2.501047,-0.493972,12.057622,14.831449,6.066134,3.255029,10.368546,10.738952,6.546778,8064.000000,0.000000,4.000000,,,,0.000000,4.000000,4.000000,4.000000,4.000000,4.000000,4.000000,4.000000,4.000000,4.000000,4.000000,4.000000,4.000000,4.000000,4.000000,4.000000,4.000000,4.000000,4.000000,4.000000,4.000000,4.000000,4.000000,4.000000,4.000000,4.000000,4.000000,4.000000,4.000000,4.000000,4.000000,4.000000,4.000000,100.000000
1614075659.938357,114.000000,0.000000,2.483499,-3.456373,-15.185657,5.226915,-15.166807,-3.845471,-6.001381,-5.936875,-9.817954,-10.294058,-2.528854,2.408467,-12.409822,-16.117884,-14.997839,-1.544212,6.198772,43.739700,4.048844,-23.680471,18.865255,25.441202,0.213970,7.626751,-5.621683,-1.287769,12.765335,-4.196342,-4.440534,-4.513618,0.471802,-10.895666,8064.000000,0.000000,4.000000,,,,0.000000,4.000000,4.000000,4.000000,4.000000,4.000000,4.000000,4.000000,4.000000,4.000000,4.000000,4.000000,4.000000,4.000000,4.000000,4.000000,4.000000,4.000000,4.000000,4.000000,4.000000,4.000000,4.000000,4.000000,4.000000,4.000000,4.000000,4.000000,4.000000,4.000000,4.000000,4.000000,4.000000,100.000000
1614075659.946107,115.000000,0.000000,0.429733,-6.017019,-17.221754,5.734509,-20.279846,-12.046754,-5.482560,-4.905297,-12.372239,-9.770943,-3.551966,2.918879,-7.782028,-16.101767,-17.034122,-1.029847,7.218214,38.054935,4.557616,-21.092690,15.769466,11.056787,-2.863168,9.670406,-12.282728,-13.594174,6.085903,-11.884454,-12.128401,-15.791155,-8.246618,-24.730925,8064.000000,0.000000,4.000000,,,,0.000000,4.000000,4.000000,4.000000,4.000000,4.000000,4.000000,4.000000,4.000000,4.000000,4.000000,4.000000,4.000000,4.000000,4.000000,4.000000,4.000000,4.000000,4.000000,4.000000,4.000000,4.000000,4.000000,4.000000,4.000000,4.000000,4.000000,4.000000,4.000000,4.000000,4.000000,4.000000,4.000000,100.000000
1614075659.953956,116.000000,0.000000,3.506226,-5.498182,-16.178890,5.728774,-14.618541,-6.906502,-5.477077,-4.387571,-11.334226,-7.709890,-2.522773,7.018525,-4.697323,-11.983100,-15.991448,-0.003176,6.698175,33.401497,5.578699,-20.045956,15.753696,5.404705,-2.347484,8.122274,-13.296086,-14.093400,-0.586850,-10.846928,-12.629093,-14.236902,-7.212731,-22.142090,8064.000000,0.000000,4.000000,,,,0.000000,4.000000,4.000000,4.000000,4.000000,4.000000,4.000000,4.000000,4.000000,4.000000,4.000000,4.000000,4.000000,4.000000,4.000000,4.000000,4.000000,4.000000,4.000000,4.000000,4.000000,4.000000,4.000000,4.000000,4.000000,4.000000,4.000000,4.000000,4.000000,4.000000,4.000000,4.000000,4.000000,100.000000
1614075659.961705,117.000000,0.000000,5.554002,-4.979863,-16.162712,5.723045,-11.526999,-0.745749,-4.958779,-4.896004,-11.322891,-6.163719,-1.494609,8.037147,-6.231088,-15.048039,-14.949816,-7.182660,7.717118,35.419376,2.496197,-29.256680,7.019994,7.450583,-4.909239,7.601332,-12.257149,-12.028025,-2.124725,-9.810440,-11.078002,-13.709845,-6.179877,-20.068666,8064.000000,0.000000,4.000000,,,,0.000000,4.000000,4.000000,4.000000,4.000000,4.000000,4.000000,4.000000,4.000000,4.000000,4.000000,4.000000,4.000000,4.000000,4.000000,4.000000,4.000000,4.000000,4.000000,4.000000,4.000000,4.000000,4.000000,4.000000,4.000000,4.000000,4.000000,4.000000,4.000000,4.000000,4.000000,4.000000,4.000000,100.000000
1614075659.969554,118.000000,0.000000,5.035627,-6.000524,-16.659369,5.717322,-13.566753,-0.745003,-4.953821,-4.891108,-11.311568,-9.747298,-10.723884,7.003469,-10.840241,-25.289402,-19.550251,-15.893426,7.709401,20.512163,-18.531940,-52.304344,-14.012667,-1.274817,-12.083817,4.516807,-12.757712,-13.554459,-3.148241,-11.339091,-12.605386,-15.747417,-8.737800,-21.074240,8064.000000,0.000000,4.000000,,,,0.000000,4.000000,4.000000,4.000000,4.000000,4.000000,4.000000,4.000000,4.000000,4.000000,4.000000,4.000000,4.000000,4.000000,4.000000,4.000000,4.000000,4.000000,4.000000,4.000000,4.000000,4.000000,4.000000,4.000000,4.000000,4.000000,4.000000,4.000000,4.000000,4.000000,4.000000,4.000000,4.000000,100.000000
1614075659.977304,119.000000,0.000000,4.517771,-5.481703,-16.642710,5.711605,-13.040366,-0.744258,-9.564252,-4.886217,-13.351540,-13.327295,-26.097775,6.996465,-14.931965,-31.930779,-26.710188,-14.339071,5.137589,6.645497,-36.462128,-68.662300,-27.331987,-15.119696,-16.174297,-8.308223,-12.744955,-14.053724,-6.734836,-11.327752,-12.079960,-11.116285,-6.164959,-12.848037,8064.000000,0.000000,4.000000,,,,0.000000,4.000000,4.000000,4.000000,4.000000,4.000000,4.000000,4.000000,4.000000,4.000000,4.000000,4.000000,4.000000,4.000000,4.000000,4.000000,4.000000,4.000000,4.000000,4.000000,4.000000,4.000000,4.000000,4.000000,4.000000,4.000000,4.000000,4.000000,4.000000,4.000000,4.000000,4.000000,4.000000,100.000000
1614075659.985153,120.000000,0.000000,5.026074,-3.424939,-16.626068,5.705893,-12.514505,-0.743514,-13.657251,-4.881330,-14.876649,-13.826788,-29.661421,6.989469,-15.429853,-32.411671,-29.247580,-16.376015,3.081169,4.587570,-34.374382,-72.696198,-28.330296,-20.232780,-14.106841,-20.607607,-13.245030,-13.014030,-5.702460,-9.777963,-8.990956,-4.438502,1.533513,-5.142881,8064.000000,0.000000,4.000000,,,,0.000000,4.000000,4.000000,4.000000,4.000000,4.000000,4.000000,4.000000,4.000000,4.000000,4.000000,4.000000,4.000000,4.000000,4.000000,4.000000,4.000000,4.000000,4.000000,4.000000,4.000000,4.000000,4.000000,4.000000,4.000000,4.000000,4.000000,4.000000,4.000000,4.000000,4.000000,4.000000,4.000000,100.000000
1614075659.992902,121.000000,0.000000,5.533869,-2.395873,-16.096621,5.700187,-11.989171,-0.229950,-9.028210,-4.876449,-14.861773,-14.325782,-21.426632,6.469659,-13.363142,-27.251053,-27.679871,-20.975023,2.052447,4.070162,-31.775906,-77.238884,-27.276325,-15.084344,-14.092734,-22.638281,-12.206144,-12.488195,-5.183938,-7.204082,-7.443504,-1.869961,4.608903,-6.676199,8064.000000,0.000000,4.000000,,,,0.000000,4.000000,4.000000,4.000000,4.000000,4.000000,4.000000,4.000000,4.000000,4.000000,4.000000,4.000000,4.000000,4.000000,4.000000,4.000000,4.000000,4.000000,4.000000,4.000000,4.000000,4.000000,4.000000,4.000000,4.000000,4.000000,4.000000,4.000000,4.000000,4.000000,4.000000,4.000000,4.000000,100.000000
1614075660.000752,122.000000,0.000000,4.502694,-4.957580,-16.080524,5.694487,-13.002823,-0.229720,-4.916617,-4.871573,-15.872552,-11.747354,-15.251358,7.488830,-12.324138,-21.069956,-25.600908,-8.133534,3.076036,18.937887,-24.564642,-75.110367,-13.402895,-5.325669,-16.129923,-21.077181,-7.578554,-12.988527,-6.717215,-6.684058,-8.461701,-2.380912,-0.523911,-9.233625,8064.000000,0.000000,4.000000,,,,0.000000,4.000000,4.000000,4.000000,4.000000,4.000000,4.000000,4.000000,4.000000,4.000000,4.000000,4.000000,4.000000,4.000000,4.000000,4.000000,4.000000,4.000000,4.000000,4.000000,4.000000,4.000000,4.000000,4.000000,4.000000,4.000000,4.000000,4.000000,4.000000,4.000000,4.000000,4.000000,4.000000,100.000000
1614075660.008501,123.000000,0.000000,1.421268,-7.516725,-17.090084,5.175972,-12.989820,-1.255131,-5.937342,-4.866701,-13.292577,-7.633042,-9.595081,5.430059,-12.311813,-19.510424,-23.524025,6.233573,3.072960,39.944588,2.639410,-56.060898,17.379738,1.859143,-12.524050,-14.389437,-1.417129,-11.949898,-1.582293,-6.164553,-7.940420,-3.916992,1.015074,-9.224392,8064.000000,0.000000,4.000000,,,,0.000000,4.000000,4.000000,4.000000,4.000000,4.000000,4.000000,4.000000,4.000000,4.000000,4.000000,4.000000,4.000000,4.000000,4.000000,4.000000,4.000000,4.000000,4.000000,4.000000,4.000000,4.000000,4.000000,4.000000,4.000000,4.000000,4.000000,4.000000,4.000000,4.000000,4.000000,4.000000,4.000000,100.000000
1614075660.016150,124.000000,0.000000,1.932667,-2.381003,-12.970430,5.683617,-7.848625,1.310226,-3.880122,-4.861835,-5.074156,-5.061306,-3.431640,3.373347,-7.684117,-15.388350,-19.910759,0.586314,2.044246,32.725159,19.047028,-40.107399,37.875179,2.370105,-5.332038,4.599311,5.763775,-4.758461,8.162879,-4.107107,-1.265813,0.189489,11.270470,-7.163886,8064.000000,0.000000,4.000000,,,,0.000000,4.000000,4.000000,4.000000,4.000000,4.000000,4.000000,4.000000,4.000000,4.000000,4.000000,4.000000,4.000000,4.000000,4.000000,4.000000,4.000000,4.000000,4.000000,4.000000,4.000000,4.000000,4.000000,4.000000,4.000000,4.000000,4.000000,4.000000,4.000000,4.000000,4.000000,4.000000,4.000000,100.000000
1614075660.023900,125.000000,0.000000,7.058939,6.339326,-4.239511,8.242036,-1.686930,9.514045,1.251963,-4.856973,1.597585,-1.466501,1.187176,6.446897,-2.548228,-3.578089,-12.711360,4.688292,5.119124,22.948843,12.361314,-39.041653,38.350124,1.854914,-2.249784,19.979328,10.373396,3.964246,11.231640,-2.564538,6.427761,10.958530,16.387403,-0.490055,8192.000000,0.000000,4.000000,,,,0.000000,4.000000,4.000000,4.000000,4.000000,4.000000,4.000000,4.000000,4.000000,4.000000,4.000000,4.000000,4.000000,4.000000,4.000000,4.000000,4.000000,4.000000,4.000000,4.000000,4.000000,4.000000,4.000000,4.000000,4.000000,4.000000,4.000000,4.000000,4.000000,4.000000,4.000000,4.000000,4.000000,100.000000
1614075660.031549,126.000000,0.000000,9.103163,9.922730,0.380113,9.772255,-0.659602,15.145556,2.789173,-4.852116,3.134449,2.637529,2.724450,12.594296,0.531244,0.015233,-3.980700,23.657963,14.857595,44.977177,12.348952,-31.310303,36.260494,3.904341,-2.247534,21.497810,10.363023,6.524384,9.681947,-3.074794,7.446974,16.075777,14.832555,6.177102,8064.000000,0.000000,4.000000,,,,0.000000,4.000000,4.000000,4.000000,4.000000,4.000000,4.000000,4.000000,4.000000,4.000000,4.000000,4.000000,4.000000,4.000000,4.000000,4.000000,4.000000,4.000000,4.000000,4.000000,4.000000,4.000000,4.000000,4.000000,4.000000,4.000000,4.000000,4.000000,4.000000,4.000000,4.000000,4.000000,4.000000,100.000000
1614075660.039298,127.000000,0.000000,8.581239,9.399987,-1.158729,9.249662,-1.684583,12.566308,2.273563,-5.360084,1.592853,-0.442032,-0.355197,13.607343,-1.007749,-12.292475,-3.976719,19.018919,19.458122,52.624508,12.849423,-18.458479,26.480642,2.874796,0.318816,20.963491,10.865480,5.492219,12.749187,-3.071719,6.413886,9.393034,14.817722,4.632463,8064.000000,0.000000,4.000000,,,,0.000000,4.000000,4.000000,4.000000,4.000000,4.000000,4.000000,4.000000,4.000000,4.000000,4.000000,4.000000,4.000000,4.000000,4.000000,4.000000,4.000000,4.000000,4.000000,4.000000,4.000000,4.000000,4.000000,4.000000,4.000000,4.000000,4.000000,4.000000,4.000000,4.000000,4.000000,4.000000,4.000000,100.000000
1614075660.046948,0.000000,0.000000,8.572658,8.877767,-5.260134,9.240413,-1.170078,10.502460,0.220007,-4.841904,-1.998484,-8.133897,-8.559970,9.491172,-9.724690,-24.587875,-16.793255,-10.230868,16.361740,21.289831,-8.189067,-31.773354,2.351598,0.820639,0.318498,21.455349,9.828974,5.999547,14.787721,-3.068647,6.920293,3.742615,15.315725,2.063728,0.000000,191.000000,4.000000,,,,0.000000,4.000000,4.000000,4.000000,4.000000,4.000000,4.000000,4.000000,4.000000,4.000000,4.000000,4.000000,4.000000,4.000000,4.000000,4.000000,4.000000,4.000000,4.000000,4.000000,4.000000,4.000000,4.000000,4.000000,4.000000,4.000000,4.000000,4.000000,4.000000,4.000000,4.000000,4.000000,4.000000,100.000000
1614075660.054697,1.000000,0.000000,9.076905,9.381710,-8.331798,9.231173,-1.168908,11.004778,-1.318674,-3.811421,-4.560587,-10.689866,-14.192436,6.917578,-18.945734,-27.640209,-27.545692,-23.553970,14.806918,5.883925,-23.565493,-59.946709,-15.086652,2.358280,-4.810026,13.228765,-1.975727,6.506369,6.567804,-2.552758,6.913373,4.251693,15.300409,2.061664,0.000000,199.000000,4.000000,,,,0.000000,4.000000,4.000000,4.000000,4.000000,4.000000,4.000000,4.000000,4.000000,4.000000,4.000000,4.000000,4.000000,4.000000,4.000000,4.000000,4.000000,4.000000,4.000000,4.000000,4.000000,4.000000,4.000000,4.000000,4.000000,4.000000,4.000000,4.000000,4.000000,4.000000,4.000000,4.000000,4.000000,100.000000
1614075660.062347,2.000000,0.000000,9.580649,9.885149,-9.349107,9.221941,-1.680560,10.480952,-2.342997,-5.346071,-4.043207,-10.166355,-14.178244,6.910660,-21.490891,-26.586929,-28.030968,-17.889391,13.253650,16.134453,-19.952185,-74.245735,-20.712591,-3.797925,-7.369318,-1.143438,-12.742982,3.935760,-3.182353,-0.498923,6.393639,4.760262,14.772289,2.572423,0.000000,196.000000,4.000000,,,,0.000000,4.000000,4.000000,4.000000,4.000000,4.000000,4.000000,4.000000,4.000000,4.000000,4.000000,4.000000,4.000000,4.000000,4.000000,4.000000,4.000000,4.000000,4.000000,4.000000,4.000000,4.000000,4.000000,4.000000,4.000000,4.000000,4.000000,4.000000,4.000000,4.000000,4.000000,4.000000,4.000000,100.000000
1614075660.070096,3.000000,0.000000,8.032607,8.336802,-8.826937,9.212719,-1.678879,10.470471,-1.827833,-4.315084,-4.039163,-9.643369,-13.651245,6.903749,-18.392477,-25.534700,-26.977297,-16.845861,4.522447,16.118317,-20.445053,-81.863800,-24.794441,-23.794127,-6.849129,-9.860244,-13.243059,1.880542,-6.768914,-0.498424,6.387245,4.242682,14.757517,2.569851,0.000000,188.000000,4.000000,,,,0.000000,4.000000,4.000000,4.000000,4.000000,4.000000,4.000000,4.000000,4.000000,4.000000,4.000000,4.000000,4.000000,4.000000,4.000000,4.000000,4.000000,4.000000,4.000000,4.000000,4.000000,4.000000,4.000000,4.000000,4.000000,4.000000,4.000000,4.000000,4.000000,4.000000,4.000000,4.000000,4.000000,100.000000
1614075660.077745,4.000000,0.000000,4.947651,4.225901,-8.818110,9.203506,-1.677200,10.972821,-1.826005,3.894360,-4.547945,-4.505520,-10.560670,6.896846,-14.784342,-21.919422,-27.975960,-17.341835,-1.635922,17.127840,-14.783582,-84.858856,-17.077339,-30.949820,-7.355100,-14.465768,-13.229816,1.878661,-4.198043,-3.062029,6.380858,4.238439,15.255580,2.054460,0.000000,206.000000,4.000000,,,,0.000000,4.000000,4.000000,4.000000,4.000000,4.000000,4.000000,4.000000,4.000000,4.000000,4.000000,4.000000,4.000000,4.000000,4.000000,4.000000,4.000000,4.000000,4.000000,4.000000,4.000000,4.000000,4.000000,4.000000,4.000000,4.000000,4.000000,4.000000,4.000000,4.000000,4.000000,4.000000,4.000000,100.000000
1614075660.085495,5.000000,0.000000,4.942704,1.657573,-8.809292,9.707124,-1.675523,8.397746,-1.824179,6.967388,-4.030576,1.140011,-4.396264,6.377129,-11.692634,-16.256477,-22.306957,-2.965519,-1.634286,38.136353,5.744022,-66.312462,6.016661,-7.841947,-6.322104,-13.938482,-11.678125,1.876783,-2.142563,-3.571787,6.374477,4.234200,15.753144,2.052406,0.000000,194.000000,4.000000,,,,0.000000,4.000000,4.000000,4.000000,4.000000,4.000000,4.000000,4.000000,4.000000,4.000000,4.000000,4.000000,4.000000,4.000000,4.000000,4.000000,4.000000,4.000000,4.000000,4.000000,4.000000,4.000000,4.000000,4.000000,4.000000,4.000000,4.000000,4.000000,4.000000,4.000000,4.000000,4.000000,4.000000,100.000000
1614075660.093144,6.000000,0.000000,4.937761,1.143094,-9.313303,9.184596,-1.673848,3.773964,-2.335176,-4.321630,-4.539366,1.651692,-2.340585,6.883572,-12.193762,-14.701759,-15.105164,11.909241,-1.119831,52.970013,7.789561,-39.066662,20.369617,15.242819,-4.264500,-5.206594,-1.922857,1.874906,-2.653241,-3.055395,6.368103,4.742787,12.660468,2.563174,0.000000,187.000000,4.000000,,,,0.000000,4.000000,4.000000,4.000000,4.000000,4.000000,4.000000,4.000000,4.000000,4.000000,4.000000,4.000000,4.000000,4.000000,4.000000,4.000000,4.000000,4.000000,4.000000,4.000000,4.000000,4.000000,4.000000,4.000000,4.000000,4.000000,4.000000,4.000000,4.000000,4.000000,4.000000,4.000000,4.000000,100.000000
1614075660.100893,7.000000,0.000000,-0.195382,-0.909331,-8.791169,6.611309,-1.672174,2.231728,-1.820020,-12.522437,-4.022006,1.650040,-2.851065,6.876688,-12.181568,-15.712699,-12.525956,12.410152,0.932571,46.250374,-9.141306,-25.694262,18.810787,17.791677,-2.721774,1.978099,3.720091,1.873031,-2.137767,-3.052339,6.361734,3.712403,11.622167,0.509329,0.000000,176.000000,4.000000,,,,0.000000,4.000000,4.000000,4.000000,4.000000,4.000000,4.000000,4.000000,4.000000,4.000000,4.000000,4.000000,4.000000,4.000000,4.000000,4.000000,4.000000,4.000000,4.000000,4.000000,4.000000,4.000000,4.000000,4.000000,4.000000,4.000000,4.000000,4.000000,4.000000,4.000000,4.000000,4.000000,4.000000,100.000000
1614075660.108543,8.000000,0.000000,-3.272110,-2.446883,-8.269557,5.066236,-1.670502,3.767958,-0.792559,-8.407351,-2.992343,2.161210,-2.848214,5.844171,-11.143745,-14.158525,-10.462148,8.295178,6.059844,34.409252,-5.542421,-22.591644,14.689412,16.235424,-2.719052,1.976121,-1.924654,-1.718586,-0.597168,-3.049287,6.355372,-0.393874,11.610544,-4.106565,0.000000,208.000000,4.000000,,,,0.000000,4.000000,4.000000,4.000000,4.000000,4.000000,4.000000,4.000000,4.000000,4.000000,4.000000,4.000000,4.000000,4.000000,4.000000,4.000000,4.000000,4.000000,4.000000,4.000000,4.000000,4.000000,4.000000,4.000000,4.000000,4.000000,4.000000,4.000000,4.000000,4.000000,4.000000,4.000000,4.000000,100.000000
1614075660.116292,9.000000,0.000000,-2.243196,-1.931616,-11.338211,5.573990,-1.156011,3.251369,-4.894331,-3.783558,-4.527812,-1.943515,-2.332545,3.787044,-13.183884,-16.708467,-13.528609,-5.046451,7.079425,20.528690,2.155429,-28.210077,11.597800,17.757650,-2.716333,1.461324,-5.512473,-5.819431,-4.699134,-3.046238,5.836197,-3.470403,4.419447,-6.153741,0.000000,200.000000,4.000000,,,,0.000000,4.000000,4.000000,4.000000,4.000000,4.000000,4.000000,4.000000,4.000000,4.000000,4.000000,4.000000,4.000000,4.000000,4.000000,4.000000,4.000000,4.000000,4.000000,4.000000,4.000000,4.000000,4.000000,4.000000,4.000000,4.000000,4.000000,4.000000,4.000000,4.000000,4.000000,4.000000,4.000000,100.000000
1614075660.123941,10.000000,0.000000,-2.753774,-1.929684,-12.865335,5.568416,-2.180496,2.735298,-7.966359,-5.318236,-4.010464,-6.044136,-2.843033,2.244796,-16.247623,-26.435350,-23.771490,-31.708071,6.559525,7.687648,-12.718521,-37.925457,11.073381,15.175791,-2.713617,2.485504,-4.481320,-4.787971,-8.284179,-3.043191,6.343181,-3.466932,-3.277280,-6.147587,0.000000,207.000000,4.000000,,,,0.000000,4.000000,4.000000,4.000000,4.000000,4.000000,4.000000,4.000000,4.000000,4.000000,4.000000,4.000000,4.000000,4.000000,4.000000,4.000000,4.000000,4.000000,4.000000,4.000000,4.000000,4.000000,4.000000,4.000000,4.000000,4.000000,4.000000,4.000000,4.000000,4.000000,4.000000,4.000000,4.000000,100.000000
1614075660.131691,11.000000,0.000000,-1.725379,-1.927754,-5.672982,5.562848,-2.178315,3.758203,-2.830188,-5.825738,1.634572,-6.550912,-2.840190,5.319474,-15.205734,-31.537119,-26.311821,-32.702003,12.193991,10.756884,-18.859650,-38.400352,11.062308,13.622153,-0.659621,1.970198,-4.476839,-1.706260,-1.096408,-0.476046,8.388120,-0.386542,-0.197080,-3.577337,0.000000,199.000000,4.000000,,,,0.000000,4.000000,4.000000,4.000000,4.000000,4.000000,4.000000,4.000000,4.000000,4.000000,4.000000,4.000000,4.000000,4.000000,4.000000,4.000000,4.000000,4.000000,4.000000,4.000000,4.000000,4.000000,4.000000,4.000000,4.000000,4.000000,4.000000,4.000000,4.000000,4.000000,4.000000,4.000000,4.000000,100.000000
1614075660.139340,12.000000,0.000000,2.891731,-2.438647,-1.051924,5.557285,-0.637675,2.728804,2.813668,-4.281451,2.145758,-7.057181,-2.837350,10.442360,-12.626426,-28.428659,-20.644484,-11.130840,18.335644,17.412794,-13.712584,-44.515797,-2.282088,9.505967,1.392321,1.455407,-5.498003,-2.217374,8.648278,0.550071,10.431014,3.203588,4.931322,0.528805,0.000000,189.000000,4.000000,,,,0.000000,4.000000,4.000000,4.000000,4.000000,4.000000,4.000000,4.000000,4.000000,4.000000,4.000000,4.000000,4.000000,4.000000,4.000000,4.000000,4.000000,4.000000,4.000000,4.000000,4.000000,4.000000,4.000000,4.000000,4.000000,4.000000,4.000000,4.000000,4.000000,4.000000,4.000000,4.000000,4.000000,100.000000
1614075660.147090,13.000000,0.000000,4.427301,-2.436208,-4.640616,5.551727,-5.252422,0.161973,2.298034,-4.789990,-7.599977,-9.614227,-2.834513,8.893456,-11.588159,-26.861769,-27.290506,-19.837658,13.701922,2.523586,-28.570667,-69.086670,-21.254164,1.804154,-4.250097,0.941131,-5.492505,-1.702336,8.639630,-1.501761,9.907763,4.226025,3.900750,2.066737,0.000000,197.000000,4.000000,,,,0.000000,4.000000,4.000000,4.000000,4.000000,4.000000,4.000000,4.000000,4.000000,4.000000,4.000000,4.000000,4.000000,4.000000,4.000000,4.000000,4.000000,4.000000,4.000000,4.000000,4.000000,4.000000,4.000000,4.000000,4.000000,4.000000,4.000000,4.000000,4.000000,4.000000,4.000000,4.000000,4.000000,100.000000
1614075660.154739,14.000000,0.000000,1.858771,-0.895311,-9.251360,5.546176,-12.426657,-0.863830,1.270095,-4.785201,-12.720583,-10.630254,-2.831678,1.705075,-12.089391,-25.809267,-38.545269,-41.356281,3.431811,-5.171245,-39.311325,-88.504761,-24.309834,-1.274574,-13.989437,-2.136733,-4.461371,-1.700634,2.477144,-3.551541,9.897855,3.708979,3.384029,2.577491,0.000000,207.000000,4.000000,,,,0.000000,4.000000,4.000000,4.000000,4.000000,4.000000,4.000000,4.000000,4.000000,4.000000,4.000000,4.000000,4.000000,4.000000,4.000000,4.000000,4.000000,4.000000,4.000000,4.000000,4.000000,4.000000,4.000000,4.000000,4.000000,4.000000,4.000000,4.000000,4.000000,4.000000,4.000000,4.000000,4.000000,100.000000
1614075660.162588,15.000000,0.000000,0.831271,-2.945697,-9.242108,5.540629,-9.850128,-0.350146,2.294466,-4.780415,-9.118118,-9.593983,-2.828846,-1.373553,-12.077302,-19.116791,-34.404160,-26.443130,-3.751108,19.962132,-12.092528,-89.954720,-8.388087,-4.863043,-19.103653,-7.262801,-4.969730,-2.724574,-4.191999,-3.547990,10.400777,4.730911,4.406286,5.651837,0.000000,202.000000,4.000000,,,,0.000000,4.000000,4.000000,4.000000,4.000000,4.000000,4.000000,4.000000,4.000000,4.000000,4.000000,4.000000,4.000000,4.000000,4.000000,4.000000,4.000000,4.000000,4.000000,4.000000,4.000000,4.000000,4.000000,4.000000,4.000000,4.000000,4.000000,4.000000,4.000000,4.000000,4.000000,4.000000,4.000000,100.000000
1614075660.170337,16.000000,0.000000,0.830440,-6.019675,-7.694405,5.022268,-2.147970,-0.349796,2.292171,-4.775635,-7.057718,-7.020286,-2.826018,0.166282,-11.552403,-13.969468,-25.138985,-1.288482,-6.311460,35.839603,8.432385,-80.121170,7.004916,-6.396641,-17.033266,-10.845282,-5.477581,1.380715,-5.213449,-3.544442,9.877556,6.777462,3.889059,5.133364,0.000000,201.000000,4.000000,,,,0.000000,4.000000,4.000000,4.000000,4.000000,4.000000,4.000000,4.000000,4.000000,4.000000,4.000000,4.000000,4.000000,4.000000,4.000000,4.000000,4.000000,4.000000,4.000000,4.000000,4.000000,4.000000,4.000000,4.000000,4.000000,4.000000,4.000000,4.000000,4.000000,4.000000,4.000000,4.000000,4.000000,100.000000
1614075660.178187,17.000000,0.000000,2.880892,-1.398270,-6.148249,6.042887,-0.607360,-0.349446,2.289879,-4.258039,-8.076302,-5.474804,-2.310371,-0.346705,-11.540852,-14.468320,-20.498461,2.302550,1.387159,26.572996,-3.370919,-55.938488,15.203039,12.071294,-11.888028,-7.244693,2.733025,11.122924,4.022534,0.048846,9.867679,9.334787,4.397990,6.153872,0.000000,192.000000,4.000000,,,,0.000000,4.000000,4.000000,4.000000,4.000000,4.000000,4.000000,4.000000,4.000000,4.000000,4.000000,4.000000,4.000000,4.000000,4.000000,4.000000,4.000000,4.000000,4.000000,4.000000,4.000000,4.000000,4.000000,4.000000,4.000000,4.000000,4.000000,4.000000,4.000000,4.000000,4.000000,4.000000,4.000000,100.000000
1614075660.185936,18.000000,0.000000,7.493395,5.269794,-5.116460,8.088126,-1.632394,-0.349096,1.774769,-4.766601,-7.555405,-5.982150,-2.820881,-0.859178,-11.016490,-13.941031,-13.811296,2.300247,16.257566,31.674627,-2.341907,-30.754343,19.803221,31.546402,-7.773576,4.044603,10.935420,14.701544,12.736461,4.151361,10.370631,11.889555,3.367951,11.788744,0.000000,194.000000,4.000000,,,,0.000000,4.000000,4.000000,4.000000,4.000000,4.000000,4.000000,4.000000,4.000000,4.000000,4.000000,4.000000,4.000000,4.000000,4.000000,4.000000,4.000000,4.000000,4.000000,4.000000,4.000000,4.000000,4.000000,4.000000,4.000000,4.000000,4.000000,4.000000,4.000000,4.000000,4.000000,4.000000,4.000000,100.000000
