title:24, start timestamp:1614075966.844925, stop timestamp:1614076012.811049, headset type:EPOCFLEX, headset serial:F00001ED, headset firmware:f12, subject name:s07, channels:75, sampling rate:128, samples:5928      , version:2.0
Timestamp,EEG.Counter,EEG.Interpolated,EEG.Cz,EEG.Fz,EEG.Fp1,EEG.AF3,EEG.F7,EEG.F3,EEG.FC1,EEG.C3,EEG.FC5,EEG.T7,EEG.CP5,EEG.CP1,EEG.P3,EEG.P7,EEG.PO3,EEG.O1,EEG.Pz,EEG.Oz,EEG.O2,EEG.PO4,EEG.P8,EEG.P4,EEG.CP2,EEG.CP6,EEG.T8,EEG.FC6,EEG.C4,EEG.FC2,EEG.F4,EEG.F8,EEG.AF4,EEG.Fp2,EEG.HighBitFlex,EEG.RawCq,EEG.Battery,MarkerIndex,MarkerType,MarkerValueInt,EEG.MarkerHardware,CQ.Cz,CQ.Fz,CQ.Fp1,CQ.AF3,CQ.F7,CQ.F3,CQ.FC1,CQ.C3,CQ.FC5,CQ.T7,CQ.CP5,CQ.CP1,CQ.P3,CQ.P7,CQ.PO3,CQ.O1,CQ.Pz,CQ.Oz,CQ.O2,CQ.PO4,CQ.P8,CQ.P4,CQ.CP2,CQ.CP6,CQ.T8,CQ.FC6,CQ.C4,CQ.FC2,CQ.F4,CQ.F8,CQ.AF4,CQ.Fp2,CQ.Overall
1614075966.844925,46.000000,0.000000,-1.919976,-2.764838,-2.220891,-2.724838,-2.560846,-0.454963,-3.705001,-5.704003,-3.466746,-15.998015,3.179425,2.661236,-10.869586,-17.429241,-40.413387,-22.739937,-17.634655,-28.061775,-4.814133,-129.798645,-59.884945,-8.236250,-7.723448,-11.577188,-11.706151,-6.087975,-8.108809,-0.384887,-4.494164,-6.254735,-10.626193,-3.077966,8064.000000,0.000000,4.000000,,,,0.000000,4.000000,4.000000,4.000000,4.000000,4.000000,4.000000,4.000000,4.000000,4.000000,4.000000,4.000000,4.000000,4.000000,4.000000,4.000000,4.000000,4.000000,4.000000,4.000000,4.000000,4.000000,4.000000,4.000000,4.000000,4.000000,4.000000,4.000000,4.000000,4.000000,4.000000,4.000000,4.000000,100.000000
1614075966.852774,47.000000,0.000000,0.133226,-2.762073,-2.218670,-2.722113,-2.558285,1.596774,-3.701296,0.968367,-3.463279,-12.392274,18.560862,6.761139,2.474617,-3.565658,-26.014000,-15.537710,-19.155481,-25.982431,8.524014,-131.720123,-55.209675,-8.740834,-8.228545,-11.052791,-13.745727,-8.645989,-7.587879,-0.384503,-9.617875,-8.299762,-10.615566,-4.100530,8064.000000,0.000000,4.000000,,,,0.000000,4.000000,4.000000,4.000000,4.000000,4.000000,4.000000,4.000000,4.000000,4.000000,4.000000,4.000000,4.000000,4.000000,4.000000,4.000000,4.000000,4.000000,4.000000,4.000000,4.000000,4.000000,4.000000,4.000000,4.000000,4.000000,4.000000,4.000000,4.000000,4.000000,4.000000,4.000000,4.000000,100.000000
1614075966.860524,48.000000,0.000000,1.671555,-4.297772,-3.242093,-3.745032,-2.042906,0.569536,-3.697595,0.454579,-3.459816,-7.251677,22.132044,3.677455,5.549066,7.719959,-4.962345,2.939366,-18.623507,-6.469270,33.643696,-117.742249,-41.821133,-8.219273,-7.194675,-12.580199,-13.219161,-5.560420,-9.118752,-0.384118,-10.633898,-3.676078,-12.143413,-3.070788,8064.000000,0.000000,4.000000,,,,0.000000,4.000000,4.000000,4.000000,4.000000,4.000000,4.000000,4.000000,4.000000,4.000000,4.000000,4.000000,4.000000,4.000000,4.000000,4.000000,4.000000,4.000000,4.000000,4.000000,4.000000,4.000000,4.000000,4.000000,4.000000,4.000000,4.000000,4.000000,4.000000,4.000000,4.000000,4.000000,4.000000,100.000000
1614075966.868372,49.000000,0.000000,1.157063,-0.703731,-1.187568,-0.151543,2.061701,1.081787,-3.693897,0.454124,-3.456356,-1.090579,20.571449,2.135316,5.543517,15.917367,10.940054,28.064631,-7.322832,23.280790,46.430565,-89.419380,-10.497258,-6.159771,-4.110558,-10.516337,-1.411070,1.624628,-3.981429,-0.383734,-5.495059,1.455804,-5.464602,4.111770,8064.000000,0.000000,4.000000,,,,0.000000,4.000000,4.000000,4.000000,4.000000,4.000000,4.000000,4.000000,4.000000,4.000000,4.000000,4.000000,4.000000,4.000000,4.000000,4.000000,4.000000,4.000000,4.000000,4.000000,4.000000,4.000000,4.000000,4.000000,4.000000,4.000000,4.000000,4.000000,4.000000,4.000000,4.000000,4.000000,4.000000,100.000000
1614075966.876122,50.000000,0.000000,1.155905,3.399537,4.967465,7.540916,6.675024,1.593526,-3.690203,0.453670,-3.452900,5.577178,21.063700,2.133181,5.537973,14.875809,7.852190,23.934002,4.992184,25.308790,39.204647,-74.458160,0.795290,-4.615150,-4.106447,0.263410,10.385213,4.187106,6.278963,-0.383350,-2.412641,4.018450,3.258811,14.364068,8064.000000,0.000000,4.000000,,,,0.000000,4.000000,4.000000,4.000000,4.000000,4.000000,4.000000,4.000000,4.000000,4.000000,4.000000,4.000000,4.000000,4.000000,4.000000,4.000000,4.000000,4.000000,4.000000,4.000000,4.000000,4.000000,4.000000,4.000000,4.000000,4.000000,4.000000,4.000000,4.000000,4.000000,4.000000,4.000000,4.000000,100.000000
1614075966.883971,51.000000,0.000000,1.154750,0.832035,4.449677,9.071836,4.617066,-1.997812,-3.686513,-5.700630,-3.449447,6.597242,17.965712,2.131047,5.019615,9.732728,0.152031,4.935709,5.500012,4.770661,28.396212,-73.870888,-15.102942,-3.584894,-3.076699,7.955454,7.297905,1.618816,5.759863,0.129854,-4.461510,4.014432,-3.411114,16.400986,8064.000000,0.000000,4.000000,,,,0.000000,4.000000,4.000000,4.000000,4.000000,4.000000,4.000000,4.000000,4.000000,4.000000,4.000000,4.000000,4.000000,4.000000,4.000000,4.000000,4.000000,4.000000,4.000000,4.000000,4.000000,4.000000,4.000000,4.000000,4.000000,4.000000,4.000000,4.000000,4.000000,4.000000,4.000000,4.000000,4.000000,100.000000
1614075966.891720,52.000000,0.000000,1.153595,-3.784182,-2.734260,1.883278,-5.131140,-6.611198,-3.682827,-11.848776,-3.445997,0.436799,11.793900,2.641737,4.501774,3.056329,-2.925045,5.956415,5.494512,4.253070,21.701149,-74.822655,-24.318607,-1.530027,-0.509520,8.460320,-1.427342,-0.434085,-1.425384,-1.408738,-6.508331,0.933494,-14.689754,15.871765,8064.000000,0.000000,4.000000,,,,0.000000,4.000000,4.000000,4.000000,4.000000,4.000000,4.000000,4.000000,4.000000,4.000000,4.000000,4.000000,4.000000,4.000000,4.000000,4.000000,4.000000,4.000000,4.000000,4.000000,4.000000,4.000000,4.000000,4.000000,4.000000,4.000000,4.000000,4.000000,4.000000,4.000000,4.000000,4.000000,4.000000,100.000000
1614075966.899569,53.000000,0.000000,1.665262,-3.780398,0.858218,1.368574,-8.715753,-7.117408,-3.679144,-11.836926,-3.442551,-2.127740,1.012876,-1.976290,-8.323240,-13.869804,-19.332376,-2.767490,4.463377,7.325740,14.499960,-89.106804,-30.960955,-2.041317,-0.509011,7.426218,-1.938735,-0.946471,-5.013702,-3.971431,-6.501822,0.419740,-15.700706,18.419996,8064.000000,0.000000,4.000000,,,,0.000000,4.000000,4.000000,4.000000,4.000000,4.000000,4.000000,4.000000,4.000000,4.000000,4.000000,4.000000,4.000000,4.000000,4.000000,4.000000,4.000000,4.000000,4.000000,4.000000,4.000000,4.000000,4.000000,4.000000,4.000000,4.000000,4.000000,4.000000,4.000000,4.000000,4.000000,4.000000,4.000000,100.000000
1614075966.907318,54.000000,0.000000,0.125135,-2.750976,14.190694,11.623615,-2.553191,-6.597470,-3.675465,-9.773808,-2.926288,1.464131,-13.347112,-11.717903,-35.494404,-36.420036,-51.107914,-35.072414,-11.438523,-19.861073,-1.411976,-115.684364,-51.442814,-6.141840,-2.559784,4.854689,0.114486,-0.432704,-8.085611,-3.967460,-4.444038,4.521885,-13.633723,19.427217,8064.000000,0.000000,4.000000,,,,0.000000,4.000000,4.000000,4.000000,4.000000,4.000000,4.000000,4.000000,4.000000,4.000000,4.000000,4.000000,4.000000,4.000000,4.000000,4.000000,4.000000,4.000000,4.000000,4.000000,4.000000,4.000000,4.000000,4.000000,4.000000,4.000000,4.000000,4.000000,4.000000,4.000000,4.000000,4.000000,4.000000,100.000000
1614075966.915167,55.000000,0.000000,-1.926272,-3.261046,16.740604,16.740198,2.064747,-6.590872,-3.671789,-12.840957,-3.949003,-2.639897,-24.102995,-19.398493,-53.407627,-54.332336,-73.108093,-58.114265,-29.888622,-45.995056,-25.000307,-136.081497,-70.878555,-9.212622,-5.121326,-1.816832,-4.501013,-1.457913,-11.667270,-3.450672,-2.388313,4.517363,-15.158551,20.433430,8064.000000,0.000000,4.000000,,,,0.000000,4.000000,4.000000,4.000000,4.000000,4.000000,4.000000,4.000000,4.000000,4.000000,4.000000,4.000000,4.000000,4.000000,4.000000,4.000000,4.000000,4.000000,4.000000,4.000000,4.000000,4.000000,4.000000,4.000000,4.000000,4.000000,4.000000,4.000000,4.000000,4.000000,4.000000,4.000000,4.000000,100.000000
1614075966.922916,56.000000,0.000000,-2.949987,-3.257785,8.518737,8.518329,-1.527061,-6.584281,-3.668117,-18.469141,-6.509157,-16.996231,-26.130175,-21.430376,-47.200375,-59.919029,-75.599083,-56.517689,-34.986938,-48.513165,-35.744537,-150.817215,-81.576904,-11.254691,-8.705949,-10.020144,-16.291384,-4.533378,-12.168423,-4.472862,-3.924386,-2.153821,-15.656213,18.874537,7936.000000,0.000000,4.000000,,,,0.000000,4.000000,4.000000,4.000000,4.000000,4.000000,4.000000,4.000000,4.000000,4.000000,4.000000,4.000000,4.000000,4.000000,4.000000,4.000000,4.000000,4.000000,4.000000,4.000000,4.000000,4.000000,4.000000,4.000000,4.000000,4.000000,4.000000,4.000000,4.000000,4.000000,4.000000,4.000000,4.000000,100.000000
1614075966.930765,57.000000,0.000000,-3.459857,-4.280168,4.920474,0.304682,-3.576816,-7.090518,-4.177270,-14.860929,-7.528288,-25.184364,-19.950197,-18.332024,-27.665995,-46.012955,-61.677330,-53.384251,-33.413490,-46.926189,-22.375460,-155.281784,-79.956863,-12.269077,-11.261346,-15.651149,-22.428938,-5.041665,-15.233177,-4.468390,-6.997385,-5.228590,-15.127736,11.163353,8064.000000,0.000000,4.000000,,,,0.000000,4.000000,4.000000,4.000000,4.000000,4.000000,4.000000,4.000000,4.000000,4.000000,4.000000,4.000000,4.000000,4.000000,4.000000,4.000000,4.000000,4.000000,4.000000,4.000000,4.000000,4.000000,4.000000,4.000000,4.000000,4.000000,4.000000,4.000000,4.000000,4.000000,4.000000,4.000000,4.000000,100.000000
1614075966.938514,58.000000,0.000000,-1.917936,-2.737426,4.915554,2.868480,-1.521957,-6.057786,-3.660272,-4.076837,-7.007940,-20.030973,-10.186658,-11.647024,-10.715251,-19.813097,-38.025909,-43.587276,-27.226231,-35.597214,-4.917187,-141.793167,-59.876907,-11.743988,-11.762905,-15.635498,-16.765484,-4.523803,-18.294867,-2.925460,-5.964746,-4.197721,-12.035686,3.459882,8064.000000,0.000000,4.000000,,,,0.000000,4.000000,4.000000,4.000000,4.000000,4.000000,4.000000,4.000000,4.000000,4.000000,4.000000,4.000000,4.000000,4.000000,4.000000,4.000000,4.000000,4.000000,4.000000,4.000000,4.000000,4.000000,4.000000,4.000000,4.000000,4.000000,4.000000,4.000000,4.000000,4.000000,4.000000,4.000000,4.000000,100.000000
1614075966.946163,59.000000,0.000000,-2.941659,-3.247509,0.808074,4.916894,-4.084538,-6.051728,-3.143791,-4.585581,-7.513752,-14.882738,-5.561087,-7.019992,-5.063510,-6.459950,-20.551987,-23.543688,-19.506697,-16.074436,-0.296885,-120.625732,-41.868313,-11.732244,-11.751142,-12.542939,-12.646154,-5.544920,-16.738111,-5.999457,-5.958781,-4.193523,-10.485188,3.969243,8064.000000,0.000000,4.000000,,,,0.000000,4.000000,4.000000,4.000000,4.000000,4.000000,4.000000,4.000000,4.000000,4.000000,4.000000,4.000000,4.000000,4.000000,4.000000,4.000000,4.000000,4.000000,4.000000,4.000000,4.000000,4.000000,4.000000,4.000000,4.000000,4.000000,4.000000,4.000000,4.000000,4.000000,4.000000,4.000000,4.000000,100.000000
1614075966.953912,60.000000,0.000000,-7.041282,-8.372467,-3.295298,-0.216228,-9.721479,-8.609779,-7.756032,-10.222021,-10.070341,-16.919138,-8.119628,-10.089895,-10.699472,-7.991952,-14.890409,-7.622708,-17.948729,-6.827593,13.549565,-102.556389,-33.621319,-12.233332,-10.713750,-12.017576,-13.146329,-3.488093,-15.695731,-11.634483,-8.004105,-4.702150,-12.013165,4.478094,8064.000000,0.000000,4.000000,,,,0.000000,4.000000,4.000000,4.000000,4.000000,4.000000,4.000000,4.000000,4.000000,4.000000,4.000000,4.000000,4.000000,4.000000,4.000000,4.000000,4.000000,4.000000,4.000000,4.000000,4.000000,4.000000,4.000000,4.000000,4.000000,4.000000,4.000000,4.000000,4.000000,4.000000,4.000000,4.000000,4.000000,100.000000
1614075966.961561,61.000000,0.000000,-2.418856,-8.876915,-2.779182,-2.780115,-8.173296,-8.601170,-7.748276,-5.596415,-11.085912,-14.338116,-9.137150,-8.028523,-12.740055,-6.445498,-12.311417,8.282351,-9.212831,2.410004,35.587299,-82.966652,-17.690260,-9.656996,-7.626113,-10.467097,-4.928054,5.233344,-12.603113,-5.981823,0.721848,-4.697448,-9.437049,3.960796,8064.000000,0.000000,4.000000,,,,0.000000,4.000000,4.000000,4.000000,4.000000,4.000000,4.000000,4.000000,4.000000,4.000000,4.000000,4.000000,4.000000,4.000000,4.000000,4.000000,4.000000,4.000000,4.000000,4.000000,4.000000,4.000000,4.000000,4.000000,4.000000,4.000000,4.000000,4.000000,4.000000,4.000000,4.000000,4.000000,4.000000,100.000000
1614075966.969310,62.000000,0.000000,8.352794,-0.150089,-2.263583,0.299589,-3.549738,-6.541286,0.977421,-2.513895,-9.536365,-7.657111,-7.076730,-0.841008,-8.111930,-6.951873,-12.811925,16.992016,5.668176,9.587081,32.474789,-75.704201,-12.031544,-7.083236,-7.105666,-2.251502,6.358925,10.869136,-4.898202,5.819030,11.490357,-4.179930,-4.299407,6.520937,8064.000000,0.000000,4.000000,,,,0.000000,4.000000,4.000000,4.000000,4.000000,4.000000,4.000000,4.000000,4.000000,4.000000,4.000000,4.000000,4.000000,4.000000,4.000000,4.000000,4.000000,4.000000,4.000000,4.000000,4.000000,4.000000,4.000000,4.000000,4.000000,4.000000,4.000000,4.000000,4.000000,4.000000,4.000000,4.000000,4.000000,100.000000
1614075966.976960,63.000000,0.000000,5.780339,5.491086,-2.261319,1.324930,-2.007727,-7.047565,1.489264,-13.280612,-6.962725,-8.675095,-10.659397,-7.506834,-16.308947,-21.303896,-22.542704,1.077589,0.534303,-7.345583,7.314108,-87.423370,-35.096436,-7.588974,-7.098560,5.443058,3.788463,7.268523,-4.380483,6.838852,6.350662,-4.175750,-4.807928,7.540058,8064.000000,0.000000,4.000000,,,,0.000000,4.000000,4.000000,4.000000,4.000000,4.000000,4.000000,4.000000,4.000000,4.000000,4.000000,4.000000,4.000000,4.000000,4.000000,4.000000,4.000000,4.000000,4.000000,4.000000,4.000000,4.000000,4.000000,4.000000,4.000000,4.000000,4.000000,4.000000,4.000000,4.000000,4.000000,4.000000,4.000000,100.000000
1614075966.984709,64.000000,0.000000,-6.020314,3.947134,-2.771878,0.297964,-3.031360,-10.117441,-9.794276,-22.498100,-7.468583,-17.384369,-16.289762,-21.858301,-35.779816,-35.641567,-38.417595,-18.923489,-14.338026,-25.799776,-5.513719,-99.643639,-55.061340,-7.581385,-6.578641,4.924794,-4.933274,2.645870,-10.529949,-1.373115,-3.399279,-4.684395,-6.341581,4.968415,0.000000,188.000000,4.000000,,,,0.000000,4.000000,4.000000,4.000000,4.000000,4.000000,4.000000,4.000000,4.000000,4.000000,4.000000,4.000000,4.000000,4.000000,4.000000,4.000000,4.000000,4.000000,4.000000,4.000000,4.000000,4.000000,4.000000,4.000000,4.000000,4.000000,4.000000,4.000000,4.000000,4.000000,4.000000,4.000000,4.000000,100.000000
1614075966.992358,65.000000,0.000000,-6.527114,3.943187,-2.769106,0.297666,-2.515508,-10.620144,-15.938329,-22.475603,-10.025217,-19.931087,-20.376038,-24.400545,-41.897884,-39.195667,-53.763794,-26.084053,-18.426252,-28.338078,-5.508205,-112.364510,-55.006279,-8.086624,-11.700268,1.330126,-5.441161,2.643224,-10.519419,-4.448665,-1.344597,-3.654069,-4.283958,3.937805,0.000000,194.000000,4.000000,,,,0.000000,4.000000,4.000000,4.000000,4.000000,4.000000,4.000000,4.000000,4.000000,4.000000,4.000000,4.000000,4.000000,4.000000,4.000000,4.000000,4.000000,4.000000,4.000000,4.000000,4.000000,4.000000,4.000000,4.000000,4.000000,4.000000,4.000000,4.000000,4.000000,4.000000,4.000000,4.000000,4.000000,100.000000
1614075967.000107,66.000000,0.000000,-5.494946,3.939243,-1.740696,1.323009,-2.000172,-9.583883,-13.871108,-26.555691,-10.528012,-18.372694,-25.483868,-24.376144,-40.317524,-42.233395,-66.017723,-34.263096,-26.100134,-36.002048,-8.579620,-134.816238,-61.617939,-13.719563,-19.380875,-3.286589,-5.435720,3.666222,-13.073002,-3.418575,2.246491,-1.599133,-4.279674,4.446688,0.000000,200.000000,4.000000,,,,0.000000,4.000000,4.000000,4.000000,4.000000,4.000000,4.000000,4.000000,4.000000,4.000000,4.000000,4.000000,4.000000,4.000000,4.000000,4.000000,4.000000,4.000000,4.000000,4.000000,4.000000,4.000000,4.000000,4.000000,4.000000,4.000000,4.000000,4.000000,4.000000,4.000000,4.000000,4.000000,4.000000,100.000000
1614075967.007756,67.000000,0.000000,-12.668938,1.371202,-2.764597,0.296045,-2.510993,-10.087119,-13.857237,-31.144520,-10.517485,-19.379963,-25.971203,-30.505615,-45.405411,-40.652702,-72.105553,-46.023705,-40.433006,-45.196815,-15.237707,-153.655792,-82.069138,-22.936613,-22.951239,-13.026893,-8.507207,3.149735,-24.341980,-3.927977,0.192962,-0.059073,-7.352317,4.442242,0.000000,179.000000,4.000000,,,,0.000000,4.000000,4.000000,4.000000,4.000000,4.000000,4.000000,4.000000,4.000000,4.000000,4.000000,4.000000,4.000000,4.000000,4.000000,4.000000,4.000000,4.000000,4.000000,4.000000,4.000000,4.000000,4.000000,4.000000,4.000000,4.000000,4.000000,4.000000,4.000000,4.000000,4.000000,4.000000,4.000000,100.000000
1614075967.015505,68.000000,0.000000,-12.656269,0.344189,-5.325934,0.808570,-2.508482,-10.589853,-15.381841,-21.369785,-9.994146,-18.334942,-16.201643,-26.885366,-39.206161,-29.329996,-63.828316,-42.900757,-43.469498,-43.613155,-19.837854,-158.630341,-89.679382,-27.016239,-22.415466,-23.270275,-12.088444,0.069663,-30.471485,-4.436870,0.192769,-0.571834,-7.857785,4.437799,0.000000,207.000000,4.000000,,,,0.000000,4.000000,4.000000,4.000000,4.000000,4.000000,4.000000,4.000000,4.000000,4.000000,4.000000,4.000000,4.000000,4.000000,4.000000,4.000000,4.000000,4.000000,4.000000,4.000000,4.000000,4.000000,4.000000,4.000000,4.000000,4.000000,4.000000,4.000000,4.000000,4.000000,4.000000,4.000000,4.000000,100.000000
1614075967.023154,69.000000,0.000000,-4.438485,-0.168975,-4.807788,3.371864,-2.505973,-9.553622,-14.340818,-6.989441,-7.420050,-15.239683,-6.954671,-16.602070,-18.141314,-20.582718,-41.713207,-20.806576,-40.349106,-38.441338,-14.176991,-155.907608,-75.230728,-26.476404,-21.367411,-26.323929,-13.101996,-4.545792,-27.876911,-3.919612,0.705397,-0.571262,-6.824286,3.920541,0.000000,189.000000,4.000000,,,,0.000000,4.000000,4.000000,4.000000,4.000000,4.000000,4.000000,4.000000,4.000000,4.000000,4.000000,4.000000,4.000000,4.000000,4.000000,4.000000,4.000000,4.000000,4.000000,4.000000,4.000000,4.000000,4.000000,4.000000,4.000000,4.000000,4.000000,4.000000,4.000000,4.000000,4.000000,4.000000,4.000000,100.000000
1614075967.030903,70.000000,0.000000,-1.869943,0.856835,-2.238878,4.906953,-2.503467,-6.979966,-14.326477,-4.931170,-5.874168,-14.711623,-7.460537,-15.047007,-7.353941,-21.074955,-24.748417,-2.837051,-32.103630,-22.505461,5.837186,-142.931183,-57.206776,-26.962748,-20.320402,-26.810425,-11.550433,-5.054066,-25.284931,-3.915693,0.704692,-0.570691,-7.330283,4.942261,0.000000,187.000000,4.000000,,,,0.000000,4.000000,4.000000,4.000000,4.000000,4.000000,4.000000,4.000000,4.000000,4.000000,4.000000,4.000000,4.000000,4.000000,4.000000,4.000000,4.000000,4.000000,4.000000,4.000000,4.000000,4.000000,4.000000,4.000000,4.000000,4.000000,4.000000,4.000000,4.000000,4.000000,4.000000,4.000000,4.000000,100.000000
1614075967.038553,71.000000,0.000000,-1.868073,0.343157,-2.236639,4.389226,-2.500964,-5.947345,-14.312151,-7.490341,-6.893935,-14.696912,-8.991538,-15.544780,-9.397869,-22.592342,-23.698027,-6.936778,-15.148448,-2.482956,20.190323,-117.147224,-46.380341,-26.935785,-17.223158,-25.757973,-8.974780,-4.023371,-26.285288,-3.911777,0.703987,-0.057300,-7.322953,8.014242,0.000000,173.000000,4.000000,,,,0.000000,4.000000,4.000000,4.000000,4.000000,4.000000,4.000000,4.000000,4.000000,4.000000,4.000000,4.000000,4.000000,4.000000,4.000000,4.000000,4.000000,4.000000,4.000000,4.000000,4.000000,4.000000,4.000000,4.000000,4.000000,4.000000,4.000000,4.000000,4.000000,4.000000,4.000000,4.000000,4.000000,100.000000
1614075967.046402,72.000000,0.000000,0.697897,-3.759750,-1.721582,5.410478,-2.498463,-6.454218,-14.297839,-4.405928,-5.861400,-14.169394,-6.931265,-11.939491,-8.875650,-22.569750,-23.674330,-14.109328,-3.851248,-4.018935,22.221415,-97.030075,-38.641651,-25.883207,-12.590550,-18.039907,-10.504267,-7.609092,-26.259003,-3.907865,0.703283,-0.057242,-7.315629,5.954946,0.000000,183.000000,4.000000,,,,0.000000,4.000000,4.000000,4.000000,4.000000,4.000000,4.000000,4.000000,4.000000,4.000000,4.000000,4.000000,4.000000,4.000000,4.000000,4.000000,4.000000,4.000000,4.000000,4.000000,4.000000,4.000000,4.000000,4.000000,4.000000,4.000000,4.000000,4.000000,4.000000,4.000000,4.000000,4.000000,4.000000,100.000000
1614075967.054151,73.000000,0.000000,-0.841262,-7.345734,-1.719860,3.866606,-2.495964,-5.934943,-14.283541,-7.991265,-6.368359,-17.744968,-7.949975,-15.004476,-8.353954,-25.624104,-21.086552,-9.992655,-4.873038,-18.373890,22.712013,-91.292023,-33.474804,-27.395786,-10.013857,-10.329560,-12.545044,-7.601482,-25.207102,-3.903957,0.702580,-2.621288,-7.308314,0.820786,0.000000,196.000000,4.000000,,,,0.000000,4.000000,4.000000,4.000000,4.000000,4.000000,4.000000,4.000000,4.000000,4.000000,4.000000,4.000000,4.000000,4.000000,4.000000,4.000000,4.000000,4.000000,4.000000,4.000000,4.000000,4.000000,4.000000,4.000000,4.000000,4.000000,4.000000,4.000000,4.000000,4.000000,4.000000,4.000000,4.000000,100.000000
1614075967.062000,74.000000,0.000000,-5.968626,-5.287106,-5.820704,-1.265466,-2.493468,-6.441829,-14.269258,-23.367889,-14.054298,-22.342607,-18.198435,-19.092035,-19.627651,-35.342068,-28.757774,-15.623688,-5.893806,-22.970901,14.996994,-90.687912,-34.466972,-22.240185,-10.516664,-9.806410,-12.532499,-1.952855,-21.592152,-3.900053,0.701877,-4.157128,-7.301006,0.307145,0.000000,195.000000,4.000000,,,,0.000000,4.000000,4.000000,4.000000,4.000000,4.000000,4.000000,4.000000,4.000000,4.000000,4.000000,4.000000,4.000000,4.000000,4.000000,4.000000,4.000000,4.000000,4.000000,4.000000,4.000000,4.000000,4.000000,4.000000,4.000000,4.000000,4.000000,4.000000,4.000000,4.000000,4.000000,4.000000,4.000000,100.000000
1614075967.069749,75.000000,0.000000,-6.475478,-3.230537,-9.404627,-2.802662,-2.490975,-9.512310,-14.254988,-30.524010,-21.219730,-23.345907,-30.487928,-19.585764,-33.454178,-47.101597,-44.113632,-35.608063,-5.887912,-23.460751,-0.402618,-88.545937,-36.996605,-8.371791,-11.018968,-10.822245,-12.519967,-1.950902,-18.493635,-3.896153,0.701175,-4.152971,-7.293705,1.332478,0.000000,196.000000,4.000000,,,,0.000000,4.000000,4.000000,4.000000,4.000000,4.000000,4.000000,4.000000,4.000000,4.000000,4.000000,4.000000,4.000000,4.000000,4.000000,4.000000,4.000000,4.000000,4.000000,4.000000,4.000000,4.000000,4.000000,4.000000,4.000000,4.000000,4.000000,4.000000,4.000000,4.000000,4.000000,4.000000,4.000000,100.000000
1614075967.077598,76.000000,0.000000,-5.443361,-3.227306,-9.395223,-3.312680,-2.488484,-10.528439,-14.753553,-27.929382,-22.224154,-21.784100,-35.585648,-23.668741,-38.548927,-49.105778,-53.300285,-41.213482,-11.523049,-24.462931,-5.530420,-98.200981,-42.087814,-2.722394,-10.495128,-10.298602,-12.507446,-7.589977,-17.962322,-3.892257,0.700474,-5.687280,-7.286411,-0.720136,0.000000,192.000000,4.000000,,,,0.000000,4.000000,4.000000,4.000000,4.000000,4.000000,4.000000,4.000000,4.000000,4.000000,4.000000,4.000000,4.000000,4.000000,4.000000,4.000000,4.000000,4.000000,4.000000,4.000000,4.000000,4.000000,4.000000,4.000000,4.000000,4.000000,4.000000,4.000000,4.000000,4.000000,4.000000,4.000000,4.000000,100.000000
1614075967.085347,77.000000,0.000000,-5.950739,-3.224079,-10.924289,-7.924752,-1.973175,-9.492270,-13.713160,-32.004017,-21.176287,-22.275135,-35.550060,-25.696356,-40.561661,-47.518211,-53.759808,-41.172268,-18.691013,-29.053852,-14.242839,-122.205345,-53.840599,-6.822236,-10.997454,-10.288303,-11.982119,-9.120849,-18.457180,-3.888365,1.212594,-8.245695,-7.279125,-3.283519,0.000000,187.000000,4.000000,,,,0.000000,4.000000,4.000000,4.000000,4.000000,4.000000,4.000000,4.000000,4.000000,4.000000,4.000000,4.000000,4.000000,4.000000,4.000000,4.000000,4.000000,4.000000,4.000000,4.000000,4.000000,4.000000,4.000000,4.000000,4.000000,4.000000,4.000000,4.000000,4.000000,4.000000,4.000000,4.000000,4.000000,100.000000
1614075967.093196,78.000000,0.000000,-6.457608,-3.733675,-13.477468,-10.480929,-1.971202,-11.021238,-12.160984,-30.433552,-18.078188,-23.278502,-30.386305,-17.465530,-41.033920,-50.034798,-54.218868,-47.797764,-22.262066,-39.281208,-32.177315,-138.493393,-65.068810,-7.328234,-11.499276,-10.790835,-15.047060,-7.573267,-18.951544,-3.884476,-0.327080,-8.237449,-7.271845,-3.280235,0.000000,171.000000,4.000000,,,,0.000000,4.000000,4.000000,4.000000,4.000000,4.000000,4.000000,4.000000,4.000000,4.000000,4.000000,4.000000,4.000000,4.000000,4.000000,4.000000,4.000000,4.000000,4.000000,4.000000,4.000000,4.000000,4.000000,4.000000,4.000000,4.000000,4.000000,4.000000,4.000000,4.000000,4.000000,4.000000,4.000000,100.000000
1614075967.100945,79.000000,0.000000,-6.451151,-2.704301,-13.463990,-7.393526,-2.994872,-7.933294,-11.123182,-12.454400,-11.906263,-19.152658,-19.073868,-10.781398,-31.249298,-43.830914,-56.215931,-39.032017,-22.239805,-35.139362,-23.427187,-137.842087,-66.542206,-7.833726,-11.487777,-11.292866,-16.570475,-8.591334,-18.932592,-3.880592,1.211709,-8.229212,-7.264574,-2.251314,0.000000,216.000000,4.000000,,,,0.000000,4.000000,4.000000,4.000000,4.000000,4.000000,4.000000,4.000000,4.000000,4.000000,4.000000,4.000000,4.000000,4.000000,4.000000,4.000000,4.000000,4.000000,4.000000,4.000000,4.000000,4.000000,4.000000,4.000000,4.000000,4.000000,4.000000,4.000000,4.000000,4.000000,4.000000,4.000000,4.000000,100.000000
1614075967.108794,80.000000,0.000000,-3.880597,2.426609,-12.424885,-5.847671,-1.453415,2.843870,-6.496675,-0.647074,-8.817434,-11.954019,-8.798384,-11.796258,-16.346252,-26.351187,-51.544331,-20.531446,-20.679104,-17.155506,5.314188,-136.165787,-61.860275,-15.005380,-10.450648,-11.794393,-13.476980,-8.069922,-18.400839,-3.876711,4.287420,-8.220983,-7.257309,-2.761883,0.000000,205.000000,4.000000,,,,0.000000,4.000000,4.000000,4.000000,4.000000,4.000000,4.000000,4.000000,4.000000,4.000000,4.000000,4.000000,4.000000,4.000000,4.000000,4.000000,4.000000,4.000000,4.000000,4.000000,4.000000,4.000000,4.000000,4.000000,4.000000,4.000000,4.000000,4.000000,4.000000,4.000000,4.000000,4.000000,4.000000,100.000000
1614075967.116543,81.000000,0.000000,-1.825434,2.937002,-12.412460,-6.354643,-1.964782,3.866667,-2.387614,-4.748991,-11.372720,-12.454885,-7.763944,-12.297282,-11.201701,-21.709452,-43.800480,-25.639120,-22.709705,-21.240915,4.796053,-138.080902,-59.234314,-19.092937,-11.978660,-10.756958,-13.463504,-8.574673,-19.408079,-3.872835,0.693389,-7.699941,-7.250051,-5.323224,0.000000,184.000000,4.000000,,,,0.000000,4.000000,4.000000,4.000000,4.000000,4.000000,4.000000,4.000000,4.000000,4.000000,4.000000,4.000000,4.000000,4.000000,4.000000,4.000000,4.000000,4.000000,4.000000,4.000000,4.000000,4.000000,4.000000,4.000000,4.000000,4.000000,4.000000,4.000000,4.000000,4.000000,4.000000,4.000000,4.000000,100.000000
1614075967.124392,82.000000,0.000000,-3.362071,-2.706960,-12.912868,-6.348289,-11.193586,-4.342328,-4.436508,-7.308344,-13.412629,-18.596277,-13.910027,-12.284985,-14.780244,-32.456974,-40.166935,-36.895531,-20.635714,-37.629929,-6.490794,-125.635124,-54.046875,-17.022564,-10.428219,-11.771842,-12.937220,-8.053278,-18.363029,-4.381783,-2.897048,-8.205062,-7.242802,-6.343542,0.000000,181.000000,4.000000,,,,0.000000,4.000000,4.000000,4.000000,4.000000,4.000000,4.000000,4.000000,4.000000,4.000000,4.000000,4.000000,4.000000,4.000000,4.000000,4.000000,4.000000,4.000000,4.000000,4.000000,4.000000,4.000000,4.000000,4.000000,4.000000,4.000000,4.000000,4.000000,4.000000,4.000000,4.000000,4.000000,4.000000,100.000000
1614075967.132141,83.000000,0.000000,-1.307426,-3.729894,-12.387135,-6.341940,-17.336239,-6.389267,-6.996174,-5.249754,-13.912037,-18.577681,-15.434578,-10.734239,-11.688540,-31.911695,-32.434460,-26.089405,-4.717642,-23.233326,12.490056,-93.714615,-37.069748,-13.415797,-1.187022,-10.734428,-1.129411,-3.942660,-7.575436,-2.838939,1.208413,-6.145575,-7.235559,-3.260275,0.000000,201.000000,4.000000,,,,0.000000,4.000000,4.000000,4.000000,4.000000,4.000000,4.000000,4.000000,4.000000,4.000000,4.000000,4.000000,4.000000,4.000000,4.000000,4.000000,4.000000,4.000000,4.000000,4.000000,4.000000,4.000000,4.000000,4.000000,4.000000,4.000000,4.000000,4.000000,4.000000,4.000000,4.000000,4.000000,4.000000,100.000000
1614075967.139990,84.000000,0.000000,6.386189,-0.136421,-11.861927,-5.822778,-13.729159,-6.382878,-1.860973,-6.270145,-13.385304,-12.918077,-5.162733,-6.108119,-1.420441,-20.597733,-17.017410,-8.627419,12.722973,2.430933,29.913464,-69.518341,-18.571142,-6.735714,7.532114,-1.492925,10.153770,-0.348974,5.252652,-0.271997,5.309769,-0.498403,-7.228323,-2.231374,0.000000,192.000000,4.000000,,,,0.000000,4.000000,4.000000,4.000000,4.000000,4.000000,4.000000,4.000000,4.000000,4.000000,4.000000,4.000000,4.000000,4.000000,4.000000,4.000000,4.000000,4.000000,4.000000,4.000000,4.000000,4.000000,4.000000,4.000000,4.000000,4.000000,4.000000,4.000000,4.000000,4.000000,4.000000,4.000000,4.000000,100.000000
1614075967.147739,85.000000,0.000000,9.456725,0.889357,-14.414167,-6.329776,-14.741072,-13.043162,0.704991,-7.289516,-15.423201,-11.366697,0.483455,-7.127652,2.170723,-20.064314,-10.333726,-1.952125,13.735890,0.377220,18.601498,-70.474464,-14.962827,0.450508,8.550223,11.841901,10.656437,-0.348625,8.324323,0.241095,4.278818,4.630301,-7.221095,-4.793245,0.000000,173.000000,4.000000,,,,0.000000,4.000000,4.000000,4.000000,4.000000,4.000000,4.000000,4.000000,4.000000,4.000000,4.000000,4.000000,4.000000,4.000000,4.000000,4.000000,4.000000,4.000000,4.000000,4.000000,4.000000,4.000000,4.000000,4.000000,4.000000,4.000000,4.000000,4.000000,4.000000,4.000000,4.000000,4.000000,4.000000,100.000000
1614075967.155588,86.000000,0.000000,6.370346,-0.137174,-22.092062,-10.938830,-23.957100,-18.671144,-4.423920,-7.282227,-18.997520,-11.868151,-7.722156,-12.248730,-5.523756,-26.198095,-16.477238,-7.591198,11.670873,-11.418029,11.916230,-77.070656,-15.973505,-1.088404,5.977570,15.932623,9.107319,-0.861097,7.290358,-0.271967,4.274539,4.112850,-7.213874,-6.326913,0.000000,168.000000,4.000000,,,,0.000000,4.000000,4.000000,4.000000,4.000000,4.000000,4.000000,4.000000,4.000000,4.000000,4.000000,4.000000,4.000000,4.000000,4.000000,4.000000,4.000000,4.000000,4.000000,4.000000,4.000000,4.000000,4.000000,4.000000,4.000000,4.000000,4.000000,4.000000,4.000000,4.000000,4.000000,4.000000,4.000000,100.000000
1614075967.163337,87.000000,0.000000,4.312693,0.375784,-27.198174,-14.004815,-24.958784,-18.139652,-7.496419,-6.762124,-21.029806,-11.343463,-13.355460,-12.749302,-11.159258,-27.710360,-24.153069,-23.481043,14.223305,-19.098919,11.904314,-78.019226,-13.906249,-2.625777,4.433131,14.378229,9.611032,-0.347415,7.795887,-0.271695,4.783085,-2.045110,-7.206660,-6.833406,0.000000,196.000000,4.000000,,,,0.000000,4.000000,4.000000,4.000000,4.000000,4.000000,4.000000,4.000000,4.000000,4.000000,4.000000,4.000000,4.000000,4.000000,4.000000,4.000000,4.000000,4.000000,4.000000,4.000000,4.000000,4.000000,4.000000,4.000000,4.000000,4.000000,4.000000,4.000000,4.000000,4.000000,4.000000,4.000000,4.000000,100.000000
1614075967.171186,88.000000,0.000000,5.334022,0.375408,-27.683796,-12.965169,-19.805620,-16.070230,-6.976102,-7.268182,-19.983135,-11.844939,-13.342104,-12.223732,-13.199381,-30.759571,-34.898148,-37.816536,9.593697,-34.464436,-8.107591,-96.915565,-26.200035,0.453772,3.915878,15.902312,6.011677,-0.347068,6.249630,0.241398,2.727020,-7.171269,-7.199453,-9.390676,0.000000,207.000000,4.000000,,,,0.000000,4.000000,4.000000,4.000000,4.000000,4.000000,4.000000,4.000000,4.000000,4.000000,4.000000,4.000000,4.000000,4.000000,4.000000,4.000000,4.000000,4.000000,4.000000,4.000000,4.000000,4.000000,4.000000,4.000000,4.000000,4.000000,4.000000,4.000000,4.000000,4.000000,4.000000,4.000000,4.000000,100.000000
1614075967.178935,89.000000,0.000000,4.815867,0.375033,-27.656113,-14.490665,-18.247353,-11.951597,-7.481946,-7.260914,-15.860588,-8.756171,-13.841582,-12.724329,-16.263103,-28.677530,-46.658119,-38.804359,-4.774872,-39.558174,-26.048201,-125.023773,-49.250759,-1.597964,3.399141,14.347949,-0.661001,-0.859541,0.089534,-0.784485,0.673011,-8.189739,-7.192254,-10.406926,0.000000,211.000000,4.000000,,,,0.000000,4.000000,4.000000,4.000000,4.000000,4.000000,4.000000,4.000000,4.000000,4.000000,4.000000,4.000000,4.000000,4.000000,4.000000,4.000000,4.000000,4.000000,4.000000,4.000000,4.000000,4.000000,4.000000,4.000000,4.000000,4.000000,4.000000,4.000000,4.000000,4.000000,4.000000,4.000000,4.000000,100.000000
1614075967.186584,90.000000,0.000000,4.811051,0.374658,-26.602816,-13.963354,-10.023976,-7.324261,-6.448823,-4.689550,-7.639599,2.021816,-1.520049,-9.634681,-8.041713,-9.674494,-40.970436,-25.945044,-11.949584,-20.031439,-12.688819,-134.642349,-51.765610,-6.724571,0.831639,6.641293,-5.275724,-0.345861,-4.525940,-3.347803,0.159517,-7.668729,-7.185061,-9.883698,0.000000,146.000000,4.000000,,,,0.000000,4.000000,4.000000,4.000000,4.000000,4.000000,4.000000,4.000000,4.000000,4.000000,4.000000,4.000000,4.000000,4.000000,4.000000,4.000000,4.000000,4.000000,4.000000,2.000000,4.000000,4.000000,4.000000,4.000000,4.000000,4.000000,4.000000,4.000000,4.000000,4.000000,4.000000,4.000000,4.000000,83.333336
1614075967.194333,91.000000,0.000000,4.806240,0.374283,-24.012110,-6.769904,3.319381,-5.778475,-1.314169,-1.095117,0.060348,10.737742,19.507113,-6.035303,9.915047,7.771078,-22.467928,-12.585765,-10.399173,-7.703714,5.785408,-132.969238,-40.431793,-7.743487,-0.707654,2.532088,-2.706346,-0.858336,-4.521414,-4.370096,0.672178,-7.661060,-7.177876,-10.386636,0.000000,204.000000,4.000000,,,,0.000000,4.000000,4.000000,4.000000,4.000000,4.000000,4.000000,4.000000,4.000000,4.000000,4.000000,4.000000,4.000000,4.000000,4.000000,4.000000,4.000000,4.000000,4.000000,2.000000,4.000000,4.000000,4.000000,4.000000,4.000000,4.000000,4.000000,4.000000,4.000000,4.000000,4.000000,4.000000,4.000000,83.333336
1614075967.201983,92.000000,0.000000,4.801434,0.373909,-23.475277,-4.199031,2.803241,-6.285517,1.251247,0.957260,1.598750,11.239825,25.128632,-3.465165,17.084620,8.276128,-11.676229,-11.547539,-11.414414,-17.952421,2.189879,-131.297806,-40.391361,-11.325487,-1.219767,3.042376,-3.216460,-3.421580,-4.516892,-3.852906,0.671506,-7.653399,-7.170699,-9.863428,0.000000,188.000000,4.000000,,,,0.000000,4.000000,4.000000,4.000000,4.000000,4.000000,4.000000,4.000000,4.000000,4.000000,4.000000,4.000000,4.000000,4.000000,4.000000,4.000000,4.000000,4.000000,4.000000,2.000000,4.000000,4.000000,4.000000,4.000000,4.000000,4.000000,4.000000,4.000000,4.000000,4.000000,4.000000,4.000000,4.000000,83.333336
1614075967.209732,93.000000,0.000000,4.796633,0.373535,-23.451801,-9.835857,-5.404691,-5.766411,0.224355,2.494764,0.571510,10.202944,21.000938,0.128044,16.041893,7.242210,-7.049168,-11.023170,-7.813257,-23.575495,-2.940516,-117.833176,-42.402252,-13.878264,-0.192906,3.552154,-11.418372,-4.956620,-4.512376,-3.849053,0.670835,-9.184207,-7.163528,-9.340744,0.000000,179.000000,4.000000,,,,0.000000,4.000000,4.000000,4.000000,4.000000,4.000000,4.000000,4.000000,4.000000,4.000000,4.000000,4.000000,4.000000,4.000000,4.000000,4.000000,4.000000,4.000000,4.000000,2.000000,4.000000,4.000000,4.000000,4.000000,4.000000,4.000000,4.000000,4.000000,4.000000,4.000000,4.000000,4.000000,4.000000,83.333336
1614075967.217381,94.000000,0.000000,4.791836,0.373161,-20.864248,-10.338842,-2.835184,-5.760644,0.224131,5.056372,1.083759,11.218382,22.005579,3.204839,19.615595,8.260610,-0.888272,0.269904,4.502249,-17.398073,7.318835,-97.202522,-36.718822,-8.223361,1.858569,3.035781,-13.458236,-4.951663,-2.456581,-3.845204,0.670164,-11.226305,-7.156364,-11.382686,0.000000,198.000000,4.000000,,,,0.000000,4.000000,4.000000,4.000000,4.000000,4.000000,4.000000,4.000000,4.000000,4.000000,4.000000,4.000000,4.000000,4.000000,4.000000,4.000000,4.000000,4.000000,4.000000,2.000000,4.000000,4.000000,4.000000,4.000000,4.000000,4.000000,4.000000,4.000000,4.000000,4.000000,4.000000,4.000000,4.000000,83.333336
1614075967.225130,95.000000,0.000000,4.787044,0.372788,-19.817743,-4.174657,2.808677,-6.267704,0.736727,3.000033,1.082675,10.694344,13.778444,2.175993,16.006235,-0.978420,-0.374564,-0.243186,12.702875,-14.816572,18.080748,-87.361732,-33.605183,-5.138214,2.882352,3.032746,-9.342214,-4.433891,0.109978,-4.354179,0.669494,-11.215079,-7.149208,-12.909764,0.000000,199.000000,4.000000,,,,0.000000,4.000000,4.000000,4.000000,4.000000,4.000000,4.000000,4.000000,4.000000,4.000000,4.000000,4.000000,4.000000,4.000000,4.000000,4.000000,4.000000,4.000000,4.000000,2.000000,4.000000,4.000000,4.000000,4.000000,4.000000,4.000000,4.000000,4.000000,4.000000,4.000000,4.000000,4.000000,4.000000,83.333336
1614075967.232779,96.000000,0.000000,4.782257,0.372416,-20.310745,-2.632021,1.267407,-6.774257,0.223170,0.432931,0.568772,7.606726,-2.645591,2.173817,2.144076,-11.746673,-8.579317,-13.063456,12.177352,-14.801755,17.037025,-85.735909,-34.597218,-7.184358,3.905110,2.516892,-10.358512,-4.942278,-0.915773,-3.837004,0.668824,-11.203864,-7.142059,-8.281470,8064.000000,0.000000,4.000000,,,,0.000000,4.000000,4.000000,4.000000,4.000000,4.000000,4.000000,4.000000,4.000000,4.000000,4.000000,4.000000,4.000000,4.000000,4.000000,4.000000,4.000000,4.000000,4.000000,2.000000,4.000000,4.000000,4.000000,4.000000,4.000000,4.000000,4.000000,4.000000,4.000000,4.000000,4.000000,4.000000,4.000000,83.333336
1614075967.240528,97.000000,0.000000,4.777475,0.372043,-17.213512,-0.578107,0.753319,-6.254663,-0.289874,2.996600,0.568203,6.060658,-7.258329,2.684464,-4.011914,-13.786208,-18.314327,-11.511930,11.652353,-12.735671,10.353321,-85.650169,-35.075443,-3.587430,8.003769,4.052837,-5.219949,-3.911695,-0.402037,-1.781885,1.180976,-11.192660,-7.134917,-5.196266,8064.000000,0.000000,4.000000,,,,0.000000,4.000000,4.000000,4.000000,4.000000,4.000000,4.000000,4.000000,4.000000,4.000000,4.000000,4.000000,4.000000,4.000000,4.000000,4.000000,4.000000,4.000000,4.000000,2.000000,4.000000,4.000000,4.000000,4.000000,4.000000,4.000000,4.000000,4.000000,4.000000,4.000000,4.000000,4.000000,4.000000,83.333336
1614075967.248177,98.000000,0.000000,4.772697,0.371671,-12.580914,3.525035,0.752566,-6.761228,0.223237,3.506424,0.567635,6.054597,-6.225430,1.656138,-7.084826,-16.336525,-24.962681,-9.961957,12.666343,-13.235756,4.701942,-86.077339,-35.040367,-0.506920,11.585509,6.612887,8.631425,0.194781,2.675288,0.271179,0.666974,-11.181467,-7.127782,-7.242352,8064.000000,0.000000,4.000000,,,,0.000000,4.000000,4.000000,4.000000,4.000000,4.000000,4.000000,4.000000,4.000000,4.000000,4.000000,4.000000,4.000000,4.000000,4.000000,4.000000,4.000000,4.000000,4.000000,2.000000,4.000000,4.000000,4.000000,4.000000,4.000000,4.000000,4.000000,4.000000,4.000000,4.000000,4.000000,4.000000,4.000000,83.333336
1614075967.255926,99.000000,0.000000,4.767925,0.371299,-6.927307,5.572792,1.777454,-6.241647,0.223013,0.938815,0.054247,5.535722,-7.244846,2.167303,-12.205946,-16.320189,-29.553102,-19.182764,12.140856,-8.094316,6.748523,-85.478447,-29.364300,1.544869,10.548283,6.606274,14.776640,5.322792,3.698254,-0.241913,0.666308,-11.170286,-7.120654,-3.645365,8064.000000,0.000000,4.000000,,,,0.000000,4.000000,4.000000,4.000000,4.000000,4.000000,4.000000,4.000000,4.000000,4.000000,4.000000,4.000000,4.000000,4.000000,4.000000,4.000000,4.000000,4.000000,4.000000,2.000000,4.000000,4.000000,4.000000,4.000000,4.000000,4.000000,4.000000,4.000000,4.000000,4.000000,4.000000,4.000000,4.000000,83.333336
1614075967.263576,100.000000,0.000000,4.763157,0.883749,0.259108,7.105681,7.416702,-2.132841,0.735611,2.476338,2.105474,9.119930,6.095733,6.267699,-6.039894,-0.919252,-29.523548,-7.881531,11.615894,5.247112,12.382800,-83.341682,-20.104166,8.209991,10.537734,10.189411,13.736222,7.881571,3.694556,-0.241671,1.691282,-10.646295,-7.113533,4.050588,8064.000000,0.000000,4.000000,,,,0.000000,4.000000,4.000000,4.000000,4.000000,4.000000,4.000000,4.000000,4.000000,4.000000,4.000000,4.000000,4.000000,4.000000,4.000000,4.000000,4.000000,4.000000,4.000000,2.000000,4.000000,4.000000,4.000000,4.000000,4.000000,4.000000,4.000000,4.000000,4.000000,4.000000,4.000000,4.000000,4.000000,83.333336
1614075967.271325,101.000000,0.000000,5.271214,0.882865,3.335772,9.149858,8.947747,2.997497,3.811798,8.627707,6.205933,19.367220,26.089636,9.338355,7.812300,23.697052,-16.160692,18.280197,11.604279,10.370070,11.344776,-84.283981,-19.058422,10.765883,11.552837,18.384350,12.696845,5.309587,3.178041,0.271391,-0.874512,-11.148469,-7.106420,3.533716,8064.000000,0.000000,4.000000,,,,0.000000,4.000000,4.000000,4.000000,4.000000,4.000000,4.000000,4.000000,4.000000,4.000000,4.000000,4.000000,4.000000,4.000000,4.000000,4.000000,4.000000,4.000000,4.000000,2.000000,4.000000,4.000000,4.000000,4.000000,4.000000,4.000000,4.000000,4.000000,4.000000,4.000000,4.000000,4.000000,4.000000,83.333336
1614075967.278974,102.000000,0.000000,4.240302,0.369161,2.306795,8.115067,8.938800,5.558602,7.397730,8.619081,8.251009,27.040161,33.755856,9.841837,16.009615,41.109253,8.470854,32.108070,11.592674,14.462264,12.871893,-86.763802,-20.577824,6.652554,7.951541,16.827503,7.555943,-0.336748,3.174863,-0.754521,-8.053124,-11.650142,-7.099313,0.966080,8064.000000,0.000000,4.000000,,,,0.000000,4.000000,4.000000,4.000000,4.000000,4.000000,4.000000,4.000000,4.000000,4.000000,4.000000,4.000000,4.000000,4.000000,4.000000,4.000000,4.000000,4.000000,4.000000,2.000000,4.000000,4.000000,4.000000,4.000000,4.000000,4.000000,4.000000,4.000000,4.000000,4.000000,4.000000,4.000000,4.000000,83.333336
1614075967.286723,103.000000,0.000000,4.748882,1.394433,2.817308,9.132592,12.519605,6.578685,9.441614,5.533538,8.242758,25.987480,32.696457,10.344815,21.121811,44.145065,30.000845,46.434937,11.581081,33.934982,26.705175,-86.677040,-17.993143,6.645901,3.328205,8.092728,1.907361,-4.438975,3.684508,-3.317869,-11.121994,-10.100030,-7.092214,4.042037,8064.000000,0.000000,4.000000,,,,0.000000,4.000000,4.000000,4.000000,4.000000,4.000000,4.000000,4.000000,4.000000,4.000000,4.000000,4.000000,4.000000,4.000000,4.000000,4.000000,4.000000,4.000000,4.000000,2.000000,4.000000,4.000000,4.000000,4.000000,4.000000,4.000000,4.000000,4.000000,4.000000,4.000000,4.000000,4.000000,4.000000,83.333336
1614075967.294372,104.000000,0.000000,5.256954,-0.145423,2.301671,9.123460,7.891700,1.443901,4.816788,5.015184,6.183233,16.217903,24.971455,8.796009,20.587870,28.203485,34.073406,54.593632,11.569500,38.003613,31.293854,-83.513435,-23.103355,7.664896,2.812056,6.546174,0.879813,-4.434536,2.655183,-4.340192,-10.085231,-7.013007,-7.085122,5.576457,8064.000000,0.000000,4.000000,,,,0.000000,4.000000,4.000000,4.000000,4.000000,4.000000,4.000000,4.000000,4.000000,4.000000,4.000000,4.000000,4.000000,4.000000,4.000000,4.000000,4.000000,4.000000,4.000000,2.000000,4.000000,4.000000,4.000000,4.000000,4.000000,4.000000,4.000000,4.000000,4.000000,4.000000,4.000000,4.000000,4.000000,83.333336
1614075967.302221,105.000000,0.000000,1.149133,-6.299123,-5.392939,-2.167715,-10.064910,-10.865235,-7.495721,0.394784,-3.566540,2.355531,5.972123,3.146188,10.310871,-0.029847,15.577795,23.256985,12.070751,13.350223,18.954868,-81.891464,-35.900764,0.990565,3.834885,7.052448,-0.659528,-4.430102,-1.962857,-3.823032,-10.587967,-8.544455,-7.078037,2.493957,8064.000000,0.000000,4.000000,,,,0.000000,4.000000,4.000000,4.000000,4.000000,4.000000,4.000000,4.000000,4.000000,4.000000,4.000000,4.000000,4.000000,4.000000,4.000000,4.000000,4.000000,4.000000,4.000000,2.000000,4.000000,4.000000,4.000000,4.000000,4.000000,4.000000,4.000000,4.000000,4.000000,4.000000,4.000000,4.000000,4.000000,83.333336
1614075967.309970,106.000000,0.000000,-2.954581,-10.908209,-12.567033,-14.473240,-18.772793,-19.059498,-15.180532,-10.887662,-14.332204,-4.826312,-6.854362,-1.472343,1.069791,-19.516996,-11.617270,-9.073964,12.571501,-2.047743,14.833349,-81.809570,-38.941788,-4.138631,3.318230,-1.159733,-1.684510,-4.938492,-4.524997,-3.819209,-10.064558,-11.612834,-7.070959,0.440181,8064.000000,0.000000,4.000000,,,,0.000000,4.000000,4.000000,4.000000,4.000000,4.000000,4.000000,4.000000,4.000000,4.000000,4.000000,4.000000,4.000000,4.000000,4.000000,4.000000,4.000000,4.000000,4.000000,2.000000,4.000000,4.000000,4.000000,4.000000,4.000000,4.000000,4.000000,4.000000,4.000000,4.000000,4.000000,4.000000,4.000000,83.333336
1614075967.317819,107.000000,0.000000,-1.413164,-10.897301,-11.528825,-12.920305,-12.600174,-16.989157,-12.088429,-15.492159,-11.753769,-4.821486,-5.821866,-1.983691,-0.469741,-17.959019,-21.862062,-5.987967,11.533288,4.620971,20.972363,-81.214943,-32.749001,1.506533,3.314912,-2.697034,1.906918,-4.420733,-0.930728,-3.815389,-7.490391,-6.985836,-7.063888,0.952561,8064.000000,0.000000,4.000000,,,,0.000000,4.000000,4.000000,4.000000,4.000000,4.000000,4.000000,4.000000,4.000000,4.000000,4.000000,4.000000,4.000000,4.000000,4.000000,4.000000,4.000000,4.000000,4.000000,2.000000,4.000000,4.000000,4.000000,4.000000,4.000000,4.000000,4.000000,4.000000,4.000000,4.000000,4.000000,4.000000,4.000000,83.333336
1614075967.325568,108.000000,0.000000,0.639531,-10.373583,-8.440373,-6.753538,-6.946548,-13.895245,-10.025059,-8.810000,-0.972785,-4.816664,1.363443,-0.956067,1.069191,-7.684649,-16.199175,17.094944,12.034575,8.718914,13.771902,-83.697830,-30.152149,4.069129,3.311597,10.126175,5.494755,-4.416313,3.172767,-3.811574,-6.457260,-0.312184,-7.056824,0.951609,8064.000000,0.000000,4.000000,,,,0.000000,4.000000,4.000000,4.000000,4.000000,4.000000,4.000000,4.000000,4.000000,4.000000,4.000000,4.000000,4.000000,4.000000,4.000000,4.000000,4.000000,4.000000,4.000000,2.000000,4.000000,4.000000,4.000000,4.000000,4.000000,4.000000,4.000000,4.000000,4.000000,4.000000,4.000000,4.000000,4.000000,83.333336
1614075967.333417,109.000000,0.000000,-1.925211,-10.876030,-8.944753,-6.233964,-6.426782,-13.881350,-11.553495,-5.211446,2.105111,-4.811848,7.003105,-1.980752,0.555301,-6.651323,-21.311180,15.539388,13.048182,3.581990,1.450438,-88.742332,-31.660458,-5.678530,3.821105,18.833998,6.514901,-4.411896,4.195235,-3.807762,-3.373879,0.713770,-7.049767,0.950657,8064.000000,0.000000,4.000000,,,,0.000000,4.000000,4.000000,4.000000,4.000000,4.000000,4.000000,4.000000,4.000000,4.000000,4.000000,4.000000,4.000000,4.000000,4.000000,4.000000,4.000000,4.000000,4.000000,2.000000,4.000000,4.000000,4.000000,4.000000,4.000000,4.000000,4.000000,4.000000,4.000000,4.000000,4.000000,4.000000,4.000000,83.333336
1614075967.341166,110.000000,0.000000,-3.461748,-10.352333,-9.448628,-7.253371,-7.958816,-13.867468,-11.029121,-13.924184,-3.025199,-7.883959,-2.234667,-7.106976,-13.291409,-19.978004,-38.725765,0.652053,5.342826,0.501485,3.500270,-95.833076,-30.603157,-12.852338,2.278823,17.276703,5.995566,-4.407485,1.114117,-3.803955,0.732059,-0.825406,-7.042717,0.949707,8064.000000,0.000000,4.000000,,,,0.000000,4.000000,4.000000,4.000000,4.000000,4.000000,4.000000,4.000000,4.000000,4.000000,4.000000,4.000000,4.000000,4.000000,4.000000,4.000000,4.000000,4.000000,4.000000,2.000000,4.000000,4.000000,4.000000,4.000000,4.000000,4.000000,4.000000,4.000000,4.000000,4.000000,4.000000,4.000000,4.000000,83.333336
1614075967.349015,111.000000,0.000000,-1.919824,-10.341981,-8.413539,-6.220477,-8.463678,-13.340780,-10.505272,-22.115387,-6.099097,-14.029922,-21.719612,-16.330639,-31.226835,-34.317001,-47.404991,0.138581,-7.995850,3.577907,9.137794,-103.429558,-30.059732,-11.301024,-1.313200,12.644041,3.938288,-4.403077,-5.040843,-3.800151,1.756968,0.201061,-7.035675,1.461578,8064.000000,0.000000,4.000000,,,,0.000000,4.000000,4.000000,4.000000,4.000000,4.000000,4.000000,4.000000,4.000000,4.000000,4.000000,4.000000,4.000000,4.000000,4.000000,4.000000,4.000000,4.000000,4.000000,2.000000,4.000000,4.000000,4.000000,4.000000,4.000000,4.000000,4.000000,4.000000,4.000000,4.000000,4.000000,4.000000,4.000000,83.333336
1614075967.356764,112.000000,0.000000,-3.969187,-10.331639,-8.405126,-5.701436,-6.916753,-12.814619,-9.981946,-19.529169,-6.605818,-16.579994,-22.210712,-21.442513,-30.169968,-30.692942,-46.844765,2.702545,-12.090418,5.112791,8.615837,-107.428688,-30.542494,-10.776903,-3.875989,7.503192,2.908709,-4.398674,-8.112726,-3.796351,1.242390,0.713680,-7.028639,1.460116,8064.000000,0.000000,4.000000,,,,0.000000,4.000000,4.000000,4.000000,4.000000,4.000000,4.000000,4.000000,4.000000,4.000000,4.000000,4.000000,4.000000,4.000000,4.000000,4.000000,4.000000,4.000000,4.000000,2.000000,4.000000,4.000000,4.000000,4.000000,4.000000,4.000000,4.000000,4.000000,4.000000,4.000000,4.000000,4.000000,4.000000,83.333336
1614075967.364613,113.000000,0.000000,-6.529320,-10.321307,-8.909541,-6.208555,-5.371375,-13.314625,-8.433502,-14.381435,-6.599212,-11.435208,-6.291067,-19.369789,-15.268002,-8.610966,-43.720997,-3.454004,-10.539866,-4.123092,8.094400,-107.321259,-30.511951,-11.791767,-4.384933,3.393125,0.341698,-4.394275,-7.591793,-3.792554,-0.297314,-1.851136,-7.021610,-1.105447,8064.000000,0.000000,4.000000,,,,0.000000,4.000000,4.000000,4.000000,4.000000,4.000000,4.000000,4.000000,4.000000,4.000000,4.000000,4.000000,4.000000,4.000000,4.000000,4.000000,4.000000,4.000000,4.000000,2.000000,4.000000,4.000000,4.000000,4.000000,4.000000,4.000000,4.000000,4.000000,4.000000,4.000000,4.000000,4.000000,4.000000,83.333336
1614075967.372362,114.000000,0.000000,-4.471509,-10.823807,-9.413452,-6.715167,-5.878824,-13.301310,-6.373787,-13.854234,-6.592613,-7.834030,-0.130929,-14.735034,-7.560426,9.859183,-27.779840,3.216117,-11.554968,-11.811276,8.086306,-108.239578,-30.994259,-11.779975,-4.380548,3.389731,-5.812490,-4.902701,-7.584201,-3.788762,-2.861119,-3.900567,-7.014589,-3.155623,8064.000000,0.000000,4.000000,,,,0.000000,4.000000,4.000000,4.000000,4.000000,4.000000,4.000000,4.000000,4.000000,4.000000,4.000000,4.000000,4.000000,4.000000,4.000000,4.000000,4.000000,4.000000,4.000000,2.000000,4.000000,4.000000,4.000000,4.000000,4.000000,4.000000,4.000000,4.000000,4.000000,4.000000,4.000000,4.000000,4.000000,83.333336
1614075967.380211,115.000000,0.000000,-1.902935,-10.300162,-8.378398,-6.195632,-5.872945,-13.288009,-6.367413,-14.353200,-7.098841,-7.826196,-2.182080,-12.156197,-3.963122,10.874966,-1.085393,24.751362,-6.928028,-2.568696,9.103861,-107.105698,-34.040188,-11.255375,-3.863347,1.847880,-9.396421,-5.410619,-8.602258,-3.784973,-3.371078,-3.383846,-7.007574,-2.126827,8064.000000,0.000000,4.000000,,,,0.000000,4.000000,4.000000,4.000000,4.000000,4.000000,4.000000,4.000000,4.000000,4.000000,4.000000,4.000000,4.000000,4.000000,4.000000,4.000000,4.000000,4.000000,4.000000,2.000000,4.000000,4.000000,4.000000,4.000000,4.000000,4.000000,4.000000,4.000000,4.000000,4.000000,4.000000,4.000000,4.000000,83.333336
1614075967.387960,116.000000,0.000000,-2.413852,-9.777041,-9.908481,-5.676615,-5.867072,-13.274720,-7.899507,-13.826026,-6.578922,-7.818370,-1.667078,-12.144040,1.681867,2.146142,8.659282,29.341995,4.360951,7.177463,14.735783,-102.383209,-38.621532,-11.244120,-3.859484,-2.769352,-9.899845,-7.456491,-7.568014,-3.268368,-2.854887,-6.970206,-7.000566,-5.201623,8064.000000,0.000000,4.000000,,,,0.000000,4.000000,4.000000,4.000000,4.000000,4.000000,4.000000,4.000000,4.000000,4.000000,4.000000,4.000000,4.000000,4.000000,4.000000,4.000000,4.000000,4.000000,4.000000,2.000000,4.000000,4.000000,4.000000,4.000000,4.000000,4.000000,4.000000,4.000000,4.000000,4.000000,4.000000,4.000000,4.000000,83.333336
1614075967.395809,117.000000,0.000000,-2.924259,-10.792906,-15.539598,-7.209400,-5.348384,-13.774266,-9.942889,-13.299379,-6.572343,-7.297731,-4.229513,-12.131896,1.680185,-9.650876,-7.246813,11.363935,9.484796,-3.598945,13.695406,-99.203903,-36.531628,-11.232875,-4.368445,-3.792224,-9.889946,-9.500317,-6.534805,-5.316381,-3.877673,-11.578620,-6.993566,-11.350267,8064.000000,0.000000,4.000000,,,,0.000000,4.000000,4.000000,4.000000,4.000000,4.000000,4.000000,4.000000,4.000000,4.000000,4.000000,4.000000,4.000000,4.000000,4.000000,4.000000,4.000000,4.000000,4.000000,2.000000,4.000000,4.000000,4.000000,4.000000,4.000000,4.000000,4.000000,4.000000,4.000000,4.000000,4.000000,4.000000,4.000000,83.333336
1614075967.403559,118.000000,0.000000,-2.408514,-9.243651,-15.524058,-5.150908,-2.778933,-12.734851,-10.445767,-10.721977,-6.565771,-7.803254,-9.353489,-11.606944,-7.552265,-20.923277,-26.726746,-8.134608,8.449670,-16.928680,9.066325,-96.540596,-27.264328,-11.221642,-3.338436,-1.737150,-3.726210,-5.901073,-8.066732,-7.362347,0.228769,-4.387554,-6.986572,-6.210712,8064.000000,0.000000,4.000000,,,,0.000000,4.000000,4.000000,4.000000,4.000000,4.000000,4.000000,4.000000,4.000000,4.000000,4.000000,4.000000,4.000000,4.000000,4.000000,4.000000,4.000000,4.000000,4.000000,2.000000,4.000000,4.000000,4.000000,4.000000,4.000000,4.000000,4.000000,4.000000,4.000000,4.000000,4.000000,4.000000,4.000000,83.333336
1614075967.411408,119.000000,0.000000,-2.406106,-4.619023,-7.816226,-0.017553,-1.750513,-10.158013,-10.435322,-7.121512,-6.559205,-7.795450,-9.344135,-12.108157,-14.211379,-23.979277,-34.392326,-18.895704,7.928400,-15.886110,12.134182,-91.315849,-21.083218,-11.723241,-1.283815,0.315870,4.482645,1.797136,-6.520204,-7.354984,6.382386,6.898884,-6.466765,5.590370,8064.000000,0.000000,4.000000,,,,0.000000,4.000000,4.000000,4.000000,4.000000,4.000000,4.000000,4.000000,4.000000,4.000000,4.000000,4.000000,4.000000,4.000000,4.000000,4.000000,4.000000,4.000000,4.000000,2.000000,4.000000,4.000000,4.000000,4.000000,4.000000,4.000000,4.000000,4.000000,4.000000,4.000000,4.000000,4.000000,4.000000,83.333336
1614075967.419157,120.000000,0.000000,-2.403699,-3.075942,-5.757128,1.008106,-3.800045,-9.635036,-10.424886,-6.088749,-6.552645,-7.787655,-8.821971,-12.096049,-13.684347,-22.416836,-34.357933,-6.569116,8.946113,-6.639455,12.634869,-86.609154,-19.010853,-12.224339,0.255930,4.418118,5.503803,7.949185,1.691445,-7.347630,7.401645,7.404806,-6.973119,7.636062,8064.000000,0.000000,4.000000,,,,0.000000,4.000000,4.000000,4.000000,4.000000,4.000000,4.000000,4.000000,4.000000,4.000000,4.000000,4.000000,4.000000,4.000000,4.000000,4.000000,4.000000,4.000000,4.000000,2.000000,4.000000,4.000000,4.000000,4.000000,4.000000,4.000000,4.000000,4.000000,4.000000,4.000000,4.000000,4.000000,4.000000,83.333336
1614075967.426806,121.000000,0.000000,-2.401296,-6.149789,-8.315474,-2.069825,-5.847527,-9.625401,-10.414461,-6.595481,-6.546093,-8.292687,-9.838790,-12.596773,-14.696304,-24.445702,-37.400501,17.027197,8.424346,-1.504610,4.929926,-87.548180,-18.479021,-10.673653,-0.257146,8.003443,7.036761,8.454057,4.253856,-7.340282,5.342961,7.397401,-6.966146,4.038682,8064.000000,0.000000,4.000000,,,,0.000000,4.000000,4.000000,4.000000,4.000000,4.000000,4.000000,4.000000,4.000000,4.000000,4.000000,4.000000,4.000000,4.000000,4.000000,4.000000,4.000000,4.000000,4.000000,2.000000,4.000000,4.000000,4.000000,4.000000,4.000000,4.000000,4.000000,4.000000,4.000000,4.000000,4.000000,4.000000,4.000000,83.333336
1614075967.434555,122.000000,0.000000,-2.398895,-6.656460,-6.255876,-2.580576,-5.841679,-7.564493,-10.916867,-6.588886,-6.539546,-7.258754,-6.239207,-11.558536,-14.681607,-19.805870,-35.824638,16.497349,6.364639,-0.990285,1.335253,-96.691406,-27.178492,-12.201441,-0.256889,5.944158,4.978442,2.291757,-4.981167,-7.332942,0.722234,7.902824,-6.446359,4.547464,8064.000000,0.000000,4.000000,,,,0.000000,4.000000,4.000000,4.000000,4.000000,4.000000,4.000000,4.000000,4.000000,4.000000,4.000000,4.000000,4.000000,4.000000,4.000000,4.000000,4.000000,4.000000,4.000000,2.000000,4.000000,4.000000,4.000000,4.000000,4.000000,4.000000,4.000000,4.000000,4.000000,4.000000,4.000000,4.000000,4.000000,83.333336
1614075967.442204,123.000000,0.000000,-2.396496,-6.136983,-5.736800,-3.603636,-5.835838,-5.505646,-9.880309,-6.582297,-7.045828,-3.148931,1.459339,-9.495695,-3.384875,-4.914270,-20.404198,9.814185,3.794172,-0.989295,-2.768647,-109.415222,-42.535927,-12.189240,-0.256632,0.297188,-9.898332,-7.966946,-12.668494,-7.325609,-7.483617,-2.874309,-7.978374,5.568558,8064.000000,0.000000,4.000000,,,,0.000000,4.000000,4.000000,4.000000,4.000000,4.000000,4.000000,4.000000,4.000000,4.000000,4.000000,4.000000,4.000000,4.000000,4.000000,4.000000,4.000000,4.000000,4.000000,2.000000,4.000000,4.000000,4.000000,4.000000,4.000000,4.000000,4.000000,4.000000,4.000000,4.000000,4.000000,4.000000,4.000000,83.333336
1614075967.449953,124.000000,0.000000,-2.394099,-6.643667,-10.859268,-6.164135,-5.830002,-5.500141,-7.306326,-6.575715,-6.525961,-0.068859,6.073265,-7.947738,8.413382,4.321414,-6.537640,26.214626,3.790378,4.139900,-1.740237,-108.792992,-45.057495,-2.433460,-0.256376,-0.728750,-17.067921,-12.574363,-11.117364,-7.318283,-10.553056,-11.076563,-10.021678,4.537348,8064.000000,0.000000,4.000000,,,,0.000000,4.000000,4.000000,4.000000,4.000000,4.000000,4.000000,4.000000,4.000000,4.000000,4.000000,4.000000,4.000000,4.000000,4.000000,4.000000,4.000000,4.000000,4.000000,2.000000,4.000000,4.000000,4.000000,4.000000,4.000000,4.000000,4.000000,4.000000,4.000000,4.000000,4.000000,4.000000,4.000000,83.333336
1614075967.457602,125.000000,0.000000,-2.391705,-6.124202,-10.335588,-6.670792,-5.824172,-6.007461,-6.273379,-7.081959,-6.519435,-0.068790,6.067192,-9.478251,8.404968,4.317092,-3.967000,36.444824,6.350690,11.315247,21.338427,-94.325218,-31.166283,9.363845,-0.256119,0.297619,-5.768801,-12.048968,-11.106246,-7.310965,-7.465580,-4.911640,-11.037297,4.532811,8064.000000,0.000000,4.000000,,,,0.000000,4.000000,4.000000,4.000000,4.000000,4.000000,4.000000,4.000000,4.000000,4.000000,4.000000,4.000000,4.000000,4.000000,4.000000,4.000000,4.000000,4.000000,4.000000,2.000000,4.000000,4.000000,4.000000,4.000000,4.000000,4.000000,4.000000,4.000000,4.000000,4.000000,4.000000,4.000000,4.000000,83.333336
1614075967.465351,126.000000,0.000000,-2.389313,-7.656540,-5.709868,-6.664121,-6.331168,-6.001453,-6.779926,-5.536416,-7.025736,-0.581542,6.061124,-7.417491,8.396564,3.287134,2.190814,30.767353,7.882801,14.893676,35.163242,-82.948845,-21.904348,11.918584,-0.255863,-1.241140,-1.660468,-12.036920,-12.120781,-7.303654,-6.432474,0.734297,-10.513440,4.528278,8064.000000,0.000000,4.000000,,,,0.000000,4.000000,4.000000,4.000000,4.000000,4.000000,4.000000,4.000000,4.000000,4.000000,4.000000,4.000000,4.000000,4.000000,4.000000,4.000000,4.000000,4.000000,4.000000,2.000000,4.000000,4.000000,4.000000,4.000000,4.000000,4.000000,4.000000,4.000000,4.000000,4.000000,4.000000,4.000000,4.000000,83.333336
1614075967.473001,127.000000,0.000000,-2.386924,-9.700166,-4.678517,-6.144636,-5.299196,-5.995452,-6.773147,1.135787,-5.993070,-0.068140,6.055063,-4.333151,12.490731,3.796668,7.829648,32.275047,7.874918,12.827499,19.743464,-78.250511,-22.908085,9.855383,-0.255607,-0.214257,-5.761372,-12.024882,-7.493276,-7.296350,-5.400400,-0.292078,-10.502926,5.036571,8064.000000,0.000000,4.000000,,,,0.000000,4.000000,4.000000,4.000000,4.000000,4.000000,4.000000,4.000000,4.000000,4.000000,4.000000,4.000000,4.000000,4.000000,4.000000,4.000000,4.000000,4.000000,4.000000,2.000000,4.000000,4.000000,4.000000,4.000000,4.000000,4.000000,4.000000,4.000000,4.000000,4.000000,4.000000,4.000000,4.000000,83.333336
1614075967.480750,0.000000,0.000000,-2.384537,-10.716106,-5.186659,-3.574389,-3.242615,-5.989457,-6.766373,4.724395,-1.884513,-0.580892,6.049008,-5.354459,8.375676,4.305691,0.642332,29.678669,8.379864,9.737749,17.672438,-76.120979,-22.885176,11.383989,-0.255352,4.914162,-0.114585,-11.500037,-0.819116,-7.289054,-2.830897,0.221034,-10.492423,5.031534,0.000000,193.000000,4.000000,,,,0.000000,4.000000,4.000000,4.000000,4.000000,4.000000,4.000000,4.000000,4.000000,4.000000,4.000000,4.000000,4.000000,4.000000,4.000000,4.000000,4.000000,4.000000,4.000000,2.000000,4.000000,4.000000,4.000000,4.000000,4.000000,4.000000,4.000000,4.000000,4.000000,4.000000,4.000000,4.000000,4.000000,83.333336
1614075967.488399,1.000000,0.000000,-2.382153,-10.192570,-4.668652,-3.570815,-2.213731,-5.983467,-6.759607,5.232491,1.194295,-0.580311,6.042959,-1.246540,1.700634,4.814206,-7.050618,10.161811,8.884304,8.702371,33.552200,-73.993576,-17.221266,12.398247,-0.255096,8.498991,7.065017,-11.488537,0.720165,-7.281765,-2.315246,-0.804828,-10.481931,4.513682,0.000000,181.000000,4.000000,,,,0.000000,4.000000,4.000000,4.000000,4.000000,4.000000,4.000000,4.000000,4.000000,4.000000,4.000000,4.000000,4.000000,4.000000,4.000000,4.000000,4.000000,4.000000,4.000000,2.000000,4.000000,4.000000,4.000000,4.000000,4.000000,4.000000,4.000000,4.000000,4.000000,4.000000,4.000000,4.000000,4.000000,83.333336
1614075967.496148,2.000000,0.000000,-2.379770,-10.182377,-4.663983,-5.618526,-1.698697,-5.977484,-6.752847,5.740079,1.705921,-0.066911,4.498455,6.447014,1.186113,0.706828,-11.146132,-4.207325,8.362599,7.155206,31.467367,-73.406761,-10.024557,10.847386,-0.254841,6.952031,7.057952,-7.887305,0.206624,-7.274483,-1.800110,1.760080,-10.471449,5.021988,0.000000,200.000000,4.000000,,,,0.000000,4.000000,4.000000,4.000000,4.000000,4.000000,4.000000,4.000000,4.000000,4.000000,4.000000,4.000000,4.000000,4.000000,4.000000,4.000000,4.000000,4.000000,4.000000,2.000000,4.000000,4.000000,4.000000,4.000000,4.000000,4.000000,4.000000,4.000000,4.000000,4.000000,4.000000,4.000000,4.000000,83.333336
1614075967.503797,3.000000,0.000000,-2.377391,-10.172194,-4.659319,-6.125728,-2.209819,-5.971506,-6.746094,1.118954,0.678574,-1.605305,1.417033,0.799541,-3.430458,-4.422084,-21.391396,-2.151836,8.354237,7.148051,17.589745,-78.974380,-10.527352,9.810898,0.258234,7.970720,7.050894,-3.264033,1.232059,-7.267209,-2.311130,8.424986,-10.460978,6.042608,0.000000,187.000000,4.000000,,,,0.000000,4.000000,4.000000,4.000000,4.000000,4.000000,4.000000,4.000000,4.000000,4.000000,4.000000,4.000000,4.000000,4.000000,4.000000,4.000000,4.000000,4.000000,4.000000,2.000000,4.000000,4.000000,4.000000,4.000000,4.000000,4.000000,4.000000,4.000000,4.000000,4.000000,4.000000,4.000000,4.000000,83.333336
1614075967.511546,4.000000,0.000000,-2.375013,-10.162023,-4.654660,-6.119602,-4.258891,-5.965535,-6.739348,-9.651395,-2.399027,-4.167802,-1.661307,-16.124334,-12.657797,-2.366380,-27.523851,7.593905,7.320241,7.140903,7.315745,-91.203102,-26.414261,12.365190,-0.254845,8.988390,0.889997,-5.312051,-2.358917,-7.259941,-9.488306,-0.301388,-10.450517,0.908360,0.000000,192.000000,4.000000,,,,0.000000,4.000000,4.000000,4.000000,4.000000,4.000000,4.000000,4.000000,4.000000,4.000000,4.000000,4.000000,4.000000,4.000000,4.000000,4.000000,4.000000,4.000000,4.000000,2.000000,4.000000,4.000000,4.000000,4.000000,4.000000,4.000000,4.000000,4.000000,4.000000,4.000000,4.000000,4.000000,4.000000,83.333336
1614075967.519195,5.000000,0.000000,-2.885459,-10.151860,-7.726929,-6.113482,-5.793094,-5.446749,-7.245430,-15.282769,-6.499192,-4.676455,-3.198107,-21.749237,-15.722062,-5.440937,-29.034788,4.509388,-2.430668,-2.609828,-2.947981,-107.522156,-43.823746,6.711799,-2.305872,0.774274,-12.957047,-10.434944,-13.638610,-7.252681,-14.094203,-19.275446,-10.440066,-5.759215,0.000000,183.000000,4.000000,,,,0.000000,4.000000,4.000000,4.000000,4.000000,4.000000,4.000000,4.000000,4.000000,4.000000,4.000000,4.000000,4.000000,4.000000,4.000000,4.000000,4.000000,4.000000,4.000000,2.000000,4.000000,4.000000,4.000000,4.000000,4.000000,4.000000,4.000000,4.000000,4.000000,4.000000,4.000000,4.000000,4.000000,83.333336
1614075967.526944,6.000000,0.000000,-2.369753,-10.141708,-8.744843,-5.594549,-6.300121,-7.492584,-6.725364,-14.241846,-7.518334,-4.671779,-6.271832,-18.650564,-15.193520,-21.845753,-41.313446,-21.648968,-17.300032,-22.094397,-11.150161,-124.850525,-48.395306,-10.730810,-3.842027,-8.970091,-17.559475,-10.937329,-21.317278,-7.245429,-13.567287,-20.281811,-10.429626,-5.753456,0.000000,187.000000,4.000000,,,,0.000000,4.000000,4.000000,4.000000,4.000000,4.000000,4.000000,4.000000,4.000000,4.000000,4.000000,4.000000,4.000000,4.000000,4.000000,4.000000,4.000000,4.000000,4.000000,2.000000,4.000000,4.000000,4.000000,4.000000,4.000000,4.000000,4.000000,4.000000,4.000000,4.000000,4.000000,4.000000,4.000000,83.333336
1614075967.534594,7.000000,0.000000,-2.880203,-10.131567,-8.223277,-8.665877,-5.781000,-9.536373,-6.718638,-14.227604,-6.485175,-5.692748,-8.316842,-20.170376,-16.716787,-34.131599,-49.477261,-36.499111,-23.949400,-34.379993,-19.344139,-137.546188,-50.398193,-20.976490,-4.351006,-13.063684,-16.003452,-12.464854,-22.321602,-7.238183,-16.117823,-15.646144,-10.419196,-10.363087,0.000000,177.000000,4.000000,,,,0.000000,4.000000,4.000000,4.000000,4.000000,4.000000,4.000000,4.000000,4.000000,4.000000,4.000000,4.000000,4.000000,4.000000,4.000000,4.000000,4.000000,4.000000,4.000000,2.000000,4.000000,4.000000,4.000000,4.000000,4.000000,4.000000,4.000000,4.000000,4.000000,4.000000,4.000000,4.000000,4.000000,83.333336
1614075967.542443,8.000000,0.000000,-2.877323,-10.634255,-15.394541,-12.759775,-5.775219,-9.526837,-7.737561,-14.726197,-6.478690,-7.738338,-8.821346,-21.175846,-16.700071,-35.635929,-37.632912,-21.077999,-20.335707,-29.730230,-20.863256,-130.229156,-53.424717,-17.878590,-3.321014,-20.230108,-19.064373,-15.529312,-24.350563,-7.743765,-16.614527,-21.784344,-10.408777,-19.583494,0.000000,196.000000,4.000000,,,,0.000000,4.000000,4.000000,4.000000,4.000000,4.000000,4.000000,4.000000,4.000000,4.000000,4.000000,4.000000,4.000000,4.000000,4.000000,4.000000,4.000000,4.000000,4.000000,2.000000,4.000000,4.000000,4.000000,4.000000,4.000000,4.000000,4.000000,4.000000,4.000000,4.000000,4.000000,4.000000,4.000000,83.333336
1614075967.550192,9.000000,0.000000,-0.310343,-9.597980,-19.994532,-10.695733,-6.282265,-9.517310,-6.191361,-11.634547,-8.010673,-9.781881,-10.350986,-11.923901,-13.093627,-32.010548,-23.749125,-10.287689,-9.546140,-19.956911,3.260171,-105.483543,-40.037960,-12.732507,-1.266411,-22.773981,-16.994026,-11.924039,-19.710827,-7.223201,-7.879962,-16.634356,-10.398369,-18.025448,0.000000,179.000000,4.000000,,,,0.000000,4.000000,4.000000,4.000000,4.000000,4.000000,4.000000,4.000000,4.000000,4.000000,4.000000,4.000000,4.000000,4.000000,4.000000,4.000000,4.000000,4.000000,4.000000,2.000000,4.000000,4.000000,4.000000,4.000000,4.000000,4.000000,4.000000,4.000000,4.000000,4.000000,4.000000,4.000000,4.000000,83.333336
1614075967.558041,10.000000,0.000000,4.305352,-7.537100,-7.666844,-7.095294,-5.250341,-10.020614,0.481497,-4.443426,-5.951380,-4.643894,-7.263712,0.908536,-4.362585,-18.645205,-16.545889,-8.226120,4.309560,-17.372850,25.821014,-85.890877,-19.997921,-9.130031,0.273317,-8.905053,-3.643699,-4.732628,-2.768040,-3.626235,-1.205416,-1.745926,-10.387970,-10.827935,0.000000,199.000000,4.000000,,,,0.000000,4.000000,4.000000,4.000000,4.000000,4.000000,4.000000,4.000000,4.000000,4.000000,4.000000,4.000000,4.000000,4.000000,4.000000,4.000000,4.000000,4.000000,4.000000,2.000000,4.000000,4.000000,4.000000,4.000000,4.000000,4.000000,4.000000,4.000000,4.000000,4.000000,4.000000,4.000000,4.000000,83.333336
1614075967.565790,11.000000,0.000000,7.890790,-5.991102,6.186976,-5.549737,-2.680988,-9.497772,5.096400,1.202043,1.234059,4.591519,1.461500,4.497371,2.308444,-4.780406,-11.913958,9.218003,11.484738,-19.919580,22.205448,-81.702423,-16.388180,-7.069618,0.273044,4.437186,3.539432,-3.189434,9.029600,-0.545685,-2.229851,1.845564,-10.377582,-9.791467,0.000000,201.000000,4.000000,,,,0.000000,4.000000,4.000000,4.000000,4.000000,4.000000,4.000000,4.000000,4.000000,4.000000,4.000000,4.000000,4.000000,4.000000,4.000000,4.000000,4.000000,4.000000,4.000000,2.000000,4.000000,4.000000,4.000000,4.000000,4.000000,4.000000,4.000000,4.000000,4.000000,4.000000,4.000000,4.000000,4.000000,83.333336
1614075967.573639,12.000000,0.000000,8.395720,-6.497931,5.155149,-3.492906,-1.652666,-9.488275,4.578483,1.713662,5.335389,6.638210,6.588244,1.928771,0.254854,-3.237164,-14.978967,19.465197,11.986073,-12.207354,22.183243,-81.620720,-18.423073,-7.575369,-0.240050,4.432748,2.510251,-4.724706,7.994929,0.480502,-3.253263,-0.207564,-10.367205,-8.756034,0.000000,163.000000,4.000000,,,,0.000000,4.000000,4.000000,4.000000,4.000000,4.000000,4.000000,4.000000,4.000000,4.000000,4.000000,4.000000,4.000000,4.000000,4.000000,4.000000,4.000000,4.000000,4.000000,2.000000,4.000000,4.000000,4.000000,4.000000,4.000000,4.000000,4.000000,4.000000,4.000000,4.000000,4.000000,4.000000,4.000000,83.333336
1614075967.581388,13.000000,0.000000,8.900145,-7.004254,1.560250,-4.002233,-2.676655,-9.991607,4.061084,0.173487,4.304412,3.041828,4.530374,3.978125,1.793061,-4.772388,-18.553732,14.830346,12.999728,6.779213,29.340548,-80.000641,-17.379009,-7.054973,-0.239810,3.915495,1.994921,-3.694340,7.474114,-0.032799,-2.224369,-0.207356,-10.356837,-6.183176,0.000000,198.000000,4.000000,,,,0.000000,4.000000,4.000000,4.000000,4.000000,4.000000,4.000000,4.000000,4.000000,4.000000,4.000000,4.000000,4.000000,4.000000,4.000000,4.000000,4.000000,4.000000,4.000000,2.000000,4.000000,4.000000,4.000000,4.000000,4.000000,4.000000,4.000000,4.000000,4.000000,4.000000,4.000000,4.000000,4.000000,83.333336
1614075967.589237,14.000000,0.000000,8.891244,-2.894686,2.584330,-5.536693,-1.648337,-9.468795,4.569843,1.711775,3.787287,3.038786,0.423279,2.948505,2.304088,-6.818898,-19.047998,12.251413,10.422626,9.849357,16.490694,-86.074486,-28.130861,-6.535098,0.273251,1.860298,3.018567,-3.690646,7.979460,-0.032767,-2.222144,-4.822534,-10.346480,-5.664172,0.000000,177.000000,4.000000,,,,0.000000,4.000000,4.000000,4.000000,4.000000,4.000000,4.000000,4.000000,4.000000,4.000000,4.000000,4.000000,4.000000,4.000000,4.000000,4.000000,4.000000,4.000000,4.000000,2.000000,4.000000,4.000000,4.000000,4.000000,4.000000,4.000000,4.000000,4.000000,4.000000,4.000000,4.000000,4.000000,4.000000,83.333336
1614075967.596986,15.000000,0.000000,5.292609,0.697953,3.094567,-3.479874,1.943055,-6.895223,4.052453,0.171601,4.809141,3.548568,-6.756631,-7.823674,-13.595652,-17.068489,-33.387924,-3.658274,-0.869848,-18.878441,-2.500156,-104.962769,-47.589909,-10.118306,-2.291125,-2.756947,3.015548,-4.199776,3.356096,-0.032734,-2.732743,-6.868993,-9.823314,-2.581585,0.000000,181.000000,4.000000,,,,0.000000,4.000000,4.000000,4.000000,4.000000,4.000000,4.000000,4.000000,4.000000,4.000000,4.000000,4.000000,4.000000,4.000000,4.000000,4.000000,4.000000,4.000000,4.000000,2.000000,4.000000,4.000000,4.000000,4.000000,4.000000,4.000000,4.000000,4.000000,4.000000,4.000000,4.000000,4.000000,4.000000,83.333336
1614075967.604835,16.000000,0.000000,0.671932,-0.841207,2.065831,-3.989214,1.428291,-5.349866,4.048400,-7.520878,3.265871,0.980917,-13.929362,-18.072260,-24.351288,-22.692448,-46.175049,-25.705898,-10.612568,-37.321102,-5.574579,-124.344986,-55.747448,-14.210752,-7.929860,-3.267011,1.986892,-4.195576,-0.749824,-0.032701,-3.242830,-4.810842,-10.839131,0.497920,0.000000,201.000000,4.000000,,,,0.000000,4.000000,4.000000,4.000000,4.000000,4.000000,4.000000,4.000000,4.000000,4.000000,4.000000,4.000000,4.000000,4.000000,4.000000,4.000000,4.000000,4.000000,4.000000,2.000000,4.000000,4.000000,4.000000,4.000000,4.000000,4.000000,4.000000,4.000000,4.000000,4.000000,4.000000,4.000000,4.000000,83.333336
1614075967.612584,17.000000,0.000000,0.671260,-3.404468,2.063765,-6.036507,0.401222,-6.370158,4.044352,-10.590281,0.185682,1.492756,-6.223125,-15.490086,-9.967961,-12.926165,-30.231440,-12.346859,-8.037852,-19.335062,-2.492081,-124.733459,-45.435291,-15.222182,-7.409109,-5.827847,1.984905,-4.191380,-0.236254,-0.032668,-2.213946,-6.857313,-9.802651,1.523063,0.000000,194.000000,4.000000,,,,0.000000,4.000000,4.000000,4.000000,4.000000,4.000000,4.000000,4.000000,4.000000,4.000000,4.000000,4.000000,4.000000,4.000000,4.000000,4.000000,4.000000,4.000000,4.000000,2.000000,4.000000,4.000000,4.000000,4.000000,4.000000,4.000000,4.000000,4.000000,4.000000,4.000000,4.000000,4.000000,4.000000,83.333336
1614075967.620433,18.000000,0.000000,3.747512,-0.324140,2.061701,0.123375,6.554667,-4.312505,4.553128,-3.400203,0.185496,6.106648,8.654893,-5.218185,1.836879,-1.118367,-9.688387,13.819334,-0.850327,-0.854189,2.125796,-109.224113,-27.441137,-14.694139,-2.273495,-6.847660,5.572663,-4.187189,-0.236017,-0.032636,0.352370,-4.286353,-6.715925,5.111284,0.000000,178.000000,4.000000,,,,0.000000,4.000000,4.000000,4.000000,4.000000,4.000000,4.000000,4.000000,4.000000,4.000000,4.000000,4.000000,4.000000,4.000000,4.000000,4.000000,4.000000,4.000000,4.000000,2.000000,4.000000,4.000000,4.000000,4.000000,4.000000,4.000000,4.000000,4.000000,4.000000,4.000000,4.000000,4.000000,4.000000,83.333336
1614075967.628182,19.000000,0.000000,4.256585,1.727466,2.059640,4.225816,12.701959,0.820012,4.035755,4.295505,5.313516,8.151823,13.774444,-0.597582,1.322221,0.934034,-7.114596,19.446541,3.253087,0.172306,8.277516,-98.345657,-18.182926,-14.679445,0.292881,1.364316,6.079911,-4.183002,-0.235781,-0.032603,0.864838,-0.179503,-7.222030,3.567711,0.000000,201.000000,4.000000,,,,0.000000,4.000000,4.000000,4.000000,4.000000,4.000000,4.000000,4.000000,4.000000,4.000000,4.000000,4.000000,4.000000,4.000000,4.000000,4.000000,4.000000,4.000000,4.000000,2.000000,4.000000,4.000000,4.000000,4.000000,4.000000,4.000000,4.000000,4.000000,4.000000,4.000000,4.000000,4.000000,4.000000,83.333336
1614075967.636031,20.000000,0.000000,5.277969,0.187277,2.057580,2.170308,12.176435,2.357654,4.031719,4.804030,8.385125,4.553928,13.760669,-1.109805,6.449104,0.420279,-8.133122,27.119402,3.762655,10.941365,13.397444,-96.708855,-17.651922,-14.664766,-0.220232,5.978337,-0.592835,-4.178819,0.277275,-0.032571,-1.700129,-5.820349,-10.291731,-6.692267,0.000000,191.000000,4.000000,,,,0.000000,4.000000,4.000000,4.000000,4.000000,4.000000,4.000000,4.000000,4.000000,4.000000,4.000000,4.000000,4.000000,4.000000,4.000000,4.000000,4.000000,4.000000,4.000000,2.000000,4.000000,4.000000,4.000000,4.000000,4.000000,4.000000,4.000000,4.000000,4.000000,4.000000,4.000000,4.000000,4.000000,83.333336
1614075967.643780,21.000000,0.000000,7.836794,1.212731,2.055522,5.245061,9.087337,1.329655,4.540507,2.235124,5.812637,-1.604472,13.746908,-1.108696,5.929834,-7.272449,-10.689092,29.143564,4.271712,20.161192,21.076355,-89.945473,-17.121450,-14.650101,-0.220012,-0.694308,-5.720448,-4.174640,-2.287105,-0.032538,-3.236891,-3.763247,-8.230157,-7.198395,0.000000,193.000000,4.000000,,,,0.000000,4.000000,4.000000,4.000000,4.000000,4.000000,4.000000,4.000000,4.000000,4.000000,4.000000,4.000000,4.000000,4.000000,4.000000,4.000000,4.000000,4.000000,4.000000,2.000000,4.000000,4.000000,4.000000,4.000000,4.000000,4.000000,4.000000,4.000000,4.000000,4.000000,4.000000,4.000000,4.000000,83.333336
1614075967.651429,22.000000,0.000000,8.854598,4.288441,2.566288,9.855201,7.026967,1.841146,3.510326,1.207247,4.268363,-4.166970,0.399828,-0.081946,-9.973532,-24.701075,-22.986095,0.909293,4.780261,2.705134,23.619381,-82.676041,-18.642790,-14.635451,0.293028,-4.796178,-5.201907,-4.170465,-2.797638,-0.032505,-2.720833,4.445645,-3.093722,-0.524530,0.000000,166.000000,4.000000,,,,0.000000,4.000000,4.000000,4.000000,4.000000,4.000000,4.000000,4.000000,4.000000,4.000000,4.000000,4.000000,4.000000,4.000000,4.000000,4.000000,4.000000,4.000000,4.000000,2.000000,4.000000,4.000000,4.000000,4.000000,4.000000,4.000000,4.000000,4.000000,4.000000,4.000000,4.000000,4.000000,4.000000,83.333336
1614075967.659178,23.000000,0.000000,6.794462,4.284153,1.025260,3.178679,2.917376,0.813664,-0.595748,1.206040,4.776916,-4.675623,-18.062111,-1.107505,-19.194326,-34.419964,-31.168238,-13.963411,4.262661,-11.656546,17.954735,-90.285675,-24.265173,-14.620815,-0.220085,-3.252920,-6.222346,-4.166295,-3.307661,-0.032473,-2.718112,-5.815211,-2.577808,-2.062467,0.000000,196.000000,4.000000,,,,0.000000,4.000000,4.000000,4.000000,4.000000,4.000000,4.000000,4.000000,4.000000,4.000000,4.000000,4.000000,4.000000,4.000000,4.000000,4.000000,4.000000,4.000000,4.000000,2.000000,4.000000,4.000000,4.000000,4.000000,4.000000,4.000000,4.000000,4.000000,4.000000,4.000000,4.000000,4.000000,4.000000,83.333336
1614075967.666827,24.000000,0.000000,4.736385,1.715766,-1.539868,-2.978346,0.863177,-3.802535,-3.672076,0.692014,1.182395,-8.260692,-21.120972,-5.721782,-17.636671,-28.231697,-30.624249,9.640295,4.258398,-0.875658,16.911139,-100.451797,-31.420395,-14.606194,-0.219865,-3.249667,-8.780226,-3.649308,-8.432559,-0.032440,-2.715394,-12.988883,-3.600871,-2.060405,0.000000,173.000000,4.000000,,,,0.000000,4.000000,4.000000,4.000000,4.000000,4.000000,4.000000,4.000000,4.000000,4.000000,4.000000,4.000000,4.000000,4.000000,4.000000,4.000000,4.000000,4.000000,4.000000,2.000000,4.000000,4.000000,4.000000,4.000000,4.000000,4.000000,4.000000,4.000000,4.000000,4.000000,4.000000,4.000000,4.000000,83.333336
1614075967.674577,25.000000,0.000000,4.731649,0.688409,-2.051149,-0.924086,0.862313,-6.362834,-3.155583,1.204142,-3.434172,-8.252431,-13.920363,-8.792983,-17.619034,-19.998337,-31.106445,19.887066,4.254139,2.202141,8.689100,-99.838524,-40.619743,-16.130051,0.293175,-3.759238,-9.284266,-4.158479,-9.962587,-0.032408,-2.712679,-4.257946,-3.084450,-0.007062,0.000000,228.000000,4.000000,,,,0.000000,4.000000,4.000000,4.000000,4.000000,4.000000,4.000000,4.000000,4.000000,4.000000,4.000000,4.000000,4.000000,4.000000,4.000000,4.000000,4.000000,4.000000,4.000000,2.000000,4.000000,4.000000,4.000000,4.000000,4.000000,4.000000,4.000000,4.000000,4.000000,4.000000,4.000000,4.000000,4.000000,83.333336
1614075967.682226,26.000000,0.000000,5.239738,0.687720,-1.536277,1.640941,1.374272,-5.843651,-3.152428,1.202938,-3.430738,-7.731358,-12.367981,-8.271370,-17.601416,-17.927055,-31.075338,0.379999,4.249885,-20.364164,-14.909332,-101.789970,-50.322716,-18.165201,-1.758400,-5.806761,-11.839085,-5.692782,-7.901343,-0.032376,-2.197146,-9.894713,-2.568544,-6.673722,0.000000,152.000000,4.000000,,,,0.000000,4.000000,4.000000,4.000000,4.000000,4.000000,4.000000,4.000000,4.000000,4.000000,4.000000,4.000000,4.000000,4.000000,4.000000,4.000000,4.000000,4.000000,4.000000,2.000000,4.000000,4.000000,4.000000,4.000000,4.000000,4.000000,4.000000,4.000000,4.000000,4.000000,4.000000,4.000000,4.000000,83.333336
1614075967.689975,27.000000,0.000000,4.721677,0.687033,-1.534741,1.126480,0.860077,-5.837808,-3.149275,-1.875188,-2.914487,-13.877473,-14.406896,-8.775919,-18.609455,-18.421949,-30.531443,-19.620380,4.245636,-40.856621,-25.150833,-111.944588,-55.913418,-18.659857,-3.807924,-9.390698,-12.340066,-7.738371,-15.585750,-0.032343,-3.220589,-18.602768,-3.078796,-8.205510,0.000000,205.000000,4.000000,,,,0.000000,4.000000,4.000000,4.000000,4.000000,4.000000,4.000000,4.000000,4.000000,4.000000,4.000000,4.000000,4.000000,4.000000,4.000000,4.000000,4.000000,4.000000,4.000000,2.000000,4.000000,4.000000,4.000000,4.000000,4.000000,4.000000,4.000000,4.000000,4.000000,4.000000,4.000000,4.000000,4.000000,83.333336
1614075967.697624,28.000000,0.000000,4.716956,0.686346,-1.533206,0.612533,0.859217,-6.344790,-3.146126,-5.975877,-3.424393,-11.299493,-11.315565,-8.254323,-17.565205,-18.403528,-31.013731,-21.652042,4.754210,-34.149097,-10.766708,-112.345467,-50.216476,-17.615557,-3.804116,-10.919768,-9.763623,-7.730633,-21.211189,-0.032311,-2.191728,-6.789292,-3.075718,2.059106,0.000000,182.000000,4.000000,,,,0.000000,4.000000,4.000000,4.000000,4.000000,4.000000,4.000000,4.000000,4.000000,4.000000,4.000000,4.000000,4.000000,4.000000,4.000000,4.000000,4.000000,4.000000,4.000000,2.000000,4.000000,4.000000,4.000000,4.000000,4.000000,4.000000,4.000000,4.000000,4.000000,4.000000,4.000000,4.000000,4.000000,83.333336
1614075967.705373,29.000000,0.000000,5.737880,-0.339982,-1.531673,1.124740,1.371178,-5.825625,-4.681441,-6.482722,-3.420968,4.096422,-6.176044,-5.681966,-9.342511,-15.821021,-25.341692,-6.245775,4.749456,-10.525205,4.115853,-97.874146,-33.243183,-13.495377,-3.287491,-11.421670,-9.241039,-7.210082,-14.010490,-0.032279,-2.189536,-7.295324,-3.072642,6.159611,0.000000,207.000000,4.000000,,,,0.000000,4.000000,4.000000,4.000000,4.000000,4.000000,4.000000,4.000000,4.000000,4.000000,4.000000,4.000000,4.000000,4.000000,4.000000,4.000000,4.000000,4.000000,4.000000,2.000000,4.000000,4.000000,4.000000,4.000000,4.000000,4.000000,4.000000,4.000000,4.000000,4.000000,4.000000,4.000000,4.000000,83.333336
1614075967.713022,30.000000,0.000000,3.680860,-2.390924,-1.530141,1.123616,3.421089,-5.819799,-6.728042,-7.501880,-2.904727,11.784634,-4.118587,-4.137822,-3.692143,-11.702636,-16.085581,12.734829,4.231886,5.382757,14.368148,-86.494225,-20.389429,-8.866497,-3.797024,-9.871786,-8.206157,-8.228513,-10.406736,0.480574,-6.289911,-16.518797,-3.069569,4.614990,0.000000,195.000000,4.000000,,,,0.000000,4.000000,4.000000,4.000000,4.000000,4.000000,4.000000,4.000000,4.000000,4.000000,4.000000,4.000000,4.000000,4.000000,4.000000,4.000000,4.000000,4.000000,4.000000,2.000000,4.000000,4.000000,4.000000,4.000000,4.000000,4.000000,4.000000,4.000000,4.000000,4.000000,4.000000,4.000000,4.000000,83.333336
1614075967.720771,31.000000,0.000000,1.113076,-3.414174,-1.015791,1.122492,5.468950,-5.813980,-6.721314,-10.058480,-2.901822,6.644644,-5.140109,-4.133684,-8.303836,-11.690933,-15.043855,17.850300,4.740475,7.428656,22.558908,-86.920547,-22.933142,-6.806348,-3.280406,-4.733709,-3.069746,-7.707464,-15.011715,-0.032727,-9.873364,-6.245869,-3.066500,6.661657,0.000000,176.000000,4.000000,,,,0.000000,4.000000,4.000000,4.000000,4.000000,4.000000,4.000000,4.000000,4.000000,4.000000,4.000000,4.000000,4.000000,4.000000,4.000000,4.000000,4.000000,4.000000,4.000000,2.000000,4.000000,4.000000,4.000000,4.000000,4.000000,4.000000,4.000000,4.000000,4.000000,4.000000,4.000000,4.000000,4.000000,83.333336
1614075967.728421,32.000000,0.000000,1.624784,-2.897939,-2.040416,1.121370,4.950660,-5.808166,-7.740233,-10.561243,-2.898920,6.125178,-5.134969,-4.129550,-10.859634,-14.756166,-19.131374,16.806808,3.710093,7.421227,24.587631,-91.961830,-30.602516,-8.338003,-4.815588,-4.728976,-4.092317,-7.186936,-14.996703,-1.571156,-7.299388,-2.649879,-3.063433,7.680636,8064.000000,0.000000,4.000000,,,,0.000000,4.000000,4.000000,4.000000,4.000000,4.000000,4.000000,4.000000,4.000000,4.000000,4.000000,4.000000,4.000000,4.000000,4.000000,4.000000,4.000000,4.000000,4.000000,2.000000,4.000000,4.000000,4.000000,4.000000,4.000000,4.000000,4.000000,4.000000,4.000000,4.000000,4.000000,4.000000,4.000000,83.333336
1614075967.736170,33.000000,0.000000,0.597518,-2.895041,-1.012734,1.120248,4.945710,-5.802357,-10.296596,-11.063502,-2.896021,8.170336,-4.617013,-7.202344,-9.310313,-14.228589,-23.727629,13.713078,-2.960284,7.926627,25.075863,-96.485252,-32.110374,-11.919409,-10.964619,-12.929375,-11.780533,-9.231031,-14.468885,-3.620867,-6.779269,-18.031845,-3.060370,5.108853,8064.000000,0.000000,4.000000,,,,0.000000,4.000000,4.000000,4.000000,4.000000,4.000000,4.000000,4.000000,4.000000,4.000000,4.000000,4.000000,4.000000,4.000000,4.000000,4.000000,4.000000,4.000000,4.000000,2.000000,4.000000,4.000000,4.000000,4.000000,4.000000,4.000000,4.000000,4.000000,4.000000,4.000000,4.000000,4.000000,4.000000,83.333336
1614075967.743819,34.000000,0.000000,-4.531285,-2.892146,2.065201,1.119128,4.940764,-5.796555,-10.799120,-14.129361,-2.893125,5.598063,-5.125217,-13.861809,-10.839464,-14.214360,-31.909029,-1.685250,-10.136810,2.277674,22.486685,-99.978516,-31.052624,-14.471592,-15.569038,-19.583113,-13.820034,-10.760262,-17.018518,-5.155707,-9.849412,-17.500992,-3.057309,4.078103,8064.000000,0.000000,4.000000,,,,0.000000,4.000000,4.000000,4.000000,4.000000,4.000000,4.000000,4.000000,4.000000,4.000000,4.000000,4.000000,4.000000,4.000000,4.000000,4.000000,4.000000,4.000000,4.000000,2.000000,4.000000,4.000000,4.000000,4.000000,4.000000,4.000000,4.000000,4.000000,4.000000,4.000000,4.000000,4.000000,4.000000,83.333336
1614075967.751568,35.000000,0.000000,-7.090856,-2.889254,0.011854,0.605188,4.935823,-6.303579,-10.788321,-11.551129,-2.890232,2.515541,-5.120091,-15.899229,-6.213240,-13.687325,-33.928402,-5.786129,-11.152315,-1.314347,13.746250,-101.417000,-32.560032,-13.944301,-14.015008,-18.025068,-9.190829,-9.211040,-15.975860,-7.201834,-8.813922,-4.150158,-3.054252,5.099666,8064.000000,0.000000,4.000000,,,,0.000000,4.000000,4.000000,4.000000,4.000000,4.000000,4.000000,4.000000,4.000000,4.000000,4.000000,4.000000,4.000000,4.000000,4.000000,4.000000,4.000000,4.000000,4.000000,2.000000,4.000000,4.000000,4.000000,4.000000,4.000000,4.000000,4.000000,4.000000,4.000000,4.000000,4.000000,4.000000,4.000000,83.333336
1614075967.759217,36.000000,0.000000,-4.006842,-2.886365,-5.116363,1.117404,4.930887,-6.810096,-9.751891,-4.872912,-2.887342,2.513026,-5.114972,-12.806406,5.587845,-6.494151,-22.612421,16.783760,-7.038598,2.276711,10.655581,-100.289940,-33.040295,-11.879074,-11.436890,-11.853196,-5.079074,-7.150547,-14.421422,-7.707452,-5.728185,-1.581905,-3.051198,5.094566,8064.000000,0.000000,4.000000,,,,0.000000,4.000000,4.000000,4.000000,4.000000,4.000000,4.000000,4.000000,4.000000,4.000000,4.000000,4.000000,4.000000,4.000000,4.000000,4.000000,4.000000,4.000000,4.000000,2.000000,4.000000,4.000000,4.000000,4.000000,4.000000,4.000000,4.000000,4.000000,4.000000,4.000000,4.000000,4.000000,4.000000,83.333336
1614075967.767066,37.000000,0.000000,-1.951553,-2.883478,-5.624067,1.629107,4.925957,-4.752004,-7.690857,-1.791116,-2.884455,3.023333,-5.109857,-11.255138,9.172001,-3.410734,-14.384682,26.510567,-0.877714,-0.289668,11.157745,-97.112724,-33.007252,-10.841554,-10.399812,-7.225958,-5.073996,-7.656217,-14.407001,-7.186924,-6.235277,-4.144426,-3.048147,2.525369,8064.000000,0.000000,4.000000,,,,0.000000,4.000000,4.000000,4.000000,4.000000,4.000000,4.000000,4.000000,4.000000,4.000000,4.000000,4.000000,4.000000,4.000000,4.000000,4.000000,4.000000,4.000000,4.000000,2.000000,4.000000,4.000000,4.000000,4.000000,4.000000,4.000000,4.000000,4.000000,4.000000,4.000000,4.000000,4.000000,4.000000,83.333336
1614075967.774815,38.000000,0.000000,-2.975243,-2.880595,-4.592802,-0.936625,4.921031,-5.772893,-6.657526,-2.302145,-2.881570,3.533130,-5.104747,-12.269525,6.085906,-8.022708,-16.934399,3.407132,1.174446,-18.238096,-2.699566,-100.605354,-41.179375,-10.830712,-10.389412,-7.218733,-7.633024,-7.648561,-14.392594,-7.179738,-6.229042,-7.730025,-3.045099,-1.579720,8064.000000,0.000000,4.000000,,,,0.000000,4.000000,4.000000,4.000000,4.000000,4.000000,4.000000,4.000000,4.000000,4.000000,4.000000,4.000000,4.000000,4.000000,4.000000,4.000000,4.000000,4.000000,4.000000,2.000000,4.000000,4.000000,4.000000,4.000000,4.000000,4.000000,4.000000,4.000000,4.000000,4.000000,4.000000,4.000000,4.000000,83.333336
1614075967.782664,39.000000,0.000000,-2.459447,-2.877714,-5.101030,-2.474150,4.916110,-7.305582,-6.138048,-2.812664,-2.878689,2.503956,-5.099642,-11.744434,4.028538,-11.604428,-19.481567,-18.647556,-4.980574,-35.655754,-22.696867,-115.376549,-54.471527,-13.383984,-14.481587,-8.749975,-9.163853,-7.640912,-15.403842,-7.172558,-6.222813,-10.286398,-3.042053,-3.116602,8064.000000,0.000000,4.000000,,,,0.000000,4.000000,4.000000,4.000000,4.000000,4.000000,4.000000,4.000000,4.000000,4.000000,4.000000,4.000000,4.000000,4.000000,4.000000,4.000000,4.000000,4.000000,4.000000,2.000000,4.000000,4.000000,4.000000,4.000000,4.000000,4.000000,4.000000,4.000000,4.000000,4.000000,4.000000,4.000000,4.000000,83.333336
1614075967.790413,40.000000,0.000000,-2.456987,-2.874837,-5.095929,2.656530,6.962475,5.009417,-4.080627,-1.271389,-2.875810,3.014273,-5.094543,-11.219870,-1.103696,-10.567183,-18.436445,-16.577627,-11.129440,-29.979074,-19.597246,-121.927834,-55.442699,-15.421882,-18.056849,-12.330969,-8.129047,-7.633271,-13.337156,-7.165385,-6.216590,-6.686368,-0.987729,-2.600665,8064.000000,0.000000,4.000000,,,,0.000000,4.000000,4.000000,4.000000,4.000000,4.000000,4.000000,4.000000,4.000000,4.000000,4.000000,4.000000,4.000000,4.000000,4.000000,4.000000,4.000000,4.000000,4.000000,2.000000,4.000000,4.000000,4.000000,4.000000,4.000000,4.000000,4.000000,4.000000,4.000000,4.000000,4.000000,4.000000,4.000000,83.333336
1614075967.798262,41.000000,0.000000,-2.454530,-2.871962,-6.116474,9.320539,9.519615,16.286459,-2.538085,-2.808579,-2.360114,6.601002,-5.089448,-11.721470,-6.743618,-10.043796,-18.418009,-5.278998,-8.041388,-8.923454,4.524915,-110.011040,-41.028282,-11.816716,-15.474689,-15.395561,-9.146560,-7.625638,-8.708435,-7.158220,-3.133451,-3.602758,1.577361,-2.598064,8064.000000,0.000000,4.000000,,,,0.000000,4.000000,4.000000,4.000000,4.000000,4.000000,4.000000,4.000000,4.000000,4.000000,4.000000,4.000000,4.000000,4.000000,4.000000,4.000000,4.000000,4.000000,4.000000,2.000000,4.000000,4.000000,4.000000,4.000000,4.000000,4.000000,4.000000,4.000000,4.000000,4.000000,4.000000,4.000000,4.000000,83.333336
1614075967.806011,42.000000,0.000000,-2.964896,-2.869090,-8.161639,9.311219,8.484455,7.039402,-3.048368,-9.472438,-3.896215,4.030299,-5.084358,-12.222569,-6.736875,-11.059393,-19.425232,1.392947,-3.930782,2.880341,21.956287,-97.593330,-30.730843,-7.702336,-15.459215,-10.251961,-9.137413,-7.618012,-7.674085,-7.151062,-2.104676,-8.727361,-0.475498,-2.595466,8064.000000,0.000000,4.000000,,,,0.000000,4.000000,4.000000,4.000000,4.000000,4.000000,4.000000,4.000000,4.000000,4.000000,4.000000,4.000000,4.000000,4.000000,4.000000,4.000000,4.000000,4.000000,4.000000,2.000000,4.000000,4.000000,4.000000,4.000000,4.000000,4.000000,4.000000,4.000000,4.000000,4.000000,4.000000,4.000000,4.000000,83.333336
1614075967.813860,43.000000,0.000000,-2.961931,-2.866221,-9.179119,4.173703,3.347765,-6.300970,-3.045319,-14.078350,-6.456421,-5.717321,-4.566453,-11.697526,-6.730137,-10.535513,-18.892986,4.468477,-2.901210,3.390281,23.472792,-93.905998,-28.648829,-7.694633,-14.930935,-4.600683,-5.025712,-8.123215,-7.666411,-7.143910,-5.179494,-11.795556,-2.526305,-2.592871,8064.000000,0.000000,4.000000,,,,0.000000,4.000000,4.000000,4.000000,4.000000,4.000000,4.000000,4.000000,4.000000,4.000000,4.000000,4.000000,4.000000,4.000000,4.000000,4.000000,4.000000,4.000000,4.000000,2.000000,4.000000,4.000000,4.000000,4.000000,4.000000,4.000000,4.000000,4.000000,4.000000,4.000000,4.000000,4.000000,4.000000,83.333336
1614075967.821609,44.000000,0.000000,-1.933329,-2.863354,-8.144299,1.605427,0.780315,-6.294669,-3.042274,-13.038630,-6.449965,-8.788527,-3.536246,-10.660188,-5.184946,-10.012156,-17.848452,6.002470,1.717076,6.463814,23.962141,-89.709526,-19.902231,1.031010,-4.659594,-4.083261,-0.918122,-6.063809,-2.530540,-7.136766,-4.148674,-10.758120,-2.523779,-2.590278,8064.000000,0.000000,4.000000,,,,0.000000,4.000000,4.000000,4.000000,4.000000,4.000000,4.000000,4.000000,4.000000,4.000000,4.000000,4.000000,4.000000,4.000000,4.000000,4.000000,4.000000,4.000000,4.000000,2.000000,4.000000,4.000000,4.000000,4.000000,4.000000,4.000000,4.000000,4.000000,4.000000,4.000000,4.000000,4.000000,4.000000,83.333336
1614075967.829458,45.000000,0.000000,-2.444216,-2.860491,-8.136154,1.091001,1.292355,-5.775554,-3.039232,-14.051232,-6.443515,-5.189995,-4.558351,-12.700809,-3.128479,-11.027785,-19.369064,4.458006,7.356384,5.944530,23.938179,-85.004433,-9.625919,11.286389,4.575835,1.049027,-0.917204,-3.493643,0.548914,-7.129630,0.470859,-10.234541,-4.572537,-2.587687,8064.000000,0.000000,4.000000,,,,0.000000,4.000000,4.000000,4.000000,4.000000,4.000000,4.000000,4.000000,4.000000,4.000000,4.000000,4.000000,4.000000,4.000000,4.000000,4.000000,4.000000,4.000000,4.000000,2.000000,4.000000,4.000000,4.000000,4.000000,4.000000,4.000000,4.000000,4.000000,4.000000,4.000000,4.000000,4.000000,4.000000,83.333336
1614075967.837207,46.000000,0.000000,-3.980233,-2.857631,-9.153659,0.577089,-0.247399,-10.385163,-3.036192,-15.062822,-6.949892,-4.671985,-7.117895,-12.175288,-4.150991,-11.529578,-20.375336,7.017651,8.887489,2.861662,21.862957,-86.457886,-11.667575,1.018692,4.058438,10.278747,-1.429107,-4.515790,-0.477276,-7.122500,1.496030,-11.249948,-7.132067,-2.072279,8064.000000,0.000000,4.000000,,,,0.000000,4.000000,4.000000,4.000000,4.000000,4.000000,4.000000,4.000000,4.000000,4.000000,4.000000,4.000000,4.000000,4.000000,4.000000,4.000000,4.000000,4.000000,4.000000,2.000000,4.000000,4.000000,4.000000,4.000000,4.000000,4.000000,4.000000,4.000000,4.000000,4.000000,4.000000,4.000000,4.000000,83.333336
1614075967.845056,47.000000,0.000000,3.203234,-2.854773,-8.118864,1.602153,-2.811254,-10.374778,-3.545977,-6.329811,-6.942942,-4.667313,-4.033854,-2.419523,-2.095558,-10.492408,-14.201115,19.318325,7.852961,9.525467,25.430838,-85.858612,-19.861036,-11.290018,3.541559,12.319750,-1.427678,-3.485633,5.677047,-7.115377,1.494534,-10.725877,-5.073653,-3.608669,8064.000000,0.000000,4.000000,,,,0.000000,4.000000,4.000000,4.000000,4.000000,4.000000,4.000000,4.000000,4.000000,4.000000,4.000000,4.000000,4.000000,4.000000,4.000000,4.000000,4.000000,4.000000,4.000000,2.000000,4.000000,4.000000,4.000000,4.000000,4.000000,4.000000,4.000000,4.000000,4.000000,4.000000,4.000000,4.000000,4.000000,83.333336
1614075967.852805,48.000000,0.000000,11.405159,-2.851918,-8.110745,0.062089,-2.808443,-9.338762,-3.029610,-2.220917,-6.935999,-6.201107,-7.619564,1.685461,-2.606283,-16.635761,-17.776657,15.196444,7.845108,4.900557,18.738741,-84.747108,-28.559124,-6.150523,7.127761,11.281790,-1.426250,-0.918045,14.902140,-7.108262,0.467398,-10.715151,-2.504477,-5.656342,8064.000000,0.000000,4.000000,,,,0.000000,4.000000,4.000000,4.000000,4.000000,4.000000,4.000000,4.000000,4.000000,4.000000,4.000000,4.000000,4.000000,4.000000,4.000000,4.000000,4.000000,4.000000,4.000000,2.000000,4.000000,4.000000,4.000000,4.000000,4.000000,4.000000,4.000000,4.000000,4.000000,4.000000,4.000000,4.000000,4.000000,83.333336
1614075967.860654,49.000000,0.000000,5.239908,-5.413169,-12.718019,-6.091819,-2.805634,-11.893526,-3.026581,-15.039209,-10.518806,-15.425675,-27.099123,-8.572635,-13.885728,-29.952459,-36.220421,-14.049522,5.785981,-21.258190,-6.921023,-90.816208,-37.248512,-5.631552,6.094993,10.757688,-1.424824,-1.942768,14.887238,-7.613975,-4.148454,-11.217257,-5.066075,-6.676327,8064.000000,0.000000,4.000000,,,,0.000000,4.000000,4.000000,4.000000,4.000000,4.000000,4.000000,4.000000,4.000000,4.000000,4.000000,4.000000,4.000000,4.000000,4.000000,4.000000,4.000000,4.000000,4.000000,2.000000,4.000000,4.000000,4.000000,4.000000,4.000000,4.000000,4.000000,4.000000,4.000000,4.000000,4.000000,4.000000,4.000000,83.333336
1614075967.868403,50.000000,0.000000,-3.483281,-7.971859,-15.782225,-9.162650,-2.290008,-14.445735,-3.536375,-20.152374,-11.021109,-17.974352,-32.200230,-12.153806,-15.923124,-26.332764,-37.209839,-18.650858,3.728913,-20.724112,-10.503846,-91.751038,-32.083061,-11.779767,5.063257,4.593083,-2.449040,-3.992107,10.769786,-7.093540,-6.195588,-11.206039,-6.599470,-6.156830,8064.000000,0.000000,4.000000,,,,0.000000,4.000000,4.000000,4.000000,4.000000,4.000000,4.000000,4.000000,4.000000,4.000000,4.000000,4.000000,4.000000,4.000000,4.000000,4.000000,4.000000,4.000000,4.000000,2.000000,4.000000,4.000000,4.000000,4.000000,4.000000,4.000000,4.000000,4.000000,4.000000,4.000000,4.000000,4.000000,4.000000,83.333336
1614075967.876252,51.000000,0.000000,-1.941336,-4.886963,-11.151057,-4.025282,2.327667,-10.841545,-2.507197,-4.234787,-2.292139,-4.623044,-9.091106,-0.859601,3.067158,-3.229507,-11.531605,14.188306,4.750825,12.117126,16.173325,-79.864410,-14.615079,-1.511577,9.160758,-0.539715,-0.908130,-1.936833,10.759016,-4.009523,-4.138110,-10.169192,-4.028768,-6.150673,8064.000000,0.000000,4.000000,,,,0.000000,4.000000,4.000000,4.000000,4.000000,4.000000,4.000000,4.000000,4.000000,4.000000,4.000000,4.000000,4.000000,4.000000,4.000000,4.000000,4.000000,4.000000,4.000000,2.000000,4.000000,4.000000,4.000000,4.000000,4.000000,4.000000,4.000000,4.000000,4.000000,4.000000,4.000000,4.000000,4.000000,83.333336
1614075967.884002,52.000000,0.000000,1.137529,1.784590,-6.011702,1.106948,5.402262,-5.702499,0.059413,6.538679,4.889641,7.176451,10.405164,6.833566,17.423065,12.158338,5.403004,35.199760,7.310177,23.899879,22.310997,-76.707626,-9.472259,12.336088,11.715699,1.512107,1.656881,-0.909256,11.261078,-0.928591,-3.621151,-8.620562,-2.999098,-6.144522,8064.000000,0.000000,4.000000,,,,0.000000,4.000000,4.000000,4.000000,4.000000,4.000000,4.000000,4.000000,4.000000,4.000000,4.000000,4.000000,4.000000,4.000000,4.000000,4.000000,4.000000,4.000000,4.000000,2.000000,4.000000,4.000000,4.000000,4.000000,4.000000,4.000000,4.000000,4.000000,4.000000,4.000000,4.000000,4.000000,4.000000,83.333336
1614075967.891651,53.000000,0.000000,2.162032,5.372549,-4.980049,1.105841,4.884039,-6.209617,0.572174,3.968038,4.884751,7.169274,9.881939,6.313912,15.867180,11.633359,2.833498,23.369688,7.815687,16.183672,12.032276,-84.836044,-16.642273,10.785291,10.678343,3.561877,1.655224,0.630115,10.736997,0.097979,0.485034,-5.022197,-1.970458,-6.138378,8064.000000,0.000000,4.000000,,,,0.000000,4.000000,4.000000,4.000000,4.000000,4.000000,4.000000,4.000000,4.000000,4.000000,4.000000,4.000000,4.000000,4.000000,4.000000,4.000000,4.000000,4.000000,4.000000,2.000000,4.000000,4.000000,4.000000,4.000000,4.000000,4.000000,4.000000,4.000000,4.000000,4.000000,4.000000,4.000000,4.000000,83.333336
1614075967.899400,54.000000,0.000000,10.364999,4.341536,-2.923787,0.591915,4.879155,-5.690587,0.058781,4.476890,4.879866,6.136464,8.846416,6.307599,15.338492,11.108905,2.830665,22.320677,7.807871,26.936720,22.789474,-81.161469,-15.087170,8.210403,10.667665,2.532674,4.217672,7.296152,10.213439,2.661983,7.151216,-0.914611,0.082794,-6.132239,8064.000000,0.000000,4.000000,,,,0.000000,4.000000,4.000000,4.000000,4.000000,4.000000,4.000000,4.000000,4.000000,4.000000,4.000000,4.000000,4.000000,4.000000,4.000000,4.000000,4.000000,4.000000,4.000000,2.000000,4.000000,4.000000,4.000000,4.000000,4.000000,4.000000,4.000000,4.000000,4.000000,4.000000,4.000000,4.000000,4.000000,83.333336
1614075967.907049,55.000000,0.000000,16.508480,4.337194,1.181701,1.104143,5.387096,0.981771,2.622825,5.498055,7.951910,7.668789,11.401671,7.326932,16.348795,12.123437,4.879117,22.811176,7.800064,26.909782,28.920532,-70.311073,-8.918237,12.817577,10.656997,5.094244,12.931403,11.904241,11.228867,6.249065,8.682526,1.137586,0.595532,-6.126107,8064.000000,0.000000,4.000000,,,,0.000000,4.000000,4.000000,4.000000,4.000000,4.000000,4.000000,4.000000,4.000000,4.000000,4.000000,4.000000,4.000000,4.000000,4.000000,4.000000,4.000000,4.000000,4.000000,2.000000,4.000000,4.000000,4.000000,4.000000,4.000000,4.000000,4.000000,4.000000,4.000000,4.000000,4.000000,4.000000,4.000000,83.333336
1614075967.914798,56.000000,0.000000,15.979151,4.845677,2.206161,1.103039,4.868889,6.108994,4.158663,4.979736,8.969599,7.148300,10.364629,6.806784,12.742702,9.034390,2.310135,5.352468,8.305084,5.344412,17.609560,-70.240761,-9.422139,15.881682,11.159161,10.217355,18.559498,11.379516,11.217637,7.781278,10.212305,0.110807,1.620577,-6.119981,8064.000000,0.000000,4.000000,,,,0.000000,4.000000,4.000000,4.000000,4.000000,4.000000,4.000000,4.000000,4.000000,4.000000,4.000000,4.000000,4.000000,4.000000,4.000000,4.000000,4.000000,4.000000,4.000000,2.000000,4.000000,4.000000,4.000000,4.000000,4.000000,4.000000,4.000000,4.000000,4.000000,4.000000,4.000000,4.000000,4.000000,83.333336
1614075967.922447,57.000000,0.000000,16.475992,4.328012,2.716775,3.666039,4.351200,5.590065,4.667325,13.179884,7.934988,6.628331,9.328624,6.799978,12.217139,6.974074,-1.281919,3.808654,10.860881,2.262144,22.720156,-70.170525,-9.412717,16.378622,10.635180,13.796881,16.489655,10.855315,10.180779,7.773496,14.817477,0.623517,4.183060,-6.113861,8064.000000,0.000000,4.000000,,,,0.000000,4.000000,4.000000,4.000000,4.000000,4.000000,4.000000,4.000000,4.000000,4.000000,4.000000,4.000000,4.000000,4.000000,4.000000,4.000000,4.000000,4.000000,4.000000,2.000000,4.000000,4.000000,4.000000,4.000000,4.000000,4.000000,4.000000,4.000000,4.000000,4.000000,4.000000,4.000000,4.000000,83.333336
1614075967.930196,58.000000,0.000000,14.408234,4.323683,1.688417,7.252116,4.859669,5.071654,6.201119,17.782089,7.927053,6.621703,9.832115,6.793178,11.692101,7.479920,-2.819099,18.676640,11.362841,13.541933,33.466667,-73.177277,-10.941766,9.182755,8.573263,15.321546,13.396243,10.331639,11.196239,7.252902,16.341122,0.622893,4.178876,-6.107747,8192.000000,0.000000,4.000000,,,,0.000000,4.000000,4.000000,4.000000,4.000000,4.000000,4.000000,4.000000,4.000000,4.000000,4.000000,4.000000,4.000000,4.000000,4.000000,4.000000,4.000000,4.000000,4.000000,2.000000,4.000000,4.000000,4.000000,4.000000,4.000000,4.000000,4.000000,4.000000,4.000000,4.000000,4.000000,4.000000,4.000000,83.333336
1614075967.937846,59.000000,0.000000,6.188697,4.319360,1.686729,8.783325,4.341989,5.579402,8.246201,9.046358,7.919126,6.615081,8.283822,2.171000,5.526563,6.959620,-5.380382,18.145144,6.223273,10.451468,22.151148,-85.924606,-22.725697,-5.698222,7.026228,12.229301,12.870026,11.346950,11.697864,7.758470,15.811959,0.109450,5.200338,-6.614460,8064.000000,0.000000,4.000000,,,,0.000000,4.000000,4.000000,4.000000,4.000000,4.000000,4.000000,4.000000,4.000000,4.000000,4.000000,4.000000,4.000000,4.000000,4.000000,4.000000,4.000000,4.000000,4.000000,2.000000,4.000000,4.000000,4.000000,4.000000,4.000000,4.000000,4.000000,4.000000,4.000000,4.000000,4.000000,4.000000,4.000000,83.333336
1614075967.945595,60.000000,0.000000,0.541483,4.315040,8.351708,8.261722,4.850467,5.573823,8.237954,0.319363,7.911207,6.608466,6.224256,-3.985017,0.905652,7.465481,-7.939105,15.562895,0.576024,5.825633,9.308484,-97.120735,-32.959381,-12.872011,7.019202,8.114508,12.857156,9.797141,4.506678,7.750711,15.283327,0.622161,8.272061,-6.095025,8064.000000,0.000000,4.000000,,,,0.000000,4.000000,4.000000,4.000000,4.000000,4.000000,4.000000,4.000000,4.000000,4.000000,4.000000,4.000000,4.000000,4.000000,4.000000,4.000000,4.000000,4.000000,4.000000,2.000000,4.000000,4.000000,4.000000,4.000000,4.000000,4.000000,4.000000,4.000000,4.000000,4.000000,4.000000,4.000000,4.000000,83.333336
1614075967.953244,61.000000,0.000000,0.540942,4.310725,16.548485,8.253460,8.948181,5.055429,7.716896,0.831864,7.903296,6.601857,5.705211,-5.006673,0.391926,7.970836,-7.418344,20.675537,-0.450193,8.383909,10.324817,-98.049255,-32.926422,-11.833498,7.525003,6.567932,13.357120,-3.033169,-3.702957,5.691679,8.601377,-0.916923,3.648405,-6.088930,8064.000000,0.000000,4.000000,,,,0.000000,4.000000,4.000000,4.000000,4.000000,4.000000,4.000000,4.000000,4.000000,4.000000,4.000000,4.000000,4.000000,4.000000,4.000000,4.000000,4.000000,4.000000,4.000000,2.000000,4.000000,4.000000,4.000000,4.000000,4.000000,4.000000,4.000000,4.000000,4.000000,4.000000,4.000000,4.000000,4.000000,83.333336
1614075967.960993,62.000000,0.000000,1.053221,4.306415,17.557577,8.245207,13.554617,5.050374,7.709179,1.343853,7.895392,7.108076,5.699506,-4.488846,0.904355,7.450045,-3.308362,17.577938,2.114360,8.888346,12.878594,-94.361465,-31.355032,-11.821664,7.004658,6.048543,13.856583,-12.260905,-4.724895,3.634705,3.977391,-2.967288,-3.021910,-7.108482,8064.000000,0.000000,4.000000,,,,0.000000,4.000000,4.000000,4.000000,4.000000,4.000000,4.000000,4.000000,4.000000,4.000000,4.000000,4.000000,4.000000,4.000000,4.000000,4.000000,4.000000,4.000000,4.000000,2.000000,4.000000,4.000000,4.000000,4.000000,4.000000,4.000000,4.000000,4.000000,4.000000,4.000000,4.000000,4.000000,4.000000,83.333336
1614075967.968642,63.000000,0.000000,0.539347,4.302108,16.514380,8.236961,16.617987,5.558144,7.701470,-0.195953,8.400317,7.100968,5.693806,-4.484357,3.980373,7.442595,2.848792,19.098822,7.240450,16.058945,14.404177,-88.113258,-32.349319,-4.117535,6.997653,3.478392,13.329906,-7.120440,-3.181708,3.118250,6.537516,-3.477141,-1.480427,-2.485989,8064.000000,0.000000,4.000000,,,,0.000000,4.000000,4.000000,4.000000,4.000000,4.000000,4.000000,4.000000,4.000000,4.000000,4.000000,4.000000,4.000000,4.000000,4.000000,4.000000,4.000000,4.000000,4.000000,2.000000,4.000000,4.000000,4.000000,4.000000,4.000000,4.000000,4.000000,4.000000,4.000000,4.000000,4.000000,4.000000,4.000000,83.333336
1614075967.976491,64.000000,0.000000,0.538808,4.297806,17.523506,7.715904,16.088547,3.501303,7.693768,0.829884,6.853456,4.529764,6.200933,-4.479873,3.976393,8.460793,3.871584,36.515621,7.746031,25.273655,14.902594,-84.435402,-32.829788,7.168634,7.503476,2.962093,12.290935,-0.446652,-4.204167,3.627952,8.582261,-3.986485,1.085156,7.772907,0.000000,192.000000,4.000000,,,,0.000000,4.000000,4.000000,4.000000,4.000000,4.000000,4.000000,4.000000,4.000000,4.000000,4.000000,4.000000,4.000000,4.000000,4.000000,4.000000,4.000000,4.000000,4.000000,2.000000,4.000000,4.000000,4.000000,4.000000,4.000000,4.000000,4.000000,4.000000,4.000000,4.000000,4.000000,4.000000,4.000000,83.333336
1614075967.984240,65.000000,0.000000,0.538269,4.293508,13.916239,6.682547,13.508356,1.446520,6.147613,-0.709407,4.282499,2.986773,2.604988,-6.013855,-4.745532,3.836948,-8.952800,34.427822,2.610080,23.197100,14.374870,-87.427887,-32.796959,8.187106,5.957511,3.471951,12.791464,-0.446206,-4.199964,3.624324,7.548038,-2.956857,0.058430,12.380519,0.000000,183.000000,4.000000,,,,0.000000,4.000000,4.000000,4.000000,4.000000,4.000000,4.000000,4.000000,4.000000,4.000000,4.000000,4.000000,4.000000,4.000000,4.000000,4.000000,4.000000,4.000000,4.000000,2.000000,4.000000,4.000000,4.000000,4.000000,4.000000,4.000000,4.000000,4.000000,4.000000,4.000000,4.000000,4.000000,4.000000,83.333336
1614075967.991989,66.000000,0.000000,1.563372,4.289215,9.286938,8.214326,11.956387,0.932253,4.090183,-6.349723,3.765397,2.470966,-1.500181,-8.059123,-11.407454,-8.987402,-26.379745,2.085703,0.043367,13.943133,15.386136,-87.853279,-32.251343,8.178919,3.900272,3.468480,7.650467,-0.958580,-3.682943,3.620700,8.566131,-3.979541,0.058371,11.342498,0.000000,169.000000,4.000000,,,,0.000000,4.000000,4.000000,4.000000,4.000000,4.000000,4.000000,4.000000,4.000000,4.000000,4.000000,4.000000,4.000000,4.000000,4.000000,4.000000,4.000000,4.000000,4.000000,2.000000,4.000000,4.000000,4.000000,4.000000,4.000000,4.000000,4.000000,4.000000,4.000000,4.000000,4.000000,4.000000,4.000000,83.333336
1614075967.999638,67.000000,0.000000,4.125911,4.284925,10.816113,8.206112,11.431609,0.931321,3.573272,-7.369015,4.274452,-1.634069,-2.524322,-8.563884,-10.883225,-17.183542,-31.994390,-25.095869,0.556144,-1.455426,8.191263,-89.816711,-34.270374,8.170740,2.870730,3.465011,-8.767439,-4.034544,-3.679260,3.617079,5.993462,-8.590946,0.571134,12.869617,0.000000,187.000000,4.000000,,,,0.000000,4.000000,4.000000,4.000000,4.000000,4.000000,4.000000,4.000000,4.000000,4.000000,4.000000,4.000000,4.000000,4.000000,4.000000,4.000000,4.000000,4.000000,4.000000,2.000000,4.000000,4.000000,4.000000,4.000000,4.000000,4.000000,4.000000,4.000000,4.000000,4.000000,4.000000,4.000000,4.000000,83.333336
1614075968.007487,68.000000,0.000000,5.147426,3.767820,12.343758,6.146624,10.394537,1.956030,4.082520,-1.720620,3.757357,-3.683717,-2.008977,-8.555321,-10.359522,-18.704821,-31.449575,-30.198978,0.042767,-26.582174,-11.816928,-99.470482,-43.466873,-6.196405,3.380680,3.461546,-20.040724,-6.081792,-3.675581,3.613462,0.859263,-11.146458,0.057742,11.318285,0.000000,191.000000,4.000000,,,,0.000000,4.000000,4.000000,4.000000,4.000000,4.000000,4.000000,4.000000,4.000000,4.000000,4.000000,4.000000,4.000000,4.000000,4.000000,4.000000,4.000000,4.000000,4.000000,2.000000,4.000000,4.000000,4.000000,4.000000,4.000000,4.000000,4.000000,4.000000,4.000000,4.000000,4.000000,4.000000,4.000000,83.333336
1614075968.015236,69.000000,0.000000,4.629458,4.276873,14.895516,12.807143,13.461065,6.569459,4.078437,2.383665,4.779240,2.473813,-1.494147,-8.033944,-10.861982,-16.634834,-29.879665,-24.014935,0.042725,-38.350464,-20.010239,-103.986397,-44.449047,-22.087645,3.377300,3.458085,-10.277093,-1.460325,-4.184726,3.609848,1.371225,-7.032747,5.185889,11.819788,0.000000,175.000000,4.000000,,,,0.000000,4.000000,4.000000,4.000000,4.000000,4.000000,4.000000,4.000000,4.000000,4.000000,4.000000,4.000000,4.000000,4.000000,4.000000,4.000000,4.000000,4.000000,4.000000,2.000000,4.000000,4.000000,4.000000,4.000000,4.000000,4.000000,4.000000,4.000000,4.000000,4.000000,4.000000,4.000000,4.000000,83.333336
1614075968.023085,70.000000,0.000000,4.624829,6.323878,20.008825,26.640490,20.627090,9.126992,4.074359,0.329999,7.338563,7.599544,3.122732,-6.487449,-5.210095,-7.387430,-19.593374,-9.631945,0.042682,-17.799294,-2.554332,-98.754204,-24.404598,-22.065557,3.373922,3.454626,6.656261,3.669340,-3.667720,3.606239,6.498058,-3.435971,10.821729,25.654121,0.000000,187.000000,4.000000,,,,0.000000,4.000000,4.000000,4.000000,4.000000,4.000000,4.000000,4.000000,4.000000,4.000000,4.000000,4.000000,4.000000,4.000000,4.000000,4.000000,4.000000,4.000000,4.000000,2.000000,4.000000,4.000000,4.000000,4.000000,4.000000,4.000000,4.000000,4.000000,4.000000,4.000000,4.000000,4.000000,4.000000,83.333336
1614075968.030834,71.000000,0.000000,4.620204,8.368836,24.091381,30.716413,23.683388,8.605044,4.070284,1.355310,8.356866,6.566303,8.247814,-1.865577,5.564346,8.517393,-0.086602,18.069996,0.555460,14.526197,22.576427,-92.501602,-2.328911,-12.812722,2.857728,2.938351,10.752170,3.665671,-3.664053,3.602632,9.055663,-3.432535,10.298087,34.346416,0.000000,178.000000,4.000000,,,,0.000000,4.000000,4.000000,4.000000,4.000000,4.000000,4.000000,4.000000,4.000000,4.000000,4.000000,4.000000,4.000000,4.000000,4.000000,4.000000,4.000000,4.000000,4.000000,2.000000,4.000000,4.000000,4.000000,4.000000,4.000000,4.000000,4.000000,4.000000,4.000000,4.000000,4.000000,4.000000,4.000000,83.333336
1614075968.038683,72.000000,0.000000,4.615584,7.847647,24.067289,24.531851,22.634064,8.596439,4.066214,11.610365,7.835689,6.046916,12.342131,4.290135,16.840834,20.816568,17.862204,48.308334,5.683109,34.511673,35.374363,-79.075768,4.852905,-4.081961,3.367691,3.961054,8.177315,2.636364,-4.686030,3.599030,8.020967,-3.429102,7.210865,22.004377,0.000000,194.000000,4.000000,,,,0.000000,4.000000,4.000000,4.000000,4.000000,4.000000,4.000000,4.000000,4.000000,4.000000,4.000000,4.000000,4.000000,4.000000,4.000000,4.000000,4.000000,4.000000,4.000000,2.000000,4.000000,4.000000,4.000000,4.000000,4.000000,4.000000,4.000000,4.000000,4.000000,4.000000,4.000000,4.000000,4.000000,83.333336
1614075968.046433,73.000000,0.000000,4.610968,7.839799,24.043222,21.943216,23.124249,9.100664,4.062148,18.265421,8.340673,7.579331,14.381070,7.362768,21.439377,22.847034,25.023829,56.465157,13.369734,37.041264,33.287708,-60.022335,1.771129,2.588788,3.364323,6.008375,9.707599,4.172189,-1.604421,3.595431,6.474484,-2.912853,7.716475,10.187501,0.000000,172.000000,4.000000,,,,0.000000,4.000000,4.000000,4.000000,4.000000,4.000000,4.000000,4.000000,4.000000,4.000000,4.000000,4.000000,4.000000,4.000000,4.000000,4.000000,4.000000,4.000000,4.000000,2.000000,4.000000,4.000000,4.000000,4.000000,4.000000,4.000000,4.000000,4.000000,4.000000,4.000000,4.000000,4.000000,4.000000,83.333336
1614075968.054282,74.000000,0.000000,4.606357,7.831959,24.019180,23.459736,22.588305,8.578742,4.570906,7.477925,7.819512,7.571752,12.315407,7.355405,17.828194,15.644700,15.255215,37.434330,16.433287,24.696529,19.408266,-58.423851,-8.487052,4.637481,3.360959,8.053649,11.749173,4.680838,3.012568,3.591835,4.929548,-2.909940,8.734400,11.715775,0.000000,174.000000,4.000000,,,,0.000000,4.000000,4.000000,4.000000,4.000000,4.000000,4.000000,4.000000,4.000000,4.000000,4.000000,4.000000,4.000000,4.000000,4.000000,4.000000,4.000000,4.000000,4.000000,2.000000,4.000000,4.000000,4.000000,4.000000,4.000000,4.000000,4.000000,4.000000,4.000000,4.000000,4.000000,4.000000,4.000000,83.333336
1614075968.062031,75.000000,0.000000,4.088931,7.824127,23.482340,22.923454,19.488792,8.570164,3.540694,-5.862886,3.196308,6.025719,6.662066,5.809588,12.169340,4.859824,0.880985,17.396896,14.878392,11.851319,9.132447,-68.109016,-24.376001,4.632844,4.383239,8.045595,6.609219,2.624875,3.522376,3.588243,4.411798,-3.419851,8.212845,12.729700,0.000000,198.000000,4.000000,,,,0.000000,4.000000,4.000000,4.000000,4.000000,4.000000,4.000000,4.000000,4.000000,4.000000,4.000000,4.000000,4.000000,4.000000,4.000000,4.000000,4.000000,4.000000,4.000000,2.000000,4.000000,4.000000,4.000000,4.000000,4.000000,4.000000,4.000000,4.000000,4.000000,4.000000,4.000000,4.000000,4.000000,83.333336
1614075968.069880,76.000000,0.000000,5.110483,7.816303,24.484499,22.387711,18.443663,8.561594,4.049974,-5.857023,0.116189,6.532513,5.116942,7.342240,12.157170,2.803682,-2.709640,17.379499,15.889155,8.762546,8.097674,-71.630653,-31.531113,4.115391,7.968599,7.011909,1.987225,3.135070,4.544495,3.584655,4.407386,-3.929251,7.178991,10.665689,0.000000,197.000000,4.000000,,,,0.000000,4.000000,4.000000,4.000000,4.000000,4.000000,4.000000,4.000000,4.000000,4.000000,4.000000,4.000000,4.000000,4.000000,4.000000,4.000000,4.000000,4.000000,4.000000,2.000000,4.000000,4.000000,4.000000,4.000000,4.000000,4.000000,4.000000,4.000000,4.000000,4.000000,4.000000,4.000000,4.000000,83.333336
1614075968.077629,77.000000,0.000000,7.669475,7.808487,21.383091,22.365324,18.938040,9.065852,7.122848,-2.261423,0.116073,6.525981,6.137466,9.899000,11.632193,4.852160,-7.322315,17.874941,16.386086,-0.989807,1.935730,-82.841072,-31.499580,4.111275,12.576015,7.517717,2.498058,4.670397,7.616874,3.581070,4.915799,-2.899681,8.197453,11.167844,0.000000,197.000000,4.000000,,,,0.000000,4.000000,4.000000,4.000000,4.000000,4.000000,4.000000,4.000000,4.000000,4.000000,4.000000,4.000000,4.000000,4.000000,4.000000,4.000000,4.000000,4.000000,4.000000,2.000000,4.000000,4.000000,4.000000,4.000000,4.000000,4.000000,4.000000,4.000000,4.000000,4.000000,4.000000,4.000000,4.000000,83.333336
1614075968.085478,78.000000,0.000000,8.174625,7.800678,14.695042,22.855778,17.893461,8.543966,6.602904,-4.310443,0.628777,-2.711314,-0.535338,4.760896,-1.712773,-8.486025,-28.340633,-12.399344,7.138931,-28.681126,-13.450821,-99.168488,-40.186031,4.619985,9.486516,8.023020,0.444278,-4.052223,3.506693,4.090310,4.398063,-4.948063,7.676435,10.131035,0.000000,203.000000,4.000000,,,,0.000000,4.000000,4.000000,4.000000,4.000000,4.000000,4.000000,4.000000,4.000000,4.000000,4.000000,4.000000,4.000000,4.000000,4.000000,4.000000,4.000000,4.000000,4.000000,2.000000,4.000000,4.000000,4.000000,4.000000,4.000000,4.000000,4.000000,4.000000,4.000000,4.000000,4.000000,4.000000,4.000000,83.333336
1614075968.093227,79.000000,0.000000,8.166451,7.792878,11.090603,21.294460,15.824286,5.971320,2.493737,-5.844594,0.628148,-16.041937,-13.355315,-6.013095,-24.275162,-33.605743,-52.414856,-44.694637,-4.663080,-51.216545,-18.052755,-103.684700,-48.863792,1.538441,-0.779381,0.835510,-8.274115,-18.407145,-3.676301,3.573399,0.291101,-11.609782,1.002092,7.556801,0.000000,213.000000,4.000000,,,,0.000000,4.000000,4.000000,4.000000,4.000000,4.000000,4.000000,4.000000,4.000000,4.000000,4.000000,4.000000,4.000000,4.000000,4.000000,4.000000,4.000000,4.000000,4.000000,2.000000,4.000000,4.000000,4.000000,4.000000,4.000000,4.000000,4.000000,4.000000,4.000000,4.000000,4.000000,4.000000,4.000000,83.333336
1614075968.100876,80.000000,0.000000,8.671105,7.785085,12.617973,16.657782,14.270000,4.426887,-0.072859,-6.864391,-0.398121,-16.538715,-22.059908,-9.596826,-36.045757,-44.341370,-58.003468,-45.162762,-7.735340,-42.960201,-7.778292,-108.196404,-43.686726,-5.129764,-8.470909,-9.934557,-10.317122,-17.875917,-4.698266,1.005723,-3.298934,-10.572531,-4.127115,8.062065,0.000000,201.000000,4.000000,,,,0.000000,4.000000,4.000000,4.000000,4.000000,4.000000,4.000000,4.000000,4.000000,4.000000,4.000000,4.000000,4.000000,4.000000,4.000000,4.000000,4.000000,4.000000,4.000000,2.000000,4.000000,4.000000,4.000000,4.000000,4.000000,4.000000,4.000000,4.000000,4.000000,4.000000,4.000000,4.000000,4.000000,83.333336
1614075968.108625,81.000000,0.000000,6.611152,5.726017,12.605355,11.512919,15.281371,4.935280,-0.072786,-7.370347,1.140739,-2.676023,-17.422464,-8.561588,-21.650740,-26.348310,-43.073669,-12.809908,-8.753245,-15.737754,5.562820,-111.677948,-31.848166,-8.201557,-7.949618,-10.950263,-3.640139,-4.524708,-3.155106,-0.533744,-3.295635,1.232913,-0.020424,11.130926,0.000000,203.000000,4.000000,,,,0.000000,4.000000,4.000000,4.000000,4.000000,4.000000,4.000000,4.000000,4.000000,4.000000,4.000000,4.000000,4.000000,4.000000,4.000000,4.000000,4.000000,4.000000,4.000000,2.000000,4.000000,4.000000,4.000000,4.000000,4.000000,4.000000,4.000000,4.000000,4.000000,4.000000,4.000000,4.000000,4.000000,83.333336
1614075968.116274,82.000000,0.000000,1.476336,4.181830,12.079929,10.988585,19.881474,4.930345,0.440107,1.354972,5.754982,7.583064,1.569317,-5.476103,5.550399,3.421628,-13.287006,11.818286,-5.154748,3.765163,16.839308,-93.617554,-23.611189,-6.654894,-6.916027,-5.298287,-1.585217,1.120843,-3.664772,-0.020390,-2.779519,8.923988,4.594981,12.145436,0.000000,206.000000,4.000000,,,,0.000000,4.000000,4.000000,4.000000,4.000000,4.000000,4.000000,4.000000,4.000000,4.000000,4.000000,4.000000,4.000000,4.000000,4.000000,4.000000,4.000000,4.000000,4.000000,2.000000,4.000000,4.000000,4.000000,4.000000,4.000000,4.000000,4.000000,4.000000,4.000000,4.000000,4.000000,4.000000,4.000000,83.333336
1614075968.124023,83.000000,0.000000,0.962039,4.177648,12.580670,11.490417,22.938517,4.412594,2.490949,12.122848,8.313331,7.062660,19.516466,2.734501,24.006388,20.854105,18.008331,37.447495,11.260663,12.479346,24.514776,-68.395729,-18.459373,-7.673880,-2.806547,-2.728886,-1.070811,-1.444381,-4.173927,-0.020370,-3.289560,7.376603,4.077566,11.620470,0.000000,194.000000,4.000000,,,,0.000000,4.000000,4.000000,4.000000,4.000000,4.000000,4.000000,4.000000,4.000000,4.000000,4.000000,4.000000,4.000000,4.000000,4.000000,4.000000,4.000000,4.000000,4.000000,2.000000,4.000000,4.000000,4.000000,4.000000,4.000000,4.000000,4.000000,4.000000,4.000000,4.000000,4.000000,4.000000,4.000000,83.333336
1614075968.131672,84.000000,0.000000,4.038000,4.173470,12.568089,10.966106,22.402758,4.921002,4.026919,14.674828,8.817838,6.029957,23.086693,13.500998,29.110586,23.910173,27.733913,60.486969,23.557095,20.671995,27.054365,-62.173489,-14.851170,-6.640565,5.914208,-1.700516,4.571285,-0.417295,-3.144112,-0.020349,-2.773450,4.805123,4.073488,12.121670,0.000000,210.000000,4.000000,,,,0.000000,4.000000,4.000000,4.000000,4.000000,4.000000,4.000000,4.000000,4.000000,4.000000,4.000000,4.000000,4.000000,4.000000,4.000000,4.000000,4.000000,4.000000,4.000000,2.000000,4.000000,4.000000,4.000000,4.000000,4.000000,4.000000,4.000000,4.000000,4.000000,4.000000,4.000000,4.000000,4.000000,83.333336
1614075968.139422,85.000000,0.000000,5.059603,4.169297,13.581162,11.980782,22.380354,5.428902,4.022892,14.147332,8.296199,9.100850,15.884119,15.538778,23.440449,20.809340,13.347205,44.016228,21.995075,20.138502,26.001669,-67.239517,-19.964523,-3.557002,6.933935,0.352466,7.130816,1.634404,-0.576866,-0.020329,-2.770677,4.800318,4.069415,6.468523,0.000000,223.000000,4.000000,,,,0.000000,4.000000,4.000000,4.000000,4.000000,4.000000,4.000000,4.000000,4.000000,4.000000,4.000000,4.000000,4.000000,4.000000,4.000000,4.000000,4.000000,4.000000,4.000000,2.000000,4.000000,4.000000,4.000000,4.000000,4.000000,4.000000,4.000000,4.000000,4.000000,4.000000,4.000000,4.000000,4.000000,83.333336
1614075968.147071,86.000000,0.000000,2.490441,4.165128,12.029119,9.917519,21.845154,3.372191,4.018869,8.492160,2.646877,5.502005,5.099004,4.241188,6.493932,5.916736,-9.743065,13.715799,16.332054,7.297852,15.206437,-81.018433,-33.277893,-5.604727,-0.765307,0.352114,0.969840,-1.956974,-0.576289,-1.558770,-2.767906,4.282697,0.475601,-5.845638,0.000000,183.000000,4.000000,,,,0.000000,4.000000,4.000000,4.000000,4.000000,4.000000,4.000000,4.000000,4.000000,4.000000,4.000000,4.000000,4.000000,4.000000,4.000000,4.000000,4.000000,4.000000,4.000000,2.000000,4.000000,4.000000,4.000000,4.000000,4.000000,4.000000,4.000000,4.000000,4.000000,4.000000,4.000000,4.000000,4.000000,83.333336
1614075968.154820,87.000000,0.000000,0.949489,4.160963,7.401706,4.779396,17.720743,1.317536,4.014851,-7.926589,-3.509616,-6.298368,-8.752249,-9.609207,-8.384356,-18.704565,-29.733322,7.548237,5.546492,-2.453036,-8.398513,-100.937416,-42.988205,-10.727327,-4.867105,0.351761,-5.697797,-7.083222,-5.191097,-3.608493,-2.765138,4.278415,-3.627438,-11.993639,0.000000,196.000000,4.000000,,,,0.000000,4.000000,4.000000,4.000000,4.000000,4.000000,4.000000,4.000000,4.000000,4.000000,4.000000,4.000000,4.000000,4.000000,4.000000,4.000000,4.000000,4.000000,4.000000,2.000000,4.000000,4.000000,4.000000,4.000000,4.000000,4.000000,4.000000,4.000000,4.000000,4.000000,4.000000,4.000000,4.000000,83.333336
