title:26, start timestamp:1614076120.894998, stop timestamp:1614076166.839234, headset type:EPOCFLEX, headset serial:F00001ED, headset firmware:f12, subject name:s07, channels:75, sampling rate:128, samples:5932      , version:2.0
Timestamp,EEG.Counter,EEG.Interpolated,EEG.Cz,EEG.Fz,EEG.Fp1,EEG.AF3,EEG.F7,EEG.F3,EEG.FC1,EEG.C3,EEG.FC5,EEG.T7,EEG.CP5,EEG.CP1,EEG.P3,EEG.P7,EEG.PO3,EEG.O1,EEG.Pz,EEG.Oz,EEG.O2,EEG.PO4,EEG.P8,EEG.P4,EEG.CP2,EEG.CP6,EEG.T8,EEG.FC6,EEG.C4,EEG.FC2,EEG.F4,EEG.F8,EEG.AF4,EEG.Fp2,EEG.HighBitFlex,EEG.RawCq,EEG.Battery,MarkerIndex,MarkerType,MarkerValueInt,EEG.MarkerHardware,CQ.Cz,CQ.Fz,CQ.Fp1,CQ.AF3,CQ.F7,CQ.F3,CQ.FC1,CQ.C3,CQ.FC5,CQ.T7,CQ.CP5,CQ.CP1,CQ.P3,CQ.P7,CQ.PO3,CQ.O1,CQ.Pz,CQ.Oz,CQ.O2,CQ.PO4,CQ.P8,CQ.P4,CQ.CP2,CQ.CP6,CQ.T8,CQ.FC6,CQ.C4,CQ.FC2,CQ.F4,CQ.F8,CQ.AF4,CQ.Fp2,CQ.Overall
1614076120.894998,80.000000,0.000000,-3.505687,5.334062,-8.041485,1.801445,14.429246,15.413904,0.135912,-7.690436,3.105281,10.510531,-11.888297,-11.501044,-32.384113,-22.562550,-139.369324,-43.658379,-10.337831,-38.839493,-17.068508,-139.170105,-34.101540,-1.227777,-2.114059,-2.294527,-5.229141,4.432974,-0.294745,6.114425,3.476155,0.233574,10.899452,8.926908,0.000000,200.000000,4.000000,,,,0.000000,4.000000,4.000000,4.000000,4.000000,4.000000,4.000000,4.000000,4.000000,4.000000,4.000000,4.000000,4.000000,4.000000,4.000000,4.000000,4.000000,4.000000,4.000000,4.000000,4.000000,4.000000,4.000000,4.000000,4.000000,4.000000,4.000000,4.000000,4.000000,4.000000,4.000000,4.000000,4.000000,100.000000
1614076120.902848,81.000000,0.000000,-3.502181,1.738984,-13.161649,0.261182,8.773791,15.398491,0.135776,-1.528899,3.102176,2.294893,-11.363588,-11.489543,-32.864548,-30.232294,-139.742783,-47.717285,-9.814672,-30.082705,4.999842,-140.056580,-35.093079,2.876015,-3.137586,-3.317873,-7.275194,-2.750946,-0.294451,6.108311,3.985499,-1.305121,5.760347,7.379520,0.000000,181.000000,4.000000,,,,0.000000,4.000000,4.000000,4.000000,4.000000,4.000000,4.000000,4.000000,4.000000,4.000000,4.000000,4.000000,4.000000,4.000000,4.000000,4.000000,4.000000,4.000000,4.000000,4.000000,4.000000,4.000000,4.000000,4.000000,4.000000,4.000000,4.000000,4.000000,4.000000,4.000000,4.000000,4.000000,4.000000,100.000000
1614076120.910597,82.000000,0.000000,-4.011499,-1.339678,-13.661307,-2.816002,2.098351,15.383092,0.135640,3.600835,3.099074,0.241316,-11.352225,-11.990874,-32.831684,-32.253345,-143.192780,-51.259312,-15.958704,-33.642365,10.635868,-145.044724,-33.006706,-15.075579,-7.749833,-3.314556,-11.370482,-5.825118,-5.935182,6.102202,3.468693,-1.816636,3.190485,7.884962,0.000000,204.000000,4.000000,,,,0.000000,4.000000,4.000000,4.000000,4.000000,4.000000,4.000000,4.000000,4.000000,4.000000,4.000000,4.000000,4.000000,4.000000,4.000000,4.000000,4.000000,4.000000,4.000000,4.000000,4.000000,4.000000,4.000000,4.000000,4.000000,4.000000,4.000000,4.000000,4.000000,4.000000,4.000000,4.000000,4.000000,100.000000
1614076120.918446,83.000000,0.000000,-2.981847,2.764226,-9.545082,-0.249084,8.250099,15.367709,0.135504,-2.043792,3.095975,4.856459,-8.776771,-11.466063,-32.286030,-29.144167,-147.152145,-66.079849,-20.558130,-60.275391,-15.015794,-158.233017,-32.973698,-16.598965,-10.819006,-8.952267,-13.923215,-5.819293,-1.826683,6.096100,2.952404,-0.789178,5.751397,11.979641,0.000000,205.000000,4.000000,,,,0.000000,4.000000,4.000000,4.000000,4.000000,4.000000,4.000000,4.000000,4.000000,4.000000,4.000000,4.000000,4.000000,4.000000,4.000000,4.000000,4.000000,4.000000,4.000000,4.000000,4.000000,4.000000,4.000000,4.000000,4.000000,4.000000,4.000000,4.000000,4.000000,4.000000,4.000000,4.000000,4.000000,100.000000
1614076120.926195,84.000000,0.000000,-2.978865,6.864026,-3.894512,6.417832,19.523899,15.352342,0.135369,-0.503286,3.092879,7.928526,-7.229532,-10.941776,-31.228104,-21.935535,-148.543457,-61.398384,-21.050392,-55.086910,-9.359753,-166.792740,-28.838160,-1.710571,-10.808187,-14.584340,-13.396471,-4.275012,-5.927420,6.602825,3.975093,-0.788389,7.284107,16.070225,0.000000,191.000000,4.000000,,,,0.000000,4.000000,4.000000,4.000000,4.000000,4.000000,4.000000,4.000000,4.000000,4.000000,4.000000,4.000000,4.000000,4.000000,4.000000,4.000000,4.000000,4.000000,4.000000,4.000000,4.000000,4.000000,4.000000,4.000000,4.000000,4.000000,4.000000,4.000000,4.000000,4.000000,4.000000,4.000000,4.000000,100.000000
1614076120.934044,85.000000,0.000000,-6.052809,4.293059,-1.839335,9.488338,19.504375,15.336989,0.135234,7.702345,3.602607,8.946239,-8.247943,-11.443655,-33.248158,-15.246934,-149.420563,-33.644676,-21.542162,-28.365156,15.264992,-160.984909,-28.296501,-17.093475,-10.284558,-10.467192,-12.870255,-1.706634,-8.998416,5.057760,2.945477,-0.787601,6.251182,14.515694,0.000000,192.000000,4.000000,,,,0.000000,4.000000,4.000000,4.000000,4.000000,4.000000,4.000000,4.000000,4.000000,4.000000,4.000000,4.000000,4.000000,4.000000,4.000000,4.000000,4.000000,4.000000,4.000000,4.000000,4.000000,4.000000,4.000000,4.000000,4.000000,4.000000,4.000000,4.000000,4.000000,4.000000,4.000000,4.000000,4.000000,100.000000
1614076120.941793,86.000000,0.000000,-6.559577,1.724663,-3.375957,8.966028,14.356667,15.321652,0.135098,7.694643,2.573363,8.424472,-7.726875,-11.432211,-31.676449,-12.667584,-143.117294,-20.790520,-13.828313,-16.541920,17.301010,-145.439316,-28.781025,-27.332792,-8.222992,-7.379801,-13.370205,-3.243389,6.395198,3.001420,-1.672854,-0.786813,6.244930,11.937075,0.000000,192.000000,4.000000,,,,0.000000,4.000000,4.000000,4.000000,4.000000,4.000000,4.000000,4.000000,4.000000,4.000000,4.000000,4.000000,4.000000,4.000000,4.000000,4.000000,4.000000,4.000000,4.000000,4.000000,4.000000,4.000000,4.000000,4.000000,4.000000,4.000000,4.000000,4.000000,4.000000,4.000000,4.000000,4.000000,4.000000,100.000000
1614076120.949642,87.000000,0.000000,-3.476094,1.210118,-4.911043,7.418601,13.316669,15.306331,0.134963,5.122846,0.006687,8.928867,-5.155046,-8.343856,-21.388361,-8.552353,-121.948532,-15.128703,2.595772,1.423341,21.899094,-129.396439,-15.418911,-0.638793,-2.060923,-7.372422,-13.356834,-4.778607,16.645214,1.972778,-4.748104,-0.786026,7.264327,12.437959,0.000000,198.000000,4.000000,,,,0.000000,4.000000,4.000000,4.000000,4.000000,4.000000,4.000000,4.000000,4.000000,4.000000,4.000000,4.000000,4.000000,4.000000,4.000000,4.000000,4.000000,4.000000,4.000000,4.000000,4.000000,4.000000,4.000000,4.000000,4.000000,4.000000,4.000000,4.000000,4.000000,4.000000,4.000000,4.000000,4.000000,100.000000
1614076120.957392,88.000000,0.000000,-4.498260,2.747370,-5.418952,5.872721,13.816173,15.803844,0.134828,3.066441,-0.506140,10.458400,-3.611429,-6.797050,-17.264410,-3.415595,-106.954788,5.399246,5.157279,23.473200,24.954117,-123.626015,-3.608621,8.592615,-0.520400,-0.185562,-12.830657,0.867197,7.910619,2.996446,0.384849,-0.272420,7.257062,12.938341,0.000000,185.000000,4.000000,,,,0.000000,4.000000,4.000000,4.000000,4.000000,4.000000,4.000000,4.000000,4.000000,4.000000,4.000000,4.000000,4.000000,4.000000,4.000000,4.000000,4.000000,4.000000,4.000000,4.000000,4.000000,4.000000,4.000000,4.000000,4.000000,4.000000,4.000000,4.000000,4.000000,4.000000,4.000000,4.000000,4.000000,100.000000
1614076120.965241,89.000000,0.000000,-5.519402,4.795904,-6.439174,5.354027,13.289536,14.249579,0.134693,-3.603292,0.007186,8.396660,-3.607817,-11.918459,-28.529196,-3.925000,-116.591423,6.419488,-6.129930,12.680495,3.390701,-132.220337,-10.784499,-8.339055,-4.622444,5.455649,-9.740903,3.943253,1.236042,2.993450,3.974208,-0.784968,6.736985,12.925403,0.000000,186.000000,4.000000,,,,0.000000,4.000000,4.000000,4.000000,4.000000,4.000000,4.000000,4.000000,4.000000,4.000000,4.000000,4.000000,4.000000,4.000000,4.000000,4.000000,4.000000,4.000000,4.000000,2.000000,4.000000,4.000000,4.000000,4.000000,4.000000,4.000000,4.000000,4.000000,4.000000,4.000000,4.000000,4.000000,4.000000,83.333336
1614076120.972990,90.000000,0.000000,-1.924139,5.303929,-3.868633,4.835853,12.763426,11.671227,0.134559,-6.676612,-1.018462,9.413904,-4.117030,-14.470643,-36.192974,-8.023640,-131.859451,-24.356163,-10.226364,-17.075775,-1.740895,-137.729141,-17.440382,-9.356357,-6.669104,-1.216473,-6.141418,1.888027,1.747626,1.964815,2.944593,-0.271363,6.730247,12.399656,0.000000,132.000000,4.000000,,,,0.000000,4.000000,4.000000,4.000000,4.000000,4.000000,4.000000,4.000000,4.000000,4.000000,4.000000,4.000000,4.000000,4.000000,4.000000,4.000000,4.000000,4.000000,4.000000,2.000000,4.000000,4.000000,4.000000,4.000000,4.000000,4.000000,4.000000,4.000000,4.000000,4.000000,4.000000,4.000000,4.000000,83.333336
1614076120.980839,91.000000,0.000000,0.641887,5.811445,1.263441,5.343837,13.776303,11.659555,0.647245,-0.516089,0.008198,18.122438,-1.548810,-7.276685,-31.028576,-7.502795,-133.778870,-40.229240,-5.087933,-27.315109,9.542897,-134.001678,-14.858838,-4.218795,-3.072691,-2.753718,-5.109636,3.937421,3.797161,3.501312,4.992930,-0.271091,7.236338,12.900078,0.000000,184.000000,4.000000,,,,0.000000,4.000000,4.000000,4.000000,4.000000,4.000000,4.000000,4.000000,4.000000,4.000000,4.000000,4.000000,4.000000,4.000000,4.000000,4.000000,4.000000,4.000000,4.000000,2.000000,4.000000,4.000000,4.000000,4.000000,4.000000,4.000000,4.000000,4.000000,4.000000,4.000000,4.000000,4.000000,4.000000,83.333336
1614076120.988588,92.000000,0.000000,1.154066,5.292813,-2.327566,4.825673,12.736886,12.160717,2.185059,0.510068,0.521010,17.078676,1.016841,-2.141203,-26.894983,-7.495292,-131.080994,-31.983885,-5.595665,-24.210871,-8.928184,-139.508698,-22.023466,-3.188936,-1.018336,4.941343,-4.591706,1.369381,1.742082,2.472170,1.398194,-2.834923,5.177820,12.374357,0.000000,183.000000,4.000000,,,,0.000000,4.000000,4.000000,4.000000,4.000000,4.000000,4.000000,4.000000,4.000000,4.000000,4.000000,4.000000,4.000000,4.000000,4.000000,4.000000,4.000000,4.000000,4.000000,2.000000,4.000000,4.000000,4.000000,4.000000,4.000000,4.000000,4.000000,4.000000,4.000000,4.000000,4.000000,4.000000,4.000000,83.333336
1614076120.996337,93.000000,0.000000,0.640092,2.210598,-11.556007,-0.820178,4.006201,10.610094,4.234156,-6.157109,-5.120537,0.138520,-3.086740,-5.728806,-30.457832,-17.231386,-136.590927,-35.541645,-14.820839,-28.802044,-22.252588,-156.805084,-36.360416,-3.698567,-7.171164,-0.191803,-7.664037,-16.580706,-13.131455,-3.684149,-12.962179,-8.473113,0.044437,7.233778,0.000000,196.000000,4.000000,,,,0.000000,4.000000,4.000000,4.000000,4.000000,4.000000,4.000000,4.000000,4.000000,4.000000,4.000000,4.000000,4.000000,4.000000,4.000000,4.000000,4.000000,4.000000,4.000000,2.000000,4.000000,4.000000,4.000000,4.000000,4.000000,4.000000,4.000000,4.000000,4.000000,4.000000,4.000000,4.000000,4.000000,83.333336
1614076121.004086,94.000000,0.000000,-5.514395,-1.381357,-14.108554,-5.947563,-4.715755,6.496920,4.742743,-6.150952,-11.782083,-10.630850,-10.775961,-9.825641,-35.555580,-28.496206,-145.172287,-54.993282,-20.959864,-43.132217,-2.743157,-167.417511,-43.503544,-21.643587,-15.369121,-16.089046,-16.374323,-28.871817,-20.810631,-9.321490,-19.103064,-11.028743,-2.006890,-0.465764,0.000000,194.000000,4.000000,,,,0.000000,4.000000,4.000000,4.000000,4.000000,4.000000,4.000000,4.000000,4.000000,4.000000,4.000000,4.000000,4.000000,4.000000,4.000000,4.000000,4.000000,4.000000,4.000000,2.000000,4.000000,4.000000,4.000000,4.000000,4.000000,4.000000,4.000000,4.000000,4.000000,4.000000,4.000000,4.000000,4.000000,83.333336
1614076121.011735,95.000000,0.000000,-10.124265,-2.405616,-13.068805,-6.967257,-5.736680,3.926321,1.661077,-5.631980,-12.283121,-10.107398,-12.303647,-12.892738,-36.032845,-30.518993,-152.206604,-67.758804,-21.964544,-56.422417,-6.842978,-169.814194,-47.562607,-33.416813,-17.917854,-19.662703,-23.537436,-22.689100,-3.866744,-8.286528,-12.930114,-11.530535,2.097681,-4.055042,0.000000,187.000000,4.000000,,,,0.000000,4.000000,4.000000,4.000000,4.000000,4.000000,4.000000,4.000000,4.000000,4.000000,4.000000,4.000000,4.000000,4.000000,4.000000,4.000000,4.000000,4.000000,4.000000,2.000000,4.000000,4.000000,4.000000,4.000000,4.000000,4.000000,4.000000,4.000000,4.000000,4.000000,4.000000,4.000000,4.000000,83.333336
1614076121.019484,96.000000,0.000000,-10.114141,-2.403211,-13.055736,-6.960289,-5.730943,3.922395,-2.443149,-17.421221,-11.245197,-9.071650,-10.752881,-20.059332,-35.483990,-26.898729,-152.567215,-61.024376,-23.993862,-60.981380,-34.015621,-167.080276,-43.925301,-14.921860,-17.899937,-17.078938,-25.565180,-14.974103,5.880713,-8.791061,-10.865901,-13.057466,5.685327,-1.999705,8064.000000,0.000000,4.000000,,,,0.000000,4.000000,4.000000,4.000000,4.000000,4.000000,4.000000,4.000000,4.000000,4.000000,4.000000,4.000000,4.000000,4.000000,4.000000,4.000000,4.000000,4.000000,4.000000,2.000000,4.000000,4.000000,4.000000,4.000000,4.000000,4.000000,4.000000,4.000000,4.000000,4.000000,4.000000,4.000000,4.000000,83.333336
1614076121.027133,97.000000,0.000000,-16.257874,-1.375166,-10.991398,-2.337945,-6.238032,3.918472,-4.491988,-23.557646,-12.259593,-4.447193,-12.280590,-22.603376,-35.961327,-18.666702,-141.132599,-39.937710,-25.508331,-46.561424,-18.596991,-153.579865,-26.445477,-8.753092,-16.856396,-18.600319,-21.949871,-11.369385,-3.868758,-8.782270,-9.829394,-9.967485,5.679642,3.130500,8064.000000,0.000000,4.000000,,,,0.000000,4.000000,4.000000,4.000000,4.000000,4.000000,4.000000,4.000000,4.000000,4.000000,4.000000,4.000000,4.000000,4.000000,4.000000,4.000000,4.000000,4.000000,4.000000,2.000000,4.000000,4.000000,4.000000,4.000000,4.000000,4.000000,4.000000,4.000000,4.000000,4.000000,4.000000,4.000000,4.000000,83.333336
1614076121.034882,98.000000,0.000000,-19.318539,1.190311,-8.929125,6.895163,-0.590769,4.940195,-3.461854,-14.303318,-8.657590,3.762382,-11.755489,-19.503849,-35.412548,-6.853165,-125.606850,-16.820850,-19.841797,-13.694350,14.242119,-137.016022,-10.008774,-24.128954,-11.711334,-12.940693,-10.645869,-4.691349,-0.275146,-2.106822,-2.127257,-2.265210,12.340629,9.281216,8064.000000,0.000000,4.000000,,,,0.000000,4.000000,4.000000,4.000000,4.000000,4.000000,4.000000,4.000000,4.000000,4.000000,4.000000,4.000000,4.000000,4.000000,4.000000,4.000000,4.000000,4.000000,4.000000,2.000000,4.000000,4.000000,4.000000,4.000000,4.000000,4.000000,4.000000,4.000000,4.000000,4.000000,4.000000,4.000000,4.000000,83.333336
1614076121.042532,99.000000,0.000000,-8.017168,2.727582,-9.433016,8.939549,5.563668,7.499357,-3.458393,-9.673631,-5.059188,6.322722,-8.153990,-20.509987,-32.300209,-2.230927,-119.327400,-9.624542,-13.155288,7.344985,23.971466,-131.750809,-7.434663,-19.489441,-9.648340,1.431222,1.159648,-0.071273,13.571283,2.510670,1.464613,0.813978,18.482134,9.271935,8064.000000,0.000000,4.000000,,,,0.000000,4.000000,4.000000,4.000000,4.000000,4.000000,4.000000,4.000000,4.000000,4.000000,4.000000,4.000000,4.000000,4.000000,4.000000,4.000000,4.000000,4.000000,4.000000,2.000000,4.000000,4.000000,4.000000,4.000000,4.000000,4.000000,4.000000,4.000000,4.000000,4.000000,4.000000,4.000000,4.000000,83.333336
1614076121.050281,100.000000,0.000000,-3.393766,1.186393,-9.423583,5.853687,6.583745,8.004678,-4.480576,-10.689598,-3.515668,4.777938,-7.633016,-23.566401,-31.755091,-9.408183,-121.259354,-21.922609,-13.654953,0.670973,12.665443,-134.695984,-9.478510,-4.598156,-13.741257,5.532355,3.722591,-0.071202,8.942327,-2.620046,0.437508,-1.238118,12.309806,8.749842,8064.000000,0.000000,4.000000,,,,0.000000,4.000000,4.000000,4.000000,4.000000,4.000000,4.000000,4.000000,4.000000,4.000000,4.000000,4.000000,4.000000,4.000000,4.000000,4.000000,4.000000,4.000000,4.000000,2.000000,4.000000,4.000000,4.000000,4.000000,4.000000,4.000000,4.000000,4.000000,4.000000,4.000000,4.000000,4.000000,4.000000,83.333336
1614076121.057930,101.000000,0.000000,-9.544219,3.236489,-8.901339,7.899115,5.551521,7.483853,-2.424813,-4.012241,-1.973691,6.311622,-7.112562,-16.363346,-31.210514,-15.039801,-120.112457,-30.105816,-13.128478,-0.868159,15.729701,-133.022827,-7.417749,-3.055096,-12.701874,-3.191126,1.667586,-0.583951,-1.835846,-4.155888,0.437070,1.327223,6.143650,15.407759,8064.000000,0.000000,4.000000,,,,0.000000,4.000000,4.000000,4.000000,4.000000,4.000000,4.000000,4.000000,4.000000,4.000000,4.000000,4.000000,4.000000,4.000000,4.000000,4.000000,4.000000,4.000000,4.000000,2.000000,4.000000,4.000000,4.000000,4.000000,4.000000,4.000000,4.000000,4.000000,4.000000,4.000000,4.000000,4.000000,4.000000,83.333336
1614076121.065679,102.000000,0.000000,-4.406469,5.284534,-8.892437,8.404037,6.058790,9.527651,0.654535,1.119976,0.079565,10.407874,-2.490065,-7.116214,-28.615202,-15.024760,-117.941063,-19.819300,-9.012785,4.260914,7.508843,-130.838516,-6.384691,-1.513579,-6.535326,-7.290499,2.691560,-0.583367,-1.834010,1.489294,0.436633,3.377178,12.291352,16.930813,8064.000000,0.000000,4.000000,,,,0.000000,4.000000,4.000000,4.000000,4.000000,4.000000,4.000000,4.000000,4.000000,4.000000,4.000000,4.000000,4.000000,4.000000,4.000000,4.000000,4.000000,4.000000,4.000000,2.000000,4.000000,4.000000,4.000000,4.000000,4.000000,4.000000,4.000000,4.000000,4.000000,4.000000,4.000000,4.000000,4.000000,83.333336
1614076121.073328,103.000000,0.000000,3.290245,0.151045,-9.909186,2.241786,6.052731,11.569406,0.141060,3.170138,0.079486,13.474389,0.589348,-6.596277,-27.560946,-15.009736,-123.464142,-18.261019,-11.055055,-23.435654,-21.729435,-139.425629,-13.557794,-4.588989,-6.528790,-5.231927,3.201689,-0.582784,-1.319355,2.000625,-2.640726,-2.267225,14.843163,6.657472,8064.000000,0.000000,4.000000,,,,0.000000,4.000000,4.000000,4.000000,4.000000,4.000000,4.000000,4.000000,4.000000,4.000000,4.000000,4.000000,4.000000,4.000000,4.000000,4.000000,4.000000,4.000000,4.000000,2.000000,4.000000,4.000000,4.000000,4.000000,4.000000,4.000000,4.000000,4.000000,4.000000,4.000000,4.000000,4.000000,4.000000,83.333336
1614076121.081077,104.000000,0.000000,1.235673,-6.002952,-9.386456,-0.324558,5.021037,11.045015,-0.371901,8.295173,-0.433414,12.948094,-0.436882,-7.102501,-28.046204,-15.507546,-132.571442,-35.678654,-13.095282,-51.617348,-21.707705,-149.029785,-23.800646,-10.225426,-7.035082,-8.303618,-0.904077,-1.607842,-2.343677,-1.591119,-6.227829,-7.905983,8.674475,0.496968,8064.000000,0.000000,4.000000,,,,0.000000,4.000000,4.000000,4.000000,4.000000,4.000000,4.000000,4.000000,4.000000,4.000000,4.000000,4.000000,4.000000,4.000000,4.000000,4.000000,4.000000,4.000000,4.000000,2.000000,4.000000,4.000000,4.000000,4.000000,4.000000,4.000000,4.000000,4.000000,4.000000,4.000000,4.000000,4.000000,4.000000,83.333336
1614076121.088726,105.000000,0.000000,3.285719,-5.996949,-9.377069,1.214228,3.990375,12.059611,3.731035,5.209955,0.079839,7.806941,0.076375,-0.428732,-28.018158,-14.979218,-132.438873,-44.360924,-2.312955,-35.155472,2.416566,-144.778198,-24.802486,4.143774,2.202722,-11.372237,-4.492917,-3.144696,3.299692,-1.589528,-8.272883,-9.436539,5.588877,-1.041991,8064.000000,0.000000,4.000000,,,,0.000000,4.000000,4.000000,4.000000,4.000000,4.000000,4.000000,4.000000,4.000000,4.000000,4.000000,4.000000,4.000000,4.000000,4.000000,4.000000,4.000000,4.000000,4.000000,2.000000,4.000000,4.000000,4.000000,4.000000,4.000000,4.000000,4.000000,4.000000,4.000000,4.000000,4.000000,4.000000,4.000000,83.333336
1614076121.096576,106.000000,0.000000,3.282433,-5.990952,-14.495898,0.187373,1.935103,11.534732,2.188842,-5.051666,-1.971522,2.670929,-1.462162,1.110158,-27.990141,-15.477059,-130.255157,-42.778103,1.279101,-25.889549,-4.252517,-136.428299,-25.803324,13.370399,4.764622,-6.745481,-6.539706,-4.167192,4.322034,-0.562297,-7.238970,-13.016846,6.608929,-10.784538,8064.000000,0.000000,4.000000,,,,0.000000,4.000000,4.000000,4.000000,4.000000,4.000000,4.000000,4.000000,4.000000,4.000000,4.000000,4.000000,4.000000,4.000000,4.000000,4.000000,4.000000,4.000000,4.000000,2.000000,4.000000,4.000000,4.000000,4.000000,4.000000,4.000000,4.000000,4.000000,4.000000,4.000000,4.000000,4.000000,4.000000,83.333336
1614076121.104325,107.000000,0.000000,-7.490080,-5.472141,-17.558325,-3.915379,0.394706,4.856530,-5.505654,-5.046614,-4.020833,0.616976,-7.101726,-12.737105,-27.962151,-14.948762,-141.919769,-47.863529,-13.593973,-52.017506,-23.735443,-143.471344,-35.521111,-9.719893,-6.522194,-2.636171,-9.610089,-6.214307,-1.323314,-1.074555,-7.744551,-16.080751,5.576679,-19.491703,8064.000000,0.000000,4.000000,,,,0.000000,4.000000,4.000000,4.000000,4.000000,4.000000,4.000000,4.000000,4.000000,4.000000,4.000000,4.000000,4.000000,4.000000,4.000000,4.000000,4.000000,4.000000,4.000000,2.000000,4.000000,4.000000,4.000000,4.000000,4.000000,4.000000,4.000000,4.000000,4.000000,4.000000,4.000000,4.000000,4.000000,83.333336
1614076121.112174,108.000000,0.000000,-7.995410,0.687177,-12.412561,-2.373002,5.009696,5.877315,-4.474508,-0.426183,-4.016812,2.154821,-6.581804,-22.467958,-27.934187,-10.318429,-148.444519,-41.148998,-19.221405,-56.580872,-17.045042,-148.456085,-35.998409,-24.069149,-9.079775,-5.710458,-8.574838,-4.156811,2.780573,-1.073481,-8.249627,-11.962108,8.648026,-12.805544,8064.000000,0.000000,4.000000,,,,0.000000,4.000000,4.000000,4.000000,4.000000,4.000000,4.000000,4.000000,4.000000,4.000000,4.000000,4.000000,4.000000,4.000000,4.000000,4.000000,4.000000,4.000000,4.000000,2.000000,4.000000,4.000000,4.000000,4.000000,4.000000,4.000000,4.000000,4.000000,4.000000,4.000000,4.000000,4.000000,4.000000,83.333336
1614076121.119923,109.000000,0.000000,5.858739,5.814695,-5.733482,4.808858,13.722635,16.127848,0.658172,-1.964218,-4.525616,4.203948,-1.447017,-11.676260,-27.906254,-6.718367,-130.860184,-18.030928,-6.894491,-23.703779,-2.669022,-133.948654,-18.526514,0.570305,3.749818,-7.243209,0.664506,4.052474,15.085485,-1.072407,-0.549070,-3.232197,15.306044,0.540595,8064.000000,0.000000,4.000000,,,,0.000000,4.000000,4.000000,4.000000,4.000000,4.000000,4.000000,4.000000,4.000000,4.000000,4.000000,4.000000,4.000000,4.000000,4.000000,4.000000,4.000000,4.000000,4.000000,2.000000,4.000000,4.000000,4.000000,4.000000,4.000000,4.000000,4.000000,4.000000,4.000000,4.000000,4.000000,4.000000,4.000000,83.333336
1614076121.127773,110.000000,0.000000,6.365701,5.808881,-5.214929,9.419435,17.811476,17.650181,-0.368127,-2.987895,-4.008270,5.225385,-0.932749,0.130288,-27.878347,-8.250110,-110.729317,-4.679563,-0.220930,7.601976,7.077237,-112.789063,-1.584911,19.031273,12.976837,2.507624,6.817688,10.715089,18.147324,-1.071335,9.195069,4.463343,18.367661,7.719542,8064.000000,0.000000,4.000000,,,,0.000000,4.000000,4.000000,4.000000,4.000000,4.000000,4.000000,4.000000,4.000000,4.000000,4.000000,4.000000,4.000000,4.000000,4.000000,4.000000,4.000000,4.000000,4.000000,2.000000,4.000000,4.000000,4.000000,4.000000,4.000000,4.000000,4.000000,4.000000,4.000000,4.000000,4.000000,4.000000,4.000000,83.333336
1614076121.135522,111.000000,0.000000,-3.384255,5.290251,-5.722534,8.384374,16.768024,11.478685,2.196343,-3.497727,-1.952979,5.220160,-4.521560,0.130158,-27.850470,-10.293142,-112.669868,-11.854371,-1.759170,8.107195,12.711185,-107.548073,-0.044865,1.576345,10.399758,16.351271,3.733947,10.704373,12.488150,-1.070264,12.262797,8.048624,17.323652,9.250283,8064.000000,0.000000,4.000000,,,,0.000000,4.000000,4.000000,4.000000,4.000000,4.000000,4.000000,4.000000,4.000000,4.000000,4.000000,4.000000,4.000000,4.000000,4.000000,4.000000,4.000000,4.000000,4.000000,2.000000,4.000000,4.000000,4.000000,4.000000,4.000000,4.000000,4.000000,4.000000,4.000000,4.000000,4.000000,4.000000,4.000000,83.333336
1614076121.143371,112.000000,0.000000,-4.406512,5.797781,-4.178350,8.375990,16.751255,12.492847,9.886455,-3.494230,0.100256,3.676478,-4.004218,-1.408434,-27.309797,-12.334131,-125.377716,-26.201490,-6.372796,-10.875271,-0.122039,-122.825134,-13.378153,-19.963694,2.184230,13.770817,-0.885172,9.668028,8.373097,-1.069193,11.224894,4.963652,17.306328,9.241034,8064.000000,0.000000,4.000000,,,,0.000000,4.000000,4.000000,4.000000,4.000000,4.000000,4.000000,4.000000,4.000000,4.000000,4.000000,4.000000,4.000000,4.000000,4.000000,4.000000,4.000000,4.000000,4.000000,2.000000,4.000000,4.000000,4.000000,4.000000,4.000000,4.000000,4.000000,4.000000,4.000000,4.000000,4.000000,4.000000,4.000000,83.333336
1614076121.151120,113.000000,0.000000,-2.350823,5.791984,-6.225454,9.393254,16.734505,16.070099,11.415030,0.611829,-0.412665,1.108699,-4.000214,-1.407025,-29.333771,-15.911540,-132.944641,-38.995804,-15.084372,-20.607986,-10.891148,-141.676666,-27.723749,-18.918089,-4.997441,-3.678852,-5.499671,9.145539,5.287801,-1.068124,11.213668,2.907406,17.801844,9.744613,8064.000000,0.000000,4.000000,,,,0.000000,4.000000,4.000000,4.000000,4.000000,4.000000,4.000000,4.000000,4.000000,4.000000,4.000000,4.000000,4.000000,4.000000,4.000000,4.000000,4.000000,4.000000,4.000000,2.000000,4.000000,4.000000,4.000000,4.000000,4.000000,4.000000,4.000000,4.000000,4.000000,4.000000,4.000000,4.000000,4.000000,83.333336
1614076121.158969,114.000000,0.000000,-3.374113,5.273371,-8.783331,7.845400,15.692129,15.541207,7.813871,-1.952886,-0.412252,1.107590,-5.021854,-3.456900,-31.868540,-14.869987,-134.350159,-43.572189,-16.094929,-18.023275,-6.264872,-148.201660,-31.798590,-8.129939,-4.479623,-10.854660,-9.083915,4.521009,2.205590,-1.067056,7.612711,3.417319,17.271221,9.222048,8064.000000,0.000000,4.000000,,,,0.000000,4.000000,4.000000,4.000000,4.000000,4.000000,4.000000,4.000000,4.000000,4.000000,4.000000,4.000000,4.000000,4.000000,4.000000,4.000000,4.000000,4.000000,4.000000,2.000000,4.000000,4.000000,4.000000,4.000000,4.000000,4.000000,4.000000,4.000000,4.000000,4.000000,4.000000,4.000000,4.000000,83.333336
1614076121.166719,115.000000,0.000000,-3.883560,5.268098,-8.774548,7.837554,17.214899,15.012846,6.780416,-12.207343,-0.411840,1.106483,-3.991192,-3.966264,-31.323851,-15.880759,-134.728638,-39.938873,-6.848064,-24.159098,-18.566299,-147.540634,-32.792431,-5.044887,1.678702,-5.202780,-9.587651,1.952386,1.177744,-1.065989,1.451252,2.388261,17.253950,7.674364,8064.000000,0.000000,4.000000,,,,0.000000,4.000000,4.000000,4.000000,4.000000,4.000000,4.000000,4.000000,4.000000,4.000000,4.000000,4.000000,4.000000,4.000000,4.000000,4.000000,4.000000,4.000000,4.000000,2.000000,4.000000,4.000000,4.000000,4.000000,4.000000,4.000000,4.000000,4.000000,4.000000,4.000000,4.000000,4.000000,4.000000,83.333336
1614076121.174568,116.000000,0.000000,-3.879676,5.262830,-13.381158,9.368178,12.582299,13.459372,7.799277,-8.092572,-0.411428,0.079735,-5.525662,-1.911015,-27.702782,-23.044365,-134.593903,-44.001499,-1.713011,-41.058018,-35.983631,-147.393097,-35.323742,-6.065483,4.753947,-3.146295,-10.090884,2.463254,2.202207,-1.064923,-0.601481,-1.203871,17.236696,5.615407,8064.000000,0.000000,4.000000,,,,0.000000,4.000000,4.000000,4.000000,4.000000,4.000000,4.000000,4.000000,4.000000,4.000000,4.000000,4.000000,4.000000,4.000000,4.000000,4.000000,4.000000,4.000000,4.000000,2.000000,4.000000,4.000000,4.000000,4.000000,4.000000,4.000000,4.000000,4.000000,4.000000,4.000000,4.000000,4.000000,4.000000,83.333336
1614076121.182317,117.000000,0.000000,-3.362976,4.744747,-20.547264,4.230605,4.364589,10.881809,7.278657,3.710393,-0.411017,1.618117,-10.135521,-0.370643,-27.675079,-19.944397,-134.972122,-57.803654,-2.736939,-61.529778,-28.255339,-148.784164,-34.775597,-6.572237,3.723552,-3.655969,-10.593615,1.435150,1.687184,-1.063858,-0.600880,-1.715487,16.706638,4.584151,8064.000000,0.000000,4.000000,,,,0.000000,4.000000,4.000000,4.000000,4.000000,4.000000,4.000000,4.000000,4.000000,4.000000,4.000000,4.000000,4.000000,4.000000,4.000000,4.000000,4.000000,4.000000,4.000000,2.000000,4.000000,4.000000,4.000000,4.000000,4.000000,4.000000,4.000000,4.000000,4.000000,4.000000,4.000000,4.000000,4.000000,83.333336
1614076121.190166,118.000000,0.000000,-0.795510,4.740002,-19.501076,0.636631,8.975609,11.383748,7.271379,3.706682,-0.410606,6.744704,-3.458719,0.142548,-29.185865,-5.052659,-134.837158,-58.258671,-2.221381,-67.109276,-21.560417,-148.122559,-30.638258,-2.975922,4.232649,0.450251,-2.890713,2.459356,1.685497,-1.062794,-0.600279,5.978536,17.202751,3.553926,8064.000000,0.000000,4.000000,,,,0.000000,4.000000,4.000000,4.000000,4.000000,4.000000,4.000000,4.000000,4.000000,4.000000,4.000000,4.000000,4.000000,4.000000,4.000000,4.000000,4.000000,4.000000,4.000000,2.000000,4.000000,4.000000,4.000000,4.000000,4.000000,4.000000,4.000000,4.000000,4.000000,4.000000,4.000000,4.000000,4.000000,83.333336
1614076121.197915,119.000000,0.000000,0.743747,6.273723,-10.763625,8.841123,23.838428,11.372364,7.264107,0.626052,-0.410195,13.917446,11.929356,-0.883235,-24.541296,2.644702,-125.984367,-25.892719,-2.219160,-34.221653,-10.769626,-138.743668,-16.761467,4.719362,4.741237,5.065185,5.830127,6.559460,2.709453,-1.061731,1.964424,13.664865,17.185549,9.191398,8064.000000,0.000000,4.000000,,,,0.000000,4.000000,4.000000,4.000000,4.000000,4.000000,4.000000,4.000000,4.000000,4.000000,4.000000,4.000000,4.000000,4.000000,4.000000,4.000000,4.000000,4.000000,4.000000,2.000000,4.000000,4.000000,4.000000,4.000000,4.000000,4.000000,4.000000,4.000000,4.000000,4.000000,4.000000,4.000000,4.000000,83.333336
1614076121.205764,120.000000,0.000000,-0.795459,4.728988,-5.111836,16.011768,28.942795,9.822531,7.256843,2.163888,-0.409785,23.647120,19.609734,-0.369532,-12.209063,10.847185,-106.884026,6.953687,-1.704120,-1.366918,22.061657,-122.707489,3.768116,5.740283,4.223675,6.598581,5.824296,10.142645,4.758025,-1.060670,5.552203,14.676841,16.655542,19.951437,8192.000000,0.000000,4.000000,,,,0.000000,4.000000,4.000000,4.000000,4.000000,4.000000,4.000000,4.000000,4.000000,4.000000,4.000000,4.000000,4.000000,4.000000,4.000000,4.000000,4.000000,4.000000,4.000000,2.000000,4.000000,4.000000,4.000000,4.000000,4.000000,4.000000,4.000000,4.000000,4.000000,4.000000,4.000000,4.000000,4.000000,83.333336
1614076121.213513,121.000000,0.000000,1.256619,4.724259,-1.516981,16.508577,26.349749,16.992195,7.249586,4.725827,-0.409375,31.315779,17.538841,4.246222,-3.991725,23.656851,-94.982269,13.100579,1.887327,6.326757,32.296005,-113.354012,10.943834,1.631979,4.219451,8.130445,5.818472,10.132502,6.291729,-1.059609,7.597933,13.636523,17.151709,24.034050,8064.000000,0.000000,4.000000,,,,0.000000,4.000000,4.000000,4.000000,4.000000,4.000000,4.000000,4.000000,4.000000,4.000000,4.000000,4.000000,4.000000,4.000000,4.000000,4.000000,4.000000,4.000000,4.000000,2.000000,4.000000,4.000000,4.000000,4.000000,4.000000,4.000000,4.000000,4.000000,4.000000,4.000000,4.000000,4.000000,4.000000,83.333336
1614076121.221162,122.000000,0.000000,7.409208,11.899022,4.125562,20.081812,27.861860,28.257254,7.242336,11.900588,-0.408966,32.310104,18.034124,7.831720,-7.064656,20.556271,-98.989853,-15.630470,4.962363,-24.961620,0.981658,-112.215019,5.804686,6.245732,4.215232,7.609493,10.940859,9.609549,5.772617,-1.058549,7.077515,14.648528,19.698660,24.010015,8064.000000,0.000000,4.000000,,,,0.000000,4.000000,4.000000,4.000000,4.000000,4.000000,4.000000,4.000000,4.000000,4.000000,4.000000,4.000000,4.000000,4.000000,4.000000,4.000000,4.000000,4.000000,4.000000,2.000000,4.000000,4.000000,4.000000,4.000000,4.000000,4.000000,4.000000,4.000000,4.000000,4.000000,4.000000,4.000000,4.000000,83.333336
1614076121.228911,123.000000,0.000000,7.401799,15.989687,5.659898,22.113012,27.834000,28.228996,7.235094,14.452790,-0.408557,29.713692,18.528910,5.772606,-12.185797,3.612638,-105.044708,-32.537918,5.470221,-37.244350,-3.121888,-112.102806,7.337343,8.290768,4.211017,7.601884,13.494020,10.112760,5.766844,-1.057491,7.070437,13.608238,21.217422,22.447544,8064.000000,0.000000,4.000000,,,,0.000000,4.000000,4.000000,4.000000,4.000000,4.000000,4.000000,4.000000,4.000000,4.000000,4.000000,4.000000,4.000000,4.000000,4.000000,4.000000,4.000000,4.000000,4.000000,2.000000,4.000000,4.000000,4.000000,4.000000,4.000000,4.000000,4.000000,4.000000,4.000000,4.000000,4.000000,4.000000,4.000000,83.333336
1614076121.236560,124.000000,0.000000,1.753372,7.255749,-0.499608,13.885772,22.677959,22.046921,7.227859,2.130645,-0.408148,24.042952,13.382175,3.202731,-13.199252,-2.032001,-107.503769,-26.351532,5.977571,-31.053261,4.573542,-113.016342,4.765903,1.102990,4.206806,8.107102,12.454885,9.589827,5.761077,-1.056433,7.576187,9.492065,19.144922,16.784071,8064.000000,0.000000,4.000000,,,,0.000000,4.000000,4.000000,4.000000,4.000000,4.000000,4.000000,4.000000,4.000000,4.000000,4.000000,4.000000,4.000000,4.000000,4.000000,4.000000,4.000000,4.000000,4.000000,2.000000,4.000000,4.000000,4.000000,4.000000,4.000000,4.000000,4.000000,4.000000,4.000000,4.000000,4.000000,4.000000,4.000000,83.333336
1614076121.244309,125.000000,0.000000,2.264439,0.581826,-5.627314,7.718040,18.552717,21.512054,7.220631,-2.999691,-1.433381,15.300961,9.779050,3.199528,-12.673232,0.021314,-106.883446,-25.299540,3.920312,-34.099133,-12.354109,-115.467430,-9.597837,1.614708,4.202599,5.022072,12.442430,9.580236,5.755316,-1.055377,7.055790,6.405651,16.561674,11.639082,8064.000000,0.000000,4.000000,,,,0.000000,4.000000,4.000000,4.000000,4.000000,4.000000,4.000000,4.000000,4.000000,4.000000,4.000000,4.000000,4.000000,4.000000,4.000000,4.000000,4.000000,4.000000,4.000000,2.000000,4.000000,4.000000,4.000000,4.000000,4.000000,4.000000,4.000000,4.000000,4.000000,4.000000,4.000000,4.000000,4.000000,83.333336
1614076121.251958,126.000000,0.000000,6.877559,4.170988,-5.621686,7.710321,19.046986,23.029003,7.213410,7.772540,-0.406307,11.183096,9.769271,3.709149,-13.173380,-1.004349,-106.263741,-32.966549,1.865110,-33.039391,-7.726370,-116.890419,-12.665163,6.741298,4.198396,4.504230,12.942809,9.570657,5.749561,-1.054322,7.048735,5.886425,16.545113,13.678724,8064.000000,0.000000,4.000000,,,,0.000000,4.000000,4.000000,4.000000,4.000000,4.000000,4.000000,4.000000,4.000000,4.000000,4.000000,4.000000,4.000000,4.000000,4.000000,4.000000,4.000000,4.000000,4.000000,2.000000,4.000000,4.000000,4.000000,4.000000,4.000000,4.000000,4.000000,4.000000,4.000000,4.000000,4.000000,4.000000,4.000000,83.333336
1614076121.259707,127.000000,0.000000,6.357861,5.705278,-5.616065,8.215431,19.540760,21.980333,6.180556,10.841690,2.158202,11.684733,10.272323,3.192620,-15.211488,-1.516165,-111.285683,-34.472042,1.863244,-26.339685,8.691612,-117.799171,-5.985831,9.811480,4.194198,9.115110,12.417046,9.561086,5.743811,-1.053267,7.041686,5.880538,17.041389,15.716328,8064.000000,0.000000,4.000000,,,,0.000000,4.000000,4.000000,4.000000,4.000000,4.000000,4.000000,4.000000,4.000000,4.000000,4.000000,4.000000,4.000000,4.000000,4.000000,4.000000,4.000000,4.000000,4.000000,2.000000,4.000000,4.000000,4.000000,4.000000,4.000000,4.000000,4.000000,4.000000,4.000000,4.000000,4.000000,4.000000,4.000000,83.333336
1614076121.267357,0.000000,0.000000,3.787401,5.186753,-6.123269,7.694396,19.008398,21.445534,7.712837,1.600079,2.668864,11.673048,9.749229,3.189427,-16.734737,-1.514649,-119.892342,-32.386288,-2.241183,-42.723602,-14.394002,-118.194191,-10.082409,18.006796,4.190003,12.182919,12.404629,9.551525,6.250888,-1.052214,7.034644,6.387478,16.511526,15.187791,0.000000,215.000000,4.000000,,,,0.000000,4.000000,4.000000,4.000000,4.000000,4.000000,4.000000,4.000000,4.000000,4.000000,4.000000,4.000000,4.000000,4.000000,4.000000,4.000000,4.000000,4.000000,4.000000,2.000000,4.000000,4.000000,4.000000,4.000000,4.000000,4.000000,4.000000,4.000000,4.000000,4.000000,4.000000,4.000000,4.000000,83.333336
1614076121.275106,1.000000,0.000000,3.270793,7.745668,-6.117146,7.686701,18.989389,21.936909,10.782047,-0.452803,3.179016,12.174196,10.252300,3.186238,-17.743645,0.538148,-121.823730,-32.353901,-9.418428,-70.886009,-30.789864,-121.152924,-17.251814,10.809302,4.185813,11.657915,12.392223,9.541973,4.706175,-1.051162,7.027610,8.432372,16.495016,15.685424,0.000000,219.000000,4.000000,,,,0.000000,4.000000,4.000000,4.000000,4.000000,4.000000,4.000000,4.000000,4.000000,4.000000,4.000000,4.000000,4.000000,4.000000,4.000000,4.000000,4.000000,4.000000,4.000000,2.000000,4.000000,4.000000,4.000000,4.000000,4.000000,4.000000,4.000000,4.000000,4.000000,4.000000,4.000000,4.000000,4.000000,83.333336
1614076121.282755,2.000000,0.000000,3.780342,9.276384,-5.598208,8.191835,19.483221,21.914970,8.207163,4.163034,7.791222,15.238945,10.754869,3.183051,-15.674619,6.178636,-117.599342,-30.270266,-10.434651,-60.045891,-2.553946,-124.108696,-12.619178,-13.304070,4.181628,10.107796,12.892652,9.532432,6.239931,-1.050111,7.020582,10.475223,19.042624,15.669739,0.000000,175.000000,4.000000,,,,0.000000,4.000000,4.000000,4.000000,4.000000,4.000000,4.000000,4.000000,4.000000,4.000000,4.000000,4.000000,4.000000,4.000000,4.000000,4.000000,4.000000,4.000000,4.000000,2.000000,4.000000,4.000000,4.000000,4.000000,4.000000,4.000000,4.000000,4.000000,4.000000,4.000000,4.000000,4.000000,4.000000,83.333336
1614076121.290504,3.000000,0.000000,6.340665,8.754288,-5.592610,9.722105,19.463737,21.893057,8.198956,4.671692,10.860353,16.249348,10.231294,3.179868,-11.556380,11.300662,-112.353539,-24.598970,-6.834473,-27.165331,21.038351,-116.292274,-4.401430,-6.111279,4.177446,6.507944,10.828477,10.035719,9.310614,-1.049060,7.013561,10.464747,20.562042,16.166889,0.000000,192.000000,4.000000,,,,0.000000,4.000000,4.000000,4.000000,4.000000,4.000000,4.000000,4.000000,4.000000,4.000000,4.000000,4.000000,4.000000,4.000000,4.000000,4.000000,4.000000,4.000000,4.000000,2.000000,4.000000,4.000000,4.000000,4.000000,4.000000,4.000000,4.000000,4.000000,4.000000,4.000000,4.000000,4.000000,4.000000,83.333336
1614076121.298153,4.000000,0.000000,7.359965,11.309636,-5.587018,11.763664,19.444273,21.871162,15.370244,3.641379,10.849493,15.720277,10.221063,3.176688,-8.467900,11.802182,-107.112984,-20.984629,-5.801998,-15.343293,22.042953,-107.970856,-0.807285,16.971754,4.173269,3.424513,8.766367,7.974401,6.224380,-1.048011,7.006548,10.454282,20.541479,19.227646,0.000000,191.000000,4.000000,,,,0.000000,4.000000,4.000000,4.000000,4.000000,4.000000,4.000000,4.000000,4.000000,4.000000,4.000000,4.000000,4.000000,4.000000,4.000000,4.000000,4.000000,4.000000,4.000000,2.000000,4.000000,4.000000,4.000000,4.000000,4.000000,4.000000,4.000000,4.000000,4.000000,4.000000,4.000000,4.000000,4.000000,83.333336
1614076121.305902,5.000000,0.000000,2.224400,12.836787,-5.581430,11.751901,19.424829,21.849291,15.867694,3.637738,10.838644,15.704556,10.210841,3.173512,-8.972253,7.174995,-108.031509,-19.938002,-6.309016,-41.481796,12.790141,-118.119293,-3.370580,1.570168,4.169096,3.421088,8.757601,5.915145,3.141233,-1.046963,6.999541,8.392546,20.520939,19.721239,0.000000,199.000000,4.000000,,,,0.000000,4.000000,4.000000,4.000000,4.000000,4.000000,4.000000,4.000000,4.000000,4.000000,4.000000,4.000000,4.000000,4.000000,4.000000,4.000000,4.000000,4.000000,4.000000,2.000000,4.000000,4.000000,4.000000,4.000000,4.000000,4.000000,4.000000,4.000000,4.000000,4.000000,4.000000,4.000000,4.000000,83.333336
1614076121.313551,6.000000,0.000000,1.709355,12.311131,-5.575849,11.740149,19.405405,21.827442,8.159518,3.634100,8.263702,15.176032,5.072425,3.170338,-13.065845,1.013974,-116.641426,-28.636013,-6.302707,-59.901852,-9.273931,-130.821686,-12.085158,-13.303197,4.164926,3.930488,7.723202,5.396410,8.266296,-1.045916,6.992542,4.281590,20.500418,15.086132,0.000000,188.000000,4.000000,,,,0.000000,4.000000,4.000000,4.000000,4.000000,4.000000,4.000000,4.000000,4.000000,4.000000,4.000000,4.000000,4.000000,4.000000,4.000000,4.000000,4.000000,4.000000,4.000000,2.000000,4.000000,4.000000,4.000000,4.000000,4.000000,4.000000,4.000000,4.000000,4.000000,4.000000,4.000000,4.000000,4.000000,83.333336
1614076121.321301,7.000000,0.000000,6.323030,12.298820,-5.570273,11.728409,18.873178,21.805614,5.587256,4.656107,3.640054,14.648035,-3.650596,3.167168,-17.155344,-1.551143,-122.165810,-45.017635,-5.783584,-57.277847,-14.392861,-130.690872,-16.175638,10.299850,4.160761,3.413737,5.151376,5.903833,12.873415,-1.044870,6.985549,2.226026,20.479918,11.481302,0.000000,165.000000,4.000000,,,,0.000000,4.000000,4.000000,4.000000,4.000000,4.000000,4.000000,4.000000,4.000000,4.000000,4.000000,4.000000,4.000000,4.000000,4.000000,4.000000,4.000000,4.000000,4.000000,2.000000,4.000000,4.000000,4.000000,4.000000,4.000000,4.000000,4.000000,4.000000,4.000000,4.000000,4.000000,4.000000,4.000000,83.333336
1614076121.328950,8.000000,0.000000,4.778246,12.286520,-5.564703,11.203860,19.367126,21.783810,7.632951,3.112989,2.610773,15.146208,-4.672586,3.164001,-17.651009,-2.062412,-119.479546,-45.998257,-3.726518,-56.194931,-2.070777,-129.534531,-17.185102,21.571600,4.156600,3.410323,4.633404,5.897930,9.783619,-1.043826,6.978564,2.736620,20.459436,11.982642,0.000000,182.000000,4.000000,,,,0.000000,4.000000,4.000000,4.000000,4.000000,4.000000,4.000000,4.000000,4.000000,4.000000,4.000000,4.000000,4.000000,4.000000,4.000000,4.000000,4.000000,4.000000,4.000000,2.000000,4.000000,4.000000,4.000000,4.000000,4.000000,4.000000,4.000000,4.000000,4.000000,4.000000,4.000000,4.000000,4.000000,83.333336
1614076121.336699,9.000000,0.000000,-0.354738,12.274234,-6.071959,12.218297,19.347759,21.762026,7.112498,-0.479867,2.608162,15.131062,0.973112,3.160837,-16.094896,-5.650093,-116.795959,-25.952259,-2.184330,-60.241299,-13.863578,-129.917816,-19.732019,5.652593,4.152444,3.406913,5.141591,5.892032,8.235373,-1.042782,6.971585,2.733884,20.438978,12.483479,0.000000,201.000000,4.000000,,,,0.000000,4.000000,4.000000,4.000000,4.000000,4.000000,4.000000,4.000000,4.000000,4.000000,4.000000,4.000000,4.000000,4.000000,4.000000,4.000000,4.000000,4.000000,4.000000,2.000000,4.000000,4.000000,4.000000,4.000000,4.000000,4.000000,4.000000,4.000000,4.000000,4.000000,4.000000,4.000000,4.000000,83.333336
1614076121.344348,10.000000,0.000000,-0.867203,12.261960,-5.553066,14.770182,18.815590,21.740263,6.592565,4.648818,2.605554,15.115931,3.023421,3.670496,-16.591621,-3.080341,-117.191986,-16.695538,-2.182146,-50.950287,-17.439457,-126.710983,-13.558442,1.031556,4.148292,3.916326,4.623629,5.886140,10.278420,-1.041739,6.964613,2.218329,20.418539,10.932535,0.000000,202.000000,4.000000,,,,0.000000,4.000000,4.000000,4.000000,4.000000,4.000000,4.000000,4.000000,4.000000,4.000000,4.000000,4.000000,4.000000,4.000000,4.000000,4.000000,4.000000,4.000000,4.000000,2.000000,4.000000,4.000000,4.000000,4.000000,4.000000,4.000000,4.000000,4.000000,4.000000,4.000000,4.000000,4.000000,4.000000,83.333336
1614076121.352197,11.000000,0.000000,0.159305,12.249698,-2.983411,15.781053,19.822416,21.718523,7.098793,15.926220,6.192692,22.280302,6.097321,2.641185,-18.626312,10.256073,-117.587616,-25.396790,-2.179964,-32.437801,15.398495,-126.071449,2.352552,1.030525,4.144143,3.912410,5.131826,5.880254,7.704039,-1.040697,6.957649,2.728931,20.398121,12.460064,0.000000,201.000000,4.000000,,,,0.000000,4.000000,4.000000,4.000000,4.000000,4.000000,4.000000,4.000000,4.000000,4.000000,4.000000,4.000000,4.000000,4.000000,4.000000,4.000000,4.000000,4.000000,4.000000,2.000000,4.000000,4.000000,4.000000,4.000000,4.000000,4.000000,4.000000,4.000000,4.000000,4.000000,4.000000,4.000000,4.000000,83.333336
1614076121.359947,12.000000,0.000000,0.671966,12.237448,-1.954786,15.765271,22.366695,21.696804,7.091694,20.525679,10.289063,34.052895,17.886095,3.151364,-11.428199,22.040689,-115.418747,-25.371393,-2.690604,-21.123310,24.101046,-124.406914,7.478405,4.106417,4.139999,3.395677,7.690797,6.387194,5.645053,-1.039657,6.950691,2.726202,20.377722,15.524527,0.000000,170.000000,4.000000,,,,0.000000,4.000000,4.000000,4.000000,4.000000,4.000000,4.000000,4.000000,4.000000,4.000000,4.000000,4.000000,4.000000,4.000000,4.000000,4.000000,4.000000,4.000000,4.000000,2.000000,4.000000,4.000000,4.000000,4.000000,4.000000,4.000000,4.000000,4.000000,4.000000,4.000000,4.000000,4.000000,4.000000,83.333336
1614076121.367796,13.000000,0.000000,3.235397,12.225210,-1.440011,15.749506,23.882792,22.187929,7.084602,18.453871,10.791595,38.121403,24.022055,5.712316,-1.673181,23.044289,-112.739227,-10.987048,-1.662273,-17.512444,4.589764,-114.538918,5.932465,22.563848,4.135859,5.443563,9.221567,6.380806,8.203510,-1.038617,6.943741,2.723476,20.870165,14.483361,0.000000,198.000000,4.000000,,,,0.000000,4.000000,4.000000,4.000000,4.000000,4.000000,4.000000,4.000000,4.000000,4.000000,4.000000,4.000000,4.000000,4.000000,4.000000,4.000000,4.000000,4.000000,4.000000,2.000000,4.000000,4.000000,4.000000,4.000000,4.000000,4.000000,4.000000,4.000000,4.000000,4.000000,4.000000,4.000000,4.000000,83.333336
1614076121.375545,14.000000,0.000000,4.257802,12.212985,0.099891,14.708116,22.320446,21.652920,7.077518,18.435417,10.780804,33.980721,13.741623,6.219424,-6.799713,15.328938,-112.626488,-2.258112,0.903492,-24.161598,8.687738,-105.706429,6.439353,19.977182,4.131723,10.053505,8.699526,5.861605,9.733768,-1.037578,6.936797,2.720753,18.285192,11.904776,0.000000,207.000000,4.000000,,,,0.000000,4.000000,4.000000,4.000000,4.000000,4.000000,4.000000,4.000000,4.000000,4.000000,4.000000,4.000000,4.000000,4.000000,4.000000,4.000000,4.000000,4.000000,4.000000,2.000000,4.000000,4.000000,4.000000,4.000000,4.000000,4.000000,4.000000,4.000000,4.000000,4.000000,4.000000,4.000000,4.000000,83.333336
1614076121.383394,15.000000,0.000000,3.227903,12.200772,2.151073,16.231869,22.810947,22.144087,7.070440,19.955442,10.257202,31.382635,2.958650,3.649102,-19.613426,8.646941,-112.513855,-11.999444,1.928230,-45.675900,8.679050,-108.677650,-1.772215,-11.837667,4.127592,12.094733,9.203647,6.881385,9.211214,-1.036541,6.929860,2.718032,16.728445,11.892871,0.000000,180.000000,4.000000,,,,0.000000,4.000000,4.000000,4.000000,4.000000,4.000000,4.000000,4.000000,4.000000,4.000000,4.000000,4.000000,4.000000,4.000000,4.000000,4.000000,4.000000,4.000000,4.000000,2.000000,4.000000,4.000000,4.000000,4.000000,4.000000,4.000000,4.000000,4.000000,4.000000,4.000000,4.000000,4.000000,4.000000,83.333336
1614076121.391144,16.000000,0.000000,4.763137,12.701392,2.661742,14.164355,24.326597,22.634764,7.063370,17.371386,7.682842,26.223047,1.930051,2.619812,-21.645094,2.997269,-111.888527,-31.474623,1.926301,-59.989197,-17.483475,-115.748459,-21.257622,-12.851470,4.636284,9.518536,9.194443,5.848862,9.202003,-1.035504,6.922930,2.715314,16.711718,11.880978,0.000000,203.000000,4.000000,,,,0.000000,4.000000,4.000000,4.000000,4.000000,4.000000,4.000000,4.000000,4.000000,4.000000,4.000000,4.000000,4.000000,4.000000,4.000000,4.000000,4.000000,4.000000,4.000000,2.000000,4.000000,4.000000,4.000000,4.000000,4.000000,4.000000,4.000000,4.000000,4.000000,4.000000,4.000000,4.000000,4.000000,83.333336
1614076121.398993,17.000000,0.000000,3.732733,11.150229,-0.417842,3.380960,17.635605,16.971104,7.056306,9.661706,6.649518,14.401953,3.466582,3.642833,-19.059347,-8.287780,-113.827919,-41.186737,1.924375,-48.134335,-21.055735,-117.683990,-29.954313,10.238305,4.118828,6.432094,2.518582,-2.874935,9.705622,-1.034469,6.916008,2.199778,15.669364,9.304994,0.000000,170.000000,4.000000,,,,0.000000,4.000000,4.000000,4.000000,4.000000,4.000000,4.000000,4.000000,4.000000,4.000000,4.000000,4.000000,4.000000,4.000000,4.000000,4.000000,4.000000,4.000000,4.000000,2.000000,4.000000,4.000000,4.000000,4.000000,4.000000,4.000000,4.000000,4.000000,4.000000,4.000000,4.000000,4.000000,4.000000,83.333336
1614076121.406742,18.000000,0.000000,-0.373564,9.087797,-5.032809,-3.289088,6.848738,7.723363,7.049250,2.985378,5.104407,7.720884,2.437474,3.126369,-20.578749,-20.074364,-115.765373,-37.042988,1.409630,-35.265690,-6.162884,-116.540665,-22.744871,4.587041,4.114709,4.887200,-3.124963,-11.590009,9.695916,-1.033434,6.909091,2.710399,13.089592,7.757227,0.000000,183.000000,4.000000,,,,0.000000,4.000000,4.000000,4.000000,4.000000,4.000000,4.000000,4.000000,4.000000,4.000000,4.000000,4.000000,4.000000,4.000000,4.000000,4.000000,4.000000,4.000000,4.000000,2.000000,4.000000,4.000000,4.000000,4.000000,4.000000,4.000000,4.000000,4.000000,4.000000,4.000000,4.000000,4.000000,4.000000,83.333336
1614076121.414591,19.000000,0.000000,-1.911652,7.540247,-6.053418,1.329586,9.918812,5.664358,7.042201,3.495213,3.048021,6.687522,1.409396,3.123243,-21.070992,-17.490187,-114.111145,-35.980305,2.433861,-39.845806,-6.156721,-117.449768,-13.491358,-5.161136,4.110594,3.856672,-2.609017,-13.116880,9.686220,-1.032401,6.902182,2.707688,12.563682,7.749470,0.000000,209.000000,4.000000,,,,0.000000,4.000000,4.000000,4.000000,4.000000,4.000000,4.000000,4.000000,4.000000,4.000000,4.000000,4.000000,4.000000,4.000000,4.000000,4.000000,4.000000,4.000000,4.000000,2.000000,4.000000,4.000000,4.000000,4.000000,4.000000,4.000000,4.000000,4.000000,4.000000,4.000000,4.000000,4.000000,4.000000,83.333336
1614076121.422340,20.000000,0.000000,0.141542,4.968605,-6.047364,4.405180,18.114021,6.684335,7.035159,7.594282,2.532152,5.655194,2.433628,3.632940,-19.511457,-6.190645,-111.432930,-37.995605,1.405787,-43.395706,-2.048000,-119.896423,-9.375302,5.613256,3.080842,2.827175,-2.093588,-12.590943,8.138072,-1.031368,6.895280,2.192160,13.063939,9.280183,0.000000,202.000000,4.000000,,,,0.000000,4.000000,4.000000,4.000000,4.000000,4.000000,4.000000,4.000000,4.000000,4.000000,4.000000,4.000000,4.000000,4.000000,4.000000,4.000000,4.000000,4.000000,4.000000,2.000000,4.000000,4.000000,4.000000,4.000000,4.000000,4.000000,4.000000,4.000000,4.000000,4.000000,4.000000,4.000000,4.000000,83.333336
1614076121.430189,21.000000,0.000000,-0.884241,4.450816,-6.041317,4.913595,17.583086,5.652009,6.515303,6.561047,2.529620,15.905949,5.508117,0.552384,-22.056049,-1.056249,-111.834320,-25.649918,-7.826388,-35.660000,1.543791,-123.366264,-7.314645,3.556361,-0.511982,3.337168,-3.629956,-13.091173,4.027370,-1.030337,6.888385,4.754071,12.538054,12.860646,0.000000,194.000000,4.000000,,,,0.000000,4.000000,4.000000,4.000000,4.000000,4.000000,4.000000,4.000000,4.000000,4.000000,4.000000,4.000000,4.000000,4.000000,4.000000,4.000000,4.000000,4.000000,4.000000,2.000000,4.000000,4.000000,4.000000,4.000000,4.000000,4.000000,4.000000,4.000000,4.000000,4.000000,4.000000,4.000000,4.000000,83.333336
1614076121.437938,22.000000,0.000000,-3.960280,7.010468,-1.932711,11.575348,23.719351,9.748921,7.534429,3.990383,2.527091,33.838760,8.579532,-4.576373,-23.572454,3.047371,-111.722481,-12.290935,-17.562151,-33.060238,-16.919291,-128.371109,-8.332971,-11.318991,-5.126854,4.359472,-1.062223,-9.488338,-2.643324,-1.029307,6.881496,10.903163,13.551157,16.437529,0.000000,192.000000,4.000000,,,,0.000000,4.000000,4.000000,4.000000,4.000000,4.000000,4.000000,4.000000,4.000000,4.000000,4.000000,4.000000,4.000000,4.000000,4.000000,4.000000,4.000000,4.000000,4.000000,2.000000,4.000000,4.000000,4.000000,4.000000,4.000000,4.000000,4.000000,4.000000,4.000000,4.000000,4.000000,4.000000,4.000000,83.333336
1614076121.445787,23.000000,0.000000,-3.956319,8.541919,4.223068,16.691978,36.003323,19.482761,9.578176,9.114597,6.114307,39.958767,11.135056,-4.571797,-21.497601,9.198170,-111.610764,-22.535053,-19.083052,-35.591282,-17.928013,-132.858124,-12.427202,-15.410235,-6.660189,-2.824375,6.631147,-2.812183,-7.256065,-1.028277,6.874615,13.969183,16.101709,16.421091,0.000000,206.000000,4.000000,,,,0.000000,4.000000,4.000000,4.000000,4.000000,4.000000,4.000000,4.000000,4.000000,4.000000,4.000000,4.000000,4.000000,4.000000,4.000000,4.000000,4.000000,4.000000,4.000000,2.000000,4.000000,4.000000,4.000000,4.000000,4.000000,4.000000,4.000000,4.000000,4.000000,4.000000,4.000000,4.000000,4.000000,83.333336
1614076121.453536,24.000000,0.000000,-3.439543,8.533377,6.270127,15.136824,34.428860,22.540203,10.594239,19.874714,10.210757,34.277782,15.739305,-2.003123,-19.937641,12.265895,-112.011971,-37.897133,-12.397302,-34.017227,11.833506,-130.161163,-7.799390,-8.728159,-2.038144,-8.975396,9.701439,-0.245268,-2.633425,-1.540070,6.867740,11.903932,15.059966,10.763644,0.000000,198.000000,4.000000,,,,0.000000,4.000000,4.000000,4.000000,4.000000,4.000000,4.000000,4.000000,4.000000,4.000000,4.000000,4.000000,4.000000,4.000000,4.000000,4.000000,4.000000,4.000000,4.000000,2.000000,4.000000,4.000000,4.000000,4.000000,4.000000,4.000000,4.000000,4.000000,4.000000,4.000000,4.000000,4.000000,4.000000,83.333336
1614076121.461385,25.000000,0.000000,-3.436103,8.524843,5.238215,15.121687,26.702122,21.492022,10.583645,24.470224,10.713367,33.730686,18.287668,-0.975478,-20.430525,11.740808,-111.387138,-30.679750,-2.128494,-40.649879,13.872953,-122.338692,-2.663386,8.716467,8.220304,2.828451,8.666097,-1.270664,8.651260,-0.512889,6.860872,9.840745,12.993624,5.111855,0.000000,205.000000,4.000000,,,,0.000000,4.000000,4.000000,4.000000,4.000000,4.000000,4.000000,4.000000,4.000000,4.000000,4.000000,4.000000,4.000000,4.000000,4.000000,4.000000,4.000000,4.000000,4.000000,2.000000,4.000000,4.000000,4.000000,4.000000,4.000000,4.000000,4.000000,4.000000,4.000000,4.000000,4.000000,4.000000,4.000000,83.333336
1614076121.469134,26.000000,0.000000,-3.432667,9.029139,5.232977,15.619386,28.726702,25.060272,13.137164,20.856010,11.215474,34.722595,15.705277,-0.461682,-19.897272,6.600863,-112.301392,-28.084967,1.463378,-66.250252,-18.448612,-129.395844,-18.045338,19.989801,12.827468,15.133314,8.657431,-1.269393,13.770814,2.051727,6.854012,9.830905,12.467810,3.568282,0.000000,151.000000,4.000000,,,,0.000000,4.000000,4.000000,4.000000,4.000000,4.000000,4.000000,4.000000,4.000000,4.000000,4.000000,4.000000,4.000000,4.000000,4.000000,4.000000,4.000000,4.000000,4.000000,2.000000,4.000000,4.000000,4.000000,4.000000,4.000000,4.000000,4.000000,4.000000,4.000000,4.000000,4.000000,4.000000,4.000000,83.333336
1614076121.476783,27.000000,0.000000,-3.429234,9.020110,6.253385,15.090946,29.723616,26.573673,15.175309,14.681308,7.614515,30.072489,13.125470,-1.486862,-20.903017,-5.713431,-117.317299,-50.108166,-1.615008,-80.030159,-31.763496,-142.599777,-39.565754,-0.030188,7.173615,4.861771,9.161593,-0.755303,12.731402,3.075316,7.359978,10.333894,13.480983,4.590354,0.000000,212.000000,4.000000,,,,0.000000,4.000000,4.000000,4.000000,4.000000,4.000000,4.000000,4.000000,4.000000,4.000000,4.000000,4.000000,4.000000,4.000000,4.000000,4.000000,4.000000,4.000000,4.000000,2.000000,4.000000,4.000000,4.000000,4.000000,4.000000,4.000000,4.000000,4.000000,4.000000,4.000000,4.000000,4.000000,4.000000,83.333336
1614076121.484532,28.000000,0.000000,-3.425805,8.498269,5.221491,15.075855,23.540047,22.444536,12.596031,11.076882,0.940234,24.914211,13.625165,-0.972554,-19.856472,-12.374384,-118.738441,-57.750362,3.514812,-60.975769,-16.859938,-132.200760,-38.500546,-16.953236,4.602339,-7.963603,8.639611,-1.267369,12.718671,2.559420,6.839797,9.297919,12.954681,4.072944,0.000000,188.000000,4.000000,,,,0.000000,4.000000,4.000000,4.000000,4.000000,4.000000,4.000000,4.000000,4.000000,4.000000,4.000000,4.000000,4.000000,4.000000,4.000000,4.000000,4.000000,4.000000,4.000000,2.000000,4.000000,4.000000,4.000000,4.000000,4.000000,4.000000,4.000000,4.000000,4.000000,4.000000,4.000000,4.000000,4.000000,83.333336
1614076121.492181,29.000000,0.000000,-3.422379,8.489771,2.652167,15.060780,20.952404,20.883631,10.532153,11.065805,-0.599168,24.889297,13.611540,8.259188,-12.657129,-12.362010,-114.004318,-37.179794,14.793348,-43.478893,-2.996924,-106.940361,-22.051790,3.576539,12.290045,-4.365897,8.630972,-1.266101,13.731593,2.556861,7.345778,9.288621,12.941727,3.556050,0.000000,196.000000,4.000000,,,,0.000000,4.000000,4.000000,4.000000,4.000000,4.000000,4.000000,4.000000,4.000000,4.000000,4.000000,4.000000,4.000000,4.000000,4.000000,4.000000,4.000000,4.000000,4.000000,2.000000,4.000000,4.000000,4.000000,4.000000,4.000000,4.000000,4.000000,4.000000,4.000000,4.000000,4.000000,4.000000,4.000000,83.333336
1614076121.499930,30.000000,0.000000,-3.418957,8.994102,1.111053,15.045718,22.469913,21.888388,10.521621,11.054740,2.991174,25.890049,13.085108,17.994518,-8.029087,-14.400929,-109.787750,-26.373383,17.342657,-43.948238,1.621457,-96.577011,-8.183585,25.624245,18.944422,0.766675,8.622340,-1.264835,12.692221,2.554304,7.338433,10.304974,12.928785,4.578135,0.000000,195.000000,4.000000,,,,0.000000,4.000000,4.000000,4.000000,4.000000,4.000000,4.000000,4.000000,4.000000,4.000000,4.000000,4.000000,4.000000,4.000000,4.000000,4.000000,4.000000,4.000000,4.000000,2.000000,4.000000,4.000000,4.000000,4.000000,4.000000,4.000000,4.000000,4.000000,4.000000,4.000000,4.000000,4.000000,4.000000,83.333336
1614076121.507580,31.000000,0.000000,-3.415538,7.446646,1.622763,15.030673,22.447443,17.251114,10.511099,10.530865,2.988183,25.351337,13.072022,17.463703,-10.072340,-5.668580,-104.549759,-19.680342,15.786854,-31.083775,6.235220,-93.916328,-0.483093,17.393492,19.438297,0.253087,8.613718,-1.776391,12.679528,2.551750,4.254171,9.781848,12.915856,5.086378,0.000000,191.000000,4.000000,,,,0.000000,4.000000,4.000000,4.000000,4.000000,4.000000,4.000000,4.000000,4.000000,4.000000,4.000000,4.000000,4.000000,4.000000,4.000000,4.000000,4.000000,4.000000,4.000000,2.000000,4.000000,4.000000,4.000000,4.000000,4.000000,4.000000,4.000000,4.000000,4.000000,4.000000,4.000000,4.000000,4.000000,83.333336
1614076121.515329,32.000000,0.000000,-3.412122,4.875097,1.108319,15.015642,21.912174,13.644120,10.500587,10.520334,2.472375,25.838808,14.597412,14.369316,-5.959703,16.901192,-96.752899,4.441902,17.309528,-8.488589,11.357190,-91.771133,4.132774,5.581227,17.367577,2.304116,8.605104,-1.261794,12.666849,2.549198,-0.365468,8.746426,12.902941,3.542830,8064.000000,0.000000,4.000000,,,,0.000000,4.000000,4.000000,4.000000,4.000000,4.000000,4.000000,4.000000,4.000000,4.000000,4.000000,4.000000,4.000000,4.000000,4.000000,4.000000,4.000000,4.000000,4.000000,2.000000,4.000000,4.000000,4.000000,4.000000,4.000000,4.000000,4.000000,4.000000,4.000000,4.000000,4.000000,4.000000,4.000000,83.333336
1614076121.522978,33.000000,0.000000,-3.408710,4.357401,1.620031,15.000627,24.454365,19.784323,10.490088,11.022635,5.034005,30.941174,18.172558,14.354947,1.738564,30.730444,-94.604866,11.616947,13.189654,-10.531383,12.371474,-103.474236,3.103000,5.575645,14.273286,4.865915,8.083679,1.303570,11.115721,2.546649,-0.877923,14.891525,12.890038,5.590569,8192.000000,0.000000,4.000000,,,,0.000000,4.000000,4.000000,4.000000,4.000000,4.000000,4.000000,4.000000,4.000000,4.000000,4.000000,4.000000,4.000000,4.000000,4.000000,4.000000,4.000000,4.000000,4.000000,2.000000,4.000000,4.000000,4.000000,4.000000,4.000000,4.000000,4.000000,4.000000,4.000000,4.000000,4.000000,4.000000,4.000000,83.333336
1614076121.530727,34.000000,0.000000,-3.405302,4.865864,4.695334,15.498446,29.045296,26.944025,10.479597,11.524432,7.593073,36.551258,21.231308,14.340591,1.224005,30.699713,-96.561539,-3.779285,9.586721,-20.777262,12.359103,-115.165627,3.612718,5.570070,10.669270,3.322587,9.101236,2.327908,8.540503,2.544102,-0.364224,23.594582,12.877148,12.764465,8064.000000,0.000000,4.000000,,,,0.000000,4.000000,4.000000,4.000000,4.000000,4.000000,4.000000,4.000000,4.000000,4.000000,4.000000,4.000000,4.000000,4.000000,4.000000,4.000000,4.000000,4.000000,4.000000,2.000000,4.000000,4.000000,4.000000,4.000000,4.000000,4.000000,4.000000,4.000000,4.000000,4.000000,4.000000,4.000000,4.000000,83.333336
1614076121.538376,35.000000,0.000000,-3.401896,4.860998,6.741921,14.970127,30.554712,24.352978,10.469117,11.000087,7.072660,36.001884,21.722898,15.351892,-0.828501,30.156193,-93.388054,3.403981,12.141237,-9.987253,11.321103,-110.947899,8.224490,10.179885,11.171420,3.832085,11.143417,2.325580,9.044782,2.541558,-0.363860,22.032526,13.377090,16.854265,8064.000000,0.000000,4.000000,,,,0.000000,4.000000,4.000000,4.000000,4.000000,4.000000,4.000000,4.000000,4.000000,4.000000,4.000000,4.000000,4.000000,4.000000,4.000000,4.000000,4.000000,4.000000,4.000000,2.000000,4.000000,4.000000,4.000000,4.000000,4.000000,4.000000,4.000000,4.000000,4.000000,4.000000,4.000000,4.000000,4.000000,83.333336
1614076121.546125,36.000000,0.000000,-3.398494,4.856137,5.196718,14.955157,25.395952,18.174780,10.458649,10.989087,6.039946,31.863319,19.649893,11.746797,-1.340493,26.023472,-97.910049,6.990321,7.000891,-8.438805,10.796961,-111.349770,3.600881,6.579961,11.673070,8.956458,12.670735,2.836075,11.599840,2.026196,-0.363496,13.805366,12.850893,13.247667,8064.000000,0.000000,4.000000,,,,0.000000,4.000000,4.000000,4.000000,4.000000,4.000000,4.000000,4.000000,4.000000,4.000000,4.000000,4.000000,4.000000,4.000000,4.000000,4.000000,4.000000,4.000000,4.000000,2.000000,4.000000,4.000000,4.000000,4.000000,4.000000,4.000000,4.000000,4.000000,4.000000,4.000000,4.000000,4.000000,4.000000,83.333336
1614076121.553774,37.000000,0.000000,-3.907916,4.851281,6.217162,15.453023,22.806454,18.156605,8.396908,11.490918,8.085188,27.216072,16.040499,0.965819,-9.544281,15.741039,-119.863426,-25.324362,-4.800982,-37.148315,12.837446,-126.623039,-12.812977,-15.477901,8.071652,11.511604,13.170885,1.807598,12.613881,2.536990,-1.388774,12.253098,12.838042,11.695958,8064.000000,0.000000,4.000000,,,,0.000000,4.000000,4.000000,4.000000,4.000000,4.000000,4.000000,4.000000,4.000000,4.000000,4.000000,4.000000,4.000000,4.000000,4.000000,4.000000,4.000000,4.000000,4.000000,2.000000,4.000000,4.000000,4.000000,4.000000,4.000000,4.000000,4.000000,4.000000,4.000000,4.000000,4.000000,4.000000,4.000000,83.333336
1614076121.561624,38.000000,0.000000,-3.391188,4.846430,5.698124,13.899108,23.809288,18.138447,6.850049,10.453787,6.025821,16.419626,8.844972,-4.676172,-18.765507,6.494529,-128.461517,-42.734936,-7.360283,-53.008602,6.670763,-135.214371,-23.569395,-17.513704,3.448197,8.935990,10.593612,-0.758312,13.626908,2.534453,-3.438667,15.317769,13.338025,13.222724,8064.000000,0.000000,4.000000,,,,0.000000,4.000000,4.000000,4.000000,4.000000,4.000000,4.000000,4.000000,4.000000,4.000000,4.000000,4.000000,4.000000,4.000000,4.000000,4.000000,4.000000,4.000000,4.000000,2.000000,4.000000,4.000000,4.000000,4.000000,4.000000,4.000000,4.000000,4.000000,4.000000,4.000000,4.000000,4.000000,4.000000,83.333336
1614076121.569373,39.000000,0.000000,-2.874976,5.354404,-7.128087,8.244184,14.554709,10.940822,6.330379,6.340769,-4.236615,3.069872,-1.933104,-1.594573,-20.285202,-7.358119,-117.050995,-20.128098,-2.737539,-42.699184,-7.182062,-132.002228,-23.033005,5.580731,3.957569,7.388593,4.941992,-1.270375,13.613281,2.019098,-4.460869,12.225528,10.247764,8.594116,8064.000000,0.000000,4.000000,,,,0.000000,4.000000,4.000000,4.000000,4.000000,4.000000,4.000000,4.000000,4.000000,4.000000,4.000000,4.000000,4.000000,4.000000,4.000000,4.000000,4.000000,4.000000,4.000000,2.000000,4.000000,4.000000,4.000000,4.000000,4.000000,4.000000,4.000000,4.000000,4.000000,4.000000,4.000000,4.000000,4.000000,83.333336
1614076121.577222,40.000000,0.000000,-4.923383,4.323409,-20.967112,2.082093,-1.357281,1.699112,6.836869,2.744684,-12.437507,-2.574223,-8.597837,-2.618619,-23.341841,-27.350761,-116.933945,-30.877199,-2.221981,-46.759048,-12.303085,-126.742020,-23.522793,4.549510,7.030534,7.894024,3.911409,-1.781925,9.497104,3.042720,-3.943588,5.033815,5.109311,-2.183709,8064.000000,0.000000,4.000000,,,,0.000000,4.000000,4.000000,4.000000,4.000000,4.000000,4.000000,4.000000,4.000000,4.000000,4.000000,4.000000,4.000000,4.000000,4.000000,4.000000,4.000000,4.000000,4.000000,2.000000,4.000000,4.000000,4.000000,4.000000,4.000000,4.000000,4.000000,4.000000,4.000000,4.000000,4.000000,4.000000,4.000000,83.333336
1614076121.584971,41.000000,0.000000,-0.815896,5.344726,-20.433325,0.028729,-4.945668,2.210233,6.830032,3.767581,-12.425069,-1.546008,-8.589240,-4.154462,-27.933884,-36.554180,-127.586243,-61.615555,-3.245400,-66.199471,-11.777962,-118.922966,-24.524910,-14.942219,8.049145,6.860489,5.958780,-1.267322,10.513247,5.603780,-3.939644,0.926217,5.617022,-7.309730,8064.000000,0.000000,4.000000,,,,0.000000,4.000000,4.000000,4.000000,4.000000,4.000000,4.000000,4.000000,4.000000,4.000000,4.000000,4.000000,4.000000,4.000000,4.000000,4.000000,4.000000,4.000000,4.000000,2.000000,4.000000,4.000000,4.000000,4.000000,4.000000,4.000000,4.000000,4.000000,4.000000,4.000000,4.000000,4.000000,4.000000,83.333336
1614076121.592821,42.000000,0.000000,8.928510,5.852202,-15.797506,0.541521,0.187483,4.259305,6.823202,4.276633,-11.387003,-4.621385,-12.683214,-1.586205,-27.393127,-33.953522,-128.484299,-52.835991,-2.216513,-65.620445,-11.253363,-116.752762,-21.936283,-6.722149,8.041096,4.289526,0.824616,-0.753234,12.041196,6.623817,-3.935705,2.463753,9.201149,-6.789600,8064.000000,0.000000,4.000000,,,,0.000000,4.000000,4.000000,4.000000,4.000000,4.000000,4.000000,4.000000,4.000000,4.000000,4.000000,4.000000,4.000000,4.000000,4.000000,4.000000,4.000000,4.000000,4.000000,2.000000,4.000000,4.000000,4.000000,4.000000,4.000000,4.000000,4.000000,4.000000,4.000000,4.000000,4.000000,4.000000,4.000000,83.333336
1614076121.600570,43.000000,0.000000,7.893940,0.718145,-18.345812,-0.484662,-0.838345,-2.411621,6.816379,-0.343028,-12.914078,-10.257790,-21.901300,-5.174363,-29.929838,-35.970852,-129.894272,-41.501102,-2.214297,-56.324059,-3.036981,-124.328316,-22.427166,7.130727,4.443311,2.746775,-7.381337,-3.829404,0.747104,6.104373,-3.931769,1.948468,8.166306,-6.269989,8064.000000,0.000000,4.000000,,,,0.000000,4.000000,4.000000,4.000000,4.000000,4.000000,4.000000,4.000000,4.000000,4.000000,4.000000,4.000000,4.000000,4.000000,4.000000,4.000000,4.000000,4.000000,4.000000,2.000000,4.000000,4.000000,4.000000,4.000000,4.000000,4.000000,4.000000,4.000000,4.000000,4.000000,4.000000,4.000000,4.000000,83.333336
1614076121.608419,44.000000,0.000000,-2.370364,-1.846676,-14.224902,1.054284,1.726596,-2.922030,6.809563,-3.419608,-9.311420,-4.093685,-17.264015,-12.348676,-34.002472,-31.319496,-134.892593,-47.100628,-2.212082,-56.267735,2.607081,-128.306549,-24.456022,-1.594352,-2.227799,0.692747,-0.707289,-4.338396,-8.997233,6.098269,-3.927837,1.433699,5.081217,-6.263720,8064.000000,0.000000,4.000000,,,,0.000000,4.000000,4.000000,4.000000,4.000000,4.000000,4.000000,4.000000,4.000000,4.000000,4.000000,4.000000,4.000000,4.000000,4.000000,4.000000,4.000000,4.000000,4.000000,2.000000,4.000000,4.000000,4.000000,4.000000,4.000000,4.000000,4.000000,4.000000,4.000000,4.000000,4.000000,4.000000,4.000000,83.333336
1614076121.616169,45.000000,0.000000,-4.419276,3.283376,-0.877344,7.207076,12.494100,8.362944,6.802753,-0.339265,-4.173903,13.859126,0.189147,-11.310686,-26.276161,-6.672792,-125.526924,-25.515064,-2.209870,-47.493519,-3.036551,-129.203888,-18.790541,-11.336348,-4.276853,-0.333587,11.601110,2.845430,-1.295928,6.092170,-3.923909,6.047650,5.588956,-3.180533,8064.000000,0.000000,4.000000,,,,0.000000,4.000000,4.000000,4.000000,4.000000,4.000000,4.000000,4.000000,4.000000,4.000000,4.000000,4.000000,4.000000,4.000000,4.000000,4.000000,4.000000,4.000000,4.000000,2.000000,4.000000,4.000000,4.000000,4.000000,4.000000,4.000000,4.000000,4.000000,4.000000,4.000000,4.000000,4.000000,4.000000,83.333336
1614076121.624018,46.000000,0.000000,-3.389215,3.280092,2.713277,7.712689,16.071350,13.995606,6.795950,3.763638,-3.144089,24.614498,10.958188,-8.222452,-15.993476,19.487726,-115.144989,-3.951088,-2.720481,-35.138332,-3.033515,-142.920837,-17.233288,-8.760909,-3.246935,0.692387,9.538228,5.406687,4.859214,6.086078,-3.919986,10.144167,4.557726,-1.638891,8064.000000,0.000000,4.000000,,,,0.000000,4.000000,4.000000,4.000000,4.000000,4.000000,4.000000,4.000000,4.000000,4.000000,4.000000,4.000000,4.000000,4.000000,4.000000,4.000000,4.000000,4.000000,4.000000,2.000000,4.000000,4.000000,4.000000,4.000000,4.000000,4.000000,4.000000,4.000000,4.000000,4.000000,4.000000,4.000000,4.000000,83.333336
1614076121.631767,47.000000,0.000000,-7.488390,-1.851393,-3.443282,-0.500151,10.927073,10.904688,6.789154,3.759875,-4.679406,20.487320,11.460051,-8.214230,-15.464662,18.955418,-119.645226,-20.357393,-2.204940,-38.692940,-4.056122,-158.162537,-32.600670,-10.290609,-4.269330,-0.333946,-0.727721,-0.752566,1.264611,6.079992,-3.916066,10.134023,-0.062216,-4.714175,8064.000000,0.000000,4.000000,,,,0.000000,4.000000,4.000000,4.000000,4.000000,4.000000,4.000000,4.000000,4.000000,4.000000,4.000000,4.000000,4.000000,4.000000,4.000000,4.000000,4.000000,4.000000,4.000000,2.000000,4.000000,4.000000,4.000000,4.000000,4.000000,4.000000,4.000000,4.000000,4.000000,4.000000,4.000000,4.000000,4.000000,83.333336
1614076121.639616,48.000000,0.000000,-6.968081,-0.823900,-5.491121,-3.576574,12.454607,9.868142,6.782365,3.243294,-4.161906,18.928371,5.807565,-6.154733,-16.474838,5.090309,-124.653786,-33.670368,-2.202735,-46.346554,-20.975143,-159.030014,-43.337299,-12.331601,-2.213778,-7.000279,-2.778275,-1.777454,1.263346,6.073912,-3.912149,9.611068,-2.113436,-6.760743,8064.000000,0.000000,4.000000,,,,0.000000,4.000000,4.000000,4.000000,4.000000,4.000000,4.000000,4.000000,4.000000,4.000000,4.000000,4.000000,4.000000,4.000000,4.000000,4.000000,4.000000,4.000000,4.000000,2.000000,4.000000,4.000000,4.000000,4.000000,4.000000,4.000000,4.000000,4.000000,4.000000,4.000000,4.000000,4.000000,4.000000,83.333336
1614076121.647465,49.000000,0.000000,-4.397011,0.715385,-5.998450,-3.060177,11.416512,11.396735,6.775583,3.752872,-3.644924,17.883801,-0.864909,-4.610117,-16.458363,0.982655,-122.477852,-38.252083,-3.226173,-52.966873,-28.646475,-150.665848,-34.063194,-11.806449,2.916641,-11.095842,-1.749856,2.326888,1.262083,6.067838,-3.908237,9.601457,-2.624143,-5.215520,8064.000000,0.000000,4.000000,,,,0.000000,4.000000,4.000000,4.000000,4.000000,4.000000,4.000000,4.000000,4.000000,4.000000,4.000000,4.000000,4.000000,4.000000,4.000000,4.000000,4.000000,4.000000,4.000000,2.000000,4.000000,4.000000,4.000000,4.000000,4.000000,4.000000,4.000000,4.000000,4.000000,4.000000,4.000000,4.000000,4.000000,83.333336
1614076121.655214,50.000000,0.000000,-3.879793,-2.362253,-9.069375,-8.185322,-0.902597,10.872519,6.768807,3.749119,-6.718202,5.045404,-5.479429,-4.092686,-19.518827,-2.608071,-122.868195,-55.649727,-0.146024,-66.247238,-13.746035,-133.079285,-23.772720,-16.410027,3.939365,-9.033464,-2.260926,0.786099,1.773641,6.061770,-3.904329,9.591855,-1.595878,-8.800049,8064.000000,0.000000,4.000000,,,,0.000000,4.000000,4.000000,4.000000,4.000000,4.000000,4.000000,4.000000,4.000000,4.000000,4.000000,4.000000,4.000000,4.000000,4.000000,4.000000,4.000000,4.000000,4.000000,2.000000,4.000000,4.000000,4.000000,4.000000,4.000000,4.000000,4.000000,4.000000,4.000000,4.000000,4.000000,4.000000,4.000000,83.333336
1614076121.662963,51.000000,0.000000,4.329215,-0.308609,-9.060306,-9.715598,-5.517079,10.348825,6.762038,2.719728,-8.249945,-5.728871,-6.499590,0.526791,-17.960848,-13.374694,-123.258148,-55.594078,7.546430,-59.514324,1.139506,-105.766724,-17.595102,-6.137207,3.422606,-6.973149,-2.771486,-1.778790,10.489817,6.055709,-3.900425,9.582264,0.457000,-13.919454,8064.000000,0.000000,4.000000,,,,0.000000,4.000000,4.000000,4.000000,4.000000,4.000000,4.000000,4.000000,4.000000,4.000000,4.000000,4.000000,4.000000,4.000000,4.000000,4.000000,4.000000,4.000000,4.000000,2.000000,4.000000,4.000000,4.000000,4.000000,4.000000,4.000000,4.000000,4.000000,4.000000,4.000000,4.000000,4.000000,4.000000,83.333336
1614076121.670812,52.000000,0.000000,12.017194,4.307084,-6.999963,-5.090498,3.206387,10.338476,6.755276,4.768291,-4.651952,0.430703,-1.364886,3.603187,-13.327502,-14.899781,-118.006683,-34.000023,10.102985,-31.762503,3.702470,-89.250702,-7.833917,17.971495,4.444824,-7.478996,-2.768715,-1.777011,10.992147,6.049653,-4.409345,9.059861,1.482184,-8.264508,8064.000000,0.000000,4.000000,,,,0.000000,4.000000,4.000000,4.000000,4.000000,4.000000,4.000000,4.000000,4.000000,4.000000,4.000000,4.000000,4.000000,4.000000,4.000000,4.000000,4.000000,4.000000,4.000000,2.000000,4.000000,4.000000,4.000000,4.000000,4.000000,4.000000,4.000000,4.000000,4.000000,4.000000,4.000000,4.000000,4.000000,83.333336
1614076121.678561,53.000000,0.000000,5.338510,5.328418,-4.428861,-3.034126,9.357026,10.328137,6.748521,9.891727,-0.031915,12.225144,9.918530,3.086764,-12.288533,-3.090009,-112.247650,-23.196793,8.554421,-28.653818,-8.096105,-93.776833,-3.723519,13.850959,3.414738,-6.958697,-1.227484,-1.775234,0.724745,6.043603,-3.379295,10.076442,1.480702,2.512987,8064.000000,0.000000,4.000000,,,,0.000000,4.000000,4.000000,4.000000,4.000000,4.000000,4.000000,4.000000,4.000000,4.000000,4.000000,4.000000,4.000000,4.000000,4.000000,4.000000,4.000000,4.000000,4.000000,2.000000,4.000000,4.000000,4.000000,4.000000,4.000000,4.000000,4.000000,4.000000,4.000000,4.000000,4.000000,4.000000,4.000000,83.333336
1614076121.686311,54.000000,0.000000,1.743427,4.810269,0.190953,0.045832,13.450233,10.317810,6.741773,11.933118,2.532219,19.392406,15.549638,6.673420,-9.712142,4.605388,-110.596939,-13.942826,10.597149,-42.471317,-17.318777,-98.811264,-6.796718,-8.726995,4.436964,-7.464559,1.337846,0.277824,3.288123,6.037560,-0.811813,14.168929,6.607427,5.587397,8064.000000,0.000000,4.000000,,,,0.000000,4.000000,4.000000,4.000000,4.000000,4.000000,4.000000,4.000000,4.000000,4.000000,4.000000,4.000000,4.000000,4.000000,4.000000,4.000000,4.000000,4.000000,4.000000,2.000000,4.000000,4.000000,4.000000,4.000000,4.000000,4.000000,4.000000,4.000000,4.000000,4.000000,4.000000,4.000000,4.000000,83.333336
1614076121.694060,55.000000,0.000000,7.382710,4.292638,2.242044,6.712452,18.564989,10.307492,6.735031,10.382723,3.555328,25.014040,13.995626,10.256491,-9.702430,3.575142,-111.511986,-6.749397,8.535270,-34.223717,0.647259,-101.276558,-4.225819,-0.513139,11.612015,-5.918633,1.849328,4.892931,15.592526,6.031522,-0.298180,17.231684,10.190562,4.043348,8064.000000,0.000000,4.000000,,,,0.000000,4.000000,4.000000,4.000000,4.000000,4.000000,4.000000,4.000000,4.000000,4.000000,4.000000,4.000000,4.000000,4.000000,4.000000,4.000000,4.000000,4.000000,4.000000,2.000000,4.000000,4.000000,4.000000,4.000000,4.000000,4.000000,4.000000,4.000000,4.000000,4.000000,4.000000,4.000000,4.000000,83.333336
1614076121.701709,56.000000,0.000000,2.247122,4.801166,1.214161,7.218561,18.033604,10.297184,6.728296,11.910802,2.013311,23.450563,13.981630,6.656490,-17.897856,1.520285,-112.938934,-18.024698,-2.755317,-30.086931,15.005586,-108.867584,-4.221593,14.359169,14.677325,0.241132,0.821838,6.426499,16.602575,6.025491,0.727759,17.214453,8.129090,5.064946,8064.000000,0.000000,4.000000,,,,0.000000,4.000000,4.000000,4.000000,4.000000,4.000000,4.000000,4.000000,4.000000,4.000000,4.000000,4.000000,4.000000,4.000000,4.000000,4.000000,4.000000,4.000000,4.000000,2.000000,4.000000,4.000000,4.000000,4.000000,4.000000,4.000000,4.000000,4.000000,4.000000,4.000000,4.000000,4.000000,4.000000,83.333336
1614076121.709458,57.000000,0.000000,-6.985895,7.360467,3.777049,4.134419,15.964287,10.799707,6.721567,10.360430,-0.039984,16.760447,11.916368,2.034449,-25.059444,0.493123,-115.902916,-24.673340,-7.880767,-48.005562,-7.060702,-117.476669,-14.473782,-1.552626,11.072905,6.907557,1.333837,7.445714,11.970588,6.019465,3.291134,16.171597,12.223525,5.572701,8064.000000,0.000000,4.000000,,,,0.000000,4.000000,4.000000,4.000000,4.000000,4.000000,4.000000,4.000000,4.000000,4.000000,4.000000,4.000000,4.000000,4.000000,4.000000,4.000000,4.000000,4.000000,4.000000,2.000000,4.000000,4.000000,4.000000,4.000000,4.000000,4.000000,4.000000,4.000000,4.000000,4.000000,4.000000,4.000000,4.000000,83.333336
1614076121.717107,58.000000,0.000000,-3.389165,7.353107,-0.842112,4.130284,13.384220,9.250446,6.714846,0.606480,-1.578405,10.589840,3.186502,3.058056,-23.495924,-0.020190,-115.274193,-17.469179,-5.821604,-49.496017,-20.386974,-124.025856,-20.100334,-14.884407,11.061831,8.439112,0.819682,10.515191,14.522720,6.013446,3.800663,14.104143,19.903608,4.541487,8064.000000,0.000000,4.000000,,,,0.000000,4.000000,4.000000,4.000000,4.000000,4.000000,4.000000,4.000000,4.000000,4.000000,4.000000,4.000000,4.000000,4.000000,4.000000,4.000000,4.000000,4.000000,4.000000,2.000000,4.000000,4.000000,4.000000,4.000000,4.000000,4.000000,4.000000,4.000000,4.000000,4.000000,4.000000,4.000000,4.000000,83.333336
1614076121.724856,59.000000,0.000000,-1.847314,4.781651,-13.148963,3.100513,4.140067,7.189914,6.708131,-4.009511,-4.140930,3.912584,-5.021813,3.054998,-22.446787,-4.122734,-114.646103,-23.092737,-12.995270,-47.908058,-10.622997,-135.696701,-24.695618,-10.254138,10.025129,4.840929,-2.770881,7.940573,17.072300,6.007432,3.284042,12.038756,15.268321,4.024125,8064.000000,0.000000,4.000000,,,,0.000000,4.000000,4.000000,4.000000,4.000000,4.000000,4.000000,4.000000,4.000000,4.000000,4.000000,4.000000,4.000000,4.000000,4.000000,4.000000,4.000000,4.000000,4.000000,2.000000,4.000000,4.000000,4.000000,4.000000,4.000000,4.000000,4.000000,4.000000,4.000000,4.000000,4.000000,4.000000,4.000000,83.333336
1614076121.732505,60.000000,0.000000,-6.460852,6.828152,-13.648634,0.533310,0.033363,8.208365,6.701423,-1.954220,-4.649609,0.318928,-5.529612,2.539122,-24.988443,-8.733996,-117.095558,-37.428619,-18.623301,-72.475540,-16.766220,-145.817413,-37.491436,-12.807986,6.938180,-1.317758,-7.383495,2.804427,16.029587,6.001425,3.280758,13.052359,10.124847,4.020101,8064.000000,0.000000,4.000000,,,,0.000000,4.000000,4.000000,4.000000,4.000000,4.000000,4.000000,4.000000,4.000000,4.000000,4.000000,4.000000,4.000000,4.000000,4.000000,4.000000,4.000000,4.000000,4.000000,2.000000,4.000000,4.000000,4.000000,4.000000,4.000000,4.000000,4.000000,4.000000,4.000000,4.000000,4.000000,4.000000,4.000000,83.333336
1614076121.740254,61.000000,0.000000,-3.377468,11.436708,-3.378575,2.584059,5.674355,10.251439,6.694721,-1.439445,-2.593678,9.036557,1.142585,5.100686,-19.835249,-5.648339,-109.798973,-35.852726,-2.707241,-75.479980,-20.339199,-132.851089,-35.402660,-8.692615,11.033807,-4.906184,-6.350470,3.827264,15.500736,5.995423,3.277477,12.013665,16.781389,4.528902,8064.000000,0.000000,4.000000,,,,0.000000,4.000000,4.000000,4.000000,4.000000,4.000000,4.000000,4.000000,4.000000,4.000000,4.000000,4.000000,4.000000,4.000000,4.000000,4.000000,4.000000,4.000000,4.000000,2.000000,4.000000,4.000000,4.000000,4.000000,4.000000,4.000000,4.000000,4.000000,4.000000,4.000000,4.000000,4.000000,4.000000,83.333336
1614076121.747904,62.000000,0.000000,0.215653,12.450912,-1.323915,4.632757,7.207142,10.241187,6.175206,9.844046,-0.539802,18.258289,6.782468,9.710970,-7.507722,2.049617,-94.817383,-27.611748,17.295467,-42.583992,3.783705,-100.923363,-9.213412,7.213514,20.253542,-0.798714,5.963573,5.874719,15.998056,5.989428,3.274199,13.027293,21.379993,4.011552,8064.000000,0.000000,4.000000,,,,0.000000,4.000000,4.000000,4.000000,4.000000,4.000000,4.000000,4.000000,4.000000,4.000000,4.000000,4.000000,4.000000,4.000000,4.000000,4.000000,4.000000,4.000000,4.000000,2.000000,4.000000,4.000000,4.000000,4.000000,4.000000,4.000000,4.000000,4.000000,4.000000,4.000000,4.000000,4.000000,4.000000,83.333336
1614076121.755653,63.000000,0.000000,0.728258,11.925641,-0.296950,4.115304,8.738397,10.230947,8.220313,27.782919,-0.539262,19.265673,6.262865,10.726900,-3.910471,3.586029,-90.620003,-26.045673,21.380735,-23.054228,23.267101,-77.745514,10.282980,6.693480,23.310211,7.920034,17.752481,6.381665,15.982059,5.983438,3.270925,23.270676,19.820150,4.520361,8064.000000,0.000000,4.000000,,,,0.000000,4.000000,4.000000,4.000000,4.000000,4.000000,4.000000,4.000000,4.000000,4.000000,4.000000,4.000000,4.000000,4.000000,4.000000,4.000000,4.000000,4.000000,4.000000,2.000000,4.000000,4.000000,4.000000,4.000000,4.000000,4.000000,4.000000,4.000000,4.000000,4.000000,4.000000,4.000000,4.000000,83.333336
1614076121.763302,64.000000,0.000000,6.881376,11.913715,4.831553,4.111188,18.473248,10.220716,10.776196,25.703854,-0.538723,18.220766,6.256602,10.203352,-8.521945,3.069623,-91.555023,-18.327320,19.820892,-16.364508,26.833578,-74.590851,13.862441,8.225248,21.235619,17.142883,20.811651,11.503489,18.017359,5.977455,3.267654,31.452534,24.928535,9.131226,0.000000,179.000000,4.000000,,,,0.000000,4.000000,4.000000,4.000000,4.000000,4.000000,4.000000,4.000000,4.000000,4.000000,4.000000,4.000000,4.000000,4.000000,4.000000,4.000000,4.000000,4.000000,4.000000,2.000000,4.000000,4.000000,4.000000,4.000000,4.000000,4.000000,4.000000,4.000000,4.000000,4.000000,4.000000,4.000000,4.000000,83.333336
1614076121.771051,65.000000,0.000000,12.002700,12.414622,6.878003,4.107077,24.608622,10.210494,10.252599,13.370459,-0.025364,18.715366,8.301627,11.218790,-6.974961,7.681937,-88.386543,1.691007,20.313892,-6.604553,20.140078,-84.259850,11.284476,29.242664,22.752846,22.253944,20.278019,17.645830,20.050623,5.971478,3.264387,32.446720,27.980530,12.199018,0.000000,185.000000,4.000000,,,,0.000000,4.000000,4.000000,4.000000,4.000000,4.000000,4.000000,4.000000,4.000000,4.000000,4.000000,4.000000,4.000000,4.000000,4.000000,4.000000,4.000000,4.000000,4.000000,2.000000,4.000000,4.000000,4.000000,4.000000,4.000000,4.000000,4.000000,4.000000,4.000000,4.000000,4.000000,4.000000,4.000000,83.333336
1614076121.778700,66.000000,0.000000,6.862492,11.889387,6.871125,4.615790,20.994268,12.764386,10.755166,10.792985,-0.025338,20.235111,3.165121,9.669109,-8.506448,6.135794,-99.580208,3.227778,14.139732,-29.162050,-5.521089,-104.175591,-0.521680,22.033934,23.242912,22.231691,21.283382,16.089724,19.517752,5.965506,3.261122,32.414276,22.311525,12.186818,0.000000,204.000000,4.000000,,,,0.000000,4.000000,4.000000,4.000000,4.000000,4.000000,4.000000,4.000000,4.000000,4.000000,4.000000,4.000000,4.000000,4.000000,4.000000,4.000000,4.000000,4.000000,4.000000,2.000000,4.000000,4.000000,4.000000,4.000000,4.000000,4.000000,4.000000,4.000000,4.000000,4.000000,4.000000,4.000000,4.000000,83.333336
1614076121.786449,67.000000,0.000000,2.753065,11.877498,2.761690,4.611175,15.845069,12.751622,10.744411,10.269372,-1.563774,17.137955,-4.017531,6.069697,-19.779993,-3.101111,-124.096008,-23.954937,3.356362,-57.338017,-16.284798,-122.020126,-15.392954,-10.295792,18.604286,18.619717,18.697996,8.381326,20.011055,5.959541,3.770682,25.715195,19.725111,11.661811,0.000000,193.000000,4.000000,,,,0.000000,4.000000,4.000000,4.000000,4.000000,4.000000,4.000000,4.000000,4.000000,4.000000,4.000000,4.000000,4.000000,4.000000,4.000000,4.000000,4.000000,4.000000,4.000000,2.000000,4.000000,4.000000,4.000000,4.000000,4.000000,4.000000,4.000000,4.000000,4.000000,4.000000,4.000000,4.000000,4.000000,83.333336
1614076121.794098,68.000000,0.000000,4.288774,11.865621,-5.959021,0.503999,10.701019,10.687589,6.631103,11.797564,-3.613493,5.838765,-5.551976,7.089268,-26.939699,-6.687754,-129.612946,-42.905342,-6.390584,-43.947346,6.808410,-129.590424,-22.044228,-9.259855,14.995937,18.088276,14.576735,2.731919,19.991043,5.953581,2.228450,12.868966,18.166924,12.162970,0.000000,191.000000,4.000000,,,,0.000000,4.000000,4.000000,4.000000,4.000000,4.000000,4.000000,4.000000,4.000000,4.000000,4.000000,4.000000,4.000000,4.000000,4.000000,4.000000,4.000000,4.000000,4.000000,2.000000,4.000000,4.000000,4.000000,4.000000,4.000000,4.000000,4.000000,4.000000,4.000000,4.000000,4.000000,4.000000,4.000000,83.333336
1614076121.801948,69.000000,0.000000,2.746024,12.366575,-10.055626,-3.086248,4.536472,10.164081,2.521908,11.272945,-4.122700,-3.397843,-6.059244,5.543717,-28.964043,-12.834912,-131.021790,-45.939358,-12.538039,-50.570065,-0.377886,-147.922363,-36.893978,4.595559,13.955300,20.634291,9.433952,2.216367,11.765924,6.460448,0.174939,9.266354,11.482090,12.150806,0.000000,198.000000,4.000000,,,,0.000000,4.000000,4.000000,4.000000,4.000000,4.000000,4.000000,4.000000,4.000000,4.000000,4.000000,4.000000,4.000000,4.000000,4.000000,4.000000,4.000000,4.000000,4.000000,2.000000,4.000000,4.000000,4.000000,4.000000,4.000000,4.000000,4.000000,4.000000,4.000000,4.000000,4.000000,4.000000,4.000000,83.333336
1614076121.809697,70.000000,0.000000,-0.333646,11.841388,-9.019929,-3.595982,-0.596270,9.128275,2.519386,-7.712686,-5.144218,-5.445727,-11.181390,-7.282339,-34.063282,-32.822079,-150.890762,-58.713932,-17.653708,-82.827187,-32.685200,-179.569321,-61.985291,-12.332114,7.274679,12.921348,-1.344712,0.675689,2.010569,5.941167,-0.850877,7.205805,7.880865,11.625835,0.000000,192.000000,4.000000,,,,0.000000,4.000000,4.000000,4.000000,4.000000,4.000000,4.000000,4.000000,4.000000,4.000000,4.000000,4.000000,4.000000,4.000000,4.000000,4.000000,4.000000,4.000000,4.000000,2.000000,4.000000,4.000000,4.000000,4.000000,4.000000,4.000000,4.000000,4.000000,4.000000,4.000000,4.000000,4.000000,4.000000,83.333336
1614076121.817546,71.000000,0.000000,0.692329,11.316727,-10.036551,-4.105207,-1.108494,6.555045,2.516866,-19.499846,-8.728817,-7.491564,-16.298414,-13.428903,-32.490757,-43.558487,-155.355255,-68.398811,-19.687334,-93.513588,-45.473026,-182.466675,-64.487404,-23.601833,-0.937724,-6.065932,-10.061316,-2.401910,-0.555544,5.935226,-0.850026,-1.006529,11.462728,11.614209,0.000000,153.000000,4.000000,,,,0.000000,4.000000,4.000000,4.000000,4.000000,4.000000,4.000000,4.000000,4.000000,4.000000,4.000000,4.000000,4.000000,4.000000,4.000000,4.000000,4.000000,4.000000,4.000000,2.000000,4.000000,4.000000,4.000000,4.000000,4.000000,4.000000,4.000000,4.000000,4.000000,4.000000,4.000000,4.000000,4.000000,83.333336
1614076121.825295,72.000000,0.000000,3.255739,12.331051,-10.026514,-3.075461,0.431076,8.086951,3.539990,6.160680,-8.720089,-8.509713,-15.769295,-0.594961,-25.791601,-33.258518,-129.046066,-57.048359,-14.026622,-60.599564,-12.607042,-149.463684,-35.192150,-8.193616,1.627316,-14.264995,-10.564075,-1.886688,1.496293,6.954932,0.176465,0.020119,11.964085,11.602595,0.000000,171.000000,4.000000,,,,0.000000,4.000000,4.000000,4.000000,4.000000,4.000000,4.000000,4.000000,4.000000,4.000000,4.000000,4.000000,4.000000,4.000000,4.000000,4.000000,4.000000,4.000000,4.000000,2.000000,4.000000,4.000000,4.000000,4.000000,4.000000,4.000000,4.000000,4.000000,4.000000,4.000000,4.000000,4.000000,4.000000,83.333336
1614076121.833145,73.000000,0.000000,4.278125,11.805899,-8.990847,-0.508283,-1.620637,10.642966,8.151835,24.103237,-7.172907,-6.449922,-9.086859,11.200505,-22.688887,-21.943207,-110.968292,-40.068233,-2.730544,-35.410759,20.226078,-119.570633,-10.541573,0.019706,6.753894,-5.532781,-11.579152,-1.884801,0.469156,3.871054,-1.362173,3.609842,8.875197,10.052531,0.000000,217.000000,4.000000,,,,0.000000,4.000000,4.000000,4.000000,4.000000,4.000000,4.000000,4.000000,4.000000,4.000000,4.000000,4.000000,4.000000,4.000000,4.000000,4.000000,4.000000,4.000000,4.000000,2.000000,4.000000,4.000000,4.000000,4.000000,4.000000,4.000000,4.000000,4.000000,4.000000,4.000000,4.000000,4.000000,4.000000,83.333336
1614076121.840894,74.000000,0.000000,3.761026,6.153068,-10.520317,0.005046,0.432266,9.606683,10.707786,5.617596,-9.217016,-4.392190,-1.898285,10.163664,-13.435429,-6.023828,-100.600914,-17.464062,5.477314,-22.042015,16.103287,-107.656197,-7.454108,4.122251,6.747140,0.113778,-10.029112,-2.395737,-1.069775,-0.748202,-6.489016,-2.034793,7.327861,5.939915,0.000000,203.000000,4.000000,,,,0.000000,4.000000,4.000000,4.000000,4.000000,4.000000,4.000000,4.000000,4.000000,4.000000,4.000000,4.000000,4.000000,4.000000,4.000000,4.000000,4.000000,4.000000,4.000000,2.000000,4.000000,4.000000,4.000000,4.000000,4.000000,4.000000,4.000000,4.000000,4.000000,4.000000,4.000000,4.000000,4.000000,83.333336
1614076121.848743,75.000000,0.000000,3.757265,5.121274,-7.945694,2.056323,11.201064,10.109897,10.184258,3.560696,-7.156517,2.278869,-0.357925,12.717603,2.475443,19.623222,-79.474678,11.271351,13.676966,2.082591,22.241030,-94.215202,-1.292808,10.784795,12.894238,-1.937618,7.416815,3.760505,6.110782,-2.285915,-6.482527,7.198011,9.884636,4.395513,0.000000,202.000000,4.000000,,,,0.000000,4.000000,4.000000,4.000000,4.000000,4.000000,4.000000,4.000000,4.000000,4.000000,4.000000,4.000000,4.000000,4.000000,4.000000,4.000000,4.000000,4.000000,4.000000,2.000000,4.000000,4.000000,4.000000,4.000000,4.000000,4.000000,4.000000,4.000000,4.000000,4.000000,4.000000,4.000000,4.000000,83.333336
1614076121.856492,76.000000,0.000000,3.753508,10.244357,1.293021,8.720934,19.907812,13.176709,10.174073,27.146879,4.645511,15.097103,-0.870387,18.858732,8.113994,30.885649,-69.138794,14.337002,19.817135,15.926662,53.500839,-81.300476,13.067459,3.594523,24.163397,5.756627,23.819654,12.474693,18.925184,-1.257988,0.190622,28.216454,14.490136,6.955220,0.000000,187.000000,4.000000,,,,0.000000,4.000000,4.000000,4.000000,4.000000,4.000000,4.000000,4.000000,4.000000,4.000000,4.000000,4.000000,4.000000,4.000000,4.000000,4.000000,4.000000,4.000000,4.000000,2.000000,4.000000,4.000000,4.000000,4.000000,4.000000,4.000000,4.000000,4.000000,4.000000,4.000000,4.000000,4.000000,4.000000,83.333336
1614076121.864341,77.000000,0.000000,3.749754,11.259754,6.932754,12.301956,19.375084,13.676353,10.676720,28.658194,12.333174,20.210211,0.156124,14.224488,2.977674,24.700918,-77.787598,-3.626053,16.720394,6.679966,51.908878,-85.834557,10.490289,4.616570,25.677694,17.545742,22.770193,14.000680,25.572926,-1.256730,3.780175,27.162596,16.526928,7.461085,0.000000,197.000000,4.000000,,,,0.000000,4.000000,4.000000,4.000000,4.000000,4.000000,4.000000,4.000000,4.000000,4.000000,4.000000,4.000000,4.000000,4.000000,4.000000,4.000000,4.000000,4.000000,4.000000,2.000000,4.000000,4.000000,4.000000,4.000000,4.000000,4.000000,4.000000,4.000000,4.000000,4.000000,4.000000,4.000000,4.000000,83.333336
1614076121.872090,78.000000,0.000000,3.746005,13.812596,4.874539,11.776834,17.817247,14.688318,10.153222,10.167997,9.756738,14.548975,-1.895314,3.441033,-7.794534,14.419806,-91.555969,-10.289093,10.037007,-18.967739,19.549276,-108.312828,-6.443278,19.483747,22.575094,18.041018,20.183321,12.448218,22.470430,-0.229833,2.750754,16.879023,15.997581,8.479265,0.000000,204.000000,4.000000,,,,0.000000,4.000000,4.000000,4.000000,4.000000,4.000000,4.000000,4.000000,4.000000,4.000000,4.000000,4.000000,4.000000,4.000000,4.000000,4.000000,4.000000,4.000000,4.000000,2.000000,4.000000,4.000000,4.000000,4.000000,4.000000,4.000000,4.000000,4.000000,4.000000,4.000000,4.000000,4.000000,4.000000,83.333336
1614076121.879939,79.000000,0.000000,3.229438,21.491093,4.869664,11.252236,19.337891,16.724913,9.630249,2.978342,6.157238,8.893401,-7.534445,1.386310,-21.632895,-7.645895,-113.002869,-24.124958,7.462868,-48.692360,-11.239503,-130.255798,-17.206066,7.669392,21.014057,14.946053,18.624676,13.974232,22.447960,2.847320,4.286465,18.913427,15.981583,10.522068,0.000000,210.000000,4.000000,,,,0.000000,4.000000,4.000000,4.000000,4.000000,4.000000,4.000000,4.000000,4.000000,4.000000,4.000000,4.000000,4.000000,4.000000,4.000000,4.000000,4.000000,4.000000,4.000000,2.000000,4.000000,4.000000,4.000000,4.000000,4.000000,4.000000,4.000000,4.000000,4.000000,4.000000,4.000000,4.000000,4.000000,83.333336
1614076121.887688,80.000000,0.000000,3.226208,20.443960,6.403256,9.702522,17.780092,17.221008,10.133439,4.001005,6.663901,8.884507,-9.578192,3.436206,-28.277927,-33.279274,-134.941147,-53.331604,2.840020,-60.438541,-8.664161,-140.894775,-31.547834,-18.492123,15.864838,13.905466,7.324000,12.421796,25.502434,5.408576,7.359101,16.843231,16.478422,9.998726,0.000000,200.000000,4.000000,,,,0.000000,4.000000,4.000000,4.000000,4.000000,4.000000,4.000000,4.000000,4.000000,4.000000,4.000000,4.000000,4.000000,4.000000,4.000000,4.000000,4.000000,4.000000,4.000000,2.000000,4.000000,4.000000,4.000000,4.000000,4.000000,4.000000,4.000000,4.000000,4.000000,4.000000,4.000000,4.000000,4.000000,83.333336
1614076121.895537,81.000000,0.000000,4.248623,12.218388,2.807109,8.154359,14.172568,15.152504,10.123305,3.484183,5.631596,4.773059,-8.542973,1.894308,-25.172726,-35.297279,-141.472870,-65.073143,-5.367948,-58.839642,-12.758060,-149.471832,-49.465004,-16.422350,11.746408,5.173612,-3.452555,6.768348,15.733342,6.428808,7.351742,9.134080,14.410661,8.450265,0.000000,191.000000,4.000000,,,,0.000000,4.000000,4.000000,4.000000,4.000000,4.000000,4.000000,4.000000,4.000000,4.000000,4.000000,4.000000,4.000000,4.000000,4.000000,4.000000,4.000000,4.000000,4.000000,2.000000,4.000000,4.000000,4.000000,4.000000,4.000000,4.000000,4.000000,4.000000,4.000000,4.000000,4.000000,4.000000,4.000000,83.333336
1614076121.903286,82.000000,0.000000,3.218734,10.667707,1.265841,7.120563,10.055831,12.573249,9.087542,5.019160,2.549041,-1.898381,-6.483148,1.379593,-25.660374,-26.031212,-137.228836,-55.264481,-8.952324,-61.344902,-15.309405,-154.450562,-42.236053,-5.636696,9.170560,-5.087972,-4.987564,6.761580,0.332993,6.422379,6.831570,12.201869,12.344969,10.493097,0.000000,213.000000,4.000000,,,,0.000000,4.000000,4.000000,4.000000,4.000000,4.000000,4.000000,4.000000,4.000000,4.000000,4.000000,4.000000,4.000000,4.000000,4.000000,4.000000,4.000000,4.000000,4.000000,2.000000,4.000000,4.000000,4.000000,4.000000,4.000000,4.000000,4.000000,4.000000,4.000000,4.000000,4.000000,4.000000,4.000000,83.333336
1614076121.910935,83.000000,0.000000,3.215515,12.195501,9.982523,6.087801,8.507314,12.560676,11.642556,9.116705,1.008031,3.744543,3.266925,9.583342,-19.480867,-18.825693,-121.706993,-37.773319,-2.789525,-50.514328,9.834109,-133.783295,-9.886124,-4.605419,8.648568,-5.082884,-1.905653,11.883023,5.460865,5.903136,6.824739,16.292231,14.383905,11.508245,0.000000,201.000000,4.000000,,,,0.000000,4.000000,4.000000,4.000000,4.000000,4.000000,4.000000,4.000000,4.000000,4.000000,4.000000,4.000000,4.000000,4.000000,4.000000,4.000000,4.000000,4.000000,4.000000,2.000000,4.000000,4.000000,4.000000,4.000000,4.000000,4.000000,4.000000,4.000000,4.000000,4.000000,4.000000,4.000000,4.000000,83.333336
1614076121.918685,84.000000,0.000000,10.391787,11.670485,19.716131,10.697099,16.191114,19.214783,18.297581,21.928101,5.622407,19.638235,18.648273,17.778887,3.615536,3.757235,-89.277596,-9.530416,11.572239,-18.668941,37.516582,-100.828995,12.175045,10.270982,23.511715,0.563224,3.737278,13.409602,26.481045,5.897233,6.817914,16.788759,16.420803,11.496737,0.000000,199.000000,4.000000,,,,0.000000,4.000000,4.000000,4.000000,4.000000,4.000000,4.000000,4.000000,4.000000,4.000000,4.000000,4.000000,4.000000,4.000000,4.000000,4.000000,4.000000,4.000000,4.000000,2.000000,4.000000,4.000000,4.000000,4.000000,4.000000,4.000000,4.000000,4.000000,4.000000,4.000000,4.000000,4.000000,4.000000,83.333336
1614076121.926534,85.000000,0.000000,18.073702,11.658814,20.722055,17.865889,26.944155,26.887875,22.381847,37.290791,12.283451,27.823725,27.347574,18.273928,22.073460,32.984249,-64.060112,13.556037,24.893999,4.939471,51.325218,-74.574318,15.752613,30.260712,38.359997,11.331892,10.913028,12.883371,35.685333,5.891336,6.811096,19.336073,16.404383,11.998060,0.000000,203.000000,4.000000,,,,0.000000,4.000000,4.000000,4.000000,4.000000,4.000000,4.000000,4.000000,4.000000,4.000000,4.000000,4.000000,4.000000,4.000000,4.000000,4.000000,4.000000,4.000000,4.000000,2.000000,4.000000,4.000000,4.000000,4.000000,4.000000,4.000000,4.000000,4.000000,4.000000,4.000000,4.000000,4.000000,4.000000,83.333336
1614076121.934283,86.000000,0.000000,17.542809,10.621515,19.162872,15.283920,27.430031,26.860987,19.795362,31.612473,14.322450,23.693336,28.345867,16.717194,22.564207,37.053825,-65.534515,22.260429,27.946030,7.498634,53.325176,-72.961281,15.736860,33.307373,28.578049,23.628252,12.953397,12.870488,33.598366,5.885445,6.804285,17.265455,15.875158,9.934780,0.000000,191.000000,4.000000,,,,0.000000,4.000000,4.000000,4.000000,4.000000,4.000000,4.000000,4.000000,4.000000,4.000000,4.000000,4.000000,4.000000,4.000000,4.000000,4.000000,4.000000,4.000000,4.000000,2.000000,4.000000,4.000000,4.000000,4.000000,4.000000,4.000000,4.000000,4.000000,4.000000,4.000000,4.000000,4.000000,4.000000,83.333336
1614076121.941932,87.000000,0.000000,13.935522,12.149355,20.169350,11.678892,24.838497,23.757202,17.211464,14.144962,13.282487,25.208105,27.804701,17.213297,20.490360,32.401390,-71.622826,27.366375,26.379622,9.029596,39.938519,-76.990883,15.721124,33.786888,16.754599,25.143085,11.914803,12.344797,34.077587,5.366739,6.797481,16.222549,15.346462,11.976128,0.000000,208.000000,4.000000,,,,0.000000,4.000000,4.000000,4.000000,4.000000,4.000000,4.000000,4.000000,4.000000,4.000000,4.000000,4.000000,4.000000,4.000000,4.000000,4.000000,4.000000,4.000000,4.000000,2.000000,4.000000,4.000000,4.000000,4.000000,4.000000,4.000000,4.000000,4.000000,4.000000,4.000000,4.000000,4.000000,4.000000,83.333336
1614076121.949681,88.000000,0.000000,14.434407,18.291052,20.662001,17.821060,30.967505,24.246265,17.707073,20.797483,16.858948,34.926487,29.315357,17.708902,22.008331,41.086937,-68.987099,22.210804,27.891703,16.712875,36.821655,-76.401070,15.705402,30.676176,22.891689,21.528198,12.415709,14.383735,35.069153,7.925475,8.329144,24.924274,16.869577,21.707741,0.000000,227.000000,4.000000,,,,0.000000,4.000000,4.000000,4.000000,4.000000,4.000000,4.000000,4.000000,4.000000,4.000000,4.000000,4.000000,4.000000,4.000000,4.000000,4.000000,4.000000,4.000000,4.000000,2.000000,4.000000,4.000000,4.000000,4.000000,4.000000,4.000000,4.000000,4.000000,4.000000,4.000000,4.000000,4.000000,4.000000,83.333336
1614076121.957330,89.000000,0.000000,14.932793,16.734299,20.641338,17.290419,35.039101,24.734840,16.150906,37.186943,19.406191,35.917202,28.260401,17.178373,17.370937,35.917645,-74.559143,10.906541,27.863811,16.183342,56.272015,-79.914413,13.125595,12.183962,24.920080,23.045132,12.403293,16.420633,32.982800,12.532933,10.372097,24.386530,15.314246,20.660393,0.000000,206.000000,4.000000,,,,0.000000,4.000000,4.000000,4.000000,4.000000,4.000000,4.000000,4.000000,4.000000,4.000000,4.000000,4.000000,4.000000,4.000000,4.000000,4.000000,4.000000,4.000000,4.000000,2.000000,4.000000,4.000000,4.000000,4.000000,4.000000,4.000000,4.000000,4.000000,4.000000,4.000000,4.000000,4.000000,4.000000,83.333336
1614076121.965079,90.000000,0.000000,13.892220,11.076539,19.082237,8.042358,31.927139,23.684465,17.160395,24.329243,14.771400,28.701797,22.078295,15.622734,8.122798,10.753521,-88.843552,7.818711,20.143641,1.295363,46.984974,-99.834503,-0.220864,6.530752,20.279776,20.457985,10.852428,12.814468,28.847254,13.546041,10.361726,15.131374,8.119445,10.383322,0.000000,136.000000,4.000000,,,,0.000000,4.000000,4.000000,4.000000,4.000000,4.000000,4.000000,4.000000,4.000000,4.000000,4.000000,4.000000,4.000000,4.000000,4.000000,4.000000,4.000000,4.000000,4.000000,2.000000,4.000000,4.000000,4.000000,4.000000,4.000000,4.000000,4.000000,4.000000,4.000000,4.000000,4.000000,4.000000,4.000000,83.333336
1614076121.972728,91.000000,0.000000,14.391148,15.680847,20.088795,11.624060,35.997776,27.250525,22.784260,10.458760,16.295090,31.750017,20.517756,17.658394,1.448009,5.614563,-96.959839,0.118585,11.918368,-20.244394,14.630296,-130.503891,-19.195002,20.370375,20.772316,12.745219,8.790294,8.699090,19.074818,13.019675,10.351363,19.731628,5.547223,13.962682,0.000000,226.000000,4.000000,,,,0.000000,4.000000,4.000000,4.000000,4.000000,4.000000,4.000000,4.000000,4.000000,4.000000,4.000000,4.000000,4.000000,4.000000,4.000000,4.000000,4.000000,4.000000,4.000000,2.000000,4.000000,4.000000,4.000000,4.000000,4.000000,4.000000,4.000000,4.000000,4.000000,4.000000,4.000000,4.000000,4.000000,83.333336
1614076121.980477,92.000000,0.000000,14.376757,20.793371,21.094347,22.894487,39.551521,31.325838,28.402502,26.345737,22.945461,40.436218,28.189545,25.845863,0.933740,20.480743,-95.324417,-16.291790,10.880809,-31.506201,3.333615,-145.758011,-26.868114,9.067954,17.674622,10.168371,7.755862,9.203212,9.824973,12.493834,10.341012,27.917025,11.182701,21.128206,0.000000,179.000000,4.000000,,,,0.000000,4.000000,4.000000,4.000000,4.000000,4.000000,4.000000,4.000000,4.000000,4.000000,4.000000,4.000000,4.000000,4.000000,4.000000,4.000000,4.000000,4.000000,4.000000,2.000000,4.000000,4.000000,4.000000,4.000000,4.000000,4.000000,4.000000,4.000000,4.000000,4.000000,4.000000,4.000000,4.000000,83.333336
1614076121.988127,93.000000,0.000000,13.849559,13.593091,11.329663,18.256208,25.665817,28.730410,28.374100,39.139904,16.768671,31.677832,29.186996,27.871300,2.471268,15.844877,-92.664993,-19.865242,10.357107,-24.808027,35.637974,-131.766098,-14.020734,-14.018038,14.580023,8.106920,8.260927,9.194008,10.327969,10.430059,10.330671,23.786543,12.709980,16.491693,0.000000,197.000000,4.000000,,,,0.000000,4.000000,4.000000,4.000000,4.000000,4.000000,4.000000,4.000000,4.000000,4.000000,4.000000,4.000000,4.000000,4.000000,4.000000,4.000000,4.000000,4.000000,4.000000,2.000000,4.000000,4.000000,4.000000,4.000000,4.000000,4.000000,4.000000,4.000000,4.000000,4.000000,4.000000,4.000000,4.000000,83.333336
1614076121.995876,94.000000,0.000000,16.399813,6.400011,-0.989359,5.417439,8.204254,24.086294,27.320084,30.895636,3.418568,16.774359,20.952681,23.740864,0.930335,0.957238,-95.136429,-19.332556,11.372392,-16.578091,48.935669,-108.557411,10.608671,5.483160,23.796213,8.098814,10.303948,8.671994,20.061230,8.881167,10.320340,18.634552,9.620347,11.346997,0.000000,194.000000,4.000000,,,,0.000000,4.000000,4.000000,4.000000,4.000000,4.000000,4.000000,4.000000,4.000000,4.000000,4.000000,4.000000,4.000000,4.000000,4.000000,4.000000,4.000000,4.000000,4.000000,2.000000,4.000000,4.000000,4.000000,4.000000,4.000000,4.000000,4.000000,4.000000,4.000000,4.000000,4.000000,4.000000,4.000000,83.333336
1614076122.003525,95.000000,0.000000,17.921873,7.419252,-2.014010,2.335098,5.119127,24.062208,28.318405,26.762177,0.851047,17.270405,21.957369,27.819687,3.493507,8.648588,-92.477188,-17.774761,22.130249,-20.151257,38.630322,-94.602699,25.982677,37.272549,33.003185,19.372766,11.832106,9.176143,26.707836,9.385107,10.310020,18.615917,8.072265,8.258727,0.000000,190.000000,4.000000,,,,0.000000,4.000000,4.000000,4.000000,4.000000,4.000000,4.000000,4.000000,4.000000,4.000000,4.000000,4.000000,4.000000,4.000000,4.000000,4.000000,4.000000,4.000000,4.000000,2.000000,4.000000,4.000000,4.000000,4.000000,4.000000,4.000000,4.000000,4.000000,4.000000,4.000000,4.000000,4.000000,4.000000,83.333336
1614076122.011274,96.000000,0.000000,13.288568,8.437473,2.090568,4.384045,7.165289,23.012505,28.290087,28.786697,3.927119,24.432621,30.140541,35.996994,18.361809,25.050196,-68.794968,9.422500,32.877350,-9.361876,44.232719,-84.251686,25.956696,31.081430,32.457363,32.173904,11.820273,7.115684,26.168306,9.375722,10.299710,16.546019,7.551373,1.583802,8192.000000,0.000000,4.000000,,,,0.000000,4.000000,4.000000,4.000000,4.000000,4.000000,4.000000,4.000000,4.000000,4.000000,4.000000,4.000000,4.000000,4.000000,4.000000,4.000000,4.000000,4.000000,4.000000,2.000000,4.000000,4.000000,4.000000,4.000000,4.000000,4.000000,4.000000,4.000000,4.000000,4.000000,4.000000,4.000000,4.000000,83.333336
1614076122.018923,97.000000,0.000000,10.711176,7.403395,1.062836,3.354020,6.132483,20.425390,25.697695,28.245089,2.384731,25.433830,28.571938,33.909718,30.138319,27.076427,-40.521046,36.079742,35.921394,21.416718,63.162846,-73.398201,27.469200,21.306759,32.424904,33.680195,12.834094,5.570107,26.654959,9.366346,10.289411,15.503832,10.107924,3.120679,8064.000000,0.000000,4.000000,,,,0.000000,4.000000,4.000000,4.000000,4.000000,4.000000,4.000000,4.000000,4.000000,4.000000,4.000000,4.000000,4.000000,4.000000,4.000000,4.000000,4.000000,4.000000,4.000000,2.000000,4.000000,4.000000,4.000000,4.000000,4.000000,4.000000,4.000000,4.000000,4.000000,4.000000,4.000000,4.000000,4.000000,83.333336
1614076122.026672,98.000000,0.000000,13.777388,7.908813,0.548953,2.837846,7.151992,19.379322,23.620714,31.806587,1.869525,24.382755,21.876699,28.234781,20.877411,24.485249,-45.608730,21.171869,33.834194,26.010685,67.202248,-74.350441,27.954552,27.439299,30.854017,33.646515,12.821260,8.128639,30.730869,9.356979,10.279121,16.001148,14.713201,10.809866,8064.000000,0.000000,4.000000,,,,0.000000,4.000000,4.000000,4.000000,4.000000,4.000000,4.000000,4.000000,4.000000,4.000000,4.000000,4.000000,4.000000,4.000000,4.000000,4.000000,4.000000,4.000000,4.000000,2.000000,4.000000,4.000000,4.000000,4.000000,4.000000,4.000000,4.000000,4.000000,4.000000,4.000000,4.000000,4.000000,4.000000,83.333336
1614076122.034321,99.000000,0.000000,12.225149,7.388083,1.574045,3.860649,10.734583,20.385584,24.109915,28.185038,3.406117,25.384014,20.316362,27.693726,4.959098,25.486404,-73.768250,-3.977507,26.620871,-2.733274,51.237606,-86.070969,13.567622,14.078526,22.105215,32.074406,10.757156,9.146152,26.084753,8.834802,10.268842,15.472327,12.134384,11.824697,8064.000000,0.000000,4.000000,,,,0.000000,4.000000,4.000000,4.000000,4.000000,4.000000,4.000000,4.000000,4.000000,4.000000,4.000000,4.000000,4.000000,4.000000,4.000000,4.000000,4.000000,4.000000,4.000000,2.000000,4.000000,4.000000,4.000000,4.000000,4.000000,4.000000,4.000000,4.000000,4.000000,4.000000,4.000000,4.000000,4.000000,83.333336
1614076122.042171,100.000000,0.000000,7.084719,7.893516,1.572471,3.343968,11.236670,19.852379,24.598625,14.823519,2.377070,25.358629,18.757584,26.127571,2.390036,17.768610,-86.002174,-0.896607,19.927584,-11.961309,35.801754,-99.831047,-6.445945,-4.909912,16.442085,21.785921,12.284862,9.137006,15.802258,10.364429,10.258574,15.969675,9.558147,10.787231,8064.000000,0.000000,4.000000,,,,0.000000,4.000000,4.000000,4.000000,4.000000,4.000000,4.000000,4.000000,4.000000,4.000000,4.000000,4.000000,4.000000,4.000000,4.000000,4.000000,4.000000,4.000000,4.000000,2.000000,4.000000,4.000000,4.000000,4.000000,4.000000,4.000000,4.000000,4.000000,4.000000,4.000000,4.000000,4.000000,4.000000,83.333336
1614076122.049920,101.000000,0.000000,6.051993,10.449724,1.570898,4.879085,10.712612,19.832525,23.035564,15.834336,-0.189409,21.230707,10.020877,20.460417,-0.176456,-1.736338,-88.480270,-1.408531,16.830732,-3.744220,34.227489,-120.756859,-19.772833,-6.956284,15.912822,12.533366,11.759756,10.153510,13.735174,11.892526,10.248315,15.953706,14.163974,11.802086,8064.000000,0.000000,4.000000,,,,0.000000,4.000000,4.000000,4.000000,4.000000,4.000000,4.000000,4.000000,4.000000,4.000000,4.000000,4.000000,4.000000,4.000000,4.000000,4.000000,4.000000,4.000000,4.000000,2.000000,4.000000,4.000000,4.000000,4.000000,4.000000,4.000000,4.000000,4.000000,4.000000,4.000000,4.000000,4.000000,4.000000,83.333336
1614076122.057769,102.000000,0.000000,7.071582,10.439275,1.569327,7.438309,10.701900,20.838335,24.550991,23.510811,-0.702040,11.978707,0.780087,14.286111,-16.586536,-18.657679,-113.519997,-33.714813,9.634416,-30.407143,26.500956,-150.892517,-37.188957,-15.667276,15.896909,6.366986,-3.636619,5.527972,14.234260,8.803710,8.699605,14.399290,14.662630,10.764643,8064.000000,0.000000,4.000000,,,,0.000000,4.000000,4.000000,4.000000,4.000000,4.000000,4.000000,4.000000,4.000000,4.000000,4.000000,4.000000,4.000000,4.000000,4.000000,4.000000,4.000000,4.000000,4.000000,2.000000,4.000000,4.000000,4.000000,4.000000,4.000000,4.000000,4.000000,4.000000,4.000000,4.000000,4.000000,4.000000,4.000000,83.333336
1614076122.065518,103.000000,0.000000,7.064511,8.377553,1.567758,8.456511,10.691197,19.279036,24.013618,14.256530,-1.726979,3.248780,-4.348898,9.143620,-34.518669,-27.869789,-143.662888,-65.988792,-3.195732,-62.684429,-5.833237,-174.844177,-54.074844,-21.292635,13.829730,-6.459894,-18.504778,-3.195505,7.040538,5.205163,7.152443,12.846430,9.006942,8.702596,8064.000000,0.000000,4.000000,,,,0.000000,4.000000,4.000000,4.000000,4.000000,4.000000,4.000000,4.000000,4.000000,4.000000,4.000000,4.000000,4.000000,4.000000,4.000000,4.000000,4.000000,4.000000,4.000000,2.000000,4.000000,4.000000,4.000000,4.000000,4.000000,4.000000,4.000000,4.000000,4.000000,4.000000,4.000000,4.000000,4.000000,83.333336
1614076122.073368,104.000000,0.000000,7.057446,7.343535,1.566190,7.422414,10.680507,17.208473,17.322939,5.011504,-4.289355,1.194249,-6.395831,5.544733,-36.022610,-29.893202,-140.955124,-59.256138,-9.859203,-65.698669,-24.288942,-171.592422,-42.738720,3.344043,11.764618,-19.273947,-8.742683,-4.217951,4.982215,5.199958,6.632471,12.320763,7.972294,7.668252,8064.000000,0.000000,4.000000,,,,0.000000,4.000000,4.000000,4.000000,4.000000,4.000000,4.000000,4.000000,4.000000,4.000000,4.000000,4.000000,4.000000,4.000000,4.000000,4.000000,4.000000,4.000000,4.000000,2.000000,4.000000,4.000000,4.000000,4.000000,4.000000,4.000000,4.000000,4.000000,4.000000,4.000000,4.000000,4.000000,4.000000,83.333336
1614076122.081117,105.000000,0.000000,6.537568,7.849012,1.564624,7.414991,10.669826,16.165625,12.690231,13.724442,-4.797886,5.808439,-3.825333,5.026367,-21.114794,-18.581257,-109.019295,-26.376368,-5.746779,-32.812454,8.555860,-138.600311,-9.875467,24.366339,18.419519,-12.075186,10.240418,1.427293,22.413130,6.220399,6.625838,12.308442,8.989963,7.660584,8064.000000,0.000000,4.000000,,,,0.000000,4.000000,4.000000,4.000000,4.000000,4.000000,4.000000,4.000000,4.000000,4.000000,4.000000,4.000000,4.000000,4.000000,4.000000,4.000000,4.000000,4.000000,4.000000,2.000000,4.000000,4.000000,4.000000,4.000000,4.000000,4.000000,4.000000,4.000000,4.000000,4.000000,4.000000,4.000000,4.000000,83.333336
1614076122.088966,106.000000,0.000000,9.095133,8.353983,2.075880,8.433218,10.659156,16.662279,15.754464,22.428665,-1.716165,10.930836,2.845159,5.534161,1.983245,5.027067,-80.192329,-0.708966,5.541018,0.040870,41.367817,-105.641197,18.339537,22.803511,33.785717,12.552275,13.819921,2.451507,41.365078,5.701358,7.644854,13.834595,8.468152,9.191384,8192.000000,0.000000,4.000000,,,,0.000000,4.000000,4.000000,4.000000,4.000000,4.000000,4.000000,4.000000,4.000000,4.000000,4.000000,4.000000,4.000000,4.000000,4.000000,4.000000,4.000000,4.000000,4.000000,2.000000,4.000000,4.000000,4.000000,4.000000,4.000000,4.000000,4.000000,4.000000,4.000000,4.000000,4.000000,4.000000,4.000000,83.333336
1614076122.096715,107.000000,0.000000,12.162961,7.832809,2.073804,5.860682,11.161318,17.158438,17.277170,21.380596,-0.175987,13.484008,8.996161,5.528627,12.237672,19.893835,-71.907005,0.830205,12.714965,17.476727,47.480293,-93.227867,12.680171,25.857632,32.726288,28.437159,7.652256,1.423414,36.708328,4.670016,6.098747,8.692555,8.972505,5.592450,8192.000000,0.000000,4.000000,,,,0.000000,4.000000,4.000000,4.000000,4.000000,4.000000,4.000000,4.000000,4.000000,4.000000,4.000000,4.000000,4.000000,4.000000,4.000000,4.000000,4.000000,4.000000,4.000000,2.000000,4.000000,4.000000,4.000000,4.000000,4.000000,4.000000,4.000000,4.000000,4.000000,4.000000,4.000000,4.000000,4.000000,83.333336
1614076122.104564,108.000000,0.000000,6.509772,5.773694,-1.005193,0.213795,11.150156,16.115639,14.182971,19.307934,-0.175811,13.983344,10.012805,5.523098,2.481844,18.335480,-75.937668,-0.709087,11.163788,1.561814,25.381533,-108.006432,-3.229945,25.318953,15.770486,26.357439,5.080501,1.934811,18.722900,2.614064,-2.112480,-2.598189,6.399430,-4.669553,8192.000000,0.000000,4.000000,,,,0.000000,4.000000,4.000000,4.000000,4.000000,4.000000,4.000000,4.000000,4.000000,4.000000,4.000000,4.000000,4.000000,4.000000,4.000000,4.000000,4.000000,4.000000,4.000000,2.000000,4.000000,4.000000,4.000000,4.000000,4.000000,4.000000,4.000000,4.000000,4.000000,4.000000,4.000000,4.000000,4.000000,83.333336
1614076122.112314,109.000000,0.000000,-1.189045,4.229459,-2.029829,-3.888983,10.626185,14.561061,12.117506,18.262985,-0.688456,14.995002,9.489972,6.030396,-3.161663,18.829966,-74.836090,7.496750,12.178266,-17.414106,18.176664,-114.052269,-4.765177,5.293634,8.575229,21.715696,5.588241,2.445697,12.550331,1.585809,-8.777034,-7.210975,0.239184,-11.331550,8192.000000,0.000000,4.000000,,,,0.000000,4.000000,4.000000,4.000000,4.000000,4.000000,4.000000,4.000000,4.000000,4.000000,4.000000,4.000000,4.000000,4.000000,4.000000,4.000000,4.000000,4.000000,4.000000,2.000000,4.000000,4.000000,4.000000,4.000000,4.000000,4.000000,4.000000,4.000000,4.000000,4.000000,4.000000,4.000000,4.000000,83.333336
1614076122.120163,110.000000,0.000000,1.889067,3.712409,-1.002158,-3.885093,11.128380,13.520859,13.131029,17.731901,-0.174947,13.441545,11.531764,8.588468,0.431242,21.888058,-72.709969,13.130280,18.832754,-15.345410,17.132845,-111.374115,-6.811694,-6.506531,13.694859,22.206802,4.557012,1.930431,18.178806,1.584223,-8.255437,-5.665303,-3.350799,-10.807398,8064.000000,0.000000,4.000000,,,,0.000000,4.000000,4.000000,4.000000,4.000000,4.000000,4.000000,4.000000,4.000000,4.000000,4.000000,4.000000,4.000000,4.000000,4.000000,4.000000,4.000000,4.000000,4.000000,2.000000,4.000000,4.000000,4.000000,4.000000,4.000000,4.000000,4.000000,4.000000,4.000000,4.000000,4.000000,4.000000,4.000000,83.333336
1614076122.127912,111.000000,0.000000,7.015383,4.221517,-4.590899,-2.855567,10.604431,10.943235,13.117898,17.201349,0.338048,7.274258,6.904848,9.605520,-6.235856,6.481555,-88.021873,-5.857210,17.275459,-23.022373,7.372123,-127.672997,-24.753599,-3.935922,14.706804,23.210236,1.475531,0.390039,18.160627,2.095459,-7.734361,-6.685278,-2.834627,-10.283770,8064.000000,0.000000,4.000000,,,,0.000000,4.000000,4.000000,4.000000,4.000000,4.000000,4.000000,4.000000,4.000000,4.000000,4.000000,4.000000,4.000000,4.000000,4.000000,4.000000,4.000000,4.000000,4.000000,2.000000,4.000000,4.000000,4.000000,4.000000,4.000000,4.000000,4.000000,4.000000,4.000000,4.000000,4.000000,4.000000,4.000000,83.333336
1614076122.135761,112.000000,0.000000,1.367342,4.217295,-11.765796,-4.903994,4.952801,6.316907,12.591960,11.543121,-2.739213,2.138778,-6.435391,7.544633,-18.537312,-20.191593,-111.010773,-37.133404,11.104338,-44.024990,3.262187,-153.186356,-40.626282,-8.547371,10.589534,20.622923,-2.115688,-1.661633,11.988621,4.144646,-8.752267,-5.652952,-2.318972,-10.786306,8064.000000,0.000000,4.000000,,,,0.000000,4.000000,4.000000,4.000000,4.000000,4.000000,4.000000,4.000000,4.000000,4.000000,4.000000,4.000000,4.000000,4.000000,4.000000,4.000000,4.000000,4.000000,4.000000,2.000000,4.000000,4.000000,4.000000,4.000000,4.000000,4.000000,4.000000,4.000000,4.000000,4.000000,4.000000,4.000000,4.000000,83.333336
1614076122.143510,113.000000,0.000000,-4.787871,4.213078,-13.805311,-6.950372,-0.180357,4.772129,12.579368,5.377732,-8.890320,2.649460,-13.608442,6.511447,-23.646980,-32.991917,-119.617714,-53.506527,8.016311,-49.109173,2.233284,-161.751114,-42.636936,-13.667028,9.553303,9.833069,-4.677674,-2.172792,10.438170,6.191783,-7.717874,-0.519094,-2.829474,-10.775520,8064.000000,0.000000,4.000000,,,,0.000000,4.000000,4.000000,4.000000,4.000000,4.000000,4.000000,4.000000,4.000000,4.000000,4.000000,4.000000,4.000000,4.000000,4.000000,4.000000,4.000000,4.000000,4.000000,2.000000,4.000000,4.000000,4.000000,4.000000,4.000000,4.000000,4.000000,4.000000,4.000000,4.000000,4.000000,4.000000,4.000000,83.333336
1614076122.151359,114.000000,0.000000,-4.270263,4.208865,-12.765865,-7.456242,-1.205818,5.792998,13.079609,4.859534,-11.958352,2.133990,-13.594834,4.453654,-31.828461,-31.933283,-122.575020,-55.504303,0.828807,-52.649807,-11.615104,-162.102188,-39.517376,-13.653361,10.056570,-1.971636,-1.083253,-2.170619,11.453374,5.672771,-8.222977,2.045528,-2.826644,-10.764745,8064.000000,0.000000,4.000000,,,,0.000000,4.000000,4.000000,4.000000,4.000000,4.000000,4.000000,4.000000,4.000000,4.000000,4.000000,4.000000,4.000000,4.000000,4.000000,4.000000,4.000000,4.000000,4.000000,2.000000,4.000000,4.000000,4.000000,4.000000,4.000000,4.000000,4.000000,4.000000,4.000000,4.000000,4.000000,4.000000,4.000000,83.333336
1614076122.159108,115.000000,0.000000,-4.265993,4.204656,-12.753099,-6.935965,-0.691792,5.787205,13.066529,6.905957,-11.946394,2.644676,-13.581240,1.885098,-40.001762,-27.798784,-128.606293,-43.653927,-2.761765,-49.007412,-6.475283,-156.299057,-22.554783,-12.614067,8.508052,-0.944023,8.148600,0.395654,10.929100,5.667098,-8.214754,4.607584,-2.310997,-9.215519,8064.000000,0.000000,4.000000,,,,0.000000,4.000000,4.000000,4.000000,4.000000,4.000000,4.000000,4.000000,4.000000,4.000000,4.000000,4.000000,4.000000,4.000000,4.000000,4.000000,4.000000,4.000000,4.000000,2.000000,4.000000,4.000000,4.000000,4.000000,4.000000,4.000000,4.000000,4.000000,4.000000,4.000000,4.000000,4.000000,4.000000,83.333336
1614076122.166757,116.000000,0.000000,-3.236086,4.200451,-13.253167,-6.929029,2.898644,5.268597,12.540643,5.360589,-11.421627,10.334339,-2.798427,5.985777,-30.730989,-10.335089,-115.657173,-13.866683,9.035868,-16.137892,26.351706,-124.860703,10.288284,7.398547,11.063646,11.877434,12.755836,4.497822,13.482273,5.661431,-4.103975,7.679900,0.255417,-7.155021,8064.000000,0.000000,4.000000,,,,0.000000,4.000000,4.000000,4.000000,4.000000,4.000000,4.000000,4.000000,4.000000,4.000000,4.000000,4.000000,4.000000,4.000000,4.000000,4.000000,4.000000,4.000000,4.000000,2.000000,4.000000,4.000000,4.000000,4.000000,4.000000,4.000000,4.000000,4.000000,4.000000,4.000000,4.000000,4.000000,4.000000,83.333336
1614076122.174506,117.000000,0.000000,2.408176,3.683430,-12.727093,-7.434921,9.049591,5.263329,13.040922,4.842408,-10.384564,19.554775,13.614628,15.210560,-16.341286,12.239349,-91.951767,6.147184,20.308884,13.621835,42.735611,-94.479431,23.611330,37.647560,20.283352,20.070684,11.717439,6.031786,18.084175,5.142949,-0.510127,9.210682,1.793623,-7.147866,8064.000000,0.000000,4.000000,,,,0.000000,4.000000,4.000000,4.000000,4.000000,4.000000,4.000000,4.000000,4.000000,4.000000,4.000000,4.000000,4.000000,4.000000,4.000000,4.000000,4.000000,4.000000,4.000000,2.000000,4.000000,4.000000,4.000000,4.000000,4.000000,4.000000,4.000000,4.000000,4.000000,4.000000,4.000000,4.000000,4.000000,83.333336
1614076122.182155,118.000000,0.000000,3.944229,4.192567,-12.201546,-6.914665,11.604645,5.770885,13.027882,14.581155,-7.810078,22.612143,19.242039,17.246632,-8.632636,20.945059,-85.705971,6.141037,19.262934,-18.699478,14.487746,-100.025978,6.664641,30.943245,24.365633,21.589075,12.218541,6.025754,18.578913,5.650627,0.003203,9.714292,1.791829,-4.063795,8064.000000,0.000000,4.000000,,,,0.000000,4.000000,4.000000,4.000000,4.000000,4.000000,4.000000,4.000000,4.000000,4.000000,4.000000,4.000000,4.000000,4.000000,4.000000,4.000000,4.000000,4.000000,4.000000,2.000000,4.000000,4.000000,4.000000,4.000000,4.000000,4.000000,4.000000,4.000000,4.000000,4.000000,4.000000,4.000000,4.000000,83.333336
1614076122.189904,119.000000,0.000000,2.401824,4.188375,-12.189344,-6.907751,11.080219,5.765115,12.502033,24.822985,-7.289447,22.076710,17.684336,17.229385,3.170869,19.385653,-81.517700,12.288742,19.243671,-30.988472,9.857873,-109.156723,-4.111255,2.194352,20.751524,21.567486,12.719144,6.019728,19.073153,5.644976,-0.509620,9.191757,1.277217,0.555653,8064.000000,0.000000,4.000000,,,,0.000000,4.000000,4.000000,4.000000,4.000000,4.000000,4.000000,4.000000,4.000000,4.000000,4.000000,4.000000,4.000000,4.000000,4.000000,4.000000,4.000000,4.000000,4.000000,2.000000,4.000000,4.000000,4.000000,4.000000,4.000000,4.000000,4.000000,4.000000,4.000000,4.000000,4.000000,4.000000,4.000000,83.333336
1614076122.197553,120.000000,0.000000,9.066089,3.671366,-12.689975,-6.900843,11.069139,4.733708,13.002352,23.259701,-7.794978,20.516172,19.205112,20.289078,17.013851,18.340626,-61.436184,21.507223,22.301350,1.863029,34.463402,-98.791153,3.585165,9.371645,20.730772,22.058739,11.680783,5.500888,22.643824,4.613690,0.003710,7.644104,1.275939,0.555098,8192.000000,0.000000,4.000000,,,,0.000000,4.000000,4.000000,4.000000,4.000000,4.000000,4.000000,4.000000,4.000000,4.000000,4.000000,4.000000,4.000000,4.000000,4.000000,4.000000,4.000000,4.000000,4.000000,2.000000,4.000000,4.000000,4.000000,4.000000,4.000000,4.000000,4.000000,4.000000,4.000000,4.000000,4.000000,4.000000,4.000000,83.333336
1614076122.205303,121.000000,0.000000,15.210869,5.206156,-13.190105,-4.842660,10.545249,9.344359,15.040631,22.210798,-8.300003,22.546938,22.262831,21.294430,21.612223,19.860746,-45.990131,19.434433,22.791870,1.861166,27.762270,-97.666725,1.017477,28.849453,24.299786,22.036680,14.233205,6.008208,21.082718,6.660358,0.003706,10.200562,1.787484,3.631466,8064.000000,0.000000,4.000000,,,,0.000000,4.000000,4.000000,4.000000,4.000000,4.000000,4.000000,4.000000,4.000000,4.000000,4.000000,4.000000,4.000000,4.000000,4.000000,4.000000,4.000000,4.000000,4.000000,2.000000,4.000000,4.000000,4.000000,4.000000,4.000000,4.000000,4.000000,4.000000,4.000000,4.000000,4.000000,4.000000,4.000000,83.333336
1614076122.212952,122.000000,0.000000,10.067452,7.252232,-11.638454,-2.786535,11.047524,16.001682,17.076872,27.829615,-7.266062,25.601315,22.240568,20.760315,14.923944,19.328066,-53.636452,16.338076,24.307539,-28.397104,1.067841,-110.902390,-15.393797,12.410347,23.762665,20.989002,15.757433,6.515020,13.882149,11.269082,0.003702,12.241644,1.272876,5.679116,8064.000000,0.000000,4.000000,,,,0.000000,4.000000,4.000000,4.000000,4.000000,4.000000,4.000000,4.000000,4.000000,4.000000,4.000000,4.000000,4.000000,4.000000,4.000000,4.000000,4.000000,4.000000,4.000000,2.000000,4.000000,4.000000,4.000000,4.000000,4.000000,4.000000,4.000000,4.000000,4.000000,4.000000,4.000000,4.000000,4.000000,83.333336
