title:3, start timestamp:1614073978.001607, stop timestamp:1614074023.868927, headset type:EPOCFLEX, headset serial:F00001ED, headset firmware:f12, subject name:s07, channels:75, sampling rate:128, samples:5920      , version:2.0
Timestamp,EEG.Counter,EEG.Interpolated,EEG.Cz,EEG.Fz,EEG.Fp1,EEG.AF3,EEG.F7,EEG.F3,EEG.FC1,EEG.C3,EEG.FC5,EEG.T7,EEG.CP5,EEG.CP1,EEG.P3,EEG.P7,EEG.PO3,EEG.O1,EEG.Pz,EEG.Oz,EEG.O2,EEG.PO4,EEG.P8,EEG.P4,EEG.CP2,EEG.CP6,EEG.T8,EEG.FC6,EEG.C4,EEG.FC2,EEG.F4,EEG.F8,EEG.AF4,EEG.Fp2,EEG.HighBitFlex,EEG.RawCq,EEG.Battery,MarkerIndex,MarkerType,MarkerValueInt,EEG.MarkerHardware,CQ.Cz,CQ.Fz,CQ.Fp1,CQ.AF3,CQ.F7,CQ.F3,CQ.FC1,CQ.C3,CQ.FC5,CQ.T7,CQ.CP5,CQ.CP1,CQ.P3,CQ.P7,CQ.PO3,CQ.O1,CQ.Pz,CQ.Oz,CQ.O2,CQ.PO4,CQ.P8,CQ.P4,CQ.CP2,CQ.CP6,CQ.T8,CQ.FC6,CQ.C4,CQ.FC2,CQ.F4,CQ.F8,CQ.AF4,CQ.Fp2,CQ.Overall
1614073978.001607,28.000000,0.000000,16.642960,-15.151829,7.377737,-0.009535,4.295623,-1.271721,-3.644525,14.024069,-2.139260,9.579397,18.729895,4.257579,15.594583,-2.095917,-42.894798,-9.604383,39.670158,-18.075846,-15.867191,27.782053,-34.306652,-3.196562,20.462215,17.695707,17.921343,14.667654,5.626446,-1.089964,-8.250463,11.254566,-2.220642,10.574860,0.000000,190.000000,4.000000,,,,0.000000,4.000000,4.000000,4.000000,4.000000,4.000000,4.000000,4.000000,4.000000,4.000000,4.000000,4.000000,4.000000,4.000000,4.000000,4.000000,4.000000,4.000000,4.000000,4.000000,4.000000,4.000000,4.000000,4.000000,4.000000,4.000000,4.000000,4.000000,4.000000,4.000000,4.000000,4.000000,4.000000,100.000000
1614073978.009256,29.000000,0.000000,18.677597,-5.393088,8.396001,3.580218,0.701584,-2.296090,-3.128060,6.830558,-5.214044,-5.301977,4.352190,-28.054371,-1.856910,-10.298950,-36.698055,-15.235804,28.348436,-22.673155,-35.851326,4.164527,-30.682602,-7.808751,12.236625,6.395960,11.236754,13.627345,7.672102,-1.088874,-8.242213,5.602286,2.909783,10.564284,0.000000,146.000000,4.000000,,,,0.000000,4.000000,4.000000,4.000000,4.000000,4.000000,4.000000,4.000000,4.000000,4.000000,4.000000,4.000000,4.000000,4.000000,4.000000,4.000000,4.000000,4.000000,4.000000,4.000000,4.000000,2.000000,4.000000,4.000000,4.000000,4.000000,4.000000,4.000000,4.000000,4.000000,4.000000,4.000000,4.000000,83.333336
1614073978.017005,30.000000,0.000000,9.428151,-2.310771,6.336322,2.038176,-9.555528,-6.909178,-6.201855,-5.996786,-5.721650,-36.065907,-19.754726,-38.282726,-31.085823,-32.339931,-56.148537,-39.835953,0.627779,-33.419712,-48.635986,-4.557586,-57.831406,-31.903505,-0.083304,2.287000,3.020389,2.331667,6.125968,-1.087785,-8.233972,3.545401,5.470976,10.553720,0.000000,203.000000,4.000000,,,,0.000000,4.000000,4.000000,4.000000,4.000000,4.000000,4.000000,4.000000,4.000000,4.000000,4.000000,4.000000,4.000000,4.000000,4.000000,4.000000,4.000000,4.000000,4.000000,4.000000,4.000000,2.000000,4.000000,4.000000,4.000000,4.000000,4.000000,4.000000,4.000000,4.000000,4.000000,4.000000,4.000000,83.333336
1614073978.024655,31.000000,0.000000,-4.427431,-3.334102,1.201781,2.036138,-13.135715,-9.979192,-10.298217,-11.631815,-9.305672,-33.978558,-30.504202,-5.936752,-44.900890,-54.358875,-88.400085,-72.103806,-16.295925,-56.976036,-55.254017,-9.168413,-73.158188,-53.922886,-8.801169,-4.381954,0.966087,-5.875793,-7.213491,-1.086697,-8.225738,4.054677,4.952685,9.004705,0.000000,184.000000,4.000000,,,,0.000000,4.000000,4.000000,4.000000,4.000000,4.000000,4.000000,4.000000,4.000000,4.000000,4.000000,4.000000,4.000000,4.000000,4.000000,4.000000,4.000000,4.000000,4.000000,4.000000,4.000000,2.000000,4.000000,4.000000,4.000000,4.000000,4.000000,4.000000,4.000000,4.000000,4.000000,4.000000,4.000000,83.333336
1614073978.032504,32.000000,0.000000,-6.987106,-3.330768,0.687759,3.059743,-6.968734,-6.892290,-11.313560,-8.030439,-5.706623,-1.124066,-15.089083,-13.110302,-27.420092,-32.766056,-86.773224,-68.441963,-16.279629,-53.329315,-52.634659,-38.902836,-55.136314,-57.971527,-16.997496,-17.710905,4.042044,-5.869917,-14.385765,-1.085610,-8.217511,4.563442,4.434911,7.457239,8064.000000,0.000000,4.000000,,,,0.000000,4.000000,4.000000,4.000000,4.000000,4.000000,4.000000,4.000000,4.000000,4.000000,4.000000,4.000000,4.000000,4.000000,4.000000,4.000000,4.000000,4.000000,4.000000,4.000000,4.000000,2.000000,4.000000,4.000000,4.000000,4.000000,4.000000,4.000000,4.000000,4.000000,4.000000,4.000000,4.000000,83.333336
1614073978.040253,33.000000,0.000000,-2.364734,-2.814616,4.276814,3.569504,-3.372022,-2.782834,-6.686862,-0.842921,5.581135,20.928341,4.926007,-38.738216,-4.315749,0.087224,-53.865936,-35.553005,-14.724888,-37.378551,-58.223053,-66.043419,-61.747845,-65.093040,-23.134346,-23.334221,1.986720,-4.838407,-12.320097,-1.084525,-8.209294,5.071699,5.968938,6.936961,8192.000000,0.000000,4.000000,,,,0.000000,4.000000,4.000000,4.000000,4.000000,4.000000,4.000000,4.000000,4.000000,4.000000,4.000000,4.000000,4.000000,4.000000,4.000000,4.000000,4.000000,4.000000,4.000000,4.000000,4.000000,2.000000,4.000000,4.000000,4.000000,4.000000,4.000000,4.000000,4.000000,4.000000,4.000000,4.000000,4.000000,83.333336
1614073978.048102,34.000000,0.000000,-2.362370,-3.324622,2.221256,2.540293,-4.394290,-0.728769,-1.551970,5.311768,9.165298,17.830488,13.126209,-20.237942,3.893695,7.266624,-38.427452,-21.671299,-15.735805,-34.777069,-58.677650,-53.669682,-90.404045,-74.771538,-24.136852,-22.798065,-0.579370,-4.833568,-12.820598,-1.083440,-8.201085,3.528166,4.937328,7.442844,8064.000000,0.000000,4.000000,,,,0.000000,4.000000,4.000000,4.000000,4.000000,4.000000,4.000000,4.000000,4.000000,4.000000,4.000000,4.000000,4.000000,4.000000,4.000000,4.000000,4.000000,4.000000,4.000000,4.000000,4.000000,2.000000,4.000000,4.000000,4.000000,4.000000,4.000000,4.000000,4.000000,4.000000,4.000000,4.000000,4.000000,83.333336
1614073978.055852,35.000000,0.000000,-2.872828,-3.321298,0.167752,0.486471,-2.851435,-1.240860,-5.140162,4.280815,4.027927,17.812658,13.625903,1.320759,5.428263,9.823461,-43.004410,-25.752192,-15.720069,-37.306396,-38.618973,-38.744217,-70.826462,-61.363434,-23.087074,-28.929113,9.164800,-0.726170,-12.807776,-1.082357,-8.192883,5.063099,0.317006,8.461042,8064.000000,0.000000,4.000000,,,,0.000000,4.000000,4.000000,4.000000,4.000000,4.000000,4.000000,4.000000,4.000000,4.000000,4.000000,4.000000,4.000000,4.000000,4.000000,4.000000,4.000000,4.000000,4.000000,4.000000,4.000000,2.000000,4.000000,4.000000,4.000000,4.000000,4.000000,4.000000,4.000000,4.000000,4.000000,4.000000,4.000000,83.333336
1614073978.063701,36.000000,0.000000,-1.844314,-3.317976,1.706046,-0.539657,-2.848583,-6.367825,-12.827329,-5.467056,0.434156,12.666640,8.484072,-10.475434,7.986938,13.916201,-28.089611,-17.008492,-8.524861,-30.602423,-18.067532,-38.705475,-37.935123,-32.071301,-16.397320,-30.438646,21.976147,3.889941,-1.512918,-1.081274,-8.184690,11.211883,-2.760234,4.862838,8064.000000,0.000000,4.000000,,,,0.000000,4.000000,4.000000,4.000000,4.000000,4.000000,4.000000,4.000000,4.000000,4.000000,4.000000,4.000000,4.000000,4.000000,4.000000,4.000000,4.000000,4.000000,4.000000,4.000000,4.000000,2.000000,4.000000,4.000000,4.000000,4.000000,4.000000,4.000000,4.000000,4.000000,4.000000,4.000000,4.000000,83.333336
1614073978.071450,37.000000,0.000000,-1.842470,-3.314658,-7.013608,-3.103220,-12.076504,-12.002482,-11.788860,-5.461589,-6.232945,-5.807565,3.860204,-15.593163,8.491771,1.081772,-3.958957,-6.222252,9.945202,-6.982076,-6.767413,-15.077025,-43.538212,-20.757177,-3.560410,-19.126156,19.902889,3.373230,10.796288,-1.080193,-8.176506,7.610927,-2.757474,-4.372794,8064.000000,0.000000,4.000000,,,,0.000000,4.000000,4.000000,4.000000,4.000000,4.000000,4.000000,4.000000,4.000000,4.000000,4.000000,4.000000,4.000000,4.000000,4.000000,4.000000,4.000000,4.000000,4.000000,4.000000,4.000000,2.000000,4.000000,4.000000,4.000000,4.000000,4.000000,4.000000,4.000000,4.000000,4.000000,4.000000,4.000000,83.333336
1614073978.079299,38.000000,0.000000,-0.814986,-3.311344,-20.852749,-7.202681,-19.756735,-13.016121,-6.136046,6.851565,-12.380558,-17.596628,2.830702,-0.705776,8.996099,-11.227002,-11.134485,-8.267312,24.294231,3.794137,-7.786286,17.758564,-67.597237,-24.326164,1.058535,-8.337799,7.062473,-2.783989,10.272671,-1.079113,-8.168329,-6.242838,-6.857280,-10.522267,8064.000000,0.000000,4.000000,,,,0.000000,4.000000,4.000000,4.000000,4.000000,4.000000,4.000000,4.000000,4.000000,4.000000,4.000000,4.000000,4.000000,4.000000,4.000000,4.000000,4.000000,4.000000,4.000000,4.000000,4.000000,2.000000,4.000000,4.000000,4.000000,4.000000,4.000000,4.000000,4.000000,4.000000,4.000000,4.000000,4.000000,83.333336
1614073978.087049,39.000000,0.000000,1.749931,-3.308032,-19.806255,-8.733939,-17.685696,-11.977464,-6.129910,4.280611,-12.368178,-19.630314,-3.838795,1.859033,12.064027,-15.318339,-37.277199,-25.182121,21.705833,-28.517349,-33.932346,7.997216,-64.452721,-22.763376,0.031835,-9.355103,-4.226640,-8.422231,6.159834,-0.565213,-7.647341,-12.390441,-13.517090,-11.024566,8064.000000,0.000000,4.000000,,,,0.000000,4.000000,4.000000,4.000000,4.000000,4.000000,4.000000,4.000000,4.000000,4.000000,4.000000,4.000000,4.000000,4.000000,4.000000,4.000000,4.000000,4.000000,4.000000,4.000000,4.000000,2.000000,4.000000,4.000000,4.000000,4.000000,4.000000,4.000000,4.000000,4.000000,4.000000,4.000000,4.000000,83.333336
1614073978.094898,40.000000,0.000000,2.261002,-2.791904,-14.145423,-9.238026,-21.257753,-12.991127,-7.149421,-16.236490,-14.407092,-23.713247,-15.629828,-4.296672,4.872476,-33.251740,-46.983509,-48.746685,13.479000,-60.796524,-62.616364,-24.318474,-65.926727,-22.227793,2.083086,-21.140619,-12.427542,-8.926629,7.692136,-1.590289,-8.152514,-9.813948,-14.529214,-14.090464,8064.000000,0.000000,4.000000,,,,0.000000,4.000000,4.000000,4.000000,4.000000,4.000000,4.000000,4.000000,4.000000,4.000000,4.000000,4.000000,4.000000,4.000000,4.000000,4.000000,4.000000,4.000000,4.000000,4.000000,4.000000,2.000000,4.000000,4.000000,4.000000,4.000000,4.000000,4.000000,4.000000,4.000000,4.000000,4.000000,4.000000,83.333336
1614073978.102647,41.000000,0.000000,1.745921,-3.814753,-20.285124,-12.305711,-34.057011,-14.516598,-6.116631,-20.322817,-21.572172,-27.279278,-19.203941,-3.266735,-19.747782,-55.782589,-53.603191,-70.236397,4.747572,-60.735729,-65.630669,-30.960821,-93.040291,-37.077358,-3.560023,-33.427170,-16.517679,-7.892062,5.633162,-4.152802,-8.144361,-10.316955,-14.001863,-16.640476,8064.000000,0.000000,4.000000,,,,0.000000,4.000000,4.000000,4.000000,4.000000,4.000000,4.000000,4.000000,4.000000,4.000000,4.000000,4.000000,4.000000,4.000000,4.000000,4.000000,4.000000,4.000000,4.000000,4.000000,4.000000,2.000000,4.000000,4.000000,4.000000,4.000000,4.000000,4.000000,4.000000,4.000000,4.000000,4.000000,4.000000,83.333336
1614073978.110497,42.000000,0.000000,2.256995,-6.375041,-23.854582,-12.806226,-33.510132,-16.553364,-7.648975,-14.148648,-25.140343,-25.713537,-17.646276,-8.391673,-41.779316,-62.393475,-73.036766,-82.986671,-13.205893,-57.085251,-63.000935,-31.955502,-107.306221,-55.501820,-17.915438,-36.983486,-17.013981,-8.909811,-5.141703,-4.661469,-7.623396,-12.357920,-15.013503,-11.495630,7936.000000,0.000000,4.000000,,,,0.000000,4.000000,4.000000,4.000000,4.000000,4.000000,4.000000,4.000000,4.000000,4.000000,4.000000,4.000000,4.000000,4.000000,4.000000,4.000000,4.000000,4.000000,4.000000,4.000000,4.000000,2.000000,4.000000,4.000000,4.000000,4.000000,4.000000,4.000000,4.000000,4.000000,4.000000,4.000000,4.000000,83.333336
1614073978.118246,43.000000,0.000000,0.716277,-7.394307,-16.651241,-11.767778,-22.194571,-17.562450,-11.743891,-23.878090,-25.115204,-26.713465,-18.141451,-26.331999,-44.301640,-56.690056,-80.143219,-75.724197,-29.602943,-58.566624,-65.502037,-59.615852,-95.404045,-61.600166,-24.564188,-35.920864,-15.971326,-8.900901,-12.828869,-4.143987,-9.154235,-11.319921,-13.972849,-7.894392,8064.000000,0.000000,4.000000,,,,0.000000,4.000000,4.000000,4.000000,4.000000,4.000000,4.000000,4.000000,4.000000,4.000000,4.000000,4.000000,4.000000,4.000000,4.000000,4.000000,4.000000,4.000000,4.000000,4.000000,4.000000,2.000000,4.000000,4.000000,4.000000,4.000000,4.000000,4.000000,4.000000,4.000000,4.000000,4.000000,4.000000,83.333336
1614073978.125895,44.000000,0.000000,-1.848542,-6.874092,-13.557667,-13.807293,-18.582632,-16.006428,-14.809070,-29.495237,-21.500343,-29.250854,-17.610489,-31.946693,-38.616310,-44.325672,-73.396408,-63.853603,-31.111801,-52.354214,-63.898075,-75.453674,-92.231720,-64.102669,-23.001163,-36.397762,-15.955355,-8.892000,-12.816039,-6.703946,-11.196362,-9.770140,-13.446055,-8.399318,8064.000000,0.000000,4.000000,,,,0.000000,4.000000,4.000000,4.000000,4.000000,4.000000,4.000000,4.000000,4.000000,4.000000,4.000000,4.000000,4.000000,4.000000,4.000000,4.000000,4.000000,4.000000,4.000000,4.000000,4.000000,2.000000,4.000000,4.000000,4.000000,4.000000,4.000000,4.000000,4.000000,4.000000,4.000000,4.000000,4.000000,83.333336
1614073978.133645,45.000000,0.000000,-2.872335,-7.380038,-15.595390,-9.690922,-13.435844,-12.913498,-14.794261,-11.004204,-12.760895,-22.554937,-12.464673,-18.068592,-27.295645,-29.409552,-70.758911,-70.456421,-26.978127,-56.404423,-66.398277,-52.814117,-100.857437,-67.115486,-23.490982,-38.412647,-16.965040,-8.370287,-12.290403,-8.748524,-12.210807,-11.298831,-14.971070,-2.749892,8064.000000,0.000000,4.000000,,,,0.000000,4.000000,4.000000,4.000000,4.000000,4.000000,4.000000,4.000000,4.000000,4.000000,4.000000,4.000000,4.000000,4.000000,4.000000,4.000000,4.000000,4.000000,4.000000,4.000000,4.000000,2.000000,4.000000,4.000000,4.000000,4.000000,4.000000,4.000000,4.000000,4.000000,4.000000,4.000000,4.000000,83.333336
1614073978.141294,46.000000,0.000000,-1.843821,-5.321376,-4.810565,0.575180,6.577591,-9.310841,-10.164082,1.827313,-1.978903,-4.583664,2.419586,-9.332575,0.423959,-7.841681,-56.841999,-54.488525,-21.822943,-57.886478,-62.742138,-29.684381,-85.884781,-56.279140,-22.441851,-41.451157,-11.819870,-8.361917,-13.303754,-8.226954,-11.685776,-10.774712,-7.776612,5.970806,8064.000000,0.000000,4.000000,,,,0.000000,4.000000,4.000000,4.000000,4.000000,4.000000,4.000000,4.000000,4.000000,4.000000,4.000000,4.000000,4.000000,4.000000,4.000000,4.000000,4.000000,4.000000,4.000000,4.000000,4.000000,2.000000,4.000000,4.000000,4.000000,4.000000,4.000000,4.000000,4.000000,4.000000,4.000000,4.000000,4.000000,83.333336
1614073978.149043,47.000000,0.000000,-1.841977,-1.213491,21.860912,6.728451,24.519732,-1.609222,-4.000072,1.312666,7.253845,15.933741,30.109474,-9.323243,30.679945,24.986673,-26.015924,-21.613523,-2.826761,-25.520901,-34.987087,-31.193157,-55.029667,-39.812607,-11.650178,-34.743038,-0.525999,-6.815094,-8.675065,-8.731548,-11.674090,1.030935,8.641420,8.528938,8192.000000,0.000000,4.000000,,,,0.000000,4.000000,4.000000,4.000000,4.000000,4.000000,4.000000,4.000000,4.000000,4.000000,4.000000,4.000000,4.000000,4.000000,4.000000,4.000000,4.000000,4.000000,4.000000,4.000000,4.000000,2.000000,4.000000,4.000000,4.000000,4.000000,4.000000,4.000000,4.000000,4.000000,4.000000,4.000000,4.000000,83.333336
1614073978.156693,48.000000,0.000000,-2.352956,0.839005,37.223667,9.285825,27.572136,8.135977,-1.944790,11.054943,14.938899,27.712679,49.053722,2.480952,36.803112,44.961689,-10.092473,4.561936,18.201706,7.325133,-10.336715,-24.495298,-44.718227,-31.567665,1.181985,-17.272398,5.115552,-2.705714,-6.102288,-7.697176,-11.662416,12.311955,14.273805,12.110152,8064.000000,0.000000,4.000000,,,,0.000000,4.000000,4.000000,4.000000,4.000000,4.000000,4.000000,4.000000,4.000000,4.000000,4.000000,4.000000,4.000000,4.000000,4.000000,4.000000,4.000000,4.000000,4.000000,4.000000,4.000000,2.000000,4.000000,4.000000,4.000000,4.000000,4.000000,4.000000,4.000000,4.000000,4.000000,4.000000,4.000000,83.333336
1614073978.164442,49.000000,0.000000,-1.324962,0.325345,28.981316,13.379103,23.954819,11.204764,-2.968486,24.377220,18.000883,26.659325,42.338005,18.888727,29.586821,31.583391,-12.646483,-6.724678,24.337351,11.933192,-5.198174,8.349710,-45.699150,-19.228405,9.898752,-5.460255,5.623257,1.912376,-5.070544,-3.074094,-11.650753,10.248362,2.464659,18.251888,8064.000000,0.000000,4.000000,,,,0.000000,4.000000,4.000000,4.000000,4.000000,4.000000,4.000000,4.000000,4.000000,4.000000,4.000000,4.000000,4.000000,4.000000,4.000000,4.000000,4.000000,4.000000,4.000000,4.000000,4.000000,2.000000,4.000000,4.000000,4.000000,4.000000,4.000000,4.000000,4.000000,4.000000,4.000000,4.000000,4.000000,83.333336
1614073978.172092,50.000000,0.000000,2.778927,0.837840,19.208744,12.340083,22.905224,10.167918,-2.452697,26.916946,19.521343,23.042921,29.987974,19.895479,33.659798,19.244116,-11.608196,1.999996,33.030964,11.921259,-2.116052,30.905462,-38.986782,-1.773279,19.632442,-4.429153,8.181737,3.448925,5.190937,-0.506917,-11.639103,8.186831,-6.768575,16.182354,8064.000000,0.000000,4.000000,,,,0.000000,4.000000,4.000000,4.000000,4.000000,4.000000,4.000000,4.000000,4.000000,4.000000,4.000000,4.000000,4.000000,4.000000,4.000000,4.000000,4.000000,4.000000,4.000000,4.000000,4.000000,2.000000,4.000000,4.000000,4.000000,4.000000,4.000000,4.000000,4.000000,4.000000,4.000000,4.000000,4.000000,83.333336
1614073978.179841,51.000000,0.000000,6.365891,-0.188638,19.189535,6.686717,22.369497,10.157750,-2.450244,22.274645,16.424898,21.481417,28.932344,13.208918,30.549215,14.609488,-14.160690,-6.207132,45.305622,6.268312,-5.703680,19.079685,-45.101643,-0.233045,24.741016,-1.860621,7.147914,2.932656,13.390874,-0.506410,-11.627463,8.691464,-6.248986,11.037967,8064.000000,0.000000,4.000000,,,,0.000000,4.000000,4.000000,4.000000,4.000000,4.000000,4.000000,4.000000,4.000000,4.000000,4.000000,4.000000,4.000000,4.000000,4.000000,4.000000,4.000000,4.000000,4.000000,4.000000,4.000000,2.000000,4.000000,4.000000,4.000000,4.000000,4.000000,4.000000,4.000000,4.000000,4.000000,4.000000,4.000000,83.333336
1614073978.187490,52.000000,0.000000,5.846705,-3.778193,16.093422,5.141569,15.680462,8.609131,-2.447794,13.534422,6.152064,7.100962,16.082899,15.759811,3.339179,-10.020507,-40.300377,-38.508617,33.465446,-22.455904,-29.800541,-1.965035,-64.543724,-15.617427,11.895761,-0.320299,-0.551542,2.416903,4.659534,-1.018724,-11.615836,2.528927,-5.729916,10.001288,8064.000000,0.000000,4.000000,,,,0.000000,4.000000,4.000000,4.000000,4.000000,4.000000,4.000000,4.000000,4.000000,4.000000,4.000000,4.000000,4.000000,4.000000,4.000000,4.000000,4.000000,4.000000,4.000000,4.000000,4.000000,2.000000,4.000000,4.000000,4.000000,4.000000,4.000000,4.000000,4.000000,4.000000,4.000000,4.000000,4.000000,83.333336
1614073978.195240,53.000000,0.000000,3.276756,-1.723133,10.949124,6.674889,4.895550,10.138984,-2.445346,2.238836,-0.007934,-18.547165,-12.138311,11.128667,-20.253904,-35.138691,-72.054947,-70.777802,2.149930,-51.664219,-62.078430,-18.373327,-69.607384,-36.114632,-6.577672,-10.576389,-4.653554,3.440127,-4.575894,-0.504885,-11.604220,-3.114627,-6.749827,10.504107,8064.000000,0.000000,4.000000,,,,0.000000,4.000000,4.000000,4.000000,4.000000,4.000000,4.000000,4.000000,4.000000,4.000000,4.000000,4.000000,4.000000,4.000000,4.000000,4.000000,4.000000,4.000000,4.000000,4.000000,4.000000,2.000000,4.000000,4.000000,4.000000,4.000000,4.000000,4.000000,4.000000,4.000000,4.000000,4.000000,4.000000,83.333336
1614073978.202889,54.000000,0.000000,1.735018,0.842693,9.399714,6.668214,-0.237550,8.590384,-7.571106,-10.071095,-5.648952,-31.861952,-29.049250,-20.164513,-29.977240,-37.154835,-78.649559,-57.886509,-20.929144,-61.868965,-82.529175,-47.072903,-74.153160,-59.668259,-17.853146,-22.873505,-4.648901,2.411045,-6.109780,-0.504380,-11.592616,-0.547410,-6.743077,11.006424,8064.000000,0.000000,4.000000,,,,0.000000,4.000000,4.000000,4.000000,4.000000,4.000000,4.000000,4.000000,4.000000,4.000000,4.000000,4.000000,4.000000,4.000000,4.000000,4.000000,4.000000,4.000000,4.000000,4.000000,4.000000,2.000000,4.000000,4.000000,4.000000,4.000000,4.000000,4.000000,4.000000,4.000000,4.000000,4.000000,4.000000,83.333336
1614073978.210638,55.000000,0.000000,1.733283,-3.260714,5.800570,5.635905,-2.288595,-5.264361,-13.717381,-21.343075,-19.489456,-34.394192,-31.071484,-39.631527,-41.229313,-36.604858,-71.391418,-55.264523,-32.703087,-63.858376,-75.267159,-76.769417,-90.489265,-75.506027,-29.117344,-30.542940,-7.208354,-3.745212,-12.257517,-2.042337,-11.581023,-2.598145,-6.223514,9.456956,8064.000000,0.000000,4.000000,,,,0.000000,4.000000,4.000000,4.000000,4.000000,4.000000,4.000000,4.000000,4.000000,4.000000,4.000000,4.000000,4.000000,4.000000,4.000000,4.000000,4.000000,4.000000,4.000000,4.000000,4.000000,2.000000,4.000000,4.000000,4.000000,4.000000,4.000000,4.000000,4.000000,4.000000,4.000000,4.000000,4.000000,83.333336
1614073978.218288,56.000000,0.000000,1.731549,-7.360018,3.230667,6.655910,-4.850409,-11.925763,-14.216484,-17.219168,-15.367403,-28.718773,-25.399385,-16.514973,-41.188084,-34.004150,-73.371315,-56.747719,-35.234486,-54.563751,-49.550865,-75.154190,-85.783386,-74.917702,-34.216431,-41.794449,-8.739608,-8.356852,-17.886284,-4.604398,-11.569443,-7.210931,-6.217290,6.370576,8064.000000,0.000000,4.000000,,,,0.000000,4.000000,4.000000,4.000000,4.000000,4.000000,4.000000,4.000000,4.000000,4.000000,4.000000,4.000000,4.000000,4.000000,4.000000,4.000000,4.000000,4.000000,4.000000,4.000000,4.000000,2.000000,4.000000,4.000000,4.000000,4.000000,4.000000,4.000000,4.000000,4.000000,4.000000,4.000000,4.000000,83.333336
1614073978.226037,57.000000,0.000000,1.216997,-4.275734,10.406923,11.777459,1.821108,1.419496,-10.099704,5.874974,8.750528,2.079177,-5.373987,-1.626663,-14.993050,-12.944507,-65.092812,-30.537125,-23.404379,-26.816877,-35.655159,-53.027752,-59.030937,-63.047909,-23.925806,-47.906498,-4.628304,-5.784392,-12.227373,-4.599793,-11.557873,-3.101156,-5.698252,9.953949,8064.000000,0.000000,4.000000,,,,0.000000,4.000000,4.000000,4.000000,4.000000,4.000000,4.000000,4.000000,4.000000,4.000000,4.000000,4.000000,4.000000,4.000000,4.000000,4.000000,4.000000,4.000000,4.000000,4.000000,4.000000,2.000000,4.000000,4.000000,4.000000,4.000000,4.000000,4.000000,4.000000,4.000000,4.000000,4.000000,4.000000,83.333336
1614073978.233686,58.000000,0.000000,2.241421,-2.732997,16.037542,13.816963,12.075697,8.597564,-7.525501,21.253714,13.357162,27.205303,13.605746,-21.112217,6.560405,5.529976,-36.309772,-9.993767,-10.047642,-3.713138,-30.491301,-44.769596,-47.177036,-53.241272,-15.183930,-40.679104,-0.008291,-4.240146,-7.086940,-4.082373,-11.546315,-0.021132,-6.205375,16.097841,8064.000000,0.000000,4.000000,,,,0.000000,4.000000,4.000000,4.000000,4.000000,4.000000,4.000000,4.000000,4.000000,4.000000,4.000000,4.000000,4.000000,4.000000,4.000000,4.000000,4.000000,4.000000,4.000000,4.000000,4.000000,2.000000,4.000000,4.000000,4.000000,4.000000,4.000000,4.000000,4.000000,4.000000,4.000000,4.000000,4.000000,83.333336
1614073978.241436,59.000000,0.000000,2.239180,-7.858469,7.303556,6.623660,5.909776,-4.231547,-5.979514,17.642717,-2.553631,7.690918,11.540858,-10.321873,6.041024,1.421882,-27.042692,-15.111979,-3.370927,-11.401732,-29.435167,-47.288929,-55.334988,-47.547005,-13.630285,-32.946117,-1.033924,-7.312829,-8.105494,-4.591111,-11.534769,-3.098034,-6.199169,9.415076,8064.000000,0.000000,4.000000,,,,0.000000,4.000000,4.000000,4.000000,4.000000,4.000000,4.000000,4.000000,4.000000,4.000000,4.000000,4.000000,4.000000,4.000000,4.000000,4.000000,4.000000,4.000000,4.000000,4.000000,4.000000,2.000000,4.000000,4.000000,4.000000,4.000000,4.000000,4.000000,4.000000,4.000000,4.000000,4.000000,4.000000,83.333336
1614073978.249085,60.000000,0.000000,1.211300,-11.440354,-6.037081,-1.075272,-9.480750,-13.970905,-6.486355,13.009689,-7.166462,-14.368054,6.401113,22.508961,12.188829,-5.246206,-36.759239,-5.353277,4.837572,-23.185204,-36.585220,-28.267281,-55.792473,-35.191769,-2.847424,-30.349070,-4.622633,-9.356798,-8.097389,-4.586520,-11.523234,-2.069295,-5.680150,-0.337928,8064.000000,0.000000,4.000000,,,,0.000000,4.000000,4.000000,4.000000,4.000000,4.000000,4.000000,4.000000,4.000000,4.000000,4.000000,4.000000,4.000000,4.000000,4.000000,4.000000,4.000000,4.000000,4.000000,4.000000,4.000000,2.000000,4.000000,4.000000,4.000000,4.000000,4.000000,4.000000,4.000000,4.000000,4.000000,4.000000,4.000000,83.333336
1614073978.256934,61.000000,0.000000,4.287012,-10.403274,-9.107966,-1.587017,-12.035372,-12.418473,-5.967048,13.509501,-3.569552,-3.071635,7.420352,5.563375,27.048435,-2.164037,-19.286583,17.216179,15.601965,-7.777402,-27.317865,4.581500,-49.582832,-14.130934,7.924654,-23.652054,-3.592370,-7.808980,-2.448266,-3.556293,-11.511711,-4.118508,-7.212931,-0.337590,8064.000000,0.000000,4.000000,,,,0.000000,4.000000,4.000000,4.000000,4.000000,4.000000,4.000000,4.000000,4.000000,4.000000,4.000000,4.000000,4.000000,4.000000,4.000000,4.000000,4.000000,4.000000,4.000000,4.000000,4.000000,2.000000,4.000000,4.000000,4.000000,4.000000,4.000000,4.000000,4.000000,4.000000,4.000000,4.000000,4.000000,83.333336
1614073978.264684,62.000000,0.000000,6.334006,-9.880050,-6.021936,-1.072610,-4.331028,-11.380413,-5.448261,12.470350,-4.591623,-1.017281,1.259086,-26.749880,18.303438,-8.828540,-2.857040,-4.339499,18.663286,0.435503,-8.316188,9.705123,-59.276840,-9.501418,8.942370,-14.910454,-2.563136,-8.313992,1.143926,-6.629659,-11.500199,-14.370799,-9.257000,-3.414176,8064.000000,0.000000,4.000000,,,,0.000000,4.000000,4.000000,4.000000,4.000000,4.000000,4.000000,4.000000,4.000000,4.000000,4.000000,4.000000,4.000000,4.000000,4.000000,4.000000,4.000000,4.000000,4.000000,4.000000,4.000000,2.000000,4.000000,4.000000,4.000000,4.000000,4.000000,4.000000,4.000000,4.000000,4.000000,4.000000,4.000000,83.333336
1614073978.272533,63.000000,0.000000,0.686647,-10.382990,-9.605658,-1.584358,-6.890800,-13.420315,-8.519735,2.714290,-6.125493,-22.041904,-8.485763,-9.800054,-9.407173,-30.358173,-35.161877,-36.642853,12.490777,-31.872623,-28.307873,-10.817402,-81.781670,-26.414993,6.369326,-15.921185,-8.201599,-10.869780,-4.498243,-11.238414,-11.488699,-22.561558,-10.273384,-16.744095,8064.000000,0.000000,4.000000,,,,0.000000,4.000000,4.000000,4.000000,4.000000,4.000000,4.000000,4.000000,4.000000,4.000000,4.000000,4.000000,4.000000,4.000000,4.000000,4.000000,4.000000,4.000000,4.000000,4.000000,4.000000,2.000000,4.000000,4.000000,4.000000,4.000000,4.000000,4.000000,4.000000,4.000000,4.000000,4.000000,4.000000,83.333336
1614073978.280282,64.000000,0.000000,-6.493527,-10.885427,-15.749898,-1.582773,-14.063396,-13.406895,-15.177882,-12.160219,-8.170650,-31.763453,-18.220867,13.799491,-25.295202,-46.738071,-67.434402,-51.990826,-0.855047,-63.635624,-60.587257,-28.755302,-85.289627,-36.644989,-3.893454,-26.674494,-14.860064,-12.397371,-12.698874,-12.765637,-11.477210,-22.538996,-9.750290,-20.317095,0.000000,204.000000,4.000000,,,,0.000000,4.000000,4.000000,4.000000,4.000000,4.000000,4.000000,4.000000,4.000000,4.000000,4.000000,4.000000,4.000000,4.000000,4.000000,4.000000,4.000000,4.000000,4.000000,4.000000,4.000000,2.000000,4.000000,4.000000,4.000000,4.000000,4.000000,4.000000,4.000000,4.000000,4.000000,4.000000,4.000000,83.333336
1614073978.288132,65.000000,0.000000,-5.461392,-9.336081,-8.041841,-1.068370,-6.869846,-11.855026,-17.726807,-20.866009,-9.188120,-29.167587,-29.484697,-18.522001,-31.423754,-47.716972,-60.700306,-42.195244,-16.751629,-66.136093,-76.936928,-48.726547,-79.563316,-43.275009,-21.325459,-36.391411,-15.358025,-11.872153,-12.173354,-11.727231,-11.465733,-19.439533,-7.689258,-9.527547,0.000000,196.000000,4.000000,,,,0.000000,4.000000,4.000000,4.000000,4.000000,4.000000,4.000000,4.000000,4.000000,4.000000,4.000000,4.000000,4.000000,4.000000,4.000000,4.000000,4.000000,4.000000,4.000000,4.000000,4.000000,2.000000,4.000000,4.000000,4.000000,4.000000,4.000000,4.000000,4.000000,4.000000,4.000000,4.000000,4.000000,83.333336
1614073978.295881,66.000000,0.000000,-6.994392,-7.275462,5.812356,-1.067302,5.444716,-9.279069,-18.221901,-22.896423,-6.614830,-26.574316,-27.403931,-50.298351,-33.443611,-37.412846,-45.254990,-47.281254,-26.478466,-64.531494,-73.270248,-76.370132,-97.432465,-69.385582,-32.586185,-37.893478,-15.342667,-11.860282,-10.109899,-11.715504,-11.454268,-15.830350,-6.143107,-0.800070,0.000000,206.000000,4.000000,,,,0.000000,4.000000,4.000000,4.000000,4.000000,4.000000,4.000000,4.000000,4.000000,4.000000,4.000000,4.000000,4.000000,4.000000,4.000000,4.000000,4.000000,4.000000,4.000000,4.000000,4.000000,2.000000,4.000000,4.000000,4.000000,4.000000,4.000000,4.000000,4.000000,4.000000,4.000000,4.000000,4.000000,83.333336
1614073978.303730,67.000000,0.000000,-11.089962,-8.293828,6.319364,-1.066234,8.516194,-8.244148,-16.665218,-19.283783,-5.582573,-15.265691,-6.863706,-17.427540,-22.640936,-25.067741,-49.312298,-36.977562,-23.887884,-56.774654,-54.735435,-73.216835,-104.514519,-79.572609,-27.938213,-39.394047,-15.327324,-11.848421,-16.253635,-12.729429,-11.442813,-13.250417,-6.136964,-0.286450,0.000000,191.000000,4.000000,,,,0.000000,4.000000,4.000000,4.000000,4.000000,4.000000,4.000000,4.000000,4.000000,4.000000,4.000000,4.000000,4.000000,4.000000,4.000000,4.000000,4.000000,4.000000,4.000000,4.000000,4.000000,2.000000,4.000000,4.000000,4.000000,4.000000,4.000000,4.000000,4.000000,4.000000,4.000000,4.000000,4.000000,83.333336
1614073978.311479,68.000000,0.000000,-2.360924,-10.336816,-0.353622,-1.065168,6.969217,-8.748725,-9.981886,-5.418346,-4.551350,-2.942733,8.527773,15.410400,-5.182398,-17.350367,-42.596321,-4.120071,-6.940920,-28.512751,-29.039675,-40.323105,-71.589493,-46.672520,-9.961556,-39.867474,-7.619689,-12.349393,-12.647637,-11.178238,-11.431370,-13.749988,-6.130827,-0.286163,0.000000,185.000000,4.000000,,,,0.000000,4.000000,4.000000,4.000000,4.000000,4.000000,4.000000,4.000000,4.000000,4.000000,4.000000,4.000000,4.000000,4.000000,4.000000,4.000000,4.000000,4.000000,4.000000,4.000000,4.000000,2.000000,4.000000,4.000000,4.000000,4.000000,4.000000,4.000000,4.000000,4.000000,4.000000,4.000000,4.000000,83.333336
1614073978.319329,69.000000,0.000000,12.000412,-9.813659,0.159552,-1.064103,6.962248,-8.227156,-2.792417,10.997329,0.581406,-0.888508,10.057707,-8.194754,4.053553,-15.794554,-16.912697,6.140459,9.476277,-12.073981,-16.190123,-23.872526,-38.697392,-15.856618,5.945841,-23.417351,1.105880,-10.285762,7.877831,-8.602957,-11.419939,-13.736238,-6.124696,0.226943,0.000000,217.000000,4.000000,,,,0.000000,4.000000,4.000000,4.000000,4.000000,4.000000,4.000000,4.000000,4.000000,4.000000,4.000000,4.000000,4.000000,4.000000,4.000000,4.000000,4.000000,4.000000,4.000000,4.000000,4.000000,2.000000,4.000000,4.000000,4.000000,4.000000,4.000000,4.000000,4.000000,4.000000,4.000000,4.000000,4.000000,83.333336
1614073978.327078,70.000000,0.000000,11.475591,-9.803845,1.185033,-1.063039,4.904004,-8.731749,-2.276803,12.011972,1.606466,-1.913261,7.996367,-16.904507,6.613602,-14.753119,-6.639374,-7.199015,11.518083,-26.420881,-13.609830,-22.823013,-58.658695,-19.430506,4.914254,-2.881112,0.079133,-7.711373,12.485337,-8.081533,-11.408519,-13.209681,-6.118572,-0.286104,0.000000,216.000000,4.000000,,,,0.000000,4.000000,4.000000,4.000000,4.000000,4.000000,4.000000,4.000000,4.000000,4.000000,4.000000,4.000000,4.000000,4.000000,4.000000,4.000000,4.000000,4.000000,4.000000,4.000000,4.000000,2.000000,4.000000,4.000000,4.000000,4.000000,4.000000,4.000000,4.000000,4.000000,4.000000,4.000000,4.000000,83.333336
1614073978.334927,71.000000,0.000000,5.310269,-11.332502,0.158207,-1.061976,3.360638,-8.723018,-2.787347,4.307652,-4.036166,-5.501091,5.424268,15.932910,6.606988,-15.764007,-29.196838,-17.448227,5.865539,-44.343178,-19.750067,-12.030959,-78.087219,-28.641844,-3.295789,-4.929513,-0.433767,-8.729303,-6.501507,-8.073452,-11.397110,-13.709291,-6.625274,0.739823,0.000000,184.000000,4.000000,,,,0.000000,4.000000,4.000000,4.000000,4.000000,4.000000,4.000000,4.000000,4.000000,4.000000,4.000000,4.000000,4.000000,4.000000,4.000000,4.000000,4.000000,4.000000,4.000000,4.000000,4.000000,2.000000,4.000000,4.000000,4.000000,4.000000,4.000000,4.000000,4.000000,4.000000,4.000000,4.000000,4.000000,83.333336
1614073978.342676,72.000000,0.000000,5.304959,-7.218606,-0.867592,-1.573734,3.870098,-5.637371,-2.784560,1.226422,-6.083412,-10.623796,2.341921,22.583643,6.600381,-15.748242,-40.449692,-13.841034,4.321212,-35.068066,-32.550831,-10.993287,-65.701439,-25.536280,-3.292493,-16.719456,1.617949,-7.694933,-10.597569,-5.501276,-11.385714,-14.208403,-5.593007,3.303186,0.000000,178.000000,4.000000,,,,0.000000,4.000000,4.000000,4.000000,4.000000,4.000000,4.000000,4.000000,4.000000,4.000000,4.000000,4.000000,4.000000,4.000000,4.000000,4.000000,4.000000,4.000000,4.000000,4.000000,4.000000,2.000000,4.000000,4.000000,4.000000,4.000000,4.000000,4.000000,4.000000,4.000000,4.000000,4.000000,4.000000,83.333336
1614073978.350526,73.000000,0.000000,4.274013,-5.160106,-0.866725,-1.572160,2.327766,-6.144554,-2.781775,1.738016,-5.051687,-12.664454,1.313938,-9.233812,6.080961,-10.604289,-13.742576,9.762550,6.880993,-2.725306,-22.774689,-15.084858,-63.071632,-23.972281,-0.212277,-17.215557,-6.075976,-4.610315,2.233541,-3.957313,-11.374328,-14.194194,-3.023312,2.787062,0.000000,222.000000,4.000000,,,,0.000000,4.000000,4.000000,4.000000,4.000000,4.000000,4.000000,4.000000,4.000000,4.000000,4.000000,4.000000,4.000000,4.000000,4.000000,4.000000,4.000000,4.000000,4.000000,4.000000,4.000000,2.000000,4.000000,4.000000,4.000000,4.000000,4.000000,4.000000,4.000000,4.000000,4.000000,4.000000,4.000000,83.333336
1614073978.358275,74.000000,0.000000,-1.884107,-14.898535,-1.891499,-1.057768,-0.238664,-9.215333,-2.778994,1.223457,-5.559456,-18.292814,1.312624,-9.224578,5.562059,-10.080864,-2.959602,22.060480,8.925394,5.995368,-4.803196,-2.249260,-78.393173,-31.640615,-0.212065,-14.634238,-18.377592,-8.708268,-0.845616,-4.466177,-11.362953,-13.667179,-2.507468,-0.292648,0.000000,199.000000,4.000000,,,,0.000000,4.000000,4.000000,4.000000,4.000000,4.000000,4.000000,4.000000,4.000000,4.000000,4.000000,4.000000,4.000000,4.000000,4.000000,4.000000,4.000000,4.000000,4.000000,4.000000,4.000000,2.000000,4.000000,4.000000,4.000000,4.000000,4.000000,4.000000,4.000000,4.000000,4.000000,4.000000,4.000000,83.333336
1614073978.366124,75.000000,0.000000,-2.907864,-20.524662,-4.966530,-1.569530,-0.751246,-8.693297,-3.289035,0.709413,-3.502615,-13.659137,1.824132,19.502596,5.556497,-12.122066,-32.700233,-3.602606,4.301085,-23.754217,-23.772751,-4.811113,-75.750679,-36.737183,-0.211853,-16.670885,-18.872036,-16.391869,-14.178103,-4.461710,-11.351590,-14.166333,-3.017781,0.220465,0.000000,161.000000,4.000000,,,,0.000000,4.000000,4.000000,4.000000,4.000000,4.000000,4.000000,4.000000,4.000000,4.000000,4.000000,4.000000,4.000000,4.000000,4.000000,4.000000,4.000000,4.000000,4.000000,4.000000,4.000000,2.000000,4.000000,4.000000,4.000000,4.000000,4.000000,4.000000,4.000000,4.000000,4.000000,4.000000,4.000000,83.333336
1614073978.373874,76.000000,0.000000,0.171967,-9.734907,-3.935923,-2.080781,-0.237674,-3.043578,-2.772926,0.708704,0.603452,16.098112,1.309487,10.252323,6.063761,-3.904815,-41.898300,-15.393875,-2.882704,-44.243282,-47.338722,-37.113995,-63.880058,-33.623520,-0.724462,-18.192677,-12.699318,-14.324194,-12.112643,-4.457249,-11.340239,-14.152166,0.574981,2.784347,0.000000,185.000000,4.000000,,,,0.000000,4.000000,4.000000,4.000000,4.000000,4.000000,4.000000,4.000000,4.000000,4.000000,4.000000,4.000000,4.000000,4.000000,4.000000,4.000000,4.000000,4.000000,4.000000,4.000000,4.000000,2.000000,4.000000,4.000000,4.000000,4.000000,4.000000,4.000000,4.000000,4.000000,4.000000,4.000000,4.000000,83.333336
1614073978.381523,77.000000,0.000000,1.710256,-1.007223,6.837244,5.100787,-0.237436,-0.476432,1.332412,4.810559,2.654130,32.492271,2.333818,-18.475878,5.544877,7.381141,-18.266659,5.134339,-3.905462,-40.609295,-45.752922,-47.333290,-81.764893,-40.769382,-4.826301,-17.661663,-11.148157,-5.591921,-6.972326,-4.452791,-8.764796,-9.009809,5.702610,3.807204,0.000000,216.000000,4.000000,,,,0.000000,4.000000,4.000000,4.000000,4.000000,4.000000,4.000000,4.000000,4.000000,4.000000,4.000000,4.000000,4.000000,4.000000,4.000000,4.000000,4.000000,4.000000,4.000000,4.000000,4.000000,2.000000,4.000000,4.000000,4.000000,4.000000,4.000000,4.000000,4.000000,4.000000,4.000000,4.000000,4.000000,83.333336
1614073978.389272,78.000000,0.000000,1.708546,-3.057498,17.599638,12.787993,-0.237199,-1.501596,5.433643,10.959595,6.241220,13.485418,10.536613,-5.124068,5.539332,6.860940,-14.658649,11.795872,-2.875916,-37.491764,-50.322556,-33.952625,-110.401077,-57.138870,-7.385578,-14.567079,-9.085727,-3.022227,-9.529456,-4.961159,-7.217569,-1.308492,7.748190,3.290576,0.000000,175.000000,4.000000,,,,0.000000,4.000000,4.000000,4.000000,4.000000,4.000000,4.000000,4.000000,4.000000,4.000000,4.000000,4.000000,4.000000,4.000000,4.000000,4.000000,4.000000,4.000000,4.000000,4.000000,4.000000,2.000000,4.000000,4.000000,4.000000,4.000000,4.000000,4.000000,4.000000,4.000000,4.000000,4.000000,4.000000,83.333336
1614073978.396922,79.000000,0.000000,1.706837,-4.080081,19.633320,14.313667,-0.749782,-2.012915,4.915389,11.461456,9.824722,7.318087,19.244024,17.445158,7.585075,6.341258,-24.900400,12.296896,-3.898681,-23.608118,-46.682487,-43.662262,-94.393242,-50.415066,-7.378192,-19.680717,-3.948436,-6.096128,-2.853260,-3.930557,-7.723173,1.256919,8.766083,3.287286,0.000000,193.000000,4.000000,,,,0.000000,4.000000,4.000000,4.000000,4.000000,4.000000,4.000000,4.000000,4.000000,4.000000,4.000000,4.000000,4.000000,4.000000,4.000000,4.000000,4.000000,4.000000,4.000000,4.000000,4.000000,2.000000,4.000000,4.000000,4.000000,4.000000,4.000000,4.000000,4.000000,4.000000,4.000000,4.000000,4.000000,83.333336
1614073978.404671,80.000000,0.000000,1.705131,-2.537540,18.075226,13.273712,-0.236212,-0.985261,3.884833,9.398712,10.327718,20.644102,21.788883,2.555918,7.577490,7.873378,-17.696012,18.438446,-1.843500,-4.610152,-16.892216,-51.823727,-61.478336,-21.646702,-7.370814,-25.814882,0.158077,-3.525929,15.098311,-1.875344,-7.715449,0.230021,11.321420,3.283998,0.000000,202.000000,4.000000,,,,0.000000,4.000000,4.000000,4.000000,4.000000,4.000000,4.000000,4.000000,4.000000,4.000000,4.000000,4.000000,4.000000,4.000000,4.000000,4.000000,4.000000,4.000000,4.000000,4.000000,4.000000,2.000000,4.000000,4.000000,4.000000,4.000000,4.000000,4.000000,4.000000,4.000000,4.000000,4.000000,4.000000,83.333336
1614073978.412320,81.000000,0.000000,1.703425,-2.022182,18.057150,13.260439,-0.235976,-0.984276,5.932230,9.389314,9.291749,11.392689,16.638889,-8.215869,2.954528,-4.955008,-16.652676,2.522571,3.799369,-13.323490,-9.183016,-23.566776,-55.263012,-12.394286,-7.876264,-11.430093,7.337406,5.195546,19.185778,-0.847828,-7.194913,1.255432,11.822919,3.280714,0.000000,191.000000,4.000000,,,,0.000000,4.000000,4.000000,4.000000,4.000000,4.000000,4.000000,4.000000,4.000000,4.000000,4.000000,4.000000,4.000000,4.000000,4.000000,4.000000,4.000000,4.000000,4.000000,4.000000,4.000000,2.000000,4.000000,4.000000,4.000000,4.000000,4.000000,4.000000,4.000000,4.000000,4.000000,4.000000,4.000000,83.333336
1614073978.420070,82.000000,0.000000,1.701722,-3.045801,14.449349,9.144614,-2.799842,-3.547395,1.310913,3.226078,6.205534,-12.208447,2.776097,5.638501,0.900291,-22.385950,-31.507818,-14.403028,4.821211,-31.771706,-29.686653,-0.979106,-74.694931,-25.202404,-6.842746,6.017234,11.432632,6.215991,2.756335,-0.846980,-9.239000,-0.797105,8.734173,3.277433,0.000000,205.000000,4.000000,,,,0.000000,4.000000,4.000000,4.000000,4.000000,4.000000,4.000000,4.000000,4.000000,4.000000,4.000000,4.000000,4.000000,4.000000,4.000000,4.000000,4.000000,4.000000,4.000000,4.000000,4.000000,2.000000,4.000000,4.000000,4.000000,4.000000,4.000000,4.000000,4.000000,4.000000,4.000000,4.000000,4.000000,83.333336
1614073978.427719,83.000000,0.000000,1.700020,-4.068396,10.845156,5.032905,-4.335504,-5.082309,-8.946808,-11.648943,1.583944,-16.298803,-13.636935,-2.059445,1.925032,-24.927668,-39.168617,-15.414267,3.790749,-36.355320,-36.323631,-11.234537,-76.158699,-30.818228,-8.887185,-6.809296,0.139149,-4.046635,-8.528473,-0.333313,-10.768223,-6.950154,7.699797,2.761336,0.000000,189.000000,4.000000,,,,0.000000,4.000000,4.000000,4.000000,4.000000,4.000000,4.000000,4.000000,4.000000,4.000000,4.000000,4.000000,4.000000,4.000000,4.000000,4.000000,4.000000,4.000000,4.000000,4.000000,4.000000,2.000000,4.000000,4.000000,4.000000,4.000000,4.000000,4.000000,4.000000,4.000000,4.000000,4.000000,4.000000,83.333336
1614073978.435468,84.000000,0.000000,2.211141,0.038237,10.321490,6.053514,-2.279886,-3.025944,-9.963503,-15.227037,2.095181,-12.692760,-16.187401,-21.544565,1.923107,-23.364277,-36.052528,-20.014236,5.838240,-35.293324,-31.159105,-20.966892,-72.492790,-29.248947,-11.442401,-26.289665,-11.655862,-8.657973,-3.391739,-1.358620,-8.706173,-5.404742,9.743380,3.784215,0.000000,189.000000,4.000000,,,,0.000000,4.000000,4.000000,4.000000,4.000000,4.000000,4.000000,4.000000,4.000000,4.000000,4.000000,4.000000,4.000000,4.000000,4.000000,4.000000,4.000000,4.000000,4.000000,4.000000,4.000000,2.000000,4.000000,4.000000,4.000000,4.000000,4.000000,4.000000,4.000000,4.000000,4.000000,4.000000,4.000000,83.333336
1614073978.443118,85.000000,0.000000,1.183289,4.140762,10.823989,8.611563,-0.226325,-1.484457,-1.235590,-3.416939,4.657188,-15.244170,-7.453265,-6.651226,1.921184,-23.853735,-34.990833,-8.199350,7.883684,-20.899054,-23.435638,-8.638233,-77.035683,-29.219700,-8.354035,-22.160812,-3.439078,-0.444187,2.765499,-0.844441,-7.159005,3.831432,11.784918,7.882995,0.000000,167.000000,4.000000,,,,0.000000,4.000000,4.000000,4.000000,4.000000,4.000000,4.000000,4.000000,4.000000,4.000000,4.000000,4.000000,4.000000,4.000000,4.000000,4.000000,4.000000,4.000000,4.000000,4.000000,4.000000,2.000000,4.000000,4.000000,4.000000,4.000000,4.000000,4.000000,4.000000,4.000000,4.000000,4.000000,4.000000,83.333336
1614073978.450867,86.000000,0.000000,1.694926,0.546878,10.300344,9.628592,-0.738919,-1.995793,1.842569,5.817248,6.190993,-14.203285,-1.804786,18.483631,4.483365,-16.650393,-37.519943,6.167823,8.388620,-12.673027,-18.283997,0.088354,-71.317627,-27.139196,-3.730297,-14.959164,13.487438,6.735744,2.762733,4.284608,-7.664667,9.981446,11.773133,11.464856,0.000000,186.000000,4.000000,,,,0.000000,4.000000,4.000000,4.000000,4.000000,4.000000,4.000000,4.000000,4.000000,4.000000,4.000000,4.000000,4.000000,4.000000,4.000000,4.000000,4.000000,4.000000,4.000000,4.000000,4.000000,2.000000,4.000000,4.000000,4.000000,4.000000,4.000000,4.000000,4.000000,4.000000,4.000000,4.000000,4.000000,83.333336
1614073978.458517,87.000000,0.000000,4.257333,-2.530592,10.802865,9.106143,-0.225359,-1.480977,0.302264,4.272969,5.159161,-13.676261,1.786762,18.977968,6.017343,-5.351691,-37.995247,-11.274242,7.867411,-37.275738,-32.624687,-17.347631,-67.656563,-30.701801,-3.213746,-16.482666,11.935489,6.216188,2.247150,6.844426,-7.657002,8.433003,11.761360,9.402109,0.000000,210.000000,4.000000,,,,0.000000,4.000000,4.000000,4.000000,4.000000,4.000000,4.000000,4.000000,4.000000,4.000000,4.000000,4.000000,4.000000,4.000000,4.000000,4.000000,4.000000,4.000000,4.000000,4.000000,4.000000,2.000000,4.000000,4.000000,4.000000,4.000000,4.000000,4.000000,4.000000,4.000000,4.000000,4.000000,4.000000,83.333336
1614073978.466266,88.000000,0.000000,4.765897,-0.476779,9.253601,9.097036,-0.225134,-1.992316,0.814783,3.243055,3.102720,-15.713867,5.887539,13.830785,5.498505,-3.295058,-30.777763,-6.134763,4.269800,-48.007694,-49.002319,-40.407207,-87.588905,-45.030075,-5.774635,-16.979004,0.128682,5.697152,1.732082,2.735018,-7.649345,2.783545,12.262420,7.341424,0.000000,195.000000,4.000000,,,,0.000000,4.000000,4.000000,4.000000,4.000000,4.000000,4.000000,4.000000,4.000000,4.000000,4.000000,4.000000,4.000000,4.000000,4.000000,4.000000,4.000000,4.000000,4.000000,4.000000,4.000000,2.000000,4.000000,4.000000,4.000000,4.000000,4.000000,4.000000,4.000000,4.000000,4.000000,4.000000,4.000000,83.333336
1614073978.473915,89.000000,0.000000,2.197028,0.036518,6.680244,9.600760,-0.737729,-1.477503,1.326788,7.855196,2.073976,-3.390461,5.881652,10.227210,4.467366,-5.343045,-29.208523,25.153423,1.188607,-22.831480,-44.337933,-38.315517,-101.860291,-52.677353,-8.845783,-24.141512,-3.974011,7.229916,0.191889,-1.370281,-7.641695,-1.834623,10.198874,6.821263,0.000000,209.000000,4.000000,,,,0.000000,4.000000,4.000000,4.000000,4.000000,4.000000,4.000000,4.000000,4.000000,4.000000,4.000000,4.000000,4.000000,4.000000,4.000000,4.000000,4.000000,4.000000,4.000000,4.000000,4.000000,2.000000,4.000000,4.000000,4.000000,4.000000,4.000000,4.000000,4.000000,4.000000,4.000000,4.000000,4.000000,83.333336
1614073978.481665,90.000000,0.000000,3.733293,2.087764,6.160744,9.591160,1.827111,4.165000,1.325462,3.231956,2.071902,13.536007,2.798847,-3.116350,2.411616,-3.799240,-41.999828,5.641090,-0.351043,-19.218906,-38.139748,-35.200279,-87.912277,-50.573391,-10.375399,-32.835320,-3.457217,7.222686,-0.833944,-0.856091,-7.121233,-2.345609,8.137394,6.814442,0.000000,192.000000,4.000000,,,,0.000000,4.000000,4.000000,4.000000,4.000000,4.000000,4.000000,4.000000,4.000000,4.000000,4.000000,4.000000,4.000000,4.000000,4.000000,4.000000,4.000000,4.000000,4.000000,4.000000,4.000000,2.000000,4.000000,4.000000,4.000000,4.000000,4.000000,4.000000,4.000000,4.000000,4.000000,4.000000,4.000000,83.333336
1614073978.489314,91.000000,0.000000,5.780841,9.265163,8.718685,8.043107,6.440669,9.289040,1.324136,-9.591788,2.069830,10.445547,0.744766,-8.241439,0.870743,-1.744159,-42.470650,-17.954294,-0.863512,-37.661224,-36.050327,-51.062515,-74.491028,-47.958717,-10.877844,-32.289665,-2.428118,6.702643,-0.833110,-0.342414,-8.139753,-2.856084,9.667718,7.320447,0.000000,169.000000,4.000000,,,,0.000000,4.000000,4.000000,4.000000,4.000000,4.000000,4.000000,4.000000,4.000000,4.000000,4.000000,4.000000,4.000000,4.000000,4.000000,4.000000,4.000000,4.000000,4.000000,4.000000,4.000000,2.000000,4.000000,4.000000,4.000000,4.000000,4.000000,4.000000,4.000000,4.000000,4.000000,4.000000,4.000000,83.333336
1614073978.497163,92.000000,0.000000,3.210958,10.794359,10.761249,11.111987,7.972689,9.792571,-0.215650,-3.428350,1.042119,0.178692,1.769662,4.587315,0.869872,-1.742415,-23.966640,11.807250,4.778377,-27.367153,-24.732225,-43.831966,-70.826797,-37.141525,-6.251582,-29.180450,4.240976,6.695940,-0.832277,-1.367713,-7.105972,-2.853228,12.222153,9.364409,0.000000,189.000000,4.000000,,,,0.000000,4.000000,4.000000,4.000000,4.000000,4.000000,4.000000,4.000000,4.000000,4.000000,4.000000,4.000000,4.000000,4.000000,4.000000,4.000000,4.000000,4.000000,4.000000,4.000000,4.000000,4.000000,4.000000,4.000000,4.000000,4.000000,4.000000,4.000000,4.000000,4.000000,4.000000,4.000000,4.000000,100.000000
1614073978.504913,93.000000,0.000000,1.156465,8.219462,10.750487,18.280361,6.939075,9.269958,0.810207,14.010976,2.066718,1.716974,5.357636,7.659651,3.945926,-1.227852,-16.250364,20.000570,13.491548,-4.775684,-10.861339,-10.967621,-58.961098,-17.104385,3.498260,-19.407681,11.416223,5.663603,-0.318624,-1.366345,-4.021943,-2.337554,11.697110,10.893506,0.000000,153.000000,4.000000,,,,0.000000,4.000000,4.000000,4.000000,4.000000,4.000000,4.000000,4.000000,4.000000,4.000000,4.000000,4.000000,4.000000,4.000000,4.000000,4.000000,4.000000,4.000000,4.000000,4.000000,4.000000,4.000000,4.000000,4.000000,4.000000,4.000000,4.000000,4.000000,4.000000,4.000000,4.000000,4.000000,4.000000,100.000000
1614073978.512762,94.000000,0.000000,1.668129,8.211243,10.226916,19.287722,5.906496,8.747868,1.322217,5.791836,1.551831,0.176796,2.275356,-12.860829,6.506082,-0.713803,-21.362320,0.493391,14.503696,-2.206806,-4.183810,-10.956654,-52.235470,-16.061640,0.417838,-2.465196,6.789422,-0.495907,-3.395229,-0.852158,-5.043562,-11.565986,11.172593,10.369792,0.000000,217.000000,4.000000,,,,0.000000,4.000000,4.000000,4.000000,4.000000,4.000000,4.000000,4.000000,4.000000,4.000000,4.000000,4.000000,4.000000,4.000000,4.000000,4.000000,4.000000,4.000000,4.000000,4.000000,4.000000,4.000000,4.000000,4.000000,4.000000,4.000000,4.000000,4.000000,4.000000,4.000000,4.000000,4.000000,4.000000,100.000000
1614073978.520511,95.000000,0.000000,1.666461,3.587647,10.729510,16.191511,3.849307,6.175017,-4.320130,-12.675494,-3.577926,-5.464406,-2.855125,-19.514635,5.473935,-2.764372,-20.828136,10.749308,11.412270,-6.307163,-14.436037,-33.509800,-67.567848,-37.584042,-16.505657,-6.052474,-4.499419,-8.700539,-10.058500,-0.851306,-7.602622,-21.810831,11.674241,10.359423,0.000000,190.000000,4.000000,,,,0.000000,4.000000,4.000000,4.000000,4.000000,4.000000,4.000000,4.000000,4.000000,4.000000,4.000000,4.000000,4.000000,4.000000,4.000000,4.000000,4.000000,4.000000,4.000000,4.000000,4.000000,4.000000,4.000000,4.000000,4.000000,4.000000,4.000000,4.000000,4.000000,4.000000,4.000000,4.000000,4.000000,100.000000
1614073978.528360,96.000000,0.000000,1.664795,-3.595428,10.718781,16.688141,2.819817,5.143201,-6.367093,3.234617,0.015395,-1.356378,6.378500,8.710008,8.032564,2.366598,-20.807308,15.353943,11.913678,-5.788035,-32.370319,-22.707058,-77.243874,-42.674660,-19.566074,-26.046423,-8.597484,-12.281582,-12.612544,-1.363275,-7.595019,-17.686455,12.175386,10.349063,8064.000000,0.000000,4.000000,,,,0.000000,4.000000,4.000000,4.000000,4.000000,4.000000,4.000000,4.000000,4.000000,4.000000,4.000000,4.000000,4.000000,4.000000,4.000000,4.000000,4.000000,4.000000,4.000000,4.000000,4.000000,4.000000,4.000000,4.000000,4.000000,4.000000,4.000000,4.000000,4.000000,4.000000,4.000000,4.000000,4.000000,100.000000
1614073978.536110,97.000000,0.000000,5.252873,0.510732,10.195241,17.184273,2.816997,5.650879,1.844403,28.872408,12.323072,5.311645,21.756737,19.470528,22.383505,16.210384,-18.222399,2.518076,11.901765,-2.705324,-23.107180,-2.171531,-66.910217,-25.196089,-7.238815,-27.046017,-4.999143,-12.269300,-7.471726,-0.336271,-8.100245,-13.566205,12.163212,10.338714,8064.000000,0.000000,4.000000,,,,0.000000,4.000000,4.000000,4.000000,4.000000,4.000000,4.000000,4.000000,4.000000,4.000000,4.000000,4.000000,4.000000,4.000000,4.000000,4.000000,4.000000,4.000000,4.000000,4.000000,4.000000,4.000000,4.000000,4.000000,4.000000,4.000000,4.000000,4.000000,4.000000,4.000000,4.000000,4.000000,4.000000,100.000000
1614073978.543959,98.000000,0.000000,8.837364,7.689708,11.210688,16.141447,3.839821,5.132407,9.534866,25.766613,15.900493,5.306334,24.811903,-4.651506,30.053431,20.809559,-9.999048,10.720686,12.402683,-3.728260,-6.160995,-9.861667,-66.843307,-25.170893,-2.103372,-18.301022,-3.455682,-11.744210,-2.336050,3.766630,-7.066503,-14.578279,11.638227,10.328375,8064.000000,0.000000,4.000000,,,,0.000000,4.000000,4.000000,4.000000,4.000000,4.000000,4.000000,4.000000,4.000000,4.000000,4.000000,4.000000,4.000000,4.000000,4.000000,4.000000,4.000000,4.000000,4.000000,4.000000,4.000000,4.000000,4.000000,4.000000,4.000000,4.000000,4.000000,4.000000,4.000000,4.000000,4.000000,4.000000,4.000000,100.000000
1614073978.551708,99.000000,0.000000,9.854168,8.194839,14.276400,22.279152,7.425725,7.178557,8.499690,11.894692,13.320490,4.275386,19.658886,-7.210957,13.613120,14.122083,-15.630075,20.453556,11.364639,-14.493762,-26.667654,-22.159498,-82.673904,-44.120083,-4.152550,-19.308361,-4.477867,-11.732467,-0.282432,6.839786,0.120051,-3.281650,12.139410,11.343688,8064.000000,0.000000,4.000000,,,,0.000000,4.000000,4.000000,4.000000,4.000000,4.000000,4.000000,4.000000,4.000000,4.000000,4.000000,4.000000,4.000000,4.000000,4.000000,4.000000,4.000000,4.000000,4.000000,4.000000,4.000000,4.000000,4.000000,4.000000,4.000000,4.000000,4.000000,4.000000,4.000000,4.000000,4.000000,4.000000,4.000000,100.000000
1614073978.559557,100.000000,0.000000,7.793032,7.673824,15.287765,29.436361,11.008042,9.735481,4.388627,10.344337,15.871272,4.783931,10.408458,17.411638,-6.400493,6.928474,-36.127266,18.894640,3.660967,-17.556192,-39.461498,-19.573236,-81.052765,-50.742626,-3.122757,-18.776234,-2.934928,-11.207913,-0.282149,6.832946,5.248136,10.054965,12.640091,11.332344,8192.000000,0.000000,4.000000,,,,0.000000,4.000000,4.000000,4.000000,4.000000,4.000000,4.000000,4.000000,4.000000,4.000000,4.000000,4.000000,4.000000,4.000000,4.000000,4.000000,4.000000,4.000000,4.000000,4.000000,4.000000,4.000000,4.000000,4.000000,4.000000,4.000000,4.000000,4.000000,4.000000,4.000000,4.000000,4.000000,4.000000,100.000000
1614073978.567307,101.000000,0.000000,4.195495,8.178970,13.734015,26.330002,11.509855,10.751387,1.307315,10.846812,15.342580,0.676583,-3.960925,5.599355,-10.496656,-0.257942,-45.834728,15.286002,-3.522181,-2.666841,-14.806654,-18.528021,-69.176842,-46.589321,-6.196557,-16.706175,-3.444813,-11.709526,-2.333149,6.826113,2.165965,1.839782,8.524887,10.808191,8064.000000,0.000000,4.000000,,,,0.000000,4.000000,4.000000,4.000000,4.000000,4.000000,4.000000,4.000000,4.000000,4.000000,4.000000,4.000000,4.000000,4.000000,4.000000,4.000000,4.000000,4.000000,4.000000,4.000000,4.000000,4.000000,4.000000,4.000000,4.000000,4.000000,4.000000,4.000000,4.000000,4.000000,4.000000,4.000000,4.000000,100.000000
1614073978.575156,102.000000,0.000000,1.627197,5.093868,16.284384,21.688286,10.985524,9.202173,0.793187,8.271863,11.224673,-1.888196,-9.085170,-26.713936,-8.434878,-4.360248,-38.096584,-6.267745,-3.518659,-6.253917,-9.150822,-20.047955,-80.902534,-47.055553,-9.780104,-23.356134,-8.056753,-11.184996,-3.869277,5.280826,-2.451586,-8.931289,4.926619,11.310204,8064.000000,0.000000,4.000000,,,,0.000000,4.000000,4.000000,4.000000,4.000000,4.000000,4.000000,4.000000,4.000000,4.000000,4.000000,4.000000,4.000000,4.000000,4.000000,4.000000,4.000000,4.000000,4.000000,4.000000,4.000000,4.000000,4.000000,4.000000,4.000000,4.000000,4.000000,4.000000,4.000000,4.000000,4.000000,4.000000,4.000000,100.000000
1614073978.582905,103.000000,0.000000,1.625570,0.986210,13.703997,20.640957,10.974539,10.218613,0.792394,7.237950,12.239090,-0.347846,-3.947879,-12.841069,-9.964905,-2.817426,-33.443104,-22.158915,-3.002320,-35.991253,-26.577568,-19.515087,-91.078041,-47.521317,-8.231862,-26.409702,-9.587158,-10.148170,-3.865408,3.224263,-5.526057,-8.922358,4.921692,10.786073,8064.000000,0.000000,4.000000,,,,0.000000,4.000000,4.000000,4.000000,4.000000,4.000000,4.000000,4.000000,4.000000,4.000000,4.000000,4.000000,4.000000,4.000000,4.000000,4.000000,4.000000,4.000000,4.000000,4.000000,4.000000,4.000000,4.000000,4.000000,4.000000,4.000000,4.000000,4.000000,4.000000,4.000000,4.000000,4.000000,4.000000,100.000000
1614073978.590755,104.000000,0.000000,1.623944,0.472404,-2.207143,13.440829,11.476385,10.721214,0.791601,8.256353,11.714030,0.165322,-1.379829,19.992285,-10.467760,-1.276147,-39.563507,-5.213678,-3.512138,-47.750134,-27.576632,-22.572495,-72.012604,-43.371231,-8.223631,-22.793549,-11.116033,-16.804688,-5.400004,3.221039,-9.110275,-16.605743,1.327027,-1.019585,8064.000000,0.000000,4.000000,,,,0.000000,4.000000,4.000000,4.000000,4.000000,4.000000,4.000000,4.000000,4.000000,4.000000,4.000000,4.000000,4.000000,4.000000,4.000000,4.000000,4.000000,4.000000,4.000000,4.000000,4.000000,4.000000,4.000000,4.000000,4.000000,4.000000,4.000000,4.000000,4.000000,4.000000,4.000000,4.000000,4.000000,100.000000
1614073978.598504,105.000000,0.000000,1.109500,-0.553710,-16.051090,2.658157,8.900806,1.992544,0.790810,9.273738,7.599752,-1.886125,-1.378449,-1.566169,-8.918831,0.263590,-36.959843,0.432561,-1.970164,-35.394691,-35.241364,-29.729408,-66.299568,-43.840679,-10.779510,-25.334858,-19.822865,-27.557114,-7.445886,0.140894,-10.639627,-30.948112,-5.853787,-19.992924,8064.000000,0.000000,4.000000,,,,0.000000,4.000000,4.000000,4.000000,4.000000,4.000000,4.000000,4.000000,4.000000,4.000000,4.000000,4.000000,4.000000,4.000000,4.000000,4.000000,4.000000,4.000000,4.000000,4.000000,4.000000,4.000000,4.000000,4.000000,4.000000,4.000000,4.000000,4.000000,4.000000,4.000000,4.000000,4.000000,4.000000,100.000000
1614073978.606153,106.000000,0.000000,1.621211,-2.604438,-16.547859,-2.472706,1.199597,-15.445346,0.277198,6.187541,6.053690,-5.473983,-3.428352,-33.872295,-8.909912,-3.839237,-22.563908,-21.619154,-5.557938,-43.564426,-58.283043,-31.750961,-97.002502,-53.540428,-10.768730,-31.976191,-25.956888,-31.119301,-7.951261,-3.961811,-13.705910,-34.506908,-10.463319,-28.690880,8064.000000,0.000000,4.000000,,,,0.000000,4.000000,4.000000,4.000000,4.000000,4.000000,4.000000,4.000000,4.000000,4.000000,4.000000,4.000000,4.000000,4.000000,4.000000,4.000000,4.000000,4.000000,4.000000,4.000000,4.000000,4.000000,4.000000,4.000000,4.000000,4.000000,4.000000,4.000000,4.000000,4.000000,4.000000,4.000000,4.000000,100.000000
1614073978.613903,107.000000,0.000000,1.619589,-6.191577,-14.992850,-5.034336,-5.981089,-25.173491,-2.800002,1.565969,0.406611,-13.160816,-10.091591,-7.684577,-8.901002,-18.707193,-26.131086,-34.418049,-10.167764,-65.059319,-61.814507,-29.155107,-114.341393,-61.179195,-10.245141,-36.046776,-25.418112,-29.549721,-9.481771,-4.983490,-17.281948,-30.369837,-13.529778,-25.585266,8064.000000,0.000000,4.000000,,,,0.000000,4.000000,4.000000,4.000000,4.000000,4.000000,4.000000,4.000000,4.000000,4.000000,4.000000,4.000000,4.000000,4.000000,4.000000,4.000000,4.000000,4.000000,4.000000,4.000000,4.000000,4.000000,4.000000,4.000000,4.000000,4.000000,4.000000,4.000000,4.000000,4.000000,4.000000,4.000000,4.000000,100.000000
1614073978.621552,108.000000,0.000000,1.617970,-11.826411,-16.003498,-8.619045,-8.539210,-23.609856,-3.310022,1.564403,-8.311744,-20.327143,-12.645601,16.938492,-8.892101,-30.996178,-40.463932,-28.229782,-7.593494,-56.276314,-50.470638,-35.279800,-97.303978,-52.912891,-10.234896,-40.626114,-32.572182,-29.520170,-11.523572,-6.004148,-18.803127,-32.903568,-17.618813,-27.610964,8064.000000,0.000000,4.000000,,,,0.000000,4.000000,4.000000,4.000000,4.000000,4.000000,4.000000,4.000000,4.000000,4.000000,4.000000,4.000000,4.000000,4.000000,4.000000,4.000000,4.000000,4.000000,4.000000,4.000000,4.000000,4.000000,4.000000,4.000000,4.000000,4.000000,4.000000,4.000000,4.000000,4.000000,4.000000,4.000000,4.000000,100.000000
1614073978.629301,109.000000,0.000000,2.129172,-14.378688,-15.987494,-11.174528,-7.505031,-24.099066,-2.281071,-1.001264,-10.354714,-21.332457,-14.171417,-15.386138,-9.396029,-30.965181,-33.243980,-24.098989,-8.098721,-42.886703,-49.394527,-49.090672,-89.514366,-48.244591,-10.737481,-44.688053,-45.872940,-30.003471,-12.024869,-8.562245,-20.322786,-39.537331,-18.114014,-32.198738,8064.000000,0.000000,4.000000,,,,0.000000,4.000000,4.000000,4.000000,4.000000,4.000000,4.000000,4.000000,4.000000,4.000000,4.000000,4.000000,4.000000,4.000000,4.000000,4.000000,4.000000,4.000000,4.000000,4.000000,4.000000,4.000000,4.000000,4.000000,4.000000,4.000000,4.000000,4.000000,4.000000,4.000000,4.000000,4.000000,4.000000,100.000000
1614073978.636951,110.000000,0.000000,1.101402,-14.364308,-14.945867,-9.112072,-8.010346,-24.587788,-4.330072,-9.205391,-8.805898,-20.798304,-22.362375,-28.704086,-9.386634,-30.934217,-31.672274,-33.818481,-16.295750,-66.946381,-55.498978,-54.682610,-105.322289,-59.991219,-14.829308,-46.694649,-43.775787,-30.486288,-11.500023,-9.066504,-21.328104,-38.472153,-17.583080,-21.397306,8064.000000,0.000000,4.000000,,,,0.000000,4.000000,4.000000,4.000000,4.000000,4.000000,4.000000,4.000000,4.000000,4.000000,4.000000,4.000000,4.000000,4.000000,4.000000,4.000000,4.000000,4.000000,4.000000,4.000000,4.000000,4.000000,4.000000,4.000000,4.000000,4.000000,4.000000,4.000000,4.000000,4.000000,4.000000,4.000000,4.000000,100.000000
1614073978.644700,111.000000,0.000000,-3.515084,-13.837124,-8.264254,3.204732,-8.515156,-19.434994,-6.377024,-11.247468,-9.309913,-21.290325,-27.981037,4.145132,-8.864427,-31.416103,-59.845730,-43.528252,-22.433300,-78.161484,-53.905018,-49.499722,-106.242607,-62.495331,-17.378580,-46.135132,-30.911497,-28.404520,-11.488523,-8.031796,-19.768314,-30.228554,-17.565496,-2.914371,8064.000000,0.000000,4.000000,,,,0.000000,4.000000,4.000000,4.000000,4.000000,4.000000,4.000000,4.000000,4.000000,4.000000,4.000000,4.000000,4.000000,4.000000,4.000000,4.000000,4.000000,4.000000,4.000000,4.000000,4.000000,4.000000,4.000000,4.000000,4.000000,4.000000,4.000000,4.000000,4.000000,4.000000,4.000000,4.000000,4.000000,100.000000
1614073978.652350,112.000000,0.000000,-6.075671,-10.746364,0.461959,16.534861,-7.993821,-13.774533,-6.883468,-9.697759,-7.249321,-20.756216,-28.465878,-0.987219,-9.368382,-26.256481,-63.888447,-32.202671,-22.410868,-45.262814,-36.928036,-48.937401,-81.520981,-45.509758,-18.386843,-40.447971,-25.752380,-23.760731,-11.477035,-8.023765,-17.697264,-27.634222,-14.471008,2.216748,8064.000000,0.000000,4.000000,,,,0.000000,4.000000,4.000000,4.000000,4.000000,4.000000,4.000000,4.000000,4.000000,4.000000,4.000000,4.000000,4.000000,4.000000,4.000000,4.000000,4.000000,4.000000,4.000000,4.000000,4.000000,4.000000,4.000000,4.000000,4.000000,4.000000,4.000000,4.000000,4.000000,4.000000,4.000000,4.000000,4.000000,100.000000
1614073978.660099,113.000000,0.000000,-6.582416,-7.145874,4.051241,16.005507,-7.473006,-11.709476,-6.363764,-12.252163,-2.626687,-20.735458,-28.437410,-33.293922,-9.359015,-24.178944,-31.004047,-14.221751,-19.311533,-14.961139,-18.429569,-45.811539,-65.029198,-35.207840,-19.394098,-37.843422,-22.649706,-21.685688,-11.465557,-8.528562,-18.192387,-28.119408,-10.353973,-1.375212,8064.000000,0.000000,4.000000,,,,0.000000,4.000000,4.000000,4.000000,4.000000,4.000000,4.000000,4.000000,4.000000,4.000000,4.000000,4.000000,4.000000,4.000000,4.000000,4.000000,4.000000,4.000000,4.000000,4.000000,4.000000,4.000000,4.000000,4.000000,4.000000,4.000000,4.000000,4.000000,4.000000,4.000000,4.000000,4.000000,4.000000,100.000000
1614073978.667748,114.000000,0.000000,-5.550193,-6.625907,4.047190,9.835654,-7.978354,-8.620844,-6.357400,-4.547604,-1.085599,-20.201902,-16.101282,-9.158066,-0.118886,-21.077841,-17.126888,-0.361375,-4.933248,-20.074383,-13.282935,-18.586241,-69.066734,-36.198273,-12.708036,-37.805576,-13.909107,-21.664001,-11.454092,-7.494392,-18.174194,-19.886160,-9.317978,0.164625,8064.000000,0.000000,4.000000,,,,0.000000,4.000000,4.000000,4.000000,4.000000,4.000000,4.000000,4.000000,4.000000,4.000000,4.000000,4.000000,4.000000,4.000000,4.000000,4.000000,4.000000,4.000000,4.000000,4.000000,4.000000,4.000000,4.000000,4.000000,4.000000,4.000000,4.000000,4.000000,4.000000,4.000000,4.000000,4.000000,4.000000,100.000000
1614073978.675498,115.000000,0.000000,-0.929258,-6.619281,3.530322,9.312998,-8.483196,-5.535300,-6.351043,12.892841,-2.110154,-15.053496,1.863538,23.671604,9.624823,-11.313173,-32.494377,12.459499,13.020404,-24.669693,-14.295294,5.022089,-71.048950,-30.521048,1.150825,-26.998541,-7.741352,-19.078236,-11.442637,-4.922795,-18.156021,-11.661146,-10.334301,0.677281,8064.000000,0.000000,4.000000,,,,0.000000,4.000000,4.000000,4.000000,4.000000,4.000000,4.000000,4.000000,4.000000,4.000000,4.000000,4.000000,4.000000,4.000000,4.000000,4.000000,4.000000,4.000000,4.000000,4.000000,4.000000,4.000000,4.000000,4.000000,4.000000,4.000000,4.000000,4.000000,4.000000,4.000000,4.000000,4.000000,4.000000,100.000000
1614073978.683147,116.000000,0.000000,2.661415,-7.125483,3.013971,9.303685,-3.859328,-3.991303,-6.344691,16.469692,-2.620864,-9.910237,4.938597,12.878703,8.589557,-8.224937,-30.923422,-1.911935,16.084307,-32.337330,-21.460485,-13.444472,-69.439438,-29.464886,1.662495,-14.663851,-10.810534,-17.520695,-11.431195,-3.892231,-17.625044,-12.162306,-9.298326,-0.349038,8064.000000,0.000000,4.000000,,,,0.000000,4.000000,4.000000,4.000000,4.000000,4.000000,4.000000,4.000000,4.000000,4.000000,4.000000,4.000000,4.000000,4.000000,4.000000,4.000000,4.000000,4.000000,4.000000,4.000000,4.000000,4.000000,4.000000,4.000000,4.000000,4.000000,4.000000,4.000000,4.000000,4.000000,4.000000,4.000000,4.000000,100.000000
1614073978.690896,117.000000,0.000000,1.633112,-6.605537,7.626342,10.320023,3.836839,-1.936030,-6.338347,12.863479,0.971500,-8.874686,3.908018,-19.441868,5.504044,-10.780815,-12.943780,-18.320280,10.940017,-44.099865,-34.259537,-31.892567,-78.600769,-39.691830,-6.544296,-22.854315,-14.902287,-18.528816,-11.419765,-4.913980,-18.120239,-13.688605,-7.237745,4.779516,8064.000000,0.000000,4.000000,,,,0.000000,4.000000,4.000000,4.000000,4.000000,4.000000,4.000000,4.000000,4.000000,4.000000,4.000000,4.000000,4.000000,4.000000,4.000000,4.000000,4.000000,4.000000,4.000000,4.000000,4.000000,4.000000,4.000000,4.000000,4.000000,4.000000,4.000000,4.000000,4.000000,4.000000,4.000000,4.000000,4.000000,100.000000
1614073978.698546,118.000000,0.000000,1.631479,-1.470726,13.772562,15.437907,7.422746,1.142829,-6.332008,16.953180,7.124375,-9.378632,4.929750,-12.755760,7.549822,-7.180291,-15.494939,7.339067,9.903436,-34.824997,-32.686817,-12.886314,-88.265755,-44.267525,-7.050572,-35.139153,-12.836102,-18.510286,-9.357062,-3.370604,-18.102119,-11.623634,-5.692046,10.415763,8064.000000,0.000000,4.000000,,,,0.000000,4.000000,4.000000,4.000000,4.000000,4.000000,4.000000,4.000000,4.000000,4.000000,4.000000,4.000000,4.000000,4.000000,4.000000,4.000000,4.000000,4.000000,4.000000,4.000000,4.000000,4.000000,4.000000,4.000000,4.000000,4.000000,4.000000,4.000000,4.000000,4.000000,4.000000,4.000000,4.000000,100.000000
1614073978.706295,119.000000,0.000000,2.142668,4.171770,15.297251,20.037853,10.492246,3.192968,-6.325676,9.756740,9.681353,-9.882073,-6.870051,-1.460953,-2.714138,-5.634649,-41.120468,6.818907,2.201225,-33.764530,-28.038746,-15.437531,-81.510826,-41.146332,-8.581984,-33.052731,-8.207882,-15.927674,-7.296423,-0.803131,-16.032734,-9.560729,-4.147892,11.430987,8064.000000,0.000000,4.000000,,,,0.000000,4.000000,4.000000,4.000000,4.000000,4.000000,4.000000,4.000000,4.000000,4.000000,4.000000,4.000000,4.000000,4.000000,4.000000,4.000000,4.000000,4.000000,4.000000,4.000000,4.000000,4.000000,4.000000,4.000000,4.000000,4.000000,4.000000,4.000000,4.000000,4.000000,4.000000,4.000000,4.000000,100.000000
1614073978.713944,120.000000,0.000000,-1.962038,5.193240,14.256312,20.017817,14.584318,5.241057,-6.319351,-10.765838,9.158851,-9.359371,-17.119591,-11.715902,-21.172962,-10.757219,-53.387043,-25.495604,-12.672771,-53.217945,-39.805576,-47.729786,-73.737007,-41.618008,-14.727247,-28.917114,-6.661212,-14.886106,-7.801947,-1.827969,-13.965420,-9.551167,-1.579642,9.881095,8064.000000,0.000000,4.000000,,,,0.000000,4.000000,4.000000,4.000000,4.000000,4.000000,4.000000,4.000000,4.000000,4.000000,4.000000,4.000000,4.000000,4.000000,4.000000,4.000000,4.000000,4.000000,4.000000,4.000000,4.000000,4.000000,4.000000,4.000000,4.000000,4.000000,4.000000,4.000000,4.000000,4.000000,4.000000,4.000000,4.000000,100.000000
1614073978.721794,121.000000,0.000000,-6.062641,4.162405,14.754876,19.997799,15.082554,6.261457,-6.313031,-9.729431,9.149693,-6.785909,-9.922984,-14.781109,-17.562046,-10.233642,-37.436218,-9.572673,-12.660099,-45.985241,-41.304234,-47.682056,-80.329941,-44.140491,-15.225341,-31.452301,-7.167372,-14.871220,-8.306966,-4.390244,-14.464275,-9.541616,0.986040,11.409676,8064.000000,0.000000,4.000000,,,,0.000000,4.000000,4.000000,4.000000,4.000000,4.000000,4.000000,4.000000,4.000000,4.000000,4.000000,4.000000,4.000000,4.000000,4.000000,4.000000,4.000000,4.000000,4.000000,4.000000,4.000000,4.000000,4.000000,4.000000,4.000000,4.000000,4.000000,4.000000,4.000000,4.000000,4.000000,4.000000,4.000000,100.000000
1614073978.729543,122.000000,0.000000,-3.492475,2.619781,14.740122,21.003441,14.041831,6.255196,-6.306718,5.152093,10.166183,-5.753482,-4.272036,-11.176584,-0.108586,-7.146485,-24.578270,23.257412,-3.416669,-26.452076,-21.262930,-14.813861,-78.711143,-44.609173,-14.184474,-31.420849,-6.647384,-14.856348,-7.273018,-4.385853,-14.449811,-8.506434,1.497875,11.398266,8064.000000,0.000000,4.000000,,,,0.000000,4.000000,4.000000,4.000000,4.000000,4.000000,4.000000,4.000000,4.000000,4.000000,4.000000,4.000000,4.000000,4.000000,4.000000,4.000000,4.000000,4.000000,4.000000,4.000000,4.000000,4.000000,4.000000,4.000000,4.000000,4.000000,4.000000,4.000000,4.000000,4.000000,4.000000,4.000000,4.000000,100.000000
1614073978.737392,123.000000,0.000000,-0.924880,0.565880,14.212561,17.905516,15.566250,5.736120,-6.813232,0.531556,9.130376,-5.234908,-5.806225,-15.267972,2.968446,-8.164979,-27.630613,-1.894050,-2.900432,-28.989727,-9.446795,-9.670842,-61.196537,-39.949177,-15.195930,-26.774042,-7.153557,-15.354312,-7.265745,-3.868647,-14.435361,-10.036389,0.983556,7.284304,8064.000000,0.000000,4.000000,,,,0.000000,4.000000,4.000000,4.000000,4.000000,4.000000,4.000000,4.000000,4.000000,4.000000,4.000000,4.000000,4.000000,4.000000,4.000000,4.000000,4.000000,4.000000,4.000000,4.000000,4.000000,4.000000,4.000000,4.000000,4.000000,4.000000,4.000000,4.000000,4.000000,4.000000,4.000000,4.000000,4.000000,100.000000
1614073978.745142,124.000000,0.000000,-2.462417,0.565314,14.711169,16.861969,14.012222,6.243205,-6.293599,-1.007437,10.146887,-1.127109,1.379068,-9.611678,2.965477,-7.131173,-18.372213,0.671947,2.230674,-16.140224,-6.360425,-18.891941,-50.878929,-28.627178,-5.949965,-26.234447,-6.120762,-13.800496,-8.796941,-3.864779,-14.420926,-7.975071,1.495393,2.661635,8064.000000,0.000000,4.000000,,,,0.000000,4.000000,4.000000,4.000000,4.000000,4.000000,4.000000,4.000000,4.000000,4.000000,4.000000,4.000000,4.000000,4.000000,4.000000,4.000000,4.000000,4.000000,4.000000,4.000000,4.000000,4.000000,4.000000,4.000000,4.000000,4.000000,4.000000,4.000000,4.000000,4.000000,4.000000,4.000000,4.000000,100.000000
1614073978.752991,125.000000,0.000000,-0.408672,0.564748,13.157996,21.973312,8.870005,5.724141,-3.723202,20.532032,13.213663,2.463761,9.582817,9.885113,9.629178,-4.559939,-6.558970,33.491787,17.100237,9.516942,1.851063,1.126952,-51.340874,-17.829319,8.927779,-23.644112,-0.473616,-8.658491,-3.659939,-2.322452,-14.406505,-0.787608,0.981077,3.171794,8064.000000,0.000000,4.000000,,,,0.000000,4.000000,4.000000,4.000000,4.000000,4.000000,4.000000,4.000000,4.000000,4.000000,4.000000,4.000000,4.000000,4.000000,4.000000,4.000000,4.000000,4.000000,4.000000,4.000000,4.000000,4.000000,4.000000,4.000000,4.000000,4.000000,4.000000,4.000000,4.000000,4.000000,4.000000,4.000000,4.000000,100.000000
1614073978.760740,126.000000,0.000000,5.745583,0.564184,9.042274,21.438519,6.809853,5.718417,-2.181018,25.126884,11.661988,0.410016,10.086055,10.388048,4.491344,-7.119482,-16.808821,17.560860,14.519035,-5.364370,-4.817454,8.818132,-52.315170,-17.811491,14.047056,-8.235851,-0.473143,-7.111371,3.010388,0.243973,-14.392098,-0.786821,-1.584006,3.168622,8064.000000,0.000000,4.000000,,,,0.000000,4.000000,4.000000,4.000000,4.000000,4.000000,4.000000,4.000000,4.000000,4.000000,4.000000,4.000000,4.000000,4.000000,4.000000,4.000000,4.000000,4.000000,4.000000,4.000000,4.000000,4.000000,4.000000,4.000000,4.000000,4.000000,4.000000,4.000000,4.000000,4.000000,4.000000,4.000000,4.000000,100.000000
1614073978.768589,127.000000,0.000000,5.739837,0.563619,6.469129,13.724771,5.777402,6.225519,-2.691657,0.486373,4.983659,-4.718599,3.922123,-11.160802,-8.846480,-10.702106,-31.150988,-10.661829,-4.982664,-34.076954,-36.094688,-21.447096,-71.750038,-34.716755,2.750958,0.490333,-9.703439,-9.668362,-1.095186,-0.781912,-14.377707,-10.016804,-3.120884,0.088530,8064.000000,0.000000,4.000000,,,,0.000000,4.000000,4.000000,4.000000,4.000000,4.000000,4.000000,4.000000,4.000000,4.000000,4.000000,4.000000,4.000000,4.000000,4.000000,4.000000,4.000000,4.000000,4.000000,4.000000,4.000000,4.000000,4.000000,4.000000,4.000000,4.000000,4.000000,4.000000,4.000000,4.000000,4.000000,4.000000,4.000000,100.000000
1614073978.776339,0.000000,0.000000,-1.958211,-0.462585,6.462660,11.146944,-0.382221,4.168011,-2.688965,-11.308985,1.388932,-11.380548,-8.902312,-14.739385,-14.478660,-14.281148,-36.760860,1.656525,-16.772552,-44.299286,-61.699619,-47.066673,-102.960335,-60.323067,-12.636408,-16.946054,-14.821940,-11.197155,-9.812040,-5.909335,-14.876149,-14.109350,-2.604942,-0.937199,0.000000,207.000000,4.000000,,,,0.000000,4.000000,4.000000,4.000000,4.000000,4.000000,4.000000,4.000000,4.000000,4.000000,4.000000,4.000000,4.000000,4.000000,4.000000,4.000000,4.000000,4.000000,4.000000,4.000000,4.000000,4.000000,4.000000,4.000000,4.000000,4.000000,4.000000,4.000000,4.000000,4.000000,4.000000,4.000000,4.000000,100.000000
1614073978.784188,1.000000,0.000000,-6.571637,-2.513405,6.969018,13.187079,-4.997224,2.112561,-2.686276,-3.092547,1.900364,-17.010193,-19.662642,-2.416953,-19.592386,-24.010456,-47.493332,-16.806669,-21.371164,-57.588322,-60.099457,-46.506786,-102.857376,-69.493507,-18.264797,-38.467571,-14.294298,-10.673138,-12.366330,-7.441887,-14.348453,-12.556780,-2.602337,-0.423442,0.000000,191.000000,4.000000,,,,0.000000,4.000000,4.000000,4.000000,4.000000,4.000000,4.000000,4.000000,4.000000,4.000000,4.000000,4.000000,4.000000,4.000000,4.000000,4.000000,4.000000,4.000000,4.000000,4.000000,4.000000,4.000000,4.000000,4.000000,4.000000,4.000000,4.000000,4.000000,4.000000,4.000000,4.000000,4.000000,4.000000,100.000000
1614073978.791937,2.000000,0.000000,-5.539424,-3.536532,6.449228,13.173892,-4.479406,2.110448,-2.683590,-4.115096,1.898463,-16.993183,-21.694260,-14.722228,-23.162539,-26.037727,-50.522762,-38.841145,-21.349794,-62.146118,-45.167564,-44.921818,-80.703239,-55.577862,-15.169609,-40.993206,-13.767183,-10.662464,-10.815502,-5.383163,-11.770001,-12.544223,-2.599735,0.089802,0.000000,200.000000,4.000000,,,,0.000000,4.000000,4.000000,4.000000,4.000000,4.000000,4.000000,4.000000,4.000000,4.000000,4.000000,4.000000,4.000000,4.000000,4.000000,4.000000,4.000000,4.000000,4.000000,4.000000,4.000000,4.000000,4.000000,4.000000,4.000000,4.000000,4.000000,4.000000,4.000000,4.000000,4.000000,4.000000,4.000000,100.000000
1614073978.799786,3.000000,0.000000,-2.969782,-3.020175,7.468420,12.647898,-4.987747,2.621159,-2.680907,-7.700725,1.896565,-15.950548,-20.134104,-31.630583,-15.447067,-14.216819,-35.087624,-5.981791,-13.123316,-36.955765,-43.071114,-48.979462,-79.596893,-46.291515,-15.154440,-37.362469,-14.266236,-11.164622,-11.317508,-3.839319,-10.219769,-12.531679,-2.084315,0.089712,0.000000,202.000000,4.000000,,,,0.000000,4.000000,4.000000,4.000000,4.000000,4.000000,4.000000,4.000000,4.000000,4.000000,4.000000,4.000000,4.000000,4.000000,4.000000,4.000000,4.000000,4.000000,4.000000,4.000000,4.000000,4.000000,4.000000,4.000000,4.000000,4.000000,4.000000,4.000000,4.000000,4.000000,4.000000,4.000000,4.000000,100.000000
1614073978.807536,4.000000,0.000000,-2.453992,-3.017155,6.948131,11.609609,-2.418657,2.105717,-2.678226,-1.026357,1.381848,-17.473059,-14.985765,-8.522029,-8.252133,-6.510294,-29.411510,9.921626,-6.956346,-17.431631,-42.515221,-43.802277,-83.107040,-49.322147,-15.139285,-36.299465,-14.764791,-10.640637,-12.331831,-4.861121,-10.209550,-13.031967,-2.595051,-0.423198,0.000000,181.000000,4.000000,,,,0.000000,4.000000,4.000000,4.000000,4.000000,4.000000,4.000000,4.000000,4.000000,4.000000,4.000000,4.000000,4.000000,4.000000,4.000000,4.000000,4.000000,4.000000,4.000000,4.000000,4.000000,4.000000,4.000000,4.000000,4.000000,4.000000,4.000000,4.000000,4.000000,4.000000,4.000000,4.000000,4.000000,100.000000
1614073978.815385,5.000000,0.000000,-1.938718,-3.014138,6.428363,12.623640,4.250429,1.590791,-2.675547,5.641336,1.893286,-13.865843,-6.765651,9.948031,-8.243881,-8.042245,-37.587227,-22.395987,-5.923749,-19.978302,-20.421425,-28.373859,-65.075218,-42.606159,-7.944659,-31.647781,-14.237206,-11.142817,-11.806679,-4.343439,-10.712161,-13.531756,-3.105277,0.090046,0.000000,222.000000,4.000000,,,,0.000000,4.000000,4.000000,4.000000,4.000000,4.000000,4.000000,4.000000,4.000000,4.000000,4.000000,4.000000,4.000000,4.000000,4.000000,4.000000,4.000000,4.000000,4.000000,4.000000,4.000000,4.000000,4.000000,4.000000,4.000000,4.000000,4.000000,4.000000,4.000000,4.000000,4.000000,4.000000,4.000000,100.000000
1614073978.823134,6.000000,0.000000,0.114503,-3.011124,7.960396,14.149478,8.348742,3.127661,-2.672872,5.635695,4.455496,-5.646849,-4.194783,-16.728582,-3.620253,-7.521382,-30.370152,-31.604361,0.236021,-26.112169,-7.067670,-19.114716,-58.343472,-28.204578,-2.295689,-25.975107,-13.197328,-10.618854,-8.205129,-4.339096,-10.188628,-10.954122,-2.076530,0.089956,0.000000,210.000000,4.000000,,,,0.000000,4.000000,4.000000,4.000000,4.000000,4.000000,4.000000,4.000000,4.000000,4.000000,4.000000,4.000000,4.000000,4.000000,4.000000,4.000000,4.000000,4.000000,4.000000,4.000000,4.000000,4.000000,4.000000,4.000000,4.000000,4.000000,4.000000,4.000000,4.000000,4.000000,4.000000,4.000000,4.000000,100.000000
1614073978.830983,7.000000,0.000000,2.165671,-3.008113,5.388333,5.930201,7.827573,1.073252,-2.157378,4.091598,4.963861,-6.154022,-4.190588,-23.891342,0.998752,-7.513861,-22.134653,-13.624039,5.363990,-35.316826,-24.496500,-18.582781,-77.259491,-26.637913,-2.293393,-24.923491,-15.748233,-10.608234,-6.658462,-4.334756,-10.178440,-16.584194,-4.638556,-6.063980,0.000000,189.000000,4.000000,,,,0.000000,4.000000,4.000000,4.000000,4.000000,4.000000,4.000000,4.000000,4.000000,4.000000,4.000000,4.000000,4.000000,4.000000,4.000000,4.000000,4.000000,4.000000,4.000000,4.000000,4.000000,4.000000,4.000000,4.000000,4.000000,4.000000,4.000000,4.000000,4.000000,4.000000,4.000000,4.000000,4.000000,100.000000
1614073978.838733,8.000000,0.000000,2.163505,-3.517925,-2.822184,-5.357781,5.768463,-5.594488,-2.155221,2.549044,2.394794,-15.891458,-3.673577,8.953062,-2.591990,-15.198655,-38.009956,-9.507851,5.871447,-39.384075,-31.138670,-17.538557,-76.669411,-31.739479,-3.316741,-24.898567,-23.424791,-14.700191,-9.215906,-4.330421,-12.732364,-31.952225,-10.274943,-16.314327,0.000000,178.000000,4.000000,,,,0.000000,4.000000,4.000000,4.000000,4.000000,4.000000,4.000000,4.000000,4.000000,4.000000,4.000000,4.000000,4.000000,4.000000,4.000000,4.000000,4.000000,4.000000,4.000000,4.000000,4.000000,4.000000,4.000000,4.000000,4.000000,4.000000,4.000000,4.000000,4.000000,4.000000,4.000000,4.000000,4.000000,100.000000
1614073978.846582,9.000000,0.000000,1.648521,-3.514407,-5.383464,-1.762679,2.685772,-4.563253,-3.178707,0.495213,1.366758,-21.003771,-5.721185,3.303084,-3.615039,-20.311661,-46.689896,-17.703470,8.429678,-35.242126,-21.363941,-20.085121,-55.054279,-30.682100,-2.800603,-25.386490,-24.427008,-17.249594,-4.078485,-4.326091,-14.770913,-36.022835,-9.239027,-19.374935,0.000000,223.000000,4.000000,,,,0.000000,4.000000,4.000000,4.000000,4.000000,4.000000,4.000000,4.000000,4.000000,4.000000,4.000000,4.000000,4.000000,4.000000,4.000000,4.000000,4.000000,4.000000,4.000000,4.000000,4.000000,4.000000,4.000000,4.000000,4.000000,4.000000,4.000000,4.000000,4.000000,4.000000,4.000000,4.000000,4.000000,100.000000
1614073978.854331,10.000000,0.000000,2.672513,-2.485252,0.775766,7.982673,4.734368,4.672080,-2.149887,1.520359,1.878212,-19.957127,-5.202644,-29.007912,-2.585783,-18.752888,-27.156025,-19.737049,6.369966,-39.822269,-34.163090,-23.654779,-61.665890,-35.779621,-2.797803,-25.361103,-19.274376,-15.181062,4.643542,-4.321765,-13.217681,-26.243223,-1.537481,-13.201715,0.000000,199.000000,4.000000,,,,0.000000,4.000000,4.000000,4.000000,4.000000,4.000000,4.000000,4.000000,4.000000,4.000000,4.000000,4.000000,4.000000,4.000000,4.000000,4.000000,4.000000,4.000000,4.000000,4.000000,4.000000,4.000000,4.000000,4.000000,4.000000,4.000000,4.000000,4.000000,4.000000,4.000000,4.000000,4.000000,4.000000,100.000000
1614073978.861981,11.000000,0.000000,1.644200,-2.995587,1.287810,9.513152,1.139890,3.641767,-2.147737,1.518839,1.876334,-19.937170,-3.658979,-11.030186,-6.172941,-20.785418,-23.539125,-8.948081,-2.354353,-50.551678,-53.103287,-22.092663,-93.911919,-52.154099,-4.333467,-24.310101,-18.742281,-14.140240,-3.566229,-4.317443,-10.640361,-22.114416,2.053800,-7.547487,0.000000,163.000000,4.000000,,,,0.000000,4.000000,4.000000,4.000000,4.000000,4.000000,4.000000,4.000000,4.000000,4.000000,4.000000,4.000000,4.000000,4.000000,4.000000,4.000000,4.000000,4.000000,4.000000,4.000000,4.000000,4.000000,4.000000,4.000000,4.000000,4.000000,4.000000,4.000000,4.000000,4.000000,4.000000,4.000000,4.000000,100.000000
1614073978.869730,12.000000,0.000000,-0.921547,-4.018232,-4.354503,7.965177,-11.681763,-5.592644,-11.376359,-4.123706,-0.689645,-22.481335,-16.988653,20.262896,-13.859076,-32.559505,-55.823277,-18.682724,-9.531486,-66.911385,-57.665569,-31.814159,-107.664162,-61.845535,-8.944518,-29.926817,-21.287642,-17.203022,-14.844714,-4.313126,-10.116899,-23.630764,1.026106,-7.027119,0.000000,189.000000,4.000000,,,,0.000000,4.000000,4.000000,4.000000,4.000000,4.000000,4.000000,4.000000,4.000000,4.000000,4.000000,4.000000,4.000000,4.000000,4.000000,4.000000,4.000000,4.000000,4.000000,4.000000,4.000000,4.000000,4.000000,4.000000,4.000000,4.000000,4.000000,4.000000,4.000000,4.000000,4.000000,4.000000,4.000000,100.000000
1614073978.877379,13.000000,0.000000,-1.946266,2.139632,-1.273226,9.495673,-13.721363,-7.638334,-18.031649,-10.273428,-2.740237,-26.561419,-33.381920,-12.065060,-25.640089,-41.757713,-69.100784,-50.971733,-18.239902,-92.998314,-66.838669,-57.423370,-92.684700,-61.270870,-13.550958,-39.127659,-20.753532,-18.211460,-7.650383,-4.308813,-10.106783,-23.094313,1.537900,-7.020092,0.000000,197.000000,4.000000,,,,0.000000,4.000000,4.000000,4.000000,4.000000,4.000000,4.000000,4.000000,4.000000,4.000000,4.000000,4.000000,4.000000,4.000000,4.000000,4.000000,4.000000,4.000000,4.000000,4.000000,4.000000,4.000000,4.000000,4.000000,4.000000,4.000000,4.000000,4.000000,4.000000,4.000000,4.000000,4.000000,4.000000,100.000000
1614073978.885129,14.000000,0.000000,-2.969961,7.778518,5.907535,9.486177,-3.451231,-5.066593,-12.885412,-10.775975,-0.686215,-26.022036,-25.656233,-44.360687,-34.845219,-34.536469,-44.929123,-65.279732,-25.913971,-88.289932,-60.617989,-61.468513,-84.899704,-62.235237,-14.563047,-39.601353,-21.758421,-18.193249,-4.565809,-4.304504,-10.609497,-24.096859,2.049183,-7.013072,0.000000,178.000000,4.000000,,,,0.000000,4.000000,4.000000,4.000000,4.000000,4.000000,4.000000,4.000000,4.000000,4.000000,4.000000,4.000000,4.000000,4.000000,4.000000,4.000000,4.000000,4.000000,4.000000,4.000000,4.000000,4.000000,4.000000,4.000000,4.000000,4.000000,4.000000,4.000000,4.000000,4.000000,4.000000,4.000000,4.000000,100.000000
1614073978.892778,15.000000,0.000000,-5.531094,3.668175,7.440089,8.963871,-0.370857,-5.574347,-5.693040,-7.175456,3.929856,-17.278065,-6.143396,-11.495813,-21.477039,-11.425009,-27.961117,-32.393944,-17.170107,-55.381130,-27.736856,-32.689095,-88.917374,-58.583260,-14.035665,-33.920723,-20.198200,-18.687876,-16.868937,-4.300200,-10.086066,-21.508659,0.508672,-7.006059,0.000000,202.000000,4.000000,,,,0.000000,4.000000,4.000000,4.000000,4.000000,4.000000,4.000000,4.000000,4.000000,4.000000,4.000000,4.000000,4.000000,4.000000,4.000000,4.000000,4.000000,4.000000,4.000000,4.000000,4.000000,4.000000,4.000000,4.000000,4.000000,4.000000,4.000000,4.000000,4.000000,4.000000,4.000000,4.000000,4.000000,100.000000
1614073978.900528,16.000000,0.000000,-6.038383,-2.489339,8.458290,9.980548,0.142334,-1.979029,-6.200167,-4.604178,6.490028,-8.030018,3.093516,21.336195,6.749567,6.022314,-27.933157,0.458964,-1.768322,-34.300110,-8.734760,-13.682047,-75.495117,-43.652882,-14.534449,-32.348343,-17.101080,-17.643547,-24.031553,-3.783079,-10.075980,-17.384586,2.559445,-6.999053,0.000000,201.000000,4.000000,,,,0.000000,4.000000,4.000000,4.000000,4.000000,4.000000,4.000000,4.000000,4.000000,4.000000,4.000000,4.000000,4.000000,4.000000,4.000000,4.000000,4.000000,4.000000,4.000000,4.000000,4.000000,4.000000,4.000000,4.000000,4.000000,4.000000,4.000000,4.000000,4.000000,4.000000,4.000000,4.000000,4.000000,100.000000
1614073978.908177,17.000000,0.000000,-5.006704,-4.025311,5.372909,7.919286,2.193474,-2.489870,-6.706788,-3.061112,4.945077,-11.611732,1.551961,-10.992833,12.896663,-1.676016,-19.700094,-17.490213,2.336010,-61.445297,-23.597820,-20.335032,-66.188858,-39.506664,-14.519915,-32.828815,-26.827568,-19.164366,-19.904959,-5.830578,-15.194110,-29.674894,-0.520037,-12.120258,0.000000,195.000000,4.000000,,,,0.000000,4.000000,4.000000,4.000000,4.000000,4.000000,4.000000,4.000000,4.000000,4.000000,4.000000,4.000000,4.000000,4.000000,4.000000,4.000000,4.000000,4.000000,4.000000,4.000000,4.000000,4.000000,4.000000,4.000000,4.000000,4.000000,4.000000,4.000000,4.000000,4.000000,4.000000,4.000000,4.000000,100.000000
1614073978.915926,18.000000,0.000000,-7.052979,-8.636670,-9.504259,1.244700,-7.552309,-13.769432,-5.674440,-2.545231,2.888850,-23.907812,-9.731642,-32.007481,-3.013669,-26.289724,-17.116293,-33.370159,0.282392,-70.101799,-30.753710,-22.365978,-91.763695,-52.800491,-14.505395,-32.283165,-39.108433,-26.837509,-17.320951,-8.901670,-21.845583,-43.491375,-12.314389,-19.287626,0.000000,184.000000,4.000000,,,,0.000000,4.000000,4.000000,4.000000,4.000000,4.000000,4.000000,4.000000,4.000000,4.000000,4.000000,4.000000,4.000000,4.000000,4.000000,4.000000,4.000000,4.000000,4.000000,4.000000,4.000000,4.000000,4.000000,4.000000,4.000000,4.000000,4.000000,4.000000,4.000000,4.000000,4.000000,4.000000,4.000000,100.000000
1614073978.923576,19.000000,0.000000,-4.994644,-11.192137,-19.751165,-2.859109,-14.724244,-14.781303,-6.181586,-2.542685,1.860320,-28.499289,-22.029602,-5.308807,-10.190143,-38.571129,-29.919689,-31.285507,1.307751,-52.595798,-31.235777,-12.087202,-106.543724,-52.747692,-14.490890,-33.276524,-31.889837,-29.374773,-14.226707,-7.354307,-21.310917,-35.755573,-18.455921,-17.729876,0.000000,200.000000,4.000000,,,,0.000000,4.000000,4.000000,4.000000,4.000000,4.000000,4.000000,4.000000,4.000000,4.000000,4.000000,4.000000,4.000000,4.000000,4.000000,4.000000,4.000000,4.000000,4.000000,4.000000,4.000000,4.000000,4.000000,4.000000,4.000000,4.000000,4.000000,4.000000,4.000000,4.000000,4.000000,4.000000,4.000000,100.000000
1614073978.931325,20.000000,0.000000,1.677017,-6.565560,-14.603209,-2.343430,-5.478751,-3.484471,-6.175404,-3.052963,1.858460,-26.419508,-22.007572,-0.175293,-7.103030,-32.891529,-32.453873,-24.074734,2.332084,-52.543205,-44.025055,-13.613577,-77.719231,-36.284687,-10.886655,-32.217606,-19.550255,-22.165911,-8.571454,-4.782850,-18.212683,-23.412127,-13.309259,-12.071121,0.000000,192.000000,4.000000,,,,0.000000,4.000000,4.000000,4.000000,4.000000,4.000000,4.000000,4.000000,4.000000,4.000000,4.000000,4.000000,4.000000,4.000000,4.000000,4.000000,4.000000,4.000000,4.000000,4.000000,4.000000,4.000000,4.000000,4.000000,4.000000,4.000000,4.000000,4.000000,4.000000,4.000000,4.000000,4.000000,4.000000,100.000000
1614073978.938974,21.000000,0.000000,0.136879,-4.507712,-10.998862,-1.828266,-0.345067,-3.993807,-6.169229,-3.049910,1.343781,-25.880268,-16.344540,-19.149477,-8.634388,-27.730434,-21.652187,-18.922453,1.816931,-60.695789,-48.596413,-27.958937,-69.436386,-38.299683,-7.286025,-28.595644,-21.069166,-18.041182,-5.998780,-5.803709,-18.194469,-25.439997,-9.706207,-11.546229,0.000000,141.000000,4.000000,,,,0.000000,4.000000,4.000000,4.000000,4.000000,4.000000,4.000000,4.000000,4.000000,4.000000,4.000000,4.000000,4.000000,4.000000,4.000000,4.000000,4.000000,4.000000,4.000000,4.000000,4.000000,4.000000,4.000000,4.000000,4.000000,4.000000,4.000000,4.000000,4.000000,2.000000,4.000000,4.000000,4.000000,83.333336
1614073978.946724,22.000000,0.000000,-6.017104,-7.067307,-11.500684,-3.364899,0.680919,-7.066736,-6.675880,1.568524,2.880898,-20.726183,-12.738452,-10.925200,-9.651395,-25.651423,-19.579252,-25.570198,-0.236168,-57.045349,-40.342690,-30.495081,-99.110535,-53.646000,-6.253098,-32.156792,-22.073738,-18.023140,-8.044064,-7.336366,-16.637814,-24.901735,-10.209321,-11.021862,0.000000,194.000000,4.000000,,,,0.000000,4.000000,4.000000,4.000000,4.000000,4.000000,4.000000,4.000000,4.000000,4.000000,4.000000,4.000000,4.000000,4.000000,4.000000,4.000000,4.000000,4.000000,4.000000,4.000000,4.000000,4.000000,4.000000,4.000000,4.000000,4.000000,4.000000,4.000000,4.000000,2.000000,4.000000,4.000000,4.000000,83.333336
1614073978.954373,23.000000,0.000000,-0.882882,-5.521778,-4.309696,0.228210,12.987931,2.683920,-4.617922,6.182341,5.954940,-6.859302,-9.135970,9.598546,-4.513538,-14.856540,-25.200699,-31.185654,-2.800034,-57.501125,-44.404911,-22.259459,-95.421684,-48.464149,-4.708383,-37.765663,-15.897819,-13.902554,-7.010378,-5.277748,-11.492970,-16.671705,-7.635009,-4.856995,0.000000,198.000000,4.000000,,,,0.000000,4.000000,4.000000,4.000000,4.000000,4.000000,4.000000,4.000000,4.000000,4.000000,4.000000,4.000000,4.000000,4.000000,4.000000,4.000000,4.000000,4.000000,4.000000,4.000000,4.000000,4.000000,4.000000,4.000000,4.000000,4.000000,4.000000,4.000000,4.000000,2.000000,4.000000,4.000000,4.000000,83.333336
1614073978.962222,24.000000,0.000000,5.784667,-2.439333,3.899742,4.843366,18.103148,5.758160,-2.049202,4.637697,5.948986,0.839865,-8.101192,3.435102,-0.406461,-0.482709,-25.688318,-19.359596,-2.797234,-58.469265,-44.360504,-25.314121,-62.505749,-32.005428,-2.652392,-31.061230,-12.292177,-9.786086,-1.875163,-3.734009,-9.430196,-14.090932,-5.576092,-3.826496,0.000000,172.000000,4.000000,,,,0.000000,4.000000,4.000000,4.000000,4.000000,4.000000,4.000000,4.000000,4.000000,4.000000,4.000000,4.000000,4.000000,4.000000,4.000000,4.000000,4.000000,4.000000,4.000000,4.000000,4.000000,4.000000,4.000000,4.000000,4.000000,4.000000,4.000000,4.000000,4.000000,2.000000,4.000000,4.000000,4.000000,83.333336
1614073978.969972,25.000000,0.000000,1.163498,-2.436894,4.408663,5.864164,8.341455,-1.427086,-2.559973,4.633059,4.404575,-1.212257,-8.093091,-6.824744,-0.918875,2.081877,-22.585707,-12.160749,-3.307257,-45.590282,-24.316145,-31.955475,-62.956062,-30.434961,-2.136919,-18.722475,-13.305526,-9.776300,-0.334826,-4.243095,-10.446406,-16.128122,-5.570516,-7.412414,0.000000,217.000000,4.000000,,,,0.000000,4.000000,4.000000,4.000000,4.000000,4.000000,4.000000,4.000000,4.000000,4.000000,4.000000,4.000000,4.000000,4.000000,4.000000,4.000000,4.000000,4.000000,4.000000,4.000000,4.000000,4.000000,4.000000,4.000000,4.000000,4.000000,4.000000,4.000000,4.000000,2.000000,4.000000,4.000000,4.000000,83.333336
1614073978.977821,26.000000,0.000000,-3.453050,-2.947278,3.378613,5.345479,7.820293,1.651264,-2.044593,8.218169,7.989914,-0.698224,-2.956793,9.079517,-1.430776,-0.484308,-24.101583,-19.328075,-5.868052,-46.057514,-22.240547,-21.154287,-80.841827,-35.019913,-2.647603,-15.626830,-13.292220,-10.792165,-7.513978,-4.238852,-10.435960,-15.086353,-6.077766,-2.789617,0.000000,189.000000,4.000000,,,,0.000000,4.000000,4.000000,4.000000,4.000000,4.000000,4.000000,4.000000,4.000000,4.000000,4.000000,4.000000,4.000000,4.000000,4.000000,4.000000,4.000000,4.000000,4.000000,4.000000,2.000000,4.000000,4.000000,4.000000,4.000000,4.000000,4.000000,4.000000,4.000000,2.000000,4.000000,4.000000,4.000000,66.666664
1614073978.985570,27.000000,0.000000,0.140147,-2.431510,4.400876,6.878595,10.889396,7.803459,1.034375,5.133028,12.597309,0.840936,-0.902554,18.814028,-0.403705,2.593100,-31.256969,-23.411312,-5.349364,-70.626839,-48.884972,-15.492107,-76.658417,-34.984890,-3.157776,-18.175306,-12.766108,-10.268553,-11.096209,-4.234613,-9.912704,-15.584088,-5.558868,3.879840,0.000000,146.000000,4.000000,,,,0.000000,4.000000,4.000000,4.000000,4.000000,4.000000,4.000000,4.000000,4.000000,4.000000,4.000000,4.000000,4.000000,4.000000,4.000000,4.000000,4.000000,4.000000,4.000000,4.000000,2.000000,4.000000,4.000000,4.000000,4.000000,4.000000,4.000000,4.000000,4.000000,2.000000,4.000000,4.000000,4.000000,66.666664
1614073978.993419,28.000000,0.000000,0.652827,-3.967540,1.319551,3.281973,1.134917,-0.409472,-0.505121,-6.154156,7.969327,-9.416316,-6.029857,-1.717607,-3.480224,-3.050519,-32.251354,-17.746874,-1.754271,-73.120316,-51.913010,-28.297129,-69.915092,-34.437084,-3.667439,-17.644310,-14.804624,-10.258284,-8.521009,-4.230379,-10.415611,-21.209530,-6.066130,1.824678,0.000000,189.000000,4.000000,,,,0.000000,4.000000,4.000000,4.000000,4.000000,4.000000,4.000000,4.000000,4.000000,4.000000,4.000000,4.000000,4.000000,4.000000,4.000000,4.000000,4.000000,4.000000,4.000000,4.000000,2.000000,4.000000,4.000000,4.000000,4.000000,4.000000,4.000000,4.000000,4.000000,2.000000,4.000000,4.000000,4.000000,66.666664
1614073979.001169,29.000000,0.000000,-2.424749,-6.527675,-3.809973,2.253050,-9.122628,-10.152653,-6.145641,-8.199284,-1.269412,-20.176130,-9.100750,-19.151787,-8.604949,-24.073111,-27.603718,-15.677846,-3.290978,-47.406170,-28.784174,-25.191908,-79.588768,-34.915470,-2.125310,-15.575383,-14.276999,-10.760846,-7.999668,-4.226148,-10.405196,-23.752422,-6.060063,-0.741249,0.000000,165.000000,4.000000,,,,0.000000,4.000000,4.000000,4.000000,4.000000,4.000000,4.000000,4.000000,4.000000,4.000000,4.000000,4.000000,4.000000,4.000000,4.000000,4.000000,4.000000,4.000000,4.000000,4.000000,2.000000,4.000000,4.000000,4.000000,4.000000,4.000000,4.000000,4.000000,4.000000,2.000000,4.000000,4.000000,4.000000,66.666664
1614073979.009018,30.000000,0.000000,-2.935145,-6.521147,-4.318984,8.404643,-9.113505,-9.116859,-6.652316,-1.524418,-2.806604,-21.181595,-10.630111,-16.568533,-9.621985,-35.843910,-36.806881,-28.995501,-9.954354,-50.435688,-30.293852,-9.782101,-86.175850,-38.470299,-6.225749,-20.688013,-12.724259,-10.750085,-7.991668,-4.221922,-10.394791,-23.215849,-6.054003,-0.227688,0.000000,196.000000,4.000000,,,,0.000000,4.000000,4.000000,4.000000,4.000000,4.000000,4.000000,4.000000,4.000000,4.000000,4.000000,4.000000,4.000000,4.000000,4.000000,4.000000,4.000000,4.000000,4.000000,4.000000,2.000000,4.000000,4.000000,4.000000,4.000000,4.000000,4.000000,4.000000,4.000000,2.000000,4.000000,4.000000,4.000000,66.666664
1614073979.016767,31.000000,0.000000,-1.393748,-6.514626,-3.801844,5.832136,-7.565931,-8.082101,-6.132843,-6.138278,-1.778156,-21.160414,-13.696404,-23.218632,-9.099543,-32.218323,-47.539307,-44.351120,-14.559784,-79.103203,-53.340481,-27.721037,-84.038391,-48.688236,-14.937471,-32.462196,-21.429483,-10.739335,-7.470856,-4.217700,-10.384396,-24.731094,-6.047949,-2.278742,0.000000,191.000000,4.000000,,,,0.000000,4.000000,4.000000,4.000000,4.000000,4.000000,4.000000,4.000000,4.000000,4.000000,4.000000,4.000000,4.000000,4.000000,4.000000,4.000000,4.000000,4.000000,4.000000,4.000000,2.000000,4.000000,4.000000,4.000000,4.000000,4.000000,4.000000,4.000000,4.000000,2.000000,4.000000,4.000000,4.000000,66.666664
1614073979.024617,32.000000,0.000000,-1.905175,-6.508111,-3.798043,-4.430107,-8.584005,-10.125301,-7.152351,-15.362909,-2.802019,-20.113611,-9.067323,-23.708233,-10.116084,-30.647640,-37.748177,-35.588821,-14.545224,-75.947174,-57.389706,-55.385624,-86.005630,-54.793396,-13.896894,-41.147682,-28.587542,-11.241416,-14.642873,-4.213482,-10.374011,-20.603800,-6.041902,-4.327745,8064.000000,0.000000,4.000000,,,,0.000000,4.000000,4.000000,4.000000,4.000000,4.000000,4.000000,4.000000,4.000000,4.000000,4.000000,4.000000,4.000000,4.000000,4.000000,4.000000,4.000000,4.000000,4.000000,4.000000,2.000000,4.000000,4.000000,4.000000,4.000000,4.000000,4.000000,4.000000,4.000000,2.000000,4.000000,4.000000,4.000000,66.666664
1614073979.032366,33.000000,0.000000,-3.441731,-6.501603,-3.794245,-3.912856,-8.575421,-6.525432,-4.581097,-5.091136,-0.235114,-8.298627,2.223796,4.520604,-3.952122,-21.386225,-26.428377,-15.553232,-9.402474,-47.666100,-39.896416,-41.484085,-82.329887,-42.943729,-3.626586,-41.619358,-13.174339,-10.204534,-17.192331,-4.209269,-10.363637,-11.352427,-6.035860,-3.810597,8064.000000,0.000000,4.000000,,,,0.000000,4.000000,4.000000,4.000000,4.000000,4.000000,4.000000,4.000000,4.000000,4.000000,4.000000,4.000000,4.000000,4.000000,4.000000,4.000000,4.000000,4.000000,4.000000,4.000000,2.000000,4.000000,4.000000,4.000000,4.000000,4.000000,4.000000,4.000000,4.000000,2.000000,4.000000,4.000000,4.000000,66.666664
1614073979.040215,34.000000,0.000000,2.715557,-6.495101,-3.790450,2.757724,-8.566846,-1.903522,0.551690,14.401134,4.380505,0.940441,5.811316,11.182750,10.410805,5.814649,-23.325026,-12.460756,0.350518,-34.285099,-18.830879,-10.673369,-58.144989,-18.285402,1.505246,-32.859787,6.838835,-6.604586,-1.277704,-4.205060,-10.353273,-8.264152,-5.517003,-4.319607,8064.000000,0.000000,4.000000,,,,0.000000,4.000000,4.000000,4.000000,4.000000,4.000000,4.000000,4.000000,4.000000,4.000000,4.000000,4.000000,4.000000,4.000000,4.000000,4.000000,4.000000,4.000000,4.000000,4.000000,2.000000,4.000000,4.000000,4.000000,4.000000,4.000000,4.000000,4.000000,4.000000,2.000000,4.000000,4.000000,4.000000,66.666664
1614073979.047964,35.000000,0.000000,9.379508,-5.975786,-3.786660,1.729325,-2.917254,-0.363157,2.089599,17.976477,5.914586,4.529244,9.908069,-14.982279,21.169624,26.834476,-7.404265,-10.397014,8.042476,-27.584146,-5.991536,-2.457568,-39.625305,-5.959424,0.478099,-13.339749,10.421741,-2.495417,15.646650,-4.200854,-10.342920,-6.717426,-2.947384,-3.289646,8064.000000,0.000000,4.000000,,,,0.000000,4.000000,4.000000,4.000000,4.000000,4.000000,4.000000,4.000000,4.000000,4.000000,4.000000,4.000000,4.000000,4.000000,4.000000,4.000000,4.000000,4.000000,4.000000,4.000000,2.000000,4.000000,4.000000,4.000000,4.000000,4.000000,4.000000,4.000000,4.000000,2.000000,4.000000,4.000000,4.000000,66.666664
1614073979.055814,36.000000,0.000000,6.806026,-6.482631,-2.757232,1.727596,5.803612,-1.388435,1.574689,13.855936,7.959954,11.704203,20.154570,-3.685246,22.686916,27.833282,6.449293,13.203127,9.060074,-20.889896,-8.036827,-6.044854,-47.790810,-16.209875,0.990442,1.545386,8.872857,-3.005742,13.066901,-4.196653,-10.332578,-3.633785,-1.918795,-0.722254,8064.000000,0.000000,4.000000,,,,0.000000,4.000000,4.000000,4.000000,4.000000,4.000000,4.000000,4.000000,4.000000,4.000000,4.000000,4.000000,4.000000,4.000000,4.000000,4.000000,4.000000,4.000000,4.000000,4.000000,2.000000,4.000000,4.000000,4.000000,4.000000,4.000000,4.000000,4.000000,4.000000,2.000000,4.000000,4.000000,4.000000,66.666664
1614073979.063563,37.000000,0.000000,1.158194,-6.476148,-4.805757,4.802791,7.336270,-1.387046,1.573115,19.483107,9.490456,9.128396,18.083134,29.138952,18.561666,16.010576,-9.454593,25.497616,9.563834,-33.176697,-18.798021,-2.961886,-53.896866,-26.450075,2.015092,-1.533083,6.812702,-5.566839,2.797424,-4.192457,-10.322245,-10.296818,-3.968158,0.304109,8064.000000,0.000000,4.000000,,,,0.000000,4.000000,4.000000,4.000000,4.000000,4.000000,4.000000,4.000000,4.000000,4.000000,4.000000,4.000000,4.000000,4.000000,4.000000,4.000000,4.000000,4.000000,4.000000,4.000000,2.000000,4.000000,4.000000,4.000000,4.000000,4.000000,4.000000,4.000000,4.000000,2.000000,4.000000,4.000000,4.000000,66.666664
1614073979.071412,38.000000,0.000000,4.233959,-5.956851,-7.877874,3.772347,6.816113,-1.385659,0.033080,18.950802,7.429683,-4.214066,2.680435,7.058531,8.286694,-7.595177,-27.906677,-6.835574,9.041450,-51.605061,-22.881786,-1.420462,-54.355789,-24.885164,0.474616,-7.685396,-1.399239,-6.586913,0.230524,-3.675444,-10.311923,-17.978828,-5.502652,0.303805,8064.000000,0.000000,4.000000,,,,0.000000,4.000000,4.000000,4.000000,4.000000,4.000000,4.000000,4.000000,4.000000,4.000000,4.000000,4.000000,4.000000,4.000000,4.000000,4.000000,4.000000,4.000000,4.000000,4.000000,2.000000,4.000000,4.000000,4.000000,4.000000,4.000000,4.000000,4.000000,4.000000,2.000000,4.000000,4.000000,4.000000,66.666664
1614073979.079161,39.000000,0.000000,7.819469,-6.463715,-6.844355,1.717293,8.860579,-0.871453,-1.505415,1.495954,4.858150,-8.825236,-7.578655,-22.692118,-4.542106,-32.715786,-27.878769,-39.136429,8.006767,-57.194481,-21.833263,-7.572888,-77.891174,-31.526945,0.986962,-10.754634,-6.526045,-6.580326,1.255935,-5.723051,-10.301611,-16.935209,-7.035611,-0.209319,8064.000000,0.000000,4.000000,,,,0.000000,4.000000,4.000000,4.000000,4.000000,4.000000,4.000000,4.000000,4.000000,4.000000,4.000000,4.000000,4.000000,4.000000,4.000000,4.000000,4.000000,4.000000,4.000000,4.000000,2.000000,4.000000,4.000000,4.000000,4.000000,4.000000,4.000000,4.000000,4.000000,2.000000,4.000000,4.000000,4.000000,66.666664
1614073979.086811,40.000000,0.000000,2.170624,-9.021354,-8.375973,0.689934,0.133770,-2.921864,-3.555191,-4.659388,5.366113,-11.893334,-9.622358,7.074165,-10.691410,-42.426662,-34.004738,-31.404985,10.050043,-58.162926,-23.349892,-12.180699,-106.018410,-48.418495,-1.065307,-15.872084,-9.596442,-8.625028,-2.847885,-7.768610,-10.291309,-22.046478,-9.079857,-1.747571,8064.000000,0.000000,4.000000,,,,0.000000,4.000000,4.000000,4.000000,4.000000,4.000000,4.000000,4.000000,4.000000,4.000000,4.000000,4.000000,4.000000,4.000000,4.000000,4.000000,4.000000,4.000000,4.000000,4.000000,2.000000,4.000000,4.000000,4.000000,4.000000,4.000000,4.000000,4.000000,4.000000,2.000000,4.000000,4.000000,4.000000,66.666664
1614073979.094560,41.000000,0.000000,-7.575137,-10.037973,-17.085545,-1.874858,-14.738159,-8.047147,-8.167021,5.088861,5.360747,-25.727594,-12.689659,21.938887,-11.706360,-42.384235,-46.278423,-7.271017,1.834864,-59.643227,-24.352184,-17.809546,-99.758553,-51.959820,-9.782190,-20.984417,-16.253511,-11.693326,-8.998883,-7.760841,-10.281018,-29.716740,-10.096418,-3.797106,8064.000000,0.000000,4.000000,,,,0.000000,4.000000,4.000000,4.000000,4.000000,4.000000,4.000000,4.000000,4.000000,4.000000,4.000000,4.000000,4.000000,4.000000,4.000000,4.000000,4.000000,4.000000,4.000000,4.000000,2.000000,4.000000,4.000000,4.000000,4.000000,4.000000,4.000000,4.000000,4.000000,2.000000,4.000000,4.000000,4.000000,66.666664
1614073979.102210,42.000000,0.000000,-10.644485,-10.027936,-17.068460,-1.360163,-12.159318,-9.577561,-9.697315,-1.070074,4.842566,-30.830072,-17.292355,-10.390745,-17.848499,-39.264927,-42.642403,-19.571438,-19.705431,-60.096405,-22.276548,-35.227634,-82.735710,-48.830936,-18.490356,-24.553177,-22.903925,-11.168812,-8.477064,-7.753080,-10.270737,-25.071638,-9.573502,-3.793309,8064.000000,0.000000,4.000000,,,,0.000000,4.000000,4.000000,4.000000,4.000000,4.000000,4.000000,4.000000,4.000000,4.000000,4.000000,4.000000,4.000000,4.000000,4.000000,4.000000,4.000000,4.000000,4.000000,4.000000,2.000000,4.000000,4.000000,4.000000,4.000000,4.000000,4.000000,4.000000,4.000000,2.000000,4.000000,4.000000,4.000000,66.666664
1614073979.109959,43.000000,0.000000,-9.095379,-10.017908,-4.743699,3.256582,1.698995,-5.465420,-5.072233,-13.376696,5.350543,-22.081293,-15.223780,-21.149586,-21.933214,-25.892328,-35.933094,-28.782637,-25.326752,-60.036308,-23.279913,-51.089840,-86.242722,-56.474415,-19.497507,-32.220932,-22.881021,-10.644823,-7.442946,-7.745327,-10.260467,-19.918362,-9.563928,-3.789515,8064.000000,0.000000,4.000000,,,,0.000000,4.000000,4.000000,4.000000,4.000000,4.000000,4.000000,4.000000,4.000000,4.000000,4.000000,4.000000,4.000000,4.000000,4.000000,4.000000,4.000000,4.000000,4.000000,4.000000,2.000000,4.000000,4.000000,4.000000,4.000000,4.000000,4.000000,4.000000,4.000000,2.000000,4.000000,4.000000,4.000000,66.666664
1614073979.117608,44.000000,0.000000,-9.599104,-10.520710,1.414891,5.817428,4.774219,-1.357390,-1.477417,-0.542806,7.909296,-18.469469,-6.490608,11.692077,-9.603589,-9.456180,-33.845879,3.041018,-10.429630,-46.642937,-23.256634,-39.756699,-80.515450,-51.802555,-13.836985,-33.214352,-14.140192,-11.659819,-9.486785,-7.737582,-10.250206,-15.795879,-9.554364,-3.785726,8064.000000,0.000000,4.000000,,,,0.000000,4.000000,4.000000,4.000000,4.000000,4.000000,4.000000,4.000000,4.000000,4.000000,4.000000,4.000000,4.000000,4.000000,4.000000,4.000000,4.000000,4.000000,4.000000,4.000000,2.000000,4.000000,4.000000,4.000000,4.000000,4.000000,4.000000,4.000000,4.000000,2.000000,4.000000,4.000000,4.000000,66.666664
1614073979.125358,45.000000,0.000000,-10.102325,-9.997369,-0.637806,5.811611,2.205343,-1.356033,-3.014401,13.303890,9.439848,-20.502281,-0.330271,24.500898,6.303450,-4.831339,-26.119724,23.037977,-1.701252,-20.442448,-10.412865,-17.152840,-50.178528,-25.084085,-6.130840,-17.796520,-0.792718,-8.058415,0.266291,-7.729844,-10.239956,-5.010853,-9.544809,-1.730658,8064.000000,0.000000,4.000000,,,,0.000000,4.000000,4.000000,4.000000,4.000000,4.000000,4.000000,4.000000,4.000000,4.000000,4.000000,4.000000,4.000000,4.000000,4.000000,4.000000,4.000000,4.000000,4.000000,4.000000,2.000000,4.000000,4.000000,4.000000,4.000000,4.000000,4.000000,4.000000,4.000000,2.000000,4.000000,4.000000,4.000000,66.666664
1614073979.133007,46.000000,0.000000,-6.502479,-9.474551,-0.637168,3.754517,3.741599,-1.354677,-3.011387,2.008535,9.430408,-19.456139,-2.894043,-7.831295,7.322788,-6.877790,-14.811554,5.579042,-3.238012,-15.806622,2.418061,-10.981841,-36.795013,-9.674386,-2.022145,-4.445391,7.926023,1.180412,17.701923,-7.722114,-9.716895,-1.928919,-9.022444,0.322355,8064.000000,0.000000,4.000000,,,,0.000000,4.000000,4.000000,4.000000,4.000000,4.000000,4.000000,4.000000,4.000000,4.000000,4.000000,4.000000,4.000000,4.000000,4.000000,4.000000,4.000000,4.000000,4.000000,4.000000,2.000000,4.000000,4.000000,4.000000,4.000000,4.000000,4.000000,4.000000,4.000000,2.000000,4.000000,4.000000,4.000000,66.666664
1614073979.140756,47.000000,0.000000,-2.393413,-9.977897,0.901931,2.725121,4.250678,-1.353322,-1.982735,-8.762704,8.908157,-18.411041,-4.942431,-15.515772,5.777003,-4.819630,-13.258281,0.958078,-0.670672,-36.303635,-7.327947,-11.483680,-54.706940,-13.767276,-3.045764,-1.364023,10.482200,5.794616,20.761145,-7.714392,-10.219998,-2.439811,-9.526242,-0.190788,8064.000000,0.000000,4.000000,,,,0.000000,4.000000,4.000000,4.000000,4.000000,4.000000,4.000000,4.000000,4.000000,4.000000,4.000000,4.000000,4.000000,4.000000,4.000000,4.000000,4.000000,4.000000,4.000000,4.000000,2.000000,4.000000,4.000000,4.000000,4.000000,4.000000,4.000000,4.000000,4.000000,2.000000,4.000000,4.000000,4.000000,66.666664
1614073979.148406,48.000000,0.000000,-1.365378,-8.942278,0.388208,4.260858,3.220786,-1.351969,-1.980752,-6.189839,8.899249,-18.905451,-3.399027,13.730513,7.309688,-7.378913,-22.988611,14.803274,2.406922,-41.908356,-21.166773,-4.292709,-60.806076,-14.779150,-2.529898,2.227085,8.933256,3.737540,10.996793,-7.706678,-10.209779,1.665193,-9.516716,-0.190598,8064.000000,0.000000,4.000000,,,,0.000000,4.000000,4.000000,4.000000,4.000000,4.000000,4.000000,4.000000,4.000000,4.000000,4.000000,4.000000,4.000000,4.000000,4.000000,4.000000,4.000000,4.000000,4.000000,4.000000,2.000000,4.000000,4.000000,4.000000,4.000000,4.000000,4.000000,4.000000,4.000000,2.000000,4.000000,4.000000,4.000000,66.666664
1614073979.156155,49.000000,0.000000,-1.876833,-6.369233,-0.125001,7.846341,2.704745,-1.350617,-3.004412,-5.670829,9.915991,-20.425007,-6.472551,12.178321,2.174173,-21.730509,-32.196392,-0.596145,1.891694,-40.327988,-22.684067,-8.390981,-46.899117,-17.328474,-2.014547,0.173576,5.847400,4.246623,6.883232,-7.186151,-9.686749,-2.951857,-8.994379,-0.190407,8064.000000,0.000000,4.000000,,,,0.000000,4.000000,4.000000,4.000000,4.000000,4.000000,4.000000,4.000000,4.000000,4.000000,4.000000,4.000000,4.000000,4.000000,4.000000,4.000000,4.000000,4.000000,4.000000,4.000000,2.000000,4.000000,4.000000,4.000000,4.000000,4.000000,4.000000,4.000000,4.000000,2.000000,4.000000,4.000000,4.000000,66.666664
1614073979.163805,50.000000,0.000000,-1.874956,-6.875685,-0.124876,9.889776,3.727681,-1.349266,-2.488587,-7.716440,7.341972,-19.891762,-14.158386,-20.141550,-7.058770,-33.503651,-31.138556,-32.903240,-1.187120,-68.492790,-33.430614,-19.664640,-61.211193,-33.208580,-5.089456,-14.185573,5.841552,5.268017,5.850708,-7.178965,-10.702703,-11.154033,-9.498205,-0.190217,8064.000000,0.000000,4.000000,,,,0.000000,4.000000,4.000000,4.000000,4.000000,4.000000,4.000000,4.000000,4.000000,4.000000,4.000000,4.000000,4.000000,4.000000,4.000000,4.000000,4.000000,4.000000,4.000000,4.000000,2.000000,4.000000,4.000000,4.000000,4.000000,4.000000,4.000000,4.000000,4.000000,2.000000,4.000000,4.000000,4.000000,66.666664
1614073979.171554,51.000000,0.000000,-1.360261,-11.484194,-0.124751,7.315784,1.672671,-1.347917,-1.973278,-6.170262,2.719245,-18.846228,-17.733971,-15.506023,-10.128634,-34.495789,-32.645878,-39.024185,-2.724395,-92.014038,-51.858723,-18.619335,-93.457672,-47.021526,-6.622828,-21.863695,0.707506,-5.506482,3.280755,-9.223067,-13.256103,-12.681340,-11.539989,-0.190026,8064.000000,0.000000,4.000000,,,,0.000000,4.000000,4.000000,4.000000,4.000000,4.000000,4.000000,4.000000,4.000000,4.000000,4.000000,4.000000,4.000000,4.000000,4.000000,4.000000,4.000000,4.000000,4.000000,4.000000,2.000000,4.000000,4.000000,4.000000,4.000000,4.000000,4.000000,4.000000,4.000000,2.000000,4.000000,4.000000,4.000000,66.666664
1614073979.179203,52.000000,0.000000,-1.871721,-14.036812,-0.124626,-1.409480,-1.918745,-1.346569,-4.022587,-6.676912,0.665244,-22.929947,-20.280340,14.253073,-11.656967,-37.025394,-49.536308,-30.267210,-2.721670,-78.075867,-53.345325,-25.267382,-90.287292,-47.487324,-8.154667,-24.405933,-17.241920,-21.911232,2.251833,-11.265126,-14.268487,-21.386608,-13.579731,-0.189836,8064.000000,0.000000,4.000000,,,,0.000000,4.000000,4.000000,4.000000,4.000000,4.000000,4.000000,4.000000,4.000000,4.000000,4.000000,4.000000,4.000000,4.000000,4.000000,4.000000,4.000000,4.000000,4.000000,4.000000,2.000000,4.000000,4.000000,4.000000,4.000000,4.000000,4.000000,4.000000,4.000000,2.000000,4.000000,4.000000,4.000000,66.666664
1614073979.187053,53.000000,0.000000,-1.869850,-13.509954,-0.637322,-4.997815,1.160097,-1.345223,-7.095488,-7.695876,1.690220,-21.881374,-20.772881,-2.684258,-13.183772,-37.501190,-52.563698,-34.852329,-4.257410,-66.715744,-43.548389,-46.780579,-65.068802,-43.850094,-10.197794,-36.176399,-26.968267,-21.376499,3.275222,-11.253861,-13.741399,-29.057529,-13.053330,-0.189646,8064.000000,0.000000,4.000000,,,,0.000000,4.000000,4.000000,4.000000,4.000000,4.000000,4.000000,4.000000,4.000000,4.000000,4.000000,4.000000,4.000000,4.000000,4.000000,4.000000,4.000000,4.000000,4.000000,4.000000,2.000000,4.000000,4.000000,4.000000,4.000000,4.000000,4.000000,4.000000,4.000000,2.000000,4.000000,4.000000,4.000000,66.666664
1614073979.194802,54.000000,0.000000,-1.867980,-13.496445,0.388956,1.673850,9.876885,-1.343877,-4.011469,2.568230,1.688530,-8.013340,-6.393133,-24.732855,-4.452640,-15.925226,-24.306004,-10.714911,-2.201871,-57.418259,-32.222790,-41.605591,-61.926807,-42.267784,-10.187596,-40.755608,-13.607966,-6.996149,3.784767,-11.242607,-13.727657,-15.182318,-13.553098,-0.189457,8064.000000,0.000000,4.000000,,,,0.000000,4.000000,4.000000,4.000000,4.000000,4.000000,4.000000,4.000000,4.000000,4.000000,4.000000,4.000000,4.000000,4.000000,4.000000,4.000000,4.000000,4.000000,4.000000,4.000000,2.000000,4.000000,4.000000,4.000000,4.000000,4.000000,4.000000,4.000000,4.000000,2.000000,4.000000,4.000000,4.000000,66.666664
1614073979.202651,55.000000,0.000000,-1.866112,-13.482948,-0.124253,6.287560,9.354188,-1.342533,-0.930534,12.309252,1.686841,3.789545,14.126081,8.112391,10.936428,10.757365,-3.768878,22.116316,11.646485,-24.540327,-14.241849,-8.743473,-58.275139,-35.558849,-4.023562,-25.330236,0.764616,0.703155,2.242521,-11.231365,-13.713929,-0.295340,-13.539545,0.323553,8064.000000,0.000000,4.000000,,,,0.000000,4.000000,4.000000,4.000000,4.000000,4.000000,4.000000,4.000000,4.000000,4.000000,4.000000,4.000000,4.000000,4.000000,4.000000,4.000000,4.000000,4.000000,4.000000,4.000000,2.000000,4.000000,4.000000,4.000000,4.000000,4.000000,4.000000,4.000000,4.000000,2.000000,4.000000,4.000000,4.000000,66.666664
1614073979.210400,56.000000,0.000000,-1.864246,-13.469465,-3.201052,5.255632,3.703808,-1.341191,-5.544989,6.143096,1.685154,3.272935,17.701698,28.617098,18.104979,18.951736,-6.842032,30.812149,20.865608,-5.028607,1.669829,7.675527,-32.575836,-19.113033,1.621487,-10.433111,1.789493,-0.323190,4.291560,-11.220134,-13.700215,-2.346327,-10.449082,-1.215232,8192.000000,0.000000,4.000000,,,,0.000000,4.000000,4.000000,4.000000,4.000000,4.000000,4.000000,4.000000,4.000000,4.000000,4.000000,4.000000,4.000000,4.000000,4.000000,4.000000,4.000000,4.000000,4.000000,4.000000,2.000000,4.000000,4.000000,4.000000,4.000000,4.000000,4.000000,4.000000,4.000000,2.000000,4.000000,4.000000,4.000000,66.666664
1614073979.218250,57.000000,0.000000,-1.349561,-13.455996,-1.659389,4.737556,5.238566,-1.339850,-8.616366,-0.016893,1.683469,3.269662,14.607074,-3.719211,19.625336,14.830220,-1.706985,-1.526356,17.767818,-22.459476,9.360467,2.026826,-28.440697,-7.811868,4.183968,-6.832934,-0.263579,0.189954,9.415474,-11.208914,-13.686515,-5.420904,-9.925813,-3.265299,8064.000000,0.000000,4.000000,,,,0.000000,4.000000,4.000000,4.000000,4.000000,4.000000,4.000000,4.000000,4.000000,4.000000,4.000000,4.000000,4.000000,4.000000,4.000000,4.000000,4.000000,4.000000,4.000000,4.000000,2.000000,4.000000,4.000000,4.000000,4.000000,4.000000,4.000000,4.000000,4.000000,2.000000,4.000000,4.000000,4.000000,66.666664
1614073979.225999,58.000000,0.000000,-2.373852,-13.442540,3.470475,4.219998,7.797430,-0.825689,-3.992366,7.162611,2.194606,2.753572,15.105287,-8.843697,16.015966,8.661544,4.448568,-1.012009,17.237230,-34.744709,0.633157,3.563261,-59.181488,-21.650209,5.718246,-5.800460,-0.776136,1.215405,7.867597,-11.197704,-13.672829,-4.902662,-12.992809,-4.287674,8192.000000,0.000000,4.000000,,,,0.000000,4.000000,4.000000,4.000000,4.000000,4.000000,4.000000,4.000000,4.000000,4.000000,4.000000,4.000000,4.000000,4.000000,4.000000,4.000000,4.000000,4.000000,4.000000,4.000000,2.000000,4.000000,4.000000,4.000000,4.000000,4.000000,4.000000,4.000000,4.000000,2.000000,4.000000,4.000000,4.000000,66.666664
1614073979.233848,59.000000,0.000000,-2.884299,-13.429097,2.441364,2.164496,2.661427,-2.363325,-2.962732,8.181089,1.679591,-5.967130,0.218387,12.190787,-4.000049,-7.244553,-18.119984,15.399260,12.091788,-47.530476,-28.598246,2.021236,-75.532562,-38.038818,3.661245,-5.281839,-1.801001,0.701369,3.757165,-11.186507,-13.659156,-6.949042,-11.441356,-3.770566,8064.000000,0.000000,4.000000,,,,0.000000,4.000000,4.000000,4.000000,4.000000,4.000000,4.000000,4.000000,4.000000,4.000000,4.000000,4.000000,4.000000,4.000000,4.000000,4.000000,4.000000,4.000000,4.000000,4.000000,2.000000,4.000000,4.000000,4.000000,4.000000,4.000000,4.000000,4.000000,4.000000,2.000000,4.000000,4.000000,4.000000,66.666664
1614073979.241597,60.000000,0.000000,-0.317312,-13.415668,0.387640,1.649511,-1.443798,-4.412244,-8.600795,-3.109143,-0.373370,-12.627830,-22.858755,-7.821403,-29.124254,-29.288591,-43.742889,-16.923832,-7.407483,-72.611153,-52.159389,-24.134632,-67.251900,-35.949497,-3.521903,-5.276558,-1.799200,1.726309,4.266229,-11.175321,-13.645496,-8.480555,-6.301709,-3.766796,8064.000000,0.000000,4.000000,,,,0.000000,4.000000,4.000000,4.000000,4.000000,4.000000,4.000000,4.000000,4.000000,4.000000,4.000000,4.000000,4.000000,4.000000,4.000000,4.000000,4.000000,4.000000,4.000000,4.000000,2.000000,4.000000,4.000000,4.000000,4.000000,4.000000,4.000000,4.000000,4.000000,2.000000,4.000000,4.000000,4.000000,66.666664
1614073979.249447,61.000000,0.000000,-3.393918,-13.402252,1.925714,1.135041,-0.929534,-4.920652,-10.643476,-11.823982,-2.424279,-13.640843,-28.989742,-30.377684,-42.428463,-48.233662,-46.776070,-49.214600,-21.246229,-84.846230,-56.722614,-56.418190,-76.928238,-45.144314,-14.800433,-4.245640,-4.874323,-0.839520,-0.353422,-11.164145,-13.631851,-8.984894,-4.756946,-4.275849,8064.000000,0.000000,4.000000,,,,0.000000,4.000000,4.000000,4.000000,4.000000,4.000000,4.000000,4.000000,4.000000,4.000000,4.000000,4.000000,4.000000,4.000000,4.000000,4.000000,4.000000,4.000000,4.000000,4.000000,2.000000,4.000000,4.000000,4.000000,4.000000,4.000000,4.000000,4.000000,4.000000,2.000000,4.000000,4.000000,4.000000,66.666664
1614073979.257196,62.000000,0.000000,-13.134113,-13.901670,2.949430,1.646726,-0.928604,-5.428552,-9.607192,-10.786518,-2.934675,-16.191305,-28.447931,-20.090897,-44.950138,-59.467480,-52.883141,-60.447437,-23.789085,-102.710106,-71.024864,-63.028439,-106.594902,-74.329941,-24.016401,-12.959343,-9.484834,-6.992527,-12.660761,-11.152981,-13.618219,-8.975909,-6.290650,-4.784394,8064.000000,0.000000,4.000000,,,,0.000000,4.000000,4.000000,4.000000,4.000000,4.000000,4.000000,4.000000,4.000000,4.000000,4.000000,4.000000,4.000000,4.000000,4.000000,4.000000,4.000000,4.000000,4.000000,4.000000,2.000000,4.000000,4.000000,4.000000,4.000000,4.000000,4.000000,4.000000,4.000000,2.000000,4.000000,4.000000,4.000000,66.666664
1614073979.265045,63.000000,0.000000,-7.479954,-10.810846,4.484941,5.747643,-0.927676,-5.423123,-9.597585,-3.083423,-1.906100,-15.662292,-27.393843,-19.045164,-34.135956,-51.202885,-62.061024,-67.566475,-24.790937,-120.556114,-82.748711,-54.247459,-110.078049,-79.896637,-23.992386,-28.330999,-9.988170,-5.959893,-16.237844,-11.141828,-13.604601,-7.428472,-5.771539,-3.753969,8064.000000,0.000000,4.000000,,,,0.000000,4.000000,4.000000,4.000000,4.000000,4.000000,4.000000,4.000000,4.000000,4.000000,4.000000,4.000000,4.000000,4.000000,4.000000,4.000000,4.000000,4.000000,4.000000,4.000000,2.000000,4.000000,4.000000,4.000000,4.000000,4.000000,4.000000,4.000000,4.000000,2.000000,4.000000,4.000000,4.000000,66.666664
1614073979.272795,64.000000,0.000000,7.912141,-8.748754,2.941995,2.664973,-0.413928,-4.392059,-7.536705,3.586327,0.147088,-10.005605,-13.520295,-23.128683,-9.486436,-26.023476,-42.511784,-46.473270,-18.099480,-91.204788,-57.537762,-55.218853,-86.378227,-57.252636,-15.250444,-33.943695,-11.516643,-8.005215,-15.195965,-11.130686,-13.590997,-11.523607,-5.252947,-3.237394,0.000000,194.000000,4.000000,,,,0.000000,4.000000,4.000000,4.000000,4.000000,4.000000,4.000000,4.000000,4.000000,4.000000,4.000000,4.000000,4.000000,4.000000,4.000000,4.000000,4.000000,4.000000,4.000000,4.000000,2.000000,4.000000,4.000000,4.000000,4.000000,4.000000,4.000000,4.000000,4.000000,2.000000,4.000000,4.000000,4.000000,66.666664
1614073979.280644,65.000000,0.000000,4.314486,-11.304107,-5.266075,-3.491538,-1.439155,-6.951770,-5.477886,4.095561,0.659762,-7.944317,2.390661,-0.541452,6.420486,-11.638477,-17.341068,-13.606284,-3.209586,-58.293068,-31.839197,-50.035431,-74.496979,-43.349232,-9.081347,-32.884109,-13.556408,-18.253620,-16.719231,-11.119555,-13.577406,-16.127468,-6.273335,-5.285439,0.000000,180.000000,4.000000,,,,0.000000,4.000000,4.000000,4.000000,4.000000,4.000000,4.000000,4.000000,4.000000,4.000000,4.000000,4.000000,4.000000,4.000000,4.000000,4.000000,4.000000,4.000000,4.000000,4.000000,2.000000,4.000000,4.000000,4.000000,4.000000,4.000000,4.000000,4.000000,4.000000,2.000000,4.000000,4.000000,4.000000,66.666664
1614073979.288393,66.000000,0.000000,-6.459060,-12.831264,-6.286450,1.640158,1.126387,-8.996100,-5.985229,5.629927,3.223205,-9.474834,3.413911,12.279602,6.926887,-9.575557,-15.785265,-1.284985,2.434650,-47.978367,-25.140692,-17.164883,-65.191711,-31.511009,-8.046625,-31.312763,-2.773621,-16.184084,-9.010203,-11.108436,-13.563828,-9.444674,-5.241421,-1.690410,0.000000,200.000000,4.000000,,,,0.000000,4.000000,4.000000,4.000000,4.000000,4.000000,4.000000,4.000000,4.000000,4.000000,4.000000,4.000000,4.000000,4.000000,4.000000,4.000000,4.000000,4.000000,4.000000,4.000000,2.000000,4.000000,4.000000,4.000000,4.000000,4.000000,4.000000,4.000000,4.000000,2.000000,4.000000,4.000000,4.000000,66.666664
1614073979.296242,67.000000,0.000000,-1.324395,-8.203049,6.027529,11.894929,8.817568,-1.807617,-5.979244,7.162758,9.886648,-6.388437,2.384856,-4.655754,8.971242,0.177609,-13.205377,-3.334982,1.406574,-35.109875,-5.115551,6.954847,-41.536777,-13.017960,-5.474476,-21.025040,13.126589,-1.808926,4.844960,-11.097327,-13.550264,1.846822,-0.620795,10.106153,0.000000,184.000000,4.000000,,,,0.000000,4.000000,4.000000,4.000000,4.000000,4.000000,4.000000,4.000000,4.000000,4.000000,4.000000,4.000000,4.000000,4.000000,4.000000,4.000000,4.000000,4.000000,4.000000,4.000000,2.000000,4.000000,4.000000,4.000000,4.000000,4.000000,4.000000,4.000000,4.000000,2.000000,4.000000,4.000000,4.000000,66.666664
1614073979.303992,68.000000,0.000000,3.292314,-5.117922,10.636886,13.421495,11.372853,6.399319,-5.973264,-0.536712,13.466505,-1.253843,8.023497,-10.804945,15.628937,12.485124,1.166803,17.181173,1.917988,-24.818356,4.120334,-10.488005,-42.008060,-12.492122,-2.392078,-8.183502,14.651923,1.782626,7.917038,-11.086230,-13.536714,3.896257,1.943929,12.147328,0.000000,167.000000,4.000000,,,,0.000000,4.000000,4.000000,4.000000,4.000000,4.000000,4.000000,4.000000,4.000000,4.000000,4.000000,4.000000,4.000000,4.000000,4.000000,4.000000,4.000000,4.000000,4.000000,4.000000,2.000000,4.000000,4.000000,4.000000,4.000000,4.000000,4.000000,4.000000,4.000000,2.000000,4.000000,4.000000,4.000000,66.666664
