title:22, start timestamp:1613958881.965967, stop timestamp:1613958927.669031, headset type:EPOCFLEX, headset serial:F00001ED, headset firmware:f12, subject name:s04, channels:75, sampling rate:128, samples:5897      , version:2.0
Timestamp,EEG.Counter,EEG.Interpolated,EEG.Cz,EEG.Fz,EEG.Fp1,EEG.AF3,EEG.F7,EEG.F3,EEG.FC1,EEG.C3,EEG.FC5,EEG.T7,EEG.CP5,EEG.CP1,EEG.P3,EEG.P7,EEG.PO3,EEG.O1,EEG.Pz,EEG.Oz,EEG.O2,EEG.PO4,EEG.P8,EEG.P4,EEG.CP2,EEG.CP6,EEG.T8,EEG.FC6,EEG.C4,EEG.FC2,EEG.F4,EEG.F8,EEG.AF4,EEG.Fp2,EEG.HighBitFlex,EEG.RawCq,EEG.Battery,MarkerIndex,MarkerType,MarkerValueInt,EEG.MarkerHardware,CQ.Cz,CQ.Fz,CQ.Fp1,CQ.AF3,CQ.F7,CQ.F3,CQ.FC1,CQ.C3,CQ.FC5,CQ.T7,CQ.CP5,CQ.CP1,CQ.P3,CQ.P7,CQ.PO3,CQ.O1,CQ.Pz,CQ.Oz,CQ.O2,CQ.PO4,CQ.P8,CQ.P4,CQ.CP2,CQ.CP6,CQ.T8,CQ.FC6,CQ.C4,CQ.FC2,CQ.F4,CQ.F8,CQ.AF4,CQ.Fp2,CQ.Overall
1613958881.965967,17.000000,0.000000,-8.686082,-0.250288,13.909984,0.136348,-7.718208,-0.510920,-8.464966,-12.432241,-9.914128,-8.930528,-5.643344,-11.529202,-2.773266,0.745860,-17.020117,-21.742201,-21.168018,-16.176407,-18.968872,-21.244974,-5.703324,-9.763559,-4.214569,-2.844701,-4.745951,0.841467,2.000236,5.618946,3.977411,6.121959,10.726422,7.081247,0.000000,176.000000,4.000000,,,,0.000000,2.000000,4.000000,2.000000,2.000000,2.000000,2.000000,2.000000,2.000000,2.000000,2.000000,2.000000,4.000000,2.000000,4.000000,2.000000,4.000000,4.000000,4.000000,4.000000,4.000000,4.000000,4.000000,4.000000,2.000000,4.000000,2.000000,4.000000,2.000000,4.000000,4.000000,4.000000,4.000000,50.000000
1613958881.973815,18.000000,0.000000,-8.677396,-0.250037,12.357613,0.136211,-10.274592,-1.023230,-8.456501,-14.471091,-10.929855,-9.434418,-9.740265,-14.081776,-17.129467,-13.101040,-23.669764,-34.028152,-21.659672,-32.570488,-30.744774,-25.326294,-15.441210,-12.830718,-4.723175,-1.816215,-8.843769,-1.723477,0.459774,0.997942,3.973433,-3.114932,11.228517,4.510064,0.000000,163.000000,4.000000,,,,0.000000,2.000000,4.000000,2.000000,2.000000,2.000000,2.000000,2.000000,2.000000,2.000000,2.000000,2.000000,4.000000,2.000000,4.000000,2.000000,4.000000,4.000000,4.000000,4.000000,4.000000,4.000000,4.000000,4.000000,2.000000,4.000000,4.000000,4.000000,4.000000,4.000000,4.000000,4.000000,4.000000,50.000000
1613958881.981565,19.000000,0.000000,-9.181540,-0.249787,10.293973,-0.376745,-11.802780,-1.022207,-8.448045,-14.969440,-10.918925,-9.424983,-13.320269,-15.093335,-19.676439,-22.318708,-22.620453,-32.968483,-21.638012,-41.255867,-33.790955,-27.352249,-23.118076,-13.330709,-8.821015,-3.352861,-12.937490,-6.337138,-2.104789,-8.746645,3.969460,-7.727202,10.191648,3.992733,0.000000,161.000000,4.000000,,,,0.000000,2.000000,4.000000,2.000000,2.000000,2.000000,2.000000,2.000000,2.000000,2.000000,2.000000,2.000000,4.000000,2.000000,4.000000,2.000000,4.000000,4.000000,4.000000,4.000000,4.000000,4.000000,4.000000,4.000000,2.000000,4.000000,4.000000,4.000000,4.000000,4.000000,4.000000,4.000000,4.000000,50.000000
1613958881.989414,20.000000,0.000000,-8.659537,-0.249538,9.770859,-0.376369,-10.765336,-0.508364,-8.439596,-14.441650,-10.395185,-8.902738,-10.742846,-14.565421,-13.502917,-16.142544,-17.469627,-22.679104,-22.129194,-34.547943,-31.193060,-29.889000,-25.146240,-15.368660,-11.376297,-11.041816,-13.950193,-5.305160,-4.153966,-9.763539,3.965491,-3.104090,10.694276,3.988740,0.000000,166.000000,4.000000,,,,0.000000,2.000000,4.000000,2.000000,2.000000,2.000000,2.000000,2.000000,2.000000,2.000000,2.000000,2.000000,4.000000,2.000000,4.000000,2.000000,4.000000,4.000000,4.000000,4.000000,4.000000,4.000000,4.000000,4.000000,2.000000,4.000000,4.000000,4.000000,4.000000,4.000000,4.000000,4.000000,4.000000,50.000000
1613958881.997163,21.000000,0.000000,-8.650878,-0.249288,10.273908,0.649649,-10.241750,-0.507856,-8.431157,-14.427209,-10.384790,-9.406655,-8.168000,-15.063676,-12.463774,-14.075118,-15.400875,-18.553860,-21.081425,-29.385189,-31.674686,-29.346291,-27.172377,-19.968676,-11.364921,-17.697441,-13.936243,-5.299854,-5.175453,-3.599930,3.961525,1.001578,11.196403,3.984752,0.000000,184.000000,4.000000,,,,0.000000,2.000000,4.000000,2.000000,2.000000,2.000000,2.000000,2.000000,2.000000,2.000000,2.000000,2.000000,4.000000,2.000000,4.000000,2.000000,4.000000,4.000000,4.000000,4.000000,4.000000,4.000000,4.000000,4.000000,2.000000,4.000000,4.000000,4.000000,4.000000,4.000000,4.000000,4.000000,4.000000,50.000000
1613958882.005012,22.000000,0.000000,-9.155047,-0.761859,10.263634,-0.889462,-11.769970,-0.507348,-8.422726,-14.412782,-10.374406,-9.397248,-10.211114,-15.048613,-13.989772,-23.291813,-18.975218,-20.586588,-22.085983,-32.432728,-33.694294,-29.829765,-33.811871,-22.512810,-12.892017,-18.192564,-17.512051,-12.986862,-4.657457,-2.570689,3.957564,-0.537885,7.595462,3.980767,0.000000,185.000000,4.000000,,,,0.000000,2.000000,4.000000,2.000000,2.000000,2.000000,2.000000,2.000000,2.000000,2.000000,2.000000,2.000000,4.000000,2.000000,4.000000,2.000000,4.000000,4.000000,4.000000,4.000000,4.000000,4.000000,4.000000,4.000000,2.000000,4.000000,4.000000,4.000000,4.000000,4.000000,4.000000,4.000000,4.000000,50.000000
1613958882.012761,23.000000,0.000000,-7.607430,-0.248277,9.740550,0.137068,-9.194098,-1.019661,-8.414303,-14.398369,-8.825570,-9.387852,-9.175262,-13.495102,-11.924500,-23.781342,-16.392139,-21.591642,-20.012615,-29.836193,-27.506754,-28.261473,-33.265240,-17.874912,-8.263741,-18.174372,-18.520180,-12.461055,-5.165620,-4.106580,3.440785,-2.588629,3.998123,3.463966,0.000000,165.000000,4.000000,,,,0.000000,2.000000,4.000000,2.000000,2.000000,2.000000,2.000000,2.000000,2.000000,2.000000,2.000000,2.000000,4.000000,2.000000,4.000000,2.000000,4.000000,4.000000,4.000000,4.000000,4.000000,4.000000,4.000000,4.000000,2.000000,4.000000,4.000000,4.000000,4.000000,4.000000,4.000000,4.000000,4.000000,50.000000
1613958882.020610,24.000000,0.000000,-3.497259,1.803254,9.730809,6.290777,-0.979775,0.519820,-8.405889,-14.383970,-5.227001,-9.378464,-0.960959,-12.455966,-7.297191,-15.039611,1.060150,-13.364923,-6.659270,-12.883279,-10.043349,-15.412699,-18.360178,-6.574986,4.052215,-16.104914,-8.758069,-2.705004,-5.160454,-3.076832,4.462986,5.619088,5.532587,4.998963,0.000000,168.000000,4.000000,,,,0.000000,2.000000,4.000000,2.000000,2.000000,2.000000,2.000000,2.000000,2.000000,2.000000,2.000000,2.000000,4.000000,2.000000,4.000000,2.000000,4.000000,4.000000,4.000000,4.000000,4.000000,4.000000,4.000000,4.000000,2.000000,4.000000,4.000000,4.000000,4.000000,4.000000,4.000000,4.000000,4.000000,50.000000
1613958882.028359,25.000000,0.000000,-0.929659,3.852732,10.233899,11.925512,1.585307,3.083403,-8.397483,-14.369586,-2.144851,-9.369085,3.142566,-9.366587,-0.110406,-11.434828,16.956526,1.520237,5.655082,2.514220,0.735925,-0.525491,-8.085407,-0.414565,9.176368,-6.345220,3.558381,0.374624,-2.078371,-2.560935,7.022625,21.510904,7.578336,10.122169,0.000000,192.000000,4.000000,,,,0.000000,2.000000,4.000000,2.000000,2.000000,2.000000,2.000000,2.000000,2.000000,2.000000,2.000000,2.000000,4.000000,2.000000,4.000000,2.000000,4.000000,4.000000,4.000000,4.000000,4.000000,4.000000,4.000000,4.000000,2.000000,4.000000,4.000000,4.000000,4.000000,4.000000,4.000000,4.000000,4.000000,50.000000
1613958882.036208,26.000000,0.000000,-1.441550,3.336059,10.223665,10.375125,-6.621406,3.593140,-8.389085,-14.355217,-4.706809,-9.359716,-2.501602,-2.690554,5.017910,-13.987495,18.478031,6.134101,6.162247,4.562987,-2.341734,1.526316,-12.179887,-2.978253,7.115910,0.327792,6.631746,0.887070,-1.050651,-3.071194,8.041244,25.079138,7.057938,12.163329,0.000000,181.000000,4.000000,,,,0.000000,2.000000,4.000000,2.000000,2.000000,2.000000,2.000000,2.000000,2.000000,2.000000,2.000000,2.000000,4.000000,2.000000,4.000000,2.000000,4.000000,4.000000,4.000000,4.000000,4.000000,4.000000,4.000000,4.000000,2.000000,4.000000,4.000000,4.000000,4.000000,4.000000,4.000000,4.000000,4.000000,50.000000
1613958882.043957,27.000000,0.000000,-1.440109,3.332723,9.187800,7.287827,-12.255811,3.076726,-8.380696,-14.340861,-9.830307,-9.863177,-5.576023,1.414701,5.525712,-11.409406,14.869809,0.486942,4.104803,2.507142,-1.313752,1.524790,-4.475399,-0.411172,8.647255,1.353105,4.573832,6.527208,-1.049601,-3.068123,7.520382,18.387392,6.538059,10.612704,0.000000,171.000000,4.000000,,,,0.000000,2.000000,4.000000,2.000000,2.000000,2.000000,2.000000,2.000000,2.000000,2.000000,2.000000,2.000000,4.000000,2.000000,4.000000,2.000000,4.000000,4.000000,4.000000,4.000000,4.000000,4.000000,4.000000,4.000000,2.000000,4.000000,4.000000,4.000000,4.000000,4.000000,4.000000,4.000000,4.000000,50.000000
1613958882.051606,28.000000,0.000000,-0.925848,3.329390,10.204254,7.280539,-7.628170,3.073650,-8.372315,-14.326521,-10.846118,-8.827673,0.070578,0.387645,7.058648,-0.628765,15.367760,-1.052007,6.664801,4.555917,9.969613,13.318137,23.221384,9.845650,11.202710,4.941496,12.261566,8.059143,2.541193,-2.552235,8.025682,18.369003,7.044342,12.140553,0.000000,154.000000,4.000000,,,,0.000000,2.000000,4.000000,2.000000,2.000000,2.000000,2.000000,2.000000,2.000000,2.000000,2.000000,2.000000,4.000000,2.000000,4.000000,2.000000,4.000000,4.000000,4.000000,4.000000,4.000000,4.000000,4.000000,4.000000,2.000000,4.000000,4.000000,4.000000,4.000000,4.000000,4.000000,4.000000,4.000000,50.000000
1613958882.059355,29.000000,0.000000,-1.437743,3.326061,13.270972,7.786079,-3.005157,3.070576,-8.363943,-14.312194,-9.809630,-6.767563,2.634610,-0.125563,9.102871,7.064171,15.352392,-0.025314,9.735059,4.038541,15.087849,24.074049,36.018677,17.015291,12.217149,13.141683,21.992893,8.051084,7.154036,-2.036862,8.017656,18.863455,7.037297,12.128412,0.000000,185.000000,4.000000,,,,0.000000,2.000000,4.000000,2.000000,2.000000,2.000000,2.000000,2.000000,2.000000,2.000000,2.000000,2.000000,4.000000,2.000000,4.000000,2.000000,4.000000,4.000000,4.000000,4.000000,4.000000,4.000000,4.000000,4.000000,2.000000,4.000000,4.000000,4.000000,4.000000,4.000000,4.000000,4.000000,4.000000,50.000000
1613958882.067004,30.000000,0.000000,-1.436305,3.322735,12.232060,6.752652,-4.027793,3.067505,-8.355579,-14.297882,-10.312641,-5.222334,1.606335,0.387383,10.119410,4.493004,15.337039,-2.589391,7.161222,1.983220,13.021479,23.024334,22.649324,16.998276,11.179291,18.769566,16.842695,11.119956,7.146882,-3.060466,2.881433,11.665105,7.030260,6.988079,0.000000,171.000000,4.000000,,,,0.000000,2.000000,4.000000,2.000000,2.000000,2.000000,2.000000,2.000000,2.000000,2.000000,2.000000,2.000000,4.000000,2.000000,4.000000,2.000000,4.000000,4.000000,4.000000,4.000000,4.000000,4.000000,4.000000,4.000000,2.000000,4.000000,4.000000,4.000000,4.000000,4.000000,4.000000,4.000000,4.000000,50.000000
1613958882.074753,31.000000,0.000000,-0.922048,3.319412,14.271111,6.745899,-4.536586,3.064438,-8.347223,-14.283585,-10.815149,-5.729932,1.604728,-2.177107,10.109290,-1.152514,12.757600,-3.612443,3.051496,0.955596,15.059740,15.821823,12.883084,11.853072,4.501445,19.263617,9.646366,9.570374,7.652555,-2.544585,-0.198371,6.012414,7.023230,9.545194,0.000000,129.000000,4.000000,,,,0.000000,2.000000,4.000000,2.000000,2.000000,2.000000,2.000000,2.000000,2.000000,2.000000,2.000000,2.000000,4.000000,2.000000,4.000000,2.000000,4.000000,4.000000,4.000000,4.000000,4.000000,4.000000,4.000000,4.000000,2.000000,4.000000,4.000000,4.000000,4.000000,4.000000,4.000000,4.000000,4.000000,50.000000
1613958882.082403,32.000000,0.000000,-1.433946,3.316093,21.436327,6.739153,-1.455126,3.061373,-8.338877,-14.269300,-10.291513,-5.724202,1.603124,-4.226212,8.047898,-2.177003,4.539714,-6.685753,2.022804,-5.199206,9.403654,2.985488,9.280457,-0.466473,-3.708185,17.705893,9.636720,5.971060,6.619262,-1.516400,0.314648,6.519222,6.503386,19.792059,8064.000000,0.000000,4.000000,,,,0.000000,2.000000,4.000000,2.000000,2.000000,2.000000,2.000000,2.000000,2.000000,2.000000,2.000000,2.000000,4.000000,2.000000,4.000000,2.000000,4.000000,4.000000,4.000000,4.000000,4.000000,4.000000,4.000000,4.000000,2.000000,4.000000,4.000000,4.000000,4.000000,4.000000,4.000000,4.000000,4.000000,50.000000
1613958882.090152,33.000000,0.000000,-1.432513,2.799956,22.440531,6.732414,0.084790,2.545491,-8.330538,-14.255032,-10.794043,-6.231298,-1.475402,-3.709165,5.475748,-1.662005,-0.593031,-14.371375,-2.081783,-14.424776,-11.631391,-12.914933,-5.600617,-14.312160,-5.242939,6.406135,0.909134,2.888166,-0.054024,-8.181550,-0.711308,6.512703,6.496882,17.208164,8064.000000,0.000000,4.000000,,,,0.000000,2.000000,4.000000,2.000000,2.000000,2.000000,2.000000,2.000000,2.000000,2.000000,2.000000,2.000000,4.000000,2.000000,4.000000,2.000000,4.000000,4.000000,4.000000,4.000000,4.000000,4.000000,4.000000,4.000000,2.000000,4.000000,4.000000,4.000000,4.000000,4.000000,4.000000,4.000000,4.000000,50.000000
1613958882.097801,34.000000,0.000000,-0.405439,3.309977,20.879629,6.212861,-0.428115,4.594228,-8.835028,-14.240776,-11.296069,-6.225067,-2.499568,-3.705456,6.495914,-3.198805,0.946024,-16.408285,-6.182266,-16.461634,-23.927452,-20.081505,-18.928350,-19.426054,-1.647952,-14.625912,-16.527672,-6.345491,-5.694995,-16.891317,-3.787519,6.506190,5.977565,10.524289,8064.000000,0.000000,4.000000,,,,0.000000,2.000000,4.000000,2.000000,2.000000,2.000000,2.000000,2.000000,2.000000,2.000000,2.000000,2.000000,4.000000,2.000000,4.000000,2.000000,4.000000,4.000000,4.000000,4.000000,4.000000,4.000000,4.000000,4.000000,2.000000,4.000000,4.000000,4.000000,4.000000,4.000000,4.000000,4.000000,4.000000,50.000000
1613958882.105550,35.000000,0.000000,-2.969136,3.306667,25.986956,8.257931,0.085134,7.153737,-8.313372,-14.226536,-7.695029,-5.706021,-1.984248,-3.701751,3.412494,-6.272529,-5.721589,-15.879057,-8.740186,-14.906710,-24.416344,-25.189629,-23.524807,-22.996370,-8.312970,-29.995901,-22.664991,-15.057095,-10.817506,-18.412888,-3.783732,6.499684,2.894664,18.718893,8064.000000,0.000000,4.000000,,,,0.000000,2.000000,4.000000,2.000000,2.000000,2.000000,2.000000,2.000000,2.000000,2.000000,2.000000,2.000000,4.000000,2.000000,4.000000,2.000000,4.000000,4.000000,4.000000,4.000000,4.000000,4.000000,4.000000,4.000000,2.000000,4.000000,4.000000,4.000000,4.000000,4.000000,4.000000,4.000000,4.000000,50.000000
1613958882.113199,36.000000,0.000000,-10.145654,2.790540,30.576353,14.403519,1.623510,6.633762,-8.305058,-14.725129,-4.097590,-6.725956,-1.982264,-3.698049,-7.872969,-10.368821,-19.562021,-24.068306,-23.090420,-18.994368,-30.032953,-37.984951,-33.244873,-31.178503,-24.714914,-32.017189,-21.616684,-17.093319,-23.114380,-18.394474,-4.292769,3.416261,2.891770,27.418123,8064.000000,0.000000,4.000000,,,,0.000000,2.000000,4.000000,2.000000,2.000000,2.000000,2.000000,2.000000,2.000000,2.000000,2.000000,2.000000,4.000000,2.000000,4.000000,2.000000,4.000000,4.000000,4.000000,4.000000,4.000000,4.000000,4.000000,4.000000,2.000000,4.000000,4.000000,4.000000,4.000000,4.000000,4.000000,4.000000,4.000000,50.000000
1613958882.120948,37.000000,0.000000,-13.212432,4.326210,34.135521,21.055782,4.185989,6.114308,-8.809574,-13.684763,-2.555032,-4.667949,-1.980281,-3.694351,-14.018943,-12.922554,-24.157845,-28.659622,-41.528870,-23.077936,-37.182407,-48.716198,-41.416756,-37.301170,-31.869686,-34.549274,-19.543785,-15.537765,-28.219471,-17.863258,-3.262835,2.900024,10.581185,32.006088,8064.000000,0.000000,4.000000,,,,0.000000,2.000000,4.000000,2.000000,2.000000,2.000000,2.000000,2.000000,2.000000,2.000000,2.000000,2.000000,4.000000,2.000000,4.000000,2.000000,4.000000,4.000000,4.000000,4.000000,4.000000,4.000000,4.000000,4.000000,2.000000,4.000000,4.000000,4.000000,4.000000,4.000000,4.000000,4.000000,4.000000,50.000000
1613958882.128597,38.000000,0.000000,-12.173578,7.911628,44.357796,26.675751,10.335649,10.210757,-6.236662,-11.106976,0.524447,3.541848,-1.978301,-3.690656,-10.415180,-9.832708,-19.518301,-21.964296,-41.487339,-20.490757,-35.093945,-48.154663,-40.862518,-35.725407,-21.068586,-38.617287,-10.293473,-9.368381,-15.883559,-11.691550,4.432735,10.589432,20.314194,44.794598,8064.000000,0.000000,4.000000,,,,0.000000,2.000000,4.000000,2.000000,2.000000,2.000000,2.000000,2.000000,2.000000,2.000000,2.000000,2.000000,4.000000,2.000000,4.000000,2.000000,4.000000,4.000000,4.000000,4.000000,4.000000,4.000000,4.000000,4.000000,2.000000,4.000000,4.000000,4.000000,4.000000,4.000000,4.000000,4.000000,4.000000,50.000000
1613958882.136446,39.000000,0.000000,-12.161405,10.467819,51.492924,31.264460,16.991980,13.790291,-2.127861,-10.070228,4.626486,9.692152,-1.976323,-3.174145,-8.866303,-5.720312,-17.447500,-20.403872,-35.292007,-18.418983,-35.571671,-47.080864,-41.334476,-34.151222,-13.868030,-28.835081,-2.590872,0.384577,-7.149727,-6.551653,11.094970,17.245510,24.396444,56.031853,8192.000000,0.000000,4.000000,,,,0.000000,2.000000,4.000000,2.000000,2.000000,2.000000,2.000000,2.000000,2.000000,2.000000,2.000000,2.000000,4.000000,2.000000,4.000000,2.000000,4.000000,4.000000,4.000000,4.000000,4.000000,4.000000,4.000000,4.000000,2.000000,4.000000,4.000000,4.000000,4.000000,4.000000,4.000000,4.000000,4.000000,50.000000
1613958882.144195,40.000000,0.000000,-12.662064,10.457351,49.390148,33.284477,19.026270,13.776501,-0.587272,-10.572978,4.621860,9.169640,-1.974347,-5.222253,-9.883078,-6.227412,-19.994156,-22.947569,-36.795174,-19.939026,-34.510456,-47.546604,-37.703396,-36.681171,-16.418264,-15.985733,-2.075460,3.973936,-9.193859,-6.545102,12.109515,18.253904,24.884869,55.463001,8064.000000,0.000000,4.000000,,,,0.000000,2.000000,4.000000,2.000000,2.000000,2.000000,2.000000,2.000000,2.000000,2.000000,2.000000,2.000000,4.000000,2.000000,4.000000,2.000000,4.000000,4.000000,4.000000,4.000000,4.000000,4.000000,4.000000,4.000000,2.000000,4.000000,4.000000,4.000000,4.000000,4.000000,4.000000,4.000000,4.000000,50.000000
1613958882.151944,41.000000,0.000000,-12.136581,9.934073,48.827938,32.225552,17.468782,12.737082,-1.099505,-10.562406,3.591597,8.134829,-2.485193,-7.268313,-6.283451,-4.169903,-18.948521,-12.155391,-31.630175,-16.329344,-21.142614,-39.293930,-22.281078,-31.003466,-13.324924,-13.405644,2.029179,5.508424,-6.107743,-3.461633,13.123047,19.774113,24.859983,52.843433,8064.000000,0.000000,4.000000,,,,0.000000,2.000000,4.000000,2.000000,2.000000,2.000000,2.000000,2.000000,2.000000,2.000000,2.000000,2.000000,4.000000,2.000000,4.000000,2.000000,4.000000,4.000000,4.000000,4.000000,4.000000,4.000000,4.000000,4.000000,2.000000,4.000000,4.000000,4.000000,4.000000,4.000000,4.000000,4.000000,4.000000,50.000000
1613958882.159594,42.000000,0.000000,-12.124444,10.436959,51.343212,32.193329,17.451313,13.749987,-1.098405,-10.551843,4.100826,9.665155,-1.969887,-7.261045,-1.661783,0.449652,-12.775726,1.702918,-20.829313,-8.620707,-9.326599,-23.870022,-7.899823,-12.510923,-4.593649,-7.751214,9.719458,10.118300,4.154776,1.157213,15.674026,20.779980,24.835123,53.816231,8064.000000,0.000000,4.000000,,,,0.000000,2.000000,4.000000,2.000000,2.000000,2.000000,2.000000,2.000000,2.000000,2.000000,2.000000,2.000000,4.000000,2.000000,4.000000,2.000000,4.000000,4.000000,4.000000,4.000000,4.000000,4.000000,4.000000,4.000000,2.000000,4.000000,4.000000,4.000000,4.000000,4.000000,4.000000,4.000000,4.000000,50.000000
1613958882.167443,43.000000,0.000000,-11.599500,10.426522,52.317509,32.161133,18.459503,13.736237,-1.097307,-10.541291,4.096725,8.629849,-2.480738,-7.766604,-1.147301,0.449202,-7.121925,3.239677,-16.193100,-8.099265,-7.778811,-9.999997,3.390128,2.373383,-2.537774,6.102692,10.222559,12.159464,8.253184,1.668876,15.145532,22.297661,25.323109,55.813698,8064.000000,0.000000,4.000000,,,,0.000000,2.000000,4.000000,2.000000,2.000000,2.000000,2.000000,2.000000,2.000000,2.000000,2.000000,2.000000,4.000000,2.000000,4.000000,2.000000,4.000000,4.000000,4.000000,4.000000,4.000000,4.000000,4.000000,4.000000,2.000000,4.000000,4.000000,4.000000,4.000000,4.000000,4.000000,4.000000,4.000000,50.000000
1613958882.175192,44.000000,0.000000,-9.536618,9.390455,52.778015,32.128971,17.415403,12.184039,0.955072,-10.017929,4.092628,6.569937,-2.478257,-7.246017,-2.171795,-2.115350,-7.114803,-1.891768,-7.971779,-13.219371,-6.232571,-2.810510,16.207251,3.909471,-2.535236,11.224794,8.673875,11.634484,6.706470,0.641566,14.617566,29.967670,28.887529,56.270706,8064.000000,0.000000,4.000000,,,,0.000000,2.000000,4.000000,2.000000,2.000000,2.000000,2.000000,2.000000,2.000000,2.000000,2.000000,2.000000,4.000000,2.000000,4.000000,2.000000,4.000000,4.000000,4.000000,4.000000,4.000000,4.000000,4.000000,4.000000,2.000000,4.000000,4.000000,4.000000,4.000000,4.000000,4.000000,4.000000,4.000000,50.000000
1613958882.183041,45.000000,0.000000,-7.988620,11.432346,53.750877,31.584023,16.885168,15.761599,2.492579,-11.033552,5.626997,4.512085,1.113965,-2.623386,0.907300,-2.626055,-4.543586,-0.351415,3.831065,-8.590767,-1.098133,0.269224,21.319248,2.879920,2.082684,9.675108,11.229303,11.110029,6.699763,1.153745,14.602948,33.014626,34.499668,59.291359,8064.000000,0.000000,4.000000,,,,0.000000,2.000000,4.000000,2.000000,2.000000,2.000000,2.000000,2.000000,2.000000,2.000000,2.000000,2.000000,4.000000,2.000000,4.000000,2.000000,4.000000,4.000000,4.000000,4.000000,4.000000,4.000000,4.000000,4.000000,2.000000,4.000000,4.000000,4.000000,4.000000,4.000000,4.000000,4.000000,4.000000,50.000000
1613958882.190790,46.000000,0.000000,-8.493452,16.036299,59.338150,31.552439,21.483667,24.463785,2.490086,-11.022519,9.723934,4.507573,4.702595,0.456160,6.547419,-1.597788,4.691727,5.289962,6.904157,3.725516,-0.071394,3.345877,21.810749,3.902681,5.157524,12.229535,12.756536,10.073277,7.718705,0.639771,14.588346,31.955971,37.542091,71.539757,8064.000000,0.000000,4.000000,,,,0.000000,2.000000,4.000000,2.000000,2.000000,2.000000,2.000000,2.000000,2.000000,2.000000,2.000000,2.000000,4.000000,2.000000,4.000000,2.000000,4.000000,4.000000,4.000000,4.000000,4.000000,4.000000,4.000000,4.000000,2.000000,4.000000,4.000000,4.000000,4.000000,4.000000,4.000000,4.000000,4.000000,50.000000
1613958882.198639,47.000000,0.000000,-8.484959,18.071545,66.971123,31.520887,29.667311,28.029066,1.974776,-7.421752,13.816774,6.554348,5.723533,0.455704,9.617794,-0.057728,10.840881,10.412878,6.384432,7.824355,-1.609784,3.342531,20.763298,2.873137,4.126726,11.704485,13.256599,12.114487,6.172524,1.151952,15.086577,36.026577,39.043011,83.263092,8064.000000,0.000000,4.000000,,,,0.000000,2.000000,4.000000,2.000000,2.000000,2.000000,2.000000,2.000000,2.000000,2.000000,2.000000,2.000000,4.000000,2.000000,4.000000,2.000000,4.000000,4.000000,4.000000,4.000000,4.000000,4.000000,4.000000,4.000000,2.000000,4.000000,4.000000,4.000000,4.000000,4.000000,4.000000,4.000000,4.000000,50.000000
1613958882.206388,48.000000,0.000000,-7.963653,17.540653,70.493896,31.489367,32.714565,28.001036,2.998442,-3.311767,15.341419,8.086255,5.717810,-0.057572,9.608176,1.993611,12.368503,10.915285,5.865227,6.790889,-1.095354,-5.891580,4.845099,-2.257941,4.122599,7.590217,11.192061,10.051090,3.602249,0.637979,14.045850,31.375168,39.516788,79.590080,8064.000000,0.000000,4.000000,,,,0.000000,2.000000,4.000000,2.000000,2.000000,2.000000,2.000000,2.000000,2.000000,2.000000,2.000000,2.000000,4.000000,2.000000,4.000000,2.000000,4.000000,4.000000,4.000000,4.000000,4.000000,4.000000,4.000000,4.000000,2.000000,4.000000,4.000000,4.000000,4.000000,4.000000,4.000000,4.000000,4.000000,50.000000
1613958882.214237,49.000000,0.000000,-8.468510,17.523111,70.423401,31.457876,32.681850,32.588421,1.969802,-2.282814,14.813257,8.590989,4.686450,-0.057515,9.598568,0.965977,10.304852,5.776165,-4.909869,8.835381,-0.581438,-17.167740,-17.211029,-10.973632,4.631297,-0.109681,2.975741,-2.779474,-0.503917,-3.465223,11.467702,12.882254,37.938808,70.279724,8064.000000,0.000000,4.000000,,,,0.000000,2.000000,4.000000,2.000000,2.000000,2.000000,2.000000,2.000000,2.000000,2.000000,2.000000,2.000000,4.000000,2.000000,4.000000,2.000000,4.000000,4.000000,4.000000,4.000000,4.000000,4.000000,4.000000,4.000000,2.000000,4.000000,4.000000,4.000000,4.000000,4.000000,4.000000,4.000000,4.000000,50.000000
1613958882.221986,50.000000,0.000000,-8.460041,17.505589,70.352974,31.426418,33.161991,35.632755,2.480653,-3.306172,15.311264,8.582398,2.630482,-2.621560,9.588970,-1.599092,4.140701,-2.947560,-16.699831,4.211160,-1.606497,-21.253136,-22.834843,-19.680607,4.113845,-12.417264,-5.232363,-6.879259,-7.682900,-7.051501,10.430593,4.664244,35.336769,67.645340,8064.000000,0.000000,4.000000,,,,0.000000,2.000000,4.000000,2.000000,2.000000,2.000000,2.000000,2.000000,2.000000,2.000000,2.000000,2.000000,4.000000,2.000000,4.000000,2.000000,4.000000,4.000000,4.000000,4.000000,4.000000,4.000000,4.000000,4.000000,2.000000,4.000000,4.000000,4.000000,4.000000,4.000000,4.000000,4.000000,4.000000,50.000000
1613958882.229835,51.000000,0.000000,-8.451581,17.488083,69.256981,31.394993,31.590368,34.571480,6.580737,-3.815686,14.783133,8.060995,1.089390,-3.644579,9.066560,-3.135954,-2.530107,-10.124100,-18.221592,-6.562282,-2.117711,-23.795986,-21.273546,-24.276310,4.109731,-20.609976,-6.765593,1.332749,-15.880345,-7.044450,10.932982,8.762143,34.788612,68.090515,8064.000000,0.000000,4.000000,,,,0.000000,2.000000,4.000000,2.000000,2.000000,2.000000,2.000000,2.000000,2.000000,2.000000,2.000000,2.000000,4.000000,2.000000,4.000000,2.000000,4.000000,4.000000,4.000000,4.000000,4.000000,4.000000,4.000000,4.000000,2.000000,4.000000,4.000000,4.000000,4.000000,4.000000,4.000000,4.000000,4.000000,50.000000
1613958882.237584,52.000000,0.000000,-8.443130,19.009056,73.803108,31.363598,34.122879,37.613831,10.163899,0.803514,13.742708,9.591395,1.088301,-3.640935,9.570314,-0.568716,-5.604499,-9.088334,-17.690550,-8.094181,-1.089953,-28.900394,-27.406118,-24.764854,1.028698,-24.691929,-6.246006,0.818596,-19.454208,-6.524585,10.922050,9.779022,35.266644,66.996788,8192.000000,0.000000,4.000000,,,,0.000000,2.000000,4.000000,2.000000,2.000000,2.000000,2.000000,2.000000,2.000000,2.000000,2.000000,2.000000,4.000000,2.000000,4.000000,2.000000,4.000000,4.000000,4.000000,4.000000,4.000000,4.000000,4.000000,4.000000,2.000000,4.000000,4.000000,4.000000,4.000000,4.000000,4.000000,4.000000,4.000000,50.000000
1613958882.245433,53.000000,0.000000,-8.434687,21.041330,82.960075,31.332233,39.729782,41.165962,10.153735,4.905274,18.344351,11.633086,1.600033,-3.637294,8.022283,3.021597,-4.060433,-8.566425,-21.262604,-10.650189,-3.652965,-29.897135,-30.455637,-24.740089,-6.151818,-31.333904,-6.239760,-2.771966,-19.947575,-7.030880,10.398307,10.794885,34.718555,66.416969,8064.000000,0.000000,4.000000,,,,0.000000,2.000000,4.000000,2.000000,2.000000,2.000000,2.000000,2.000000,2.000000,2.000000,2.000000,2.000000,4.000000,2.000000,4.000000,2.000000,4.000000,4.000000,4.000000,4.000000,4.000000,4.000000,4.000000,4.000000,2.000000,4.000000,4.000000,4.000000,4.000000,4.000000,4.000000,4.000000,4.000000,50.000000
1613958882.253182,54.000000,0.000000,-8.426251,21.020288,80.825836,31.300901,31.997746,38.047874,9.630761,1.823446,20.890108,11.621453,1.085612,-3.633657,3.398875,-2.109630,-4.056373,-18.814270,-22.266981,-24.998514,-12.367261,-28.328777,-28.886719,-23.689709,-10.761050,-33.353851,-3.669418,3.897472,-19.927628,-6.511029,10.900729,16.425116,34.683838,67.376190,8064.000000,0.000000,4.000000,,,,0.000000,2.000000,4.000000,2.000000,2.000000,2.000000,2.000000,2.000000,2.000000,2.000000,2.000000,2.000000,4.000000,2.000000,4.000000,2.000000,4.000000,4.000000,4.000000,4.000000,4.000000,4.000000,4.000000,4.000000,2.000000,4.000000,4.000000,4.000000,4.000000,4.000000,4.000000,4.000000,4.000000,50.000000
1613958882.261031,55.000000,0.000000,-8.417826,20.999268,71.001419,31.269600,18.119593,34.420082,10.133951,-3.306583,14.202552,9.558550,1.084527,-5.681305,1.344195,-9.287007,-9.180522,-22.385199,-20.706253,-29.588900,-14.918996,-29.326090,-29.883472,-24.178839,-12.288751,-32.294857,-2.127287,6.970498,-16.830776,-6.504518,10.889829,17.947151,35.161972,66.795998,8192.000000,0.000000,4.000000,,,,0.000000,2.000000,4.000000,2.000000,2.000000,2.000000,2.000000,2.000000,2.000000,2.000000,2.000000,2.000000,4.000000,2.000000,4.000000,2.000000,4.000000,4.000000,4.000000,4.000000,4.000000,4.000000,4.000000,4.000000,2.000000,4.000000,4.000000,4.000000,4.000000,4.000000,4.000000,4.000000,4.000000,50.000000
1613958882.268780,56.000000,0.000000,-8.409408,20.978270,69.904778,31.238331,16.050192,33.872841,10.123817,-3.816097,12.137067,7.497709,3.647545,-7.726905,1.855671,-3.636695,-6.094418,-9.029480,-16.582983,-18.790079,-5.160488,-23.655737,-21.135641,-23.641840,-10.225180,-33.801025,-2.125160,5.425066,-13.737022,-7.010834,10.878939,17.416384,35.126812,67.242020,8064.000000,0.000000,4.000000,,,,0.000000,2.000000,4.000000,2.000000,2.000000,2.000000,2.000000,2.000000,2.000000,2.000000,2.000000,2.000000,4.000000,2.000000,4.000000,2.000000,4.000000,4.000000,4.000000,4.000000,4.000000,4.000000,4.000000,4.000000,2.000000,4.000000,4.000000,4.000000,4.000000,4.000000,4.000000,4.000000,4.000000,50.000000
1613958882.276629,57.000000,0.000000,-8.400998,20.957291,73.937431,31.207092,20.136705,34.864609,9.600873,-2.786639,17.765955,10.054314,7.746461,-5.667897,1.340995,5.084890,12.373215,4.825703,-7.335631,-10.566162,4.588263,-4.657722,-1.627326,-8.233583,-4.061109,-26.074915,3.005171,11.060666,-9.620722,-5.465362,10.868060,19.963070,35.091686,71.790161,8064.000000,0.000000,4.000000,,,,0.000000,2.000000,4.000000,2.000000,2.000000,2.000000,2.000000,2.000000,2.000000,2.000000,2.000000,2.000000,4.000000,2.000000,4.000000,2.000000,4.000000,4.000000,4.000000,4.000000,4.000000,4.000000,4.000000,4.000000,2.000000,4.000000,4.000000,4.000000,4.000000,4.000000,4.000000,4.000000,4.000000,50.000000
1613958882.284378,58.000000,0.000000,-8.392597,21.449154,72.837860,31.175886,21.142210,38.932308,9.591272,-3.296673,19.286652,15.172465,9.789997,-3.610947,6.467859,6.618267,27.232635,10.974724,3.440936,-0.299185,11.250341,13.295653,7.605071,13.825933,0.558337,-8.100122,8.130370,15.664990,-2.944434,-2.895794,10.857192,21.994389,35.056595,77.359398,8064.000000,0.000000,4.000000,,,,0.000000,2.000000,4.000000,2.000000,2.000000,2.000000,2.000000,2.000000,2.000000,2.000000,2.000000,2.000000,4.000000,2.000000,4.000000,2.000000,4.000000,4.000000,4.000000,4.000000,4.000000,4.000000,4.000000,4.000000,2.000000,4.000000,4.000000,4.000000,4.000000,4.000000,4.000000,4.000000,4.000000,50.000000
1613958882.292027,59.000000,0.000000,-8.384205,20.402063,71.739380,31.144709,24.710812,41.970299,10.094501,-3.293377,18.754545,15.157292,10.293028,-3.607336,15.692161,11.227034,28.743866,18.656057,7.027238,14.060088,17.392937,15.333639,6.571825,17.914671,1.070599,0.113106,10.173522,15.136505,2.699536,-2.380078,10.846334,21.459574,35.021538,78.307678,8064.000000,0.000000,4.000000,,,,0.000000,2.000000,4.000000,2.000000,2.000000,2.000000,2.000000,2.000000,2.000000,2.000000,2.000000,2.000000,4.000000,2.000000,4.000000,2.000000,4.000000,4.000000,4.000000,4.000000,4.000000,4.000000,4.000000,4.000000,2.000000,4.000000,4.000000,4.000000,4.000000,4.000000,4.000000,4.000000,4.000000,50.000000
1613958882.299776,60.000000,0.000000,-7.863000,17.304739,72.693283,31.113565,27.763023,37.825764,9.571587,-2.264442,18.735790,8.988289,8.744273,-3.090908,17.214930,13.267088,27.176661,17.611759,5.994570,16.097311,14.811441,11.215742,7.078074,11.230089,-0.468933,0.112993,11.188990,18.198292,3.722477,-2.890518,11.348309,20.925295,34.986515,78.229370,8064.000000,0.000000,4.000000,,,,0.000000,2.000000,4.000000,2.000000,2.000000,2.000000,2.000000,2.000000,2.000000,2.000000,2.000000,2.000000,4.000000,2.000000,4.000000,2.000000,4.000000,4.000000,4.000000,4.000000,4.000000,4.000000,4.000000,4.000000,2.000000,4.000000,4.000000,4.000000,4.000000,4.000000,4.000000,4.000000,4.000000,50.000000
1613958882.307426,61.000000,0.000000,-7.342316,17.800255,72.620583,31.082451,25.683979,34.198196,4.946630,-3.800639,11.537567,2.825454,5.145785,-3.600637,10.531048,4.023052,20.995638,2.722353,8.039858,7.363264,4.540220,8.640424,-1.134133,6.603475,0.557177,3.189803,5.023954,15.615991,4.744396,-2.887628,10.824141,21.930010,34.438709,77.638321,8064.000000,0.000000,4.000000,,,,0.000000,2.000000,4.000000,2.000000,2.000000,2.000000,2.000000,2.000000,2.000000,2.000000,2.000000,2.000000,4.000000,2.000000,4.000000,2.000000,4.000000,4.000000,4.000000,4.000000,4.000000,4.000000,4.000000,4.000000,2.000000,4.000000,4.000000,4.000000,4.000000,4.000000,4.000000,4.000000,4.000000,50.000000
1613958882.315175,62.000000,0.000000,-8.360615,21.372198,72.547966,31.051369,24.119833,34.676819,2.377581,-6.360941,3.320901,1.796988,0.012434,-7.699601,3.341030,-7.263022,4.051564,-15.741908,3.416433,-9.567176,-11.361756,-5.214371,-25.748383,-6.736462,1.582261,0.622511,-8.314403,4.831144,1.149908,-2.884740,10.813316,21.395260,34.917091,78.073502,8064.000000,0.000000,4.000000,,,,0.000000,2.000000,4.000000,2.000000,2.000000,2.000000,2.000000,2.000000,2.000000,2.000000,2.000000,2.000000,4.000000,2.000000,4.000000,2.000000,4.000000,4.000000,4.000000,4.000000,4.000000,4.000000,4.000000,4.000000,2.000000,4.000000,4.000000,4.000000,4.000000,4.000000,4.000000,4.000000,4.000000,50.000000
1613958882.322824,63.000000,0.000000,-8.352255,18.786722,72.475418,31.533138,25.121355,34.129322,2.375203,-5.841760,3.317580,2.308012,-8.705527,-10.768825,-5.893081,-19.563452,-18.516590,-38.803089,-14.535702,-34.685814,-31.350395,-29.824541,-47.773918,-23.652803,-2.521886,-10.147343,-15.485576,-0.301893,-7.569191,-2.369035,11.315323,14.707197,35.394993,78.508255,8064.000000,0.000000,4.000000,,,,0.000000,2.000000,4.000000,2.000000,2.000000,2.000000,2.000000,2.000000,2.000000,2.000000,2.000000,2.000000,4.000000,2.000000,4.000000,2.000000,4.000000,4.000000,4.000000,4.000000,4.000000,4.000000,4.000000,4.000000,2.000000,4.000000,4.000000,4.000000,4.000000,4.000000,4.000000,4.000000,4.000000,50.000000
1613958882.330573,64.000000,0.000000,-6.805441,13.639730,72.915764,30.988785,23.044950,31.018269,-0.191275,-8.912841,2.801442,-2.309681,-19.978872,-10.758056,-21.271803,-35.954144,-40.036533,-64.405312,-28.367319,-50.548565,-42.601097,-43.128052,-54.392811,-27.731714,-9.186030,-19.367964,-15.470090,-4.404155,-12.177007,-2.879486,8.227085,5.974541,31.769854,73.814362,0.000000,143.000000,4.000000,,,,0.000000,2.000000,4.000000,2.000000,2.000000,2.000000,2.000000,2.000000,2.000000,2.000000,2.000000,2.000000,4.000000,2.000000,4.000000,2.000000,4.000000,4.000000,4.000000,4.000000,4.000000,4.000000,4.000000,4.000000,2.000000,4.000000,4.000000,4.000000,4.000000,4.000000,4.000000,4.000000,4.000000,50.000000
1613958882.338222,65.000000,0.000000,-11.926841,13.113271,72.842850,30.957796,20.970623,27.910328,-4.293647,-18.134697,0.234538,-8.974038,-25.087099,-14.337041,-34.071045,-44.123318,-52.817013,-77.161423,-34.492798,-55.626221,-43.071316,-45.136204,-55.364059,-32.832188,-11.740947,-26.015263,-20.582825,-13.117700,-13.190471,-5.440709,3.603473,2.891644,27.122700,65.535416,0.000000,136.000000,4.000000,,,,0.000000,2.000000,4.000000,2.000000,2.000000,2.000000,2.000000,2.000000,2.000000,2.000000,2.000000,2.000000,4.000000,2.000000,4.000000,2.000000,4.000000,4.000000,4.000000,4.000000,4.000000,4.000000,4.000000,4.000000,2.000000,4.000000,4.000000,4.000000,4.000000,4.000000,4.000000,4.000000,4.000000,50.000000
1613958882.345971,66.000000,0.000000,-22.684145,14.125798,72.257187,33.490940,21.462473,27.369596,-5.314995,-21.706306,0.234303,-7.426602,-21.985088,-18.425268,-36.601074,-42.540733,-57.892399,-75.545799,-41.637794,-60.698799,-44.053886,-47.655170,-52.231770,-39.466022,-10.703565,-32.143093,-27.741730,-16.694324,-17.792664,-6.973730,3.087049,2.888752,27.095577,61.880138,0.000000,133.000000,4.000000,,,,0.000000,2.000000,4.000000,2.000000,2.000000,2.000000,2.000000,2.000000,2.000000,2.000000,2.000000,2.000000,4.000000,2.000000,4.000000,2.000000,4.000000,4.000000,4.000000,4.000000,4.000000,4.000000,4.000000,4.000000,2.000000,4.000000,4.000000,4.000000,4.000000,4.000000,4.000000,4.000000,4.000000,50.000000
1613958882.353620,67.000000,0.000000,-22.661461,13.086032,73.723389,35.508732,21.441011,27.855047,-4.796859,-18.094856,0.234069,-4.855073,-20.937462,-18.406843,-31.436270,-39.934090,-55.270405,-61.624096,-40.057693,-50.894512,-37.343163,-41.966488,-37.307743,-27.631683,-10.692862,-32.110950,-27.201166,-14.626348,-19.826155,-6.453936,4.109603,3.911505,28.094122,63.356720,0.000000,136.000000,4.000000,,,,0.000000,2.000000,4.000000,2.000000,2.000000,2.000000,2.000000,2.000000,2.000000,2.000000,2.000000,2.000000,4.000000,2.000000,4.000000,2.000000,4.000000,4.000000,4.000000,4.000000,4.000000,4.000000,4.000000,4.000000,2.000000,4.000000,4.000000,4.000000,4.000000,4.000000,4.000000,4.000000,4.000000,50.000000
1613958882.361369,68.000000,0.000000,-13.920850,13.585766,72.111206,35.473221,20.393929,26.801552,-4.792062,-17.563942,0.746656,-10.491244,-19.890884,-17.875616,-23.712524,-37.330055,-40.343338,-35.408627,-25.658661,-28.279514,-19.357103,-26.539907,-16.244795,-10.168155,-11.194989,-28.489096,-26.148325,-14.611722,-16.216583,-6.447482,4.105494,2.881952,26.527567,62.780540,0.000000,150.000000,4.000000,,,,0.000000,2.000000,4.000000,2.000000,2.000000,2.000000,2.000000,2.000000,2.000000,2.000000,2.000000,2.000000,4.000000,2.000000,4.000000,2.000000,4.000000,4.000000,4.000000,4.000000,4.000000,4.000000,4.000000,4.000000,2.000000,4.000000,4.000000,4.000000,4.000000,4.000000,4.000000,4.000000,4.000000,50.000000
1613958882.369019,69.000000,0.000000,-11.855647,13.059360,65.885246,34.412109,16.270971,26.261929,-4.274450,-17.546377,1.258729,-12.019215,-14.742788,-17.857740,-14.970864,-34.215801,-22.867098,-14.347577,-18.453516,-19.020466,-7.542874,-18.308239,-3.920858,-7.081064,-10.670974,-27.434967,-28.686279,-15.109931,-15.174726,-6.441034,3.075747,0.314967,24.449757,62.204941,0.000000,135.000000,4.000000,,,,0.000000,2.000000,4.000000,2.000000,2.000000,2.000000,2.000000,2.000000,2.000000,2.000000,2.000000,2.000000,4.000000,2.000000,4.000000,2.000000,4.000000,4.000000,4.000000,4.000000,4.000000,4.000000,4.000000,4.000000,2.000000,4.000000,4.000000,4.000000,4.000000,4.000000,4.000000,4.000000,4.000000,50.000000
1613958882.376768,70.000000,0.000000,-15.946356,8.943736,62.229618,35.403336,7.536751,22.645924,-6.321457,-18.041651,-5.409196,-13.545656,-12.676764,-17.839882,-9.314867,-33.668766,-16.690384,-12.281947,-19.973524,-20.027086,-5.996870,-19.828392,-3.404117,-8.099624,-10.660302,-27.407532,-29.683233,-15.607642,-14.646731,-6.434593,4.098312,-1.736630,22.374025,63.681198,0.000000,141.000000,4.000000,,,,0.000000,2.000000,4.000000,2.000000,2.000000,2.000000,2.000000,2.000000,2.000000,2.000000,2.000000,2.000000,4.000000,2.000000,4.000000,2.000000,4.000000,4.000000,4.000000,4.000000,4.000000,4.000000,4.000000,4.000000,2.000000,4.000000,4.000000,4.000000,4.000000,4.000000,4.000000,4.000000,4.000000,50.000000
1613958882.384417,71.000000,0.000000,-15.930409,5.857870,59.603283,35.367935,-2.727196,11.854047,-10.930521,-24.690277,-14.121736,-27.891085,-15.228189,-17.822042,-7.767091,-33.635094,-16.673695,-19.961973,-19.440729,-21.545521,-7.529335,-19.295744,-12.118662,-8.091524,-10.136822,-26.867304,-31.192013,-19.181778,-12.067982,-6.428159,4.607034,-9.427200,19.787550,59.514950,0.000000,135.000000,4.000000,,,,0.000000,2.000000,4.000000,2.000000,2.000000,2.000000,2.000000,2.000000,2.000000,2.000000,2.000000,2.000000,4.000000,2.000000,4.000000,2.000000,4.000000,4.000000,4.000000,4.000000,4.000000,4.000000,4.000000,4.000000,2.000000,4.000000,4.000000,4.000000,4.000000,4.000000,4.000000,4.000000,4.000000,50.000000
1613958882.392166,72.000000,0.000000,-14.376018,5.852012,49.800091,30.204361,-7.852674,1.585782,-12.458052,-29.280972,-15.133255,-38.632423,-16.238602,-17.804220,-7.759324,-33.088638,-16.144199,-28.659960,-19.421289,-29.729103,-15.214112,-18.763628,-30.055262,-14.750099,-10.126685,-26.840435,-41.930050,-21.726698,-14.620016,-6.421731,-0.525778,-24.289568,17.203659,48.686207,0.000000,175.000000,4.000000,,,,0.000000,2.000000,4.000000,2.000000,2.000000,2.000000,2.000000,2.000000,2.000000,2.000000,2.000000,2.000000,4.000000,2.000000,4.000000,2.000000,4.000000,4.000000,4.000000,4.000000,4.000000,4.000000,4.000000,4.000000,2.000000,4.000000,4.000000,4.000000,4.000000,4.000000,4.000000,4.000000,4.000000,50.000000
1613958882.399815,73.000000,0.000000,-15.900103,6.358980,42.057983,23.507490,-8.357641,0.558556,-11.932773,-24.123484,-13.579660,-34.491230,-15.196722,-17.273596,-7.751565,-33.568371,-15.102415,-38.374889,-21.965971,-37.904503,-24.942488,-19.257685,-45.409821,-22.427656,-10.116558,-26.813595,-52.144531,-21.704971,-18.707960,-6.415309,-7.191919,-34.521690,13.596712,40.945213,0.000000,152.000000,4.000000,,,,0.000000,2.000000,4.000000,2.000000,2.000000,2.000000,2.000000,2.000000,2.000000,2.000000,2.000000,2.000000,4.000000,2.000000,4.000000,2.000000,4.000000,4.000000,4.000000,4.000000,4.000000,4.000000,4.000000,4.000000,2.000000,4.000000,4.000000,4.000000,4.000000,4.000000,4.000000,4.000000,4.000000,50.000000
1613958882.407664,74.000000,0.000000,-18.448305,5.839801,44.580029,22.971163,-8.349284,2.096459,-11.920840,-21.022438,-14.591722,-30.354174,-16.207167,-17.769142,-8.256634,-34.560444,-18.677055,-49.618565,-23.482466,-41.969162,-26.456007,-19.751247,-52.543900,-23.943691,-10.106441,-26.786781,-53.630848,-21.683268,-19.202074,-6.408894,-8.210368,-34.487167,9.480551,39.878624,0.000000,151.000000,4.000000,,,,0.000000,2.000000,4.000000,2.000000,2.000000,2.000000,2.000000,2.000000,2.000000,2.000000,2.000000,2.000000,4.000000,2.000000,4.000000,4.000000,2.000000,4.000000,4.000000,4.000000,4.000000,4.000000,4.000000,4.000000,2.000000,4.000000,4.000000,4.000000,4.000000,4.000000,4.000000,4.000000,4.000000,50.000000
1613958882.415413,75.000000,0.000000,-19.455498,6.346781,47.099552,23.973831,-8.340935,1.068721,-12.421740,-21.001415,-14.577129,-31.349461,-16.190960,-17.751373,-10.812480,-34.013065,-31.991713,-59.312538,-24.484625,-49.619499,-28.993654,-21.269958,-61.722122,-22.381285,-11.121976,-26.759995,-52.551575,-21.661583,-18.157230,-6.402485,-7.176517,-32.914219,8.445430,40.351566,0.000000,154.000000,4.000000,,,,0.000000,2.000000,4.000000,2.000000,2.000000,2.000000,2.000000,2.000000,2.000000,2.000000,2.000000,2.000000,4.000000,2.000000,4.000000,4.000000,2.000000,4.000000,4.000000,4.000000,4.000000,4.000000,4.000000,4.000000,2.000000,4.000000,4.000000,4.000000,4.000000,4.000000,4.000000,4.000000,4.000000,50.000000
1613958882.423262,76.000000,0.000000,-18.923222,6.340435,45.513988,22.924217,-8.845414,1.067652,-11.896498,-19.441952,-14.562552,-28.754007,-17.200409,-17.220802,-15.417051,-34.491871,-41.703312,-61.817326,-22.921679,-53.159626,-36.656967,-25.351252,-71.403992,-22.358904,-13.162136,-29.297338,-53.524666,-22.152742,-19.164715,-6.396082,-7.682160,-34.419765,8.949804,39.798397,0.000000,168.000000,4.000000,,,,0.000000,2.000000,4.000000,2.000000,2.000000,2.000000,2.000000,2.000000,2.000000,2.000000,2.000000,2.000000,4.000000,4.000000,4.000000,4.000000,2.000000,4.000000,4.000000,4.000000,4.000000,4.000000,4.000000,4.000000,2.000000,4.000000,4.000000,4.000000,4.000000,4.000000,4.000000,4.000000,4.000000,50.000000
1613958882.431011,77.000000,0.000000,-18.904299,6.334094,46.494118,23.414114,-8.836569,1.579405,-11.884602,-26.089178,-14.547990,-28.212433,-20.772953,-18.229221,-21.042660,-42.662506,-40.635967,-60.217049,-22.898756,-52.593643,-43.799797,-30.966927,-74.409508,-31.567314,-15.713077,-33.370605,-52.445499,-21.617769,-18.632729,-6.389686,-5.623196,-33.872524,8.940855,40.271420,0.000000,157.000000,4.000000,,,,0.000000,2.000000,4.000000,2.000000,2.000000,2.000000,2.000000,2.000000,2.000000,2.000000,2.000000,2.000000,4.000000,4.000000,4.000000,4.000000,2.000000,4.000000,4.000000,4.000000,4.000000,4.000000,4.000000,4.000000,2.000000,4.000000,4.000000,4.000000,4.000000,4.000000,4.000000,4.000000,4.000000,50.000000
1613958882.438860,78.000000,0.000000,-19.398214,6.327760,49.011726,26.467623,-7.289270,2.090646,-11.872717,-34.781036,-14.020621,-30.235502,-23.829103,-20.775095,-23.585720,-47.235229,-40.595329,-61.182472,-30.568165,-62.284641,-49.909843,-35.551342,-70.745354,-41.792156,-20.312748,-34.362873,-53.418697,-21.596151,-18.614096,-6.383296,-3.053470,-26.659166,8.931913,40.231148,0.000000,155.000000,4.000000,,,,0.000000,2.000000,4.000000,2.000000,2.000000,2.000000,2.000000,2.000000,2.000000,2.000000,2.000000,2.000000,4.000000,4.000000,4.000000,4.000000,2.000000,4.000000,4.000000,4.000000,4.000000,4.000000,4.000000,4.000000,2.000000,4.000000,4.000000,4.000000,4.000000,4.000000,4.000000,4.000000,4.000000,50.000000
1613958882.446609,79.000000,0.000000,-18.865995,6.321432,49.988354,27.466795,-8.307622,2.088556,-11.860844,-30.643692,-14.006600,-29.179626,-25.343735,-21.779961,-24.587776,-35.393124,-40.554733,-53.428982,-33.101700,-64.273636,-45.757370,-33.464512,-56.828457,-37.134979,-22.343718,-35.866974,-49.262714,-22.600197,-18.595482,-6.376913,-3.563237,-18.427378,8.410161,40.190914,0.000000,141.000000,4.000000,,,,0.000000,2.000000,4.000000,2.000000,2.000000,2.000000,2.000000,2.000000,2.000000,2.000000,2.000000,2.000000,4.000000,4.000000,4.000000,4.000000,2.000000,4.000000,4.000000,4.000000,4.000000,4.000000,4.000000,4.000000,2.000000,4.000000,4.000000,4.000000,4.000000,4.000000,4.000000,4.000000,4.000000,50.000000
1613958882.454458,80.000000,0.000000,-18.847130,6.315111,50.964008,26.926508,-10.350596,1.573647,-11.848983,-24.459202,-16.043877,-27.611986,-18.138905,-21.245361,-24.050367,-20.485935,-28.719309,-28.247349,-23.325008,-37.029877,-23.147511,-22.148994,-28.566502,-25.302973,-18.731630,-34.805466,-33.828835,-21.551954,-16.012783,-6.370536,-3.559674,-17.383310,9.427392,45.278931,0.000000,157.000000,4.000000,,,,0.000000,2.000000,4.000000,2.000000,2.000000,2.000000,2.000000,2.000000,2.000000,2.000000,2.000000,2.000000,4.000000,4.000000,4.000000,4.000000,2.000000,4.000000,4.000000,4.000000,4.000000,4.000000,4.000000,4.000000,2.000000,4.000000,4.000000,4.000000,4.000000,4.000000,4.000000,4.000000,4.000000,50.000000
1613958882.462207,81.000000,0.000000,-18.828283,6.308796,52.964325,26.899582,0.428985,4.136176,-11.837134,-24.434742,-8.848345,-23.481810,-2.736150,-21.736937,-12.231445,-17.901346,-5.613666,3.575771,-15.096555,-5.197975,2.516662,-4.690948,-1.871268,-19.123825,-14.610334,-21.950148,-18.923210,-17.940660,-12.407027,-6.364166,-3.043294,-19.417210,11.982067,52.925957,0.000000,168.000000,4.000000,,,,0.000000,2.000000,4.000000,2.000000,2.000000,2.000000,2.000000,2.000000,2.000000,2.000000,2.000000,2.000000,4.000000,4.000000,4.000000,4.000000,2.000000,4.000000,4.000000,4.000000,4.000000,4.000000,4.000000,4.000000,2.000000,4.000000,4.000000,4.000000,4.000000,4.000000,4.000000,4.000000,4.000000,50.000000
1613958882.470056,82.000000,0.000000,-18.809454,6.302487,53.937000,27.385502,13.249068,7.721783,-11.825297,-17.230822,2.955375,-14.227558,6.497355,-19.663918,3.678222,-19.934727,14.391948,28.700401,-13.030176,9.166198,16.873119,10.185537,11.976757,-12.438034,-12.031622,-9.107684,-13.776083,-14.845796,-10.856159,-6.357801,-4.065892,-18.884972,11.970085,55.949955,0.000000,170.000000,4.000000,,,,0.000000,2.000000,4.000000,2.000000,2.000000,2.000000,2.000000,2.000000,2.000000,2.000000,2.000000,2.000000,4.000000,4.000000,4.000000,4.000000,2.000000,4.000000,4.000000,4.000000,4.000000,4.000000,4.000000,4.000000,2.000000,4.000000,4.000000,4.000000,4.000000,4.000000,4.000000,4.000000,4.000000,50.000000
1613958882.477805,83.000000,0.000000,-16.739363,6.296185,52.344604,26.332476,10.671717,9.252522,-11.813472,-9.521282,1.926779,-11.649228,6.490858,-15.541689,10.341210,-18.376329,21.044222,32.774265,-9.427402,10.182673,21.471632,14.277916,16.580164,-6.784570,-10.993949,-7.560115,-12.736666,-12.266848,-12.383764,-6.351444,-3.549005,-17.840445,12.983756,54.868362,0.000000,164.000000,4.000000,,,,0.000000,2.000000,4.000000,2.000000,2.000000,2.000000,2.000000,2.000000,2.000000,2.000000,2.000000,2.000000,4.000000,4.000000,4.000000,4.000000,2.000000,4.000000,4.000000,4.000000,4.000000,4.000000,4.000000,4.000000,2.000000,4.000000,4.000000,4.000000,4.000000,4.000000,4.000000,4.000000,4.000000,50.000000
1613958882.485654,84.000000,0.000000,-14.671342,6.289888,54.856361,27.844604,8.609763,9.243270,-11.801658,-12.075864,-2.690533,-13.176041,5.458726,-13.987685,9.305228,-18.357954,16.920614,13.254311,-7.879514,2.480182,17.860416,13.750817,10.922559,-8.829068,-10.470135,-8.578196,-11.185468,-6.613555,-9.294457,-6.345092,1.582749,-19.361067,19.637440,54.813496,0.000000,165.000000,4.000000,,,,0.000000,2.000000,4.000000,2.000000,2.000000,2.000000,2.000000,2.000000,2.000000,2.000000,2.000000,2.000000,4.000000,4.000000,4.000000,4.000000,2.000000,4.000000,4.000000,4.000000,4.000000,4.000000,4.000000,4.000000,2.000000,4.000000,4.000000,4.000000,4.000000,4.000000,4.000000,4.000000,4.000000,50.000000
1613958882.493403,85.000000,0.000000,-15.169491,6.283598,61.468170,32.944965,18.857563,11.798129,-11.789857,-11.038147,8.081388,-5.470557,6.991729,-13.460877,10.321565,-18.852417,13.826771,-4.194841,-8.384455,-4.188965,13.227171,14.249887,3.219329,-11.897161,-6.869921,-4.979874,-10.661461,-0.453095,-2.618496,-6.338747,4.145268,-18.316065,24.746006,56.809963,0.000000,172.000000,4.000000,,,,0.000000,2.000000,4.000000,2.000000,2.000000,2.000000,2.000000,2.000000,2.000000,2.000000,2.000000,2.000000,4.000000,4.000000,4.000000,4.000000,2.000000,4.000000,4.000000,4.000000,4.000000,4.000000,4.000000,4.000000,2.000000,4.000000,4.000000,4.000000,4.000000,4.000000,4.000000,4.000000,4.000000,50.000000
1613958882.501153,86.000000,0.000000,-15.667142,6.277315,64.996445,34.963303,20.377167,13.324793,-11.778067,-5.386083,15.765615,4.791324,6.471917,-11.396134,10.824063,-18.833565,13.300123,-6.241929,-6.324788,-5.723238,9.111381,10.645894,0.652007,-11.372444,-0.196384,-3.949253,-8.599518,3.137101,0.461045,-6.332408,2.602662,-5.990056,23.182800,58.804436,0.000000,161.000000,4.000000,,,,0.000000,2.000000,4.000000,2.000000,2.000000,2.000000,2.000000,2.000000,2.000000,2.000000,2.000000,2.000000,4.000000,4.000000,4.000000,4.000000,2.000000,4.000000,4.000000,4.000000,4.000000,4.000000,4.000000,4.000000,2.000000,4.000000,4.000000,4.000000,4.000000,4.000000,4.000000,4.000000,4.000000,50.000000
1613958882.508902,87.000000,0.000000,-14.113013,6.271038,64.418633,35.441158,12.151662,13.824288,-11.766289,-6.406338,4.980618,2.222430,4.926983,-9.333456,8.249137,-18.301910,8.158618,-15.466455,-5.292822,-16.486746,-4.231065,0.891658,-8.579414,-11.361072,1.342274,-4.970945,-8.078097,4.159606,-0.565057,-6.326076,4.651341,8.374908,23.672438,58.745632,0.000000,161.000000,4.000000,,,,0.000000,2.000000,4.000000,2.000000,2.000000,2.000000,2.000000,2.000000,2.000000,2.000000,2.000000,2.000000,4.000000,4.000000,4.000000,4.000000,2.000000,4.000000,4.000000,4.000000,4.000000,4.000000,4.000000,4.000000,2.000000,4.000000,4.000000,4.000000,4.000000,4.000000,4.000000,4.000000,4.000000,50.000000
1613958882.516551,88.000000,0.000000,-11.534798,6.264766,64.354210,34.892899,10.601049,13.297644,-11.754522,-8.964034,-3.742311,-4.446459,2.357954,-9.836943,5.676785,-18.796429,-2.105951,-32.374065,-8.364452,-32.367695,-16.021706,-5.775900,-19.852886,-11.862532,0.315290,-5.478795,-9.095660,4.155446,-0.564492,-6.319750,12.338998,11.956277,28.776970,57.148426,0.000000,168.000000,4.000000,,,,0.000000,2.000000,4.000000,2.000000,2.000000,2.000000,2.000000,2.000000,2.000000,2.000000,2.000000,2.000000,4.000000,4.000000,4.000000,4.000000,2.000000,4.000000,4.000000,4.000000,4.000000,4.000000,4.000000,4.000000,2.000000,4.000000,4.000000,4.000000,4.000000,4.000000,4.000000,4.000000,4.000000,50.000000
1613958882.524300,89.000000,0.000000,-11.010443,5.745681,64.289856,33.832363,5.975063,12.258705,-11.742767,-12.031993,-3.225748,-4.442012,1.329955,-10.339927,5.671108,-18.264812,-4.667948,-35.931435,-9.381729,-33.873787,-14.980042,-6.795765,-13.679188,-11.850669,0.827796,-5.473316,-6.522462,4.151290,-0.563927,-6.826251,17.967684,9.893039,31.312296,58.629738,0.000000,188.000000,4.000000,,,,0.000000,2.000000,4.000000,2.000000,2.000000,2.000000,2.000000,2.000000,2.000000,2.000000,2.000000,2.000000,4.000000,4.000000,4.000000,4.000000,2.000000,4.000000,4.000000,4.000000,4.000000,4.000000,4.000000,4.000000,2.000000,4.000000,4.000000,4.000000,4.000000,4.000000,4.000000,4.000000,4.000000,50.000000
1613958882.532049,90.000000,0.000000,-11.512253,6.765576,63.712746,35.849815,0.840883,13.784908,-11.731025,-17.660986,-2.196881,-7.514493,3.379907,-9.816766,3.614155,-18.759367,-2.099177,-34.869862,-8.346706,-29.224529,-13.939422,-6.276149,-5.973200,-11.838818,0.826968,-5.467843,-1.900555,4.147139,-0.563363,-6.819425,18.462538,11.421607,30.768162,64.724953,0.000000,169.000000,4.000000,,,,0.000000,2.000000,4.000000,2.000000,2.000000,2.000000,2.000000,2.000000,2.000000,2.000000,2.000000,2.000000,4.000000,4.000000,4.000000,4.000000,2.000000,4.000000,4.000000,4.000000,4.000000,4.000000,4.000000,4.000000,2.000000,4.000000,4.000000,4.000000,4.000000,4.000000,4.000000,4.000000,4.000000,50.000000
1613958882.539798,91.000000,0.000000,-11.500740,6.758811,62.623394,34.275501,0.840042,12.745482,-11.719294,-20.720249,-2.194685,-21.353132,0.812424,-10.319770,-1.517664,-27.458557,-7.225283,-43.552940,-8.851180,-32.272228,-16.489584,-6.269873,-14.172356,-11.826980,-0.712321,-5.462375,-0.873014,3.117351,-0.562800,-3.735682,17.931253,10.897366,30.224573,64.147408,0.000000,154.000000,4.000000,,,,0.000000,2.000000,4.000000,2.000000,2.000000,2.000000,2.000000,2.000000,2.000000,2.000000,2.000000,2.000000,4.000000,4.000000,4.000000,4.000000,2.000000,4.000000,4.000000,4.000000,4.000000,4.000000,4.000000,4.000000,2.000000,4.000000,4.000000,4.000000,4.000000,4.000000,4.000000,4.000000,4.000000,50.000000
1613958882.547447,92.000000,0.000000,-10.976419,1.623847,55.894104,18.343792,-16.596695,0.937865,-11.707575,-22.237989,-9.884797,-33.639473,-11.496080,-10.309450,-5.618711,-41.277252,-17.987289,-49.663235,-8.842329,-32.239956,-16.473095,-6.776423,-21.850491,-11.815152,-3.275711,-7.508194,-1.384961,3.627054,-1.587878,-3.219126,18.426144,10.373648,30.707170,57.416595,0.000000,160.000000,4.000000,,,,0.000000,2.000000,4.000000,2.000000,2.000000,2.000000,2.000000,2.000000,2.000000,2.000000,2.000000,2.000000,4.000000,4.000000,4.000000,4.000000,2.000000,4.000000,4.000000,4.000000,4.000000,4.000000,4.000000,4.000000,2.000000,4.000000,4.000000,4.000000,4.000000,4.000000,4.000000,4.000000,4.000000,50.000000
1613958882.555196,93.000000,0.000000,-11.478263,-0.941879,52.248466,4.992114,-32.990356,-9.319484,-11.695868,-26.318316,-23.208246,-35.144295,-20.715353,-10.299141,-5.613092,-47.389820,-17.969301,-41.921265,-8.833487,-25.028229,-17.482264,-5.744006,-21.315821,-12.316157,-4.298076,-9.551969,-1.896397,3.623427,0.464992,-2.703086,18.407717,14.465837,30.676462,58.897640,0.000000,172.000000,4.000000,,,,0.000000,2.000000,4.000000,2.000000,2.000000,2.000000,2.000000,2.000000,2.000000,2.000000,2.000000,2.000000,4.000000,4.000000,4.000000,4.000000,2.000000,4.000000,4.000000,4.000000,4.000000,4.000000,4.000000,4.000000,2.000000,4.000000,4.000000,4.000000,4.000000,4.000000,4.000000,4.000000,4.000000,50.000000
1613958882.562846,94.000000,0.000000,-11.466784,1.623165,58.862885,11.140968,-13.470185,-8.284523,-11.684172,-28.856100,-24.723499,-34.083508,-20.694639,-10.288841,-5.094658,-44.265507,-9.233383,-29.571651,-8.824654,-17.823713,-12.849396,-2.148518,-18.217581,-11.278200,-2.755316,-9.029595,-1.381680,3.106983,4.567091,2.940643,17.876490,18.553936,30.645786,67.556694,0.000000,149.000000,4.000000,,,,0.000000,2.000000,4.000000,2.000000,2.000000,2.000000,2.000000,2.000000,2.000000,2.000000,2.000000,2.000000,4.000000,4.000000,4.000000,4.000000,2.000000,4.000000,4.000000,4.000000,4.000000,4.000000,4.000000,2.000000,2.000000,4.000000,4.000000,4.000000,4.000000,4.000000,4.000000,4.000000,4.000000,50.000000
1613958882.570595,95.000000,0.000000,-11.455318,2.647183,58.804020,17.796494,-0.636202,-4.686495,-11.672487,-27.801603,-18.544930,-34.562244,-19.648302,-10.278553,-5.602384,-38.580215,-5.121586,-21.336950,-8.815828,-11.652043,2.548069,2.469015,-5.891671,-8.702820,-0.188459,-4.405181,2.722266,4.642337,8.152267,8.578728,17.858612,16.996922,30.615141,68.514778,0.000000,132.000000,4.000000,,,,0.000000,2.000000,4.000000,2.000000,2.000000,2.000000,2.000000,2.000000,2.000000,2.000000,2.000000,2.000000,4.000000,4.000000,4.000000,4.000000,2.000000,4.000000,4.000000,4.000000,4.000000,4.000000,4.000000,2.000000,2.000000,4.000000,4.000000,4.000000,4.000000,4.000000,4.000000,4.000000,4.000000,50.000000
1613958882.578244,96.000000,0.000000,-10.931043,2.644536,45.924706,14.188953,-19.097105,-5.707449,-11.660814,-28.286623,-19.552025,-34.527683,-20.141476,-9.755454,-5.083961,-33.926250,-6.654926,-18.751511,-8.807013,-9.589109,11.776290,2.466546,7.960374,-7.668476,0.324550,0.214608,6.309287,10.791541,9.682577,9.082970,17.840754,13.903001,30.071705,64.343697,8064.000000,0.000000,4.000000,,,,0.000000,2.000000,4.000000,2.000000,2.000000,2.000000,2.000000,2.000000,2.000000,2.000000,2.000000,2.000000,4.000000,4.000000,4.000000,4.000000,2.000000,4.000000,4.000000,4.000000,4.000000,4.000000,4.000000,2.000000,2.000000,4.000000,4.000000,4.000000,4.000000,4.000000,4.000000,4.000000,4.000000,50.000000
1613958882.585993,97.000000,0.000000,-11.432932,7.257276,49.981342,17.251688,-17.026726,-6.214562,-11.649154,-27.745516,-20.045294,-33.980335,-17.557230,-9.745698,-5.078877,-28.764120,-6.135450,-16.681479,-8.798205,-9.579520,11.251693,1.438438,11.029337,-7.660807,0.324226,2.778496,6.302978,16.421776,10.698535,9.073887,18.335733,13.889097,31.067274,64.792175,8064.000000,0.000000,4.000000,,,,0.000000,2.000000,4.000000,2.000000,2.000000,2.000000,2.000000,2.000000,2.000000,2.000000,2.000000,2.000000,4.000000,4.000000,4.000000,4.000000,2.000000,4.000000,4.000000,4.000000,4.000000,4.000000,4.000000,2.000000,2.000000,4.000000,4.000000,4.000000,4.000000,4.000000,4.000000,4.000000,4.000000,50.000000
1613958882.593642,98.000000,0.000000,-11.421499,10.839762,60.700592,24.413923,2.990302,-5.182707,-11.637505,-25.153667,-12.332941,-33.946354,-15.488392,-10.248773,-5.073799,-21.555870,-5.616494,-15.639155,-8.789408,-8.031480,10.727621,2.975461,9.992667,-7.653147,0.323902,2.775718,6.296675,14.354072,11.713478,8.039171,16.778936,14.388029,31.549026,66.778664,8064.000000,0.000000,4.000000,,,,0.000000,2.000000,4.000000,2.000000,2.000000,2.000000,2.000000,2.000000,2.000000,2.000000,2.000000,2.000000,4.000000,4.000000,4.000000,4.000000,2.000000,4.000000,4.000000,4.000000,4.000000,4.000000,4.000000,2.000000,2.000000,4.000000,4.000000,4.000000,4.000000,4.000000,4.000000,4.000000,4.000000,50.000000
1613958882.601391,99.000000,0.000000,-10.897257,10.316102,43.203995,17.722843,-4.704997,-5.177524,-11.625867,-23.590052,-8.730865,-33.912407,-15.985723,-9.725704,-4.555904,-17.431749,-8.687800,-21.264542,-8.780619,-12.126012,5.075868,-0.104437,8.957033,-8.158314,0.323578,1.234481,5.264737,7.160230,8.624841,3.415748,14.198054,12.322359,25.876453,63.122143,8064.000000,0.000000,4.000000,,,,0.000000,2.000000,4.000000,2.000000,2.000000,2.000000,2.000000,2.000000,2.000000,2.000000,2.000000,2.000000,4.000000,4.000000,4.000000,4.000000,2.000000,4.000000,4.000000,4.000000,4.000000,4.000000,4.000000,2.000000,2.000000,4.000000,4.000000,4.000000,4.000000,4.000000,4.000000,4.000000,4.000000,50.000000
1613958882.609040,100.000000,0.000000,-11.399180,9.792965,30.340279,7.961530,-20.597727,-5.685167,-11.614242,-23.566462,-10.260595,-33.878494,-14.944097,-9.715978,-5.064169,-18.439959,-14.832959,-32.525330,-8.771837,-25.960039,-7.749721,-9.847922,4.332692,-6.611694,0.836075,-0.305215,1.669729,2.024865,1.949550,1.361050,14.183857,10.258755,22.773653,57.417992,8064.000000,0.000000,4.000000,,,,0.000000,2.000000,4.000000,2.000000,2.000000,2.000000,2.000000,2.000000,2.000000,2.000000,2.000000,2.000000,4.000000,4.000000,4.000000,4.000000,2.000000,4.000000,4.000000,4.000000,4.000000,4.000000,4.000000,2.000000,2.000000,4.000000,4.000000,4.000000,4.000000,4.000000,4.000000,4.000000,4.000000,50.000000
1613958882.616789,101.000000,0.000000,-13.951883,10.295993,46.720196,13.594594,-16.474566,-3.628200,-11.602627,-24.055716,-10.250335,-34.357437,-12.365050,-11.757545,-7.623207,-18.421518,-21.484793,-40.185112,-8.763065,-34.139210,-13.382998,-17.017561,-2.338308,-9.169185,0.322418,-2.356192,-0.896043,-1.054083,-1.642144,-0.691593,14.169673,9.735675,24.289341,57.360577,8064.000000,0.000000,4.000000,,,,0.000000,2.000000,4.000000,2.000000,2.000000,2.000000,2.000000,2.000000,2.000000,2.000000,2.000000,2.000000,4.000000,4.000000,4.000000,4.000000,2.000000,4.000000,4.000000,4.000000,4.000000,4.000000,4.000000,2.000000,2.000000,4.000000,4.000000,4.000000,4.000000,4.000000,4.000000,4.000000,4.000000,50.000000
1613958882.624439,102.000000,0.000000,-15.476393,10.285697,50.263218,19.734846,-10.817065,-1.573290,-11.591024,-24.031660,-9.727264,-34.323082,-11.839865,-13.797069,-9.154045,-18.403097,-25.053051,-43.734669,-8.754303,-33.592247,-12.856793,-17.513365,-9.002636,-16.339502,-3.780468,-6.456400,-2.946429,-3.617131,-0.614860,-7.357568,8.514478,8.187478,17.085564,56.277573,8064.000000,0.000000,4.000000,,,,0.000000,2.000000,4.000000,2.000000,2.000000,2.000000,2.000000,2.000000,2.000000,2.000000,2.000000,2.000000,4.000000,4.000000,4.000000,4.000000,2.000000,4.000000,4.000000,4.000000,4.000000,4.000000,4.000000,2.000000,2.000000,4.000000,4.000000,4.000000,4.000000,4.000000,4.000000,4.000000,4.000000,50.000000
1613958882.632188,103.000000,0.000000,-14.948096,8.224129,33.289879,13.048445,-14.395992,-1.058896,-11.579433,-23.494808,-10.230357,-33.263115,-12.340845,-13.783272,-9.144892,-18.897514,-22.976717,-44.716576,-8.745548,-32.533016,-12.331117,-16.470211,-13.096198,-19.400087,-2.751047,-11.065329,-5.507586,-5.151976,-0.614246,-10.427134,2.864937,5.615188,4.760787,45.964886,8192.000000,0.000000,4.000000,,,,0.000000,2.000000,4.000000,2.000000,2.000000,2.000000,2.000000,2.000000,2.000000,2.000000,2.000000,2.000000,4.000000,4.000000,4.000000,4.000000,2.000000,4.000000,4.000000,4.000000,4.000000,4.000000,4.000000,2.000000,2.000000,4.000000,4.000000,4.000000,4.000000,4.000000,4.000000,4.000000,4.000000,50.000000
1613958882.639837,104.000000,0.000000,-14.933148,6.164623,35.820690,9.958473,-17.971340,-1.570657,-11.567854,-24.496954,-10.220127,-34.768314,-12.328505,-13.769488,-8.622926,-18.878616,-20.902458,-43.133396,-8.736803,-32.500481,-12.831606,-16.966560,-13.595922,-19.380686,0.328627,-13.105545,-3.450796,-4.634003,-1.639272,-7.339784,2.349252,6.122393,4.243205,46.431740,8064.000000,0.000000,4.000000,,,,0.000000,2.000000,4.000000,2.000000,2.000000,2.000000,2.000000,2.000000,2.000000,2.000000,2.000000,2.000000,4.000000,4.000000,4.000000,4.000000,2.000000,4.000000,4.000000,4.000000,4.000000,4.000000,4.000000,2.000000,2.000000,4.000000,4.000000,4.000000,4.000000,4.000000,4.000000,4.000000,4.000000,50.000000
1613958882.647686,105.000000,0.000000,-14.918215,5.645638,49.631023,20.204926,-12.825163,-2.081907,-11.556286,-23.959637,-10.209907,-34.220726,-12.316176,-13.755719,-9.127124,-19.885380,-21.907196,-40.013340,-8.728066,-31.955160,-13.844415,-17.462414,-15.120788,-22.438229,-4.799907,-13.092440,1.680860,-3.603728,-0.611992,-5.793982,3.372544,9.706015,11.418449,61.769924,8064.000000,0.000000,4.000000,,,,0.000000,2.000000,4.000000,2.000000,2.000000,2.000000,2.000000,2.000000,2.000000,2.000000,2.000000,2.000000,4.000000,4.000000,4.000000,4.000000,2.000000,4.000000,4.000000,4.000000,4.000000,4.000000,4.000000,2.000000,2.000000,4.000000,4.000000,4.000000,4.000000,4.000000,4.000000,4.000000,4.000000,50.000000
1613958882.655435,106.000000,0.000000,-14.903296,6.152812,50.094212,27.877028,2.572278,-1.567005,-11.544730,-19.833113,-10.199697,-26.494198,-12.816680,-13.741963,-9.117996,-18.839853,-20.346828,-33.819481,-8.719338,-23.718077,-8.189545,-16.932131,-12.541564,-22.415791,-10.436132,-13.592168,1.679179,-5.138586,-1.124201,-6.813829,2.856351,10.209129,11.919851,62.733795,8064.000000,0.000000,4.000000,,,,0.000000,2.000000,4.000000,2.000000,2.000000,2.000000,2.000000,2.000000,2.000000,2.000000,2.000000,2.000000,4.000000,4.000000,4.000000,4.000000,2.000000,4.000000,4.000000,4.000000,4.000000,4.000000,4.000000,2.000000,2.000000,4.000000,4.000000,4.000000,4.000000,4.000000,4.000000,4.000000,4.000000,50.000000
1613958882.663284,107.000000,0.000000,-14.888393,6.146660,47.480015,26.823509,9.749192,-1.565438,-11.533185,-16.223536,-10.702317,-18.262575,-12.291043,-13.728221,-8.596058,-17.282551,-13.146994,-28.144636,-8.710619,-10.361026,2.587875,-13.325456,-5.862356,-16.752350,-6.835953,-12.552935,2.190320,-4.107807,-0.610256,-6.807015,2.340674,9.173279,10.882291,50.363369,8064.000000,0.000000,4.000000,,,,0.000000,2.000000,4.000000,2.000000,2.000000,2.000000,2.000000,2.000000,2.000000,2.000000,2.000000,2.000000,4.000000,4.000000,4.000000,4.000000,2.000000,4.000000,4.000000,4.000000,4.000000,4.000000,4.000000,2.000000,2.000000,4.000000,4.000000,4.000000,4.000000,4.000000,4.000000,4.000000,4.000000,50.000000
1613958882.671033,108.000000,0.000000,-14.873505,5.627693,47.945354,26.283865,1.534315,-2.076693,-11.521652,-16.720133,-10.178795,-18.757133,-12.278752,-13.714493,-5.510539,-16.752449,-9.031282,-25.552389,-9.214728,-5.222460,7.200672,-9.722387,-3.292391,-15.197135,-3.239373,-9.463458,6.803515,4.101429,0.928816,-6.287388,5.928077,12.753849,15.999614,52.877110,8064.000000,0.000000,4.000000,,,,0.000000,2.000000,4.000000,2.000000,2.000000,2.000000,2.000000,2.000000,2.000000,2.000000,2.000000,2.000000,4.000000,4.000000,4.000000,4.000000,2.000000,4.000000,4.000000,4.000000,4.000000,4.000000,4.000000,2.000000,2.000000,4.000000,4.000000,4.000000,4.000000,4.000000,4.000000,4.000000,4.000000,50.000000
1613958882.678882,109.000000,0.000000,-15.371452,6.134885,50.461514,29.334505,0.507140,-0.536155,-11.510130,-16.703413,-7.604514,-19.251196,-12.779294,-13.700778,-2.940926,-9.556209,-9.535071,-15.270427,-9.205514,-5.730058,7.193471,-9.199844,2.864747,-13.130656,-3.236134,-6.377072,9.873634,11.789636,2.466349,-5.768280,10.537533,19.407763,23.675920,65.131927,8064.000000,0.000000,4.000000,,,,0.000000,2.000000,4.000000,2.000000,2.000000,2.000000,2.000000,2.000000,2.000000,2.000000,2.000000,2.000000,4.000000,4.000000,4.000000,4.000000,2.000000,4.000000,4.000000,4.000000,4.000000,4.000000,4.000000,2.000000,2.000000,4.000000,4.000000,4.000000,4.000000,4.000000,4.000000,4.000000,4.000000,50.000000
1613958882.686631,110.000000,0.000000,-13.817619,6.128750,55.026436,30.843632,10.250222,4.079766,-11.498620,-14.122607,-3.494345,-12.565279,-11.228053,-14.199898,-0.886703,1.222578,-10.038357,-0.383361,-5.093744,0.429518,12.314483,-3.549618,18.246498,-4.399577,0.356846,-2.780951,11.402223,11.777846,4.515164,-3.198409,13.603919,21.952457,27.241989,65.579613,8064.000000,0.000000,4.000000,,,,0.000000,2.000000,4.000000,2.000000,2.000000,2.000000,2.000000,2.000000,2.000000,2.000000,2.000000,2.000000,4.000000,4.000000,4.000000,4.000000,2.000000,4.000000,4.000000,4.000000,4.000000,4.000000,4.000000,2.000000,2.000000,4.000000,4.000000,4.000000,4.000000,4.000000,4.000000,4.000000,4.000000,50.000000
1613958882.694480,111.000000,0.000000,-11.239698,6.122622,52.407307,30.299967,10.752792,6.126968,-11.487122,-12.570023,-2.465209,-7.424509,-7.114261,-13.672877,3.216748,3.785458,-9.515498,6.283689,-0.986086,7.095755,19.481655,3.633418,26.433380,0.733028,4.459053,0.811573,12.929281,10.740427,9.126034,-0.118288,14.103135,20.904863,26.701927,63.462749,8064.000000,0.000000,4.000000,,,,0.000000,2.000000,4.000000,2.000000,2.000000,2.000000,2.000000,2.000000,2.000000,2.000000,2.000000,2.000000,4.000000,4.000000,4.000000,4.000000,2.000000,4.000000,4.000000,4.000000,4.000000,4.000000,4.000000,2.000000,2.000000,4.000000,4.000000,4.000000,4.000000,4.000000,4.000000,4.000000,4.000000,50.000000
1613958882.702229,112.000000,0.000000,-10.715639,5.603679,48.252335,29.756847,6.639476,5.608021,-11.475635,-12.557453,-2.975565,-7.929904,-4.543044,-13.659204,6.803275,-0.320892,-9.505982,4.738944,-0.985100,5.037377,18.436533,-0.472779,23.842844,-0.293346,4.967415,2.349223,13.429173,11.242507,11.168190,1.420292,14.089032,20.883959,26.675224,64.937752,8064.000000,0.000000,4.000000,,,,0.000000,2.000000,4.000000,2.000000,2.000000,2.000000,2.000000,2.000000,2.000000,2.000000,2.000000,2.000000,4.000000,4.000000,4.000000,4.000000,2.000000,4.000000,4.000000,4.000000,4.000000,4.000000,4.000000,2.000000,2.000000,4.000000,4.000000,4.000000,4.000000,4.000000,4.000000,4.000000,4.000000,50.000000
1613958882.710078,113.000000,0.000000,-11.217744,7.136537,55.383572,30.239910,7.145657,5.602413,-11.464159,-13.570537,-2.972589,-8.434795,-5.051322,-14.671186,6.283651,-0.833391,-10.009297,4.734204,-1.496936,0.929776,12.777071,-6.113332,24.844643,-0.805873,6.500909,2.346874,13.928564,11.231265,10.131381,0.906051,14.074944,21.375895,27.161369,63.334351,8064.000000,0.000000,4.000000,,,,0.000000,2.000000,4.000000,2.000000,2.000000,2.000000,2.000000,2.000000,2.000000,2.000000,2.000000,2.000000,4.000000,4.000000,4.000000,4.000000,2.000000,4.000000,4.000000,4.000000,4.000000,4.000000,4.000000,2.000000,2.000000,4.000000,4.000000,4.000000,4.000000,4.000000,4.000000,4.000000,4.000000,50.000000
1613958882.717827,114.000000,0.000000,-11.206526,9.180682,53.276905,30.722492,5.600049,6.622451,-11.452695,-12.531325,-2.456796,-7.913540,-5.046270,-12.605233,5.764547,0.193083,-9.999288,5.242290,0.555843,0.928846,10.713012,0.559448,23.281336,0.220574,8.032869,2.344527,12.888994,11.220034,12.172531,0.905145,14.060868,20.841698,26.621387,59.168453,8064.000000,0.000000,4.000000,,,,0.000000,2.000000,4.000000,2.000000,2.000000,2.000000,2.000000,2.000000,2.000000,2.000000,2.000000,2.000000,4.000000,4.000000,4.000000,4.000000,2.000000,4.000000,4.000000,4.000000,4.000000,4.000000,4.000000,2.000000,2.000000,4.000000,4.000000,4.000000,4.000000,4.000000,4.000000,4.000000,4.000000,50.000000
1613958882.725676,115.000000,0.000000,-10.682499,10.197143,38.351833,29.666128,-1.072217,5.077367,-11.441242,-10.467511,-2.967160,-7.905626,-4.528403,-7.977243,6.784423,-0.319930,-9.989288,5.237049,3.119390,1.440738,10.189478,5.174273,11.976004,0.220353,8.024837,1.829362,6.209439,10.183172,13.698820,1.417061,14.046807,20.820856,26.594767,54.493900,8064.000000,0.000000,4.000000,,,,0.000000,2.000000,4.000000,2.000000,2.000000,2.000000,2.000000,2.000000,2.000000,2.000000,2.000000,2.000000,4.000000,4.000000,4.000000,4.000000,2.000000,4.000000,4.000000,4.000000,4.000000,4.000000,4.000000,2.000000,2.000000,4.000000,4.000000,4.000000,4.000000,4.000000,4.000000,4.000000,4.000000,50.000000
1613958882.733425,116.000000,0.000000,-11.184637,9.161304,42.416046,29.636461,-1.583965,5.072290,-11.429801,-8.918583,-2.964193,-8.410541,-5.036695,-5.405164,5.751998,-1.345252,-9.979300,-1.947676,2.603450,-5.227370,4.025443,-2.010388,4.271719,-3.882431,8.529633,2.340353,1.587845,7.096066,10.095378,0.902823,14.032761,21.312857,26.568172,50.849663,8192.000000,0.000000,4.000000,,,,0.000000,2.000000,4.000000,2.000000,2.000000,2.000000,2.000000,2.000000,2.000000,2.000000,2.000000,2.000000,4.000000,4.000000,4.000000,4.000000,2.000000,4.000000,4.000000,4.000000,4.000000,4.000000,4.000000,2.000000,2.000000,4.000000,4.000000,4.000000,4.000000,4.000000,4.000000,4.000000,4.000000,50.000000
1613958882.741274,117.000000,0.000000,-11.173452,9.664964,55.706963,31.145287,0.981721,9.169782,-11.418371,-9.422484,-2.448408,-7.889310,-5.031659,-6.425400,5.746246,-3.395188,-9.969320,-15.791882,-1.501717,-14.452911,-2.132429,-7.136583,4.267448,-7.981113,5.444180,1.825192,1.586257,6.576149,6.495539,0.901920,14.018728,20.265903,26.028784,50.798813,8064.000000,0.000000,4.000000,,,,0.000000,2.000000,4.000000,2.000000,2.000000,2.000000,2.000000,2.000000,2.000000,2.000000,2.000000,2.000000,4.000000,4.000000,4.000000,4.000000,2.000000,4.000000,4.000000,4.000000,4.000000,4.000000,4.000000,2.000000,2.000000,4.000000,4.000000,4.000000,4.000000,4.000000,4.000000,4.000000,4.000000,50.000000
1613958882.749023,118.000000,0.000000,-11.162279,12.219401,44.882027,27.524397,-7.737209,7.109330,-11.406953,-9.413062,-4.497241,-8.394241,-5.026627,-6.418974,6.253320,-4.930255,-10.472172,-21.929935,-5.089959,-15.464100,-1.617476,-5.078165,5.288821,-7.973132,0.823351,-0.227915,0.559030,8.108035,5.976223,1.413839,14.004709,17.168715,26.515575,44.081348,8064.000000,0.000000,4.000000,,,,0.000000,2.000000,4.000000,2.000000,2.000000,2.000000,2.000000,2.000000,2.000000,2.000000,2.000000,2.000000,4.000000,4.000000,4.000000,4.000000,2.000000,4.000000,4.000000,4.000000,4.000000,4.000000,4.000000,2.000000,2.000000,4.000000,4.000000,4.000000,4.000000,4.000000,4.000000,4.000000,4.000000,50.000000
1613958882.756872,119.000000,0.000000,-11.151116,13.232822,32.016632,20.317387,-20.037165,-1.102907,-11.395545,-9.403649,-7.056847,-10.949949,-5.021601,-5.899735,3.682964,-4.925324,-9.948878,-22.420826,-5.597690,-13.910174,-2.641500,-7.124368,4.257892,-8.477980,-0.203114,-2.278969,-2.005632,5.023004,6.483067,-1.151678,13.990705,17.151545,27.001881,33.268036,8192.000000,0.000000,4.000000,,,,0.000000,2.000000,4.000000,2.000000,2.000000,2.000000,2.000000,2.000000,2.000000,2.000000,2.000000,2.000000,4.000000,4.000000,4.000000,4.000000,2.000000,4.000000,4.000000,4.000000,4.000000,4.000000,4.000000,2.000000,2.000000,4.000000,4.000000,4.000000,4.000000,4.000000,4.000000,4.000000,4.000000,50.000000
1613958882.764621,120.000000,0.000000,-11.139965,13.219590,40.702564,19.784248,-14.376101,-1.101804,-11.384150,-9.907065,-7.049790,-12.477461,-5.016579,-6.406656,-1.448924,-4.920399,-10.451751,-23.936867,-5.079272,-16.460367,-5.715781,-10.194167,4.253633,-11.546424,-0.202911,-1.763870,-2.003626,-0.110224,6.476584,-5.765911,13.976714,17.134394,23.897955,33.234768,8064.000000,0.000000,4.000000,,,,0.000000,2.000000,4.000000,2.000000,2.000000,2.000000,2.000000,2.000000,2.000000,2.000000,2.000000,2.000000,4.000000,4.000000,4.000000,4.000000,2.000000,4.000000,4.000000,4.000000,4.000000,4.000000,4.000000,2.000000,2.000000,4.000000,4.000000,4.000000,4.000000,4.000000,4.000000,4.000000,4.000000,50.000000
1613958882.772270,121.000000,0.000000,-11.128825,13.206370,44.764423,22.841387,-4.618136,4.027503,-11.885587,-9.384338,-7.042740,-12.464984,-2.960280,-6.400249,-1.960295,-4.402658,-10.441298,-15.194982,-5.587013,-11.828522,-4.684424,-9.158332,5.787841,-12.047698,-2.766810,-1.762106,-1.488802,-1.135755,6.470108,-6.785786,13.962737,9.937772,19.258673,36.791275,8064.000000,0.000000,4.000000,,,,0.000000,2.000000,4.000000,2.000000,2.000000,2.000000,2.000000,2.000000,2.000000,2.000000,2.000000,2.000000,4.000000,4.000000,4.000000,4.000000,2.000000,4.000000,4.000000,4.000000,4.000000,4.000000,4.000000,2.000000,2.000000,4.000000,4.000000,4.000000,4.000000,4.000000,4.000000,4.000000,4.000000,50.000000
1613958882.780020,122.000000,0.000000,-11.117697,13.193164,36.514530,21.792904,-6.664800,5.561936,-9.822418,-9.374954,-7.548518,-12.452518,-0.906038,-6.393849,1.118588,-4.911076,-4.789832,2.768931,-5.581426,-0.021821,-5.705381,-9.149174,7.833336,-11.522830,-4.302505,-1.760344,-2.000134,-0.108978,6.463637,-6.266179,13.948774,5.825270,18.726593,34.703201,8064.000000,0.000000,4.000000,,,,0.000000,2.000000,4.000000,2.000000,2.000000,2.000000,2.000000,2.000000,2.000000,2.000000,2.000000,2.000000,4.000000,4.000000,4.000000,4.000000,2.000000,4.000000,4.000000,4.000000,4.000000,4.000000,4.000000,2.000000,2.000000,4.000000,4.000000,4.000000,4.000000,4.000000,4.000000,4.000000,4.000000,50.000000
1613958882.787669,123.000000,0.000000,-11.106579,13.179971,38.529301,24.848036,2.572634,11.197400,-7.761314,-10.391220,-0.361482,-9.875963,-1.417952,-6.387455,2.655931,-4.906165,2.394445,9.432829,-5.063024,3.567944,-4.674035,-9.140024,8.338323,-12.024128,-3.272561,-1.758583,0.565969,-0.108869,6.457174,-6.259913,13.934826,10.947650,19.733507,41.335167,8064.000000,0.000000,4.000000,,,,0.000000,2.000000,4.000000,2.000000,2.000000,2.000000,2.000000,2.000000,2.000000,2.000000,2.000000,2.000000,4.000000,4.000000,4.000000,4.000000,2.000000,4.000000,4.000000,4.000000,4.000000,4.000000,4.000000,2.000000,2.000000,4.000000,4.000000,4.000000,4.000000,4.000000,4.000000,4.000000,4.000000,50.000000
1613958882.795418,124.000000,0.000000,-11.095472,13.166791,46.183079,30.464212,22.570063,19.391331,-7.753553,-7.303905,9.895289,-5.763524,-1.416535,-6.893888,4.191737,0.226946,5.468974,7.884934,-5.057961,8.179761,7.125511,-7.592423,12.432549,-8.422360,-3.269289,-2.269645,2.103864,-0.621581,6.450716,-6.766474,13.920891,14.013625,18.175312,50.011780,8064.000000,0.000000,4.000000,,,,0.000000,2.000000,4.000000,2.000000,2.000000,2.000000,2.000000,2.000000,2.000000,2.000000,2.000000,2.000000,4.000000,4.000000,4.000000,4.000000,2.000000,4.000000,4.000000,4.000000,4.000000,4.000000,4.000000,2.000000,2.000000,4.000000,4.000000,4.000000,4.000000,4.000000,4.000000,4.000000,4.000000,50.000000
1613958882.803067,125.000000,0.000000,-11.084376,13.153624,44.598434,29.408108,21.009029,19.371941,-7.232979,-0.629935,12.962317,-4.732119,-1.415118,-4.835712,6.238827,5.867745,6.489146,11.466793,-5.052903,18.427992,14.810694,-5.020728,17.548321,-2.772912,-3.266020,-0.728914,2.614581,-0.108139,6.444266,-6.246887,13.906970,13.486792,15.593035,42.782280,8064.000000,0.000000,4.000000,,,,0.000000,2.000000,4.000000,2.000000,2.000000,2.000000,2.000000,2.000000,2.000000,2.000000,2.000000,2.000000,4.000000,4.000000,4.000000,4.000000,2.000000,4.000000,4.000000,4.000000,4.000000,4.000000,4.000000,2.000000,2.000000,4.000000,4.000000,4.000000,4.000000,4.000000,4.000000,4.000000,4.000000,50.000000
1613958882.810816,126.000000,0.000000,-10.560472,13.140471,40.451271,25.788956,14.834175,18.326927,-4.661643,2.447618,11.923714,-2.163284,-1.413703,-2.266774,6.232588,7.400339,9.559580,10.942506,-5.047850,14.819820,10.693318,-5.015707,13.941030,-2.770139,-3.262753,1.835917,2.611967,0.404790,6.437821,-6.240640,13.893063,13.986125,15.064621,38.636932,8064.000000,0.000000,4.000000,,,,0.000000,2.000000,4.000000,2.000000,2.000000,2.000000,2.000000,2.000000,2.000000,2.000000,2.000000,2.000000,4.000000,4.000000,4.000000,4.000000,2.000000,4.000000,4.000000,4.000000,4.000000,4.000000,4.000000,2.000000,2.000000,4.000000,4.000000,4.000000,4.000000,4.000000,4.000000,4.000000,4.000000,50.000000
1613958882.818465,127.000000,0.000000,-11.062732,13.127330,40.923641,26.275988,21.486008,19.847061,-3.631341,2.445170,12.424611,-0.109839,-0.899469,-3.802969,6.226356,7.392939,8.524380,-0.863309,-4.529982,1.984487,7.092882,-5.010691,5.209140,-4.305830,-3.259491,2.346902,1.583714,-0.108435,6.431384,-5.721579,13.879169,11.920856,16.075197,36.547016,8064.000000,0.000000,4.000000,,,,0.000000,2.000000,4.000000,2.000000,2.000000,2.000000,2.000000,2.000000,2.000000,2.000000,2.000000,2.000000,4.000000,4.000000,4.000000,4.000000,2.000000,4.000000,4.000000,4.000000,4.000000,4.000000,4.000000,2.000000,2.000000,4.000000,4.000000,4.000000,4.000000,4.000000,4.000000,4.000000,4.000000,50.000000
1613958882.826214,0.000000,0.000000,-11.564489,13.114202,40.882717,26.249712,13.772214,16.237471,-4.140530,1.417084,11.386545,-6.776396,-1.411390,-5.337627,6.220129,6.872725,4.926111,-8.554753,-4.525452,0.444041,2.983225,-5.005681,5.716751,-3.788704,-3.256231,-0.219547,-0.469152,-0.108327,6.424953,-6.228678,13.865291,4.216628,15.546302,19.587391,0.000000,151.000000,4.000000,,,,0.000000,2.000000,4.000000,2.000000,2.000000,2.000000,2.000000,2.000000,2.000000,2.000000,2.000000,2.000000,4.000000,4.000000,4.000000,4.000000,2.000000,4.000000,4.000000,4.000000,4.000000,4.000000,4.000000,2.000000,2.000000,4.000000,4.000000,4.000000,4.000000,4.000000,4.000000,4.000000,4.000000,50.000000
1613958882.833864,1.000000,0.000000,-7.450361,13.101089,41.354652,26.736282,1.963570,12.631490,-4.136389,2.441308,12.913620,-11.897824,-1.409978,-2.768187,5.701088,7.378673,5.434006,-6.494916,-5.033747,-0.582044,-3.173605,-5.000675,6.736675,-3.784916,-3.252975,-1.757789,-0.981504,0.404602,7.444169,-5.709629,13.851425,1.648309,15.530755,15.978060,0.000000,159.000000,4.000000,,,,0.000000,2.000000,4.000000,2.000000,2.000000,2.000000,2.000000,2.000000,2.000000,2.000000,4.000000,2.000000,4.000000,4.000000,4.000000,4.000000,2.000000,4.000000,4.000000,4.000000,4.000000,4.000000,4.000000,2.000000,2.000000,4.000000,4.000000,4.000000,4.000000,4.000000,4.000000,4.000000,4.000000,50.000000
1613958882.841613,2.000000,0.000000,-3.340347,13.600808,42.338940,26.196726,7.602632,13.131679,-3.619432,3.464508,12.387886,-8.809004,-0.895748,-2.252598,6.208208,8.396935,3.890110,-5.462780,-4.515893,-9.299411,-4.708893,-4.482854,-3.013651,-4.293951,-3.249722,-1.243211,-3.544625,-0.621444,5.898263,-3.139816,14.350394,3.697943,16.028046,27.244133,0.000000,134.000000,4.000000,,,,0.000000,2.000000,4.000000,2.000000,2.000000,2.000000,2.000000,2.000000,2.000000,2.000000,4.000000,2.000000,4.000000,4.000000,4.000000,4.000000,2.000000,4.000000,4.000000,4.000000,4.000000,4.000000,4.000000,2.000000,2.000000,4.000000,4.000000,4.000000,4.000000,4.000000,4.000000,4.000000,4.000000,50.000000
1613958882.849262,3.000000,0.000000,-6.413929,11.535925,34.091473,18.991041,-1.635740,4.913419,-4.128633,-1.667162,0.067806,-9.313015,-2.946134,-7.891371,4.663538,1.721871,-4.318908,-12.636805,-4.511376,-10.828572,-6.755466,-6.529653,-13.267048,-4.289657,-3.246472,-2.267609,-7.643644,-4.723386,3.328262,-2.111035,11.771941,1.130142,14.986376,18.498940,0.000000,137.000000,4.000000,,,,0.000000,2.000000,4.000000,2.000000,4.000000,2.000000,2.000000,2.000000,2.000000,2.000000,4.000000,2.000000,4.000000,4.000000,4.000000,4.000000,2.000000,4.000000,4.000000,4.000000,4.000000,4.000000,4.000000,2.000000,2.000000,4.000000,4.000000,4.000000,4.000000,4.000000,4.000000,4.000000,4.000000,50.000000
1613958882.857011,4.000000,0.000000,-11.535721,9.473107,24.313791,11.279742,-17.018721,-1.245341,-4.124505,-10.896264,-9.675852,-16.996010,-7.045752,-10.960402,0.556310,-12.638824,-10.468435,-20.829296,-8.609429,-11.330564,-13.928198,-10.625688,-13.766602,-5.823829,-3.243226,-4.829444,-8.661641,-7.282766,3.324934,-4.673027,8.170425,-3.486372,11.894466,7.198390,0.000000,166.000000,4.000000,,,,0.000000,2.000000,4.000000,2.000000,4.000000,2.000000,2.000000,2.000000,2.000000,2.000000,4.000000,2.000000,4.000000,4.000000,4.000000,4.000000,2.000000,4.000000,4.000000,4.000000,4.000000,4.000000,4.000000,2.000000,2.000000,4.000000,4.000000,4.000000,4.000000,4.000000,4.000000,4.000000,4.000000,50.000000
1613958882.864660,5.000000,0.000000,-11.011364,9.463634,21.725376,11.268463,-9.309393,5.935392,-3.607560,-13.449471,-5.050791,-19.543116,-9.089989,-8.898160,-2.008348,-19.292852,-10.457967,-22.859749,-12.703384,-21.062824,-16.478373,-12.666344,-13.752834,-7.869287,-3.239983,-6.875896,-9.165800,-7.275483,0.757506,-6.206815,7.136614,-5.021348,8.292829,14.370679,0.000000,136.000000,4.000000,,,,0.000000,2.000000,4.000000,2.000000,4.000000,2.000000,2.000000,2.000000,2.000000,2.000000,4.000000,2.000000,4.000000,4.000000,4.000000,4.000000,2.000000,4.000000,4.000000,4.000000,4.000000,4.000000,4.000000,2.000000,2.000000,4.000000,4.000000,4.000000,4.000000,4.000000,4.000000,4.000000,4.000000,50.000000
1613958882.872509,6.000000,0.000000,-9.974712,8.941350,16.062624,11.770015,-13.915468,6.442277,-4.629593,-13.436021,-7.097023,-22.087675,-8.568078,-9.914904,-1.493520,-19.786381,-11.473150,-21.811249,-12.177860,-26.169966,-16.461893,-14.192139,-16.816006,-7.861418,-3.236743,-8.407482,-11.207916,-7.781028,-3.858636,-6.200609,5.078196,-5.016326,3.669151,11.792206,0.000000,138.000000,4.000000,,,,0.000000,2.000000,4.000000,2.000000,4.000000,2.000000,2.000000,2.000000,2.000000,2.000000,4.000000,2.000000,4.000000,4.000000,4.000000,4.000000,2.000000,4.000000,4.000000,4.000000,4.000000,4.000000,4.000000,2.000000,2.000000,4.000000,4.000000,4.000000,4.000000,4.000000,4.000000,4.000000,4.000000,50.000000
1613958882.880258,7.000000,0.000000,-12.528840,6.368306,10.405536,10.732604,-29.286169,-4.333396,-8.214707,-19.576431,-17.346336,-28.732254,-8.559510,-16.571655,-2.517667,-27.458902,-14.025780,-21.276617,-13.191323,-24.605335,-21.573637,-16.229229,-17.312010,-7.853557,-3.233506,-10.963177,-13.247991,-6.747606,-5.393239,-6.194408,-0.055088,-4.498489,0.588559,5.626567,0.000000,129.000000,4.000000,,,,0.000000,2.000000,4.000000,2.000000,4.000000,2.000000,2.000000,2.000000,2.000000,2.000000,4.000000,2.000000,4.000000,4.000000,4.000000,4.000000,2.000000,4.000000,4.000000,4.000000,4.000000,4.000000,4.000000,2.000000,2.000000,4.000000,4.000000,4.000000,4.000000,4.000000,4.000000,4.000000,4.000000,50.000000
1613958882.888107,8.000000,0.000000,-15.080414,5.336297,14.497695,12.773153,-15.410728,-3.816242,-11.283416,-24.685059,-16.816170,-30.241983,-8.550950,-21.170467,-5.079252,-38.200672,-14.011754,-21.255341,-16.767876,-26.119190,-23.603346,-16.725821,-16.269056,-7.845703,-3.230273,-12.490676,-16.311666,-6.740858,-4.362205,-6.188214,-1.593494,-5.006812,1.100791,10.236325,0.000000,173.000000,4.000000,,,,0.000000,4.000000,4.000000,2.000000,4.000000,2.000000,2.000000,2.000000,2.000000,2.000000,4.000000,2.000000,4.000000,4.000000,4.000000,4.000000,2.000000,4.000000,4.000000,4.000000,4.000000,4.000000,4.000000,2.000000,2.000000,4.000000,4.000000,4.000000,4.000000,4.000000,4.000000,4.000000,4.000000,50.000000
1613958882.895856,9.000000,0.000000,-15.065333,5.843781,12.431915,9.683457,-6.164548,2.341420,-11.272132,-24.660374,-14.748071,-31.237383,-9.055220,-19.610836,-6.099814,-39.188114,-13.997742,-21.746904,-14.187005,-21.990507,-19.989998,-16.196274,-16.252787,-7.325037,-3.227042,-12.478185,-19.885098,-12.375143,-4.357842,-6.182025,-0.566260,-11.155651,0.074049,-0.030321,0.000000,171.000000,4.000000,,,,0.000000,4.000000,4.000000,2.000000,4.000000,2.000000,2.000000,2.000000,2.000000,2.000000,4.000000,2.000000,4.000000,4.000000,4.000000,4.000000,2.000000,4.000000,4.000000,4.000000,4.000000,4.000000,4.000000,2.000000,2.000000,4.000000,4.000000,4.000000,4.000000,4.000000,4.000000,4.000000,4.000000,50.000000
1613958882.903705,10.000000,0.000000,-14.537447,5.837937,2.675893,1.468645,-16.414795,-1.250665,-11.260860,-24.122894,-20.374348,-30.180504,-8.020524,-16.514301,-5.068073,-28.892515,-12.445283,-18.135414,-6.993331,-8.635183,-17.918726,-15.154437,-16.236534,-7.830533,-3.223815,-12.465707,-18.839571,-18.003794,-4.866305,-6.175843,-2.616975,-16.785521,-6.079871,-15.927727,0.000000,141.000000,4.000000,,,,0.000000,4.000000,4.000000,2.000000,4.000000,2.000000,2.000000,2.000000,2.000000,2.000000,4.000000,2.000000,4.000000,4.000000,4.000000,4.000000,2.000000,4.000000,4.000000,4.000000,4.000000,4.000000,4.000000,2.000000,2.000000,4.000000,4.000000,4.000000,4.000000,4.000000,4.000000,4.000000,4.000000,50.000000
1613958882.911454,11.000000,0.000000,-14.522910,5.832099,4.211679,3.005638,-2.552226,-0.736594,-11.249599,-17.944925,-14.712949,-17.329811,-5.961221,-14.959326,-0.447620,-16.555931,-8.330273,-6.835227,-3.909415,-1.447061,-15.849525,-11.549539,-16.220299,-7.309881,-3.220591,-11.940420,-16.256630,-15.934507,-4.348618,-6.169668,-3.639999,-13.178991,-6.586612,-7.193851,0.000000,155.000000,4.000000,,,,0.000000,4.000000,4.000000,2.000000,4.000000,2.000000,2.000000,2.000000,2.000000,2.000000,4.000000,2.000000,4.000000,4.000000,4.000000,4.000000,2.000000,4.000000,4.000000,4.000000,4.000000,4.000000,4.000000,2.000000,2.000000,4.000000,4.000000,4.000000,4.000000,4.000000,4.000000,4.000000,4.000000,50.000000
1613958882.919303,12.000000,0.000000,-14.508387,6.339087,11.899775,11.207761,12.834942,4.905169,-11.238350,-12.285954,-0.852082,-3.979148,-4.416798,-13.405906,2.629750,-10.385529,-5.757840,-6.315572,-4.931146,-2.471255,-10.705471,-8.461066,-16.204077,-6.789751,-3.217371,-9.364377,-15.727552,-13.867291,-4.344270,-6.163498,-1.072257,-5.986326,-2.990282,3.582574,0.000000,152.000000,4.000000,,,,0.000000,4.000000,4.000000,2.000000,4.000000,2.000000,2.000000,2.000000,2.000000,2.000000,4.000000,2.000000,4.000000,2.000000,2.000000,4.000000,2.000000,4.000000,4.000000,4.000000,4.000000,4.000000,4.000000,2.000000,2.000000,4.000000,4.000000,4.000000,4.000000,4.000000,4.000000,4.000000,4.000000,50.000000
1613958882.927052,13.000000,0.000000,-14.493878,4.794287,10.349414,7.606810,-6.152252,2.336161,-11.227111,-14.324950,1.200052,-6.539272,-4.925202,-12.879679,2.114300,-10.887963,-7.290544,-22.206692,-5.439035,-7.084168,-13.258868,-9.991066,-16.187874,-10.885526,-3.214153,-7.816552,-15.711824,-14.879065,-4.339925,-6.157334,-0.045543,-3.929057,-4.012932,0.502068,0.000000,143.000000,4.000000,,,,0.000000,4.000000,4.000000,2.000000,4.000000,2.000000,2.000000,2.000000,2.000000,2.000000,4.000000,2.000000,4.000000,2.000000,2.000000,4.000000,2.000000,4.000000,4.000000,4.000000,4.000000,4.000000,4.000000,2.000000,2.000000,4.000000,4.000000,4.000000,4.000000,4.000000,4.000000,4.000000,4.000000,50.000000
1613958882.934901,14.000000,0.000000,-14.479384,2.738210,6.749321,-0.093105,-20.505074,-2.794381,-10.703064,-15.336267,-3.416532,-12.173758,-4.920277,-13.379620,2.112186,-11.389896,-10.872997,-35.004997,-7.484879,-20.410418,-26.578941,-15.622101,-16.171686,-17.541306,-3.210939,-11.911299,-16.208933,-14.864185,-4.335586,-6.151177,-0.558318,-4.950769,-9.649945,-2.062536,0.000000,141.000000,4.000000,,,,0.000000,4.000000,4.000000,2.000000,4.000000,2.000000,2.000000,2.000000,2.000000,2.000000,4.000000,2.000000,2.000000,2.000000,2.000000,4.000000,2.000000,4.000000,4.000000,4.000000,4.000000,4.000000,4.000000,2.000000,2.000000,4.000000,4.000000,4.000000,4.000000,4.000000,4.000000,4.000000,4.000000,50.000000
1613958882.942650,15.000000,0.000000,-14.464905,1.709831,8.793854,0.419809,-13.305081,-2.278766,-12.230822,-12.756827,-2.900295,-11.135943,-4.915357,-13.366241,2.110074,-10.352865,-14.964688,-38.046917,-9.015855,-29.620777,-32.706211,-19.709044,-16.155514,-20.087868,-3.720549,-16.514772,-14.654263,-13.823681,-4.331250,-6.145026,-0.557760,-4.432998,-10.665936,-4.624576,0.000000,128.000000,4.000000,,,,0.000000,4.000000,4.000000,2.000000,4.000000,2.000000,2.000000,2.000000,2.000000,2.000000,4.000000,2.000000,2.000000,2.000000,2.000000,4.000000,2.000000,4.000000,4.000000,4.000000,4.000000,4.000000,4.000000,2.000000,2.000000,4.000000,4.000000,4.000000,4.000000,4.000000,4.000000,4.000000,4.000000,50.000000
1613958882.950499,16.000000,0.000000,-14.450440,2.220942,8.785060,1.957850,-10.214853,-1.250846,-14.782694,-12.744070,-2.384574,-12.150448,-4.910441,-13.865694,2.107964,-11.368154,-11.872801,-35.957588,-7.468378,-18.309105,-20.365810,-17.125231,-13.062435,-19.042139,-3.204008,-15.985437,-10.537045,-15.348318,-2.275636,-6.138881,-0.557202,-4.428565,-9.629629,-10.773798,0.000000,147.000000,4.000000,,,,0.000000,4.000000,4.000000,2.000000,4.000000,2.000000,2.000000,2.000000,2.000000,2.000000,4.000000,2.000000,2.000000,2.000000,2.000000,4.000000,2.000000,4.000000,4.000000,4.000000,4.000000,4.000000,4.000000,2.000000,2.000000,4.000000,4.000000,2.000000,4.000000,4.000000,4.000000,4.000000,4.000000,50.000000
1613958882.958248,17.000000,0.000000,-14.435990,2.218721,6.212172,0.930251,-6.102075,-2.275236,-15.280731,-11.192864,-2.895010,-9.574195,-4.905531,-13.339008,4.669958,-11.869606,0.446765,-22.588297,-5.409627,-4.444642,-8.550573,-11.467080,-9.972450,-14.407712,-0.636701,-13.405349,-7.962405,-13.794509,-0.734899,-6.645563,-0.556645,-3.911316,-9.620000,-12.301486,0.000000,164.000000,4.000000,,,,0.000000,4.000000,4.000000,2.000000,4.000000,2.000000,2.000000,2.000000,2.000000,2.000000,4.000000,2.000000,2.000000,2.000000,2.000000,4.000000,2.000000,4.000000,4.000000,4.000000,4.000000,4.000000,4.000000,2.000000,2.000000,4.000000,4.000000,2.000000,4.000000,4.000000,4.000000,4.000000,4.000000,50.000000
1613958882.966097,18.000000,0.000000,-14.421554,2.216502,5.693139,1.442142,4.673258,-1.760140,-14.752630,-6.053467,-1.353654,2.230251,-4.900625,-11.787208,6.203750,-7.242352,11.215549,-5.129811,-4.891397,-2.388915,-8.542023,-9.404331,-8.424016,-11.316381,0.902397,-11.340662,-7.954443,-9.165330,-0.734164,-6.126096,-0.043268,-1.856122,-9.097559,-10.237902,0.000000,171.000000,4.000000,,,,0.000000,4.000000,4.000000,2.000000,4.000000,2.000000,2.000000,2.000000,2.000000,2.000000,4.000000,2.000000,2.000000,2.000000,2.000000,4.000000,2.000000,4.000000,4.000000,4.000000,4.000000,4.000000,4.000000,2.000000,2.000000,4.000000,4.000000,2.000000,4.000000,4.000000,4.000000,4.000000,4.000000,50.000000
1613958882.973846,19.000000,0.000000,-14.919952,2.214286,3.636164,0.927879,8.771149,-1.758380,-14.737878,-5.021772,0.698982,7.869046,-2.844443,-9.724138,5.171905,-1.081263,13.255615,-0.509296,-2.835224,-1.873705,-5.456558,-8.882107,-8.415592,-11.305065,-0.124146,-7.226757,-7.946488,-6.079241,-0.220610,-5.607150,-0.556045,-0.828625,-9.088461,-11.766126,0.000000,170.000000,4.000000,,,,0.000000,4.000000,4.000000,2.000000,4.000000,2.000000,2.000000,2.000000,2.000000,2.000000,4.000000,2.000000,2.000000,2.000000,2.000000,4.000000,2.000000,4.000000,4.000000,4.000000,4.000000,4.000000,4.000000,2.000000,2.000000,4.000000,4.000000,2.000000,4.000000,4.000000,4.000000,4.000000,4.000000,50.000000
1613958882.981695,20.000000,0.000000,-14.392212,2.212071,2.606887,1.952592,7.223917,-1.756622,-14.723140,-5.016751,1.211104,6.322715,-1.303136,-7.663132,5.679554,-0.054541,10.678257,-4.098531,-0.781106,2.230732,4.292489,-6.821942,-9.432817,-10.780939,0.901619,-4.655427,-8.451363,-6.073162,-0.733210,-6.627183,-0.555489,-0.827797,-9.592194,-15.856924,0.000000,167.000000,4.000000,,,,0.000000,4.000000,4.000000,2.000000,4.000000,2.000000,2.000000,2.000000,2.000000,2.000000,4.000000,2.000000,2.000000,2.000000,2.000000,4.000000,2.000000,4.000000,4.000000,4.000000,4.000000,4.000000,4.000000,2.000000,2.000000,4.000000,4.000000,2.000000,4.000000,4.000000,4.000000,4.000000,4.000000,50.000000
1613958882.989445,21.000000,0.000000,-12.326538,2.209859,0.552998,1.950640,7.216692,-0.729224,-14.708417,-2.447631,0.697072,9.393316,-0.789013,-6.117008,8.237977,-0.567307,9.129117,-5.120073,-1.805966,1.715681,8.390760,-4.763838,-6.859282,-4.616312,3.464820,-4.650772,-7.930090,-4.528627,-0.732476,-5.594915,2.521989,1.224313,-5.480037,-20.456451,0.000000,173.000000,4.000000,,,,0.000000,4.000000,4.000000,2.000000,4.000000,2.000000,2.000000,2.000000,2.000000,2.000000,4.000000,2.000000,2.000000,2.000000,2.000000,4.000000,2.000000,4.000000,4.000000,4.000000,4.000000,4.000000,4.000000,2.000000,2.000000,4.000000,4.000000,2.000000,4.000000,4.000000,4.000000,4.000000,4.000000,50.000000
1613958882.997094,22.000000,0.000000,-10.775750,2.207649,-10.216785,-6.256439,6.183835,-2.779777,-14.693708,-1.932363,0.696375,9.383923,-1.301044,-5.598070,9.255380,-0.053919,8.607167,-5.627774,-0.778519,-0.337317,7.356729,-2.707793,3.403988,0.516509,4.486996,-1.056378,-5.870878,-1.959996,4.396461,-0.461115,3.032288,3.274371,-4.961737,-27.102661,0.000000,202.000000,4.000000,,,,0.000000,4.000000,4.000000,2.000000,4.000000,2.000000,2.000000,2.000000,2.000000,2.000000,4.000000,2.000000,2.000000,2.000000,2.000000,4.000000,2.000000,4.000000,4.000000,4.000000,4.000000,4.000000,4.000000,2.000000,2.000000,4.000000,4.000000,2.000000,4.000000,4.000000,4.000000,4.000000,4.000000,50.000000
1613958883.004843,23.000000,0.000000,-8.713693,2.205442,-24.565544,-18.045055,4.639189,-7.392382,-14.679014,-5.007354,1.208499,2.195051,-1.299743,-6.105292,9.246124,-1.079506,7.060099,-4.596505,3.837644,0.688662,5.810910,-1.166623,4.939045,-0.509648,3.969688,3.560063,-5.865007,-4.009318,6.956167,2.103448,-1.586129,3.271096,-16.238827,-35.793507,0.000000,190.000000,4.000000,,,,0.000000,4.000000,4.000000,2.000000,4.000000,2.000000,2.000000,2.000000,2.000000,2.000000,4.000000,2.000000,2.000000,2.000000,2.000000,4.000000,2.000000,4.000000,4.000000,4.000000,4.000000,4.000000,4.000000,2.000000,2.000000,4.000000,4.000000,2.000000,4.000000,4.000000,4.000000,4.000000,4.000000,50.000000
1613958883.012492,24.000000,0.000000,-7.166517,2.203236,-31.720465,-20.591112,0.019166,-9.436272,-14.664335,-6.027987,1.207291,-1.396887,-1.298444,-6.612008,9.236878,-4.155349,7.565859,-3.053447,5.885088,-1.363309,-1.887208,-3.729559,-4.809484,-4.098882,3.965719,0.479580,-7.910424,-11.184795,0.282544,-3.026860,-5.174286,1.729364,-27.504639,-41.398739,0.000000,142.000000,4.000000,,,,0.000000,4.000000,4.000000,2.000000,4.000000,2.000000,2.000000,2.000000,2.000000,2.000000,4.000000,2.000000,2.000000,2.000000,2.000000,4.000000,2.000000,4.000000,2.000000,4.000000,4.000000,4.000000,4.000000,2.000000,2.000000,4.000000,4.000000,2.000000,4.000000,4.000000,4.000000,4.000000,4.000000,50.000000
1613958883.020241,25.000000,0.000000,-7.159350,2.201033,-33.740028,-21.083342,-6.134700,-8.914015,-14.649672,-5.509139,1.206083,-0.882670,-1.297145,-6.092575,9.227641,-4.664014,8.583935,-4.588855,3.315100,-13.156817,-9.577629,-8.341214,-9.932879,-6.658886,3.961753,-4.649105,-8.928155,-17.840279,-8.435687,-6.613577,-4.143471,-1.862109,-28.502775,-43.921444,0.000000,175.000000,4.000000,,,,0.000000,4.000000,4.000000,2.000000,4.000000,2.000000,2.000000,2.000000,2.000000,2.000000,4.000000,2.000000,2.000000,2.000000,2.000000,4.000000,2.000000,4.000000,2.000000,4.000000,4.000000,4.000000,4.000000,2.000000,2.000000,4.000000,4.000000,2.000000,4.000000,4.000000,4.000000,4.000000,4.000000,50.000000
1613958883.027890,26.000000,0.000000,-6.639370,2.198832,-35.757568,-24.139181,-5.615745,-8.905101,-14.635021,-5.503630,0.692057,-1.907428,-1.808668,-4.035201,9.218413,-4.146530,4.985607,-6.122727,0.234862,-14.682122,-14.183435,-10.384155,-9.922947,-7.677868,3.957791,-5.670096,-7.893586,-17.822437,-9.452892,-6.094143,-4.139328,-4.424349,-26.935810,-49.518547,0.000000,168.000000,4.000000,,,,0.000000,4.000000,4.000000,2.000000,4.000000,2.000000,2.000000,2.000000,2.000000,2.000000,4.000000,2.000000,2.000000,2.000000,2.000000,4.000000,2.000000,4.000000,2.000000,4.000000,4.000000,4.000000,4.000000,2.000000,2.000000,4.000000,4.000000,2.000000,4.000000,4.000000,4.000000,4.000000,4.000000,50.000000
1613958883.035639,27.000000,0.000000,-4.068629,2.196633,-36.747452,-23.602222,-4.071667,-8.896195,-14.620386,-3.446844,1.717006,1.171402,-1.294039,-2.492704,11.260477,-4.142384,5.493442,-7.142246,4.337192,5.332560,-12.630791,-6.271207,-7.348921,-7.670190,3.953834,-5.664426,-8.398513,-15.753333,-4.315234,-6.088049,-4.648009,-4.932746,-27.934515,-57.161339,0.000000,171.000000,4.000000,,,,0.000000,4.000000,4.000000,2.000000,4.000000,2.000000,2.000000,2.000000,2.000000,2.000000,4.000000,2.000000,2.000000,2.000000,2.000000,4.000000,2.000000,4.000000,2.000000,4.000000,4.000000,4.000000,4.000000,2.000000,2.000000,4.000000,4.000000,2.000000,4.000000,4.000000,4.000000,4.000000,4.000000,50.000000
1613958883.043289,28.000000,0.000000,-0.987637,2.194437,-37.736347,-26.142721,-10.221441,-9.400120,-14.605766,-1.392115,-0.335993,1.683051,0.758537,-2.490211,12.787679,-4.651062,18.308462,-7.647924,16.640547,23.788767,4.817737,2.965834,5.991761,-7.662520,3.949880,-5.658762,-8.902935,-14.711939,1.842927,-5.056320,-4.130540,-4.414992,-27.906582,-59.155457,0.000000,160.000000,4.000000,,,,0.000000,4.000000,4.000000,2.000000,4.000000,2.000000,2.000000,2.000000,2.000000,2.000000,4.000000,2.000000,2.000000,2.000000,2.000000,4.000000,2.000000,4.000000,2.000000,4.000000,4.000000,4.000000,4.000000,2.000000,2.000000,4.000000,4.000000,2.000000,4.000000,4.000000,4.000000,4.000000,4.000000,50.000000
1613958883.051038,29.000000,0.000000,0.551812,2.192242,-39.237072,-35.347347,-15.339425,-12.980463,-15.103981,-1.903544,-5.976683,-6.010939,2.809060,-0.436439,12.774891,-4.133590,31.110666,0.052032,25.341854,27.354721,28.402662,11.680817,22.396027,-7.654858,3.945930,0.500743,-8.381211,-13.158765,3.379546,-2.487161,-4.126410,-4.410577,-27.365854,-59.096302,0.000000,175.000000,4.000000,,,,0.000000,4.000000,4.000000,2.000000,4.000000,2.000000,2.000000,2.000000,2.000000,2.000000,4.000000,2.000000,2.000000,2.000000,2.000000,4.000000,2.000000,4.000000,2.000000,4.000000,4.000000,4.000000,4.000000,2.000000,2.000000,4.000000,4.000000,2.000000,4.000000,4.000000,4.000000,4.000000,4.000000,50.000000
1613958883.058687,30.000000,0.000000,0.038440,2.190050,-37.146553,-37.363281,-14.811265,-16.044407,-13.550415,-1.388820,-10.073271,-6.004928,2.806251,1.615280,13.274937,-3.616636,31.079556,10.821210,24.290873,28.353006,31.964005,13.720418,23.912092,-7.647202,3.941984,8.192550,-7.860010,-10.581504,2.863346,-1.971853,-4.122283,-4.918987,-27.338488,-61.088490,0.000000,167.000000,4.000000,,,,0.000000,4.000000,4.000000,2.000000,4.000000,2.000000,2.000000,2.000000,2.000000,2.000000,4.000000,2.000000,2.000000,2.000000,2.000000,4.000000,2.000000,4.000000,2.000000,4.000000,4.000000,4.000000,4.000000,4.000000,2.000000,4.000000,4.000000,2.000000,4.000000,4.000000,4.000000,4.000000,4.000000,50.000000
1613958883.066436,31.000000,0.000000,0.038401,2.187860,-35.570942,-32.710537,-15.309275,-16.541182,-10.972762,-1.387431,-10.576017,2.206205,2.290624,1.613664,12.748841,-4.638660,24.894629,9.784748,23.240940,22.683628,19.624348,12.681056,14.144589,-7.639555,3.938042,10.235640,-8.877790,-10.570922,2.860482,-2.482702,-4.118161,-4.401248,-27.311150,-62.053040,0.000000,109.000000,4.000000,,,,0.000000,4.000000,4.000000,2.000000,4.000000,2.000000,2.000000,2.000000,2.000000,2.000000,4.000000,2.000000,2.000000,2.000000,2.000000,4.000000,2.000000,4.000000,2.000000,4.000000,4.000000,4.000000,4.000000,4.000000,2.000000,4.000000,4.000000,2.000000,4.000000,4.000000,4.000000,4.000000,4.000000,50.000000
1613958883.074085,32.000000,0.000000,0.038363,2.185672,-35.535374,-31.652184,-15.293965,-16.011820,-10.448969,-2.411685,-11.078262,1.178358,1.775513,0.586410,11.710451,-5.146842,18.715889,4.646758,24.756161,12.917355,17.040621,13.181196,9.002240,-8.144736,3.934104,9.199762,-8.356092,-8.509069,3.370442,-2.480219,-4.114043,-2.345565,-27.283838,-61.478168,8064.000000,0.000000,4.000000,,,,0.000000,4.000000,4.000000,2.000000,4.000000,2.000000,2.000000,2.000000,2.000000,2.000000,4.000000,2.000000,2.000000,2.000000,2.000000,4.000000,2.000000,4.000000,2.000000,4.000000,4.000000,4.000000,4.000000,4.000000,2.000000,4.000000,4.000000,2.000000,4.000000,4.000000,4.000000,4.000000,4.000000,50.000000
1613958883.081834,33.000000,0.000000,0.038325,2.183486,-32.935734,-30.594891,-10.150466,-16.508629,-10.438520,-0.870811,-10.041543,-0.361282,2.799379,1.098644,13.750023,-0.526311,16.133070,4.642111,23.705763,14.442899,19.587683,13.680835,9.506058,-7.623771,3.930170,9.703383,-4.245172,-3.885176,2.854252,-2.477739,-4.109929,-0.291937,-26.743734,-60.903870,8064.000000,0.000000,4.000000,,,,0.000000,4.000000,4.000000,2.000000,4.000000,2.000000,2.000000,2.000000,2.000000,2.000000,4.000000,2.000000,2.000000,2.000000,2.000000,4.000000,2.000000,4.000000,2.000000,4.000000,4.000000,4.000000,4.000000,4.000000,2.000000,4.000000,4.000000,2.000000,4.000000,4.000000,4.000000,4.000000,4.000000,50.000000
1613958883.089483,34.000000,0.000000,0.038286,2.694123,-33.415619,-30.564295,-12.191598,-14.953659,-10.428082,-1.382761,-9.005860,0.664720,2.796579,1.610366,10.659349,-2.064246,12.527193,-1.516377,20.605135,11.351533,11.875788,11.615872,8.983731,-7.616148,3.926239,9.693680,-1.676824,-3.368470,2.851397,-2.475261,-3.592999,0.221175,-26.204170,-59.817322,8064.000000,0.000000,4.000000,,,,0.000000,4.000000,4.000000,2.000000,4.000000,2.000000,2.000000,2.000000,2.000000,2.000000,4.000000,2.000000,2.000000,2.000000,2.000000,4.000000,2.000000,4.000000,2.000000,4.000000,4.000000,4.000000,4.000000,4.000000,2.000000,4.000000,4.000000,2.000000,4.000000,4.000000,4.000000,4.000000,4.000000,50.000000
1613958883.097332,35.000000,0.000000,0.038248,2.178609,-45.177074,-36.687576,-24.999920,-15.964346,-13.494576,-9.586507,-13.612239,-13.694919,-0.795961,-1.980988,2.443562,-11.805772,3.796717,-11.771271,19.558889,-7.634177,2.633142,8.527333,8.461927,-8.121352,3.922313,9.171165,-3.726430,-6.442025,2.848546,-2.472786,-4.102226,-0.291866,-26.690786,-60.783146,8064.000000,0.000000,4.000000,,,,0.000000,4.000000,4.000000,2.000000,4.000000,2.000000,2.000000,2.000000,2.000000,2.000000,4.000000,2.000000,2.000000,2.000000,2.000000,4.000000,2.000000,4.000000,2.000000,4.000000,4.000000,4.000000,4.000000,4.000000,2.000000,4.000000,4.000000,2.000000,4.000000,4.000000,4.000000,4.000000,4.000000,50.000000
1613958883.105081,36.000000,0.000000,0.038210,2.689251,-47.696003,-27.420120,-20.872355,-16.461203,-15.019544,-14.192305,-13.085807,-20.860712,-1.820806,-7.107213,5.518042,-8.717043,3.792921,-6.118474,20.052151,-6.600902,3.143330,9.031627,8.453465,-7.600410,3.918391,9.161995,-3.209883,-6.948403,2.845697,-2.470313,-3.585303,-1.317215,-27.176916,-60.722363,8064.000000,0.000000,4.000000,,,,0.000000,4.000000,4.000000,2.000000,4.000000,2.000000,2.000000,2.000000,2.000000,2.000000,4.000000,2.000000,2.000000,2.000000,2.000000,4.000000,2.000000,4.000000,2.000000,4.000000,4.000000,4.000000,4.000000,4.000000,2.000000,4.000000,4.000000,2.000000,4.000000,4.000000,4.000000,4.000000,4.000000,50.000000
1613958883.112930,37.000000,0.000000,0.038172,3.199382,-30.212408,-7.392701,3.763902,-10.290895,-11.414781,-5.460164,0.260613,-0.839851,4.334861,-5.048823,17.820215,6.163469,17.635283,6.195337,19.519278,14.944160,6.729930,10.048236,8.957832,-2.977425,3.914473,9.152833,-0.129750,-6.428634,2.842852,-2.467843,-3.068897,1.248204,-25.611279,-58.097538,8064.000000,0.000000,4.000000,,,,0.000000,4.000000,4.000000,2.000000,4.000000,2.000000,2.000000,2.000000,2.000000,2.000000,4.000000,2.000000,2.000000,2.000000,2.000000,4.000000,2.000000,4.000000,2.000000,4.000000,4.000000,4.000000,4.000000,4.000000,2.000000,4.000000,4.000000,2.000000,4.000000,4.000000,4.000000,4.000000,4.000000,50.000000
1613958883.120679,38.000000,0.000000,0.038133,-0.393561,-31.207836,-10.975051,9.913984,-8.229322,-13.454648,-1.864960,3.850096,5.314836,5.356167,0.084431,21.392139,9.747049,24.284313,5.676321,20.012579,17.493319,6.210380,4.397162,8.948874,0.102476,3.910558,9.143680,-1.668082,-6.935026,2.840009,-2.465375,-6.142752,-2.855608,-29.175409,-65.731750,8064.000000,0.000000,4.000000,,,,0.000000,4.000000,4.000000,2.000000,4.000000,2.000000,2.000000,2.000000,2.000000,2.000000,4.000000,2.000000,2.000000,2.000000,2.000000,4.000000,2.000000,4.000000,2.000000,4.000000,4.000000,4.000000,4.000000,4.000000,2.000000,4.000000,4.000000,2.000000,4.000000,4.000000,4.000000,4.000000,4.000000,50.000000
1613958883.128528,39.000000,0.000000,0.038095,-7.572655,-55.279194,-33.015358,-8.557468,-20.015965,-25.236065,-12.119505,-9.487088,-13.152018,-1.828676,1.622808,16.242542,3.070636,17.593363,0.542440,19.992565,6.706594,5.178528,-0.735440,8.939926,0.102373,3.906648,9.647357,-4.230516,-6.928091,3.349989,-2.462910,-11.264814,-16.186085,-39.402645,-84.127556,7936.000000,0.000000,4.000000,,,,0.000000,4.000000,4.000000,2.000000,4.000000,2.000000,2.000000,2.000000,2.000000,2.000000,4.000000,2.000000,2.000000,2.000000,2.000000,4.000000,2.000000,4.000000,2.000000,4.000000,4.000000,4.000000,4.000000,4.000000,2.000000,4.000000,4.000000,2.000000,4.000000,4.000000,4.000000,4.000000,4.000000,50.000000
1613958883.136277,40.000000,0.000000,0.038057,-9.616364,-57.275196,-40.161831,-16.754040,-30.765179,-29.826214,-16.209949,-15.118627,-14.164507,-5.929411,0.595544,15.713479,2.554744,14.498846,0.541897,17.408470,7.212708,6.198991,0.290936,6.879704,-0.410550,3.902741,8.099248,-4.739106,-6.921163,1.295357,-2.460447,-10.740728,-22.836567,-41.414524,-89.171631,8064.000000,0.000000,4.000000,,,,0.000000,4.000000,4.000000,2.000000,4.000000,2.000000,2.000000,2.000000,2.000000,2.000000,4.000000,2.000000,2.000000,2.000000,2.000000,4.000000,2.000000,4.000000,2.000000,4.000000,4.000000,4.000000,4.000000,4.000000,2.000000,4.000000,4.000000,2.000000,4.000000,4.000000,4.000000,4.000000,4.000000,50.000000
1613958883.144126,41.000000,0.000000,0.038019,-8.068286,-45.423050,-36.019104,-12.121901,-28.170311,-23.642542,-10.039893,-9.975303,0.721452,-4.897841,1.620589,17.236227,4.603472,15.509988,0.541355,16.365421,8.743958,6.705612,0.803466,5.334363,0.102681,3.898838,6.039866,-5.760008,-6.914242,-0.757220,-2.457986,-10.729988,-16.659883,-32.655163,-83.441437,8064.000000,0.000000,4.000000,,,,0.000000,4.000000,4.000000,2.000000,4.000000,2.000000,2.000000,2.000000,2.000000,2.000000,4.000000,2.000000,2.000000,2.000000,2.000000,4.000000,2.000000,4.000000,2.000000,4.000000,4.000000,4.000000,4.000000,4.000000,2.000000,4.000000,4.000000,2.000000,4.000000,4.000000,4.000000,4.000000,4.000000,50.000000
1613958883.151876,42.000000,0.000000,0.037981,-9.598680,-55.121216,-39.060009,-17.750805,-25.578039,-20.541975,-7.465751,-9.452507,-0.817731,-4.892943,1.618969,16.706171,3.573227,14.981657,1.053635,18.913158,8.222393,6.186086,2.853944,5.329028,-0.410242,3.894939,5.008185,-8.318351,-6.907328,-1.269283,-2.455528,-17.385925,-15.104762,-33.135326,-88.999023,8064.000000,0.000000,4.000000,,,,0.000000,4.000000,4.000000,2.000000,4.000000,2.000000,2.000000,2.000000,2.000000,2.000000,4.000000,2.000000,2.000000,2.000000,2.000000,4.000000,2.000000,4.000000,2.000000,4.000000,4.000000,4.000000,4.000000,4.000000,2.000000,4.000000,4.000000,2.000000,4.000000,4.000000,4.000000,4.000000,4.000000,50.000000
1613958883.159725,43.000000,0.000000,0.037943,-12.666004,-63.271221,-43.123512,-21.835617,-27.603743,-22.059895,-9.509567,-10.468696,-5.432297,-3.862409,1.104529,15.663823,3.056834,19.069241,7.719247,19.919886,15.393658,6.692720,10.030578,5.323699,-0.409832,3.891044,5.515998,-8.822853,-6.900420,-0.755194,-2.453073,-23.009563,-19.192221,-42.845779,-93.525406,8064.000000,0.000000,4.000000,,,,0.000000,4.000000,4.000000,2.000000,4.000000,2.000000,2.000000,2.000000,2.000000,2.000000,4.000000,2.000000,2.000000,2.000000,2.000000,4.000000,2.000000,4.000000,2.000000,4.000000,4.000000,4.000000,4.000000,4.000000,2.000000,4.000000,4.000000,2.000000,4.000000,4.000000,4.000000,4.000000,4.000000,50.000000
1613958883.167474,44.000000,0.000000,0.037905,-12.653337,-51.925900,-42.054749,-11.557371,-27.063318,-21.525015,-8.987237,-7.381303,-1.324301,-1.294444,2.129066,16.160980,4.079418,22.127094,12.839733,20.412786,17.942368,6.686028,12.071829,5.318376,0.103399,3.887153,5.510482,-8.301209,-6.893520,-0.754438,-2.450620,-22.473734,-19.173029,-46.392677,-86.765213,8064.000000,0.000000,4.000000,,,,0.000000,4.000000,4.000000,2.000000,4.000000,2.000000,2.000000,2.000000,2.000000,2.000000,4.000000,2.000000,2.000000,2.000000,2.000000,4.000000,2.000000,4.000000,2.000000,4.000000,4.000000,4.000000,4.000000,4.000000,2.000000,4.000000,4.000000,2.000000,4.000000,4.000000,4.000000,4.000000,4.000000,50.000000
1613958883.175323,45.000000,0.000000,0.550688,-12.127864,-47.258591,-41.499874,-6.930429,-26.523436,-21.503490,-8.465429,-5.835461,-0.297336,-0.780329,0.075655,16.657639,3.049697,16.463942,8.211509,19.879555,11.257757,3.602419,5.905911,5.313057,-1.947987,3.883266,5.504972,-8.292908,-6.886626,-0.753684,-2.448169,-21.425619,-18.128216,-43.782185,-88.216911,8064.000000,0.000000,4.000000,,,,0.000000,4.000000,4.000000,2.000000,4.000000,2.000000,2.000000,2.000000,2.000000,2.000000,4.000000,2.000000,2.000000,2.000000,2.000000,4.000000,2.000000,4.000000,2.000000,4.000000,4.000000,4.000000,4.000000,4.000000,2.000000,4.000000,4.000000,2.000000,4.000000,4.000000,4.000000,4.000000,4.000000,50.000000
1613958883.183072,46.000000,0.000000,-0.988324,-12.115736,-52.339535,-41.458374,-13.590166,-27.009731,-21.481987,-8.969785,-6.855266,-4.912423,-2.318011,-5.052626,15.102520,0.995366,14.396194,2.562272,12.680187,6.631115,-1.529389,4.361544,5.307744,-3.997321,3.879383,6.012287,-8.284616,-6.879740,-0.752930,-2.445721,-22.429834,-19.135729,-45.276863,-92.744080,8064.000000,0.000000,4.000000,,,,0.000000,4.000000,4.000000,2.000000,4.000000,2.000000,2.000000,2.000000,2.000000,2.000000,4.000000,2.000000,2.000000,2.000000,2.000000,4.000000,2.000000,4.000000,2.000000,4.000000,4.000000,4.000000,4.000000,4.000000,2.000000,4.000000,4.000000,2.000000,4.000000,4.000000,4.000000,4.000000,4.000000,50.000000
1613958883.190921,47.000000,0.000000,-3.551439,-12.103621,-49.723095,-40.391273,-15.627858,-24.418619,-19.409222,-8.960814,-5.822770,-5.420331,-1.802872,-6.586035,13.036136,-0.544091,15.407439,4.610991,4.975199,7.137305,-2.553500,5.895644,5.815257,-4.506144,3.875504,3.954993,-8.789151,-6.872860,-0.239357,-2.443275,-22.407406,-18.603771,-45.231586,-85.984665,8064.000000,0.000000,4.000000,,,,0.000000,4.000000,4.000000,2.000000,4.000000,2.000000,2.000000,2.000000,2.000000,2.000000,4.000000,2.000000,2.000000,2.000000,2.000000,4.000000,2.000000,4.000000,2.000000,4.000000,4.000000,4.000000,4.000000,4.000000,2.000000,4.000000,4.000000,2.000000,4.000000,4.000000,4.000000,4.000000,4.000000,50.000000
1613958883.198670,48.000000,0.000000,-3.547887,-12.091516,-47.622089,-37.786777,-15.099409,-22.342918,-17.338531,-8.439034,-6.329768,-3.363629,-0.775428,-6.066628,11.997458,-6.697393,7.186904,4.093560,4.457404,7.642988,-0.499665,5.376927,4.270980,-3.988817,3.871628,2.412576,-8.780362,-6.865987,-1.777579,-2.440832,-21.872177,-18.585169,-44.673534,-84.360222,8064.000000,0.000000,4.000000,,,,0.000000,4.000000,4.000000,2.000000,4.000000,2.000000,2.000000,2.000000,2.000000,2.000000,4.000000,2.000000,2.000000,2.000000,2.000000,4.000000,2.000000,4.000000,2.000000,4.000000,4.000000,4.000000,4.000000,4.000000,2.000000,4.000000,4.000000,2.000000,4.000000,4.000000,4.000000,4.000000,4.000000,50.000000
1613958883.206519,49.000000,0.000000,-3.544339,-12.079425,-50.651390,-37.236172,-18.161234,-23.346216,-18.346834,-8.943415,-9.913181,-6.950009,-3.851576,-8.624664,8.395718,-19.511209,-3.076693,-7.192585,4.965766,7.122524,-2.550447,4.858730,1.702606,-3.984828,3.867756,1.384522,-7.745941,-6.859121,-3.827084,-2.438391,-21.850306,-24.207609,-48.218605,-92.480988,8064.000000,0.000000,4.000000,,,,0.000000,4.000000,4.000000,2.000000,4.000000,2.000000,2.000000,2.000000,2.000000,2.000000,4.000000,2.000000,2.000000,2.000000,2.000000,4.000000,2.000000,4.000000,2.000000,4.000000,4.000000,4.000000,4.000000,4.000000,2.000000,4.000000,4.000000,2.000000,4.000000,4.000000,4.000000,4.000000,4.000000,50.000000
1613958883.214268,50.000000,0.000000,-6.617718,-11.554525,-48.036636,-38.737396,-13.014867,-22.810051,-16.790026,-9.447292,-9.390448,-8.994341,-5.386186,-8.616039,5.310399,-18.978876,-5.124898,-16.416161,3.935160,5.576940,-2.035076,4.853871,1.188083,-5.006485,3.351068,-0.668144,-8.763836,-6.852262,-4.848897,-2.435953,-22.341274,-24.696220,-46.119102,-88.798767,8064.000000,0.000000,4.000000,,,,0.000000,4.000000,4.000000,2.000000,4.000000,2.000000,2.000000,2.000000,2.000000,2.000000,4.000000,2.000000,2.000000,2.000000,2.000000,4.000000,2.000000,4.000000,2.000000,4.000000,4.000000,4.000000,4.000000,4.000000,2.000000,4.000000,4.000000,2.000000,4.000000,4.000000,4.000000,4.000000,4.000000,50.000000
1613958883.221917,51.000000,0.000000,-6.098280,-9.491689,-44.911674,-36.134556,-3.258262,-17.146215,-11.645030,-5.848101,-4.252852,-0.267398,2.824329,-3.992039,6.843550,-2.036821,-1.530030,-8.194617,10.597891,7.622645,7.710548,5.361838,1.186895,-2.950196,3.860538,-2.205937,-8.242251,-6.845409,-4.844049,-2.433517,-19.754831,-15.953576,-36.842216,-75.376633,8064.000000,0.000000,4.000000,,,,0.000000,4.000000,4.000000,2.000000,4.000000,2.000000,2.000000,2.000000,2.000000,2.000000,4.000000,2.000000,2.000000,2.000000,2.000000,4.000000,2.000000,4.000000,2.000000,4.000000,4.000000,4.000000,4.000000,4.000000,2.000000,4.000000,4.000000,2.000000,4.000000,4.000000,4.000000,4.000000,4.000000,50.000000
1613958883.229666,52.000000,0.000000,-0.451156,-7.943736,-42.302662,-27.380474,0.847560,-15.077786,-9.582103,-1.739689,-1.684497,9.989280,13.077914,-1.423944,9.400808,10.272908,8.215090,8.223834,19.305243,16.845793,17.446428,8.946219,1.185708,1.668139,5.907959,-1.690911,-2.592983,-4.787282,-3.813564,-2.431083,-15.119692,-9.783776,-31.677168,-72.737152,8064.000000,0.000000,4.000000,,,,0.000000,4.000000,4.000000,2.000000,4.000000,2.000000,2.000000,2.000000,2.000000,2.000000,4.000000,2.000000,2.000000,2.000000,2.000000,4.000000,2.000000,4.000000,2.000000,4.000000,4.000000,4.000000,4.000000,4.000000,2.000000,4.000000,4.000000,2.000000,4.000000,4.000000,4.000000,4.000000,4.000000,50.000000
1613958883.237315,53.000000,0.000000,-0.963525,-8.448612,-36.619335,-21.712069,2.385174,-15.575529,-10.598162,-1.225129,-2.708453,11.004931,14.090478,-2.448161,8.878588,10.775455,20.001747,15.395098,20.824398,22.469973,18.454622,12.527017,4.774266,4.230573,7.953333,-2.202041,3.050635,-3.244033,-1.758468,-2.428652,-13.566111,-8.748352,-33.696774,-74.202881,8064.000000,0.000000,4.000000,,,,0.000000,4.000000,4.000000,2.000000,4.000000,2.000000,2.000000,2.000000,2.000000,2.000000,4.000000,2.000000,2.000000,2.000000,2.000000,4.000000,2.000000,4.000000,2.000000,4.000000,4.000000,4.000000,4.000000,4.000000,2.000000,4.000000,4.000000,2.000000,4.000000,4.000000,4.000000,4.000000,4.000000,50.000000
1613958883.245064,54.000000,0.000000,-3.013844,-8.440164,-32.992970,-22.715998,3.921251,-13.508672,-10.587564,-1.736724,-2.705745,9.455465,12.537926,-2.445713,8.356888,9.739039,23.571487,14.866881,19.777933,21.934681,16.384886,13.027310,8.359236,3.200701,7.432559,-2.199839,3.047585,-2.727969,-0.218248,-2.426224,-14.578186,-7.713963,-33.663074,-71.051750,8064.000000,0.000000,4.000000,,,,0.000000,4.000000,4.000000,2.000000,4.000000,2.000000,2.000000,2.000000,2.000000,2.000000,4.000000,2.000000,2.000000,2.000000,2.000000,4.000000,2.000000,4.000000,2.000000,4.000000,4.000000,4.000000,4.000000,4.000000,2.000000,4.000000,4.000000,2.000000,4.000000,4.000000,4.000000,4.000000,4.000000,50.000000
1613958883.252713,55.000000,0.000000,-0.959548,-8.431724,-32.959976,-23.206102,3.917329,-8.879778,-10.064156,-1.222167,-2.190219,10.471651,13.551029,-2.443268,8.348532,10.754941,22.009455,15.877656,19.758156,28.066593,17.906961,11.988642,9.376517,3.197501,7.425127,-1.171998,2.531717,-3.238061,-0.730850,-2.423797,-14.563607,-6.680607,-32.603771,-68.929420,7936.000000,0.000000,4.000000,,,,0.000000,4.000000,4.000000,2.000000,4.000000,2.000000,2.000000,2.000000,2.000000,2.000000,4.000000,2.000000,2.000000,2.000000,2.000000,4.000000,2.000000,4.000000,2.000000,4.000000,4.000000,4.000000,4.000000,4.000000,2.000000,4.000000,4.000000,2.000000,4.000000,4.000000,4.000000,4.000000,4.000000,50.000000
1613958883.260463,56.000000,0.000000,-1.471409,-8.423292,-32.414196,-22.157255,4.939053,-7.332437,-10.566912,-1.220945,-2.700849,10.974000,13.537477,-2.440824,8.853004,11.257007,23.013086,15.861778,20.251217,33.679550,17.889055,11.976653,11.931244,3.707124,7.417702,-2.196467,3.042005,-3.234823,-0.730119,-2.421373,-14.036223,-7.186748,-33.083988,-69.886131,8192.000000,0.000000,4.000000,,,,0.000000,4.000000,4.000000,2.000000,4.000000,2.000000,2.000000,2.000000,2.000000,2.000000,4.000000,2.000000,2.000000,2.000000,2.000000,4.000000,2.000000,4.000000,2.000000,4.000000,4.000000,4.000000,4.000000,4.000000,2.000000,4.000000,4.000000,2.000000,4.000000,4.000000,4.000000,4.000000,4.000000,50.000000
1613958883.268112,57.000000,0.000000,-6.598143,-8.927689,-35.458706,-22.647917,7.498217,-8.350745,-10.556345,-1.732544,-2.698148,9.937385,13.011120,-2.438384,8.844151,11.758570,20.425972,10.204891,19.718145,25.953564,14.794243,12.990318,12.944953,3.190596,7.410284,-1.681450,3.038963,-3.231588,-0.729389,-2.418952,-14.535007,-7.692381,-33.050903,-70.329063,8064.000000,0.000000,4.000000,,,,0.000000,4.000000,4.000000,2.000000,4.000000,2.000000,2.000000,2.000000,2.000000,2.000000,4.000000,2.000000,2.000000,2.000000,2.000000,4.000000,2.000000,4.000000,2.000000,4.000000,4.000000,4.000000,4.000000,4.000000,2.000000,4.000000,4.000000,2.000000,4.000000,4.000000,4.000000,4.000000,4.000000,50.000000
1613958883.275861,58.000000,0.000000,-8.130006,-8.405941,-36.448887,-23.138090,5.952257,-8.342395,-10.545789,-1.730812,-2.695450,9.927447,12.998109,-2.948766,8.322486,10.208350,15.277340,4.040840,17.647146,17.209661,12.728167,11.951687,7.803803,3.187406,7.402874,3.448437,2.523104,-3.228357,-0.728660,-2.416533,-14.520473,-7.684689,-33.530674,-69.745911,8064.000000,0.000000,4.000000,,,,0.000000,4.000000,4.000000,2.000000,4.000000,2.000000,2.000000,2.000000,2.000000,2.000000,4.000000,2.000000,2.000000,2.000000,2.000000,4.000000,2.000000,4.000000,2.000000,4.000000,4.000000,4.000000,4.000000,4.000000,2.000000,4.000000,4.000000,2.000000,4.000000,4.000000,4.000000,4.000000,4.000000,50.000000
