title:29, start timestamp:1613959420.770034, stop timestamp:1613959467.163166, headset type:EPOCFLEX, headset serial:F00001ED, headset firmware:f12, subject name:s04, channels:75, sampling rate:128, samples:5986      , version:2.0
Timestamp,EEG.Counter,EEG.Interpolated,EEG.Cz,EEG.Fz,EEG.Fp1,EEG.AF3,EEG.F7,EEG.F3,EEG.FC1,EEG.C3,EEG.FC5,EEG.T7,EEG.CP5,EEG.CP1,EEG.P3,EEG.P7,EEG.PO3,EEG.O1,EEG.Pz,EEG.Oz,EEG.O2,EEG.PO4,EEG.P8,EEG.P4,EEG.CP2,EEG.CP6,EEG.T8,EEG.FC6,EEG.C4,EEG.FC2,EEG.F4,EEG.F8,EEG.AF4,EEG.Fp2,EEG.HighBitFlex,EEG.RawCq,EEG.Battery,MarkerIndex,MarkerType,MarkerValueInt,EEG.MarkerHardware,CQ.Cz,CQ.Fz,CQ.Fp1,CQ.AF3,CQ.F7,CQ.F3,CQ.FC1,CQ.C3,CQ.FC5,CQ.T7,CQ.CP5,CQ.CP1,CQ.P3,CQ.P7,CQ.PO3,CQ.O1,CQ.Pz,CQ.Oz,CQ.O2,CQ.PO4,CQ.P8,CQ.P4,CQ.CP2,CQ.CP6,CQ.T8,CQ.FC6,CQ.C4,CQ.FC2,CQ.F4,CQ.F8,CQ.AF4,CQ.Fp2,CQ.Overall
1613959420.770034,43.000000,0.000000,0.594416,3.591511,-0.546302,10.694297,-9.959049,9.817064,17.521605,17.008579,-46.017586,-25.245922,-13.150852,6.016156,-0.999134,-6.517538,-8.050265,-4.247803,1.678729,-4.996954,-17.987793,-7.180360,-34.307755,-11.696810,9.761197,-22.113941,-22.712053,-12.405966,-8.208189,0.136054,1.398263,-6.962049,1.859062,73.356911,8064.000000,0.000000,4.000000,,,,0.000000,2.000000,2.000000,1.000000,2.000000,2.000000,2.000000,2.000000,2.000000,2.000000,2.000000,2.000000,2.000000,2.000000,2.000000,2.000000,2.000000,2.000000,2.000000,2.000000,2.000000,2.000000,2.000000,2.000000,2.000000,2.000000,2.000000,2.000000,2.000000,2.000000,2.000000,2.000000,2.000000,41.666668
1613959420.777683,44.000000,0.000000,0.593821,3.587919,-1.058576,8.119499,-9.436270,9.294427,13.914339,12.376185,-56.227978,-28.297600,-13.137701,3.958858,-5.613520,-7.536661,-10.093497,-4.756376,0.138588,-12.684264,-20.533909,-11.275743,-33.760624,-14.249216,7.187334,-27.220032,-24.740623,-13.932021,-10.251264,0.648739,1.909686,-7.980729,0.831562,73.283554,8064.000000,0.000000,4.000000,,,,0.000000,2.000000,2.000000,1.000000,2.000000,2.000000,2.000000,2.000000,2.000000,2.000000,2.000000,2.000000,2.000000,2.000000,2.000000,2.000000,2.000000,2.000000,2.000000,2.000000,2.000000,2.000000,2.000000,2.000000,2.000000,2.000000,2.000000,2.000000,2.000000,2.000000,2.000000,2.000000,2.000000,41.666668
1613959420.785432,45.000000,0.000000,0.593228,3.584331,0.480944,9.137021,-8.914013,9.285132,14.926065,12.363810,-56.171749,-26.730841,-13.124564,3.442079,-3.556624,-5.990663,-7.519301,-2.187517,-0.374371,-9.081837,-12.308246,-12.290109,-28.598660,-12.696506,7.692966,-27.705633,-22.664600,-13.918089,-9.215371,0.135270,1.907776,-8.485568,1.343551,73.723091,8064.000000,0.000000,4.000000,,,,0.000000,2.000000,2.000000,1.000000,2.000000,2.000000,2.000000,2.000000,2.000000,2.000000,2.000000,2.000000,2.000000,2.000000,2.000000,2.000000,2.000000,2.000000,2.000000,2.000000,2.000000,2.000000,2.000000,2.000000,2.000000,2.000000,2.000000,2.000000,2.000000,2.000000,2.000000,2.000000,2.000000,41.666668
1613959420.793081,46.000000,0.000000,0.592634,3.580747,2.531745,9.127884,-9.417919,9.788668,13.885499,12.864265,-53.038654,-23.627188,-13.111439,3.951457,-0.988965,-0.856467,1.718987,13.199286,-0.373996,10.927245,5.652780,0.029873,-13.698265,-4.991501,7.685274,-19.472799,-7.770141,-8.263145,-9.718976,0.135134,1.905868,-7.451442,1.342207,72.623726,8064.000000,0.000000,4.000000,,,,0.000000,2.000000,2.000000,1.000000,2.000000,2.000000,2.000000,2.000000,2.000000,2.000000,2.000000,2.000000,2.000000,2.000000,2.000000,2.000000,2.000000,2.000000,2.000000,2.000000,2.000000,2.000000,2.000000,2.000000,2.000000,2.000000,2.000000,2.000000,2.000000,2.000000,2.000000,2.000000,2.000000,41.666668
1613959420.800830,47.000000,0.000000,0.592042,3.577166,3.554854,8.093115,-9.408502,8.753238,11.307510,12.851401,-56.062538,-24.116381,-13.611148,4.460326,-1.500797,1.708492,11.460858,27.545061,-0.373622,22.711189,15.903538,11.824716,2.725689,2.192978,7.164768,-10.735377,4.032501,0.463067,-9.709257,0.134999,1.903962,-7.443990,0.828044,72.551102,8064.000000,0.000000,4.000000,,,,0.000000,2.000000,2.000000,1.000000,2.000000,2.000000,2.000000,2.000000,2.000000,2.000000,2.000000,2.000000,2.000000,2.000000,2.000000,2.000000,2.000000,2.000000,2.000000,2.000000,2.000000,2.000000,2.000000,2.000000,2.000000,2.000000,2.000000,2.000000,2.000000,2.000000,2.000000,2.000000,2.000000,41.666668
1613959420.808480,48.000000,0.000000,0.591450,3.573589,2.525658,9.110663,-8.886272,5.154741,10.783382,12.325729,-58.057758,-24.092264,-13.084717,2.917404,-1.499296,0.681142,15.039141,32.132900,-0.373249,21.662838,15.887634,10.787250,9.389630,2.703605,7.670424,-7.134898,4.028469,3.539526,-6.622625,0.134864,1.902058,-7.436546,1.340037,73.504196,8064.000000,0.000000,4.000000,,,,0.000000,2.000000,2.000000,1.000000,2.000000,2.000000,2.000000,2.000000,2.000000,2.000000,2.000000,2.000000,2.000000,2.000000,2.000000,2.000000,2.000000,2.000000,2.000000,2.000000,2.000000,2.000000,2.000000,2.000000,2.000000,2.000000,2.000000,2.000000,2.000000,2.000000,2.000000,2.000000,2.000000,41.666668
1613959420.816229,49.000000,0.000000,1.103679,3.570015,0.471851,9.101553,-9.903028,2.072663,8.208496,10.262122,-56.461239,-23.042530,-13.071631,-1.700898,-0.984976,1.193282,13.998461,29.536665,0.652765,22.153996,12.282002,7.699539,8.867420,1.675261,7.662753,-3.538020,2.485979,1.997525,-5.077541,0.134729,1.900156,-7.941930,1.338697,72.405052,8064.000000,0.000000,4.000000,,,,0.000000,2.000000,2.000000,1.000000,2.000000,2.000000,2.000000,2.000000,2.000000,2.000000,2.000000,2.000000,2.000000,2.000000,2.000000,2.000000,2.000000,2.000000,2.000000,2.000000,2.000000,2.000000,2.000000,2.000000,2.000000,2.000000,2.000000,2.000000,2.000000,2.000000,2.000000,2.000000,2.000000,41.666668
1613959420.823878,50.000000,0.000000,-0.435886,3.566445,-1.067083,8.066810,-11.944407,1.557770,4.097724,8.713398,-56.404778,-24.045130,-13.571381,-4.263299,-0.983991,0.679268,14.497283,21.814821,0.139292,19.054918,8.679977,7.179019,8.858553,2.699226,7.655090,0.055262,6.073236,2.508348,-5.585284,0.134595,1.385436,-6.395527,0.824538,72.845467,8064.000000,0.000000,4.000000,,,,0.000000,2.000000,2.000000,1.000000,2.000000,2.000000,2.000000,2.000000,2.000000,2.000000,2.000000,2.000000,2.000000,2.000000,2.000000,2.000000,2.000000,2.000000,2.000000,2.000000,2.000000,2.000000,2.000000,2.000000,2.000000,2.000000,2.000000,2.000000,2.000000,2.000000,2.000000,2.000000,2.000000,41.666668
1613959420.831627,51.000000,0.000000,-2.999553,3.562879,0.985266,10.110025,-12.445282,1.556212,2.555165,9.217505,-56.861195,-22.482622,-11.506527,-1.694934,-0.983007,2.217050,14.482785,20.254543,-0.373668,14.420479,7.132836,7.171840,9.875335,2.183707,7.647435,0.568027,8.118445,3.018661,-5.066878,0.134460,2.409691,-2.286567,3.387815,78.413643,8064.000000,0.000000,4.000000,,,,0.000000,2.000000,2.000000,1.000000,2.000000,2.000000,2.000000,2.000000,2.000000,2.000000,2.000000,2.000000,2.000000,2.000000,2.000000,2.000000,2.000000,2.000000,2.000000,2.000000,2.000000,2.000000,2.000000,2.000000,2.000000,2.000000,2.000000,2.000000,2.000000,2.000000,2.000000,2.000000,2.000000,41.666668
1613959420.839276,52.000000,0.000000,-3.509374,3.559316,2.522743,14.715300,-9.868734,2.067477,3.578251,9.208288,-54.240231,-16.819115,-5.341175,0.358043,-1.494845,8.368679,14.468303,28.439419,3.729270,21.072725,10.202626,10.241591,8.326999,2.181523,7.639788,1.593100,7.084686,1.990001,-2.497708,0.134326,4.458564,0.279822,7.999812,84.489075,8064.000000,0.000000,4.000000,,,,0.000000,2.000000,2.000000,1.000000,2.000000,2.000000,2.000000,2.000000,2.000000,2.000000,2.000000,2.000000,2.000000,2.000000,2.000000,2.000000,2.000000,2.000000,2.000000,2.000000,2.000000,2.000000,2.000000,2.000000,2.000000,2.000000,2.000000,2.000000,2.000000,2.000000,2.000000,2.000000,2.000000,41.666668
1613959420.847025,53.000000,0.000000,-2.993044,3.555757,3.033040,17.264687,-6.781942,4.116691,3.574672,8.686259,-52.647530,-12.186911,-1.746090,0.357685,-0.980529,14.514156,14.453835,27.385338,7.828105,24.641396,10.705244,9.718530,7.805851,2.179342,7.632148,4.155610,6.564780,1.988011,-1.469570,0.134191,5.992567,0.279542,9.017453,86.968689,8064.000000,0.000000,4.000000,,,,0.000000,2.000000,2.000000,1.000000,2.000000,2.000000,2.000000,2.000000,2.000000,2.000000,2.000000,2.000000,2.000000,2.000000,2.000000,2.000000,2.000000,2.000000,2.000000,2.000000,2.000000,2.000000,2.000000,2.000000,2.000000,2.000000,2.000000,2.000000,2.000000,2.000000,2.000000,2.000000,2.000000,41.666668
1613959420.854674,54.000000,0.000000,-2.990051,3.039380,2.517187,16.221781,-5.236699,5.651036,2.545457,8.677573,-52.594879,-12.174724,-2.257164,0.357328,1.071733,16.550924,13.926559,16.075901,5.256174,13.847524,4.027872,0.990862,9.336507,-1.412581,7.624516,3.638633,8.096677,2.498843,-1.980921,0.134057,5.473753,-0.233558,8.495616,87.394547,8064.000000,0.000000,4.000000,,,,0.000000,2.000000,2.000000,1.000000,2.000000,2.000000,2.000000,2.000000,2.000000,2.000000,2.000000,2.000000,2.000000,2.000000,2.000000,2.000000,2.000000,2.000000,2.000000,2.000000,2.000000,2.000000,2.000000,2.000000,2.000000,2.000000,2.000000,2.000000,2.000000,2.000000,2.000000,2.000000,2.000000,41.666668
1613959420.862423,55.000000,0.000000,-2.987061,3.549161,2.514670,16.205559,-5.231462,5.645385,3.568552,10.720178,-51.516644,-12.675369,-2.254907,0.356970,3.121943,16.021553,14.938274,12.982902,0.635534,11.269573,-0.591541,-5.676795,5.224606,-5.513733,7.616891,3.122175,6.037299,0.957883,-1.978940,0.133923,5.468280,0.279496,8.487120,87.819969,8192.000000,0.000000,4.000000,,,,0.000000,2.000000,2.000000,1.000000,2.000000,2.000000,2.000000,2.000000,2.000000,2.000000,2.000000,2.000000,2.000000,2.000000,2.000000,2.000000,2.000000,2.000000,2.000000,2.000000,2.000000,2.000000,2.000000,2.000000,2.000000,2.000000,2.000000,2.000000,2.000000,2.000000,2.000000,2.000000,2.000000,41.666668
1613959420.870073,56.000000,0.000000,-2.984074,6.109715,5.589078,16.702175,-5.226231,5.126919,6.129086,12.760739,-48.901024,-12.149874,-1.739832,0.356613,2.606001,16.518353,14.410516,16.559662,-0.390743,17.412149,0.434692,-4.645478,-3.498568,-6.021040,7.609274,4.144693,-0.635405,-1.094357,-1.464140,0.133789,5.462811,0.279217,8.991453,87.219330,8064.000000,0.000000,4.000000,,,,0.000000,2.000000,2.000000,1.000000,2.000000,2.000000,2.000000,2.000000,2.000000,2.000000,2.000000,2.000000,2.000000,2.000000,2.000000,2.000000,2.000000,2.000000,2.000000,2.000000,2.000000,2.000000,2.000000,2.000000,2.000000,2.000000,2.000000,2.000000,2.000000,2.000000,2.000000,2.000000,2.000000,41.666668
1613959420.877922,57.000000,0.000000,-2.981090,7.642066,9.686053,16.172651,-5.221004,6.147433,7.148598,13.260798,-46.800842,-12.137724,-2.250912,0.356257,2.603395,12.912090,7.216618,10.902078,0.635289,9.702430,-1.104204,-3.615191,-8.110454,-4.989377,7.088845,2.602087,-3.198873,-2.118904,-1.975497,0.133655,5.457349,-0.233883,8.469642,87.132111,8064.000000,0.000000,4.000000,,,,0.000000,2.000000,2.000000,1.000000,2.000000,2.000000,2.000000,2.000000,2.000000,2.000000,2.000000,2.000000,2.000000,2.000000,2.000000,2.000000,2.000000,2.000000,2.000000,2.000000,2.000000,2.000000,2.000000,2.000000,2.000000,2.000000,2.000000,2.000000,2.000000,2.000000,2.000000,2.000000,2.000000,41.666668
1613959420.885671,58.000000,0.000000,-2.978109,7.121604,10.702008,16.156479,-5.215784,8.192568,7.654270,12.221897,-45.215580,-12.638406,-2.248662,-0.156920,2.600792,6.232512,-0.482906,2.686047,0.121833,-4.153426,-6.231305,-4.637217,-6.563881,-5.497209,7.594576,0.035382,-4.734135,-1.603964,-1.973521,0.133522,5.451891,0.279171,8.461172,86.532158,8064.000000,0.000000,4.000000,,,,0.000000,2.000000,2.000000,1.000000,2.000000,2.000000,2.000000,2.000000,2.000000,2.000000,2.000000,2.000000,2.000000,2.000000,2.000000,2.000000,2.000000,2.000000,2.000000,2.000000,2.000000,2.000000,2.000000,2.000000,2.000000,2.000000,2.000000,2.000000,2.000000,2.000000,2.000000,2.000000,2.000000,41.666668
1613959420.893520,59.000000,0.000000,-3.487951,7.114482,9.152844,15.627502,-5.210568,9.210016,10.723538,12.722496,-44.657543,-12.625768,0.317690,0.356057,2.598191,1.098074,-1.508065,3.196181,-0.391109,-6.200555,-8.276356,-4.632580,-6.557318,-5.491712,7.586982,-0.477473,-14.472991,-1.602360,-1.971548,0.133388,5.446439,-0.233928,8.452710,85.932800,8064.000000,0.000000,4.000000,,,,0.000000,2.000000,2.000000,1.000000,2.000000,2.000000,2.000000,2.000000,2.000000,2.000000,2.000000,2.000000,2.000000,2.000000,2.000000,2.000000,2.000000,2.000000,2.000000,2.000000,2.000000,2.000000,2.000000,2.000000,2.000000,2.000000,2.000000,2.000000,2.000000,2.000000,2.000000,2.000000,2.000000,41.666668
1613959420.901269,60.000000,0.000000,-2.971643,7.107368,9.656512,16.124695,-5.205358,9.200807,14.302559,14.761055,-45.125706,-12.613142,1.855834,0.868522,2.595593,-1.467127,0.031905,3.705806,0.122102,-4.655893,-7.242438,-4.115127,-7.063581,-5.486220,7.066574,-1.502637,-23.176466,-1.600758,-1.969576,0.133255,5.440993,-3.310617,7.931437,85.846870,8064.000000,0.000000,4.000000,,,,0.000000,2.000000,2.000000,1.000000,2.000000,2.000000,2.000000,2.000000,2.000000,2.000000,2.000000,2.000000,2.000000,2.000000,2.000000,2.000000,2.000000,2.000000,2.000000,2.000000,2.000000,2.000000,2.000000,2.000000,2.000000,2.000000,2.000000,2.000000,2.000000,2.000000,2.000000,2.000000,2.000000,41.666668
1613959420.909118,61.000000,0.000000,-0.404569,7.100261,12.210958,16.108570,-5.200152,9.191606,15.313897,16.284756,-45.080582,-12.600529,1.341157,-0.157988,2.592997,-3.004121,-1.506588,-1.938926,0.121980,-3.112775,-7.235196,-4.111012,-6.543697,-5.480734,9.623610,-4.065237,-22.127649,-1.599157,-1.967607,0.133121,5.435552,-4.332948,8.436326,86.786667,8064.000000,0.000000,4.000000,,,,0.000000,2.000000,2.000000,1.000000,2.000000,2.000000,2.000000,2.000000,2.000000,2.000000,2.000000,2.000000,2.000000,2.000000,2.000000,2.000000,2.000000,2.000000,2.000000,2.000000,2.000000,2.000000,2.000000,2.000000,2.000000,2.000000,2.000000,2.000000,2.000000,2.000000,2.000000,2.000000,2.000000,41.666668
1613959420.916867,62.000000,0.000000,1.134297,7.093161,12.711568,15.066821,-5.194952,8.669594,14.785763,16.781292,-45.035500,-12.587929,1.339816,1.380632,2.590404,-3.001117,-0.479441,-4.501090,0.121858,3.044184,-7.227961,-4.106900,-6.537153,-4.962432,13.716551,-4.573992,-19.028599,-2.110379,-1.965639,0.132988,5.430117,-1.764512,8.427890,85.161415,8064.000000,0.000000,4.000000,,,,0.000000,2.000000,2.000000,1.000000,2.000000,2.000000,2.000000,2.000000,2.000000,2.000000,2.000000,2.000000,2.000000,2.000000,2.000000,2.000000,2.000000,2.000000,2.000000,2.000000,2.000000,2.000000,2.000000,2.000000,2.000000,2.000000,2.000000,2.000000,2.000000,2.000000,2.000000,2.000000,2.000000,41.666668
1613959420.924716,63.000000,0.000000,0.620343,7.086067,14.750138,16.590216,-5.189757,9.173744,11.181233,16.764511,-44.990463,-12.575340,1.338476,6.507456,2.587814,-2.485295,2.085141,0.631617,0.121736,7.656524,-7.220733,-4.102794,-6.530616,-5.470291,15.241296,-4.569418,-14.394185,-1.595448,-1.963673,0.132855,4.911866,-1.249927,7.393821,87.127541,8064.000000,0.000000,4.000000,,,,0.000000,2.000000,2.000000,1.000000,2.000000,2.000000,2.000000,2.000000,2.000000,2.000000,2.000000,2.000000,2.000000,2.000000,2.000000,2.000000,2.000000,2.000000,2.000000,2.000000,2.000000,2.000000,2.000000,2.000000,2.000000,2.000000,2.000000,2.000000,2.000000,2.000000,2.000000,2.000000,2.000000,41.666668
1613959420.932465,64.000000,0.000000,0.619722,7.078981,21.402054,21.189011,-5.184567,13.779955,7.067488,16.234924,-44.945473,-12.562765,1.337138,7.013769,2.585226,-2.482810,3.621518,4.733549,0.121615,7.136047,-7.213512,-4.098691,-6.524085,-5.464820,14.713234,-4.564849,-4.123381,0.457430,-0.936069,0.132722,5.419775,1.315425,8.924889,96.271179,0.000000,78.000000,4.000000,,,,0.000000,2.000000,2.000000,1.000000,2.000000,2.000000,2.000000,2.000000,2.000000,2.000000,2.000000,2.000000,2.000000,2.000000,2.000000,2.000000,2.000000,2.000000,2.000000,2.000000,2.000000,2.000000,2.000000,2.000000,2.000000,2.000000,2.000000,2.000000,2.000000,2.000000,2.000000,2.000000,2.000000,41.666668
1613959420.940314,65.000000,0.000000,0.619103,7.071902,28.047319,23.731924,-5.179383,17.355919,6.547600,17.244331,-44.900528,-12.037382,1.335801,4.955473,2.582641,-2.480327,3.105076,3.703175,0.634313,6.616090,-6.693478,-4.094592,-6.517561,-4.946535,15.211341,-1.483361,3.060230,1.995434,1.628970,0.132590,5.414355,7.980776,16.095451,104.892860,0.000000,63.000000,4.000000,,,,0.000000,2.000000,2.000000,1.000000,2.000000,2.000000,2.000000,2.000000,2.000000,2.000000,2.000000,2.000000,2.000000,2.000000,2.000000,2.000000,2.000000,2.000000,2.000000,2.000000,2.000000,2.000000,2.000000,2.000000,2.000000,2.000000,2.000000,2.000000,2.000000,2.000000,2.000000,2.000000,2.000000,41.666668
1613959420.948063,66.000000,0.000000,0.618484,7.064830,28.532093,23.195372,-5.174203,15.287281,7.053873,16.201447,-44.855629,-13.563806,1.334465,4.950518,2.580058,-2.477847,2.589150,3.186651,-0.904782,5.583833,-7.712426,-4.090497,-7.023864,-5.967229,13.657668,3.133507,3.057170,1.993439,2.140162,0.132457,4.896120,12.075359,19.669100,104.275146,0.000000,80.000000,4.000000,,,,0.000000,2.000000,2.000000,1.000000,2.000000,2.000000,2.000000,2.000000,2.000000,2.000000,2.000000,2.000000,2.000000,2.000000,2.000000,2.000000,2.000000,2.000000,2.000000,2.000000,2.000000,2.000000,2.000000,2.000000,2.000000,2.000000,2.000000,2.000000,2.000000,2.000000,2.000000,2.000000,2.000000,41.666668
1613959420.955912,67.000000,0.000000,0.617865,7.057765,26.965099,22.659355,-5.169029,12.707891,6.533999,10.544219,-44.810772,-16.114346,1.333130,-1.208279,2.577478,-2.475369,3.612202,4.209105,-2.955160,3.526968,-10.268816,-4.086407,-7.016840,-8.525365,11.592729,3.643194,3.566933,0.452984,1.625201,0.132325,5.404044,10.524823,18.623789,103.145226,0.000000,66.000000,4.000000,,,,0.000000,2.000000,2.000000,1.000000,2.000000,2.000000,2.000000,2.000000,2.000000,2.000000,2.000000,2.000000,2.000000,2.000000,2.000000,2.000000,2.000000,2.000000,2.000000,2.000000,2.000000,2.000000,2.000000,2.000000,2.000000,2.000000,2.000000,2.000000,2.000000,2.000000,2.000000,2.000000,2.000000,41.666668
1613959420.963661,68.000000,0.000000,0.617247,7.050708,29.502235,23.149517,-5.163860,12.695183,6.527465,5.405469,-44.253143,-16.098230,1.331797,-10.437840,2.574900,-2.472894,3.095769,3.692076,-3.465025,2.497799,-10.771367,-3.569500,-3.932900,-9.542480,10.555495,2.101089,3.563366,3.529454,1.623576,0.132192,10.014025,10.514297,22.707729,108.170288,0.000000,72.000000,4.000000,,,,0.000000,2.000000,2.000000,1.000000,2.000000,2.000000,2.000000,2.000000,2.000000,2.000000,2.000000,2.000000,2.000000,2.000000,2.000000,2.000000,2.000000,2.000000,2.000000,2.000000,2.000000,2.000000,2.000000,2.000000,2.000000,2.000000,2.000000,2.000000,2.000000,2.000000,2.000000,2.000000,2.000000,41.666668
1613959420.971510,69.000000,0.000000,0.616630,7.043657,35.626579,22.613546,-5.158696,12.682488,7.033758,4.887243,-46.260170,-16.594954,1.330465,-8.376120,2.572326,-2.470421,0.528571,4.201204,-3.974380,3.008122,-10.760596,-4.078751,-2.903327,-9.020118,11.057760,4.663091,2.534162,12.756694,1.621952,0.132060,13.080934,11.016604,29.864510,111.651863,0.000000,91.000000,4.000000,,,,0.000000,2.000000,2.000000,1.000000,2.000000,2.000000,2.000000,2.000000,2.000000,2.000000,2.000000,2.000000,2.000000,2.000000,2.000000,2.000000,2.000000,2.000000,2.000000,2.000000,2.000000,2.000000,2.000000,2.000000,2.000000,2.000000,2.000000,2.000000,2.000000,2.000000,2.000000,2.000000,2.000000,41.666668
1613959420.979259,70.000000,0.000000,0.616013,7.036613,39.180698,22.590933,-5.153537,12.669806,7.026724,5.395177,-48.265194,-18.629641,1.329135,-2.726718,2.569753,-2.467950,0.015222,4.709824,-7.047329,4.543576,-10.237015,-4.074672,-2.387603,-9.011097,11.046702,11.837914,5.095730,17.872143,1.620330,0.131928,12.555033,10.492767,29.834644,110.001747,0.000000,80.000000,4.000000,,,,0.000000,2.000000,2.000000,1.000000,2.000000,2.000000,2.000000,2.000000,2.000000,2.000000,2.000000,2.000000,2.000000,2.000000,2.000000,2.000000,2.000000,2.000000,2.000000,2.000000,2.000000,2.000000,2.000000,2.000000,2.000000,2.000000,2.000000,2.000000,2.000000,2.000000,2.000000,2.000000,2.000000,41.666668
1613959420.986908,71.000000,0.000000,0.615397,7.029577,38.628696,24.619623,-5.661204,12.144315,6.506877,4.876961,-48.729748,-20.149471,1.327806,-3.236812,2.567183,-2.465482,2.066489,4.192293,-7.553102,6.077494,-7.662675,0.544787,4.281452,-9.002087,11.035655,15.928641,11.244480,16.315809,3.669992,0.131796,12.542478,10.482274,26.215067,110.917389,0.000000,44.000000,4.000000,,,,0.000000,2.000000,2.000000,1.000000,2.000000,2.000000,2.000000,2.000000,2.000000,2.000000,2.000000,2.000000,2.000000,2.000000,2.000000,2.000000,2.000000,2.000000,2.000000,2.000000,2.000000,2.000000,2.000000,2.000000,2.000000,2.000000,2.000000,2.000000,2.000000,2.000000,2.000000,2.000000,2.000000,41.666668
1613959420.994657,72.000000,0.000000,0.614782,7.022547,38.077248,26.133467,-5.142723,12.644992,7.013190,4.872084,-48.168198,-19.616501,1.326478,-3.233575,3.077437,-2.463017,3.602884,4.188101,-6.007088,7.609878,-4.065269,4.133986,9.405375,-8.993084,11.024620,13.861430,15.335800,16.299492,5.717604,0.131664,13.042755,10.471792,26.188850,117.473137,0.000000,92.000000,4.000000,,,,0.000000,2.000000,2.000000,1.000000,2.000000,2.000000,2.000000,2.000000,2.000000,2.000000,2.000000,2.000000,2.000000,2.000000,2.000000,2.000000,2.000000,2.000000,2.000000,2.000000,2.000000,2.000000,2.000000,2.000000,2.000000,2.000000,2.000000,2.000000,2.000000,2.000000,2.000000,2.000000,2.000000,41.666668
1613959421.002307,73.000000,0.000000,0.614167,7.015524,38.551991,28.671434,-5.137580,14.683628,7.006177,7.431314,-48.120029,-19.596886,1.325152,-3.743162,2.561539,-2.460554,4.112101,4.696733,-8.565184,7.089447,-0.984281,0.540108,6.831867,-8.984091,11.013596,14.360390,14.807644,17.308834,5.711886,0.131533,13.029713,10.461320,26.675484,121.971046,0.000000,99.000000,4.000000,,,,0.000000,2.000000,2.000000,1.000000,2.000000,2.000000,2.000000,2.000000,2.000000,2.000000,2.000000,2.000000,2.000000,2.000000,2.000000,2.000000,2.000000,2.000000,2.000000,2.000000,2.000000,2.000000,2.000000,2.000000,2.000000,2.000000,2.000000,2.000000,2.000000,2.000000,2.000000,2.000000,2.000000,41.666668
1613959421.010056,74.000000,0.000000,0.613553,7.008509,38.000618,32.745327,-5.645263,16.720226,6.486351,9.475165,-48.071911,-19.577288,1.836647,-8.867624,-0.005125,-2.458093,0.518246,-0.436168,-13.684823,0.415691,-4.060220,-3.050175,-0.354452,-8.462286,11.515402,15.884491,10.177451,16.265884,5.706174,0.131401,12.503862,10.450859,26.135986,121.336258,0.000000,71.000000,4.000000,,,,0.000000,2.000000,2.000000,1.000000,2.000000,2.000000,2.000000,2.000000,2.000000,2.000000,2.000000,2.000000,2.000000,2.000000,2.000000,2.000000,2.000000,2.000000,2.000000,2.000000,2.000000,2.000000,2.000000,2.000000,2.000000,2.000000,2.000000,2.000000,2.000000,2.000000,2.000000,2.000000,2.000000,41.666668
1613959421.017705,75.000000,0.000000,0.612939,7.001501,40.013901,34.763863,-5.126797,16.703506,7.505505,8.952869,-48.023838,-19.557711,1.321990,-11.422859,-1.543582,-2.455635,-8.200221,-11.717784,-14.696779,-11.379597,-15.851031,-5.098407,-9.072046,-8.966644,10.991066,8.689119,4.526248,16.762440,5.187648,0.131270,12.491359,8.389126,26.109850,121.214920,0.000000,97.000000,4.000000,,,,0.000000,2.000000,2.000000,1.000000,2.000000,2.000000,2.000000,2.000000,2.000000,2.000000,2.000000,2.000000,2.000000,2.000000,2.000000,2.000000,2.000000,2.000000,2.000000,2.000000,2.000000,2.000000,2.000000,2.000000,2.000000,2.000000,2.000000,2.000000,2.000000,2.000000,2.000000,2.000000,2.000000,41.666668
1613959421.025454,76.000000,0.000000,0.612327,6.994499,42.025166,33.703461,-1.019106,16.173983,12.113384,8.943916,-47.975815,-19.538153,1.320668,-8.334513,-1.029217,-2.453180,-12.294585,-19.911194,-14.169262,-19.573345,-25.578770,-10.221514,-16.755281,-11.008960,10.467255,-0.037519,1.957620,16.745676,5.182460,0.131139,12.991688,6.329455,26.083740,121.093704,0.000000,96.000000,4.000000,,,,0.000000,2.000000,2.000000,1.000000,2.000000,2.000000,2.000000,2.000000,2.000000,2.000000,2.000000,2.000000,2.000000,2.000000,2.000000,2.000000,2.000000,2.000000,2.000000,2.000000,2.000000,2.000000,2.000000,2.000000,2.000000,2.000000,2.000000,2.000000,2.000000,2.000000,2.000000,2.000000,2.000000,41.666668
1613959421.033103,77.000000,0.000000,1.124535,6.987504,41.470322,33.669758,2.571656,16.157808,14.665374,8.422153,-47.415016,-19.518616,2.344988,-6.274896,-1.028188,-2.450727,-11.256650,-18.865643,-14.155093,-19.553772,-26.066011,-14.313857,-18.276987,-12.023592,11.482429,-1.575943,2.468482,13.652008,6.202919,0.131007,11.953055,5.810305,25.544836,120.972610,0.000000,97.000000,4.000000,,,,0.000000,2.000000,2.000000,1.000000,2.000000,2.000000,2.000000,2.000000,2.000000,2.000000,2.000000,2.000000,2.000000,2.000000,2.000000,2.000000,2.000000,2.000000,2.000000,2.000000,2.000000,2.000000,2.000000,2.000000,2.000000,2.000000,2.000000,2.000000,2.000000,2.000000,2.000000,2.000000,2.000000,41.666668
1613959421.040852,78.000000,0.000000,0.097769,6.980517,42.967312,34.148907,2.056264,16.654470,14.137888,8.926551,-48.906063,-20.011917,-0.221459,-6.781442,-1.027160,-2.961096,-11.245393,-17.308315,-14.653758,-20.047039,-26.552767,-18.914927,-17.233070,-14.062851,9.419663,-0.035905,3.491655,9.535791,1.581331,0.643697,8.864179,6.317315,26.544933,121.877281,0.000000,90.000000,4.000000,,,,0.000000,2.000000,2.000000,1.000000,2.000000,2.000000,2.000000,2.000000,2.000000,2.000000,2.000000,2.000000,2.000000,2.000000,2.000000,2.000000,2.000000,2.000000,2.000000,2.000000,2.000000,2.000000,2.000000,2.000000,2.000000,2.000000,2.000000,2.000000,2.000000,2.000000,2.000000,2.000000,2.000000,41.666668
1613959421.048501,79.000000,0.000000,-2.466431,6.973536,41.898705,33.601936,2.054208,15.099356,14.123750,9.430445,-51.421261,-19.479084,-5.862264,-6.774661,-1.026133,-2.958135,-12.259789,-20.367929,-14.639105,-20.026991,-31.141598,-26.588320,-19.267118,-18.664173,3.769219,-2.599972,0.411240,7.987794,-5.599737,-1.408229,4.752750,7.336639,22.928644,119.191299,0.000000,77.000000,4.000000,,,,0.000000,2.000000,2.000000,1.000000,2.000000,2.000000,2.000000,2.000000,2.000000,2.000000,2.000000,2.000000,2.000000,2.000000,2.000000,2.000000,2.000000,2.000000,2.000000,2.000000,2.000000,2.000000,2.000000,2.000000,2.000000,2.000000,2.000000,2.000000,2.000000,2.000000,2.000000,2.000000,2.000000,41.666668
1613959421.056250,80.000000,0.000000,-3.489606,6.966563,32.626038,31.517054,2.052154,12.520153,14.622447,8.395373,-51.882660,-19.459606,-9.958965,-6.767886,-1.025107,-1.929536,-11.221888,-16.757818,-14.111645,-15.391580,-30.084816,-25.023270,-20.786314,-20.183969,2.739808,-4.648654,-4.717376,6.441345,-4.568497,-4.483744,1.671075,5.790841,16.751869,111.892624,0.000000,88.000000,4.000000,,,,0.000000,2.000000,2.000000,1.000000,2.000000,2.000000,2.000000,2.000000,2.000000,2.000000,2.000000,2.000000,2.000000,2.000000,2.000000,2.000000,2.000000,2.000000,2.000000,2.000000,2.000000,2.000000,2.000000,2.000000,2.000000,2.000000,2.000000,2.000000,2.000000,2.000000,2.000000,2.000000,2.000000,41.666668
1613959421.063900,81.000000,0.000000,-2.973296,6.959597,32.080589,29.434254,2.050102,12.507633,14.095003,8.899798,-49.266674,-19.952967,-10.461827,-6.248297,-1.024082,-3.466068,-9.159384,-3.920547,-11.533431,-11.273624,-24.413706,-15.254658,-16.662962,-18.112503,9.916555,-5.156826,-1.635736,4.896442,1.589918,-1.402337,2.182224,6.810691,18.273579,109.729446,0.000000,113.000000,4.000000,,,,0.000000,2.000000,2.000000,1.000000,2.000000,2.000000,2.000000,2.000000,2.000000,2.000000,2.000000,2.000000,2.000000,2.000000,2.000000,2.000000,2.000000,2.000000,2.000000,2.000000,2.000000,2.000000,2.000000,2.000000,2.000000,2.000000,2.000000,2.000000,2.000000,2.000000,2.000000,2.000000,2.000000,41.666668
1613959421.071649,82.000000,0.000000,-2.970322,6.952637,41.279278,30.430462,3.586513,13.007946,14.080909,15.557565,-47.678947,-17.368912,-9.425724,-6.754869,-1.023058,-2.949781,-7.611763,4.288502,-9.983436,-7.159786,-23.363649,-11.649659,-12.543736,-15.530289,15.034844,-4.126028,7.083849,4.891545,2.101149,3.214450,6.282606,17.573111,25.947613,112.696640,0.000000,107.000000,4.000000,,,,0.000000,2.000000,2.000000,1.000000,2.000000,2.000000,2.000000,2.000000,2.000000,2.000000,2.000000,2.000000,2.000000,2.000000,2.000000,2.000000,2.000000,2.000000,2.000000,2.000000,2.000000,2.000000,2.000000,2.000000,2.000000,2.000000,2.000000,2.000000,2.000000,2.000000,2.000000,2.000000,2.000000,41.666668
1613959421.079298,83.000000,0.000000,-3.480173,6.945684,35.084152,30.912851,5.634209,12.482118,14.066828,20.157393,-46.092804,-13.761799,-5.313735,-6.748115,-1.022035,4.745476,-7.091331,4.797033,-11.511914,6.180707,-15.647979,-9.073907,-13.556833,-12.437836,14.506989,-1.557800,9.640867,5.399475,0.560586,2.185595,9.353247,24.735025,27.972948,103.865997,0.000000,108.000000,4.000000,,,,0.000000,2.000000,2.000000,1.000000,2.000000,2.000000,2.000000,2.000000,2.000000,2.000000,2.000000,2.000000,2.000000,2.000000,2.000000,2.000000,2.000000,2.000000,2.000000,2.000000,2.000000,2.000000,2.000000,2.000000,2.000000,2.000000,2.000000,2.000000,2.000000,2.000000,2.000000,2.000000,2.000000,41.666668
1613959421.087147,84.000000,0.000000,-1.425410,6.938738,19.151632,25.753733,5.628574,12.469636,14.052761,18.085953,-43.995430,-12.722396,-1.718677,-4.690084,-1.021013,11.920218,-5.032957,2.740954,-9.449120,18.482218,2.316387,1.191577,-15.081738,-6.784372,13.979661,-1.043421,11.169688,4.881255,2.098487,-0.380694,8.831073,19.069263,23.842411,83.249306,0.000000,109.000000,4.000000,,,,0.000000,2.000000,2.000000,1.000000,2.000000,2.000000,2.000000,2.000000,2.000000,2.000000,2.000000,2.000000,2.000000,2.000000,2.000000,2.000000,2.000000,2.000000,2.000000,2.000000,2.000000,2.000000,2.000000,2.000000,2.000000,2.000000,2.000000,2.000000,2.000000,2.000000,2.000000,2.000000,2.000000,41.666668
1613959421.094896,85.000000,0.000000,0.627297,6.931800,15.542738,18.035671,5.622946,12.969987,14.038708,15.503764,-43.951435,-12.709673,-2.229779,-2.634112,-1.532812,11.395477,0.100281,3.763855,-2.260184,18.976557,13.596122,8.882693,-8.399989,-0.623741,16.529785,-0.016737,19.876467,4.876373,6.198953,2.183790,8.822242,16.998913,23.305748,73.935287,0.000000,123.000000,4.000000,,,,0.000000,2.000000,2.000000,1.000000,2.000000,2.000000,2.000000,2.000000,2.000000,2.000000,2.000000,2.000000,2.000000,2.000000,2.000000,2.000000,2.000000,2.000000,2.000000,2.000000,2.000000,2.000000,2.000000,2.000000,2.000000,2.000000,2.000000,2.000000,2.000000,2.000000,2.000000,2.000000,2.000000,41.666668
1613959421.102745,86.000000,0.000000,0.626670,6.924868,13.475913,15.966354,5.617323,9.880094,14.537490,16.513901,-43.907482,-12.696963,-2.227549,-3.144299,-1.018459,12.922543,3.689924,14.016500,1.331820,17.419119,12.044065,7.848170,2.377641,2.453806,18.564537,4.085844,26.523258,5.384317,9.269677,4.232888,10.351881,22.110119,22.769621,71.297249,0.000000,119.000000,4.000000,,,,0.000000,2.000000,2.000000,1.000000,2.000000,2.000000,2.000000,2.000000,2.000000,2.000000,2.000000,2.000000,2.000000,2.000000,2.000000,2.000000,2.000000,2.000000,2.000000,2.000000,2.000000,2.000000,2.000000,2.000000,2.000000,2.000000,2.000000,2.000000,2.000000,2.000000,2.000000,2.000000,2.000000,41.666668
1613959421.110494,87.000000,0.000000,0.626043,6.917943,1.667565,13.386285,6.124526,5.767649,12.984490,16.497387,-42.837936,-13.197087,-1.712501,-3.141155,-1.017440,17.012184,2.660593,25.797356,0.304847,20.478622,11.006379,6.814681,6.990648,2.451352,18.545973,7.671502,26.496735,5.891754,9.260407,3.715835,7.777427,20.036728,14.028903,54.815697,0.000000,127.000000,4.000000,,,,0.000000,2.000000,2.000000,1.000000,2.000000,2.000000,2.000000,2.000000,2.000000,2.000000,2.000000,2.000000,2.000000,2.000000,2.000000,2.000000,2.000000,2.000000,2.000000,2.000000,2.000000,2.000000,2.000000,2.000000,2.000000,2.000000,2.000000,2.000000,2.000000,2.000000,2.000000,2.000000,2.000000,41.666668
1613959421.118343,88.000000,0.000000,0.625417,6.911025,-7.052051,7.219053,6.118402,5.249061,10.920224,15.968070,-43.820740,-6.517223,-2.223609,-3.138013,-1.529243,14.431069,5.222035,26.797199,0.304543,22.509426,13.046655,7.833507,4.419555,2.448900,18.014606,7.663830,24.931776,5.373041,8.738326,3.712119,2.128623,17.452587,2.732823,34.760883,0.000000,115.000000,4.000000,,,,0.000000,2.000000,2.000000,1.000000,2.000000,2.000000,2.000000,2.000000,2.000000,2.000000,2.000000,2.000000,2.000000,2.000000,2.000000,2.000000,2.000000,2.000000,2.000000,2.000000,2.000000,2.000000,2.000000,2.000000,2.000000,2.000000,2.000000,2.000000,2.000000,2.000000,2.000000,2.000000,2.000000,41.666668
1613959421.126092,89.000000,0.000000,0.624792,6.904114,-9.609101,5.160552,5.086642,5.243812,9.883663,15.952102,-43.264095,9.386730,-1.708565,-3.134875,-1.014894,17.493563,13.421942,25.231941,0.817059,21.461275,12.007967,7.312853,4.415136,2.446451,18.509411,6.630526,27.470947,6.906130,10.268049,3.708407,2.639315,27.178724,-0.859653,32.674839,0.000000,123.000000,4.000000,,,,0.000000,2.000000,2.000000,1.000000,2.000000,2.000000,2.000000,2.000000,2.000000,2.000000,2.000000,2.000000,2.000000,2.000000,2.000000,2.000000,2.000000,2.000000,2.000000,2.000000,2.000000,2.000000,2.000000,2.000000,2.000000,2.000000,2.000000,2.000000,2.000000,2.000000,2.000000,2.000000,2.000000,41.666668
1613959421.133941,90.000000,0.000000,2.162628,6.897210,-10.112313,1.565647,6.620017,5.751389,10.386600,15.936150,-37.579807,19.120934,0.344426,-3.131741,3.601506,30.809402,18.536724,27.770811,0.303421,20.414173,10.970318,6.792719,6.974823,1.931185,17.978081,8.162356,31.546040,12.027429,12.821884,3.704698,6.226419,33.818214,1.705309,34.693447,0.000000,131.000000,4.000000,,,,0.000000,2.000000,2.000000,1.000000,2.000000,2.000000,2.000000,2.000000,2.000000,2.000000,2.000000,2.000000,2.000000,2.000000,2.000000,2.000000,2.000000,2.000000,2.000000,2.000000,2.000000,2.000000,2.000000,2.000000,2.000000,2.000000,2.000000,2.000000,2.000000,2.000000,2.000000,2.000000,2.000000,41.666668
1613959421.141690,91.000000,0.000000,4.211748,6.890313,-13.691944,-8.692328,5.587756,5.232817,10.376213,15.920214,-34.978127,16.537710,1.882543,-3.128609,6.674828,32.317055,18.518188,21.589195,1.841579,21.419399,11.984989,7.298747,2.865284,2.442074,17.960104,10.718297,21.770905,13.553863,13.321882,3.700994,3.143270,26.092087,-0.860499,19.274137,0.000000,142.000000,4.000000,,,,0.000000,2.000000,2.000000,1.000000,2.000000,2.000000,2.000000,2.000000,2.000000,2.000000,2.000000,2.000000,2.000000,2.000000,2.000000,2.000000,2.000000,2.000000,2.000000,2.000000,2.000000,2.000000,2.000000,2.000000,2.000000,2.000000,2.000000,2.000000,2.000000,2.000000,2.000000,2.000000,2.000000,41.666668
1613959421.149539,92.000000,0.000000,4.207536,6.883422,-27.011585,-14.837482,-3.648601,-0.926262,10.365837,15.904293,-45.712376,10.367326,1.367840,-3.125480,6.668153,17.925762,17.474028,7.721452,3.891020,20.885160,9.921721,6.778628,-6.881171,1.926811,18.454964,8.143476,-1.327790,6.360822,9.205997,3.697293,-1.988078,14.271123,-9.577587,0.280505,0.000000,108.000000,4.000000,,,,0.000000,2.000000,2.000000,1.000000,2.000000,2.000000,2.000000,2.000000,2.000000,2.000000,2.000000,2.000000,2.000000,2.000000,2.000000,2.000000,2.000000,2.000000,2.000000,2.000000,2.000000,2.000000,2.000000,2.000000,2.000000,2.000000,2.000000,2.000000,2.000000,2.000000,2.000000,2.000000,2.000000,41.666668
1613959421.157288,93.000000,0.000000,4.203329,6.876539,-40.317905,-13.284184,-12.362901,-8.104823,10.355472,15.375568,-57.974358,4.203112,1.366472,-3.122355,6.148664,10.215528,14.892452,1.559884,4.399949,16.761711,3.245133,2.156465,-11.489675,-2.177680,16.898046,0.443025,-14.146975,-1.850667,4.068585,3.693595,-2.498911,3.487621,-17.260317,-4.847981,0.000000,116.000000,4.000000,,,,0.000000,2.000000,2.000000,1.000000,2.000000,2.000000,2.000000,2.000000,2.000000,2.000000,2.000000,2.000000,2.000000,2.000000,2.000000,2.000000,2.000000,2.000000,2.000000,2.000000,2.000000,2.000000,2.000000,2.000000,2.000000,2.000000,2.000000,2.000000,2.000000,2.000000,2.000000,2.000000,2.000000,41.666668
1613959421.165137,94.000000,0.000000,4.199125,7.382483,-42.328873,-13.270899,-12.350538,-10.148001,10.345116,15.873013,-57.403561,-0.929296,1.877926,-2.606412,6.655336,12.769416,10.262175,3.096786,3.882729,13.155206,-0.347855,-0.922615,-9.939723,-5.252425,14.317047,-4.685624,-12.594366,-3.387278,1.500414,3.689902,-1.470771,-4.208174,-17.755878,-2.279031,0.000000,140.000000,4.000000,,,,0.000000,2.000000,2.000000,1.000000,2.000000,2.000000,2.000000,2.000000,2.000000,2.000000,2.000000,2.000000,2.000000,2.000000,2.000000,2.000000,2.000000,2.000000,2.000000,2.000000,2.000000,2.000000,2.000000,2.000000,2.000000,2.000000,2.000000,2.000000,2.000000,2.000000,2.000000,2.000000,2.000000,41.666668
1613959421.172886,95.000000,0.000000,4.194926,6.862280,-40.235260,-13.257628,-8.748444,-8.599391,10.334771,18.421244,-51.705132,-1.441188,1.876048,-3.116626,6.648681,12.243826,9.739092,5.144971,3.878846,13.142051,0.165313,-0.921692,-9.929784,-5.247172,13.789909,-4.168118,-11.556131,-0.819788,1.498914,4.199032,-1.469300,-5.742427,-16.199659,-2.789572,0.000000,77.000000,4.000000,,,,0.000000,2.000000,2.000000,1.000000,2.000000,2.000000,2.000000,2.000000,2.000000,2.000000,2.000000,2.000000,2.000000,2.000000,2.000000,2.000000,2.000000,2.000000,2.000000,2.000000,2.000000,2.000000,2.000000,2.000000,2.000000,2.000000,2.000000,2.000000,2.000000,2.000000,2.000000,2.000000,2.000000,41.666668
1613959421.180735,96.000000,0.000000,4.703552,6.855418,-41.220665,-12.731550,-8.226875,-9.103612,10.324436,19.941282,-50.114967,-2.465387,1.361351,-3.113509,6.129211,10.693121,11.267815,6.165467,3.874967,14.154550,-0.347673,-0.407950,-10.432674,-5.241925,14.288939,-4.163949,-13.595857,-3.383071,1.497415,3.169192,-4.544754,-6.249506,-19.260384,-3.299603,8064.000000,0.000000,4.000000,,,,0.000000,2.000000,2.000000,1.000000,2.000000,2.000000,2.000000,2.000000,2.000000,2.000000,2.000000,2.000000,2.000000,2.000000,2.000000,2.000000,2.000000,2.000000,2.000000,2.000000,2.000000,2.000000,2.000000,2.000000,2.000000,2.000000,2.000000,2.000000,2.000000,2.000000,2.000000,2.000000,2.000000,41.666668
1613959421.188484,97.000000,0.000000,6.750130,7.361383,-41.692265,-16.821383,-11.295571,-10.120150,10.314112,19.921343,-51.090492,-7.078307,1.359990,-2.597575,6.123082,8.631145,8.692444,6.159302,3.871092,11.576292,-0.860146,-0.920363,-10.422241,-8.313606,14.274651,-4.672606,-13.069441,-11.584816,0.470276,1.114741,-9.668414,-10.858641,-23.343687,-2.783483,8064.000000,0.000000,4.000000,,,,0.000000,2.000000,2.000000,1.000000,2.000000,2.000000,2.000000,2.000000,2.000000,2.000000,2.000000,2.000000,2.000000,2.000000,2.000000,2.000000,2.000000,2.000000,2.000000,2.000000,2.000000,2.000000,2.000000,2.000000,2.000000,2.000000,2.000000,2.000000,2.000000,2.000000,2.000000,2.000000,2.000000,41.666668
1613959421.196333,98.000000,0.000000,8.281841,6.328381,-40.624931,-20.394304,-14.874020,-9.597209,10.303798,19.388599,-51.039402,-11.173792,1.871451,-3.620619,6.116959,2.981489,3.555547,6.665963,3.867221,9.513433,0.679176,-0.919442,-10.411819,-9.330934,14.260376,-4.667933,-13.056371,-14.650154,0.982627,-0.424835,-13.761310,-13.411884,-25.371626,-2.780699,8064.000000,0.000000,4.000000,,,,0.000000,2.000000,2.000000,1.000000,2.000000,2.000000,2.000000,2.000000,2.000000,2.000000,2.000000,2.000000,2.000000,2.000000,2.000000,2.000000,2.000000,2.000000,2.000000,2.000000,2.000000,2.000000,2.000000,2.000000,2.000000,2.000000,2.000000,2.000000,2.000000,2.000000,2.000000,2.000000,2.000000,41.666668
1613959421.204082,99.000000,0.000000,7.760739,2.219488,-40.584309,-20.373911,-16.910427,-9.074791,10.293493,15.779468,-49.449902,-13.213901,0.331118,-6.181101,6.110842,-0.098416,2.013530,7.172117,3.863354,8.991100,-2.398426,-0.405702,-9.888587,-8.808783,14.246116,-4.663265,-12.017673,-5.404735,2.007285,0.088410,-13.234728,-10.834371,-24.320614,-1.752278,8064.000000,0.000000,4.000000,,,,0.000000,2.000000,2.000000,1.000000,2.000000,2.000000,2.000000,2.000000,2.000000,2.000000,2.000000,2.000000,2.000000,2.000000,2.000000,2.000000,2.000000,2.000000,2.000000,2.000000,2.000000,2.000000,2.000000,2.000000,2.000000,2.000000,2.000000,2.000000,2.000000,2.000000,2.000000,2.000000,2.000000,41.666668
1613959421.211931,100.000000,0.000000,7.752978,-0.859655,-41.056545,-26.507383,-18.431978,-13.168281,10.283200,10.122663,-50.426094,-15.251968,-2.746136,-6.687740,4.566270,0.414503,3.037157,2.549561,3.859490,8.982109,-7.524233,-0.405297,-10.391519,-9.825615,14.231870,-4.658602,-9.441553,2.805798,0.466816,0.088322,-12.708673,-7.233792,-24.809113,-3.288987,8064.000000,0.000000,4.000000,,,,0.000000,2.000000,2.000000,1.000000,2.000000,2.000000,2.000000,2.000000,2.000000,2.000000,2.000000,2.000000,2.000000,2.000000,2.000000,2.000000,2.000000,2.000000,2.000000,2.000000,2.000000,2.000000,2.000000,2.000000,2.000000,2.000000,2.000000,2.000000,2.000000,2.000000,2.000000,2.000000,2.000000,41.666668
1613959421.219680,101.000000,0.000000,7.745225,-1.371615,-40.502666,-33.147541,-20.464828,-18.283318,10.272917,7.548438,-57.042332,-18.826460,-5.307493,-7.193873,1.484780,-0.611552,2.008479,-0.017091,3.855631,9.998768,-3.414145,-0.404891,-9.868307,-8.277328,14.217638,-1.064200,-4.303907,1.264531,1.491990,-0.424587,-14.747246,-6.200917,-25.297125,-2.772877,8064.000000,0.000000,4.000000,,,,0.000000,2.000000,2.000000,1.000000,2.000000,2.000000,2.000000,2.000000,2.000000,2.000000,2.000000,2.000000,2.000000,2.000000,2.000000,2.000000,2.000000,2.000000,2.000000,2.000000,2.000000,2.000000,2.000000,2.000000,2.000000,2.000000,2.000000,2.000000,2.000000,2.000000,2.000000,2.000000,2.000000,41.666668
1613959421.227330,102.000000,0.000000,7.737480,-0.857423,-36.359600,-27.473370,-19.931543,-14.162470,10.262644,8.053710,-62.626316,-20.858915,-6.840647,-7.699500,1.996116,0.414700,4.570573,11.264977,3.338955,13.065692,3.255936,1.133975,-5.243054,-1.089563,14.203421,1.500967,9.546551,2.801728,7.644345,0.088658,-11.142756,-3.630614,-23.220545,5.435024,8064.000000,0.000000,4.000000,,,,0.000000,2.000000,2.000000,1.000000,2.000000,2.000000,2.000000,2.000000,2.000000,2.000000,2.000000,2.000000,2.000000,2.000000,2.000000,2.000000,2.000000,2.000000,2.000000,2.000000,2.000000,2.000000,2.000000,2.000000,2.000000,2.000000,2.000000,2.000000,2.000000,2.000000,2.000000,2.000000,2.000000,41.666668
1613959421.235079,103.000000,0.000000,7.729743,-0.343745,-33.759136,-19.753588,-16.834688,-4.404717,10.252381,8.558476,-59.486767,-17.761133,-5.808165,-3.589236,8.660787,10.157875,14.309592,25.612686,4.874077,18.180832,3.765501,3.184123,0.403215,3.014091,14.189217,2.012286,26.972902,9.465592,13.277726,0.088569,-3.439305,6.116606,-17.556299,16.198820,8064.000000,0.000000,4.000000,,,,0.000000,2.000000,2.000000,1.000000,2.000000,2.000000,2.000000,2.000000,2.000000,2.000000,2.000000,2.000000,2.000000,2.000000,2.000000,2.000000,2.000000,2.000000,2.000000,2.000000,2.000000,2.000000,2.000000,2.000000,2.000000,2.000000,2.000000,2.000000,2.000000,2.000000,2.000000,2.000000,2.000000,41.666668
1613959421.242728,104.000000,0.000000,8.234834,-1.881863,-31.674097,-21.272295,-14.766572,-0.297749,10.242129,7.524277,-54.299076,-10.051065,-3.238255,3.593841,13.780331,20.404127,21.474770,31.228100,7.433306,25.854958,6.838658,3.180939,1.941273,1.985435,14.175028,10.728223,33.099773,13.558691,12.751628,-0.424340,-1.384583,14.828439,-12.923358,18.233902,8064.000000,0.000000,4.000000,,,,0.000000,2.000000,2.000000,1.000000,2.000000,2.000000,2.000000,2.000000,2.000000,2.000000,2.000000,2.000000,2.000000,2.000000,2.000000,2.000000,2.000000,2.000000,2.000000,2.000000,2.000000,2.000000,2.000000,2.000000,2.000000,2.000000,2.000000,2.000000,2.000000,2.000000,2.000000,2.000000,2.000000,41.666668
1613959421.250477,105.000000,0.000000,7.713778,-0.341520,-22.924475,-17.148460,-11.674882,-2.348733,9.719067,9.055214,-51.167854,-2.348706,-2.209375,4.615888,13.766551,22.947826,21.453295,33.248154,7.938693,33.008591,14.011307,3.177758,0.913691,3.521912,14.160852,23.538008,32.041035,13.032311,12.738876,0.601726,-1.896019,14.813610,-9.833511,21.292591,8064.000000,0.000000,4.000000,,,,0.000000,2.000000,2.000000,1.000000,2.000000,2.000000,2.000000,2.000000,2.000000,2.000000,2.000000,2.000000,2.000000,2.000000,2.000000,2.000000,2.000000,2.000000,2.000000,2.000000,2.000000,2.000000,2.000000,2.000000,2.000000,2.000000,2.000000,2.000000,2.000000,2.000000,2.000000,2.000000,2.000000,41.666668
1613959421.258126,106.000000,0.000000,7.706064,7.351130,-13.157960,-4.310798,-7.047822,-1.320743,10.734988,15.200006,-46.501301,3.294668,-2.207166,3.585631,13.239964,23.437698,20.919022,32.189262,7.417934,30.411480,15.022937,3.174581,0.912777,6.082492,14.146691,26.591393,34.573097,12.506459,13.238957,2.652406,3.746902,14.285975,-2.644191,32.040531,8192.000000,0.000000,4.000000,,,,0.000000,2.000000,2.000000,1.000000,2.000000,2.000000,2.000000,2.000000,2.000000,2.000000,2.000000,2.000000,2.000000,2.000000,2.000000,2.000000,2.000000,2.000000,2.000000,2.000000,2.000000,2.000000,2.000000,2.000000,2.000000,2.000000,2.000000,2.000000,2.000000,2.000000,2.000000,2.000000,2.000000,41.666668
1613959421.265875,107.000000,0.000000,8.211179,14.523266,-9.555058,-0.203923,-3.963852,1.757501,12.775536,20.313011,-41.839413,8.419579,-1.179318,5.120507,12.713903,23.927082,20.385283,22.413485,7.923337,21.150299,11.418170,3.171406,1.424685,6.076410,14.132545,25.026340,29.923138,13.519593,12.200078,4.188215,9.384181,15.297331,5.563581,39.187977,8064.000000,0.000000,4.000000,,,,0.000000,2.000000,2.000000,1.000000,2.000000,2.000000,2.000000,2.000000,2.000000,2.000000,2.000000,2.000000,2.000000,2.000000,2.000000,2.000000,2.000000,2.000000,2.000000,2.000000,2.000000,2.000000,2.000000,2.000000,2.000000,2.000000,2.000000,2.000000,2.000000,2.000000,2.000000,2.000000,2.000000,41.666668
1613959421.273524,108.000000,0.000000,5.638865,14.508742,-10.571144,-4.819104,-3.959888,2.268564,14.301221,18.754236,-41.797577,4.821415,-2.716600,3.576925,9.111445,18.262129,15.236691,7.006456,6.889772,16.513763,10.893931,3.168235,1.936081,5.557513,14.118412,26.026955,16.047062,11.454792,13.213519,3.671206,10.400437,9.641008,6.070838,38.635967,8064.000000,0.000000,4.000000,,,,0.000000,2.000000,2.000000,1.000000,2.000000,2.000000,2.000000,2.000000,2.000000,2.000000,2.000000,2.000000,2.000000,2.000000,2.000000,2.000000,2.000000,2.000000,2.000000,2.000000,2.000000,2.000000,2.000000,2.000000,2.000000,2.000000,2.000000,2.000000,2.000000,2.000000,2.000000,2.000000,2.000000,41.666668
1613959421.281273,109.000000,0.000000,1.017842,13.981413,-13.637496,-5.839926,-6.007210,1.753475,13.774099,16.171379,-46.883984,-8.516740,-7.842089,1.009245,6.025411,11.064380,9.580429,-1.205678,3.293139,16.497250,12.421499,3.677887,0.908504,5.551955,14.104294,19.334261,6.287424,8.879234,12.174664,3.667535,7.825935,0.913418,1.962204,36.033230,8064.000000,0.000000,4.000000,,,,0.000000,2.000000,2.000000,1.000000,2.000000,2.000000,2.000000,2.000000,2.000000,2.000000,2.000000,2.000000,2.000000,2.000000,2.000000,2.000000,2.000000,2.000000,2.000000,2.000000,2.000000,2.000000,2.000000,2.000000,2.000000,2.000000,2.000000,2.000000,2.000000,2.000000,2.000000,2.000000,2.000000,41.666668
1613959421.288923,110.000000,0.000000,-0.008817,14.480252,-17.726423,-4.808445,-7.539664,1.751721,13.760325,15.642387,-49.914021,-16.713350,-10.398349,5.110800,5.506565,7.463572,10.083669,3.410912,-0.812719,17.506393,11.383436,3.161388,0.907595,5.546403,14.090190,8.032875,4.229855,7.331894,5.495823,3.663867,2.177083,-1.651598,1.960241,34.971554,8064.000000,0.000000,4.000000,,,,0.000000,2.000000,2.000000,1.000000,2.000000,2.000000,2.000000,2.000000,2.000000,2.000000,2.000000,2.000000,2.000000,2.000000,2.000000,2.000000,2.000000,2.000000,2.000000,2.000000,2.000000,2.000000,2.000000,2.000000,2.000000,2.000000,2.000000,2.000000,2.000000,2.000000,2.000000,2.000000,2.000000,41.666668
1613959421.296772,111.000000,0.000000,-1.034449,14.465772,-18.734337,-5.316457,-8.557766,1.749969,13.746565,15.626744,-49.864109,-16.183817,-9.362309,8.182612,6.013879,5.917646,15.201791,11.099809,-0.299085,20.052990,9.833591,2.132586,1.932329,5.540857,14.076099,5.460740,3.199984,3.734818,0.362122,3.660204,-1.927658,-0.624305,2.471102,33.398121,8064.000000,0.000000,4.000000,,,,0.000000,2.000000,2.000000,1.000000,2.000000,2.000000,2.000000,2.000000,2.000000,2.000000,2.000000,2.000000,2.000000,2.000000,2.000000,2.000000,2.000000,2.000000,2.000000,2.000000,2.000000,2.000000,2.000000,2.000000,2.000000,2.000000,2.000000,2.000000,2.000000,2.000000,2.000000,2.000000,2.000000,41.666668
1613959421.304521,112.000000,0.000000,2.043508,13.938485,-18.202782,-5.823961,-11.626131,1.748219,13.732819,15.611118,-49.814243,-15.654813,-9.352947,5.610327,5.495045,3.860447,17.750690,13.652811,4.316598,19.007296,12.387860,3.156094,-2.172168,5.535316,14.062023,5.455279,1.145502,-0.371481,0.874580,3.656543,-2.438551,-1.136501,-3.685216,33.364723,8064.000000,0.000000,4.000000,,,,0.000000,2.000000,2.000000,1.000000,2.000000,2.000000,2.000000,2.000000,2.000000,2.000000,2.000000,2.000000,2.000000,2.000000,2.000000,2.000000,2.000000,2.000000,2.000000,2.000000,2.000000,2.000000,2.000000,2.000000,2.000000,2.000000,2.000000,2.000000,2.000000,2.000000,2.000000,2.000000,2.000000,41.666668
1613959421.312270,113.000000,0.000000,11.272234,13.924547,-19.210220,-5.818137,-15.717069,1.746471,13.719086,17.646790,-50.277248,-16.664799,-9.856415,3.553435,6.002370,2.830945,15.681659,14.664800,7.389205,14.372904,8.272908,3.665759,-10.375124,5.529781,14.047961,1.860080,-3.983849,-2.935212,1.386526,3.652887,-1.923292,-1.648185,-10.348197,33.331360,8064.000000,0.000000,4.000000,,,,0.000000,2.000000,2.000000,1.000000,2.000000,2.000000,2.000000,2.000000,2.000000,2.000000,2.000000,2.000000,2.000000,2.000000,2.000000,2.000000,2.000000,2.000000,2.000000,2.000000,2.000000,2.000000,2.000000,2.000000,2.000000,2.000000,2.000000,2.000000,2.000000,2.000000,2.000000,2.000000,2.000000,41.666668
1613959421.319919,114.000000,0.000000,15.363525,13.910623,-18.678190,-5.812319,-16.214172,1.744725,13.705367,19.167604,-50.226974,-16.135313,-9.333738,4.062702,5.996368,3.853755,13.614695,12.598853,7.894636,13.845711,-7.632800,-2.491753,-15.492954,5.524251,14.033914,-1.731524,-10.133711,-3.957917,0.872319,3.649234,-2.434189,-0.620896,-10.850670,33.298027,8064.000000,0.000000,4.000000,,,,0.000000,2.000000,2.000000,1.000000,2.000000,2.000000,2.000000,2.000000,2.000000,2.000000,2.000000,2.000000,2.000000,2.000000,2.000000,2.000000,2.000000,2.000000,2.000000,2.000000,2.000000,2.000000,2.000000,2.000000,2.000000,2.000000,2.000000,2.000000,2.000000,2.000000,2.000000,2.000000,2.000000,41.666668
1613959421.327768,115.000000,0.000000,12.271239,13.896712,-18.659512,-6.319327,-15.685138,1.230160,13.691661,19.148436,-50.176746,-16.119179,-9.324404,4.058639,5.990371,4.362722,14.626721,5.919587,7.373921,11.780582,-14.291834,-4.027723,-13.938999,5.518727,13.507059,-2.755433,-6.021013,0.148605,3.948370,3.645585,-2.431755,-0.620275,-9.814178,32.751911,8064.000000,0.000000,4.000000,,,,0.000000,2.000000,2.000000,1.000000,2.000000,2.000000,2.000000,2.000000,2.000000,2.000000,2.000000,2.000000,2.000000,2.000000,2.000000,2.000000,2.000000,2.000000,2.000000,2.000000,2.000000,2.000000,2.000000,2.000000,2.000000,2.000000,2.000000,2.000000,2.000000,2.000000,2.000000,2.000000,2.000000,41.666668
1613959421.335517,116.000000,0.000000,11.233327,13.882815,-19.666492,-6.313008,-15.669453,1.741750,13.677970,19.129288,-50.126568,-15.590239,-9.827900,4.054581,5.984381,3.332718,13.586453,2.836745,9.930650,3.050853,-2.482670,5.207074,-8.284035,5.513208,14.006372,0.837066,3.728597,8.866405,8.046986,3.641939,-1.916502,-1.645296,-10.830005,33.231979,8064.000000,0.000000,4.000000,,,,0.000000,2.000000,2.000000,1.000000,2.000000,2.000000,2.000000,2.000000,2.000000,2.000000,2.000000,2.000000,2.000000,2.000000,2.000000,2.000000,2.000000,2.000000,2.000000,2.000000,2.000000,2.000000,2.000000,2.000000,2.000000,2.000000,2.000000,2.000000,2.000000,2.000000,2.000000,2.000000,2.000000,41.666668
1613959421.343366,117.000000,0.000000,11.734914,13.868933,-17.082724,-5.281054,-15.653783,1.740008,13.664291,19.110159,-49.563622,-16.087469,-9.305252,4.050526,5.978397,4.355027,13.572866,7.449292,12.484821,2.022162,5.212120,10.330072,-3.147546,5.507695,16.043648,9.554177,6.288971,13.985744,9.064580,3.638297,-1.401765,0.407631,-10.306355,33.198746,8064.000000,0.000000,4.000000,,,,0.000000,2.000000,2.000000,1.000000,2.000000,2.000000,2.000000,2.000000,2.000000,2.000000,2.000000,2.000000,2.000000,2.000000,2.000000,2.000000,2.000000,2.000000,2.000000,2.000000,2.000000,2.000000,2.000000,2.000000,2.000000,2.000000,2.000000,2.000000,2.000000,2.000000,2.000000,2.000000,2.000000,41.666668
1613959421.351115,118.000000,0.000000,8.646256,13.855063,-13.475898,-6.814234,-15.638129,0.712627,13.650627,19.091047,-50.026878,-16.071381,-6.731844,4.046475,5.972418,10.504518,16.636217,11.031587,10.933875,9.199627,2.642805,7.755640,-2.118757,5.502187,17.566067,14.672829,5.769862,12.433296,8.542694,3.634659,-1.913184,4.509788,-10.296048,32.652725,8064.000000,0.000000,4.000000,,,,0.000000,2.000000,2.000000,1.000000,2.000000,2.000000,2.000000,2.000000,2.000000,2.000000,2.000000,2.000000,2.000000,2.000000,2.000000,2.000000,2.000000,2.000000,2.000000,2.000000,2.000000,2.000000,2.000000,2.000000,2.000000,2.000000,2.000000,2.000000,2.000000,2.000000,2.000000,2.000000,2.000000,41.666668
1613959421.358964,119.000000,0.000000,7.099148,13.841208,-11.923961,-5.268959,-15.622491,2.763196,13.636977,19.071957,-49.464031,-14.516849,-5.699471,4.042429,5.966446,15.622218,14.055478,10.507734,6.307557,8.164786,4.178624,6.722243,-2.629459,5.496685,18.061321,14.145335,11.405118,12.420863,8.534152,3.631024,-2.424092,7.069381,-9.772931,34.158535,8064.000000,0.000000,4.000000,,,,0.000000,2.000000,2.000000,1.000000,2.000000,2.000000,2.000000,2.000000,2.000000,2.000000,2.000000,2.000000,2.000000,2.000000,2.000000,2.000000,2.000000,2.000000,2.000000,2.000000,2.000000,2.000000,2.000000,2.000000,2.000000,2.000000,2.000000,2.000000,2.000000,2.000000,2.000000,2.000000,2.000000,41.666668
1613959421.366713,120.000000,0.000000,7.604870,13.827367,-8.322293,3.454259,-15.606869,7.375818,13.623340,19.052885,-45.824825,-9.886947,-5.693772,4.038386,5.960479,15.606596,5.323474,9.984406,3.737147,-2.099789,2.123163,2.612957,-1.601188,6.004009,18.043259,13.618369,14.983457,13.434083,9.038438,3.627393,1.168076,8.087953,-2.583671,40.278225,8064.000000,0.000000,4.000000,,,,0.000000,2.000000,2.000000,1.000000,2.000000,2.000000,2.000000,2.000000,2.000000,2.000000,2.000000,2.000000,2.000000,2.000000,2.000000,2.000000,2.000000,2.000000,2.000000,2.000000,2.000000,2.000000,2.000000,2.000000,2.000000,2.000000,2.000000,2.000000,2.000000,2.000000,2.000000,2.000000,2.000000,41.666668
1613959421.374562,121.000000,0.000000,7.597265,13.813540,-2.160125,9.604651,-15.591262,9.932545,13.609716,19.033833,-40.650795,-5.261675,-3.123975,4.034348,5.954519,14.565349,1.215587,10.487243,2.707768,-7.225894,-8.135370,-4.569144,-2.112408,5.485184,16.999575,14.630392,13.942832,11.882188,9.029400,3.623766,2.192549,10.643967,4.598400,44.853329,8064.000000,0.000000,4.000000,,,,0.000000,2.000000,2.000000,1.000000,2.000000,2.000000,2.000000,2.000000,2.000000,2.000000,2.000000,2.000000,2.000000,2.000000,2.000000,2.000000,2.000000,2.000000,2.000000,2.000000,2.000000,2.000000,2.000000,2.000000,2.000000,2.000000,2.000000,2.000000,2.000000,2.000000,2.000000,2.000000,2.000000,41.666668
1613959421.382311,122.000000,0.000000,7.589667,14.312547,-0.106682,9.082226,-15.575670,8.896971,13.596107,19.014799,-38.046040,-2.179491,-1.582390,4.030314,5.948565,15.576425,2.752832,10.476755,0.653779,-1.577643,-8.640056,-3.538934,-2.623116,5.479699,14.418473,14.615762,14.954530,9.306203,6.969089,3.620142,-6.014771,10.633323,5.619442,43.270016,8064.000000,0.000000,4.000000,,,,0.000000,2.000000,2.000000,1.000000,2.000000,2.000000,2.000000,2.000000,2.000000,2.000000,2.000000,2.000000,2.000000,2.000000,2.000000,2.000000,2.000000,2.000000,2.000000,2.000000,2.000000,2.000000,2.000000,2.000000,2.000000,2.000000,2.000000,2.000000,2.000000,2.000000,2.000000,2.000000,2.000000,41.666668
1613959421.390160,123.000000,0.000000,7.582078,12.759772,0.919065,8.560323,-15.560095,8.888074,13.582511,18.995783,-38.007996,-0.638850,-2.093628,4.026283,5.942616,16.073668,2.237259,10.466278,-0.885337,5.090601,1.112175,2.105631,-2.107672,5.987040,13.378413,13.575505,12.375473,8.271255,5.423658,3.616522,-9.085680,10.109869,4.588182,43.739567,8064.000000,0.000000,4.000000,,,,0.000000,2.000000,2.000000,1.000000,2.000000,2.000000,2.000000,2.000000,2.000000,2.000000,2.000000,2.000000,2.000000,2.000000,2.000000,2.000000,2.000000,2.000000,2.000000,2.000000,2.000000,2.000000,2.000000,2.000000,2.000000,2.000000,2.000000,2.000000,2.000000,2.000000,2.000000,2.000000,2.000000,41.666668
1613959421.397909,124.000000,0.000000,6.036034,10.695731,6.046351,9.577404,-15.544535,9.392007,13.568928,18.976788,-37.969986,-0.125390,-2.091534,4.022257,5.936673,15.544774,3.260663,10.455812,0.141190,6.623972,5.213626,3.641987,-3.644026,4.955412,13.877855,14.074750,1.593867,9.288625,3.879772,3.612906,-1.897107,11.125401,5.096414,50.362492,8064.000000,0.000000,4.000000,,,,0.000000,2.000000,2.000000,1.000000,2.000000,2.000000,2.000000,2.000000,2.000000,2.000000,2.000000,2.000000,2.000000,2.000000,2.000000,2.000000,2.000000,2.000000,2.000000,2.000000,2.000000,2.000000,2.000000,2.000000,2.000000,2.000000,2.000000,2.000000,2.000000,2.000000,2.000000,2.000000,2.000000,41.666668
1613959421.405758,125.000000,0.000000,3.978716,10.172215,8.091587,9.055006,-15.528991,8.869794,13.555359,18.957811,-37.932014,-0.638086,-2.089443,4.018235,5.930737,14.503589,7.872787,10.445356,0.141048,6.104528,4.182772,3.125525,-7.742946,0.847892,13.351157,14.573496,-6.100035,8.766516,1.824611,3.609293,-4.972133,8.550172,5.091318,55.953156,8064.000000,0.000000,4.000000,,,,0.000000,2.000000,2.000000,1.000000,2.000000,2.000000,2.000000,2.000000,2.000000,2.000000,2.000000,2.000000,2.000000,2.000000,2.000000,2.000000,2.000000,2.000000,2.000000,2.000000,2.000000,2.000000,2.000000,2.000000,2.000000,2.000000,2.000000,2.000000,2.000000,2.000000,2.000000,2.000000,2.000000,41.666668
1613959421.413507,126.000000,0.000000,3.974737,10.162043,6.545034,8.533131,-15.513461,9.373745,13.541804,19.451674,-37.894085,-0.637447,-2.087353,4.014217,5.924806,16.027546,10.941837,12.999014,0.140907,6.098423,2.640127,2.096758,-10.299306,-1.717058,13.850626,9.430717,-5.068294,6.193647,0.797145,3.605683,-16.249212,3.926238,4.573406,54.871563,8064.000000,0.000000,4.000000,,,,0.000000,2.000000,2.000000,1.000000,2.000000,2.000000,2.000000,2.000000,2.000000,2.000000,2.000000,2.000000,2.000000,2.000000,2.000000,2.000000,2.000000,2.000000,2.000000,2.000000,2.000000,2.000000,2.000000,2.000000,2.000000,2.000000,2.000000,2.000000,2.000000,2.000000,2.000000,2.000000,2.000000,41.666668
1613959421.421356,127.000000,0.000000,3.457942,10.151880,7.051310,9.550239,-15.497948,8.851550,14.041082,18.919401,-37.856190,-1.149631,-2.085266,4.010202,5.918881,14.985878,10.418075,14.524476,0.140766,7.117966,-2.490718,0.043379,-9.776186,-2.228162,18.452160,3.267440,-4.550405,4.648992,1.309168,3.602077,-16.232964,2.383850,4.568833,53.791050,8064.000000,0.000000,4.000000,,,,0.000000,2.000000,2.000000,1.000000,2.000000,2.000000,2.000000,2.000000,2.000000,2.000000,2.000000,2.000000,2.000000,2.000000,2.000000,2.000000,2.000000,2.000000,2.000000,2.000000,2.000000,2.000000,2.000000,2.000000,2.000000,2.000000,2.000000,2.000000,2.000000,2.000000,2.000000,2.000000,2.000000,41.666668
1613959421.429105,0.000000,0.000000,4.480125,10.141728,7.044258,8.002227,-15.482450,6.791417,13.514221,16.849199,-39.869617,-5.763865,-2.083181,3.493372,5.912962,7.278584,9.382016,11.945849,0.140626,6.085207,-8.129252,-0.982305,-9.766410,-1.713113,21.510632,1.725711,-5.571496,5.157163,1.307859,3.598475,-9.550063,2.894286,4.564264,55.788540,0.000000,81.000000,4.000000,,,,0.000000,2.000000,2.000000,1.000000,2.000000,2.000000,2.000000,2.000000,2.000000,2.000000,2.000000,2.000000,2.000000,2.000000,2.000000,2.000000,2.000000,2.000000,2.000000,2.000000,2.000000,2.000000,2.000000,2.000000,2.000000,2.000000,2.000000,2.000000,2.000000,2.000000,2.000000,2.000000,2.000000,41.666668
1613959421.436755,1.000000,0.000000,7.552568,8.593125,-0.142273,1.327558,-15.466968,3.194882,10.936604,14.781069,-43.419491,-13.963230,-2.081098,4.515520,5.907049,0.091818,9.885454,10.908262,0.140485,4.540660,-7.608303,-0.468502,-10.269464,-1.711400,21.489120,2.749626,-4.540283,5.152006,1.306551,3.594877,-9.027693,2.891392,4.559700,52.655827,0.000000,77.000000,4.000000,,,,0.000000,2.000000,2.000000,1.000000,2.000000,2.000000,2.000000,2.000000,2.000000,2.000000,2.000000,2.000000,2.000000,2.000000,2.000000,2.000000,2.000000,2.000000,2.000000,2.000000,2.000000,2.000000,2.000000,2.000000,2.000000,2.000000,2.000000,2.000000,2.000000,2.000000,2.000000,2.000000,2.000000,41.666668
1613959421.444504,2.000000,0.000000,7.032195,6.533250,-5.270336,-3.289155,-15.451501,1.140405,9.387206,14.766288,-45.940174,-16.513369,-2.079016,3.485363,5.901142,-0.421094,10.901210,9.358892,0.140345,0.946376,-7.087874,-0.468034,-9.746374,-1.709689,20.954811,2.234056,-4.535743,4.634034,1.818065,3.591282,-9.531486,2.375680,4.555140,47.474968,0.000000,67.000000,4.000000,,,,0.000000,2.000000,2.000000,1.000000,2.000000,2.000000,2.000000,2.000000,2.000000,2.000000,2.000000,2.000000,2.000000,2.000000,2.000000,2.000000,2.000000,2.000000,2.000000,2.000000,2.000000,2.000000,2.000000,2.000000,2.000000,2.000000,2.000000,2.000000,2.000000,2.000000,2.000000,2.000000,2.000000,41.666668
1613959421.452153,3.000000,0.000000,4.461061,6.013896,-3.213784,-2.260224,-15.948870,1.652085,9.890639,15.264342,-45.894234,-11.881472,-2.076937,0.917775,5.382421,0.604968,7.300565,3.708508,0.140204,-1.105852,-8.106427,-0.467566,-9.736628,-1.707979,19.908215,2.231822,-4.531207,5.655041,1.303427,4.100512,-6.445031,2.886125,4.550585,47.940311,0.000000,80.000000,4.000000,,,,0.000000,2.000000,2.000000,1.000000,2.000000,2.000000,2.000000,2.000000,2.000000,2.000000,2.000000,2.000000,2.000000,2.000000,2.000000,2.000000,2.000000,2.000000,2.000000,2.000000,2.000000,2.000000,2.000000,2.000000,2.000000,2.000000,2.000000,2.000000,2.000000,2.000000,2.000000,2.000000,2.000000,41.666668
1613959421.459902,4.000000,0.000000,3.943779,6.520703,-1.159288,-2.257964,-16.445742,1.650433,9.880749,15.249078,-45.848339,-8.279846,-2.074861,0.404037,5.889859,0.091543,2.677880,3.191979,0.140064,-1.617567,-7.072680,-0.979919,-10.239712,-1.706271,17.324203,2.742411,-3.501035,7.700667,2.327764,2.557949,-4.387304,2.883239,4.033214,50.969296,0.000000,93.000000,4.000000,,,,0.000000,2.000000,2.000000,1.000000,2.000000,2.000000,2.000000,2.000000,2.000000,2.000000,2.000000,2.000000,2.000000,2.000000,2.000000,2.000000,2.000000,2.000000,2.000000,2.000000,2.000000,2.000000,2.000000,2.000000,2.000000,2.000000,2.000000,2.000000,2.000000,2.000000,2.000000,2.000000,2.000000,41.666668
1613959421.467551,5.000000,0.000000,2.914194,6.514182,-1.158129,-2.768527,-14.378014,1.135962,9.870868,14.721008,-45.289669,-8.784387,-2.072786,2.967735,8.448071,0.091451,7.290586,10.368274,0.652744,-1.103129,-3.988684,-0.466118,-7.665369,-1.191744,17.306881,2.739669,-0.933431,9.231428,5.402359,0.504109,-5.408558,2.880356,4.029181,50.405506,0.000000,64.000000,4.000000,,,,0.000000,2.000000,2.000000,1.000000,2.000000,2.000000,2.000000,2.000000,2.000000,2.000000,2.000000,2.000000,2.000000,2.000000,2.000000,2.000000,2.000000,2.000000,2.000000,2.000000,2.000000,2.000000,2.000000,2.000000,2.000000,2.000000,2.000000,2.000000,2.000000,2.000000,2.000000,2.000000,2.000000,41.666668
1613959421.475300,6.000000,0.000000,0.859998,6.507668,1.407132,-2.765758,-11.799533,2.160467,9.860997,15.731928,-45.757202,-8.775602,-2.070713,4.503229,9.978085,0.604180,13.437142,14.973290,-0.373549,-1.614846,-2.959054,2.098450,-3.042319,-1.703373,17.802393,5.301032,-0.419677,9.222198,4.371316,-0.009215,-5.403149,2.877475,4.537972,50.355099,0.000000,90.000000,4.000000,,,,0.000000,2.000000,2.000000,1.000000,2.000000,2.000000,2.000000,2.000000,2.000000,2.000000,2.000000,2.000000,2.000000,2.000000,2.000000,2.000000,2.000000,2.000000,2.000000,2.000000,2.000000,2.000000,2.000000,2.000000,2.000000,2.000000,2.000000,2.000000,2.000000,2.000000,2.000000,2.000000,2.000000,41.666668
1613959421.482949,7.000000,0.000000,-0.166503,6.501160,2.431366,-2.762992,-12.813375,4.722409,9.338316,17.767479,-45.711445,-8.254006,-2.068642,3.985905,9.455286,0.603576,13.423705,13.932676,-2.937278,-1.613231,-3.468916,2.609172,-1.500815,-4.265772,16.758951,7.347013,-0.932078,8.187334,-0.248440,-0.522027,-4.884925,2.874598,4.020613,52.868847,0.000000,78.000000,4.000000,,,,0.000000,2.000000,2.000000,2.000000,2.000000,2.000000,2.000000,2.000000,2.000000,2.000000,2.000000,2.000000,2.000000,2.000000,2.000000,2.000000,2.000000,2.000000,2.000000,2.000000,2.000000,2.000000,2.000000,2.000000,2.000000,2.000000,2.000000,2.000000,2.000000,2.000000,2.000000,2.000000,2.000000,50.000000
1613959421.490698,8.000000,0.000000,-0.166337,6.494659,6.018678,-2.247409,-8.697997,5.230507,10.354618,19.288172,-43.101631,-8.758573,-2.066574,3.981919,9.958652,0.602972,14.435923,13.918743,-3.959982,0.439664,-3.978267,3.632204,-2.012135,-5.287147,17.255013,5.288383,-0.418326,5.615044,-2.812294,-3.085607,-5.905682,2.871723,4.016593,54.354439,0.000000,68.000000,4.000000,,,,0.000000,2.000000,2.000000,2.000000,2.000000,2.000000,2.000000,2.000000,2.000000,2.000000,2.000000,2.000000,2.000000,2.000000,2.000000,2.000000,2.000000,2.000000,2.000000,2.000000,2.000000,2.000000,2.000000,2.000000,2.000000,2.000000,2.000000,2.000000,2.000000,2.000000,2.000000,2.000000,2.000000,50.000000
1613959421.498348,9.000000,0.000000,0.859471,6.488164,14.217788,-2.757982,2.592752,4.712456,12.908366,18.756063,-38.443142,-6.185712,-2.064507,1.926655,9.435872,0.602369,12.370204,13.904824,-3.443202,2.490506,-3.461468,3.628572,-4.061405,-5.794681,17.237757,3.231813,-0.417907,5.096608,-2.296661,-4.108162,-5.386955,2.868851,8.115140,53.787266,0.000000,113.000000,4.000000,,,,0.000000,2.000000,2.000000,2.000000,2.000000,2.000000,2.000000,2.000000,2.000000,2.000000,2.000000,2.000000,2.000000,2.000000,2.000000,2.000000,2.000000,2.000000,2.000000,2.000000,2.000000,2.000000,2.000000,2.000000,2.000000,2.000000,2.000000,2.000000,2.000000,2.000000,2.000000,2.000000,2.000000,50.000000
1613959421.506097,10.000000,0.000000,-0.167030,6.481677,18.818954,-0.703942,7.205544,6.759026,13.408278,18.737307,-37.379059,-1.564141,-2.062443,0.386267,6.862334,0.601767,2.614244,11.326818,-6.516681,2.488016,-3.458007,-1.503262,-9.698369,-8.865809,13.630775,2.715761,-1.955951,5.604332,-2.294364,-3.591234,-0.766184,3.378803,14.773692,53.733479,0.000000,115.000000,4.000000,,,,0.000000,2.000000,2.000000,2.000000,2.000000,2.000000,2.000000,2.000000,2.000000,2.000000,2.000000,2.000000,2.000000,2.000000,2.000000,2.000000,2.000000,2.000000,2.000000,2.000000,2.000000,2.000000,2.000000,2.000000,2.000000,2.000000,2.000000,2.000000,2.000000,2.000000,2.000000,2.000000,2.000000,50.000000
1613959421.513746,11.000000,0.000000,-2.730965,6.475194,17.774494,6.476249,3.095775,9.316369,13.394870,18.718571,-37.854500,-0.024116,-2.060380,0.385881,5.317010,0.601165,-0.465293,9.777029,-8.048626,1.972707,-3.454549,-2.014579,-15.842517,-8.856943,9.001760,0.148942,-4.518097,3.547446,-2.804890,-3.587643,2.311505,2.349783,16.810200,53.679745,0.000000,98.000000,4.000000,,,,0.000000,2.000000,2.000000,2.000000,2.000000,2.000000,2.000000,2.000000,2.000000,2.000000,2.000000,2.000000,2.000000,2.000000,2.000000,2.000000,2.000000,2.000000,2.000000,2.000000,2.000000,2.000000,2.000000,2.000000,2.000000,2.000000,2.000000,2.000000,2.000000,2.000000,2.000000,2.000000,2.000000,50.000000
1613959421.521495,12.000000,0.000000,-2.728235,6.468719,17.243900,14.674901,3.092679,9.307053,15.432757,18.699852,-37.816647,-1.562553,-2.058320,0.385495,5.824513,0.087744,5.176198,10.280072,-3.425193,4.022017,0.138649,6.192564,-17.877956,-2.181420,8.479938,-4.466591,-5.026400,0.979796,-2.289265,-3.584055,-0.767729,-0.216669,14.229287,53.626064,0.000000,96.000000,4.000000,,,,0.000000,2.000000,2.000000,2.000000,2.000000,2.000000,2.000000,2.000000,2.000000,2.000000,2.000000,2.000000,2.000000,2.000000,2.000000,2.000000,2.000000,2.000000,2.000000,2.000000,2.000000,2.000000,2.000000,2.000000,2.000000,2.000000,2.000000,2.000000,2.000000,2.000000,2.000000,2.000000,2.000000,50.000000
1613959421.529144,13.000000,0.000000,-0.161404,6.462251,17.739475,16.711508,3.089586,8.784925,17.468607,18.681152,-37.266010,-0.535349,-2.056261,0.385110,5.818689,0.600476,5.683842,9.244151,0.680796,5.556456,4.753895,10.801756,-17.347258,2.948967,13.599663,-6.000586,-5.021374,0.978816,-3.312617,-3.580471,-2.305423,-1.242093,12.676597,53.059620,0.000000,116.000000,4.000000,,,,0.000000,2.000000,2.000000,2.000000,2.000000,2.000000,2.000000,2.000000,2.000000,2.000000,2.000000,2.000000,2.000000,2.000000,2.000000,2.000000,2.000000,2.000000,2.000000,2.000000,2.000000,2.000000,2.000000,2.000000,2.000000,2.000000,2.000000,2.000000,2.000000,2.000000,2.000000,2.000000,2.000000,50.000000
1613959421.536893,14.000000,0.000000,0.864399,6.455789,17.208916,15.669156,-2.041708,8.776140,16.938318,18.662470,-37.228745,-0.534814,-2.054205,0.384724,5.812870,3.163978,6.703799,9.747727,-0.345526,6.576540,8.338884,10.790954,-17.329910,1.920377,17.175808,-4.968945,-4.503531,1.490658,-2.796484,-3.576890,-1.790297,-0.728031,11.638279,52.493740,0.000000,91.000000,4.000000,,,,0.000000,2.000000,2.000000,2.000000,2.000000,2.000000,2.000000,2.000000,2.000000,2.000000,2.000000,2.000000,2.000000,2.000000,2.000000,2.000000,2.000000,2.000000,2.000000,2.000000,2.000000,2.000000,2.000000,2.000000,2.000000,2.000000,2.000000,2.000000,2.000000,2.000000,2.000000,2.000000,2.000000,50.000000
1613959421.544542,15.000000,0.000000,-0.162107,6.449333,17.191708,16.166307,-5.116590,8.767365,16.921379,18.643808,-37.704334,-8.739408,-2.052151,-0.128481,5.807057,4.699276,14.902224,12.302082,-0.345180,9.134067,7.817725,9.241701,-17.825401,1.918457,16.645811,-4.451155,-5.011848,0.463526,0.283236,-3.573314,-3.326968,-1.240123,11.626640,53.466885,0.000000,89.000000,4.000000,,,,0.000000,2.000000,2.000000,2.000000,2.000000,2.000000,2.000000,2.000000,2.000000,2.000000,2.000000,2.000000,2.000000,2.000000,2.000000,2.000000,2.000000,2.000000,2.000000,2.000000,2.000000,2.000000,2.000000,2.000000,2.000000,2.000000,2.000000,2.000000,2.000000,2.000000,2.000000,2.000000,2.000000,50.000000
1613959421.552391,16.000000,0.000000,0.350876,6.442883,16.148874,16.150141,-5.624294,8.758597,17.417278,18.625164,-38.179451,-16.935797,-2.562919,0.384468,5.801250,3.668936,16.938604,13.315421,0.167986,10.150574,2.681702,2.565793,-16.781935,2.429359,18.167627,-5.985166,-5.519657,1.488704,0.282953,-3.056920,0.266102,-1.238883,11.615014,52.900597,0.000000,102.000000,4.000000,,,,0.000000,2.000000,2.000000,2.000000,2.000000,2.000000,2.000000,2.000000,2.000000,2.000000,2.000000,2.000000,2.000000,2.000000,2.000000,2.000000,2.000000,2.000000,2.000000,2.000000,2.000000,2.000000,2.000000,2.000000,2.000000,2.000000,2.000000,2.000000,2.000000,2.000000,2.000000,2.000000,2.000000,50.000000
1613959421.560140,17.000000,0.000000,0.350525,6.436440,16.132725,15.621170,-8.182772,8.749839,16.887041,18.606539,-37.115631,-12.816297,-2.047536,0.384084,5.795449,4.690908,13.331922,14.327747,-0.345003,9.114782,-0.397902,0.511945,-9.585666,2.426929,23.277664,-5.466360,-0.385933,7.128241,2.333952,-4.079504,11.547888,1.839279,11.603399,51.822056,0.000000,118.000000,4.000000,,,,0.000000,2.000000,2.000000,2.000000,2.000000,2.000000,2.000000,2.000000,2.000000,2.000000,2.000000,2.000000,2.000000,2.000000,2.000000,2.000000,2.000000,2.000000,2.000000,2.000000,2.000000,2.000000,2.000000,2.000000,2.000000,2.000000,2.000000,2.000000,2.000000,2.000000,2.000000,2.000000,2.000000,50.000000
1613959421.567989,18.000000,0.000000,0.350175,6.430004,18.167875,15.605549,-8.687409,8.741089,16.870153,18.587933,-38.104156,-4.598352,0.518614,-0.129121,5.789654,7.250319,14.857051,20.980085,2.219445,11.669770,4.730700,13.331946,-1.370952,1.911682,25.305668,4.795517,6.281120,12.249317,12.075208,-3.562604,17.690186,2.863081,11.591796,59.462543,0.000000,123.000000,4.000000,,,,0.000000,2.000000,2.000000,2.000000,2.000000,2.000000,2.000000,2.000000,2.000000,2.000000,2.000000,2.000000,2.000000,2.000000,2.000000,2.000000,2.000000,2.000000,2.000000,2.000000,2.000000,2.000000,2.000000,2.000000,2.000000,2.000000,2.000000,2.000000,2.000000,2.000000,2.000000,2.000000,2.000000,50.000000
1613959421.575738,19.000000,0.000000,0.349824,6.423574,19.688169,15.589944,-6.114620,8.732347,17.366104,18.569345,-43.194256,-5.619395,2.569378,0.383829,5.783864,8.268710,17.919117,25.574490,9.396712,16.786304,10.879816,23.575024,2.220163,1.909770,24.254723,16.072773,6.274839,13.775530,20.781080,0.543523,16.646854,1.834576,11.580204,73.762054,0.000000,102.000000,4.000000,,,,0.000000,2.000000,2.000000,2.000000,2.000000,2.000000,2.000000,2.000000,2.000000,2.000000,2.000000,2.000000,2.000000,2.000000,2.000000,2.000000,2.000000,2.000000,2.000000,2.000000,2.000000,2.000000,2.000000,2.000000,2.000000,2.000000,2.000000,2.000000,2.000000,2.000000,2.000000,2.000000,2.000000,50.000000
1613959421.583587,20.000000,0.000000,0.349475,6.417150,21.206942,15.574353,-4.570044,8.723615,16.323097,18.550776,-45.202343,-8.690699,1.541167,4.998829,5.778080,7.747621,16.875557,25.036095,12.464239,17.282339,10.868937,20.987347,1.192302,1.907860,24.230467,18.620802,5.755744,15.300216,20.247480,4.132723,16.630207,5.422485,11.568624,79.842140,0.000000,110.000000,4.000000,,,,0.000000,2.000000,2.000000,2.000000,2.000000,2.000000,2.000000,2.000000,2.000000,2.000000,2.000000,2.000000,2.000000,2.000000,2.000000,2.000000,2.000000,2.000000,2.000000,2.000000,2.000000,2.000000,2.000000,2.000000,2.000000,2.000000,2.000000,2.000000,2.000000,2.000000,2.000000,2.000000,2.000000,50.000000
1613959421.591337,21.000000,0.000000,0.349125,6.410733,27.339581,15.558779,-2.001371,8.714891,13.742671,18.532225,-42.593040,-3.553802,2.052447,8.583574,5.772302,7.739873,16.345861,24.498240,10.400493,16.239416,10.858068,20.453539,0.165468,1.905953,24.719057,17.576540,12.416655,16.310556,18.688770,4.128590,15.075116,12.083730,11.557055,78.223831,0.000000,119.000000,4.000000,,,,0.000000,2.000000,2.000000,2.000000,2.000000,2.000000,2.000000,2.000000,2.000000,2.000000,2.000000,2.000000,2.000000,2.000000,2.000000,2.000000,2.000000,2.000000,2.000000,2.000000,2.000000,2.000000,2.000000,2.000000,2.000000,2.000000,2.000000,2.000000,2.000000,2.000000,2.000000,2.000000,2.000000,50.000000
1613959421.599186,22.000000,0.000000,0.348776,8.968425,35.517368,17.594501,2.103194,8.706177,13.216107,19.026512,-40.499165,0.552315,2.563215,7.549350,5.766530,7.219313,16.842335,24.986561,8.338810,18.787279,14.436953,22.997189,3.755046,1.904047,24.181517,17.558964,19.583725,17.319887,20.208544,3.611641,12.495938,14.122928,11.545498,81.222534,0.000000,112.000000,4.000000,,,,0.000000,2.000000,2.000000,2.000000,2.000000,2.000000,2.000000,2.000000,2.000000,2.000000,2.000000,2.000000,2.000000,2.000000,2.000000,2.000000,2.000000,2.000000,2.000000,2.000000,2.000000,2.000000,2.000000,2.000000,2.000000,2.000000,2.000000,2.000000,2.000000,2.000000,2.000000,2.000000,2.000000,50.000000
1613959421.606935,23.000000,0.000000,0.348427,10.497918,39.071594,19.115370,3.639553,8.697471,13.202891,17.981846,-41.484306,-2.525160,-2.054733,7.541800,5.247942,7.212094,16.825493,24.448753,7.817651,20.819775,14.935336,17.845985,10.930779,1.902143,24.157335,17.541405,21.102602,19.353849,19.675514,4.120850,12.996263,14.621626,11.533953,85.756699,0.000000,113.000000,4.000000,,,,0.000000,2.000000,2.000000,2.000000,2.000000,2.000000,2.000000,2.000000,2.000000,2.000000,2.000000,2.000000,2.000000,2.000000,2.000000,2.000000,2.000000,2.000000,2.000000,2.000000,2.000000,2.000000,2.000000,2.000000,2.000000,2.000000,2.000000,2.000000,2.000000,2.000000,2.000000,2.000000,2.000000,50.000000
1613959421.614784,24.000000,0.000000,0.348079,8.948958,38.519703,19.609074,2.610272,8.688773,10.625587,15.912581,-40.930000,-5.086737,-8.719345,8.047079,5.242695,8.230522,16.808668,24.424305,5.758551,20.286133,9.279375,11.161473,12.971129,1.387420,22.594717,19.575146,20.568680,19.847315,17.091736,4.116729,10.419164,16.658285,11.522418,85.670937,0.000000,137.000000,4.000000,,,,0.000000,2.000000,2.000000,2.000000,2.000000,2.000000,2.000000,2.000000,2.000000,2.000000,2.000000,2.000000,2.000000,2.000000,2.000000,2.000000,2.000000,2.000000,2.000000,2.000000,2.000000,2.000000,2.000000,2.000000,2.000000,2.000000,2.000000,2.000000,2.000000,2.000000,2.000000,2.000000,2.000000,50.000000
1613959421.622533,25.000000,0.000000,0.347731,6.888728,38.481186,18.563824,2.607662,8.680084,9.076499,14.358208,-40.889072,-5.081651,-10.249087,5.987750,5.750273,6.683830,16.279039,23.887060,3.701510,19.240206,6.705994,8.073389,11.419697,1.386032,20.520840,20.068392,21.060932,19.314648,15.536182,3.599792,5.793360,18.180090,11.510896,85.072449,0.000000,122.000000,4.000000,,,,0.000000,2.000000,2.000000,2.000000,2.000000,2.000000,2.000000,2.000000,2.000000,2.000000,2.000000,2.000000,2.000000,2.000000,2.000000,2.000000,2.000000,2.000000,2.000000,2.000000,2.000000,2.000000,2.000000,2.000000,2.000000,2.000000,2.000000,2.000000,2.000000,2.000000,2.000000,2.000000,2.000000,50.000000
1613959421.630382,26.000000,0.000000,0.347383,6.369019,38.442703,14.955517,3.117875,8.671404,9.580243,14.343849,-40.848183,-4.050928,-9.726018,2.904839,5.231702,7.189967,16.262760,23.350353,3.184988,21.785069,13.365954,9.603777,14.485201,2.923108,19.987499,12.868835,21.039871,19.295334,15.007826,3.596192,4.249105,17.136269,11.499385,84.987373,0.000000,112.000000,4.000000,,,,0.000000,2.000000,2.000000,2.000000,2.000000,2.000000,2.000000,2.000000,2.000000,2.000000,2.000000,2.000000,2.000000,2.000000,2.000000,2.000000,2.000000,2.000000,2.000000,2.000000,2.000000,2.000000,2.000000,2.000000,2.000000,2.000000,2.000000,2.000000,2.000000,2.000000,2.000000,2.000000,2.000000,50.000000
1613959421.638131,27.000000,0.000000,0.347036,6.362649,38.404259,11.863639,3.114757,8.662733,9.570662,14.842326,-40.807335,-2.508415,-9.203471,3.927575,6.764932,14.875085,16.759317,24.865463,3.694624,24.840206,18.480793,12.158276,19.086100,4.458646,20.480331,8.240582,21.018831,19.788858,12.941536,3.592596,5.270497,17.119131,11.487885,84.902390,0.000000,141.000000,4.000000,,,,0.000000,2.000000,2.000000,2.000000,2.000000,2.000000,2.000000,2.000000,2.000000,2.000000,2.000000,2.000000,2.000000,2.000000,2.000000,2.000000,2.000000,2.000000,2.000000,2.000000,2.000000,2.000000,2.000000,2.000000,2.000000,2.000000,2.000000,2.000000,2.000000,2.000000,2.000000,2.000000,2.000000,50.000000
1613959421.645980,28.000000,0.000000,0.346688,6.356287,37.853035,11.338954,2.598822,8.654070,9.561092,16.878765,-40.766525,-0.967445,-5.604524,6.487750,12.912013,22.552517,15.716917,24.327778,3.690929,23.789726,17.949492,12.658937,19.579834,7.018291,19.947031,12.847726,19.972172,19.769070,11.390133,3.589003,5.778047,17.614834,11.476398,84.817482,0.000000,108.000000,4.000000,,,,0.000000,2.000000,2.000000,2.000000,2.000000,2.000000,2.000000,2.000000,2.000000,2.000000,2.000000,2.000000,2.000000,2.000000,2.000000,2.000000,2.000000,2.000000,2.000000,2.000000,2.000000,2.000000,2.000000,2.000000,2.000000,2.000000,2.000000,2.000000,2.000000,2.000000,2.000000,2.000000,2.000000,50.000000
1613959421.653729,29.000000,0.000000,0.346342,6.349931,37.815182,11.840436,2.596223,8.645416,9.551531,18.400349,-40.725761,-0.966478,-2.009176,7.506904,19.052946,23.042786,17.239662,22.764988,3.174418,24.278757,17.418722,13.159100,19.047434,11.626657,20.439905,16.424622,20.465019,19.236481,11.891563,3.585414,5.259449,17.084398,11.464921,82.681389,0.000000,117.000000,4.000000,,,,0.000000,2.000000,2.000000,2.000000,2.000000,2.000000,2.000000,2.000000,2.000000,2.000000,2.000000,2.000000,2.000000,2.000000,2.000000,2.000000,2.000000,2.000000,2.000000,2.000000,2.000000,2.000000,2.000000,2.000000,2.000000,2.000000,2.000000,2.000000,2.000000,2.000000,2.000000,2.000000,2.000000,50.000000
1613959421.661378,30.000000,0.000000,0.345995,6.343581,36.751728,10.802955,2.593626,8.636770,9.029160,18.381948,-40.172215,-0.965512,-1.494346,8.525038,20.572355,21.481281,22.863447,29.921711,4.709705,30.921144,20.478226,18.786966,19.028387,16.230415,19.906645,17.946659,20.957375,19.217243,11.879672,3.581829,4.228548,17.067314,11.453457,80.034599,0.000000,141.000000,4.000000,,,,0.000000,2.000000,2.000000,2.000000,2.000000,2.000000,2.000000,2.000000,2.000000,2.000000,2.000000,2.000000,2.000000,2.000000,2.000000,2.000000,2.000000,2.000000,2.000000,2.000000,2.000000,2.000000,2.000000,2.000000,2.000000,2.000000,2.000000,2.000000,2.000000,2.000000,2.000000,2.000000,2.000000,50.000000
1613959421.669127,31.000000,0.000000,0.345649,6.337237,37.227795,10.279331,1.052571,8.628134,9.532950,18.363565,-41.670502,-1.990187,-2.005672,11.080615,20.038963,22.485441,27.455969,38.609737,7.269098,29.351761,21.996210,24.922026,19.009357,19.291107,20.399557,23.569738,16.833853,19.710846,11.867792,4.091067,5.762781,16.537426,10.929182,79.441750,0.000000,77.000000,4.000000,,,,0.000000,2.000000,2.000000,2.000000,2.000000,2.000000,2.000000,2.000000,2.000000,2.000000,2.000000,2.000000,2.000000,2.000000,2.000000,2.000000,2.000000,2.000000,2.000000,2.000000,2.000000,2.000000,2.000000,2.000000,2.000000,2.000000,2.000000,2.000000,2.000000,2.000000,2.000000,2.000000,2.000000,50.000000
1613959421.676976,32.000000,0.000000,0.345304,6.843720,38.216209,11.807513,-3.051045,8.619506,10.036238,17.832382,-44.192936,-4.552299,-2.003667,11.582355,20.531744,22.462955,27.941334,34.981384,7.774649,15.989077,18.897291,25.409924,19.503170,20.297457,22.430441,29.187193,12.714456,15.075751,11.855925,2.548515,5.757019,13.443965,10.918253,79.875122,8064.000000,0.000000,4.000000,,,,0.000000,2.000000,2.000000,2.000000,2.000000,2.000000,2.000000,2.000000,2.000000,2.000000,2.000000,2.000000,2.000000,2.000000,2.000000,2.000000,2.000000,2.000000,2.000000,2.000000,2.000000,2.000000,2.000000,2.000000,2.000000,2.000000,2.000000,2.000000,2.000000,2.000000,2.000000,2.000000,2.000000,50.000000
1613959421.684725,33.000000,0.000000,0.344959,4.785594,36.126709,11.282886,-5.612097,8.610887,5.410817,14.737626,-44.661564,-5.060568,-1.488842,11.057952,21.024033,21.927671,27.400572,27.766916,7.254054,7.767959,17.339931,23.846052,18.458025,20.277161,23.946472,28.645185,12.701741,8.906830,11.844069,-0.018136,-0.915405,9.327957,10.907335,78.769608,8064.000000,0.000000,4.000000,,,,0.000000,2.000000,2.000000,2.000000,2.000000,2.000000,2.000000,2.000000,2.000000,2.000000,2.000000,2.000000,2.000000,2.000000,2.000000,2.000000,2.000000,2.000000,2.000000,2.000000,2.000000,2.000000,2.000000,2.000000,2.000000,2.000000,2.000000,2.000000,2.000000,2.000000,2.000000,2.000000,2.000000,50.000000
1613959421.692374,34.000000,0.000000,0.344614,2.729527,38.141865,9.733141,-6.632126,8.602275,1.815663,15.235709,-44.616901,-3.517045,0.563928,11.046894,19.977367,22.418566,28.398811,27.226328,7.759621,7.760191,17.322592,24.847847,15.875464,19.744062,24.435345,24.001156,12.176219,7.359461,11.832225,-0.530939,-4.504233,9.318629,10.383607,83.819046,8064.000000,0.000000,4.000000,,,,0.000000,2.000000,2.000000,2.000000,2.000000,2.000000,2.000000,2.000000,2.000000,2.000000,2.000000,2.000000,2.000000,2.000000,2.000000,2.000000,2.000000,2.000000,2.000000,2.000000,2.000000,2.000000,2.000000,2.000000,2.000000,2.000000,2.000000,2.000000,2.000000,2.000000,2.000000,2.000000,2.000000,50.000000
1613959421.700123,35.000000,0.000000,0.857089,2.213977,51.949879,18.954176,-0.471647,8.593673,5.403591,19.835857,-44.059464,1.101856,1.589005,12.061488,19.957390,25.473070,27.344772,28.224743,7.751861,9.803713,17.305269,24.310179,14.833948,19.724318,23.898090,20.387411,13.189683,8.890563,11.820393,-0.017587,1.654117,14.437515,14.475788,97.068558,8064.000000,0.000000,4.000000,,,,0.000000,2.000000,2.000000,2.000000,2.000000,2.000000,2.000000,2.000000,2.000000,2.000000,2.000000,2.000000,2.000000,2.000000,2.000000,2.000000,2.000000,2.000000,2.000000,2.000000,2.000000,2.000000,2.000000,2.000000,2.000000,2.000000,2.000000,2.000000,2.000000,2.000000,2.000000,2.000000,2.000000,50.000000
1613959421.707773,36.000000,0.000000,0.343412,2.724583,63.692799,35.858299,16.451900,8.585079,10.013572,22.892946,-39.912842,7.767421,2.100237,11.536607,20.963074,29.037340,26.804607,26.658056,7.231288,14.922114,20.364887,22.747408,14.306293,19.704594,23.874191,19.854204,20.355982,11.445775,11.808572,-0.017569,5.755027,20.576923,22.666441,109.279182,8192.000000,0.000000,4.000000,,,,0.000000,2.000000,2.000000,2.000000,2.000000,2.000000,2.000000,2.000000,2.000000,2.000000,2.000000,2.000000,2.000000,2.000000,2.000000,2.000000,2.000000,2.000000,2.000000,2.000000,2.000000,2.000000,2.000000,2.000000,2.000000,2.000000,2.000000,2.000000,2.000000,2.000000,2.000000,2.000000,2.000000,50.000000
1613959421.715522,37.000000,0.000000,-1.708214,2.721859,64.141930,42.489109,28.743141,8.576494,9.490738,21.844412,-36.796005,10.836576,2.098137,10.499429,17.865189,30.033943,27.290623,27.144220,6.711236,22.086679,23.934265,23.750301,13.779167,19.172068,24.363138,20.347170,27.515112,17.588175,11.796763,-0.017552,5.236451,23.633270,30.336081,114.810928,8064.000000,0.000000,4.000000,,,,0.000000,2.000000,2.000000,2.000000,2.000000,2.000000,2.000000,2.000000,2.000000,2.000000,2.000000,2.000000,2.000000,2.000000,2.000000,2.000000,2.000000,2.000000,2.000000,2.000000,2.000000,2.000000,2.000000,2.000000,2.000000,2.000000,2.000000,2.000000,2.000000,2.000000,2.000000,2.000000,2.000000,50.000000
1613959421.723171,38.000000,0.000000,-3.757787,2.719137,62.539322,40.395336,28.714397,8.567918,8.968427,19.258465,-36.246387,9.800099,-2.006526,11.514570,12.206297,24.362885,22.135126,26.604256,6.704525,24.115875,24.935972,23.726551,15.303849,19.152897,23.313133,19.814003,28.000418,23.211613,11.784966,-0.017534,8.820958,26.686560,32.869846,116.747398,8192.000000,0.000000,4.000000,,,,0.000000,2.000000,2.000000,2.000000,2.000000,2.000000,2.000000,2.000000,2.000000,2.000000,2.000000,2.000000,2.000000,2.000000,2.000000,2.000000,2.000000,2.000000,2.000000,2.000000,2.000000,2.000000,2.000000,2.000000,2.000000,2.000000,2.000000,2.000000,2.000000,2.000000,2.000000,2.000000,2.000000,50.000000
1613959421.730920,39.000000,0.000000,-3.754030,2.716418,63.502426,40.354942,27.660044,8.559350,8.959458,18.213566,-36.722961,10.303120,-8.158365,10.477415,7.578706,15.107752,9.292479,22.987907,1.569616,22.553297,24.398216,19.087439,14.262904,19.646564,19.187256,19.794188,26.946775,22.675581,11.773182,-0.017517,12.401881,28.198336,33.349800,119.707573,8192.000000,0.000000,4.000000,,,,0.000000,2.000000,2.000000,2.000000,2.000000,2.000000,2.000000,2.000000,2.000000,2.000000,2.000000,2.000000,2.000000,2.000000,2.000000,2.000000,2.000000,2.000000,2.000000,2.000000,2.000000,2.000000,2.000000,2.000000,2.000000,2.000000,2.000000,2.000000,2.000000,2.000000,2.000000,2.000000,2.000000,50.000000
1613959421.738569,40.000000,0.000000,-3.237455,2.713701,63.438923,41.853046,29.170845,8.550791,6.899217,18.195351,-36.686241,9.267176,-10.201488,0.723348,5.007025,9.964439,6.206264,24.503380,-4.072979,23.556385,24.886639,22.658094,14.248641,19.114098,16.603968,19.774393,27.432650,22.140085,11.761409,-0.530320,12.902300,27.657316,33.316448,123.177612,8064.000000,0.000000,4.000000,,,,0.000000,2.000000,2.000000,2.000000,2.000000,2.000000,2.000000,2.000000,2.000000,2.000000,2.000000,2.000000,2.000000,2.000000,2.000000,2.000000,2.000000,2.000000,2.000000,2.000000,2.000000,2.000000,2.000000,2.000000,2.000000,2.000000,2.000000,2.000000,2.000000,2.000000,2.000000,2.000000,2.000000,50.000000
1613959421.746318,41.000000,0.000000,-3.747038,2.710988,62.862663,40.785553,25.551929,8.542239,5.353856,18.177156,-36.136734,6.693806,-9.678467,-4.405581,5.514839,11.492936,22.097492,34.735287,-0.479163,33.789238,28.451494,39.045692,27.567726,19.094982,18.638645,20.267441,28.430859,23.656406,11.749647,-0.529790,14.940680,30.193762,33.283131,124.080078,8064.000000,0.000000,4.000000,,,,0.000000,2.000000,2.000000,2.000000,2.000000,2.000000,2.000000,2.000000,2.000000,2.000000,2.000000,2.000000,2.000000,2.000000,2.000000,2.000000,2.000000,2.000000,2.000000,2.000000,2.000000,2.000000,2.000000,2.000000,2.000000,2.000000,2.000000,2.000000,2.000000,2.000000,2.000000,2.000000,2.000000,50.000000
1613959421.753967,42.000000,0.000000,-3.743291,2.708277,62.799801,40.744770,21.936634,8.533697,5.348502,18.158979,-36.100597,6.687112,-7.104686,3.291132,9.099068,15.071187,40.536934,42.905682,7.213624,45.037502,35.602531,47.724598,45.488876,21.127171,20.158468,22.811275,30.453709,23.119930,11.737897,0.496381,16.464201,34.778954,33.762669,122.930351,8192.000000,0.000000,4.000000,,,,0.000000,2.000000,2.000000,2.000000,2.000000,2.000000,2.000000,2.000000,2.000000,2.000000,2.000000,2.000000,2.000000,2.000000,2.000000,2.000000,2.000000,2.000000,2.000000,2.000000,2.000000,2.000000,2.000000,2.000000,2.000000,2.000000,2.000000,2.000000,2.000000,2.000000,2.000000,2.000000,2.000000,50.000000
1613959421.761716,43.000000,0.000000,-0.662625,2.705569,62.737000,40.704025,20.376236,8.525164,7.907256,20.192102,-36.577316,6.680425,-1.456555,11.492970,14.218173,17.620218,43.573318,44.914055,13.360256,46.530926,43.772057,46.651230,51.084412,25.721428,21.676771,24.326925,30.936077,22.583988,11.726159,-0.529756,15.934916,35.256992,32.703266,122.807426,8192.000000,0.000000,4.000000,,,,0.000000,2.000000,2.000000,2.000000,2.000000,2.000000,2.000000,2.000000,2.000000,2.000000,2.000000,2.000000,2.000000,2.000000,2.000000,2.000000,2.000000,2.000000,2.000000,2.000000,2.000000,2.000000,2.000000,2.000000,2.000000,2.000000,2.000000,2.000000,2.000000,2.000000,2.000000,2.000000,2.000000,50.000000
1613959421.769366,44.000000,0.000000,3.440602,2.702863,63.187084,40.150497,20.355860,8.516639,16.104477,21.710371,-36.540737,6.160923,2.647465,13.532759,18.819340,18.115417,41.478466,46.407604,20.526384,46.484394,44.241104,48.143040,45.905125,28.259809,25.757658,23.789778,31.417961,27.689610,11.714434,0.496415,20.021545,34.708916,32.670563,123.197441,8064.000000,0.000000,4.000000,,,,0.000000,2.000000,2.000000,2.000000,2.000000,2.000000,2.000000,2.000000,2.000000,2.000000,2.000000,2.000000,2.000000,2.000000,2.000000,2.000000,2.000000,2.000000,2.000000,2.000000,2.000000,2.000000,2.000000,2.000000,2.000000,2.000000,2.000000,2.000000,2.000000,2.000000,2.000000,2.000000,2.000000,50.000000
1613959421.777115,45.000000,0.000000,4.462802,2.700160,61.585434,37.033424,22.386786,9.020943,21.729399,22.714302,-35.991379,8.206045,1.619177,15.570508,23.415905,18.097303,44.513908,45.848377,22.044319,46.950729,32.401993,41.428230,36.115627,25.667446,28.296003,23.765987,31.899363,34.841408,11.702719,6.136944,24.616907,33.135746,33.663532,122.048599,8064.000000,0.000000,4.000000,,,,0.000000,2.000000,2.000000,2.000000,2.000000,2.000000,2.000000,2.000000,2.000000,2.000000,2.000000,2.000000,2.000000,2.000000,2.000000,2.000000,2.000000,2.000000,2.000000,2.000000,2.000000,2.000000,2.000000,2.000000,2.000000,2.000000,2.000000,2.000000,2.000000,2.000000,2.000000,2.000000,2.000000,50.000000
1613959421.784764,46.000000,0.000000,4.458340,2.697460,56.395645,29.304085,17.236195,8.499101,19.143566,21.665947,-39.032310,3.582454,1.617558,14.529296,23.392488,18.592026,39.341190,39.135860,15.355608,31.006344,17.497795,24.976547,26.335924,24.616138,27.242065,24.767864,26.739258,30.704002,11.691016,12.284653,20.489727,23.359020,29.014484,117.823990,8064.000000,0.000000,4.000000,,,,0.000000,2.000000,2.000000,2.000000,2.000000,2.000000,2.000000,2.000000,2.000000,2.000000,2.000000,2.000000,2.000000,2.000000,2.000000,2.000000,2.000000,2.000000,2.000000,2.000000,2.000000,2.000000,2.000000,2.000000,2.000000,2.000000,2.000000,2.000000,2.000000,2.000000,2.000000,2.000000,2.000000,50.000000
1613959421.792613,47.000000,0.000000,3.941061,2.181942,49.159763,19.018370,-0.729760,6.439320,13.996218,17.028896,-43.608662,-10.780103,2.641581,9.386562,18.753712,18.573435,19.814671,29.865955,12.263329,9.949697,8.249528,16.233622,24.771126,24.078701,27.727644,24.230274,20.558674,18.365606,11.679325,10.221087,11.751288,10.515149,20.780342,110.526672,8064.000000,0.000000,4.000000,,,,0.000000,2.000000,2.000000,2.000000,2.000000,2.000000,2.000000,2.000000,2.000000,2.000000,2.000000,2.000000,2.000000,2.000000,2.000000,2.000000,2.000000,2.000000,2.000000,2.000000,2.000000,2.000000,2.000000,2.000000,2.000000,2.000000,2.000000,2.000000,2.000000,2.000000,2.000000,2.000000,2.000000,50.000000
1613959421.800362,48.000000,0.000000,1.373017,2.692580,42.443935,11.819864,-13.549542,4.894419,12.956580,11.370842,-43.565052,-20.512913,1.613298,7.325893,10.017010,18.042040,5.948701,24.195065,8.148501,4.298721,-0.989491,9.037901,18.592508,14.311032,26.674276,23.693224,19.512474,11.167753,11.667645,4.057019,8.149794,7.940531,17.169819,104.262299,8064.000000,0.000000,4.000000,,,,0.000000,2.000000,2.000000,2.000000,2.000000,2.000000,2.000000,2.000000,2.000000,2.000000,2.000000,2.000000,2.000000,2.000000,2.000000,2.000000,2.000000,2.000000,2.000000,2.000000,2.000000,2.000000,2.000000,2.000000,2.000000,2.000000,2.000000,2.000000,2.000000,2.000000,2.000000,2.000000,2.000000,50.000000
1613959421.808211,49.000000,0.000000,-0.166817,2.689888,39.837391,10.269583,-13.535994,4.376704,13.969265,10.333830,-43.008667,-19.466759,-1.465238,6.805747,-0.249418,15.972716,1.840188,19.555485,-5.192980,2.243140,-11.244911,-3.278829,-1.938905,1.989029,21.006577,24.695171,16.928858,11.156586,11.655978,0.463219,8.654465,9.471052,17.665468,102.619576,8064.000000,0.000000,4.000000,,,,0.000000,2.000000,2.000000,2.000000,2.000000,2.000000,2.000000,2.000000,2.000000,2.000000,2.000000,2.000000,2.000000,2.000000,2.000000,2.000000,2.000000,2.000000,2.000000,2.000000,2.000000,2.000000,2.000000,2.000000,2.000000,2.000000,2.000000,2.000000,2.000000,2.000000,2.000000,2.000000,2.000000,50.000000
1613959421.815960,50.000000,0.000000,0.346170,1.661557,40.823193,10.259314,-12.496817,4.885148,11.904014,10.836316,-43.991299,-18.934471,-2.489414,1.157915,-6.403014,11.341359,-3.289857,13.894903,-13.392916,-8.528334,-14.823410,-7.890935,-16.295940,-0.577062,15.857365,22.106375,12.296545,11.658249,11.644322,-0.050065,8.645810,8.435940,17.647804,105.081062,8064.000000,0.000000,4.000000,,,,0.000000,2.000000,2.000000,2.000000,2.000000,2.000000,2.000000,2.000000,2.000000,2.000000,2.000000,2.000000,2.000000,2.000000,2.000000,2.000000,2.000000,2.000000,2.000000,2.000000,2.000000,2.000000,2.000000,2.000000,2.000000,2.000000,2.000000,2.000000,2.000000,2.000000,2.000000,2.000000,2.000000,50.000000
1613959421.823809,51.000000,0.000000,0.345824,3.198357,43.346474,9.736234,-12.484320,4.367442,9.840827,10.825480,-43.434486,-20.453999,-0.948463,-3.971447,-6.909432,10.304377,-8.927592,12.342547,-12.353882,-13.135190,-13.270125,-4.293301,-13.202721,0.449156,15.328687,13.366319,12.284248,10.108130,11.632678,-0.050015,7.611523,9.965965,19.168617,107.027260,8064.000000,0.000000,4.000000,,,,0.000000,2.000000,2.000000,2.000000,2.000000,2.000000,2.000000,2.000000,2.000000,2.000000,2.000000,2.000000,2.000000,2.000000,2.000000,2.000000,2.000000,2.000000,2.000000,2.000000,2.000000,2.000000,2.000000,2.000000,2.000000,2.000000,2.000000,2.000000,2.000000,2.000000,2.000000,2.000000,2.000000,50.000000
1613959421.831558,52.000000,0.000000,-0.167343,7.810543,43.815945,10.239318,-9.394912,4.363075,8.805346,10.814654,-43.391052,-19.407904,-4.024437,-3.967476,-6.389702,12.345354,-6.867383,10.791743,-11.315886,-9.532311,-11.718393,-2.237725,-11.138236,0.448707,16.338999,7.711927,11.759144,11.123662,11.621045,-0.562786,8.116732,13.032923,21.713551,106.920235,8064.000000,0.000000,4.000000,,,,0.000000,2.000000,2.000000,2.000000,2.000000,2.000000,2.000000,2.000000,2.000000,2.000000,2.000000,2.000000,2.000000,2.000000,2.000000,2.000000,2.000000,2.000000,2.000000,2.000000,2.000000,2.000000,2.000000,2.000000,2.000000,2.000000,2.000000,2.000000,2.000000,2.000000,2.000000,2.000000,2.000000,50.000000
1613959421.839407,53.000000,0.000000,0.345645,10.366836,44.284950,11.767540,-7.847055,4.358712,7.258079,7.726917,-49.501507,-18.875675,-10.687079,-3.963509,-5.870492,4.640701,-5.834875,0.524541,-11.817391,-11.574060,-13.245136,-1.209846,-14.716842,0.448258,15.809839,8.729856,9.183282,12.138180,11.609425,-0.049402,8.621436,11.481428,21.179018,106.813316,8064.000000,0.000000,4.000000,,,,0.000000,2.000000,2.000000,2.000000,2.000000,2.000000,2.000000,2.000000,2.000000,2.000000,2.000000,2.000000,2.000000,2.000000,2.000000,2.000000,2.000000,2.000000,2.000000,2.000000,2.000000,2.000000,2.000000,2.000000,2.000000,2.000000,2.000000,2.000000,2.000000,2.000000,2.000000,2.000000,2.000000,50.000000
1613959421.847156,54.000000,0.000000,0.345300,9.843648,43.727844,10.217311,-9.890491,4.354353,5.712359,1.565344,-55.093033,-21.933722,-14.266136,-3.446725,-6.377442,-10.235735,-7.367501,-7.681112,-12.831215,-8.998384,-12.206250,1.355466,-15.727766,-1.090652,14.768389,8.721127,8.661279,10.587580,11.084994,-0.049353,8.099994,5.828921,21.670658,106.706505,8064.000000,0.000000,4.000000,,,,0.000000,2.000000,2.000000,2.000000,2.000000,2.000000,2.000000,2.000000,2.000000,2.000000,2.000000,2.000000,2.000000,2.000000,2.000000,2.000000,2.000000,2.000000,2.000000,2.000000,2.000000,2.000000,2.000000,2.000000,2.000000,2.000000,2.000000,2.000000,2.000000,2.000000,2.000000,2.000000,2.000000,50.000000
1613959421.855005,55.000000,0.000000,0.344954,9.320984,43.684116,13.284017,-7.316498,5.888460,5.193826,-1.000324,-54.525120,-22.937429,-12.713408,-1.391996,-5.858244,-11.251140,3.409097,0.531698,-9.228641,9.984973,3.703392,8.533598,-12.635115,5.577106,17.317722,7.686764,9.165438,12.628274,11.073909,-0.562124,8.604714,4.284631,26.264372,106.599792,8192.000000,0.000000,4.000000,,,,0.000000,2.000000,2.000000,2.000000,2.000000,2.000000,2.000000,2.000000,2.000000,2.000000,2.000000,2.000000,2.000000,2.000000,2.000000,2.000000,2.000000,2.000000,2.000000,2.000000,2.000000,2.000000,2.000000,2.000000,2.000000,2.000000,2.000000,2.000000,2.000000,2.000000,2.000000,2.000000,2.000000,50.000000
1613959421.862754,56.000000,0.000000,0.344609,9.311663,47.742996,27.629707,2.434409,9.472315,5.701453,-0.999324,-49.855209,-16.247826,-10.136593,0.147858,0.814281,-0.470658,22.892868,12.326037,1.549819,27.410885,27.802252,23.909679,-0.314787,20.443323,24.479893,11.781642,9.156272,17.743851,13.114118,-0.048741,11.160213,8.382910,29.315031,106.493195,8064.000000,0.000000,4.000000,,,,0.000000,2.000000,2.000000,2.000000,2.000000,2.000000,2.000000,2.000000,2.000000,2.000000,2.000000,2.000000,2.000000,2.000000,2.000000,2.000000,2.000000,2.000000,2.000000,2.000000,2.000000,2.000000,2.000000,2.000000,2.000000,2.000000,2.000000,2.000000,2.000000,2.000000,2.000000,2.000000,2.000000,50.000000
1613959421.870603,57.000000,0.000000,0.344265,10.327992,51.285000,33.243103,7.047359,12.026945,5.695751,-0.485504,-47.241253,-10.590552,-9.613635,0.147710,8.505774,2.606736,27.998180,13.339353,8.727757,28.921936,35.466759,37.731922,15.582963,28.628008,28.045156,16.898066,9.147116,16.700466,15.665106,-0.048693,12.687513,11.964271,27.234434,106.386703,8064.000000,0.000000,4.000000,,,,0.000000,2.000000,2.000000,2.000000,2.000000,2.000000,2.000000,2.000000,2.000000,2.000000,2.000000,2.000000,2.000000,2.000000,2.000000,2.000000,2.000000,2.000000,2.000000,2.000000,2.000000,2.000000,2.000000,2.000000,2.000000,2.000000,2.000000,2.000000,2.000000,2.000000,2.000000,2.000000,2.000000,50.000000
1613959421.878352,58.000000,0.000000,0.343920,9.292023,48.156792,20.902168,0.373645,11.502098,5.177235,-0.485018,-47.194012,-14.169705,-9.604022,-0.365258,9.522910,-0.472794,19.252234,11.274732,7.180567,26.328911,27.226164,39.745472,20.695585,27.573740,26.991470,15.855526,9.137969,11.555561,14.623799,-0.561464,11.136365,12.977947,24.130278,106.280312,8064.000000,0.000000,4.000000,,,,0.000000,2.000000,2.000000,2.000000,2.000000,2.000000,2.000000,2.000000,2.000000,2.000000,2.000000,2.000000,2.000000,2.000000,2.000000,2.000000,2.000000,2.000000,2.000000,2.000000,2.000000,2.000000,2.000000,2.000000,2.000000,2.000000,2.000000,2.000000,2.000000,2.000000,2.000000,2.000000,2.000000,50.000000
1613959421.886201,59.000000,0.000000,0.343577,8.769911,46.570171,15.753060,-1.165190,12.516237,5.684878,-0.997354,-47.146816,-14.155536,-8.568777,0.147927,8.487746,0.040499,15.643237,13.314738,7.173387,27.841043,21.045090,35.603165,18.623608,26.520525,26.964478,15.839670,9.641651,11.544005,15.634817,1.490379,13.176510,13.990611,26.157429,107.712494,8192.000000,0.000000,4.000000,,,,0.000000,2.000000,2.000000,2.000000,2.000000,2.000000,2.000000,2.000000,2.000000,2.000000,2.000000,2.000000,2.000000,2.000000,2.000000,2.000000,2.000000,2.000000,2.000000,2.000000,2.000000,2.000000,2.000000,2.000000,2.000000,2.000000,2.000000,2.000000,2.000000,2.000000,2.000000,2.000000,2.000000,50.000000
1613959421.893950,60.000000,0.000000,0.343233,16.453449,51.138985,27.019360,7.041103,17.631926,7.217655,1.054926,-41.971462,-5.936252,-6.508926,1.686241,11.043361,-0.472362,17.678875,13.814244,10.755957,28.326023,23.075327,35.567562,23.220369,28.545286,27.450335,21.977676,9.119189,14.609385,20.234568,6.104273,17.778719,16.540722,29.721014,109.656067,8064.000000,0.000000,4.000000,,,,0.000000,2.000000,2.000000,2.000000,2.000000,2.000000,2.000000,2.000000,2.000000,2.000000,2.000000,2.000000,2.000000,2.000000,2.000000,2.000000,2.000000,2.000000,2.000000,2.000000,2.000000,2.000000,2.000000,2.000000,2.000000,2.000000,2.000000,2.000000,2.000000,2.000000,2.000000,2.000000,2.000000,50.000000
1613959421.901599,61.000000,0.000000,0.342890,24.129303,54.677589,34.171825,11.649446,22.229679,9.774540,12.848742,-36.288467,-2.853392,-4.963955,4.248657,14.109241,0.553752,16.122736,12.261969,11.770842,28.297697,23.052252,36.557636,27.812532,28.516741,27.422884,27.596725,9.622890,15.620416,23.804075,7.636631,19.299400,17.549824,33.281036,110.059227,8192.000000,0.000000,4.000000,,,,0.000000,2.000000,2.000000,2.000000,2.000000,2.000000,2.000000,2.000000,2.000000,2.000000,2.000000,2.000000,2.000000,2.000000,2.000000,2.000000,2.000000,2.000000,2.000000,2.000000,2.000000,2.000000,2.000000,2.000000,2.000000,2.000000,2.000000,2.000000,2.000000,2.000000,2.000000,2.000000,2.000000,50.000000
1613959421.909349,62.000000,0.000000,0.342547,22.566711,55.135735,32.599194,9.586515,22.720270,11.816048,24.630766,-35.226536,-3.876180,-1.369248,9.372614,19.223337,13.886531,16.619432,14.813809,10.733430,27.243759,15.849712,31.392872,23.682156,23.872839,26.882641,27.569128,10.126088,15.604795,22.241810,7.116173,20.818563,17.019453,32.734936,109.949173,8064.000000,0.000000,4.000000,,,,0.000000,2.000000,2.000000,2.000000,2.000000,2.000000,2.000000,2.000000,2.000000,2.000000,2.000000,2.000000,2.000000,2.000000,2.000000,2.000000,2.000000,2.000000,2.000000,2.000000,2.000000,2.000000,2.000000,2.000000,2.000000,2.000000,2.000000,2.000000,2.000000,2.000000,2.000000,2.000000,2.000000,50.000000
1613959421.916998,63.000000,0.000000,0.342204,21.518503,54.567780,32.053772,10.089749,23.723190,13.342692,25.631775,-34.678490,-3.872304,2.221865,14.491446,24.845139,27.718798,23.269480,20.952841,11.235518,26.703695,10.192838,21.105068,20.068731,17.695120,26.855757,26.515919,7.039039,11.999447,19.655466,7.621878,19.259283,15.463972,27.061174,109.326401,8064.000000,0.000000,4.000000,,,,0.000000,2.000000,2.000000,2.000000,2.000000,2.000000,2.000000,2.000000,2.000000,2.000000,2.000000,2.000000,2.000000,2.000000,2.000000,2.000000,2.000000,2.000000,2.000000,2.000000,2.000000,2.000000,2.000000,2.000000,2.000000,2.000000,2.000000,2.000000,2.000000,2.000000,2.000000,2.000000,2.000000,50.000000
1613959421.924747,64.000000,0.000000,0.341862,20.984165,50.410645,30.483257,8.541198,23.699467,13.329350,20.477940,-35.156631,-9.509457,2.219643,11.400032,23.794653,23.075695,23.759031,26.060093,11.224281,28.728273,10.695465,13.391656,15.946097,13.062040,27.341722,27.515043,3.442256,5.320781,18.610168,6.075794,8.470793,10.320303,21.393089,106.652969,0.000000,86.000000,4.000000,,,,0.000000,2.000000,2.000000,2.000000,2.000000,2.000000,2.000000,2.000000,2.000000,2.000000,2.000000,2.000000,2.000000,2.000000,2.000000,2.000000,2.000000,2.000000,2.000000,2.000000,2.000000,2.000000,2.000000,2.000000,2.000000,2.000000,2.000000,2.000000,2.000000,2.000000,2.000000,2.000000,2.000000,50.000000
1613959421.932396,65.000000,0.000000,0.341520,11.732411,44.719208,26.863031,-0.698113,17.521921,12.803200,17.893358,-43.326603,-17.705076,1.704603,4.721965,15.565729,9.719286,12.453221,25.008392,5.572032,23.058519,6.069385,8.250059,2.596818,6.895132,24.750278,28.513168,1.900352,3.264178,15.514636,3.505616,0.257194,3.130495,20.858875,105.007858,0.000000,89.000000,4.000000,,,,0.000000,2.000000,2.000000,2.000000,2.000000,2.000000,2.000000,2.000000,2.000000,2.000000,2.000000,2.000000,2.000000,2.000000,2.000000,2.000000,2.000000,2.000000,2.000000,2.000000,2.000000,2.000000,2.000000,2.000000,2.000000,2.000000,2.000000,2.000000,2.000000,2.000000,2.000000,2.000000,2.000000,50.000000
1613959421.940145,66.000000,0.000000,0.341179,5.566833,42.623207,25.297707,-8.389722,11.863374,13.816038,19.413927,-49.949944,-19.738653,2.215719,3.178782,10.421959,6.632644,4.235640,16.778255,-2.125848,5.599563,-6.244377,5.164886,-10.226292,-1.316891,19.084501,27.459015,-0.665650,4.799376,11.909378,2.989290,2.821039,1.588903,21.350836,105.415672,0.000000,76.000000,4.000000,,,,0.000000,2.000000,2.000000,2.000000,2.000000,2.000000,2.000000,2.000000,2.000000,2.000000,2.000000,2.000000,2.000000,2.000000,2.000000,2.000000,2.000000,2.000000,2.000000,2.000000,2.000000,2.000000,2.000000,2.000000,2.000000,2.000000,2.000000,2.000000,2.000000,2.000000,2.000000,2.000000,2.000000,50.000000
1613959421.947794,67.000000,0.000000,0.340838,8.638189,43.093407,23.733948,-9.919794,11.851510,13.289401,18.881693,-49.387173,-19.206093,1.700683,4.714064,9.898716,9.190114,4.744225,7.530709,-4.175004,-4.662446,-12.904799,4.646901,-12.267347,-3.879677,15.988495,26.405914,-1.177805,3.256115,11.384648,3.499121,5.382321,2.100135,20.816666,105.310257,0.000000,81.000000,4.000000,,,,0.000000,2.000000,2.000000,2.000000,2.000000,2.000000,2.000000,2.000000,2.000000,2.000000,2.000000,2.000000,2.000000,2.000000,2.000000,2.000000,2.000000,2.000000,2.000000,2.000000,2.000000,2.000000,2.000000,2.000000,2.000000,2.000000,2.000000,2.000000,2.000000,2.000000,2.000000,2.000000,2.000000,50.000000
1613959421.955543,68.000000,0.000000,0.853317,6.065449,43.050312,21.658932,-10.935515,8.249915,9.173548,13.734605,-53.440350,-18.674067,1.698982,2.658068,3.734971,4.052719,5.252301,-0.169130,-3.658009,-2.606502,-11.866253,5.667895,-11.229439,-2.850156,15.972507,28.943611,-2.202269,0.688756,11.373263,3.495622,4.351298,-0.978889,21.308668,105.204948,0.000000,101.000000,4.000000,,,,0.000000,2.000000,2.000000,2.000000,2.000000,2.000000,2.000000,2.000000,2.000000,2.000000,2.000000,2.000000,2.000000,2.000000,2.000000,2.000000,2.000000,2.000000,2.000000,2.000000,2.000000,2.000000,2.000000,2.000000,2.000000,2.000000,2.000000,2.000000,2.000000,2.000000,2.000000,2.000000,2.000000,50.000000
1613959421.963193,69.000000,0.000000,-0.685998,-1.632925,43.007263,21.124453,-14.514323,1.574999,6.087451,8.079845,-63.130501,-19.681034,1.697283,0.091308,-4.473892,-3.130821,4.221407,-7.861269,-6.731274,-3.629536,-11.341566,3.610945,-10.705389,-3.360126,13.392431,22.760822,-11.943656,0.175247,6.746505,3.492126,4.346946,-5.080474,20.774540,105.099739,0.000000,81.000000,4.000000,,,,0.000000,2.000000,2.000000,2.000000,2.000000,2.000000,2.000000,2.000000,2.000000,2.000000,2.000000,2.000000,2.000000,2.000000,2.000000,2.000000,2.000000,2.000000,2.000000,2.000000,2.000000,2.000000,2.000000,2.000000,2.000000,2.000000,2.000000,2.000000,2.000000,2.000000,2.000000,2.000000,2.000000,50.000000
1613959421.970942,70.000000,0.000000,-3.249414,-2.656933,42.451435,19.564865,-16.038271,0.034962,5.568543,3.456381,-66.144295,-26.840839,1.695586,-0.421604,-7.546341,-5.178973,4.217186,-16.058535,-11.339927,-8.754112,-13.894327,-2.033692,-12.745965,-3.869587,8.250834,6.327805,-22.188122,0.687892,-0.439728,3.488634,4.855420,-7.126676,18.189663,104.481819,0.000000,87.000000,4.000000,,,,0.000000,2.000000,2.000000,2.000000,2.000000,2.000000,2.000000,2.000000,2.000000,2.000000,2.000000,2.000000,2.000000,2.000000,2.000000,2.000000,2.000000,2.000000,2.000000,2.000000,2.000000,2.000000,2.000000,2.000000,2.000000,2.000000,2.000000,2.000000,2.000000,2.000000,2.000000,2.000000,2.000000,50.000000
1613959421.978591,71.000000,0.000000,-3.758985,-1.115814,41.383343,17.494019,-17.047873,1.060568,2.998872,-0.649640,-65.565331,-30.916563,1.181070,-0.421183,-7.025974,-5.686614,3.187328,-13.991195,-12.354228,-6.181255,-13.367613,-4.082940,-12.220399,-3.352897,6.191300,-4.960575,-15.499268,-0.338437,-1.464930,3.485146,4.337744,-5.581087,16.120192,103.864517,0.000000,96.000000,4.000000,,,,0.000000,2.000000,2.000000,2.000000,2.000000,2.000000,2.000000,2.000000,2.000000,2.000000,2.000000,2.000000,2.000000,2.000000,2.000000,2.000000,2.000000,2.000000,2.000000,2.000000,2.000000,2.000000,2.000000,2.000000,2.000000,2.000000,2.000000,2.000000,2.000000,2.000000,2.000000,2.000000,2.000000,50.000000
1613959421.986340,72.000000,0.000000,-3.242406,-2.140339,43.393242,16.963705,-16.518005,0.546687,-2.645152,-1.674631,-63.961300,-22.167698,1.179888,-0.420761,-1.890743,-4.142466,5.235423,-0.131050,-10.803412,2.030054,-8.738860,-1.514755,-1.438948,-2.323903,12.338956,-2.904332,-3.176076,0.174722,3.664740,3.481660,4.846227,2.116802,17.642532,104.273476,0.000000,89.000000,4.000000,,,,0.000000,2.000000,2.000000,2.000000,2.000000,2.000000,2.000000,2.000000,2.000000,2.000000,2.000000,2.000000,2.000000,2.000000,2.000000,2.000000,2.000000,2.000000,2.000000,2.000000,2.000000,2.000000,2.000000,2.000000,2.000000,2.000000,2.000000,2.000000,2.000000,2.000000,2.000000,2.000000,2.000000,50.000000
1613959421.993989,73.000000,0.000000,-3.239163,-1.625379,41.811386,16.946741,-15.988667,-0.479501,-3.155328,-0.134495,-61.333237,-14.453222,1.691529,0.092480,7.341917,-0.548580,7.794290,11.151133,-11.818250,4.592126,-9.242942,-3.051702,6.767620,-0.270297,18.480463,5.816521,-1.634439,0.687368,7.250819,3.478179,4.328560,9.294172,17.112070,104.169197,0.000000,111.000000,4.000000,,,,0.000000,2.000000,2.000000,2.000000,2.000000,2.000000,2.000000,2.000000,2.000000,2.000000,2.000000,2.000000,2.000000,2.000000,2.000000,2.000000,2.000000,2.000000,2.000000,2.000000,2.000000,2.000000,2.000000,2.000000,2.000000,2.000000,2.000000,2.000000,2.000000,2.000000,2.000000,2.000000,2.000000,50.000000
1613959422.001738,74.000000,0.000000,-3.235924,-1.623753,40.231113,16.929794,-16.998320,0.546620,-1.100890,-2.698463,-62.297546,-16.490051,1.689838,-0.420433,9.898678,-2.086493,7.273675,13.191263,-10.267970,4.074714,-6.669596,-3.048650,9.324954,5.883820,19.487623,14.528653,-2.658445,-0.851781,7.243568,3.474700,4.324232,9.284878,15.043675,104.065033,0.000000,112.000000,4.000000,,,,0.000000,2.000000,2.000000,2.000000,2.000000,2.000000,2.000000,2.000000,2.000000,2.000000,2.000000,2.000000,2.000000,2.000000,2.000000,2.000000,2.000000,2.000000,2.000000,2.000000,2.000000,2.000000,2.000000,2.000000,2.000000,2.000000,2.000000,2.000000,2.000000,2.000000,2.000000,2.000000,2.000000,50.000000
1613959422.009387,75.000000,0.000000,-3.232688,-2.134950,53.524216,19.476967,-14.930038,0.546073,-3.151071,1.406799,-58.132683,-11.345356,0.662507,0.092808,8.350317,1.505337,14.958709,23.947304,2.049990,16.891151,11.798612,14.903117,20.597681,20.236910,21.006598,16.052586,5.036521,2.738814,12.364530,3.471226,7.909651,10.814054,22.208118,110.627632,0.000000,98.000000,4.000000,,,,0.000000,2.000000,2.000000,2.000000,2.000000,2.000000,2.000000,2.000000,2.000000,2.000000,2.000000,2.000000,2.000000,2.000000,2.000000,2.000000,2.000000,2.000000,2.000000,2.000000,2.000000,2.000000,2.000000,2.000000,2.000000,2.000000,2.000000,2.000000,2.000000,2.000000,2.000000,2.000000,2.000000,50.000000
1613959422.017136,76.000000,0.000000,-3.229456,1.456929,74.496330,25.098516,-1.581775,0.545527,-1.609459,16.790009,-40.638653,2.512143,6.815691,5.220920,16.547094,24.580755,35.969391,51.615665,19.996658,43.028107,36.402199,40.529240,34.936058,31.498724,26.113796,16.036533,13.749434,14.018126,21.582935,3.467755,12.517126,16.444265,36.544884,122.824699,0.000000,96.000000,4.000000,,,,0.000000,2.000000,2.000000,2.000000,2.000000,2.000000,2.000000,2.000000,2.000000,2.000000,2.000000,2.000000,2.000000,2.000000,2.000000,2.000000,2.000000,2.000000,2.000000,2.000000,2.000000,2.000000,2.000000,2.000000,2.000000,2.000000,2.000000,2.000000,2.000000,2.000000,2.000000,2.000000,2.000000,50.000000
1613959422.024786,77.000000,0.000000,-3.226226,8.634959,81.601326,31.227262,15.342884,7.724469,7.622920,27.029629,-26.239040,10.201939,15.526823,10.856725,28.838240,44.043354,48.753933,68.999947,25.617687,57.344051,45.083744,44.591274,31.311378,31.467226,28.138964,26.276907,14.248504,20.157955,23.612635,3.464287,12.504609,17.966284,41.123726,131.932648,0.000000,116.000000,4.000000,,,,0.000000,2.000000,2.000000,2.000000,2.000000,2.000000,2.000000,2.000000,2.000000,2.000000,2.000000,2.000000,2.000000,2.000000,2.000000,2.000000,2.000000,2.000000,2.000000,2.000000,2.000000,2.000000,2.000000,2.000000,2.000000,2.000000,2.000000,2.000000,2.000000,2.000000,2.000000,2.000000,2.000000,50.000000
1613959422.032535,78.000000,0.000000,-3.223000,13.241709,78.442795,37.349880,21.994207,21.050077,13.769143,25.464136,-26.212801,10.704557,13.460014,11.871510,28.296581,43.999310,41.012875,53.546329,16.874121,47.543121,32.218147,31.726170,22.562119,26.820374,26.572363,31.891657,13.208614,19.112156,19.999277,3.460823,11.979283,16.409855,38.518497,133.851990,0.000000,92.000000,4.000000,,,,0.000000,2.000000,2.000000,2.000000,2.000000,2.000000,2.000000,2.000000,2.000000,2.000000,2.000000,2.000000,2.000000,2.000000,2.000000,2.000000,2.000000,2.000000,2.000000,2.000000,2.000000,2.000000,2.000000,2.000000,2.000000,2.000000,2.000000,2.000000,2.000000,2.000000,2.000000,2.000000,2.000000,50.000000
1613959422.040184,79.000000,0.000000,-3.219777,13.741287,79.902817,39.876637,20.946571,27.695694,13.242554,24.925852,-28.237869,10.693852,5.754247,11.346817,16.986235,41.391209,28.664167,31.954323,7.113657,31.085320,14.237211,26.053419,21.001095,24.229450,26.545792,23.141815,15.246688,20.631506,16.902355,3.457362,12.992946,17.931908,40.018440,133.205322,0.000000,91.000000,4.000000,,,,0.000000,2.000000,2.000000,2.000000,2.000000,2.000000,2.000000,2.000000,2.000000,2.000000,2.000000,2.000000,2.000000,2.000000,2.000000,2.000000,2.000000,2.000000,2.000000,2.000000,2.000000,2.000000,2.000000,2.000000,2.000000,2.000000,2.000000,2.000000,2.000000,2.000000,2.000000,2.000000,2.000000,50.000000
1613959422.048033,80.000000,0.000000,-2.703737,13.214725,79.822914,39.836758,21.438446,26.642357,12.203670,26.439388,-26.158350,11.195979,4.722852,10.822650,12.866684,37.760075,20.943195,24.742880,1.978338,25.926029,7.556308,23.463263,11.749324,19.077017,23.442322,20.041750,10.616056,14.457027,9.705966,3.966725,8.877388,14.837052,36.388680,133.584930,0.000000,109.000000,4.000000,,,,0.000000,2.000000,2.000000,2.000000,2.000000,2.000000,2.000000,2.000000,2.000000,2.000000,2.000000,2.000000,2.000000,2.000000,2.000000,2.000000,2.000000,2.000000,2.000000,2.000000,2.000000,2.000000,2.000000,2.000000,2.000000,2.000000,2.000000,2.000000,2.000000,2.000000,2.000000,2.000000,2.000000,50.000000
1613959422.055782,81.000000,0.000000,-3.726674,13.714332,75.640526,39.284100,21.929829,26.102896,13.217107,25.387308,-26.132193,12.210424,5.743770,6.709263,11.828176,24.901800,9.640202,13.436087,-5.203127,22.823181,3.959008,11.644927,-0.570118,10.339991,17.777855,20.021709,-2.727893,-4.018968,1.491132,2.424297,-0.875079,4.565805,25.583059,132.938522,0.000000,104.000000,4.000000,,,,0.000000,2.000000,2.000000,2.000000,2.000000,2.000000,2.000000,2.000000,2.000000,2.000000,2.000000,2.000000,2.000000,2.000000,2.000000,2.000000,2.000000,2.000000,2.000000,2.000000,2.000000,2.000000,2.000000,2.000000,2.000000,2.000000,2.000000,2.000000,2.000000,2.000000,2.000000,2.000000,2.000000,50.000000
1613959422.063631,82.000000,0.000000,-5.774230,13.187797,75.052063,39.757637,20.369436,27.102432,13.203890,24.849100,-26.618879,10.146932,5.225205,1.061528,1.047117,16.671770,-5.241234,-8.115811,-15.967155,5.364460,-12.968028,-4.776974,-5.697753,1.098881,15.195973,6.155533,-11.955934,-11.707256,-0.561642,-0.142230,-3.951127,-1.079787,25.044657,132.292770,0.000000,109.000000,4.000000,,,,0.000000,2.000000,2.000000,2.000000,2.000000,2.000000,2.000000,2.000000,2.000000,2.000000,2.000000,2.000000,2.000000,2.000000,2.000000,2.000000,2.000000,2.000000,2.000000,2.000000,2.000000,2.000000,2.000000,2.000000,2.000000,2.000000,2.000000,2.000000,2.000000,2.000000,2.000000,2.000000,2.000000,50.000000
1613959422.071380,83.000000,0.000000,-6.794096,13.174608,74.464195,39.717880,21.374708,26.562510,12.677866,24.824251,-27.617903,5.008580,5.732801,-0.477995,-10.235982,18.193560,-17.030865,-16.825644,-22.105034,-17.717827,-30.903778,-16.567068,-15.435645,-6.594525,15.693599,-9.748058,-16.046541,-7.080165,0.464561,-0.654908,0.668209,-2.617168,33.224739,132.673294,0.000000,108.000000,4.000000,,,,0.000000,2.000000,2.000000,2.000000,2.000000,2.000000,2.000000,2.000000,2.000000,2.000000,2.000000,2.000000,2.000000,2.000000,2.000000,2.000000,2.000000,2.000000,2.000000,2.000000,2.000000,2.000000,2.000000,2.000000,2.000000,2.000000,2.000000,2.000000,2.000000,2.000000,2.000000,2.000000,2.000000,50.000000
1613959422.079229,84.000000,0.000000,-6.787302,13.161434,68.748703,38.652519,18.789230,26.023127,12.665188,21.722504,-27.077463,3.465110,2.650145,0.035304,-10.738566,17.662546,-21.116398,-13.731895,-22.595749,-26.418058,-34.975437,-21.165886,-30.292004,-7.613572,15.677905,-10.763951,-20.645880,-9.124367,-0.048724,-0.141433,3.744464,-10.306859,35.755619,131.514984,0.000000,126.000000,4.000000,,,,0.000000,2.000000,2.000000,2.000000,2.000000,2.000000,2.000000,2.000000,2.000000,2.000000,2.000000,2.000000,2.000000,2.000000,2.000000,2.000000,2.000000,2.000000,2.000000,2.000000,2.000000,2.000000,2.000000,2.000000,2.000000,2.000000,2.000000,2.000000,2.000000,2.000000,2.000000,2.000000,2.000000,50.000000
1613959422.086978,85.000000,0.000000,-6.780515,13.148273,63.038929,38.101048,10.565313,25.997105,12.652523,17.598217,-26.537565,1.410362,-1.967890,0.035268,-9.189366,17.132063,-22.120922,-13.718163,-22.060333,-24.853180,-32.889179,-19.093439,-34.877098,-5.041855,13.610945,-9.727546,-23.702158,-11.166525,0.464145,-0.141292,3.740719,-17.476040,34.181400,126.768082,0.000000,115.000000,4.000000,,,,0.000000,2.000000,2.000000,2.000000,2.000000,2.000000,2.000000,2.000000,2.000000,2.000000,2.000000,2.000000,2.000000,2.000000,2.000000,2.000000,2.000000,2.000000,2.000000,2.000000,2.000000,2.000000,2.000000,2.000000,2.000000,2.000000,2.000000,2.000000,2.000000,2.000000,2.000000,2.000000,2.000000,50.000000
1613959422.094827,86.000000,0.000000,-6.773734,13.135124,62.463070,39.601410,4.913723,25.971107,12.639871,17.067799,-35.741798,-8.334638,-1.965922,-0.477588,-9.692997,16.602110,-21.073160,-14.217266,-22.038273,-24.828325,-34.907574,-22.664089,-31.765297,-10.677839,11.546052,-13.307562,-24.704096,-7.052794,-1.587601,-0.141150,4.762619,-16.945742,35.172859,124.077209,0.000000,118.000000,4.000000,,,,0.000000,2.000000,2.000000,2.000000,2.000000,2.000000,2.000000,2.000000,2.000000,2.000000,2.000000,2.000000,2.000000,2.000000,2.000000,2.000000,2.000000,2.000000,2.000000,2.000000,2.000000,2.000000,2.000000,2.000000,2.000000,2.000000,2.000000,2.000000,2.000000,2.000000,2.000000,2.000000,2.000000,50.000000
