title:05, start timestamp:1614403625.495019, stop timestamp:1614403671.276115, headset type:EPOCFLEX, headset serial:F00001ED, headset firmware:f12, subject name:s11, channels:75, sampling rate:128, samples:5909      , version:2.0
Timestamp,EEG.Counter,EEG.Interpolated,EEG.Cz,EEG.Fz,EEG.Fp1,EEG.AF3,EEG.F7,EEG.F3,EEG.FC1,EEG.C3,EEG.FC5,EEG.T7,EEG.CP5,EEG.CP1,EEG.P3,EEG.P7,EEG.PO3,EEG.O1,EEG.Pz,EEG.Oz,EEG.O2,EEG.PO4,EEG.P8,EEG.P4,EEG.CP2,EEG.CP6,EEG.T8,EEG.FC6,EEG.C4,EEG.FC2,EEG.F4,EEG.F8,EEG.AF4,EEG.Fp2,EEG.HighBitFlex,EEG.RawCq,EEG.Battery,MarkerIndex,MarkerType,MarkerValueInt,EEG.MarkerHardware,CQ.Cz,CQ.Fz,CQ.Fp1,CQ.AF3,CQ.F7,CQ.F3,CQ.FC1,CQ.C3,CQ.FC5,CQ.T7,CQ.CP5,CQ.CP1,CQ.P3,CQ.P7,CQ.PO3,CQ.O1,CQ.Pz,CQ.Oz,CQ.O2,CQ.PO4,CQ.P8,CQ.P4,CQ.CP2,CQ.CP6,CQ.T8,CQ.FC6,CQ.C4,CQ.FC2,CQ.F4,CQ.F8,CQ.AF4,CQ.Fp2,CQ.Overall
1614403625.495019,32.000000,0.000000,-1.223450,-0.502598,-5.373156,0.804260,4.168573,6.883091,-3.853019,11.975447,0.398758,11.485176,-6.855938,-6.098376,-19.687695,-20.534695,-23.303303,8.587844,-14.464005,16.438641,5.939662,-17.506821,-21.711210,-2.475073,-7.674808,-13.414202,-4.013870,-18.603596,-6.599540,1.657644,-14.391721,-23.515936,-9.003890,-22.331463,8064.000000,0.000000,4.000000,,,,0.000000,4.000000,4.000000,4.000000,4.000000,4.000000,4.000000,4.000000,4.000000,4.000000,4.000000,4.000000,4.000000,4.000000,4.000000,4.000000,4.000000,4.000000,4.000000,4.000000,4.000000,4.000000,4.000000,4.000000,4.000000,2.000000,4.000000,4.000000,4.000000,4.000000,4.000000,4.000000,4.000000,83.333336
1614403625.502868,33.000000,0.000000,-1.222227,1.549187,7.452730,12.085507,9.805429,5.850567,-2.310704,11.963470,0.398359,10.448050,-9.926005,-6.605098,-16.078264,-18.462877,-26.869743,10.630538,-15.988003,15.909382,5.420902,-18.514956,-18.612576,-4.523880,-6.128671,-13.400787,-16.317549,-17.046530,-7.105762,2.168807,-13.864509,-24.005239,-8.994886,-4.873234,8064.000000,0.000000,4.000000,,,,0.000000,4.000000,4.000000,4.000000,4.000000,4.000000,4.000000,4.000000,4.000000,4.000000,4.000000,4.000000,4.000000,4.000000,4.000000,4.000000,4.000000,4.000000,4.000000,4.000000,4.000000,4.000000,4.000000,4.000000,4.000000,2.000000,4.000000,4.000000,4.000000,4.000000,4.000000,4.000000,4.000000,83.333336
1614403625.510617,34.000000,0.000000,-0.708184,3.598920,8.983739,21.817011,11.846907,11.998563,3.332633,12.464328,4.500525,-17.767527,-8.377618,-6.085672,-16.062185,-18.957235,-24.791592,17.286575,-14.946374,17.944756,6.441123,-17.983620,-18.081142,-6.570638,-5.096901,-12.874566,-14.762770,-10.875637,-6.585835,0.628177,-9.748080,-23.468414,-8.473071,7.439332,8064.000000,0.000000,4.000000,,,,0.000000,4.000000,4.000000,4.000000,4.000000,4.000000,4.000000,4.000000,4.000000,4.000000,4.000000,4.000000,4.000000,4.000000,4.000000,4.000000,4.000000,4.000000,4.000000,4.000000,4.000000,4.000000,4.000000,4.000000,4.000000,2.000000,4.000000,4.000000,4.000000,4.000000,4.000000,4.000000,4.000000,83.333336
1614403625.518466,35.000000,0.000000,-2.245937,3.595321,7.436293,15.128528,12.347880,16.089128,1.790838,10.400581,10.137050,-9.031810,-7.343599,-6.079587,-15.533302,-16.886995,-18.612953,20.346210,-14.418608,21.003733,5.921861,-17.965637,-17.037420,-7.589708,-7.655907,-15.938615,-11.158263,-11.890403,-9.143352,-1.423733,-11.276793,-25.496227,-10.515880,-10.516826,8064.000000,0.000000,4.000000,,,,0.000000,4.000000,4.000000,4.000000,4.000000,4.000000,4.000000,4.000000,4.000000,4.000000,4.000000,4.000000,4.000000,4.000000,4.000000,4.000000,4.000000,4.000000,4.000000,4.000000,4.000000,4.000000,4.000000,4.000000,4.000000,2.000000,4.000000,4.000000,4.000000,4.000000,4.000000,4.000000,4.000000,83.333336
1614403625.526215,36.000000,0.000000,-4.294973,3.078905,7.941678,-1.296857,5.668866,11.970475,-5.903260,4.236335,10.126913,1.746453,-8.361897,-5.560686,-15.004949,-17.382929,-16.030239,19.300224,-15.942650,19.957088,6.428760,-16.922029,-21.635767,-7.069298,-9.186712,-20.538061,7.314433,-21.109282,-11.698311,-2.447951,-17.419363,-29.573296,-13.582287,-31.531950,8064.000000,0.000000,4.000000,,,,0.000000,4.000000,4.000000,4.000000,4.000000,4.000000,4.000000,4.000000,4.000000,4.000000,4.000000,4.000000,4.000000,4.000000,4.000000,4.000000,4.000000,4.000000,4.000000,4.000000,4.000000,4.000000,4.000000,4.000000,4.000000,2.000000,4.000000,4.000000,4.000000,4.000000,4.000000,4.000000,4.000000,83.333336
1614403625.533864,37.000000,0.000000,-5.316319,4.101467,8.446556,-3.859663,-2.541931,7.855941,-7.948639,0.129534,9.603966,-16.204012,-8.353535,-6.067946,-14.989944,-18.904007,-16.527029,19.793745,-12.336964,21.475594,8.473613,-14.341005,-19.562849,-3.472485,-8.151885,-18.466242,15.512247,-21.088173,-7.071228,-1.932682,-15.350661,-30.569363,-12.030243,-20.731188,8064.000000,0.000000,4.000000,,,,0.000000,4.000000,4.000000,4.000000,4.000000,4.000000,4.000000,4.000000,4.000000,4.000000,4.000000,4.000000,4.000000,4.000000,4.000000,4.000000,4.000000,4.000000,4.000000,4.000000,4.000000,4.000000,4.000000,4.000000,4.000000,2.000000,4.000000,4.000000,4.000000,4.000000,4.000000,4.000000,4.000000,83.333336
1614403625.541613,38.000000,0.000000,-5.311003,2.558904,6.899648,1.785222,3.614457,8.873726,-6.402229,1.155046,8.055900,-7.982679,-7.832361,-6.574699,-11.898031,-11.705617,-17.536142,19.773951,-3.093858,26.069502,10.516421,-13.301023,-8.774055,-1.930551,-9.682195,-12.806749,-13.221214,-13.374777,0.115330,-1.930749,-10.207106,-31.051615,-8.941290,-5.838661,8064.000000,0.000000,4.000000,,,,0.000000,4.000000,4.000000,4.000000,4.000000,4.000000,4.000000,4.000000,4.000000,4.000000,4.000000,4.000000,4.000000,4.000000,4.000000,4.000000,4.000000,4.000000,4.000000,4.000000,4.000000,4.000000,4.000000,4.000000,4.000000,2.000000,4.000000,4.000000,4.000000,4.000000,4.000000,4.000000,4.000000,83.333336
1614403625.549262,39.000000,0.000000,-4.280051,-3.597501,3.303005,-5.908871,7.200586,9.890493,-6.908647,4.230814,-0.670105,14.076585,-8.337349,-4.004022,-8.809210,-7.591347,-18.031427,18.728535,1.524621,21.940868,9.993084,-14.313363,-14.919128,-5.005544,-7.621230,-13.819583,-25.002865,-13.361402,-0.397605,-1.928819,-15.325104,-36.148769,-12.009272,-20.191797,8064.000000,0.000000,4.000000,,,,0.000000,4.000000,4.000000,4.000000,4.000000,4.000000,4.000000,4.000000,4.000000,4.000000,4.000000,4.000000,4.000000,4.000000,4.000000,4.000000,4.000000,4.000000,4.000000,4.000000,4.000000,4.000000,4.000000,4.000000,4.000000,2.000000,4.000000,4.000000,4.000000,4.000000,4.000000,4.000000,4.000000,83.333336
1614403625.557011,40.000000,0.000000,-2.224489,-8.209288,0.222779,-8.467065,-3.575846,6.290859,-7.414559,7.303506,-0.156614,2.267637,-8.329012,-1.948735,-7.261939,-18.865807,-16.987755,17.684166,-0.015365,13.200978,9.470271,-11.734947,-23.622158,0.127667,1.617160,-17.395508,5.278549,-18.989065,-2.448490,-1.926890,-21.976444,-42.266464,-15.587006,-34.530579,8064.000000,0.000000,4.000000,,,,0.000000,4.000000,4.000000,4.000000,4.000000,4.000000,4.000000,4.000000,4.000000,4.000000,4.000000,4.000000,4.000000,4.000000,4.000000,4.000000,4.000000,4.000000,4.000000,4.000000,4.000000,4.000000,4.000000,4.000000,4.000000,2.000000,4.000000,4.000000,4.000000,4.000000,4.000000,4.000000,4.000000,83.333336
1614403625.564660,41.000000,0.000000,-0.683803,-8.201078,-0.290264,7.951659,-4.597911,7.823030,-7.407145,8.834664,12.151235,-17.221811,-7.807862,-5.536530,-7.254677,-29.616171,-19.534870,14.076738,-0.015350,13.187778,10.486442,-9.159109,-14.367766,9.358309,7.256568,-16.352470,9.375834,-18.970078,0.118061,-1.924963,-19.903187,-42.224197,-14.032957,-27.829382,8064.000000,0.000000,4.000000,,,,0.000000,4.000000,4.000000,4.000000,4.000000,4.000000,4.000000,4.000000,4.000000,4.000000,4.000000,4.000000,4.000000,4.000000,4.000000,4.000000,4.000000,4.000000,4.000000,4.000000,4.000000,4.000000,4.000000,4.000000,4.000000,2.000000,4.000000,4.000000,4.000000,4.000000,4.000000,4.000000,4.000000,83.333336
1614403625.572409,42.000000,0.000000,-1.195940,-7.167236,-0.802795,11.533451,2.586174,10.379310,-6.374096,6.261727,10.087802,-16.178947,-10.876977,-9.633558,-14.426909,-29.073734,-29.771744,4.831892,1.523127,11.123308,9.963135,-12.226873,-18.455963,1.143822,6.736492,-13.259195,-22.941235,-17.412645,0.117943,-1.410218,-16.293539,-40.643513,-11.454822,-24.211809,8064.000000,0.000000,4.000000,,,,0.000000,4.000000,4.000000,4.000000,4.000000,4.000000,4.000000,4.000000,4.000000,4.000000,4.000000,4.000000,4.000000,4.000000,4.000000,4.000000,4.000000,4.000000,4.000000,4.000000,4.000000,4.000000,4.000000,4.000000,4.000000,2.000000,4.000000,4.000000,4.000000,4.000000,4.000000,4.000000,4.000000,83.333336
1614403625.580059,43.000000,0.000000,-1.194744,-8.185710,-3.366094,-2.324236,-3.057438,-4.502865,-6.367722,-0.411202,0.846945,-8.983281,-16.507126,-10.136744,-23.130432,-31.095943,-32.818897,-2.865247,-0.016858,5.983979,9.440351,-13.753108,-35.360584,-9.626553,5.191294,-12.733115,-23.943933,-18.420874,-3.471919,-2.947269,-17.302887,-44.192612,-12.469008,-29.828623,8064.000000,0.000000,4.000000,,,,0.000000,4.000000,4.000000,4.000000,4.000000,4.000000,4.000000,4.000000,4.000000,4.000000,4.000000,4.000000,4.000000,4.000000,4.000000,4.000000,4.000000,4.000000,4.000000,4.000000,4.000000,4.000000,4.000000,4.000000,4.000000,2.000000,4.000000,4.000000,4.000000,4.000000,4.000000,4.000000,4.000000,83.333336
1614403625.587808,44.000000,0.000000,-1.193549,-8.690345,-5.414011,-3.860374,-5.618483,-17.831696,-9.951098,-4.513354,0.846098,-2.820452,-17.003439,-9.613788,-17.979095,-27.475103,-20.478384,6.881207,-1.042482,14.695944,12.507833,-10.662432,-21.991890,-0.898977,5.698923,-13.746023,4.797959,-19.428093,-4.494088,-5.508424,-18.311226,-46.712524,-13.482181,-30.824436,8064.000000,0.000000,4.000000,,,,0.000000,4.000000,4.000000,4.000000,4.000000,4.000000,4.000000,4.000000,4.000000,4.000000,4.000000,4.000000,4.000000,4.000000,4.000000,4.000000,4.000000,4.000000,4.000000,4.000000,4.000000,4.000000,4.000000,4.000000,4.000000,2.000000,4.000000,4.000000,4.000000,4.000000,4.000000,4.000000,4.000000,83.333336
1614403625.595457,45.000000,0.000000,-1.192356,-5.091911,-4.382956,-1.292411,7.720469,-2.429248,-9.428327,0.619364,-4.795774,1.797753,-10.319769,-9.091353,-11.807271,-8.986091,-9.175855,28.412788,1.009843,26.476120,19.674812,-6.036385,-0.944257,8.332691,6.718865,-13.732277,7.870084,-18.895845,-3.463953,-6.015736,-17.780094,-39.999146,-13.468699,-26.691048,8064.000000,0.000000,4.000000,,,,0.000000,4.000000,4.000000,4.000000,4.000000,4.000000,4.000000,4.000000,4.000000,4.000000,4.000000,4.000000,4.000000,4.000000,4.000000,4.000000,4.000000,4.000000,4.000000,4.000000,4.000000,4.000000,4.000000,4.000000,4.000000,2.000000,4.000000,4.000000,4.000000,4.000000,4.000000,4.000000,4.000000,83.333336
1614403625.603206,46.000000,0.000000,-0.678343,-0.471435,-1.301649,-6.419323,16.430696,16.034719,-4.803514,7.798232,-8.893542,6.924160,-6.206885,-10.107903,-17.436489,-5.387361,-10.705141,32.486938,-0.016808,25.424004,22.219240,-5.517528,-5.045877,3.196153,4.148044,-13.205725,-4.958299,-16.825666,-1.409207,-5.496900,-16.736673,-33.292477,-11.916768,-23.587433,8064.000000,0.000000,4.000000,,,,0.000000,4.000000,4.000000,4.000000,4.000000,4.000000,4.000000,4.000000,4.000000,4.000000,4.000000,4.000000,4.000000,4.000000,4.000000,4.000000,4.000000,4.000000,4.000000,4.000000,4.000000,4.000000,4.000000,4.000000,4.000000,2.000000,4.000000,4.000000,4.000000,4.000000,4.000000,4.000000,4.000000,83.333336
1614403625.610855,47.000000,0.000000,-1.190485,-0.470963,-1.813168,0.253763,14.362985,11.403300,-6.337172,7.277613,5.987146,3.840313,-10.816063,-13.687538,-19.470335,-20.766588,-15.309820,19.121119,-8.734740,18.731913,18.094458,-8.076113,-11.707498,-0.396787,-3.035592,-13.192519,-3.414879,-18.347303,-3.459079,-5.491403,-17.232756,-36.336109,-12.417671,-25.615128,8064.000000,0.000000,4.000000,,,,0.000000,4.000000,4.000000,4.000000,4.000000,4.000000,4.000000,4.000000,4.000000,4.000000,4.000000,4.000000,4.000000,4.000000,4.000000,4.000000,4.000000,4.000000,4.000000,4.000000,4.000000,4.000000,4.000000,4.000000,4.000000,2.000000,4.000000,4.000000,4.000000,4.000000,4.000000,4.000000,4.000000,83.333336
1614403625.618604,48.000000,0.000000,-0.676474,0.042328,-1.298535,12.561201,12.810160,7.289332,-7.869296,10.347259,19.314493,-11.035322,-6.702683,-12.648210,-10.220095,-18.181719,-8.627844,19.101997,-9.238826,19.226002,17.050722,-4.991114,-11.695789,4.218995,1.070008,-13.692147,1.203920,-18.841776,-3.968441,-2.408988,-18.241165,-37.838234,-13.943715,-25.076693,8064.000000,0.000000,4.000000,,,,0.000000,4.000000,4.000000,4.000000,4.000000,4.000000,4.000000,4.000000,4.000000,4.000000,4.000000,4.000000,4.000000,4.000000,4.000000,4.000000,4.000000,4.000000,4.000000,4.000000,4.000000,4.000000,4.000000,4.000000,4.000000,2.000000,4.000000,4.000000,4.000000,4.000000,4.000000,4.000000,4.000000,83.333336
1614403625.626253,49.000000,0.000000,3.939587,2.606389,13.061738,15.112742,15.361452,16.512812,0.856522,21.618963,16.731075,-1.793517,15.355302,-3.917613,-2.517567,4.400565,7.791040,33.954689,4.103746,30.488827,27.290081,11.424133,-8.094351,16.522469,17.992014,-10.088711,-1.361386,-6.515242,12.445785,4.260087,-10.530616,-26.005524,-4.699002,-6.590077,8064.000000,0.000000,4.000000,,,,0.000000,4.000000,4.000000,4.000000,4.000000,4.000000,4.000000,4.000000,4.000000,4.000000,4.000000,4.000000,4.000000,4.000000,4.000000,4.000000,4.000000,4.000000,4.000000,4.000000,4.000000,4.000000,4.000000,4.000000,4.000000,2.000000,4.000000,4.000000,4.000000,4.000000,4.000000,4.000000,4.000000,83.333336
1614403625.634002,50.000000,0.000000,5.986930,3.629423,25.356369,17.148912,17.397373,21.111685,3.419768,22.110165,13.124600,29.490328,18.929689,-5.964978,-4.566331,16.191036,12.398634,37.510479,8.715027,39.176285,37.006382,21.156300,3.708616,25.736715,17.461203,0.177788,-2.898486,4.773324,26.792313,6.819930,1.274787,-18.800032,9.151851,12.390872,8064.000000,0.000000,4.000000,,,,0.000000,4.000000,4.000000,4.000000,4.000000,4.000000,4.000000,4.000000,4.000000,4.000000,4.000000,4.000000,4.000000,4.000000,4.000000,4.000000,4.000000,4.000000,4.000000,4.000000,4.000000,4.000000,4.000000,4.000000,4.000000,2.000000,4.000000,4.000000,4.000000,4.000000,4.000000,4.000000,4.000000,83.333336
1614403625.641652,51.000000,0.000000,-3.249826,3.112973,22.766911,8.926635,15.841515,18.013649,-5.301600,10.293182,14.137117,20.742887,-6.730265,-17.753885,-13.792535,13.610743,-3.511200,30.806303,-3.088560,29.906340,29.789888,9.853091,4.217728,11.864824,-3.581900,7.357097,8.899284,-5.487859,9.842443,1.684904,-1.803411,-28.524820,7.091416,3.660533,8064.000000,0.000000,4.000000,,,,0.000000,4.000000,4.000000,4.000000,4.000000,4.000000,4.000000,4.000000,4.000000,4.000000,4.000000,4.000000,4.000000,4.000000,4.000000,4.000000,4.000000,4.000000,4.000000,4.000000,4.000000,4.000000,4.000000,4.000000,4.000000,2.000000,4.000000,4.000000,4.000000,4.000000,4.000000,4.000000,4.000000,83.333336
1614403625.649401,52.000000,0.000000,-9.400423,3.109860,32.487732,-4.415625,17.876955,18.508457,-3.757837,11.308530,20.276827,-11.585546,-13.390202,-13.633566,-19.932589,8.468926,-16.328201,28.211393,-7.188035,20.132845,20.016508,-2.977274,-12.196747,-6.608579,-11.783446,3.247176,18.633974,-21.892628,-11.193040,-2.932165,-12.570839,-34.650143,-4.197726,-10.702103,8064.000000,0.000000,4.000000,,,,0.000000,4.000000,4.000000,4.000000,4.000000,4.000000,4.000000,4.000000,4.000000,4.000000,4.000000,4.000000,4.000000,4.000000,4.000000,4.000000,4.000000,4.000000,4.000000,4.000000,4.000000,4.000000,4.000000,4.000000,4.000000,2.000000,4.000000,4.000000,4.000000,4.000000,4.000000,4.000000,4.000000,83.333336
1614403625.657050,53.000000,0.000000,-0.160253,3.106750,43.224476,11.999046,27.602667,20.541229,7.015152,23.604914,21.795012,-7.471397,9.187291,1.764683,-12.733169,5.383534,-17.850336,29.721643,3.588383,27.292198,24.611876,-2.974297,-15.774293,-0.448124,-0.489612,-4.448379,-0.359018,-21.357914,-0.925437,1.686152,-12.045447,-27.948826,-6.244811,-4.537554,8064.000000,0.000000,4.000000,,,,0.000000,4.000000,4.000000,4.000000,4.000000,4.000000,4.000000,4.000000,4.000000,4.000000,4.000000,4.000000,4.000000,4.000000,4.000000,4.000000,4.000000,4.000000,4.000000,4.000000,4.000000,4.000000,4.000000,4.000000,4.000000,2.000000,4.000000,4.000000,4.000000,4.000000,4.000000,4.000000,4.000000,83.333336
1614403625.664799,54.000000,0.000000,10.096317,3.103644,22.668430,29.935766,26.036604,16.418125,9.059419,24.606951,14.593728,11.510433,12.767847,5.865482,-2.976846,3.326869,-19.370947,29.179102,11.277102,30.341829,31.766752,-0.407220,-9.091852,13.398478,7.203186,-5.982392,-15.230454,-15.182711,15.998566,8.351132,-8.956479,-27.920877,-3.674463,-4.533016,8064.000000,0.000000,4.000000,,,,0.000000,4.000000,4.000000,4.000000,4.000000,4.000000,4.000000,4.000000,4.000000,4.000000,4.000000,4.000000,4.000000,4.000000,4.000000,4.000000,4.000000,4.000000,4.000000,4.000000,4.000000,4.000000,4.000000,4.000000,4.000000,2.000000,4.000000,4.000000,4.000000,4.000000,4.000000,4.000000,4.000000,83.333336
1614403625.672448,55.000000,0.000000,9.573400,3.100540,10.850891,13.495573,20.882362,15.376065,6.486256,17.915676,24.835545,14.575846,4.037131,3.808335,-1.435407,1.785081,-12.684909,27.611462,10.753005,26.208923,30.709343,-0.406813,-6.518658,14.923541,7.708803,-1.873845,11.451443,-15.167528,12.905644,9.368423,-10.998804,-33.021160,-5.209250,-12.733612,8064.000000,0.000000,4.000000,,,,0.000000,4.000000,4.000000,4.000000,4.000000,4.000000,4.000000,4.000000,4.000000,4.000000,4.000000,4.000000,4.000000,4.000000,4.000000,4.000000,4.000000,4.000000,4.000000,4.000000,4.000000,4.000000,4.000000,4.000000,4.000000,2.000000,4.000000,4.000000,4.000000,4.000000,4.000000,4.000000,4.000000,83.333336
1614403625.680297,56.000000,0.000000,9.051006,3.097440,38.019527,10.917975,40.348660,26.642740,7.505411,18.410582,42.759426,22.766397,16.340786,5.342988,0.104490,3.834578,0.661109,29.122311,10.229431,32.336559,30.678635,-0.406406,-0.358293,14.908617,8.726735,0.692131,26.824606,-15.665181,4.687610,8.333413,-5.346780,-26.834293,-5.716862,3.176558,8064.000000,0.000000,4.000000,,,,0.000000,4.000000,4.000000,4.000000,4.000000,4.000000,4.000000,4.000000,4.000000,4.000000,4.000000,4.000000,4.000000,4.000000,4.000000,4.000000,4.000000,4.000000,4.000000,4.000000,4.000000,4.000000,4.000000,4.000000,4.000000,2.000000,4.000000,4.000000,4.000000,4.000000,4.000000,4.000000,4.000000,83.333336
1614403625.688047,57.000000,0.000000,11.606058,3.607162,49.263557,30.394238,47.487797,33.282764,8.523547,20.443453,26.819233,31.974401,20.939829,-1.329022,-3.998179,4.343564,-6.006218,30.118830,6.629458,33.329865,32.699238,-1.431641,-0.357935,10.278324,9.743649,1.204259,6.797782,-14.623875,5.195743,8.837900,1.325234,-22.192076,-4.685503,19.070818,8064.000000,0.000000,4.000000,,,,0.000000,4.000000,4.000000,4.000000,4.000000,4.000000,4.000000,4.000000,4.000000,4.000000,4.000000,4.000000,4.000000,4.000000,4.000000,4.000000,4.000000,4.000000,4.000000,4.000000,4.000000,4.000000,4.000000,4.000000,4.000000,2.000000,4.000000,4.000000,4.000000,4.000000,4.000000,4.000000,4.000000,83.333336
1614403625.695896,58.000000,0.000000,9.030350,2.065094,30.752756,20.620253,25.389027,25.044353,7.489382,19.910189,11.407798,29.891144,3.995813,-11.071282,-11.173668,-1.301806,-18.820724,27.524609,-4.659222,26.629869,30.615257,-2.968671,-4.972961,4.627020,10.759547,1.715876,5.252523,-14.096431,5.703368,9.341883,-5.342758,-31.400652,-6.732100,4.179952,8064.000000,0.000000,4.000000,,,,0.000000,4.000000,4.000000,4.000000,4.000000,4.000000,4.000000,4.000000,4.000000,4.000000,4.000000,4.000000,4.000000,4.000000,4.000000,4.000000,4.000000,4.000000,4.000000,4.000000,4.000000,4.000000,4.000000,4.000000,4.000000,2.000000,4.000000,4.000000,4.000000,4.000000,4.000000,4.000000,4.000000,83.333336
1614403625.703645,59.000000,0.000000,5.944396,0.011747,27.132261,4.702197,27.414921,25.019310,7.481893,24.505663,34.473312,21.143305,10.658484,0.221840,0.119557,2.289240,-3.417289,35.702213,-3.116101,39.936573,35.712845,6.777888,12.467909,20.007008,12.800070,1.714160,12.426758,-14.595155,3.133562,8.819720,-9.952800,-38.035919,-8.776650,-7.106280,8064.000000,0.000000,4.000000,,,,0.000000,4.000000,4.000000,4.000000,4.000000,4.000000,4.000000,4.000000,4.000000,4.000000,4.000000,4.000000,4.000000,4.000000,4.000000,4.000000,4.000000,4.000000,4.000000,4.000000,4.000000,4.000000,4.000000,4.000000,4.000000,2.000000,4.000000,4.000000,4.000000,4.000000,4.000000,4.000000,4.000000,83.333336
1614403625.711494,60.000000,0.000000,10.553836,-1.013906,32.746155,11.364161,47.900326,32.686596,7.474411,33.711926,39.054226,14.455495,36.288853,19.708797,23.709181,21.261309,22.227154,53.102406,17.399836,58.870995,49.010468,23.694187,28.352877,39.474182,15.864193,1.199625,-0.919003,-10.477995,6.720172,8.810901,-3.276181,-32.869678,-8.767874,3.157237,8192.000000,0.000000,4.000000,,,,0.000000,4.000000,4.000000,4.000000,4.000000,4.000000,4.000000,4.000000,4.000000,4.000000,4.000000,4.000000,4.000000,4.000000,4.000000,4.000000,4.000000,4.000000,4.000000,4.000000,4.000000,4.000000,4.000000,4.000000,4.000000,2.000000,4.000000,4.000000,4.000000,4.000000,4.000000,4.000000,4.000000,83.333336
1614403625.719243,61.000000,0.000000,13.620206,-0.500072,23.482639,6.737412,31.954990,25.987244,5.928475,32.652573,9.271580,30.851295,31.637178,13.022422,24.198292,22.265690,19.640823,53.049305,25.074743,50.606995,45.371712,25.721775,11.914268,30.716759,18.412432,4.275349,6.261404,-5.852132,9.790375,8.802090,-2.760084,-29.247065,-8.759106,1.102798,8064.000000,0.000000,4.000000,,,,0.000000,4.000000,4.000000,4.000000,4.000000,4.000000,4.000000,4.000000,4.000000,4.000000,4.000000,4.000000,4.000000,4.000000,4.000000,4.000000,4.000000,4.000000,4.000000,4.000000,4.000000,4.000000,4.000000,4.000000,4.000000,2.000000,4.000000,4.000000,4.000000,4.000000,4.000000,4.000000,4.000000,83.333336
1614403625.727092,62.000000,0.000000,1.811714,0.013249,15.766848,-1.474453,9.871753,12.627924,-0.231300,11.594280,9.775129,43.128136,1.861951,-14.170088,-3.005393,-4.936064,-8.583945,31.970613,2.998386,27.479465,24.300699,5.183232,-6.559185,8.121939,11.214531,5.809535,21.126938,-8.923203,-2.527108,9.306108,-11.475272,-30.243458,-8.750346,-13.257279,8064.000000,0.000000,4.000000,,,,0.000000,4.000000,4.000000,4.000000,4.000000,4.000000,4.000000,4.000000,4.000000,4.000000,4.000000,4.000000,4.000000,4.000000,4.000000,4.000000,4.000000,4.000000,4.000000,4.000000,4.000000,4.000000,4.000000,4.000000,4.000000,2.000000,4.000000,4.000000,4.000000,4.000000,4.000000,4.000000,4.000000,83.333336
1614403625.734841,63.000000,0.000000,-13.574714,-2.038046,15.238260,7.757791,18.067009,11.076835,-5.359273,-9.955775,31.303816,10.777316,-13.524527,-27.489250,-26.079311,-20.315742,-30.626642,16.554028,-16.491791,15.657114,10.430245,-9.693746,-8.603908,-2.142594,-3.668478,-3.427044,-0.432651,-16.093767,-14.832273,7.758340,-14.540720,-30.213215,-8.741596,-16.833765,8064.000000,0.000000,4.000000,,,,0.000000,4.000000,4.000000,4.000000,4.000000,4.000000,4.000000,4.000000,4.000000,4.000000,4.000000,4.000000,4.000000,4.000000,4.000000,4.000000,4.000000,4.000000,4.000000,4.000000,4.000000,4.000000,4.000000,4.000000,4.000000,2.000000,4.000000,4.000000,4.000000,4.000000,4.000000,4.000000,4.000000,83.333336
1614403625.742690,64.000000,0.000000,-12.535498,-4.087290,14.197381,4.160289,25.741249,14.655501,-2.276991,1.336231,29.221230,-4.618076,-0.177669,-10.538685,-16.309641,-7.474915,-17.775503,18.588757,-3.141966,24.359406,17.086481,5.187743,-5.518381,7.090318,1.463395,-14.192848,-6.586065,-16.590494,-0.971287,4.673659,-13.500539,-29.670181,-8.732855,-14.252830,0.000000,184.000000,4.000000,,,,0.000000,4.000000,4.000000,4.000000,4.000000,4.000000,4.000000,4.000000,4.000000,4.000000,4.000000,4.000000,4.000000,4.000000,4.000000,4.000000,4.000000,4.000000,4.000000,4.000000,4.000000,4.000000,4.000000,4.000000,4.000000,2.000000,4.000000,4.000000,4.000000,4.000000,4.000000,4.000000,4.000000,83.333336
1614403625.750439,65.000000,0.000000,4.400115,-4.083203,15.208825,-6.100281,26.228329,14.640845,7.468875,32.616947,24.063803,28.207054,25.463535,18.702623,13.450258,10.481278,8.908938,29.852219,21.476561,39.719662,30.402729,24.156914,2.179445,23.493484,21.974752,-5.460706,19.061546,-14.009801,15.952762,5.181806,-13.487038,-29.127689,-8.724122,-12.700115,0.000000,168.000000,4.000000,,,,0.000000,4.000000,4.000000,4.000000,4.000000,4.000000,4.000000,4.000000,4.000000,4.000000,4.000000,4.000000,4.000000,4.000000,4.000000,4.000000,4.000000,4.000000,4.000000,4.000000,4.000000,4.000000,4.000000,4.000000,4.000000,2.000000,4.000000,4.000000,4.000000,4.000000,4.000000,4.000000,4.000000,83.333336
1614403625.758288,66.000000,0.000000,15.164946,-4.079120,15.193616,10.316075,30.817486,14.626204,15.666534,38.225353,29.167944,28.178848,29.027815,24.837767,20.103474,10.470798,4.797466,31.360828,20.942263,33.013275,26.782583,14.389168,0.125984,20.905888,20.927137,10.955010,2.119408,-13.995791,2.603475,6.715086,-13.986372,-30.124203,-8.715398,-11.661774,0.000000,195.000000,4.000000,,,,0.000000,4.000000,4.000000,4.000000,4.000000,4.000000,4.000000,4.000000,4.000000,4.000000,4.000000,4.000000,4.000000,4.000000,4.000000,4.000000,4.000000,4.000000,4.000000,4.000000,4.000000,4.000000,4.000000,4.000000,4.000000,2.000000,4.000000,4.000000,4.000000,4.000000,4.000000,4.000000,4.000000,83.333336
1614403625.766038,67.000000,0.000000,10.534396,-4.587862,16.204063,23.126272,21.555899,11.021835,16.163689,19.725592,15.292623,-4.157024,2.332120,2.761647,-4.019193,-8.001212,-19.822716,12.867929,-2.155602,11.954621,7.781441,-7.163683,-18.335680,-3.730402,0.393389,6.841492,-30.190403,-15.520257,-16.886309,1.580165,-13.972385,-33.171001,-8.706682,-12.675754,0.000000,165.000000,4.000000,,,,0.000000,4.000000,4.000000,4.000000,4.000000,4.000000,4.000000,4.000000,4.000000,4.000000,4.000000,4.000000,4.000000,4.000000,4.000000,4.000000,4.000000,4.000000,4.000000,4.000000,4.000000,4.000000,4.000000,4.000000,4.000000,2.000000,4.000000,4.000000,4.000000,4.000000,4.000000,4.000000,4.000000,83.333336
1614403625.773886,68.000000,0.000000,4.882836,-0.993530,24.905807,16.949299,14.354856,11.010813,9.480859,10.475097,-2.671388,7.129185,-12.542007,-15.189833,-23.502354,-19.275263,-27.495201,0.034548,-16.512421,11.429846,2.645454,-13.310366,-22.932730,-13.983082,-7.299312,-8.549965,-14.775598,-13.966275,-10.715575,-1.498338,-12.932772,-32.625011,-8.697975,-7.022052,0.000000,164.000000,4.000000,,,,0.000000,4.000000,4.000000,4.000000,4.000000,4.000000,4.000000,4.000000,4.000000,4.000000,4.000000,4.000000,4.000000,4.000000,4.000000,4.000000,4.000000,4.000000,4.000000,4.000000,4.000000,4.000000,4.000000,4.000000,4.000000,2.000000,4.000000,4.000000,4.000000,4.000000,4.000000,4.000000,4.000000,83.333336
1614403625.781636,69.000000,0.000000,6.929235,2.597207,20.265518,16.932350,28.186655,25.871597,4.343173,12.515903,12.203078,18.404106,-1.760234,-16.713104,-20.914749,-8.486756,-20.288219,14.906308,-12.393345,23.726109,15.976142,-8.681671,-9.576464,-0.635766,-4.215089,-11.618339,10.880203,-11.901027,3.141294,5.682647,-10.868557,-29.515463,-8.689278,-0.348363,0.000000,197.000000,4.000000,,,,0.000000,4.000000,4.000000,4.000000,4.000000,4.000000,4.000000,4.000000,4.000000,4.000000,4.000000,4.000000,4.000000,4.000000,4.000000,4.000000,4.000000,4.000000,4.000000,4.000000,4.000000,4.000000,4.000000,4.000000,4.000000,2.000000,4.000000,4.000000,4.000000,4.000000,4.000000,4.000000,4.000000,83.333336
1614403625.789285,70.000000,0.000000,5.896665,3.620251,-4.882953,12.300034,26.620007,34.050854,4.338830,12.503387,37.831902,-13.921989,-4.322577,-15.157929,-15.252809,0.752500,-17.703829,28.737556,-7.252746,22.163921,22.114012,-7.647348,-6.489964,8.595639,-4.723695,-6.991335,12.920606,-10.350664,5.189435,6.702606,-9.319227,-32.050049,-8.680589,-9.065964,0.000000,191.000000,4.000000,,,,0.000000,4.000000,4.000000,4.000000,4.000000,4.000000,4.000000,4.000000,4.000000,4.000000,4.000000,4.000000,4.000000,4.000000,4.000000,4.000000,4.000000,4.000000,4.000000,4.000000,4.000000,4.000000,4.000000,4.000000,4.000000,2.000000,4.000000,4.000000,4.000000,4.000000,4.000000,4.000000,4.000000,83.333336
1614403625.797034,71.000000,0.000000,2.301024,3.103810,-6.929352,-2.584062,8.131848,18.119368,3.308850,9.926782,29.588942,-2.113196,-14.574664,-16.168413,-17.288837,-8.479022,-18.198944,22.554972,-9.809596,18.552013,18.502155,-9.178163,-12.124500,6.535762,-6.770253,-6.471523,14.446147,-10.853134,3.132963,-3.047687,-9.822728,-32.530819,-8.671907,-15.723564,0.000000,178.000000,4.000000,,,,0.000000,4.000000,4.000000,4.000000,4.000000,4.000000,4.000000,4.000000,4.000000,4.000000,4.000000,4.000000,4.000000,4.000000,4.000000,4.000000,4.000000,4.000000,4.000000,4.000000,4.000000,4.000000,4.000000,4.000000,4.000000,2.000000,4.000000,4.000000,4.000000,4.000000,4.000000,4.000000,4.000000,83.333336
1614403625.804683,72.000000,0.000000,1.273082,3.100707,24.359629,-1.043016,15.303204,2.203812,-0.284203,7.865573,3.918326,30.709431,-1.739577,-15.126603,-17.271549,-12.573107,-16.129463,17.917032,-8.774145,25.712948,18.996473,-5.579240,-11.599555,6.529226,-5.737842,-6.977872,4.688111,-10.842281,4.155471,-7.147203,-9.812905,-26.344442,-8.663236,-5.964251,0.000000,197.000000,4.000000,,,,0.000000,4.000000,4.000000,4.000000,4.000000,4.000000,4.000000,4.000000,4.000000,4.000000,4.000000,4.000000,4.000000,4.000000,4.000000,4.000000,4.000000,4.000000,4.000000,4.000000,4.000000,4.000000,4.000000,4.000000,4.000000,2.000000,4.000000,4.000000,4.000000,4.000000,4.000000,4.000000,4.000000,83.333336
1614403625.812432,73.000000,0.000000,2.810271,3.097606,31.514757,9.214437,28.108414,3.227249,-0.283919,8.370527,0.837485,11.191541,4.928830,-12.034554,-12.126072,-6.919508,-13.036411,25.078604,-3.637166,31.841082,23.080040,2.118646,-9.536674,9.599620,-5.219284,-5.945253,-17.367859,-10.831439,5.176957,-5.088774,-9.290272,-33.497585,-8.654572,-5.445466,0.000000,192.000000,4.000000,,,,0.000000,4.000000,4.000000,4.000000,4.000000,4.000000,4.000000,4.000000,4.000000,4.000000,4.000000,4.000000,4.000000,4.000000,4.000000,4.000000,4.000000,4.000000,4.000000,4.000000,4.000000,4.000000,4.000000,4.000000,4.000000,2.000000,4.000000,4.000000,4.000000,4.000000,4.000000,4.000000,4.000000,83.333336
1614403625.820081,74.000000,0.000000,2.294640,4.120149,3.278113,4.589838,13.721330,5.788125,1.254827,7.849337,11.605878,-14.460676,-13.024817,-14.586621,-11.088305,-13.066435,-12.510554,27.104807,-3.633529,31.296419,24.082602,5.193451,-10.039957,7.538738,-5.214065,-7.990591,-8.632543,-10.820607,4.146139,-5.596506,-9.793802,-46.797421,-8.645918,-17.234892,0.000000,157.000000,4.000000,,,,0.000000,4.000000,4.000000,4.000000,4.000000,4.000000,4.000000,4.000000,4.000000,4.000000,4.000000,4.000000,4.000000,4.000000,4.000000,4.000000,4.000000,4.000000,4.000000,4.000000,4.000000,4.000000,4.000000,4.000000,4.000000,2.000000,4.000000,4.000000,4.000000,4.000000,4.000000,4.000000,4.000000,83.333336
1614403625.827830,75.000000,0.000000,1.779525,2.577568,-9.032857,-2.594239,3.964019,2.705413,-3.361813,6.303026,11.081451,-4.702626,-14.550254,-18.161779,-11.077216,-17.668753,-14.549326,24.513599,-3.117075,29.726662,23.545698,4.675437,-10.542738,8.044020,-5.208850,-9.521061,19.068398,-10.296967,4.141993,-6.103729,-9.784008,-42.135239,-8.124452,-21.320221,0.000000,186.000000,4.000000,,,,0.000000,4.000000,4.000000,4.000000,4.000000,4.000000,4.000000,4.000000,4.000000,4.000000,4.000000,4.000000,4.000000,4.000000,4.000000,4.000000,4.000000,4.000000,4.000000,4.000000,4.000000,4.000000,4.000000,4.000000,4.000000,2.000000,4.000000,4.000000,4.000000,4.000000,4.000000,4.000000,4.000000,83.333336
1614403625.835480,76.000000,0.000000,4.854669,-1.014754,-0.305876,2.023740,11.652363,4.241169,-6.435374,15.014671,11.070371,5.045667,5.464296,-3.271822,-1.322550,-1.753648,-11.457853,27.053188,10.219376,31.235397,25.060614,10.311788,-10.532195,16.753925,-5.203641,-5.921797,20.074970,-10.799490,4.137851,-5.584805,-9.261404,-32.862335,-8.116327,-24.375824,0.000000,167.000000,4.000000,,,,0.000000,4.000000,4.000000,4.000000,4.000000,4.000000,4.000000,4.000000,4.000000,4.000000,4.000000,4.000000,4.000000,4.000000,4.000000,4.000000,4.000000,4.000000,4.000000,4.000000,4.000000,4.000000,4.000000,4.000000,4.000000,2.000000,4.000000,4.000000,4.000000,4.000000,4.000000,4.000000,4.000000,83.333336
1614403625.843229,77.000000,0.000000,9.465199,1.037543,-0.305570,4.585819,12.666351,8.852313,0.237728,30.897093,20.290070,17.348312,11.612679,15.705809,10.986465,9.530156,-4.266909,27.026134,20.978388,33.768265,27.086836,12.352757,-10.008842,16.224350,-5.198438,-0.274849,13.388228,-11.301511,4.133713,-5.579220,-9.764963,-32.829472,-8.621031,-22.812986,0.000000,164.000000,4.000000,,,,0.000000,4.000000,4.000000,4.000000,4.000000,4.000000,4.000000,4.000000,4.000000,4.000000,4.000000,4.000000,4.000000,4.000000,4.000000,4.000000,4.000000,4.000000,4.000000,4.000000,4.000000,4.000000,4.000000,4.000000,4.000000,2.000000,4.000000,4.000000,4.000000,4.000000,4.000000,4.000000,4.000000,83.333336
1614403625.850878,78.000000,0.000000,7.917272,4.113429,2.258838,3.042772,15.730608,13.971665,3.827234,29.327734,21.808241,29.638657,4.421578,10.049077,9.437017,0.289857,-3.237001,20.332441,11.726640,30.144753,27.572569,1.571174,-13.075756,2.361972,-5.193239,2.289528,15.938943,-7.187645,4.129579,-5.573641,-9.755198,-27.155617,-8.612411,-8.431200,0.000000,212.000000,4.000000,,,,0.000000,4.000000,4.000000,4.000000,4.000000,4.000000,4.000000,4.000000,4.000000,4.000000,4.000000,4.000000,4.000000,4.000000,4.000000,4.000000,4.000000,4.000000,4.000000,4.000000,4.000000,4.000000,4.000000,4.000000,4.000000,2.000000,4.000000,4.000000,4.000000,4.000000,4.000000,4.000000,4.000000,83.333336
1614403625.858627,79.000000,0.000000,2.781149,-2.557351,14.051452,4.578190,28.535391,7.803848,-8.484285,11.862509,9.478740,9.609018,-0.198228,-8.422510,-4.931394,-7.915561,-10.413251,16.722366,-2.131241,21.396658,27.032177,-7.148346,-19.216526,-5.332698,-5.188046,1.774418,0.025568,-5.129176,4.638270,-5.055247,-9.232622,-22.000257,-7.578157,-4.833025,0.000000,211.000000,4.000000,,,,0.000000,4.000000,4.000000,4.000000,4.000000,4.000000,4.000000,4.000000,4.000000,4.000000,4.000000,4.000000,4.000000,4.000000,4.000000,4.000000,4.000000,4.000000,4.000000,4.000000,4.000000,4.000000,4.000000,4.000000,4.000000,2.000000,4.000000,4.000000,4.000000,4.000000,4.000000,4.000000,4.000000,83.333336
1614403625.866276,80.000000,0.000000,1.239907,-13.836845,6.857913,6.112073,24.917110,-7.588572,-19.245031,4.671159,-1.812790,-11.426231,-4.300594,-15.080754,-17.234156,-7.394825,-15.018222,17.731285,-4.693213,18.298340,27.005144,-7.654018,-22.274233,-3.276083,-5.182858,-3.868382,-26.641125,-11.277892,4.633632,-5.563012,-11.787493,-32.747486,-11.160322,-21.751268,0.000000,170.000000,4.000000,,,,0.000000,4.000000,4.000000,4.000000,4.000000,4.000000,4.000000,4.000000,4.000000,4.000000,4.000000,4.000000,4.000000,4.000000,4.000000,4.000000,4.000000,4.000000,4.000000,4.000000,4.000000,4.000000,4.000000,4.000000,4.000000,4.000000,4.000000,4.000000,4.000000,4.000000,4.000000,4.000000,4.000000,100.000000
1614403625.874025,81.000000,0.000000,2.264308,-17.412752,-11.097663,3.029038,14.122964,0.624145,-11.533480,12.871616,4.342869,-4.748138,-3.783473,-10.450289,-13.627177,-6.874609,-12.951921,17.200733,-3.662878,21.356964,26.978140,-7.133543,-21.739140,-3.272807,-3.639214,-8.479898,-13.281150,-17.933281,2.577716,-8.121552,-16.903910,-40.407047,-18.841469,-30.960287,0.000000,172.000000,4.000000,,,,0.000000,4.000000,4.000000,4.000000,4.000000,4.000000,4.000000,4.000000,4.000000,4.000000,4.000000,4.000000,4.000000,4.000000,4.000000,4.000000,4.000000,4.000000,4.000000,4.000000,4.000000,4.000000,4.000000,4.000000,4.000000,4.000000,4.000000,4.000000,4.000000,4.000000,4.000000,4.000000,4.000000,100.000000
1614403625.881674,82.000000,0.000000,3.287684,-14.318417,-7.496822,4.564471,20.262686,26.777367,0.272926,22.089514,24.338526,3.461738,1.861336,-3.773172,-3.357140,-4.303632,-8.323586,17.696352,-4.172036,22.874069,27.463982,-4.049487,-17.614836,-2.756714,-1.071472,-7.445777,19.039824,-18.428169,1.549497,-9.651892,-17.399826,-34.725616,-20.873911,-27.339582,0.000000,211.000000,4.000000,,,,0.000000,4.000000,4.000000,4.000000,4.000000,4.000000,4.000000,4.000000,4.000000,4.000000,4.000000,4.000000,4.000000,4.000000,4.000000,4.000000,4.000000,4.000000,4.000000,4.000000,4.000000,4.000000,4.000000,4.000000,4.000000,4.000000,4.000000,4.000000,4.000000,4.000000,4.000000,4.000000,4.000000,100.000000
1614403625.889524,83.000000,0.000000,0.207474,-11.739995,-0.822658,3.021445,15.627039,23.160847,-2.291450,20.016142,23.288548,4.996737,-1.730268,-4.795040,-5.405065,-4.299329,-6.263980,20.242760,-4.680684,22.338373,25.898056,-0.455694,-15.545938,-0.189854,-1.070400,-5.387049,10.302835,-17.384100,-1.528975,-9.129419,-12.254222,-31.613966,-13.673549,-27.825064,0.000000,195.000000,4.000000,,,,0.000000,4.000000,4.000000,4.000000,4.000000,4.000000,4.000000,4.000000,4.000000,4.000000,4.000000,4.000000,4.000000,4.000000,4.000000,4.000000,4.000000,4.000000,4.000000,4.000000,4.000000,4.000000,4.000000,4.000000,4.000000,4.000000,4.000000,4.000000,4.000000,4.000000,4.000000,4.000000,4.000000,100.000000
1614403625.897273,84.000000,0.000000,-4.920939,-13.266717,-11.078246,-11.853372,-6.952690,-0.964879,-8.443005,9.226895,-3.914229,1.401997,-9.933666,-12.482553,-15.143250,-14.038619,-8.821818,21.248158,-5.188824,21.803215,22.795235,0.570403,-18.094496,0.323156,-3.120612,-6.407303,-9.707468,-18.392357,-6.142831,-10.145931,-9.677865,-33.633633,-8.018850,-29.335701,0.000000,173.000000,4.000000,,,,0.000000,4.000000,4.000000,4.000000,4.000000,4.000000,4.000000,4.000000,4.000000,4.000000,4.000000,4.000000,4.000000,4.000000,4.000000,4.000000,4.000000,4.000000,4.000000,4.000000,4.000000,4.000000,4.000000,4.000000,4.000000,4.000000,4.000000,4.000000,4.000000,4.000000,4.000000,4.000000,4.000000,100.000000
1614403625.905122,85.000000,0.000000,-0.813454,-10.176527,-4.400501,-10.303057,3.310673,4.164291,-6.896100,7.679207,-10.576982,-8.342995,-8.385271,-14.008532,-13.076824,-18.639965,-10.351458,21.226910,-1.593892,23.319874,23.798080,3.133935,-17.563580,4.425397,-0.040568,-6.913717,2.097111,-18.373964,-7.162329,-8.084503,-9.155367,-33.600002,-8.010831,-26.229443,0.000000,193.000000,4.000000,,,,0.000000,4.000000,4.000000,4.000000,4.000000,4.000000,4.000000,4.000000,4.000000,4.000000,4.000000,4.000000,4.000000,4.000000,4.000000,4.000000,4.000000,4.000000,4.000000,4.000000,4.000000,4.000000,4.000000,4.000000,4.000000,4.000000,4.000000,4.000000,4.000000,4.000000,4.000000,4.000000,4.000000,100.000000
1614403625.912871,86.000000,0.000000,6.879667,-0.935581,18.168001,15.861093,31.512489,15.442179,-5.863563,15.876656,14.561801,-2.693626,0.341063,-9.891959,-4.858619,-11.954659,-9.315466,21.718502,5.587189,25.860657,26.851206,5.182083,-9.853709,8.523536,7.138959,-5.368341,3.120655,-17.842770,-3.565423,-3.461034,-7.094929,-32.540760,-8.515640,-24.151930,0.000000,203.000000,4.000000,,,,0.000000,4.000000,4.000000,4.000000,4.000000,4.000000,4.000000,4.000000,4.000000,4.000000,4.000000,4.000000,4.000000,4.000000,4.000000,4.000000,4.000000,4.000000,4.000000,4.000000,4.000000,4.000000,4.000000,4.000000,4.000000,4.000000,4.000000,4.000000,4.000000,4.000000,4.000000,4.000000,4.000000,100.000000
1614403625.920720,87.000000,0.000000,2.770223,4.706380,15.585732,17.383694,27.378414,4.144685,-7.396161,18.424881,23.265188,12.693684,3.417645,-9.882067,-3.315299,-7.840140,-9.818971,20.158323,8.145705,25.834795,23.747431,0.561516,-5.741291,5.438089,9.183103,-5.875793,-15.344004,-17.824926,-3.561857,-1.406291,-5.036552,-30.456936,-7.994305,-25.153419,0.000000,211.000000,4.000000,,,,0.000000,4.000000,4.000000,4.000000,4.000000,4.000000,4.000000,4.000000,4.000000,4.000000,4.000000,4.000000,4.000000,4.000000,4.000000,4.000000,4.000000,4.000000,4.000000,4.000000,4.000000,4.000000,4.000000,4.000000,4.000000,4.000000,4.000000,4.000000,4.000000,4.000000,4.000000,4.000000,4.000000,100.000000
1614403625.928469,88.000000,0.000000,-1.847931,3.676033,-0.840111,-7.761896,11.966420,3.114899,-6.875944,18.406456,11.447050,17.809195,1.875766,-9.359365,-4.337625,-7.832300,-10.321972,21.676626,7.111918,26.834602,22.698042,-3.028789,-6.761191,4.407010,5.584176,-6.895559,0.568776,-16.268641,-3.558296,-1.404885,-5.544336,-26.323915,-7.986310,-24.615446,0.000000,172.000000,4.000000,,,,0.000000,4.000000,4.000000,4.000000,4.000000,4.000000,4.000000,4.000000,4.000000,4.000000,4.000000,4.000000,4.000000,4.000000,4.000000,4.000000,4.000000,4.000000,4.000000,4.000000,4.000000,4.000000,4.000000,4.000000,4.000000,4.000000,4.000000,4.000000,4.000000,4.000000,4.000000,4.000000,4.000000,100.000000
1614403625.936318,89.000000,0.000000,2.256481,3.159536,-1.864912,-5.702852,18.108299,17.470758,-4.304965,21.977795,12.461245,25.996513,2.386710,-6.273082,-5.358928,-6.798826,-9.798830,26.783154,7.617627,29.371870,27.803551,-0.461657,-6.241609,6.966705,5.578591,-2.786099,22.619490,-12.149808,2.086288,0.647802,-6.051612,-24.759130,-8.491144,-23.565189,0.000000,220.000000,4.000000,,,,0.000000,4.000000,4.000000,4.000000,4.000000,4.000000,4.000000,4.000000,4.000000,4.000000,4.000000,4.000000,4.000000,4.000000,4.000000,4.000000,4.000000,4.000000,4.000000,4.000000,4.000000,4.000000,4.000000,4.000000,4.000000,4.000000,4.000000,4.000000,4.000000,4.000000,4.000000,4.000000,4.000000,100.000000
1614403625.944068,90.000000,0.000000,0.715763,3.669197,1.213876,10.200287,22.192755,11.812263,-2.762199,18.878893,15.012886,23.919235,3.409965,-7.805270,-8.430492,-15.509976,-9.789031,25.217909,7.097188,27.804035,23.160362,-3.538119,-8.286650,6.959739,6.085834,2.344892,2.084049,-10.086375,4.135484,2.698436,-5.532740,-25.760012,-8.482654,-25.592905,0.000000,204.000000,4.000000,,,,0.000000,4.000000,4.000000,4.000000,4.000000,4.000000,4.000000,4.000000,4.000000,4.000000,4.000000,4.000000,4.000000,4.000000,4.000000,4.000000,4.000000,4.000000,4.000000,4.000000,4.000000,4.000000,4.000000,4.000000,4.000000,4.000000,4.000000,4.000000,4.000000,4.000000,4.000000,4.000000,4.000000,100.000000
1614403625.951917,91.000000,0.000000,-4.925979,2.639887,-0.838619,1.472138,11.914152,3.595322,-3.272257,11.167706,8.331206,-6.873915,1.868093,-8.310286,-12.011806,-23.186773,-10.292063,20.064486,4.525989,26.237770,12.880791,-7.124324,-10.329645,8.491241,5.054107,-1.760017,-9.712907,-11.101931,0.541605,1.670097,-6.040028,-26.247072,-8.474171,-24.028851,0.000000,181.000000,4.000000,,,,0.000000,4.000000,4.000000,4.000000,4.000000,4.000000,4.000000,4.000000,4.000000,4.000000,4.000000,4.000000,4.000000,4.000000,4.000000,4.000000,4.000000,4.000000,4.000000,4.000000,4.000000,4.000000,4.000000,4.000000,4.000000,4.000000,4.000000,4.000000,4.000000,4.000000,4.000000,4.000000,4.000000,100.000000
1614403625.959666,92.000000,0.000000,-2.869771,3.662888,3.264783,-8.272923,8.312494,12.822495,-3.268985,14.746283,13.451080,-14.559349,2.891866,-1.122488,-11.999794,-9.830254,-6.692027,23.121346,6.572745,32.878201,20.560219,-2.501815,-4.678290,14.123775,7.100335,-5.860821,10.296806,-10.065187,1.566704,1.668427,-6.033988,-24.169544,-8.465696,-14.261232,0.000000,183.000000,4.000000,,,,0.000000,4.000000,4.000000,4.000000,4.000000,4.000000,4.000000,4.000000,4.000000,4.000000,4.000000,4.000000,4.000000,4.000000,4.000000,4.000000,4.000000,4.000000,4.000000,4.000000,4.000000,4.000000,4.000000,4.000000,4.000000,4.000000,4.000000,4.000000,4.000000,4.000000,4.000000,4.000000,4.000000,100.000000
1614403625.967515,93.000000,0.000000,-2.866901,1.607943,6.851262,0.453298,12.919567,9.732750,-4.291357,18.321280,25.232500,9.557775,2.888974,2.468378,-11.474974,7.615474,-2.582771,30.790531,6.566172,37.973526,33.872990,1.603251,-0.571047,13.596830,7.093234,2.350168,14.389073,-6.978199,4.642061,1.666759,-6.027954,-21.068451,-7.944410,-12.708510,0.000000,195.000000,4.000000,,,,0.000000,4.000000,4.000000,4.000000,4.000000,4.000000,4.000000,4.000000,4.000000,4.000000,4.000000,4.000000,4.000000,4.000000,4.000000,4.000000,4.000000,4.000000,4.000000,4.000000,4.000000,4.000000,4.000000,4.000000,4.000000,4.000000,4.000000,4.000000,4.000000,4.000000,4.000000,4.000000,4.000000,100.000000
1614403625.975264,94.000000,0.000000,-10.556342,-4.034690,2.229026,5.068229,13.419468,-3.097496,-6.851168,10.610651,19.566242,2.368730,-3.267761,-3.687937,-12.489140,7.095038,-5.144290,31.785381,1.431401,36.909912,32.813477,-0.449635,-2.621758,10.506310,2.470756,10.552946,2.579813,-6.458400,0.534855,1.665092,-6.021926,-23.098665,-8.962107,-25.003494,0.000000,213.000000,4.000000,,,,0.000000,4.000000,4.000000,4.000000,4.000000,4.000000,4.000000,4.000000,4.000000,4.000000,4.000000,4.000000,4.000000,4.000000,4.000000,4.000000,4.000000,4.000000,4.000000,4.000000,4.000000,4.000000,4.000000,4.000000,4.000000,4.000000,4.000000,4.000000,4.000000,4.000000,4.000000,4.000000,4.000000,100.000000
1614403625.983113,95.000000,0.000000,-12.084247,-2.492194,3.252438,3.524699,12.893228,3.059448,-6.844317,7.010297,9.803087,-16.607998,-6.341416,-5.735531,-9.912548,2.472558,-6.164787,31.753597,-0.108492,36.360180,30.216560,2.627738,-3.131957,16.649651,0.929824,7.465470,4.628515,-6.451942,-3.055424,1.663427,-6.528725,-22.562746,-8.440324,-21.901567,0.000000,167.000000,4.000000,,,,0.000000,4.000000,4.000000,4.000000,4.000000,4.000000,4.000000,4.000000,4.000000,4.000000,4.000000,4.000000,4.000000,4.000000,4.000000,4.000000,4.000000,4.000000,4.000000,4.000000,4.000000,4.000000,4.000000,4.000000,4.000000,4.000000,4.000000,4.000000,4.000000,4.000000,4.000000,4.000000,4.000000,100.000000
1614403625.990862,96.000000,0.000000,-5.918316,5.202606,9.915853,6.085277,13.393155,13.312799,-4.273370,13.157132,14.408669,2.382969,0.844412,-2.140052,-4.261610,5.547009,2.559326,37.362869,3.481360,37.862282,37.365833,10.830238,-2.616005,23.299667,4.518638,4.381082,9.239271,-3.881387,-0.488266,1.661763,-5.496555,-11.770952,-3.303679,-2.905307,8064.000000,0.000000,4.000000,,,,0.000000,4.000000,4.000000,4.000000,4.000000,4.000000,4.000000,4.000000,4.000000,4.000000,4.000000,4.000000,4.000000,4.000000,4.000000,4.000000,4.000000,4.000000,4.000000,4.000000,4.000000,4.000000,4.000000,4.000000,4.000000,4.000000,4.000000,4.000000,4.000000,4.000000,4.000000,4.000000,4.000000,100.000000
1614403625.998511,97.000000,0.000000,-3.861116,7.761506,-4.453038,3.002269,10.815660,9.196922,-2.730635,16.220898,15.932721,9.047253,3.920491,-0.599450,-2.206066,4.515821,6.146511,40.915249,5.016340,37.824421,39.379749,14.409152,-2.613389,22.763548,6.052581,7.966444,10.255672,-2.851865,1.050684,1.660102,-2.926955,-7.656617,-2.787555,-9.569068,8064.000000,0.000000,4.000000,,,,0.000000,4.000000,4.000000,4.000000,4.000000,4.000000,4.000000,4.000000,4.000000,4.000000,4.000000,4.000000,4.000000,4.000000,4.000000,4.000000,4.000000,4.000000,4.000000,4.000000,4.000000,4.000000,4.000000,4.000000,4.000000,4.000000,4.000000,4.000000,4.000000,4.000000,4.000000,4.000000,4.000000,100.000000
1614403626.006260,98.000000,0.000000,-5.395717,6.215282,-23.935764,-4.180221,7.215100,6.110802,-3.240725,14.153396,6.173199,-17.115641,1.865288,-2.650133,-4.767962,-1.642541,-0.013482,39.335873,2.447221,36.248135,37.289085,13.881922,0.978968,21.715143,5.020887,9.496939,19.476187,-3.361834,1.049633,1.658442,-1.898388,-16.366909,-7.912972,-30.585140,8064.000000,0.000000,4.000000,,,,0.000000,4.000000,4.000000,4.000000,4.000000,4.000000,4.000000,4.000000,4.000000,4.000000,4.000000,4.000000,4.000000,4.000000,4.000000,4.000000,4.000000,4.000000,4.000000,4.000000,4.000000,4.000000,4.000000,4.000000,4.000000,4.000000,4.000000,4.000000,4.000000,4.000000,4.000000,4.000000,4.000000,100.000000
1614403626.013909,99.000000,0.000000,-4.877501,7.234708,-6.475931,-2.637579,7.720706,10.720076,-3.237484,14.139242,10.782410,-9.406218,7.504449,-2.647482,-4.763194,-0.102437,1.012173,39.296535,3.470415,36.211887,38.790260,15.919322,2.003630,21.693428,5.528687,8.461802,26.636198,-3.358472,3.099866,1.656783,-2.409310,-15.837722,-8.930700,-19.785324,8064.000000,0.000000,4.000000,,,,0.000000,4.000000,4.000000,4.000000,4.000000,4.000000,4.000000,4.000000,4.000000,4.000000,4.000000,4.000000,4.000000,4.000000,4.000000,4.000000,4.000000,4.000000,4.000000,4.000000,4.000000,4.000000,4.000000,4.000000,4.000000,4.000000,4.000000,4.000000,4.000000,4.000000,4.000000,4.000000,4.000000,100.000000
1614403626.021658,100.000000,0.000000,-4.359802,6.714653,19.684391,4.031725,10.277087,12.247817,-3.234247,15.150743,29.745987,23.423702,9.035406,-1.106373,-3.219970,3.487409,5.626545,36.693138,6.543868,37.201317,34.136082,13.852121,-3.639399,13.466606,6.035979,8.966160,20.455715,-2.842293,3.096766,1.655126,-2.406900,-4.539833,-3.793565,2.285743,8064.000000,0.000000,4.000000,,,,0.000000,4.000000,4.000000,4.000000,4.000000,4.000000,4.000000,4.000000,4.000000,4.000000,4.000000,4.000000,4.000000,4.000000,4.000000,4.000000,4.000000,4.000000,4.000000,4.000000,4.000000,4.000000,4.000000,4.000000,4.000000,4.000000,4.000000,4.000000,4.000000,4.000000,4.000000,4.000000,4.000000,100.000000
1614403626.029307,101.000000,0.000000,-4.355443,3.631015,5.818553,4.027694,10.266810,9.671467,-3.231013,13.084311,25.613676,18.272074,-5.332604,-4.695011,-10.909058,-11.900694,-8.225235,24.861572,0.896298,29.471806,18.717333,-2.059167,-12.866529,-1.931476,4.491481,6.393091,-2.641664,-3.352271,0.529566,1.653471,-2.917314,-4.022472,-0.712848,-5.921670,8064.000000,0.000000,4.000000,,,,0.000000,4.000000,4.000000,4.000000,4.000000,4.000000,4.000000,4.000000,4.000000,4.000000,4.000000,4.000000,4.000000,4.000000,4.000000,4.000000,4.000000,4.000000,4.000000,4.000000,4.000000,4.000000,4.000000,4.000000,4.000000,4.000000,4.000000,4.000000,4.000000,4.000000,4.000000,4.000000,4.000000,100.000000
1614403626.037056,102.000000,0.000000,-5.889549,2.601743,-16.238548,-2.643001,8.718081,7.097693,-3.227782,8.455842,-2.104245,-6.361584,-16.609322,-11.869802,-28.334045,-34.452896,-28.729830,12.016198,-11.925111,12.519258,7.929384,-20.005825,-19.520329,-9.621852,2.435708,-3.356892,-17.510817,-3.348919,0.016216,1.651818,-2.914397,-11.197937,-1.224955,-24.377287,8064.000000,0.000000,4.000000,,,,0.000000,4.000000,4.000000,4.000000,4.000000,4.000000,4.000000,4.000000,4.000000,4.000000,4.000000,4.000000,4.000000,4.000000,4.000000,4.000000,4.000000,4.000000,4.000000,4.000000,4.000000,4.000000,4.000000,4.000000,4.000000,4.000000,4.000000,4.000000,4.000000,4.000000,4.000000,4.000000,4.000000,100.000000
1614403626.044706,103.000000,0.000000,-8.447762,3.111962,-6.991540,-3.665999,10.247826,7.603416,-2.711733,5.370463,-6.717525,-6.355222,-13.002970,-14.422035,-29.331352,-27.238956,-25.111357,12.004182,-14.477288,13.019559,13.049660,-16.908897,-9.757218,-0.894282,0.894810,-7.456099,5.583617,-3.858390,0.016200,1.650166,-1.885841,-12.212379,-3.275012,-25.891371,8064.000000,0.000000,4.000000,,,,0.000000,4.000000,4.000000,4.000000,4.000000,4.000000,4.000000,4.000000,4.000000,4.000000,4.000000,4.000000,4.000000,4.000000,4.000000,4.000000,4.000000,4.000000,4.000000,4.000000,4.000000,4.000000,4.000000,4.000000,4.000000,4.000000,4.000000,4.000000,4.000000,4.000000,4.000000,4.000000,4.000000,100.000000
1614403626.052455,104.000000,0.000000,-7.413673,3.621670,5.835964,3.517154,14.852962,7.595812,-3.221842,9.980477,15.340474,-5.323226,-3.246377,-4.664024,-7.250739,3.044693,-5.086246,24.299870,-1.642298,35.057823,25.344303,0.543909,10.765359,11.927126,2.945198,0.243665,29.167776,-2.828891,1.041825,1.648516,-4.448058,-10.148886,-4.297379,-21.762917,8064.000000,0.000000,4.000000,,,,0.000000,4.000000,4.000000,4.000000,4.000000,4.000000,4.000000,4.000000,4.000000,4.000000,4.000000,4.000000,4.000000,4.000000,4.000000,4.000000,4.000000,4.000000,4.000000,4.000000,4.000000,4.000000,4.000000,4.000000,4.000000,4.000000,4.000000,4.000000,4.000000,4.000000,4.000000,4.000000,4.000000,100.000000
1614403626.060104,105.000000,0.000000,-4.842157,2.592408,3.778846,0.436714,11.248365,7.588217,-2.705800,18.175625,22.504622,-18.651236,2.397895,5.084230,6.089845,10.733956,3.123969,32.993519,6.051651,42.202251,30.959984,8.748493,12.293056,13.453660,6.019176,7.935729,12.215532,-2.826062,0.527963,1.646867,-7.520533,-11.164377,-4.805902,-24.818077,8064.000000,0.000000,4.000000,,,,0.000000,4.000000,4.000000,4.000000,4.000000,4.000000,4.000000,4.000000,4.000000,4.000000,4.000000,4.000000,4.000000,4.000000,4.000000,4.000000,4.000000,4.000000,4.000000,4.000000,4.000000,4.000000,4.000000,4.000000,4.000000,4.000000,4.000000,4.000000,4.000000,4.000000,4.000000,4.000000,4.000000,100.000000
1614403626.067853,106.000000,0.000000,-4.324494,3.615456,1.210965,-7.768851,1.493527,7.580628,-2.703094,15.080526,9.148783,-7.863354,1.882677,3.027864,-4.685476,-5.174213,-2.520181,25.781038,-3.185169,27.288254,27.339281,7.201283,-1.565392,10.876103,6.013156,5.363691,-0.104376,-3.848877,-3.575130,1.645220,0.692116,-11.666034,-5.313916,-26.844540,8064.000000,0.000000,4.000000,,,,0.000000,4.000000,4.000000,4.000000,4.000000,4.000000,4.000000,4.000000,4.000000,4.000000,4.000000,4.000000,4.000000,4.000000,4.000000,4.000000,4.000000,4.000000,4.000000,4.000000,4.000000,4.000000,4.000000,4.000000,4.000000,4.000000,4.000000,4.000000,4.000000,4.000000,4.000000,4.000000,4.000000,100.000000
1614403626.075502,107.000000,0.000000,-5.345810,6.688764,3.261036,4.546610,5.594598,7.573048,-6.290134,3.783395,4.524250,20.349638,-2.221770,-4.667472,-16.475662,-12.861347,-6.107404,19.601412,-11.387113,20.081478,27.311941,8.219724,-3.615108,11.378048,5.494323,0.230122,10.152139,0.257536,-2.033093,1.643575,13.511936,-10.115906,-1.206038,-14.510003,8064.000000,0.000000,4.000000,,,,0.000000,4.000000,4.000000,4.000000,4.000000,4.000000,4.000000,4.000000,4.000000,4.000000,4.000000,4.000000,4.000000,4.000000,4.000000,4.000000,4.000000,4.000000,4.000000,4.000000,4.000000,4.000000,4.000000,4.000000,4.000000,4.000000,4.000000,4.000000,4.000000,4.000000,4.000000,4.000000,4.000000,100.000000
1614403626.083251,108.000000,0.000000,-4.827644,3.605152,5.821877,17.875397,13.794131,8.078295,-10.386409,-0.835773,9.647931,17.252365,-4.783651,-6.201266,-12.356623,-8.745921,-4.562836,26.248476,-8.298802,22.625500,27.797449,9.237144,-3.098673,9.828209,7.027290,2.793994,5.013782,7.949586,7.199709,1.641932,16.575348,-7.541687,2.897732,-4.239083,8064.000000,0.000000,4.000000,,,,0.000000,4.000000,4.000000,4.000000,4.000000,4.000000,4.000000,4.000000,4.000000,4.000000,4.000000,4.000000,4.000000,4.000000,4.000000,4.000000,4.000000,4.000000,4.000000,4.000000,4.000000,4.000000,4.000000,4.000000,4.000000,4.000000,4.000000,4.000000,4.000000,4.000000,4.000000,4.000000,4.000000,100.000000
1614403626.090900,109.000000,0.000000,-4.822816,-3.065120,1.200671,6.062650,3.011107,6.531755,-10.376022,1.216344,4.510077,-8.918734,-3.753226,-4.656603,-6.190420,-9.249996,-6.096734,25.709408,-7.777683,17.987490,18.026062,4.612523,-11.300702,7.254278,2.404878,6.893764,1.419024,5.377534,7.192510,1.127469,10.404926,-7.021326,1.356373,-17.055357,8064.000000,0.000000,4.000000,,,,0.000000,4.000000,4.000000,4.000000,4.000000,4.000000,4.000000,4.000000,4.000000,4.000000,4.000000,4.000000,4.000000,4.000000,4.000000,4.000000,4.000000,4.000000,4.000000,4.000000,4.000000,4.000000,4.000000,4.000000,4.000000,4.000000,4.000000,4.000000,4.000000,4.000000,4.000000,4.000000,4.000000,100.000000
1614403626.098650,110.000000,0.000000,-4.817994,-5.113337,-7.518478,-6.251105,-3.145751,1.909839,-10.365646,-0.323334,-4.212381,-12.499558,-4.775114,-5.677588,-10.286794,-14.368951,-13.782946,13.376005,-14.436572,13.866938,7.238805,-2.058756,-14.366324,6.734203,-9.392399,1.245845,12.186836,-6.935536,-6.660837,-0.412120,3.215034,-9.065586,-1.209086,-32.422916,8064.000000,0.000000,4.000000,,,,0.000000,4.000000,4.000000,4.000000,4.000000,4.000000,4.000000,4.000000,4.000000,4.000000,4.000000,4.000000,4.000000,4.000000,4.000000,4.000000,4.000000,4.000000,4.000000,4.000000,4.000000,4.000000,4.000000,4.000000,4.000000,4.000000,4.000000,4.000000,4.000000,4.000000,4.000000,4.000000,4.000000,100.000000
1614403626.106299,111.000000,0.000000,-4.813176,-3.569762,-2.382755,1.447454,11.216370,-0.143353,-10.355280,-0.323010,0.407216,-8.897315,-7.847262,-6.184731,-15.404712,-15.380223,-17.871727,11.824168,-16.473417,16.417173,7.231566,-4.107980,-10.762215,4.676187,-12.972750,-7.986170,-1.671504,-10.518344,-14.859303,-2.462990,-3.454848,-11.107802,-1.207877,-26.749468,8064.000000,0.000000,4.000000,,,,0.000000,4.000000,4.000000,4.000000,4.000000,4.000000,4.000000,4.000000,4.000000,4.000000,4.000000,4.000000,4.000000,4.000000,4.000000,4.000000,4.000000,4.000000,4.000000,4.000000,4.000000,4.000000,4.000000,4.000000,4.000000,4.000000,4.000000,4.000000,4.000000,4.000000,4.000000,4.000000,4.000000,100.000000
1614403626.114048,112.000000,0.000000,-4.808362,-4.079012,4.799115,5.035750,14.282076,0.882431,-7.780823,2.754236,11.176040,-16.580727,-8.352235,-5.665725,-15.389307,-13.313560,-16.828213,21.043114,-12.354380,18.964859,8.762796,-3.078231,-9.725812,3.133049,-6.805931,-11.055107,-8.849320,-2.815518,-11.254701,-1.947706,-7.553957,-11.096695,-0.693849,-18.517591,8064.000000,0.000000,4.000000,,,,0.000000,4.000000,4.000000,4.000000,4.000000,4.000000,4.000000,4.000000,4.000000,4.000000,4.000000,4.000000,4.000000,4.000000,4.000000,4.000000,4.000000,4.000000,4.000000,4.000000,4.000000,4.000000,4.000000,4.000000,4.000000,4.000000,4.000000,4.000000,4.000000,4.000000,4.000000,4.000000,4.000000,100.000000
1614403626.121697,113.000000,0.000000,-4.803554,-4.587754,-9.564658,-7.276978,-2.655283,-0.144092,-9.311503,2.238661,11.164864,-10.410299,-9.369524,-5.660059,-15.886738,-18.428452,-18.862667,16.919506,-11.316384,18.945894,7.728393,-4.613614,-10.741727,5.694018,-4.235023,-8.992770,17.826197,1.289862,-7.140882,0.618344,-4.469480,-9.034316,-1.205976,-22.088818,8064.000000,0.000000,4.000000,,,,0.000000,4.000000,4.000000,4.000000,4.000000,4.000000,4.000000,4.000000,4.000000,4.000000,4.000000,4.000000,4.000000,4.000000,4.000000,4.000000,4.000000,4.000000,4.000000,4.000000,4.000000,4.000000,4.000000,4.000000,4.000000,4.000000,4.000000,4.000000,4.000000,4.000000,4.000000,4.000000,4.000000,100.000000
1614403626.129446,114.000000,0.000000,-4.798751,-4.070346,-23.401247,-12.910727,-10.344935,-2.708050,-16.481678,-2.891783,0.384468,7.548830,-13.975539,-5.654399,-18.434954,-29.692076,-20.895086,6.133356,-10.279427,16.362844,7.207844,-7.173103,-10.218164,7.739606,-6.282070,-9.496597,17.808369,0.262931,-7.133741,2.156187,-0.362446,-7.486820,-1.204770,-20.015446,8064.000000,0.000000,4.000000,,,,0.000000,4.000000,4.000000,4.000000,4.000000,4.000000,4.000000,4.000000,4.000000,4.000000,4.000000,4.000000,4.000000,4.000000,4.000000,4.000000,4.000000,4.000000,4.000000,4.000000,4.000000,4.000000,4.000000,4.000000,4.000000,4.000000,4.000000,4.000000,4.000000,4.000000,4.000000,4.000000,4.000000,100.000000
1614403626.137095,115.000000,0.000000,-4.793952,-4.066275,-16.198359,-2.641406,-7.257667,-4.243804,-18.516479,-4.427352,-7.308225,6.515639,-14.987205,-5.648745,-18.929340,-28.123922,-18.310089,5.101581,-5.653763,15.833662,8.226277,-6.653109,-10.207947,7.219047,-5.250146,-10.512742,-11.953029,0.262668,-7.126607,0.102749,1.176378,-6.966513,-0.690744,-12.303123,8064.000000,0.000000,4.000000,,,,0.000000,4.000000,4.000000,4.000000,4.000000,4.000000,4.000000,4.000000,4.000000,4.000000,4.000000,4.000000,4.000000,4.000000,4.000000,4.000000,4.000000,4.000000,4.000000,4.000000,4.000000,4.000000,4.000000,4.000000,4.000000,4.000000,4.000000,4.000000,4.000000,4.000000,4.000000,4.000000,4.000000,100.000000
1614403626.144944,116.000000,0.000000,-4.789158,-3.549389,-18.746264,4.540723,-8.276051,-6.290842,-17.985142,-2.884464,-7.813737,-4.772927,-10.356833,-5.643096,-18.397589,-17.326567,-16.753317,8.173403,-2.058366,20.433212,8.218051,-4.082354,-10.197739,6.699007,-4.732076,-8.450947,-20.146204,-0.250415,-6.606660,-1.948636,1.175201,-9.010829,-2.741336,-18.444666,8064.000000,0.000000,4.000000,,,,0.000000,4.000000,4.000000,4.000000,4.000000,4.000000,4.000000,4.000000,4.000000,4.000000,4.000000,4.000000,4.000000,4.000000,4.000000,4.000000,4.000000,4.000000,4.000000,4.000000,4.000000,4.000000,4.000000,4.000000,4.000000,4.000000,4.000000,4.000000,4.000000,4.000000,4.000000,4.000000,4.000000,100.000000
1614403626.152694,117.000000,0.000000,-4.784369,-4.571480,-27.445465,-1.104843,-8.267775,-7.310193,-16.941517,-3.394400,-6.780282,-8.870719,-9.833655,-5.637453,-18.379192,-15.257958,-16.736565,9.703691,-3.594769,21.951241,7.697012,-2.539810,-10.187541,7.205128,-5.240164,-5.878394,-16.023493,-3.327088,-6.600054,-1.946687,1.174026,-12.078741,-6.841158,-26.631350,8064.000000,0.000000,4.000000,,,,0.000000,4.000000,4.000000,4.000000,4.000000,4.000000,4.000000,4.000000,4.000000,4.000000,4.000000,4.000000,4.000000,4.000000,4.000000,4.000000,4.000000,4.000000,4.000000,4.000000,4.000000,4.000000,4.000000,4.000000,4.000000,4.000000,4.000000,4.000000,4.000000,4.000000,4.000000,4.000000,4.000000,100.000000
1614403626.160543,118.000000,0.000000,-4.779584,-3.028447,-8.443662,-4.693482,-1.592840,-5.251600,-12.822011,-3.903826,-8.311963,-3.733643,-11.362284,-5.118995,-17.847992,-11.652957,-14.155725,13.796552,-6.155276,22.442110,9.227777,-3.050090,-9.664533,8.223564,-5.234924,-5.359695,-2.161316,-3.323761,-6.080633,-1.944741,1.685673,-8.989739,-7.347138,-19.938051,8064.000000,0.000000,4.000000,,,,0.000000,4.000000,4.000000,4.000000,4.000000,4.000000,4.000000,4.000000,4.000000,4.000000,4.000000,4.000000,4.000000,4.000000,4.000000,4.000000,4.000000,4.000000,4.000000,4.000000,4.000000,4.000000,4.000000,4.000000,4.000000,4.000000,4.000000,4.000000,4.000000,4.000000,4.000000,4.000000,4.000000,100.000000
1614403626.168292,119.000000,0.000000,-4.774805,0.051504,9.513500,0.439416,-0.052786,-3.195066,-10.245086,-3.387101,-7.790831,1.911116,-10.325280,-7.165158,-18.342964,-5.487458,-12.603107,17.885319,-6.661942,28.060694,12.295472,-2.534220,-9.142048,8.215341,-5.229689,-5.867156,27.584435,-2.807616,-5.561732,-1.942796,1.683987,-1.801262,-4.775688,-11.200165,8064.000000,0.000000,4.000000,,,,0.000000,4.000000,4.000000,4.000000,4.000000,4.000000,4.000000,4.000000,4.000000,4.000000,4.000000,4.000000,4.000000,4.000000,4.000000,4.000000,4.000000,4.000000,4.000000,4.000000,4.000000,4.000000,4.000000,4.000000,4.000000,4.000000,4.000000,4.000000,4.000000,4.000000,4.000000,4.000000,4.000000,100.000000
1614403626.176141,120.000000,0.000000,-4.770030,-0.974188,-10.496014,-2.637946,-7.232220,-3.191871,-12.798944,-3.383714,-5.218937,-9.885667,-15.443160,-9.722095,-18.324621,-17.789663,-13.103325,17.354612,-7.168100,25.468531,11.770356,-2.531686,-10.671367,6.155843,-5.224460,-5.348468,21.915825,-5.881732,-7.094632,-1.940853,0.656662,-0.260999,-4.258092,-12.727426,8064.000000,0.000000,4.000000,,,,0.000000,4.000000,4.000000,4.000000,4.000000,4.000000,4.000000,4.000000,4.000000,4.000000,4.000000,4.000000,4.000000,4.000000,4.000000,4.000000,4.000000,4.000000,4.000000,4.000000,4.000000,4.000000,4.000000,4.000000,4.000000,4.000000,4.000000,4.000000,4.000000,4.000000,4.000000,4.000000,4.000000,100.000000
1614403626.183890,121.000000,0.000000,-4.765260,-6.101419,-27.921415,-7.250693,-12.866014,-3.188679,-14.324606,-3.380331,-5.726539,-21.670652,-17.991819,-8.173912,-15.229374,-25.464180,-12.064581,17.337259,-6.648112,15.699472,11.758586,-2.529154,-10.147875,10.765072,-5.219235,-5.343120,-10.413783,-6.388671,-5.549076,-1.938912,1.168826,-3.337661,-5.279475,-13.740339,8064.000000,0.000000,4.000000,,,,0.000000,4.000000,4.000000,4.000000,4.000000,4.000000,4.000000,4.000000,4.000000,4.000000,4.000000,4.000000,4.000000,4.000000,4.000000,4.000000,4.000000,4.000000,4.000000,4.000000,4.000000,4.000000,4.000000,4.000000,4.000000,4.000000,4.000000,4.000000,4.000000,4.000000,4.000000,4.000000,4.000000,100.000000
1614403626.191739,122.000000,0.000000,-4.247674,-8.146600,-20.201185,-2.115237,-8.750584,-2.672670,-13.284640,-3.376950,-6.746453,-1.648982,-11.307160,-5.601635,-15.214145,-10.054101,-13.590978,18.345562,-7.154284,15.683773,13.798109,-2.013804,-8.599266,14.344050,-5.214016,-5.850597,-6.300806,-3.818180,0.097499,-1.424153,2.706118,-3.847144,-4.248554,-12.188138,8064.000000,0.000000,4.000000,,,,0.000000,4.000000,4.000000,4.000000,4.000000,4.000000,4.000000,4.000000,4.000000,4.000000,4.000000,4.000000,4.000000,4.000000,4.000000,4.000000,4.000000,4.000000,4.000000,4.000000,4.000000,4.000000,4.000000,4.000000,4.000000,4.000000,4.000000,4.000000,4.000000,4.000000,4.000000,4.000000,4.000000,100.000000
1614403626.199488,123.000000,0.000000,-4.756247,-7.625633,-18.642523,-3.138763,-6.690551,-2.669998,-13.784176,-3.373573,-6.226886,7.583436,-18.988161,-8.672957,-21.865597,-16.710714,-20.244053,11.147730,-11.762514,14.642448,6.604824,-6.627175,-18.847076,0.483553,-5.721622,-5.331926,10.115752,-5.865644,-2.466701,-2.961190,-1.911972,-3.330477,-4.244306,-14.227232,8064.000000,0.000000,4.000000,,,,0.000000,4.000000,4.000000,4.000000,4.000000,4.000000,4.000000,4.000000,4.000000,4.000000,4.000000,4.000000,4.000000,4.000000,4.000000,4.000000,4.000000,4.000000,4.000000,4.000000,4.000000,4.000000,4.000000,4.000000,4.000000,4.000000,4.000000,4.000000,4.000000,4.000000,4.000000,4.000000,4.000000,100.000000
1614403626.207337,124.000000,0.000000,-6.802773,-7.618007,-26.829008,-10.315111,-15.401809,-3.180148,-13.770392,-3.370200,-9.810403,-17.552353,-35.379429,-13.279669,-27.484756,-44.386311,-25.352015,-0.145470,-17.391777,4.371396,-5.709473,-15.851317,-29.597460,-15.927187,-5.203080,-6.865056,-0.663595,-7.911060,-12.720645,-5.522332,-9.089547,-4.352787,-6.804164,-17.289927,8064.000000,0.000000,4.000000,,,,0.000000,4.000000,4.000000,4.000000,4.000000,4.000000,4.000000,4.000000,4.000000,4.000000,4.000000,4.000000,4.000000,4.000000,4.000000,4.000000,4.000000,4.000000,4.000000,4.000000,4.000000,4.000000,4.000000,4.000000,4.000000,4.000000,4.000000,4.000000,4.000000,4.000000,4.000000,4.000000,4.000000,100.000000
1614403626.215087,125.000000,0.000000,-8.847252,-8.123210,-26.289358,-3.638129,-24.104355,-3.689789,-14.269443,-3.879650,-3.133926,-17.534800,-26.113281,-13.779209,-25.918812,-36.136795,-24.813843,-1.683786,-18.400026,5.392665,-2.114020,-18.912390,-22.388376,-16.424080,-5.197877,-9.935113,-4.252675,-0.210841,-14.246386,-6.029630,-5.490715,-5.374075,-8.335821,-17.785458,8064.000000,0.000000,4.000000,,,,0.000000,4.000000,4.000000,4.000000,4.000000,4.000000,4.000000,4.000000,4.000000,4.000000,4.000000,4.000000,4.000000,4.000000,4.000000,4.000000,4.000000,4.000000,4.000000,4.000000,4.000000,4.000000,4.000000,4.000000,4.000000,4.000000,4.000000,4.000000,4.000000,4.000000,4.000000,4.000000,4.000000,100.000000
1614403626.222935,126.000000,0.000000,-8.838405,-7.602266,-21.647684,3.032175,-19.977688,-2.147637,-13.742352,-3.362950,14.305105,7.098120,-8.651270,-12.226969,-23.328789,-12.510916,-23.763388,0.882001,-18.894447,14.105221,6.606042,-17.355015,-15.186501,-14.869195,-5.705500,-9.925179,-2.197140,4.404754,-11.155216,-5.510779,1.181443,-3.830240,-7.814665,-16.742031,8064.000000,0.000000,4.000000,,,,0.000000,4.000000,4.000000,4.000000,4.000000,4.000000,4.000000,4.000000,4.000000,4.000000,4.000000,4.000000,4.000000,4.000000,4.000000,4.000000,4.000000,4.000000,4.000000,4.000000,4.000000,4.000000,4.000000,4.000000,4.000000,4.000000,4.000000,4.000000,4.000000,4.000000,4.000000,4.000000,4.000000,100.000000
1614403626.230685,127.000000,0.000000,-7.803926,-8.107484,-20.600397,-7.740088,-14.829504,-4.709592,-11.164507,-3.359587,7.111313,0.424355,-11.719542,-13.240383,-23.305460,-14.549686,-24.765265,1.906760,-18.875553,14.091116,3.522513,-19.388943,-17.222595,-14.854325,-4.674153,-9.915253,-9.887251,2.861888,-10.118420,-6.018089,0.154620,-4.339230,-10.883774,-16.212469,8064.000000,0.000000,4.000000,,,,0.000000,4.000000,4.000000,4.000000,4.000000,4.000000,4.000000,4.000000,4.000000,4.000000,4.000000,4.000000,4.000000,4.000000,4.000000,4.000000,4.000000,4.000000,4.000000,4.000000,4.000000,4.000000,4.000000,4.000000,4.000000,4.000000,4.000000,4.000000,4.000000,4.000000,4.000000,4.000000,4.000000,100.000000
1614403626.238534,0.000000,0.000000,-8.308942,-7.073736,-22.118258,-13.373373,-16.353136,-10.345908,-10.127702,-3.869048,-15.972721,-17.524788,-17.348848,-13.227142,-19.179592,-14.022317,-22.176397,11.135622,-12.702831,17.666769,11.724119,-12.702887,-5.410501,-0.480497,-1.079736,-11.443799,12.173919,11.576975,-1.390353,-5.499251,3.744210,-5.873352,-12.411351,-18.247538,0.000000,205.000000,4.000000,,,,0.000000,4.000000,4.000000,4.000000,4.000000,4.000000,4.000000,4.000000,4.000000,4.000000,4.000000,4.000000,4.000000,4.000000,4.000000,4.000000,4.000000,4.000000,4.000000,4.000000,4.000000,4.000000,4.000000,4.000000,4.000000,4.000000,4.000000,4.000000,4.000000,4.000000,4.000000,4.000000,4.000000,100.000000
1614403626.246283,1.000000,0.000000,-9.326274,-3.989739,-22.096140,-4.642051,-10.182938,-8.797101,-9.604753,-2.839538,-5.700338,-13.404698,-12.203294,-7.572890,-8.904001,2.914783,-8.820888,27.021923,-2.433718,31.495256,36.840599,7.309816,16.133371,20.545624,3.536729,-2.201586,44.982258,24.385910,9.893089,-2.929649,13.484055,5.414572,-4.706632,-14.639547,0.000000,176.000000,4.000000,,,,0.000000,4.000000,4.000000,4.000000,4.000000,4.000000,4.000000,4.000000,4.000000,4.000000,4.000000,4.000000,4.000000,4.000000,4.000000,4.000000,4.000000,4.000000,4.000000,4.000000,4.000000,4.000000,4.000000,4.000000,4.000000,4.000000,4.000000,4.000000,4.000000,4.000000,4.000000,4.000000,4.000000,100.000000
1614403626.254032,2.000000,0.000000,-4.188743,-0.396005,-16.433018,-2.073306,2.647758,-1.095996,-3.954123,0.753045,17.895105,-7.237448,-9.626988,1.665452,-2.228431,12.655457,5.546908,34.174389,3.722562,38.643246,46.547348,17.558916,23.296724,28.730207,8.661397,17.287794,39.296249,27.951269,13.472939,-1.388258,17.573135,25.409159,3.503203,-1.291574,0.000000,179.000000,4.000000,,,,0.000000,4.000000,4.000000,4.000000,4.000000,4.000000,4.000000,4.000000,4.000000,4.000000,4.000000,4.000000,4.000000,4.000000,4.000000,4.000000,4.000000,4.000000,4.000000,4.000000,4.000000,4.000000,4.000000,4.000000,4.000000,4.000000,4.000000,4.000000,4.000000,4.000000,4.000000,4.000000,4.000000,100.000000
1614403626.261781,3.000000,0.000000,-0.594810,0.117211,-13.339662,-4.635335,1.106649,-0.582079,-2.411708,3.829216,10.184903,-7.230210,-10.643003,3.715069,-2.226202,10.591520,5.028541,31.576111,5.257301,37.578964,36.757214,9.849051,17.119581,21.521990,9.678377,26.501276,14.128749,26.384855,12.946646,-1.386869,16.529921,29.486313,3.499700,5.376384,0.000000,181.000000,4.000000,,,,0.000000,4.000000,4.000000,4.000000,4.000000,4.000000,4.000000,4.000000,4.000000,4.000000,4.000000,4.000000,4.000000,4.000000,4.000000,4.000000,4.000000,4.000000,4.000000,4.000000,4.000000,4.000000,4.000000,4.000000,4.000000,4.000000,4.000000,4.000000,4.000000,4.000000,4.000000,4.000000,4.000000,100.000000
1614403626.269430,4.000000,0.000000,-6.748062,-0.395727,-22.044270,-4.117880,-11.714971,-8.273805,-9.588783,2.286925,-3.158616,-11.838365,-13.196462,-1.929672,-3.762438,-2.239584,-1.643155,29.493252,4.226403,34.464462,32.617889,4.198176,10.435796,14.833801,7.104596,22.885031,9.499235,24.307188,10.369596,-1.898303,13.949288,21.251698,1.957738,-3.346941,0.000000,164.000000,4.000000,,,,0.000000,4.000000,4.000000,4.000000,4.000000,4.000000,4.000000,4.000000,4.000000,4.000000,4.000000,4.000000,4.000000,4.000000,4.000000,4.000000,4.000000,4.000000,4.000000,4.000000,4.000000,4.000000,4.000000,4.000000,4.000000,4.000000,4.000000,4.000000,4.000000,4.000000,4.000000,4.000000,4.000000,100.000000
1614403626.277179,5.000000,0.000000,-11.869519,-0.395331,-28.176073,-2.575300,-16.318640,-12.368095,-14.194579,0.233356,1.459928,-18.493193,-11.644804,-5.004665,-2.733034,-10.955294,-0.615870,29.463758,5.247817,28.788971,35.662197,6.245260,9.912539,18.921532,6.071850,19.272402,9.489736,22.231600,8.820765,-1.896405,12.909698,21.230446,2.981421,-6.420517,0.000000,203.000000,4.000000,,,,0.000000,4.000000,4.000000,4.000000,4.000000,4.000000,4.000000,4.000000,4.000000,4.000000,4.000000,4.000000,4.000000,4.000000,4.000000,4.000000,4.000000,4.000000,4.000000,4.000000,4.000000,4.000000,4.000000,4.000000,4.000000,4.000000,4.000000,4.000000,4.000000,4.000000,4.000000,4.000000,4.000000,100.000000
1614403626.284828,6.000000,0.000000,-8.780726,0.117885,-25.070972,-2.572725,-14.251040,-12.868547,-13.154743,0.233122,-0.592814,-4.115726,-7.017775,-5.512481,-1.704660,-5.816133,-2.666537,27.383013,4.729749,25.683260,33.575253,3.162091,10.928267,15.825686,5.552958,20.791592,10.505887,23.747829,11.888868,-1.381688,12.896789,26.337421,3.491261,3.842313,0.000000,171.000000,4.000000,,,,0.000000,4.000000,4.000000,4.000000,4.000000,4.000000,4.000000,4.000000,4.000000,4.000000,4.000000,4.000000,4.000000,4.000000,4.000000,4.000000,4.000000,4.000000,4.000000,4.000000,4.000000,4.000000,4.000000,4.000000,4.000000,4.000000,4.000000,4.000000,4.000000,4.000000,4.000000,4.000000,4.000000,100.000000
1614403626.292577,7.000000,0.000000,-8.259125,-0.395053,-28.635645,-4.108614,-15.262429,-14.394141,-14.167230,0.232889,-12.387094,7.170442,-16.241526,-7.558250,-7.343981,-14.528266,-13.945921,20.176144,-6.044212,23.606295,21.233984,-8.635942,-1.390353,-2.651677,-2.144903,21.283621,22.803074,18.083055,4.697492,-2.405947,8.268507,24.259802,1.436487,3.325650,0.000000,174.000000,4.000000,,,,0.000000,4.000000,4.000000,4.000000,4.000000,4.000000,4.000000,4.000000,4.000000,4.000000,4.000000,4.000000,4.000000,4.000000,4.000000,4.000000,4.000000,4.000000,4.000000,4.000000,4.000000,4.000000,4.000000,4.000000,4.000000,4.000000,4.000000,4.000000,4.000000,4.000000,4.000000,4.000000,4.000000,100.000000
1614403626.300226,8.000000,0.000000,-11.840610,-2.445940,-35.273678,-4.104505,-16.272808,-14.379746,-17.229986,0.232656,-5.708039,-15.913652,-29.558619,-10.114795,-18.618689,-37.590660,-21.111464,13.489301,-17.833040,15.890380,9.417878,-17.345255,-18.824860,-12.905436,-8.809424,7.929004,21.754629,1.141896,-11.717462,-4.967644,1.080751,18.594517,-1.129052,-10.523829,0.000000,197.000000,4.000000,,,,0.000000,4.000000,4.000000,4.000000,4.000000,4.000000,4.000000,4.000000,4.000000,4.000000,4.000000,4.000000,4.000000,4.000000,4.000000,4.000000,4.000000,4.000000,4.000000,4.000000,4.000000,4.000000,4.000000,4.000000,4.000000,4.000000,4.000000,4.000000,4.000000,4.000000,4.000000,4.000000,4.000000,100.000000
1614403626.307976,9.000000,0.000000,-12.341589,-3.469136,-35.751225,-1.536298,-15.230894,-13.339725,-17.725576,0.745244,6.092540,-25.128508,-21.323931,-9.079039,-22.702635,-38.578712,-21.603172,8.347606,-18.840847,10.233463,8.895640,-17.327909,-22.908600,-11.354069,-9.313436,-13.104567,-5.959433,-1.936169,-10.167283,-5.988317,2.105312,17.550282,-1.127923,-13.590228,0.000000,199.000000,4.000000,,,,0.000000,4.000000,4.000000,4.000000,4.000000,4.000000,4.000000,4.000000,4.000000,4.000000,4.000000,4.000000,4.000000,4.000000,4.000000,4.000000,4.000000,4.000000,4.000000,4.000000,4.000000,4.000000,4.000000,4.000000,4.000000,4.000000,4.000000,4.000000,4.000000,4.000000,4.000000,4.000000,4.000000,100.000000
1614403626.315625,10.000000,0.000000,-11.303607,-4.491307,-40.330856,-8.201428,-16.241304,-17.428949,-17.195030,-0.281142,-3.657142,1.563288,-13.097479,-9.582781,-22.679932,-29.309362,-25.684134,0.134130,-18.822006,8.684769,6.322642,-19.361864,-22.372869,-12.881177,-9.304122,-18.732487,-19.286806,5.758075,3.176218,-5.469509,5.692950,17.532730,-0.101154,-9.986895,0.000000,181.000000,4.000000,,,,0.000000,4.000000,4.000000,4.000000,4.000000,4.000000,4.000000,4.000000,4.000000,4.000000,4.000000,4.000000,4.000000,4.000000,4.000000,4.000000,4.000000,4.000000,4.000000,4.000000,4.000000,4.000000,4.000000,4.000000,4.000000,4.000000,4.000000,4.000000,4.000000,4.000000,4.000000,4.000000,4.000000,100.000000
1614403626.323374,11.000000,0.000000,-11.805123,-8.589380,-43.367451,-18.962458,-18.276344,-20.488445,-17.177835,-0.280861,-16.473997,8.228391,-20.263868,-9.573197,-23.682892,-30.305695,-22.068705,3.210919,-18.290363,10.727366,4.265037,-18.829681,-16.709473,-3.637526,-9.294818,-10.508627,10.476069,4.213855,4.711503,-5.976860,1.071872,15.976736,-3.690796,-13.566651,0.000000,183.000000,4.000000,,,,0.000000,4.000000,4.000000,4.000000,4.000000,4.000000,4.000000,4.000000,4.000000,4.000000,4.000000,4.000000,4.000000,4.000000,4.000000,4.000000,4.000000,4.000000,4.000000,4.000000,4.000000,4.000000,4.000000,4.000000,4.000000,4.000000,4.000000,4.000000,4.000000,4.000000,4.000000,4.000000,4.000000,100.000000
1614403626.331023,12.000000,0.000000,-11.793319,-6.016688,-28.965107,-15.866572,-18.258068,-15.852571,-15.622195,3.821984,-5.175472,-2.549068,-9.987194,-5.461061,-12.889978,-14.377953,-3.585098,25.771811,-8.015663,23.024330,23.747952,-1.887775,4.845699,19.443035,-3.131677,-2.292990,35.593800,8.825026,6.245253,-4.945241,3.122082,25.191528,-3.687105,-9.450521,0.000000,189.000000,4.000000,,,,0.000000,4.000000,4.000000,4.000000,4.000000,4.000000,4.000000,4.000000,4.000000,4.000000,4.000000,4.000000,4.000000,4.000000,4.000000,4.000000,4.000000,4.000000,4.000000,4.000000,4.000000,4.000000,4.000000,4.000000,4.000000,4.000000,4.000000,4.000000,4.000000,4.000000,4.000000,4.000000,4.000000,100.000000
1614403626.338772,13.000000,0.000000,-11.781526,1.681636,-18.166912,-6.107116,-18.239811,-12.759795,-13.042471,4.330983,6.624575,-6.136263,6.433049,-0.840215,-1.595037,4.610784,6.674898,38.053730,1.735942,33.257717,38.595997,10.934626,15.610085,25.577438,2.512480,10.529816,11.968461,23.175175,13.931315,-2.376194,13.375371,35.935570,2.470428,0.302520,0.000000,202.000000,4.000000,,,,0.000000,4.000000,4.000000,4.000000,4.000000,4.000000,4.000000,4.000000,4.000000,4.000000,4.000000,4.000000,4.000000,4.000000,4.000000,4.000000,4.000000,4.000000,4.000000,4.000000,4.000000,4.000000,4.000000,4.000000,4.000000,4.000000,4.000000,4.000000,4.000000,4.000000,4.000000,4.000000,4.000000,100.000000
1614403626.346421,14.000000,0.000000,-12.282564,1.679955,-29.430796,-10.203573,-19.247211,-14.798318,-13.029428,-2.340015,-3.125639,-23.566025,-7.932358,-1.352195,-10.824212,-6.163057,1.027197,28.784908,-0.829896,23.993690,21.121506,-0.358361,2.261141,11.705707,3.022788,19.750055,-1.889661,23.664820,11.866102,-1.348176,12.336354,26.156042,0.416675,-4.313167,0.000000,199.000000,4.000000,,,,0.000000,4.000000,4.000000,4.000000,4.000000,4.000000,4.000000,4.000000,4.000000,4.000000,4.000000,4.000000,4.000000,4.000000,4.000000,4.000000,4.000000,4.000000,4.000000,4.000000,4.000000,4.000000,4.000000,4.000000,4.000000,4.000000,4.000000,4.000000,4.000000,4.000000,4.000000,4.000000,4.000000,100.000000
1614403626.354271,15.000000,0.000000,-11.244640,-3.962751,-43.247520,-15.321574,-18.715143,-11.706596,-14.042040,-0.799214,-6.712257,-29.696304,-17.668015,-1.863663,-12.351849,-14.874844,5.641554,28.243303,-3.905990,19.354311,15.972178,-5.999028,-4.407787,5.540154,0.968484,14.602100,30.932741,13.897566,7.238852,-1.859649,4.631710,13.822194,-7.788869,-10.975521,0.000000,199.000000,4.000000,,,,0.000000,4.000000,4.000000,4.000000,4.000000,4.000000,4.000000,4.000000,4.000000,4.000000,4.000000,4.000000,4.000000,4.000000,4.000000,4.000000,4.000000,4.000000,4.000000,4.000000,4.000000,4.000000,4.000000,4.000000,4.000000,4.000000,4.000000,4.000000,4.000000,4.000000,4.000000,4.000000,4.000000,100.000000
1614403626.362020,16.000000,0.000000,-9.694935,-4.471609,-43.204273,-11.716510,-20.234890,-10.669249,-13.515177,7.919534,0.986763,1.102623,-0.214450,-0.836159,6.634862,-3.065097,21.020529,38.984291,0.713301,32.155472,36.981846,8.365946,4.827390,10.149999,3.018797,9.459293,32.440269,14.396489,9.282894,-1.857789,8.216822,17.910936,-7.268260,-4.810699,0.000000,197.000000,4.000000,,,,0.000000,4.000000,4.000000,4.000000,4.000000,4.000000,4.000000,4.000000,4.000000,4.000000,4.000000,4.000000,4.000000,4.000000,4.000000,4.000000,4.000000,4.000000,4.000000,4.000000,4.000000,4.000000,4.000000,4.000000,4.000000,4.000000,4.000000,4.000000,4.000000,4.000000,4.000000,4.000000,4.000000,100.000000
1614403626.369869,17.000000,0.000000,-8.146778,-3.441496,-40.596966,-16.320177,-28.932604,-19.889349,-12.988841,1.244948,-13.373199,6.742546,-2.265518,-3.912246,7.653868,-1.523570,15.358482,32.278641,4.302331,29.046392,30.278198,8.870400,5.848204,11.678310,8.143984,12.526757,0.100138,15.920554,11.324894,-1.855931,14.362452,19.944307,-4.184069,-4.293068,0.000000,184.000000,4.000000,,,,0.000000,4.000000,4.000000,4.000000,4.000000,4.000000,4.000000,4.000000,4.000000,4.000000,4.000000,4.000000,4.000000,4.000000,4.000000,4.000000,4.000000,4.000000,4.000000,4.000000,4.000000,4.000000,4.000000,4.000000,4.000000,4.000000,4.000000,4.000000,4.000000,4.000000,4.000000,4.000000,4.000000,100.000000
1614403626.377618,18.000000,0.000000,-7.112990,-4.463696,-45.171753,-21.944883,-37.621620,-24.484844,-14.001493,-10.551168,-32.847004,-25.571888,-23.288893,-9.036538,-12.866607,-12.804097,-6.195338,14.810463,3.272388,12.607089,3.068434,-8.061547,-3.388414,9.615350,7.110198,9.437307,-4.515347,8.725146,8.749466,-1.854075,9.219884,11.206414,-8.795269,-15.058005,0.000000,217.000000,4.000000,,,,0.000000,4.000000,4.000000,4.000000,4.000000,4.000000,4.000000,4.000000,4.000000,4.000000,4.000000,4.000000,4.000000,4.000000,4.000000,4.000000,4.000000,4.000000,4.000000,4.000000,4.000000,4.000000,4.000000,4.000000,4.000000,4.000000,4.000000,4.000000,4.000000,4.000000,4.000000,4.000000,4.000000,100.000000
1614403626.385468,19.000000,0.000000,-8.131518,-2.920770,-52.306068,-11.666528,-31.942972,-15.742411,-13.474671,-6.438053,-17.942364,-29.136061,-23.778425,-9.027502,-15.417842,-16.893858,-14.907091,10.180268,-0.320628,12.594481,4.091006,-10.617588,-7.487589,10.631376,-0.589219,1.735562,23.694296,2.562575,6.176614,-1.852221,4.082459,7.605464,-6.735192,-18.632690,0.000000,200.000000,4.000000,,,,0.000000,4.000000,4.000000,4.000000,4.000000,4.000000,4.000000,4.000000,4.000000,4.000000,4.000000,4.000000,4.000000,4.000000,4.000000,4.000000,4.000000,4.000000,4.000000,4.000000,4.000000,4.000000,4.000000,4.000000,4.000000,4.000000,4.000000,4.000000,4.000000,4.000000,4.000000,4.000000,4.000000,100.000000
1614403626.393217,20.000000,0.000000,-8.123386,-0.866568,-46.099915,1.165651,-15.500773,-9.060001,-8.845813,3.824795,6.690964,-3.465899,-13.498236,-5.941551,-5.146014,-13.287220,-13.353723,14.272653,-0.320307,20.787016,17.933069,-1.889022,-6.454461,14.723309,0.437011,-0.317456,17.003935,2.560013,8.221720,-1.850369,4.078376,9.649141,0.963851,-16.562777,0.000000,174.000000,4.000000,,,,0.000000,4.000000,4.000000,4.000000,4.000000,4.000000,4.000000,4.000000,4.000000,4.000000,4.000000,4.000000,4.000000,4.000000,4.000000,4.000000,4.000000,4.000000,4.000000,4.000000,4.000000,4.000000,4.000000,4.000000,4.000000,4.000000,4.000000,4.000000,4.000000,4.000000,4.000000,4.000000,4.000000,100.000000
1614403626.401066,21.000000,0.000000,0.602685,0.159940,-34.258945,1.677306,-6.254504,-10.076583,-5.760044,4.333791,8.735555,15.511926,-9.894994,-2.345866,-3.089586,-4.555984,-13.853189,18.873764,7.885141,21.791870,18.940777,1.189790,-6.448006,18.298328,13.257087,1.221323,11.858727,3.583093,12.828882,-1.848519,5.099939,10.152312,0.450067,-17.059034,0.000000,215.000000,4.000000,,,,0.000000,4.000000,4.000000,4.000000,4.000000,4.000000,4.000000,4.000000,4.000000,4.000000,4.000000,4.000000,4.000000,4.000000,4.000000,4.000000,4.000000,4.000000,4.000000,4.000000,4.000000,4.000000,4.000000,4.000000,4.000000,4.000000,4.000000,4.000000,4.000000,4.000000,4.000000,4.000000,4.000000,100.000000
1614403626.408815,22.000000,0.000000,7.781570,-0.353041,-40.891350,-1.401294,-13.427736,-10.579327,-5.754283,2.790995,0.521691,12.419491,-12.449202,0.733403,-3.086497,-5.577069,-13.839336,19.367710,11.979820,21.257257,16.870554,3.239882,-6.954379,17.767210,17.346394,0.707282,35.436611,3.066690,12.816053,-1.846670,4.582018,9.629339,-5.191409,-16.529154,0.000000,194.000000,4.000000,,,,0.000000,4.000000,4.000000,4.000000,4.000000,4.000000,4.000000,4.000000,4.000000,4.000000,4.000000,4.000000,4.000000,4.000000,4.000000,4.000000,4.000000,4.000000,4.000000,4.000000,4.000000,4.000000,4.000000,4.000000,4.000000,4.000000,4.000000,4.000000,4.000000,4.000000,4.000000,4.000000,4.000000,100.000000
1614403626.416664,23.000000,0.000000,0.594301,-0.352687,-56.747894,-1.912713,-25.722000,-9.543106,-6.261350,4.326666,-6.145497,-19.900621,-26.795727,0.732669,-13.339820,-25.571491,-16.389599,10.630395,0.172968,16.107794,14.289581,0.672540,-6.947424,13.134058,5.534175,0.706574,37.965279,2.550803,8.187853,-1.844824,3.551795,8.594069,-5.186218,-17.538267,0.000000,196.000000,4.000000,,,,0.000000,4.000000,4.000000,4.000000,4.000000,4.000000,4.000000,4.000000,4.000000,4.000000,4.000000,4.000000,4.000000,4.000000,4.000000,4.000000,4.000000,4.000000,4.000000,4.000000,4.000000,4.000000,4.000000,4.000000,4.000000,4.000000,4.000000,4.000000,4.000000,4.000000,4.000000,4.000000,4.000000,100.000000
1614403626.424413,24.000000,0.000000,-10.688344,-0.352335,-51.562943,-3.962083,-28.260382,-9.533563,-5.742268,4.322340,-11.267556,-49.111488,-36.512520,-4.396268,-26.659813,-30.674126,-17.398851,8.055661,-11.109256,11.476302,11.198368,-5.994799,-7.453298,10.556822,-3.189307,0.705868,17.414492,3.573893,7.154024,-1.842979,5.086705,15.252142,-4.155391,-16.495087,0.000000,171.000000,4.000000,,,,0.000000,4.000000,4.000000,4.000000,4.000000,4.000000,4.000000,4.000000,4.000000,4.000000,4.000000,4.000000,4.000000,4.000000,4.000000,4.000000,4.000000,4.000000,4.000000,4.000000,4.000000,4.000000,4.000000,4.000000,4.000000,4.000000,4.000000,4.000000,4.000000,4.000000,4.000000,4.000000,4.000000,100.000000
1614403626.432262,25.000000,0.000000,-12.216118,1.699300,-36.639584,-3.445300,-23.616735,-10.036850,-6.249346,3.805197,-7.666545,-16.241865,-17.501650,-6.955975,-12.787000,-5.002426,-4.048119,24.970682,-6.995583,19.669954,18.366657,-1.373420,-6.933024,10.033444,-2.160477,0.705162,10.217590,6.647242,7.659691,-1.841136,10.209824,26.518940,-4.664056,-7.247823,0.000000,225.000000,4.000000,,,,0.000000,4.000000,4.000000,4.000000,4.000000,4.000000,4.000000,4.000000,4.000000,4.000000,4.000000,4.000000,4.000000,4.000000,4.000000,4.000000,4.000000,4.000000,4.000000,4.000000,4.000000,4.000000,4.000000,4.000000,4.000000,4.000000,4.000000,4.000000,4.000000,4.000000,4.000000,4.000000,4.000000,100.000000
1614403626.440011,26.000000,0.000000,-10.665440,3.748882,-33.526024,-2.929034,-20.516197,-10.026814,-6.243097,3.801391,2.084711,16.594891,4.054314,-2.846455,12.353992,12.951294,9.802083,41.868790,-0.834741,29.393873,28.604700,9.397184,-5.900450,11.049051,-1.645496,3.781380,16.874039,9.717518,7.139210,-1.839295,12.763717,27.005243,-5.172212,-0.573908,0.000000,191.000000,4.000000,,,,0.000000,4.000000,4.000000,4.000000,4.000000,4.000000,4.000000,4.000000,4.000000,4.000000,4.000000,4.000000,4.000000,4.000000,4.000000,4.000000,4.000000,4.000000,4.000000,4.000000,4.000000,4.000000,4.000000,4.000000,4.000000,4.000000,4.000000,4.000000,4.000000,4.000000,4.000000,4.000000,4.000000,100.000000
1614403626.447860,27.000000,0.000000,-12.193236,3.232313,-37.082241,-8.567131,-25.111065,-10.016787,-6.236854,3.284769,4.646729,3.757782,1.486157,3.823059,12.854459,7.810138,9.792281,41.314098,2.243017,29.364481,30.627378,12.977530,-7.433011,14.627747,0.407431,8.392982,28.652037,10.733441,11.747456,-1.837455,11.725311,22.362852,-5.167040,-3.137437,0.000000,185.000000,4.000000,,,,0.000000,4.000000,4.000000,4.000000,4.000000,4.000000,4.000000,4.000000,4.000000,4.000000,4.000000,4.000000,4.000000,4.000000,4.000000,4.000000,4.000000,4.000000,4.000000,4.000000,4.000000,4.000000,4.000000,4.000000,4.000000,4.000000,4.000000,4.000000,4.000000,4.000000,4.000000,4.000000,4.000000,100.000000
1614403626.455609,28.000000,0.000000,-11.668222,3.229081,-36.019516,-10.609846,-27.650057,-10.006769,-6.743437,3.794305,-0.998944,-11.117771,-5.181996,5.870518,7.200578,3.186943,9.269669,37.170223,9.933082,28.309475,29.571110,15.528656,-5.374296,18.202862,7.586511,9.410231,36.828514,11.748349,14.299811,-1.835618,12.226407,23.878952,-2.084950,-4.672761,0.000000,175.000000,4.000000,,,,0.000000,4.000000,4.000000,4.000000,4.000000,4.000000,4.000000,4.000000,4.000000,4.000000,4.000000,4.000000,4.000000,4.000000,4.000000,4.000000,4.000000,4.000000,4.000000,4.000000,4.000000,4.000000,4.000000,4.000000,4.000000,4.000000,4.000000,4.000000,4.000000,4.000000,4.000000,4.000000,4.000000,100.000000
1614403626.463458,29.000000,0.000000,-8.579631,3.225852,-31.880934,1.708456,-17.365995,-9.483942,-5.711053,5.841793,-4.074868,-11.106653,-2.612711,5.864647,11.808763,6.773500,13.875783,39.697155,17.102636,29.306807,29.541538,18.590050,4.887489,18.697479,10.655848,7.862359,35.253223,13.787883,11.721409,-1.833782,14.265463,25.906355,2.019699,-2.103986,0.000000,195.000000,4.000000,,,,0.000000,4.000000,4.000000,4.000000,4.000000,4.000000,4.000000,4.000000,4.000000,4.000000,4.000000,4.000000,4.000000,4.000000,4.000000,4.000000,4.000000,4.000000,4.000000,4.000000,4.000000,4.000000,4.000000,4.000000,4.000000,4.000000,4.000000,4.000000,4.000000,4.000000,4.000000,4.000000,4.000000,100.000000
1614403626.471207,30.000000,0.000000,-7.545410,3.222626,-35.438797,13.501619,-6.579400,-10.500099,-3.141239,7.887233,5.672797,-18.787853,-2.610099,5.858782,9.745671,5.228265,10.272164,38.631817,14.521431,28.764679,30.537638,18.058640,12.574909,17.653141,9.106730,9.392959,37.782074,14.799736,15.299431,-1.831949,16.302479,25.367628,3.043321,-0.563420,0.000000,198.000000,4.000000,,,,0.000000,4.000000,4.000000,4.000000,4.000000,4.000000,4.000000,4.000000,4.000000,4.000000,4.000000,4.000000,4.000000,4.000000,4.000000,4.000000,4.000000,4.000000,4.000000,4.000000,4.000000,4.000000,4.000000,4.000000,4.000000,4.000000,4.000000,4.000000,4.000000,4.000000,4.000000,4.000000,4.000000,100.000000
1614403626.478956,31.000000,0.000000,-8.050686,3.219403,-40.531563,9.385554,-12.213845,-10.489599,-3.650918,7.366525,15.923534,-11.589579,-4.145950,5.852923,3.582080,1.633293,5.133687,35.516262,11.429986,28.735914,29.994280,15.989299,11.023872,16.609848,9.610444,12.460488,38.257111,15.297756,18.873875,-1.830117,14.747715,23.803799,2.527457,-1.075677,0.000000,157.000000,4.000000,,,,0.000000,4.000000,4.000000,4.000000,4.000000,4.000000,4.000000,4.000000,4.000000,4.000000,4.000000,4.000000,4.000000,4.000000,4.000000,4.000000,4.000000,4.000000,4.000000,4.000000,4.000000,4.000000,4.000000,4.000000,4.000000,4.000000,4.000000,4.000000,4.000000,4.000000,4.000000,4.000000,4.000000,100.000000
1614403626.486705,32.000000,0.000000,-7.529814,3.216184,-25.106415,0.145399,-11.175991,-6.376545,-6.724191,6.846338,12.830688,5.857908,-4.141804,5.847071,3.578498,-0.932443,4.615733,34.455105,11.418556,26.143076,20.220695,9.306643,5.371823,15.054776,10.113654,10.909567,16.167572,12.718356,8.598591,-1.828286,9.091942,15.574866,2.524929,-6.715627,8064.000000,0.000000,4.000000,,,,0.000000,4.000000,4.000000,4.000000,4.000000,4.000000,4.000000,4.000000,4.000000,4.000000,4.000000,4.000000,4.000000,4.000000,4.000000,4.000000,4.000000,4.000000,4.000000,4.000000,4.000000,4.000000,4.000000,4.000000,4.000000,4.000000,4.000000,4.000000,4.000000,4.000000,4.000000,4.000000,4.000000,100.000000
1614403626.494355,33.000000,0.000000,-9.060746,3.212967,-8.671052,0.658074,3.194160,-7.908630,-6.717466,7.865133,3.074267,5.339230,-7.727406,4.815583,-3.091748,-10.162280,-6.670935,27.753983,6.278933,19.450266,8.918424,-5.574459,-5.915600,8.373055,5.488156,3.206349,-7.438340,8.090253,-1.666418,-1.826458,4.467465,4.790061,3.035225,-14.401219,8064.000000,0.000000,4.000000,,,,0.000000,4.000000,4.000000,4.000000,4.000000,4.000000,4.000000,4.000000,4.000000,4.000000,4.000000,4.000000,4.000000,4.000000,4.000000,4.000000,4.000000,4.000000,4.000000,4.000000,4.000000,4.000000,4.000000,4.000000,4.000000,4.000000,4.000000,4.000000,4.000000,4.000000,4.000000,4.000000,4.000000,100.000000
1614403626.502104,34.000000,0.000000,-11.615788,2.696934,-30.200842,1.170237,-3.988522,-17.644312,-6.197928,5.805986,-1.544192,-0.307135,-14.899166,0.195382,-17.960451,-22.972630,-22.048880,15.418535,-1.932475,12.764149,4.294121,-13.261191,-15.653275,1.185194,-0.158358,-2.950703,-1.789876,6.030881,-0.126290,-1.824632,3.950177,1.195527,2.519369,-17.463741,8064.000000,0.000000,4.000000,,,,0.000000,4.000000,4.000000,4.000000,4.000000,4.000000,4.000000,4.000000,4.000000,4.000000,4.000000,4.000000,4.000000,4.000000,4.000000,4.000000,4.000000,4.000000,4.000000,4.000000,4.000000,4.000000,4.000000,4.000000,4.000000,4.000000,4.000000,4.000000,4.000000,4.000000,4.000000,4.000000,4.000000,100.000000
1614403626.509753,35.000000,0.000000,-12.116993,2.694237,-52.221924,-4.471959,-21.420431,-16.601027,-7.217371,3.748898,1.534276,-6.460674,-17.448370,-3.394557,-17.942490,-19.872734,-16.385805,14.377476,-5.520286,13.777026,6.341109,-9.658187,-6.406852,5.799394,-2.209481,-2.947752,20.263197,7.563312,0.386657,-1.822807,4.459047,2.732793,2.516850,-16.420637,8064.000000,0.000000,4.000000,,,,0.000000,4.000000,4.000000,4.000000,4.000000,4.000000,4.000000,4.000000,4.000000,4.000000,4.000000,4.000000,4.000000,4.000000,4.000000,4.000000,4.000000,4.000000,4.000000,4.000000,4.000000,4.000000,4.000000,4.000000,4.000000,4.000000,4.000000,4.000000,4.000000,4.000000,4.000000,4.000000,4.000000,100.000000
1614403626.517502,36.000000,0.000000,-11.592055,3.717184,-36.785088,-7.544410,-14.219523,-2.738271,-4.646052,6.822072,7.686587,-16.197803,-10.251433,-0.827060,-2.027112,-0.878503,3.117761,22.055407,-4.489124,24.019659,15.052716,-4.007503,8.984171,15.537184,-2.720093,-2.431984,39.217293,7.042928,-0.639371,-1.820984,3.941768,2.217240,3.027153,-16.404217,8064.000000,0.000000,4.000000,,,,0.000000,4.000000,4.000000,4.000000,4.000000,4.000000,4.000000,4.000000,4.000000,4.000000,4.000000,4.000000,4.000000,4.000000,4.000000,4.000000,4.000000,4.000000,4.000000,4.000000,4.000000,4.000000,4.000000,4.000000,4.000000,4.000000,4.000000,4.000000,4.000000,4.000000,4.000000,4.000000,4.000000,100.000000
1614403626.525151,37.000000,0.000000,-11.580463,3.200646,-30.081635,-4.972763,0.153671,2.392672,-0.026021,10.917814,9.217362,-6.950836,-0.497592,4.301973,7.205685,11.430068,9.781310,24.597454,1.156390,31.175127,26.319715,4.201632,11.539289,17.060108,-2.204552,-2.942373,47.383202,3.958962,1.412550,-2.331984,3.937826,1.702202,2.511306,-16.900633,8064.000000,0.000000,4.000000,,,,0.000000,4.000000,4.000000,4.000000,4.000000,4.000000,4.000000,4.000000,4.000000,4.000000,4.000000,4.000000,4.000000,4.000000,4.000000,4.000000,4.000000,4.000000,4.000000,4.000000,4.000000,4.000000,4.000000,4.000000,4.000000,4.000000,4.000000,4.000000,4.000000,4.000000,4.000000,4.000000,4.000000,100.000000
1614403626.532900,38.000000,0.000000,-9.004780,2.171804,-42.359245,-3.429329,0.666338,0.851818,0.999646,10.906897,11.259427,8.953550,4.118290,5.836132,7.198479,11.931458,8.233067,32.265163,9.873182,32.682411,32.447243,18.556406,11.014929,20.119970,2.925858,-2.939430,36.053768,6.006285,4.488061,-1.816831,4.446709,2.213320,1.995974,-16.370911,8064.000000,0.000000,4.000000,,,,0.000000,4.000000,4.000000,4.000000,4.000000,4.000000,4.000000,4.000000,4.000000,4.000000,4.000000,4.000000,4.000000,4.000000,4.000000,4.000000,4.000000,4.000000,4.000000,4.000000,4.000000,4.000000,4.000000,4.000000,4.000000,4.000000,4.000000,4.000000,4.000000,4.000000,4.000000,4.000000,4.000000,100.000000
1614403626.540549,39.000000,0.000000,-4.380391,7.297838,-29.496374,-3.425900,1.178492,9.056094,1.511467,10.383169,15.350732,3.816392,3.601351,5.317476,7.704101,11.919527,12.327398,47.617516,15.504335,36.752296,35.491718,27.768618,12.542376,28.304979,6.512675,-2.423671,18.581818,10.615664,7.047676,0.749088,4.442262,3.236748,3.532439,-16.354540,8064.000000,0.000000,4.000000,,,,0.000000,4.000000,4.000000,4.000000,4.000000,4.000000,4.000000,4.000000,4.000000,4.000000,4.000000,4.000000,4.000000,4.000000,4.000000,4.000000,4.000000,4.000000,4.000000,4.000000,4.000000,4.000000,4.000000,4.000000,4.000000,4.000000,4.000000,4.000000,4.000000,4.000000,4.000000,4.000000,4.000000,100.000000
1614403626.548298,40.000000,0.000000,-4.376010,13.957207,-19.210466,-3.935294,3.228595,12.636782,4.074058,10.885606,8.668715,-2.341271,-0.504815,5.312158,8.722038,12.420428,14.879173,46.544254,13.950369,40.818108,36.994686,25.176746,6.888808,26.738213,4.967701,-2.421247,18.050415,10.605047,7.040628,2.286801,4.437820,2.720691,0.451984,-16.338186,8064.000000,0.000000,4.000000,,,,0.000000,4.000000,4.000000,4.000000,4.000000,4.000000,4.000000,4.000000,4.000000,4.000000,4.000000,4.000000,4.000000,4.000000,4.000000,4.000000,4.000000,4.000000,4.000000,4.000000,4.000000,4.000000,4.000000,4.000000,4.000000,4.000000,4.000000,4.000000,4.000000,4.000000,4.000000,4.000000,4.000000,100.000000
1614403626.555948,41.000000,0.000000,-4.371634,11.379147,-40.216896,-7.008282,-2.928479,3.393376,5.095625,10.874721,-5.186108,7.404660,-3.581233,5.819666,7.174854,9.331084,10.761730,34.190018,15.474880,35.649082,33.367950,22.587467,6.881919,22.096090,10.603759,-2.418826,26.237494,7.517519,9.084869,1.771693,4.433382,1.179508,-5.189494,-16.321848,8064.000000,0.000000,4.000000,,,,0.000000,4.000000,4.000000,4.000000,4.000000,4.000000,4.000000,4.000000,4.000000,4.000000,4.000000,4.000000,4.000000,4.000000,4.000000,4.000000,4.000000,4.000000,4.000000,4.000000,4.000000,4.000000,4.000000,4.000000,4.000000,4.000000,4.000000,4.000000,4.000000,4.000000,4.000000,4.000000,4.000000,100.000000
1614403626.563697,42.000000,0.000000,-0.777519,6.239563,-43.766426,-7.001274,-8.566577,-2.763864,5.090529,10.863846,-2.616820,9.961358,0.012092,5.301026,8.706141,7.270471,9.725327,36.207111,18.536329,30.998049,34.873043,26.667444,19.182730,27.202200,17.772642,-2.416407,23.647152,6.484361,14.716810,2.282742,4.428949,1.178329,-4.158663,-16.305525,8064.000000,0.000000,4.000000,,,,0.000000,4.000000,4.000000,4.000000,4.000000,4.000000,4.000000,4.000000,4.000000,4.000000,4.000000,4.000000,4.000000,4.000000,4.000000,4.000000,4.000000,4.000000,4.000000,4.000000,4.000000,4.000000,4.000000,4.000000,4.000000,4.000000,4.000000,4.000000,4.000000,4.000000,4.000000,4.000000,4.000000,100.000000
1614403626.571346,43.000000,0.000000,-2.315203,6.233323,-19.107273,-1.353247,-8.558010,-5.838023,5.085439,10.340161,3.026823,2.259089,5.140285,4.782905,10.235896,7.263201,7.664320,39.760647,14.415228,30.967052,35.350990,23.051033,20.189188,26.662176,9.036922,-2.413990,23.623505,7.503518,11.625170,1.767639,4.424520,2.202792,1.486521,-16.802040,8064.000000,0.000000,4.000000,,,,0.000000,4.000000,4.000000,4.000000,4.000000,4.000000,4.000000,4.000000,4.000000,4.000000,4.000000,4.000000,4.000000,4.000000,4.000000,4.000000,4.000000,4.000000,4.000000,4.000000,4.000000,4.000000,4.000000,4.000000,4.000000,4.000000,4.000000,4.000000,4.000000,4.000000,4.000000,4.000000,4.000000,100.000000
1614403626.579095,44.000000,0.000000,-12.056478,7.252731,-11.395858,0.699389,-4.446888,-6.345006,2.003430,9.817000,1.998155,-1.332914,4.109504,3.752481,1.507712,5.717476,-2.086934,27.413195,5.682864,28.884802,26.084869,11.233110,13.502332,17.404745,-3.279808,-3.437217,40.010139,6.470373,0.844314,-0.798231,3.907275,1.174948,0.972214,-17.298059,8064.000000,0.000000,4.000000,,,,0.000000,4.000000,4.000000,4.000000,4.000000,4.000000,4.000000,4.000000,4.000000,4.000000,4.000000,4.000000,4.000000,4.000000,4.000000,4.000000,4.000000,4.000000,4.000000,4.000000,4.000000,4.000000,4.000000,4.000000,4.000000,4.000000,4.000000,4.000000,4.000000,4.000000,4.000000,4.000000,4.000000,100.000000
1614403626.586744,45.000000,0.000000,-15.121344,6.732657,-20.102411,-2.378234,2.737046,1.353647,-2.613958,10.832825,9.688464,3.283804,2.054112,5.287190,-6.698924,2.634835,-9.264335,20.206293,6.190002,27.830276,19.904938,10.709057,16.052933,15.848879,-2.250887,-2.920960,53.816280,5.438262,1.356290,-2.335895,3.903368,4.250696,-1.080040,-15.742299,8064.000000,0.000000,4.000000,,,,0.000000,4.000000,4.000000,4.000000,4.000000,4.000000,4.000000,4.000000,4.000000,4.000000,4.000000,4.000000,4.000000,4.000000,4.000000,4.000000,4.000000,4.000000,4.000000,4.000000,4.000000,4.000000,4.000000,4.000000,4.000000,4.000000,4.000000,4.000000,4.000000,4.000000,4.000000,4.000000,4.000000,100.000000
1614403626.594593,46.000000,0.000000,-12.029300,6.213104,-29.825899,-3.401497,1.708668,3.403575,-3.124164,10.309172,10.704417,3.793341,-1.537686,5.281903,-8.743507,-0.957543,-10.793531,21.724548,7.722273,27.289625,21.423494,9.672707,9.883033,17.884312,1.341107,0.671705,50.172722,3.381541,12.636986,-1.820738,4.925105,2.707984,-1.078960,-15.726557,8064.000000,0.000000,4.000000,,,,0.000000,4.000000,4.000000,4.000000,4.000000,4.000000,4.000000,4.000000,4.000000,4.000000,4.000000,4.000000,4.000000,4.000000,4.000000,4.000000,4.000000,4.000000,4.000000,4.000000,4.000000,4.000000,4.000000,4.000000,4.000000,4.000000,4.000000,4.000000,4.000000,4.000000,4.000000,4.000000,4.000000,100.000000
1614403626.602343,47.000000,0.000000,-12.017270,6.719712,-34.924278,-2.372454,-3.934066,-5.317777,-3.633861,9.273221,-7.255005,-6.979683,-5.638712,2.199698,-9.760405,0.069056,-11.808379,20.677183,4.124807,24.698233,18.325148,-2.644658,-6.024286,15.815145,0.314125,1.183854,39.866138,2.352519,15.188451,-1.818918,3.894539,-2.422929,-2.103522,-17.762112,8064.000000,0.000000,4.000000,,,,0.000000,4.000000,4.000000,4.000000,4.000000,4.000000,4.000000,4.000000,4.000000,4.000000,4.000000,4.000000,4.000000,4.000000,4.000000,4.000000,4.000000,4.000000,4.000000,4.000000,4.000000,4.000000,4.000000,4.000000,4.000000,4.000000,4.000000,4.000000,4.000000,4.000000,4.000000,4.000000,4.000000,100.000000
1614403626.610092,48.000000,0.000000,-9.441151,6.712992,-16.427814,-3.908543,4.274996,-0.184254,-3.117406,15.417794,-4.170827,-2.870140,5.136158,11.428267,3.582689,15.966422,3.075224,32.451378,15.915555,39.032509,28.563234,5.050294,4.238149,20.414715,7.493298,-0.868612,25.980120,6.965551,13.634801,-1.817099,3.890645,11.425648,1.488325,-10.564863,8064.000000,0.000000,4.000000,,,,0.000000,4.000000,4.000000,4.000000,4.000000,4.000000,4.000000,4.000000,4.000000,4.000000,4.000000,4.000000,4.000000,4.000000,4.000000,4.000000,4.000000,4.000000,4.000000,4.000000,4.000000,4.000000,4.000000,4.000000,4.000000,4.000000,4.000000,4.000000,4.000000,4.000000,4.000000,4.000000,4.000000,100.000000
1614403626.617741,49.000000,0.000000,-0.713761,6.706279,1.537331,-1.340532,18.116875,11.610803,4.578019,24.633146,20.448729,26.363501,27.695124,31.416840,29.220133,36.463276,32.815739,58.572773,38.976563,63.608860,56.226978,34.276012,32.439037,34.240456,20.819138,6.824564,18.261831,15.676534,18.749371,0.236000,9.014959,29.875761,11.230427,3.804676,8064.000000,0.000000,4.000000,,,,0.000000,4.000000,4.000000,4.000000,4.000000,4.000000,4.000000,4.000000,4.000000,4.000000,4.000000,4.000000,4.000000,4.000000,4.000000,4.000000,4.000000,4.000000,4.000000,4.000000,4.000000,4.000000,4.000000,4.000000,4.000000,4.000000,4.000000,4.000000,4.000000,4.000000,4.000000,4.000000,4.000000,100.000000
1614403626.625590,50.000000,0.000000,3.902338,6.699573,-14.874463,4.301834,16.047476,5.445345,11.752928,24.608513,21.453920,36.593548,30.231531,33.436703,32.267834,34.375530,39.962410,67.744972,41.501690,64.058075,60.786137,42.446865,37.021984,39.847240,24.900883,21.176714,39.269211,14.122396,23.346006,2.287046,11.057226,20.102295,11.732017,1.749589,8064.000000,0.000000,4.000000,,,,0.000000,4.000000,4.000000,4.000000,4.000000,4.000000,4.000000,4.000000,4.000000,4.000000,4.000000,4.000000,4.000000,4.000000,4.000000,4.000000,4.000000,4.000000,4.000000,4.000000,4.000000,4.000000,4.000000,4.000000,4.000000,4.000000,4.000000,4.000000,4.000000,4.000000,4.000000,4.000000,4.000000,100.000000
1614403626.633340,51.000000,0.000000,2.872794,6.692873,-33.833946,0.194968,6.800659,-3.278049,12.253996,20.481340,9.637595,8.351825,12.765403,23.146856,19.927876,18.443720,22.999371,57.933636,26.588392,46.045296,43.289452,29.583906,24.164450,33.653545,22.824699,22.693998,56.153019,0.774940,22.297020,1.771939,6.943604,2.133474,3.515156,-12.098314,8064.000000,0.000000,4.000000,,,,0.000000,4.000000,4.000000,4.000000,4.000000,4.000000,4.000000,4.000000,4.000000,4.000000,4.000000,4.000000,4.000000,4.000000,4.000000,4.000000,4.000000,4.000000,4.000000,4.000000,4.000000,4.000000,4.000000,4.000000,4.000000,4.000000,4.000000,4.000000,4.000000,4.000000,4.000000,4.000000,4.000000,100.000000
1614403626.641189,52.000000,0.000000,2.869922,6.686180,-25.082165,-10.574458,6.281038,4.417537,13.780203,22.512140,14.756163,-15.246271,6.598791,29.277557,20.933588,14.835532,17.848166,53.773136,27.074623,42.409508,43.758984,29.041500,21.576183,31.055790,24.340338,15.491817,35.071224,0.774165,21.761902,1.770167,2.834097,3.669802,1.460359,-17.727242,8064.000000,0.000000,4.000000,,,,0.000000,4.000000,4.000000,4.000000,4.000000,4.000000,4.000000,4.000000,4.000000,4.000000,4.000000,4.000000,4.000000,4.000000,4.000000,4.000000,4.000000,4.000000,4.000000,4.000000,4.000000,4.000000,4.000000,4.000000,4.000000,4.000000,4.000000,4.000000,4.000000,4.000000,4.000000,4.000000,4.000000,100.000000
1614403626.648938,53.000000,0.000000,5.431154,6.679494,-16.339134,-10.563883,8.326039,11.079786,15.304885,24.540911,18.331150,-2.410511,15.310141,38.991867,27.579321,19.436081,23.984163,56.283466,37.303959,47.495304,56.022915,35.166306,22.580248,32.563194,27.905741,18.553249,25.292562,13.593904,23.278601,2.281217,4.882545,7.768697,2.997360,-15.145411,8064.000000,0.000000,4.000000,,,,0.000000,4.000000,4.000000,4.000000,4.000000,4.000000,4.000000,4.000000,4.000000,4.000000,4.000000,4.000000,4.000000,4.000000,4.000000,4.000000,4.000000,4.000000,4.000000,4.000000,4.000000,4.000000,4.000000,4.000000,4.000000,4.000000,4.000000,4.000000,4.000000,4.000000,4.000000,4.000000,4.000000,100.000000
1614403626.656787,54.000000,0.000000,6.964185,6.672815,-19.912539,0.215911,6.779252,5.940501,12.725477,22.465088,8.056409,19.643181,17.858932,30.234928,27.038921,18.391005,22.421719,55.714363,36.241013,44.883705,53.402790,31.541395,18.967924,32.017811,26.852194,23.150080,44.241631,12.554669,20.178400,1.766116,7.441765,5.709646,2.481542,-13.591805,8064.000000,0.000000,4.000000,,,,0.000000,4.000000,4.000000,4.000000,4.000000,4.000000,4.000000,4.000000,4.000000,4.000000,4.000000,4.000000,4.000000,4.000000,4.000000,4.000000,4.000000,4.000000,4.000000,4.000000,4.000000,4.000000,4.000000,4.000000,4.000000,4.000000,4.000000,4.000000,4.000000,4.000000,4.000000,4.000000,4.000000,100.000000
1614403626.664536,55.000000,0.000000,6.957221,6.666142,-21.943909,5.343901,5.746831,2.857638,12.199931,20.391340,2.407326,17.572256,11.687228,21.486744,22.909319,17.859793,15.732630,54.120186,31.589388,40.223438,47.708363,28.432932,16.897673,30.960154,23.235598,20.562828,36.505081,4.849807,17.594118,1.764350,7.947144,10.319321,4.017522,-11.526931,8064.000000,0.000000,4.000000,,,,0.000000,4.000000,4.000000,4.000000,4.000000,4.000000,4.000000,4.000000,4.000000,4.000000,4.000000,4.000000,4.000000,4.000000,4.000000,4.000000,4.000000,4.000000,4.000000,4.000000,4.000000,4.000000,4.000000,4.000000,4.000000,4.000000,4.000000,4.000000,4.000000,4.000000,4.000000,4.000000,4.000000,100.000000
1614403626.672385,56.000000,0.000000,6.950263,7.172296,-18.332220,3.800095,7.792367,6.957344,11.674911,21.909410,3.943381,0.118786,6.547336,23.003719,13.142819,18.354753,10.588693,54.066067,31.044979,40.696033,50.224758,28.404499,18.419237,31.954834,23.725183,18.490982,19.032679,13.050085,21.166269,1.762585,8.452017,14.411566,6.577608,-7.925661,8064.000000,0.000000,4.000000,,,,0.000000,4.000000,4.000000,4.000000,4.000000,4.000000,4.000000,4.000000,4.000000,4.000000,4.000000,4.000000,4.000000,4.000000,4.000000,4.000000,4.000000,4.000000,4.000000,4.000000,4.000000,4.000000,4.000000,4.000000,4.000000,4.000000,4.000000,4.000000,4.000000,4.000000,4.000000,4.000000,4.000000,100.000000
1614403626.680134,57.000000,0.000000,4.892031,7.165124,-17.801067,2.770654,6.758933,3.360643,6.535030,21.374681,3.939437,-5.009538,6.027968,21.955074,5.950189,13.721014,6.988360,55.037640,27.937010,43.219440,48.636070,26.837633,18.913639,29.358776,21.137356,18.985312,35.936722,13.037035,20.119461,1.760823,8.443565,12.858693,6.571030,-7.917735,8064.000000,0.000000,4.000000,,,,0.000000,4.000000,4.000000,4.000000,4.000000,4.000000,4.000000,4.000000,4.000000,4.000000,4.000000,4.000000,4.000000,4.000000,4.000000,4.000000,4.000000,4.000000,4.000000,4.000000,4.000000,4.000000,4.000000,4.000000,4.000000,4.000000,4.000000,4.000000,4.000000,4.000000,4.000000,4.000000,4.000000,100.000000
1614403626.687983,58.000000,0.000000,0.271754,5.106677,-24.962753,5.844807,-2.478595,-8.950410,1.400290,16.737921,1.884216,-4.491708,7.047581,16.292093,6.969880,7.553447,4.417269,53.444141,20.729586,39.073658,41.920769,24.759512,14.792161,23.175571,12.398269,18.966328,39.490528,-5.950361,7.278829,0.220600,5.871019,10.281732,6.564459,-14.063663,8064.000000,0.000000,4.000000,,,,0.000000,4.000000,4.000000,4.000000,4.000000,4.000000,4.000000,4.000000,4.000000,4.000000,4.000000,4.000000,4.000000,4.000000,4.000000,4.000000,4.000000,4.000000,4.000000,4.000000,4.000000,4.000000,4.000000,4.000000,4.000000,4.000000,4.000000,4.000000,4.000000,4.000000,4.000000,4.000000,4.000000,100.000000
1614403626.695732,59.000000,0.000000,-4.343902,2.537467,-30.578817,3.274859,-7.604321,-6.890177,-0.652392,13.644260,3.933614,-7.564139,5.502072,14.224520,4.398808,6.520253,3.900031,47.749672,14.555011,28.778173,38.289104,23.709112,11.187625,19.562653,7.257666,15.357617,8.168987,-8.508513,-1.446399,-1.830902,4.326686,9.245809,6.557894,-19.177805,8192.000000,0.000000,4.000000,,,,0.000000,4.000000,4.000000,4.000000,4.000000,4.000000,4.000000,4.000000,4.000000,4.000000,4.000000,4.000000,4.000000,4.000000,4.000000,4.000000,4.000000,4.000000,4.000000,4.000000,4.000000,4.000000,4.000000,4.000000,4.000000,4.000000,4.000000,4.000000,4.000000,4.000000,4.000000,4.000000,4.000000,100.000000
1614403626.703581,60.000000,0.000000,-5.878020,3.047750,-25.932854,-6.472005,-4.519794,4.398764,-2.190201,14.143436,3.929680,3.725476,3.445288,15.748756,-0.220976,8.052194,4.921772,44.112179,13.001994,29.262217,39.276455,21.634121,12.202079,20.568731,10.840152,9.188414,7.135177,7.910252,2.657612,-2.341892,5.348001,10.775024,6.551336,-14.030422,8064.000000,0.000000,4.000000,,,,0.000000,4.000000,4.000000,4.000000,4.000000,4.000000,4.000000,4.000000,4.000000,4.000000,4.000000,4.000000,4.000000,4.000000,4.000000,4.000000,4.000000,4.000000,4.000000,4.000000,4.000000,4.000000,4.000000,4.000000,4.000000,4.000000,4.000000,4.000000,4.000000,4.000000,4.000000,4.000000,4.000000,100.000000
1614403626.711330,61.000000,0.000000,-2.795219,3.044703,-31.035126,-11.593739,-8.105018,-5.862045,-3.213652,13.616472,-5.817840,11.926879,2.416202,16.245829,1.317706,8.044142,6.968132,42.529606,14.014633,39.489365,38.724358,21.099667,9.625773,20.035341,12.880593,8.666404,38.922913,11.492085,7.270339,-1.826730,1.752909,10.764250,6.031965,-11.965109,8064.000000,0.000000,4.000000,,,,0.000000,4.000000,4.000000,4.000000,4.000000,4.000000,4.000000,4.000000,4.000000,4.000000,4.000000,4.000000,4.000000,4.000000,4.000000,4.000000,4.000000,4.000000,4.000000,4.000000,4.000000,4.000000,4.000000,4.000000,4.000000,4.000000,4.000000,4.000000,4.000000,4.000000,4.000000,4.000000,4.000000,100.000000
1614403626.719179,62.000000,0.000000,-4.843706,1.503196,-43.311783,-5.428298,-15.789221,-17.651054,-4.236079,10.525933,-7.863304,-8.085048,3.439426,14.178301,2.854850,5.984816,8.499626,44.025536,12.462157,40.988338,37.659992,21.591387,5.513584,20.015306,9.790790,14.298763,39.396812,2.762644,7.263069,-1.312082,-4.915511,2.035537,1.923369,-21.696733,8064.000000,0.000000,4.000000,,,,0.000000,4.000000,4.000000,4.000000,4.000000,4.000000,4.000000,4.000000,4.000000,4.000000,4.000000,4.000000,4.000000,4.000000,4.000000,4.000000,4.000000,4.000000,4.000000,4.000000,4.000000,4.000000,4.000000,4.000000,4.000000,4.000000,4.000000,4.000000,4.000000,4.000000,4.000000,4.000000,4.000000,100.000000
1614403626.726928,63.000000,0.000000,-16.120913,-0.549589,-36.088985,-1.833127,-9.619585,-3.787250,-5.770305,9.489766,3.939431,-17.307732,3.435987,12.112841,4.390457,8.030113,9.003946,44.494331,10.398413,38.896065,39.673615,22.082617,9.097814,21.020931,8.242537,12.233183,7.049722,1.734241,6.742985,-3.362052,-7.474698,-4.633166,-5.770863,-27.316063,8064.000000,0.000000,4.000000,,,,0.000000,4.000000,4.000000,4.000000,4.000000,4.000000,4.000000,4.000000,4.000000,4.000000,4.000000,4.000000,4.000000,4.000000,4.000000,4.000000,4.000000,4.000000,4.000000,4.000000,4.000000,4.000000,4.000000,4.000000,4.000000,4.000000,4.000000,4.000000,4.000000,4.000000,4.000000,4.000000,4.000000,100.000000
1614403626.734577,64.000000,0.000000,-16.617613,-1.061860,-25.796484,-3.882576,0.646445,3.908845,-6.790175,10.505918,1.884210,0.145473,-1.182834,13.126369,5.411707,9.560544,9.507763,37.783173,10.900835,37.831528,37.582661,22.573355,5.498972,16.897346,8.747115,2.477360,-4.752199,4.809429,7.249063,-5.409972,-6.441582,-1.038789,-9.354836,-23.699003,0.000000,207.000000,4.000000,,,,0.000000,4.000000,4.000000,4.000000,4.000000,4.000000,4.000000,4.000000,4.000000,4.000000,4.000000,4.000000,4.000000,4.000000,4.000000,4.000000,4.000000,4.000000,4.000000,4.000000,4.000000,4.000000,4.000000,4.000000,4.000000,4.000000,4.000000,4.000000,4.000000,4.000000,4.000000,4.000000,4.000000,100.000000
1614403626.742326,65.000000,0.000000,-2.754841,-0.035157,-38.591202,-3.365873,-2.431125,-9.428397,-6.270565,11.008232,-9.399726,-5.495698,-9.899600,12.087601,-4.850114,-3.269529,5.395691,26.976158,10.377113,25.998825,23.698923,21.012320,-12.968065,9.700962,9.251188,-0.089220,22.432041,4.291800,7.754634,-3.353280,-6.947961,2.039173,-8.319839,-22.136843,0.000000,197.000000,4.000000,,,,0.000000,4.000000,4.000000,4.000000,4.000000,4.000000,4.000000,4.000000,4.000000,4.000000,4.000000,4.000000,4.000000,4.000000,4.000000,4.000000,4.000000,4.000000,4.000000,4.000000,4.000000,4.000000,4.000000,4.000000,4.000000,4.000000,4.000000,4.000000,4.000000,4.000000,4.000000,4.000000,4.000000,100.000000
1614403626.749975,66.000000,0.000000,-2.239266,-0.035122,-50.860302,-2.849686,-8.069719,-11.983071,-6.264294,9.971582,-2.210839,-27.541485,-14.505085,7.972950,-12.024752,-16.599592,-0.250730,23.359438,6.776993,15.716416,15.470096,22.529768,-15.519199,8.665620,8.729117,0.936510,43.948071,-2.379159,7.234059,-0.785824,-6.941013,-2.578251,-8.311520,-23.653168,0.000000,192.000000,4.000000,,,,0.000000,4.000000,4.000000,4.000000,4.000000,4.000000,4.000000,4.000000,4.000000,4.000000,4.000000,4.000000,4.000000,4.000000,4.000000,4.000000,4.000000,4.000000,4.000000,4.000000,4.000000,4.000000,4.000000,4.000000,4.000000,4.000000,4.000000,4.000000,4.000000,4.000000,4.000000,4.000000,4.000000,100.000000
1614403626.757725,67.000000,0.000000,-16.083181,-3.112010,-49.783802,-6.436580,-8.061649,-6.330062,-6.770851,9.448791,6.509321,-12.129328,-9.362374,8.477797,-2.781957,-6.839404,0.775162,26.413002,6.257395,23.393007,22.634113,21.994419,2.957858,11.221057,8.720387,-3.679811,24.416943,-8.530626,5.688363,-3.349141,-5.908431,-5.652596,-8.816029,-23.116693,0.000000,181.000000,4.000000,,,,0.000000,4.000000,4.000000,4.000000,4.000000,4.000000,4.000000,4.000000,4.000000,4.000000,4.000000,4.000000,4.000000,4.000000,4.000000,4.000000,4.000000,4.000000,4.000000,4.000000,4.000000,4.000000,4.000000,4.000000,4.000000,4.000000,4.000000,4.000000,4.000000,4.000000,4.000000,4.000000,4.000000,100.000000
1614403626.765374,68.000000,0.000000,-20.169661,-7.724282,-49.221195,-11.045528,-8.566408,-8.375014,-6.251259,11.490623,-1.702317,11.472546,-3.711986,7.956499,-4.830458,-0.678718,-1.276895,21.771204,4.712677,30.549103,26.714043,10.690372,6.544644,11.209836,7.686027,-3.163311,2.854064,-5.445172,3.631393,-4.884254,-7.440984,-5.134123,-8.294392,-23.093576,0.000000,184.000000,4.000000,,,,0.000000,4.000000,4.000000,4.000000,4.000000,4.000000,4.000000,4.000000,4.000000,4.000000,4.000000,4.000000,4.000000,4.000000,4.000000,4.000000,4.000000,4.000000,4.000000,4.000000,4.000000,4.000000,4.000000,4.000000,4.000000,4.000000,4.000000,4.000000,4.000000,4.000000,4.000000,4.000000,4.000000,100.000000
1614403626.773123,69.000000,0.000000,-17.585390,-8.229379,-43.018127,-11.547303,-11.121944,-10.930742,-5.732187,9.427852,-4.777537,-2.385081,-16.015966,-4.359150,-25.851269,-20.678040,-15.121772,10.980202,-5.548447,24.877527,17.969379,-4.192113,-4.231132,9.660165,4.088597,3.506519,6.440953,2.765401,3.114941,-3.340908,-4.869440,-4.103347,-8.286098,-25.634586,0.000000,197.000000,4.000000,,,,0.000000,4.000000,4.000000,4.000000,4.000000,4.000000,4.000000,4.000000,4.000000,4.000000,4.000000,4.000000,4.000000,4.000000,4.000000,4.000000,4.000000,4.000000,4.000000,4.000000,4.000000,4.000000,4.000000,4.000000,4.000000,4.000000,4.000000,4.000000,4.000000,4.000000,4.000000,4.000000,4.000000,100.000000
1614403626.780772,70.000000,0.000000,-18.593445,-7.708329,-39.385368,-7.946012,-12.649284,-11.945453,-5.726455,0.700475,-2.721478,-31.100645,-30.871746,-9.482996,-28.389519,-27.836849,-25.363060,7.379478,-13.235206,19.211624,11.284744,-10.854588,-7.816644,8.624864,1.520406,-0.086731,2.844769,2.762636,3.111826,-3.850387,0.263634,-2.047962,-8.277811,-26.634592,0.000000,202.000000,4.000000,,,,0.000000,4.000000,4.000000,4.000000,4.000000,4.000000,4.000000,4.000000,4.000000,4.000000,4.000000,4.000000,4.000000,4.000000,4.000000,4.000000,4.000000,4.000000,4.000000,4.000000,4.000000,4.000000,4.000000,4.000000,4.000000,4.000000,4.000000,4.000000,4.000000,4.000000,4.000000,4.000000,4.000000,100.000000
1614403626.788521,71.000000,0.000000,-19.600492,-7.700620,-43.448547,-2.809861,-9.046891,-12.446327,-7.259190,2.751056,-8.872602,-40.300312,-19.046001,4.885461,-9.899591,-9.860293,-13.030005,14.551585,-7.580945,18.166771,13.324741,-7.253989,-6.783186,10.667521,1.518885,-10.343055,10.534231,0.195770,5.159996,-5.384999,-0.762270,0.005368,-8.269534,-26.607958,0.000000,214.000000,4.000000,,,,0.000000,4.000000,4.000000,4.000000,4.000000,4.000000,4.000000,4.000000,4.000000,4.000000,4.000000,4.000000,4.000000,4.000000,4.000000,4.000000,4.000000,4.000000,4.000000,4.000000,4.000000,4.000000,4.000000,4.000000,4.000000,4.000000,4.000000,4.000000,4.000000,4.000000,4.000000,4.000000,4.000000,100.000000
1614403626.796170,72.000000,0.000000,-18.555250,-7.692920,-28.533302,1.808333,-2.883998,-7.818496,-5.200649,15.568818,-1.171422,-26.413858,6.614069,19.239550,7.546206,0.405977,14.675332,25.306265,8.324072,24.815271,25.106289,6.599419,3.480007,19.887623,1.004546,-7.768609,43.344212,-0.317246,7.206118,-5.379613,-5.889713,-1.020278,-8.774085,-26.581350,0.000000,194.000000,4.000000,,,,0.000000,4.000000,4.000000,4.000000,4.000000,4.000000,4.000000,4.000000,4.000000,4.000000,4.000000,4.000000,4.000000,4.000000,4.000000,4.000000,4.000000,4.000000,4.000000,4.000000,4.000000,4.000000,4.000000,4.000000,4.000000,4.000000,4.000000,4.000000,4.000000,4.000000,4.000000,4.000000,4.000000,100.000000
1614403626.803919,73.000000,0.000000,-18.536695,-8.198047,-15.684257,-0.244757,-0.829832,-3.708114,-1.092884,19.142992,18.829750,-0.233599,17.889507,19.733131,20.871992,2.456853,30.558092,36.563011,19.084978,36.072506,37.388874,18.387691,20.912424,25.508760,1.003541,5.059673,45.352146,-1.855390,5.660450,-7.425516,-7.422285,-1.532079,-8.252490,-25.529127,0.000000,206.000000,4.000000,,,,0.000000,4.000000,4.000000,4.000000,4.000000,4.000000,4.000000,4.000000,4.000000,4.000000,4.000000,4.000000,4.000000,4.000000,4.000000,4.000000,4.000000,4.000000,4.000000,4.000000,4.000000,4.000000,4.000000,4.000000,4.000000,4.000000,4.000000,4.000000,4.000000,4.000000,4.000000,4.000000,4.000000,100.000000
1614403626.811569,74.000000,0.000000,-18.518158,-8.189849,-33.104469,-7.936820,-3.393105,-2.678765,-7.245637,5.277696,15.221176,19.766634,10.179310,12.533911,16.748556,10.659524,24.373688,40.629009,12.912047,36.549255,37.351486,16.830841,21.404333,17.278124,1.515358,9.669997,12.999104,0.197747,3.090688,-8.956553,-6.902042,4.110479,-4.654494,-23.965137,0.000000,174.000000,4.000000,,,,0.000000,4.000000,4.000000,4.000000,4.000000,4.000000,4.000000,4.000000,4.000000,4.000000,4.000000,4.000000,4.000000,4.000000,4.000000,4.000000,4.000000,4.000000,4.000000,4.000000,4.000000,4.000000,4.000000,4.000000,4.000000,4.000000,4.000000,4.000000,4.000000,4.000000,4.000000,4.000000,4.000000,100.000000
