title:13, start timestamp:1614404241.214808, stop timestamp:1614404287.220660, headset type:EPOCFLEX, headset serial:F00001ED, headset firmware:f12, subject name:s11, channels:75, sampling rate:128, samples:5937      , version:2.0
Timestamp,EEG.Counter,EEG.Interpolated,EEG.Cz,EEG.Fz,EEG.Fp1,EEG.AF3,EEG.F7,EEG.F3,EEG.FC1,EEG.C3,EEG.FC5,EEG.T7,EEG.CP5,EEG.CP1,EEG.P3,EEG.P7,EEG.PO3,EEG.O1,EEG.Pz,EEG.Oz,EEG.O2,EEG.PO4,EEG.P8,EEG.P4,EEG.CP2,EEG.CP6,EEG.T8,EEG.FC6,EEG.C4,EEG.FC2,EEG.F4,EEG.F8,EEG.AF4,EEG.Fp2,EEG.HighBitFlex,EEG.RawCq,EEG.Battery,MarkerIndex,MarkerType,MarkerValueInt,EEG.MarkerHardware,CQ.Cz,CQ.Fz,CQ.Fp1,CQ.AF3,CQ.F7,CQ.F3,CQ.FC1,CQ.C3,CQ.FC5,CQ.T7,CQ.CP5,CQ.CP1,CQ.P3,CQ.P7,CQ.PO3,CQ.O1,CQ.Pz,CQ.Oz,CQ.O2,CQ.PO4,CQ.P8,CQ.P4,CQ.CP2,CQ.CP6,CQ.T8,CQ.FC6,CQ.C4,CQ.FC2,CQ.F4,CQ.F8,CQ.AF4,CQ.Fp2,CQ.Overall
1614404241.214808,127.000000,0.000000,-3.477468,-10.591434,-52.847488,-20.720648,-5.052126,-10.509367,-2.318394,-12.936233,-10.596254,-4.752331,-30.138054,-19.339828,-28.584486,-34.147781,-22.915930,-0.003463,-11.109308,-11.177895,2.339360,-5.942909,-35.715549,-8.756677,-13.358906,-25.930019,-34.702374,-39.429935,-17.848204,-8.067060,-30.309752,-67.447433,-27.554955,-101.067711,8064.000000,0.000000,4.000000,,,,0.000000,4.000000,4.000000,4.000000,4.000000,4.000000,4.000000,4.000000,4.000000,4.000000,4.000000,4.000000,4.000000,4.000000,4.000000,4.000000,4.000000,4.000000,4.000000,4.000000,4.000000,4.000000,4.000000,4.000000,4.000000,4.000000,4.000000,4.000000,4.000000,4.000000,4.000000,4.000000,4.000000,100.000000
1614404241.222657,0.000000,0.000000,-3.473990,-8.529561,-62.025414,-20.699928,-17.867588,-12.550140,-4.880178,-10.872014,-17.252325,-1.670655,-30.620735,-18.807669,-34.709747,-49.498245,-22.380194,1.535002,-11.098199,-6.551332,8.490867,-6.962607,-28.500345,-4.645356,-12.319906,-19.750244,-30.565107,-29.134096,-12.702150,-8.571814,-26.689699,-65.328705,-28.553040,-95.325623,0.000000,180.000000,4.000000,,,,0.000000,4.000000,4.000000,4.000000,4.000000,4.000000,4.000000,4.000000,4.000000,4.000000,4.000000,4.000000,4.000000,4.000000,4.000000,4.000000,4.000000,4.000000,4.000000,4.000000,4.000000,4.000000,4.000000,4.000000,4.000000,4.000000,4.000000,4.000000,4.000000,4.000000,4.000000,4.000000,4.000000,100.000000
1614404241.230407,1.000000,0.000000,-3.470516,-9.033852,-68.630051,-21.192049,-32.208694,-13.050410,-9.490683,-21.630373,-29.029943,-25.771549,-48.538834,-20.840143,-37.751961,-53.038494,-26.460379,-1.030635,-14.164024,-8.083242,4.379812,-18.750517,-27.959024,-9.768916,-15.384509,-10.499724,-31.047361,-34.745987,-24.997141,-9.076062,-28.201471,-67.827477,-29.037308,-93.691833,0.000000,170.000000,4.000000,,,,0.000000,4.000000,4.000000,4.000000,4.000000,4.000000,4.000000,4.000000,4.000000,4.000000,4.000000,4.000000,4.000000,4.000000,4.000000,4.000000,4.000000,4.000000,4.000000,4.000000,4.000000,4.000000,4.000000,4.000000,4.000000,4.000000,4.000000,4.000000,4.000000,4.000000,4.000000,4.000000,4.000000,100.000000
1614404241.238256,2.000000,0.000000,-4.492687,-9.537639,-60.869114,-19.632395,-26.022638,-14.063001,-11.532475,-27.249767,-29.513735,-18.566290,-48.490295,-34.152637,-35.662926,-43.241863,-25.921097,-0.516784,-20.303705,-7.562338,2.836971,-26.424074,-29.469528,-19.502737,-22.548613,-11.514866,-31.016315,-39.839447,-32.664452,-8.041346,-28.686090,-66.221184,-26.444168,-96.162247,0.000000,218.000000,4.000000,,,,0.000000,4.000000,4.000000,4.000000,4.000000,4.000000,4.000000,4.000000,4.000000,4.000000,4.000000,4.000000,4.000000,4.000000,4.000000,4.000000,4.000000,4.000000,4.000000,4.000000,4.000000,4.000000,4.000000,4.000000,4.000000,4.000000,4.000000,4.000000,4.000000,4.000000,4.000000,4.000000,4.000000,100.000000
1614404241.246005,3.000000,0.000000,-6.539476,-8.502460,-48.500553,-16.535839,-11.637642,-13.023297,-10.495301,-24.145596,-21.279093,5.554840,-32.031548,-46.938995,-43.319572,-36.019135,-27.433638,0.509374,-23.360325,-3.965033,8.475160,-24.859188,-27.388777,-25.637081,-25.602987,-15.093094,-29.959658,-32.620121,-30.580503,-7.520483,-27.631763,-63.078045,-24.366442,-93.501976,0.000000,206.000000,4.000000,,,,0.000000,4.000000,4.000000,4.000000,4.000000,4.000000,4.000000,4.000000,4.000000,4.000000,4.000000,4.000000,4.000000,4.000000,4.000000,4.000000,4.000000,4.000000,4.000000,4.000000,4.000000,4.000000,4.000000,4.000000,4.000000,4.000000,4.000000,4.000000,4.000000,4.000000,4.000000,4.000000,4.000000,100.000000
1614404241.253755,4.000000,0.000000,-8.071399,-10.545239,-47.939232,-18.057766,-11.626004,-9.420530,-10.997626,-23.095808,-17.668070,-0.091740,-29.948233,-42.789494,-45.840355,-26.239527,-28.431845,-0.003956,-22.824144,-2.935426,12.056428,-20.731766,-26.335747,-16.893494,-24.551743,-12.513899,-29.929697,-32.587498,-31.062744,-11.102707,-27.604132,-61.989323,-24.854897,-90.844376,0.000000,154.000000,4.000000,,,,0.000000,4.000000,4.000000,4.000000,4.000000,4.000000,4.000000,4.000000,4.000000,4.000000,4.000000,4.000000,4.000000,4.000000,4.000000,4.000000,4.000000,4.000000,4.000000,4.000000,4.000000,4.000000,4.000000,4.000000,4.000000,4.000000,4.000000,4.000000,4.000000,4.000000,4.000000,4.000000,4.000000,100.000000
1614404241.261504,5.000000,0.000000,-6.524866,-15.150079,-57.122063,-23.680733,-16.742584,-15.052135,-10.986629,-16.918867,-19.188864,-17.014725,-31.456747,-28.387730,-29.897078,-19.546619,-14.557260,1.021689,-19.724398,-3.445312,11.018730,-14.044367,-27.847872,-6.620191,-24.527191,-13.014205,-30.412588,-43.836964,-30.518862,-12.630066,-28.089348,-63.465797,-25.855682,-91.266350,0.000000,197.000000,4.000000,,,,0.000000,4.000000,4.000000,4.000000,4.000000,4.000000,4.000000,4.000000,4.000000,4.000000,4.000000,4.000000,4.000000,4.000000,4.000000,4.000000,4.000000,4.000000,4.000000,4.000000,4.000000,4.000000,4.000000,4.000000,4.000000,4.000000,4.000000,4.000000,4.000000,4.000000,4.000000,4.000000,4.000000,100.000000
1614404241.269153,6.000000,0.000000,-4.467059,-17.186211,-64.244431,-24.169872,-16.725842,-24.780672,-8.411539,-3.568614,-18.656855,-18.536173,-18.604776,-22.205496,-17.046667,-19.014254,-0.183728,5.636052,-15.602109,-1.903405,11.007711,-6.850835,-25.255922,-5.587930,-24.502665,-18.642216,-30.382175,-47.382870,-22.283215,-5.950769,-28.061258,-62.376690,-24.291365,-89.123802,0.000000,190.000000,4.000000,,,,0.000000,4.000000,4.000000,4.000000,4.000000,4.000000,4.000000,4.000000,4.000000,4.000000,4.000000,4.000000,4.000000,4.000000,4.000000,4.000000,4.000000,4.000000,4.000000,4.000000,4.000000,4.000000,4.000000,4.000000,4.000000,4.000000,4.000000,4.000000,4.000000,4.000000,4.000000,4.000000,4.000000,100.000000
1614404241.276903,7.000000,0.000000,-3.436950,-16.656204,-63.154541,-21.068781,-15.170653,-24.243073,-6.864666,2.075980,-18.125378,-15.440713,-7.304121,-23.208931,-16.516800,-17.969597,1.867738,8.707339,-15.073687,0.662601,11.509524,-4.792702,-18.051178,-6.095162,-24.478161,-12.982549,-30.351793,-45.284206,-15.594264,-4.919177,-28.033197,-61.801491,-24.779894,-91.598778,0.000000,187.000000,4.000000,,,,0.000000,4.000000,4.000000,4.000000,4.000000,4.000000,4.000000,4.000000,4.000000,4.000000,4.000000,4.000000,4.000000,4.000000,4.000000,4.000000,4.000000,4.000000,4.000000,4.000000,4.000000,4.000000,4.000000,4.000000,4.000000,4.000000,4.000000,4.000000,4.000000,4.000000,4.000000,4.000000,4.000000,100.000000
1614404241.284552,8.000000,0.000000,-3.433513,-17.152369,-62.578568,-22.073353,-16.181124,-17.552162,-6.857801,0.022622,-18.620071,-17.476555,-11.399382,-24.211363,-17.013105,-23.079834,1.865870,7.672990,-15.571433,0.661939,11.498014,-5.300730,-15.981845,-10.191631,-24.966503,-2.713156,-30.321442,-46.777382,-15.578670,-14.145027,-28.005163,-65.842255,-32.447422,-101.763596,0.000000,198.000000,4.000000,,,,0.000000,4.000000,4.000000,4.000000,4.000000,4.000000,4.000000,4.000000,4.000000,4.000000,4.000000,4.000000,4.000000,4.000000,4.000000,4.000000,4.000000,4.000000,4.000000,4.000000,4.000000,4.000000,4.000000,4.000000,4.000000,4.000000,4.000000,4.000000,4.000000,4.000000,4.000000,4.000000,4.000000,100.000000
1614404241.292301,9.000000,0.000000,-3.430080,-15.596754,-65.592911,-24.615381,-17.190584,-16.508968,-5.312482,0.022599,-18.601452,-17.971899,-20.105930,-21.623049,-20.585835,-27.159317,-2.751380,8.178138,-14.017400,0.148456,10.973697,-4.782609,-18.529966,-18.386568,-23.915895,-9.377110,-30.291121,-44.166504,-15.563091,-13.618062,-27.977158,-64.237953,-36.004719,-100.636185,0.000000,187.000000,4.000000,,,,0.000000,4.000000,4.000000,4.000000,4.000000,4.000000,4.000000,4.000000,4.000000,4.000000,4.000000,4.000000,4.000000,4.000000,4.000000,4.000000,4.000000,4.000000,4.000000,4.000000,4.000000,4.000000,4.000000,4.000000,4.000000,4.000000,4.000000,4.000000,4.000000,4.000000,4.000000,4.000000,4.000000,100.000000
1614404241.299951,10.000000,0.000000,-3.426650,-13.017056,-59.886295,-25.616407,-14.096470,-18.030922,-2.743067,-2.028705,-18.582850,-17.441107,-23.162748,-21.601427,-26.206274,-20.465492,-17.107603,8.169960,-17.593126,0.661128,10.962723,-6.316288,-20.562717,-19.393822,-23.379160,-21.162603,-29.748009,-36.430027,-16.060349,-5.399315,-27.949181,-54.430122,-29.302046,-88.740677,0.000000,176.000000,4.000000,,,,0.000000,4.000000,4.000000,4.000000,4.000000,4.000000,4.000000,4.000000,4.000000,4.000000,4.000000,4.000000,4.000000,4.000000,4.000000,4.000000,4.000000,4.000000,4.000000,4.000000,4.000000,4.000000,4.000000,4.000000,4.000000,4.000000,4.000000,4.000000,4.000000,4.000000,4.000000,4.000000,4.000000,100.000000
1614404241.307700,11.000000,0.000000,-3.423223,-13.004038,-46.493073,-24.052330,-9.466990,-16.987249,-2.740324,-7.154881,-18.564268,-16.910845,-23.139585,-26.195210,-28.231350,-25.573231,-26.834085,3.033585,-25.267841,0.147647,10.951760,-8.874074,-24.644720,-17.323147,-27.971165,-21.141441,-30.231081,-35.880779,-19.121212,-8.470840,-27.921232,-51.298771,-24.144539,-87.113480,0.000000,189.000000,4.000000,,,,0.000000,4.000000,4.000000,4.000000,4.000000,4.000000,4.000000,4.000000,4.000000,4.000000,4.000000,4.000000,4.000000,4.000000,4.000000,4.000000,4.000000,4.000000,4.000000,4.000000,4.000000,4.000000,4.000000,4.000000,4.000000,4.000000,4.000000,4.000000,4.000000,4.000000,4.000000,4.000000,4.000000,100.000000
1614404241.315350,12.000000,0.000000,-3.419800,-12.478213,-46.446583,-19.412891,-7.919061,-14.918980,-3.250404,-8.686189,-18.545704,-16.893934,-23.629267,-25.143373,-30.254402,-42.470734,-24.243149,0.466449,-22.165649,0.660320,10.940808,-9.890841,-21.543152,-18.331465,-26.917553,-20.607479,-29.688030,-38.409000,-19.614910,-10.513650,-27.893311,-54.837215,-24.633215,-90.103287,0.000000,192.000000,4.000000,,,,0.000000,4.000000,4.000000,4.000000,4.000000,4.000000,4.000000,4.000000,4.000000,4.000000,4.000000,4.000000,4.000000,4.000000,4.000000,4.000000,4.000000,4.000000,4.000000,4.000000,4.000000,4.000000,4.000000,4.000000,4.000000,4.000000,4.000000,4.000000,4.000000,4.000000,4.000000,4.000000,4.000000,100.000000
1614404241.323099,13.000000,0.000000,-3.416380,-9.901633,-57.169365,-16.829376,-8.423963,-12.852779,-3.247154,-6.626220,-18.527157,-17.902681,-24.118458,-14.861820,-27.147224,-38.838520,-18.577879,5.594187,-7.784510,3.223762,10.929868,-9.368130,-6.136993,-10.108005,-14.070123,-21.099693,-27.607059,-33.755207,-17.031193,-0.759547,-27.865417,-51.705456,-22.557301,-84.372162,0.000000,191.000000,4.000000,,,,0.000000,4.000000,4.000000,4.000000,4.000000,4.000000,4.000000,4.000000,4.000000,4.000000,4.000000,4.000000,4.000000,4.000000,4.000000,4.000000,4.000000,4.000000,4.000000,4.000000,4.000000,4.000000,4.000000,4.000000,4.000000,4.000000,4.000000,4.000000,4.000000,4.000000,4.000000,4.000000,4.000000,100.000000
1614404241.330748,14.000000,0.000000,-3.412964,-9.378911,-59.676300,-17.325367,-8.415538,-12.839926,-3.243907,-9.696517,-18.508631,-16.346317,-24.094339,-11.257215,-20.453409,-24.953527,-16.508020,7.127055,-2.135700,4.246179,10.918938,-9.358761,-1.515471,-1.892768,-9.953488,-10.309362,-27.579453,-30.131706,-15.475700,3.856597,-27.837551,-47.038364,-20.996281,-82.236504,0.000000,203.000000,4.000000,,,,0.000000,4.000000,4.000000,4.000000,4.000000,4.000000,4.000000,4.000000,4.000000,4.000000,4.000000,4.000000,4.000000,4.000000,4.000000,4.000000,4.000000,4.000000,4.000000,4.000000,4.000000,4.000000,4.000000,4.000000,4.000000,4.000000,4.000000,4.000000,4.000000,4.000000,4.000000,4.000000,4.000000,100.000000
1614404241.338498,15.000000,0.000000,-3.409551,-8.343891,-56.026878,-17.308043,-8.919943,-14.365548,-3.240663,-17.379128,-18.490122,-13.253047,-26.121527,-23.553650,-30.689367,-28.005497,-23.671000,-0.059560,-13.928436,2.190651,10.908019,-9.349402,-15.872931,-10.608824,-21.738407,-3.119565,-29.603155,-30.101576,-15.973045,-0.762644,-27.809715,-46.991325,-24.565029,-86.256828,0.000000,203.000000,4.000000,,,,0.000000,4.000000,4.000000,4.000000,4.000000,4.000000,4.000000,4.000000,4.000000,4.000000,4.000000,4.000000,4.000000,4.000000,4.000000,4.000000,4.000000,4.000000,4.000000,4.000000,4.000000,4.000000,4.000000,4.000000,4.000000,4.000000,4.000000,4.000000,4.000000,4.000000,4.000000,4.000000,4.000000,100.000000
1614404241.346147,16.000000,0.000000,-3.406141,-5.771444,-55.458031,-16.777914,-7.885382,-11.274260,-2.724602,-18.387390,-18.471632,-13.752614,-27.121046,-31.735224,-42.453548,-30.541595,-28.262712,-0.572321,-23.145277,-0.375642,10.384290,-8.827232,-25.087826,-17.264881,-28.896154,-9.783113,-30.086372,-30.584293,-15.444252,-1.787522,-27.269085,-46.431515,-25.566105,-81.555191,0.000000,196.000000,4.000000,,,,0.000000,4.000000,4.000000,4.000000,4.000000,4.000000,4.000000,4.000000,4.000000,4.000000,4.000000,4.000000,4.000000,4.000000,4.000000,4.000000,4.000000,4.000000,4.000000,4.000000,4.000000,4.000000,4.000000,4.000000,4.000000,4.000000,4.000000,4.000000,4.000000,4.000000,4.000000,4.000000,4.000000,100.000000
1614404241.353896,17.000000,0.000000,-3.402735,-9.355416,-55.402573,-18.812418,-8.390317,-5.621959,-2.721877,-12.215157,-17.940340,-13.226042,-25.555464,-24.524002,-24.462378,-18.716181,-7.208809,11.735944,-14.404182,0.650374,12.425188,-6.767123,-22.498636,-6.991207,-24.764694,-12.850252,-29.543467,-32.604992,-16.967268,-1.785735,-27.241816,-51.000469,-24.002077,-77.883888,0.000000,179.000000,4.000000,,,,0.000000,4.000000,4.000000,4.000000,4.000000,4.000000,4.000000,4.000000,4.000000,4.000000,4.000000,4.000000,4.000000,4.000000,4.000000,4.000000,4.000000,4.000000,4.000000,4.000000,4.000000,4.000000,4.000000,4.000000,4.000000,4.000000,4.000000,4.000000,4.000000,4.000000,4.000000,4.000000,4.000000,100.000000
1614404241.361546,18.000000,0.000000,-2.886512,-16.012728,-56.885632,-20.844887,-14.535773,-8.693260,-3.231976,-10.151659,-18.435219,-5.520508,-24.504267,-15.268708,-1.360992,-13.056439,14.336862,24.031900,-2.594907,3.726647,14.976865,-3.683433,-21.963318,0.195271,-22.688648,-8.734838,-30.026743,-37.187771,-21.052866,-4.348052,-27.727394,-60.180237,-26.029356,-88.062416,0.000000,204.000000,4.000000,,,,0.000000,4.000000,4.000000,4.000000,4.000000,4.000000,4.000000,4.000000,4.000000,4.000000,4.000000,4.000000,4.000000,4.000000,4.000000,4.000000,4.000000,4.000000,4.000000,4.000000,4.000000,4.000000,4.000000,4.000000,4.000000,4.000000,4.000000,4.000000,4.000000,4.000000,4.000000,4.000000,4.000000,100.000000
1614404241.369295,19.000000,0.000000,-3.396446,-17.535177,-59.392849,-21.336863,-20.675083,-13.812772,-2.715923,-12.192790,-18.929605,1.151680,-22.428480,-14.227798,-6.487836,-16.120306,2.014832,21.956587,-5.669235,4.235741,12.910606,-6.756673,-24.505457,-7.497231,-24.717241,-11.803026,-29.996716,-38.689045,-23.083096,-4.856524,-27.186846,-60.120056,-28.054609,-87.461533,0.000000,209.000000,4.000000,,,,0.000000,4.000000,4.000000,4.000000,4.000000,4.000000,4.000000,4.000000,4.000000,4.000000,4.000000,4.000000,4.000000,4.000000,4.000000,4.000000,4.000000,4.000000,4.000000,4.000000,4.000000,4.000000,4.000000,4.000000,4.000000,4.000000,4.000000,4.000000,4.000000,4.000000,4.000000,4.000000,4.000000,100.000000
1614404241.376945,20.000000,0.000000,-3.905870,-15.979179,-56.769352,-20.802706,-20.141588,-11.747678,-2.200387,-11.154956,-17.372213,1.663348,-19.841949,-17.290495,-18.789042,-16.104185,-16.961542,12.703860,-13.355873,3.205864,10.333593,-11.878121,-24.480951,-15.182042,-24.692524,-17.432249,-29.966719,-37.624714,-23.572832,-4.851667,-27.159658,-54.931732,-25.975273,-70.963814,0.000000,164.000000,4.000000,,,,0.000000,4.000000,4.000000,4.000000,4.000000,4.000000,4.000000,4.000000,4.000000,4.000000,4.000000,4.000000,4.000000,4.000000,4.000000,4.000000,4.000000,4.000000,4.000000,4.000000,4.000000,4.000000,4.000000,4.000000,4.000000,4.000000,4.000000,4.000000,4.000000,4.000000,4.000000,4.000000,4.000000,100.000000
1614404241.384794,21.000000,0.000000,-2.876323,-16.476021,-55.174122,-20.269083,-20.634268,-16.351315,-7.326391,-12.169442,-20.944586,2.174505,-25.975954,-21.888588,-20.821533,-17.113722,-16.431759,13.203978,-10.265594,4.741120,11.861721,-12.891884,-22.918009,-13.628398,-23.129370,-17.927637,-29.936752,-37.587090,-23.036440,-6.385277,-29.183781,-55.902439,-24.410835,-72.431313,0.000000,195.000000,4.000000,,,,0.000000,4.000000,4.000000,4.000000,4.000000,4.000000,4.000000,4.000000,4.000000,4.000000,4.000000,4.000000,4.000000,4.000000,4.000000,4.000000,4.000000,4.000000,4.000000,4.000000,4.000000,4.000000,4.000000,4.000000,4.000000,4.000000,4.000000,4.000000,4.000000,4.000000,4.000000,4.000000,4.000000,100.000000
1614404241.392543,22.000000,0.000000,-3.386267,-16.459545,-61.785614,-21.787275,-24.716196,-29.155476,-13.985732,-23.439323,-28.615948,-2.443053,-36.206387,-30.071827,-33.621223,-29.917122,-23.594814,8.575389,-11.280970,2.172276,5.696013,-13.904634,-28.023296,-12.076308,-25.670343,-16.884069,-29.393995,-42.164886,-23.526222,-9.455815,-33.769981,-58.923462,-24.899246,-91.333244,0.000000,194.000000,4.000000,,,,0.000000,4.000000,4.000000,4.000000,4.000000,4.000000,4.000000,4.000000,4.000000,4.000000,4.000000,4.000000,4.000000,4.000000,4.000000,4.000000,4.000000,4.000000,4.000000,4.000000,4.000000,4.000000,4.000000,4.000000,4.000000,4.000000,4.000000,4.000000,4.000000,4.000000,4.000000,4.000000,4.000000,100.000000
1614404241.400392,23.000000,0.000000,-8.511086,-16.955906,-66.339211,-24.329590,-22.127378,-32.716064,-14.997387,-31.108192,-28.074512,-14.235482,-42.836849,-38.246883,-51.023502,-47.323101,-45.622501,-8.356263,-29.218407,-6.547845,-5.078914,-21.583036,-38.764503,-23.346283,-32.824162,-17.892826,-29.877422,-46.225288,-28.630901,-14.574565,-36.300316,-58.864536,-25.387167,-95.344475,0.000000,209.000000,4.000000,,,,0.000000,4.000000,4.000000,4.000000,4.000000,4.000000,4.000000,4.000000,4.000000,4.000000,4.000000,4.000000,4.000000,4.000000,4.000000,4.000000,4.000000,4.000000,4.000000,4.000000,4.000000,4.000000,4.000000,4.000000,4.000000,4.000000,4.000000,4.000000,4.000000,4.000000,4.000000,4.000000,4.000000,100.000000
1614404241.408142,24.000000,0.000000,-10.041037,-15.913309,-61.144669,-22.253979,-14.412943,-26.016682,-13.956749,-20.307854,-20.354130,-15.759708,-42.794010,-39.234280,-46.869915,-49.327061,-47.115341,-10.399189,-39.445599,-6.028477,-1.996912,-24.125555,-38.725739,-33.579346,-34.842617,-23.003138,-29.847544,-44.127781,-30.653553,-16.611273,-33.187092,-55.728748,-24.336140,-83.967079,0.000000,174.000000,4.000000,,,,0.000000,4.000000,4.000000,4.000000,4.000000,4.000000,4.000000,4.000000,4.000000,4.000000,4.000000,4.000000,4.000000,4.000000,4.000000,4.000000,4.000000,4.000000,4.000000,4.000000,4.000000,4.000000,4.000000,4.000000,4.000000,4.000000,4.000000,4.000000,4.000000,4.000000,4.000000,4.000000,4.000000,100.000000
1614404241.415991,25.000000,0.000000,-5.415611,-13.333293,-58.519424,-17.616341,-11.834428,-23.426561,-13.942792,-4.390110,-17.256853,-6.000359,-32.494808,-32.015556,-30.412788,-39.021324,-27.068226,8.072748,-24.021538,6.285244,10.312778,-16.921944,-22.276756,-23.289358,-28.653929,-24.005775,-26.740774,-38.955448,-19.853668,-11.979276,-25.974417,-50.544815,-25.337444,-77.729263,0.000000,203.000000,4.000000,,,,0.000000,4.000000,4.000000,4.000000,4.000000,4.000000,4.000000,4.000000,4.000000,4.000000,4.000000,4.000000,4.000000,4.000000,4.000000,4.000000,4.000000,4.000000,4.000000,4.000000,4.000000,4.000000,4.000000,4.000000,4.000000,4.000000,4.000000,4.000000,4.000000,4.000000,4.000000,4.000000,4.000000,100.000000
1614404241.423740,26.000000,0.000000,-2.846093,-14.345601,-58.973724,-16.573082,-11.822593,-24.428776,-14.441669,-2.334437,-18.778057,-1.378974,-16.052055,-23.778414,-23.715708,-35.392559,-16.271927,15.756983,-7.587260,11.919985,14.917850,-9.725533,-6.869864,-7.368632,-20.932968,-14.238180,-22.611469,-37.378029,-9.064585,-7.864733,-22.871519,-46.904526,-24.286465,-76.625893,0.000000,198.000000,4.000000,,,,0.000000,4.000000,4.000000,4.000000,4.000000,4.000000,4.000000,4.000000,4.000000,4.000000,4.000000,4.000000,4.000000,4.000000,4.000000,4.000000,4.000000,4.000000,4.000000,4.000000,4.000000,4.000000,4.000000,4.000000,4.000000,4.000000,4.000000,4.000000,4.000000,4.000000,4.000000,4.000000,4.000000,100.000000
1614404241.431589,27.000000,0.000000,-3.356067,-15.869717,-54.812187,-16.556509,-9.246668,-21.840244,-13.914408,-8.485949,-18.246458,-2.403236,-11.933440,-21.703352,-24.717634,-33.818707,-17.281296,10.613021,-7.579672,10.882423,14.390111,-8.690167,-8.401456,-7.361264,-19.373573,-4.993173,-23.614498,-35.802189,-8.029879,-8.369689,-23.874289,-46.344803,-20.159615,-74.497986,0.000000,182.000000,4.000000,,,,0.000000,4.000000,4.000000,4.000000,4.000000,4.000000,4.000000,4.000000,4.000000,4.000000,4.000000,4.000000,4.000000,4.000000,4.000000,4.000000,4.000000,4.000000,4.000000,4.000000,4.000000,4.000000,4.000000,4.000000,4.000000,4.000000,4.000000,4.000000,4.000000,4.000000,4.000000,4.000000,4.000000,100.000000
1614404241.439339,28.000000,0.000000,-3.352711,-13.289744,-54.757374,-16.539953,-7.698959,-19.254303,-11.849211,-10.528745,-17.715391,-3.426474,-18.075352,-22.707291,-23.667274,-26.605398,-17.776834,11.115229,-11.674657,11.384361,15.401362,-10.732759,-19.162285,-11.969287,-23.456764,-6.013821,-26.154987,-33.715107,-7.509028,-8.361319,-23.850414,-46.811279,-16.549711,-73.910667,0.000000,190.000000,4.000000,,,,0.000000,4.000000,4.000000,4.000000,4.000000,4.000000,4.000000,4.000000,4.000000,4.000000,4.000000,4.000000,4.000000,4.000000,4.000000,4.000000,4.000000,4.000000,4.000000,4.000000,4.000000,4.000000,4.000000,4.000000,4.000000,4.000000,4.000000,4.000000,4.000000,4.000000,4.000000,4.000000,4.000000,100.000000
1614404241.447188,29.000000,0.000000,-4.887820,-12.250813,-55.728256,-17.549055,-8.204082,-19.747869,-9.786079,-10.005396,-18.210497,-6.499970,-19.082918,-21.658941,-23.130787,-21.963409,-15.707776,11.616934,-13.201444,9.321695,14.873140,-12.773309,-22.220045,-12.982959,-27.023050,-9.084730,-26.128832,-33.168571,-8.527161,-7.840137,-22.800924,-46.764465,-17.045982,-73.836754,0.000000,203.000000,4.000000,,,,0.000000,4.000000,4.000000,4.000000,4.000000,4.000000,4.000000,4.000000,4.000000,4.000000,4.000000,4.000000,4.000000,4.000000,4.000000,4.000000,4.000000,4.000000,4.000000,4.000000,4.000000,4.000000,4.000000,4.000000,4.000000,4.000000,4.000000,4.000000,4.000000,4.000000,4.000000,4.000000,4.000000,100.000000
1614404241.454937,30.000000,0.000000,-6.934214,-14.802666,-47.980221,-13.428941,-8.708697,-20.240942,-10.289114,-11.021031,-18.192286,-9.057573,-18.551014,-21.124462,-23.620476,-19.890163,-13.127966,12.118137,-14.213883,7.773912,15.883908,-10.196433,-17.069620,-12.969976,-27.508848,-8.050004,-25.589882,-34.161045,-16.723761,-7.832297,-23.290943,-46.717701,-17.541758,-74.275742,0.000000,188.000000,4.000000,,,,0.000000,4.000000,4.000000,4.000000,4.000000,4.000000,4.000000,4.000000,4.000000,4.000000,4.000000,4.000000,4.000000,4.000000,4.000000,4.000000,4.000000,4.000000,4.000000,4.000000,4.000000,4.000000,4.000000,4.000000,4.000000,4.000000,4.000000,4.000000,4.000000,4.000000,4.000000,4.000000,4.000000,100.000000
1614404241.462786,31.000000,0.000000,-6.927280,-15.813504,-44.342499,-10.851410,-8.699989,-19.707880,-10.278825,-11.010011,-18.174093,-10.074157,-22.635027,-22.641800,-24.109676,-16.793350,-9.012274,19.798326,-13.174028,12.894343,23.560331,-6.083672,-14.488449,-8.341621,-26.968519,-9.067595,-26.077112,-33.614063,-17.732679,-8.337285,-23.780472,-46.670986,-17.011395,-74.201462,0.000000,186.000000,4.000000,,,,0.000000,4.000000,4.000000,4.000000,4.000000,4.000000,4.000000,4.000000,4.000000,4.000000,4.000000,4.000000,4.000000,4.000000,4.000000,4.000000,4.000000,4.000000,4.000000,4.000000,4.000000,4.000000,4.000000,4.000000,4.000000,4.000000,4.000000,4.000000,4.000000,4.000000,4.000000,4.000000,4.000000,100.000000
1614404241.470536,32.000000,0.000000,-6.920352,-16.823332,-55.580208,-19.558508,-8.178469,-20.200993,-10.268546,-11.511821,-18.155920,-10.576902,-24.150854,-22.619158,-24.085567,-16.263737,-9.003262,20.804171,-15.724957,14.419910,24.049591,-8.128871,-17.038063,-6.794818,-27.454370,-8.545707,-26.051035,-33.580448,-8.996997,-8.328948,-23.756693,-46.624313,-17.507204,-74.640083,8064.000000,0.000000,4.000000,,,,0.000000,4.000000,4.000000,4.000000,4.000000,4.000000,4.000000,4.000000,4.000000,4.000000,4.000000,4.000000,4.000000,4.000000,4.000000,4.000000,4.000000,4.000000,4.000000,4.000000,4.000000,4.000000,4.000000,4.000000,4.000000,4.000000,4.000000,4.000000,4.000000,4.000000,4.000000,4.000000,4.000000,100.000000
1614404241.478385,33.000000,0.000000,-7.426253,-16.806509,-63.216934,-24.154333,-9.195930,-20.180792,-10.771098,-13.551591,-18.137764,-6.463762,-23.613882,-22.596539,-24.061481,-14.709011,-15.148105,11.039776,-27.504105,9.277286,13.769132,-15.300229,-23.174871,-19.095716,-27.939737,-8.537162,-26.024984,-34.059689,-12.577744,-8.320619,-23.220116,-46.577690,-16.976875,-74.565445,8064.000000,0.000000,4.000000,,,,0.000000,4.000000,4.000000,4.000000,4.000000,4.000000,4.000000,4.000000,4.000000,4.000000,4.000000,4.000000,4.000000,4.000000,4.000000,4.000000,4.000000,4.000000,4.000000,4.000000,4.000000,4.000000,4.000000,4.000000,4.000000,4.000000,4.000000,4.000000,4.000000,4.000000,4.000000,4.000000,4.000000,100.000000
1614404241.486134,34.000000,0.000000,-6.393186,-10.635856,-57.512691,-17.976332,-11.750837,-20.160610,-10.247506,-14.050860,-18.119627,-6.970119,-25.128731,-31.291891,-24.037420,-18.284046,-20.261162,6.926172,-34.656086,6.703906,6.575876,-17.336210,-31.356825,-29.333031,-27.398977,-18.785034,-25.998960,-34.025627,-22.821577,-8.312298,-23.709715,-47.043934,-16.959900,-73.978058,8064.000000,0.000000,4.000000,,,,0.000000,4.000000,4.000000,4.000000,4.000000,4.000000,4.000000,4.000000,4.000000,4.000000,4.000000,4.000000,4.000000,4.000000,4.000000,4.000000,4.000000,4.000000,4.000000,4.000000,4.000000,4.000000,4.000000,4.000000,4.000000,4.000000,4.000000,4.000000,4.000000,4.000000,4.000000,4.000000,4.000000,100.000000
1614404241.493984,35.000000,0.000000,-8.438074,-6.009835,-54.891075,-21.035280,-12.251907,-20.653271,-10.750079,-14.549630,-18.101507,-18.758020,-29.206165,-41.517010,-24.013382,-37.240120,-23.317823,6.406425,-31.544508,4.645920,6.056479,-16.293234,-34.402390,-28.790876,-26.858757,-30.561121,-25.460140,-33.991604,-23.824396,-8.303986,-24.711647,-46.996887,-19.507042,-74.416901,8064.000000,0.000000,4.000000,,,,0.000000,4.000000,4.000000,4.000000,4.000000,4.000000,4.000000,4.000000,4.000000,4.000000,4.000000,4.000000,4.000000,4.000000,4.000000,4.000000,4.000000,4.000000,4.000000,4.000000,4.000000,4.000000,4.000000,4.000000,4.000000,4.000000,4.000000,4.000000,4.000000,4.000000,4.000000,4.000000,4.000000,100.000000
1614404241.501733,36.000000,0.000000,-10.480918,-9.593569,-56.374645,-29.219372,-9.675552,-20.632618,-10.739329,-16.073542,-18.083405,-18.739262,-32.766705,-37.372929,-24.502190,-43.869549,-25.345787,3.835916,-28.948860,4.641273,7.076064,-16.789761,-29.239782,-25.685163,-27.344719,-31.556202,-27.485962,-33.957611,-22.774931,-8.808502,-23.661293,-46.437069,-21.025997,-74.342484,8064.000000,0.000000,4.000000,,,,0.000000,4.000000,4.000000,4.000000,4.000000,4.000000,4.000000,4.000000,4.000000,4.000000,4.000000,4.000000,4.000000,4.000000,4.000000,4.000000,4.000000,4.000000,4.000000,4.000000,4.000000,4.000000,4.000000,4.000000,4.000000,4.000000,4.000000,4.000000,4.000000,4.000000,4.000000,4.000000,4.000000,100.000000
1614404241.509382,37.000000,0.000000,-8.419155,-9.583975,-50.164425,-19.446564,-8.127416,-19.073523,-5.087564,-9.390801,-18.065321,0.766657,-25.041630,-24.515041,-21.400764,-25.364140,-21.730698,10.498747,-27.381451,13.867402,11.684373,-15.747330,-23.056698,-17.967171,-27.317373,-28.447721,-29.509758,-33.923653,-22.752155,-7.774053,-23.124811,-46.903454,-17.928047,-70.165573,8064.000000,0.000000,4.000000,,,,0.000000,4.000000,4.000000,4.000000,4.000000,4.000000,4.000000,4.000000,4.000000,4.000000,4.000000,4.000000,4.000000,4.000000,4.000000,4.000000,4.000000,4.000000,4.000000,4.000000,4.000000,4.000000,4.000000,4.000000,4.000000,4.000000,4.000000,4.000000,4.000000,4.000000,4.000000,4.000000,4.000000,100.000000
1614404241.517132,38.000000,0.000000,-3.795352,-5.471827,-46.524517,-5.068142,-8.632109,-20.080091,2.097010,2.413461,-15.995975,11.535121,-9.631972,-18.336681,-17.789619,-12.005442,-13.503839,23.821581,-23.251505,23.597124,19.364996,-11.116198,-16.879795,-5.641510,-24.725954,-26.367992,-26.403326,-34.402550,-16.575558,-7.766279,-26.691431,-46.856552,-18.422939,-67.018486,8064.000000,0.000000,4.000000,,,,0.000000,4.000000,4.000000,4.000000,4.000000,4.000000,4.000000,4.000000,4.000000,4.000000,4.000000,4.000000,4.000000,4.000000,4.000000,4.000000,4.000000,4.000000,4.000000,4.000000,4.000000,4.000000,4.000000,4.000000,4.000000,4.000000,4.000000,4.000000,4.000000,4.000000,4.000000,4.000000,4.000000,100.000000
1614404241.524781,39.000000,0.000000,-3.278736,-6.491996,-52.119019,-5.575895,-9.136297,-21.598473,5.171836,-0.153055,-14.441517,2.292816,-7.058238,-18.831165,-16.746189,-11.993436,-9.900592,26.361862,-18.100048,27.163271,22.422554,-5.464056,-9.683427,-0.507664,-23.162767,-20.187778,-22.274359,-33.855328,-10.917956,-9.296974,-24.613457,-43.732773,-20.968618,-67.464287,8064.000000,0.000000,4.000000,,,,0.000000,4.000000,4.000000,4.000000,4.000000,4.000000,4.000000,4.000000,4.000000,4.000000,4.000000,4.000000,4.000000,4.000000,4.000000,4.000000,4.000000,4.000000,4.000000,4.000000,4.000000,4.000000,4.000000,4.000000,4.000000,4.000000,4.000000,4.000000,4.000000,4.000000,4.000000,4.000000,4.000000,100.000000
1614404241.532530,40.000000,0.000000,-3.275457,-2.382940,-49.502796,-10.185703,-8.614341,-13.884566,4.653844,-9.896492,-13.914255,-5.914605,-16.281948,-18.812334,-16.216623,-12.494264,-9.377871,25.822680,-12.953743,24.059185,21.887310,-1.868848,-6.596821,-2.558438,-23.652424,-16.577847,-21.226442,-33.821472,-12.445499,-5.697934,-13.306792,-40.099297,-16.332266,-65.858368,8064.000000,0.000000,4.000000,,,,0.000000,4.000000,4.000000,4.000000,4.000000,4.000000,4.000000,4.000000,4.000000,4.000000,4.000000,4.000000,4.000000,4.000000,4.000000,4.000000,4.000000,4.000000,4.000000,4.000000,4.000000,4.000000,4.000000,4.000000,4.000000,4.000000,4.000000,4.000000,4.000000,4.000000,4.000000,4.000000,4.000000,100.000000
1614404241.540180,41.000000,0.000000,-2.759361,1.722007,-35.094318,-8.124235,-7.580085,-5.152732,4.649190,-6.809672,-14.413161,-4.883049,-19.855410,-17.767879,-16.713226,-16.071512,-8.342852,26.822498,-10.889507,12.753074,21.352604,-0.841339,-8.641506,-2.043059,-23.628773,-19.638191,-22.230858,-33.787651,-11.407413,-1.589672,-7.139640,-37.495094,-13.751831,-59.125839,8064.000000,0.000000,4.000000,,,,0.000000,4.000000,4.000000,4.000000,4.000000,4.000000,4.000000,4.000000,4.000000,4.000000,4.000000,4.000000,4.000000,4.000000,4.000000,4.000000,4.000000,4.000000,4.000000,4.000000,4.000000,4.000000,4.000000,4.000000,4.000000,4.000000,4.000000,4.000000,4.000000,4.000000,4.000000,4.000000,4.000000,100.000000
1614404241.547929,42.000000,0.000000,-4.295063,-12.125869,-30.956661,-10.680214,-8.598145,-13.865528,4.644541,-1.674657,-14.398747,-5.390986,-18.809914,-18.262934,-16.696514,-9.901595,-10.898612,24.744394,-13.955541,7.612115,21.844070,-1.353318,-4.530300,-1.528196,-22.579502,-20.131374,-22.208626,-29.138477,-7.806262,-4.152184,-11.235065,-35.406315,-19.379105,-58.041073,8064.000000,0.000000,4.000000,,,,0.000000,4.000000,4.000000,4.000000,4.000000,4.000000,4.000000,4.000000,4.000000,4.000000,4.000000,4.000000,4.000000,4.000000,4.000000,4.000000,4.000000,4.000000,4.000000,4.000000,4.000000,4.000000,4.000000,4.000000,4.000000,4.000000,4.000000,4.000000,4.000000,4.000000,4.000000,4.000000,4.000000,100.000000
1614404241.555579,43.000000,0.000000,-6.342050,-22.370153,-32.976986,-16.310560,-9.102368,-24.108074,4.639896,-3.724265,-13.358708,-6.924057,-14.688540,-18.244671,-11.551612,7.031384,-5.759508,30.873495,-14.454406,18.886555,26.950432,-0.839144,3.679358,-2.039488,-23.582563,-16.521500,-19.109495,-16.801647,-9.849738,-7.737776,-13.275111,-35.370911,-19.872547,-60.034313,8064.000000,0.000000,4.000000,,,,0.000000,4.000000,4.000000,4.000000,4.000000,4.000000,4.000000,4.000000,4.000000,4.000000,4.000000,4.000000,4.000000,4.000000,4.000000,4.000000,4.000000,4.000000,4.000000,4.000000,4.000000,4.000000,4.000000,4.000000,4.000000,4.000000,4.000000,4.000000,4.000000,4.000000,4.000000,4.000000,4.000000,100.000000
1614404241.563428,44.000000,0.000000,-4.284426,-10.040091,-27.815805,-15.781428,-3.965061,-13.827555,5.148077,-3.207720,-11.806888,-6.404313,-5.955903,-18.739246,-6.924675,4.460250,9.630867,39.560570,-9.824567,28.098436,28.974764,-0.838305,1.111576,-2.037448,-23.558981,-15.479337,-17.551924,-9.092538,-9.839888,-5.165936,-10.697734,-34.309898,-13.186007,-52.281971,8064.000000,0.000000,4.000000,,,,0.000000,4.000000,4.000000,4.000000,4.000000,4.000000,4.000000,4.000000,4.000000,4.000000,4.000000,4.000000,4.000000,4.000000,4.000000,4.000000,4.000000,4.000000,4.000000,4.000000,4.000000,4.000000,4.000000,4.000000,4.000000,4.000000,4.000000,4.000000,4.000000,4.000000,4.000000,4.000000,4.000000,100.000000
1614404241.571177,45.000000,0.000000,-3.254501,-7.465948,-32.403374,-12.175903,-2.422634,-5.095778,2.066006,-4.742974,-9.743799,-7.423549,-9.539690,-18.207685,-8.456212,-9.903185,7.569954,26.700499,-6.737819,21.916492,22.279121,-3.401569,-9.658766,-2.548232,-19.432858,-15.976678,-23.688217,-14.724471,-5.727484,-3.622308,-15.302421,-34.275589,-14.198462,-50.178406,8064.000000,0.000000,4.000000,,,,0.000000,4.000000,4.000000,4.000000,4.000000,4.000000,4.000000,4.000000,4.000000,4.000000,4.000000,4.000000,4.000000,4.000000,4.000000,4.000000,4.000000,4.000000,4.000000,4.000000,4.000000,4.000000,4.000000,4.000000,4.000000,4.000000,4.000000,4.000000,4.000000,4.000000,4.000000,4.000000,4.000000,100.000000
1614404241.578926,46.000000,0.000000,-3.251246,-21.817457,-49.806870,-15.753471,-12.676621,-18.424017,-2.551445,-13.969000,-10.759696,-13.569972,-25.427586,-19.215120,-12.550321,-13.483026,-13.463257,5.648156,-8.269543,14.715089,17.128637,-4.423809,-13.238851,-2.032863,-15.823682,-16.473522,-32.382477,-24.966156,-7.260218,-6.695609,-25.030708,-43.472080,-20.338110,-67.051308,8064.000000,0.000000,4.000000,,,,0.000000,4.000000,4.000000,4.000000,4.000000,4.000000,4.000000,4.000000,4.000000,4.000000,4.000000,4.000000,4.000000,4.000000,4.000000,4.000000,4.000000,4.000000,4.000000,4.000000,4.000000,4.000000,4.000000,4.000000,4.000000,4.000000,4.000000,4.000000,4.000000,4.000000,4.000000,4.000000,4.000000,100.000000
1614404241.586576,47.000000,0.000000,-3.247995,-25.385384,-56.423729,-20.865923,-20.869074,-32.251747,-3.574534,-19.083237,-15.364321,-14.069222,-30.530363,-20.734365,-15.614693,-19.623388,-23.706203,1.027123,-13.389479,13.674733,17.624331,-5.957846,-11.174330,-4.082112,-19.910421,-16.969870,-33.375736,-26.479652,-10.842702,-8.740195,-28.082600,-53.172199,-21.343412,-78.266304,8064.000000,0.000000,4.000000,,,,0.000000,4.000000,4.000000,4.000000,4.000000,4.000000,4.000000,4.000000,4.000000,4.000000,4.000000,4.000000,4.000000,4.000000,4.000000,4.000000,4.000000,4.000000,4.000000,4.000000,4.000000,4.000000,4.000000,4.000000,4.000000,4.000000,4.000000,4.000000,4.000000,4.000000,4.000000,4.000000,4.000000,100.000000
1614404241.594425,48.000000,0.000000,-4.783208,-19.718971,-51.239098,-20.845057,-17.771282,-31.706675,-4.083780,-16.500050,-18.425880,-1.747461,-24.345987,-22.252092,-19.701643,-26.783253,-20.605574,2.564558,-19.017115,15.199520,14.529782,-13.131375,-15.265719,-12.283158,-26.044357,-16.440079,-28.726976,-25.427532,-12.370320,-8.218635,-24.977594,-52.093384,-20.296429,-72.034195,8064.000000,0.000000,4.000000,,,,0.000000,4.000000,4.000000,4.000000,4.000000,4.000000,4.000000,4.000000,4.000000,4.000000,4.000000,4.000000,4.000000,4.000000,4.000000,4.000000,4.000000,4.000000,4.000000,4.000000,4.000000,4.000000,4.000000,4.000000,4.000000,4.000000,4.000000,4.000000,4.000000,4.000000,4.000000,4.000000,4.000000,100.000000
1614404241.602174,49.000000,0.000000,-6.316887,-19.186432,-50.162220,-17.747288,-15.189407,-29.623686,-6.643799,-14.432268,-17.894634,8.510697,-21.757538,-22.742662,-20.194761,-18.551340,-20.584969,3.587634,-21.562201,14.158679,9.899868,-20.297731,-19.353018,-19.963182,-27.556774,-17.962099,-30.749531,-32.068771,-19.024616,-7.697596,-22.901335,-49.477188,-20.788952,-68.372414,8064.000000,0.000000,4.000000,,,,0.000000,4.000000,4.000000,4.000000,4.000000,4.000000,4.000000,4.000000,4.000000,4.000000,4.000000,4.000000,4.000000,4.000000,4.000000,4.000000,4.000000,4.000000,4.000000,4.000000,4.000000,4.000000,4.000000,4.000000,4.000000,4.000000,4.000000,4.000000,4.000000,4.000000,4.000000,4.000000,4.000000,100.000000
1614404241.610024,50.000000,0.000000,-4.772109,-20.192886,-51.650517,-16.703899,-16.199860,-31.645344,-7.149976,-12.879375,-17.876740,4.912443,-22.761423,-21.694279,-17.097643,-11.866123,-20.051563,8.199431,-17.950893,11.580418,9.377148,-19.764612,-19.333666,-19.430399,-26.503578,-23.585163,-36.359806,-38.703369,-23.108156,-8.715539,-23.904074,-50.966175,-20.768164,-71.380966,8064.000000,0.000000,4.000000,,,,0.000000,4.000000,4.000000,4.000000,4.000000,4.000000,4.000000,4.000000,4.000000,4.000000,4.000000,4.000000,4.000000,4.000000,4.000000,4.000000,4.000000,4.000000,4.000000,4.000000,4.000000,4.000000,4.000000,4.000000,4.000000,4.000000,4.000000,4.000000,4.000000,4.000000,4.000000,4.000000,4.000000,100.000000
1614404241.617773,51.000000,0.000000,-3.228875,-20.685514,-50.573227,-16.687197,-16.183659,-32.126518,-7.142826,-9.276752,-18.371683,-2.784777,-24.277122,-14.493096,-16.567726,-15.956820,-17.980230,8.191232,-14.856020,11.056017,11.931873,-16.155106,-20.852793,-10.693020,-26.989895,-22.535936,-34.784985,-33.536461,-13.854279,-8.194003,-23.367350,-49.889568,-20.747395,-68.232658,8064.000000,0.000000,4.000000,,,,0.000000,4.000000,4.000000,4.000000,4.000000,4.000000,4.000000,4.000000,4.000000,4.000000,4.000000,4.000000,4.000000,4.000000,4.000000,4.000000,4.000000,4.000000,4.000000,4.000000,4.000000,4.000000,4.000000,4.000000,4.000000,4.000000,4.000000,4.000000,4.000000,4.000000,4.000000,4.000000,4.000000,100.000000
1614404241.625622,52.000000,0.000000,-3.225646,-19.126368,-50.009834,-16.670509,-15.654655,-30.555931,-7.135683,-7.729013,-16.302029,-3.807634,-20.663101,-7.811937,-15.012696,-13.376761,-12.834044,14.336886,-15.353985,14.634705,17.048147,-17.164591,-15.703735,1.625365,-27.475725,-8.667248,-29.621996,-26.836256,-7.173758,-6.134527,-23.343983,-47.788395,-20.726648,-63.036224,8064.000000,0.000000,4.000000,,,,0.000000,4.000000,4.000000,4.000000,4.000000,4.000000,4.000000,4.000000,4.000000,4.000000,4.000000,4.000000,4.000000,4.000000,4.000000,4.000000,4.000000,4.000000,4.000000,4.000000,4.000000,4.000000,4.000000,4.000000,4.000000,4.000000,4.000000,4.000000,4.000000,4.000000,4.000000,4.000000,4.000000,100.000000
1614404241.633371,53.000000,0.000000,-0.658318,-10.902113,-50.472645,-16.141018,-15.639000,-30.525375,-3.538804,-6.182823,-14.234445,5.426943,-11.411670,-7.804125,-11.920760,-9.260820,-2.051980,31.245626,-10.210425,18.722633,24.723406,-17.147427,-3.380339,6.239125,-26.935429,2.623471,-29.079554,-25.783779,-8.192225,-4.077110,-23.320639,-45.176506,-20.193100,-61.947548,8064.000000,0.000000,4.000000,,,,0.000000,4.000000,4.000000,4.000000,4.000000,4.000000,4.000000,4.000000,4.000000,4.000000,4.000000,4.000000,4.000000,4.000000,4.000000,4.000000,4.000000,4.000000,4.000000,4.000000,4.000000,4.000000,4.000000,4.000000,4.000000,4.000000,4.000000,4.000000,4.000000,4.000000,4.000000,4.000000,4.000000,100.000000
1614404241.641221,54.000000,0.000000,1.393623,-4.224544,-50.422169,-16.637697,-15.623362,-31.520491,0.054479,-8.227921,-13.707390,10.036901,-15.502822,-12.411705,-17.549866,-15.405406,-5.126851,29.675920,-9.174574,19.216732,24.698683,-15.591817,-3.889779,-1.972243,-26.908493,1.082386,-29.050474,-26.270817,-7.671212,-4.585854,-22.784498,-40.003124,-21.198549,-61.885601,8064.000000,0.000000,4.000000,,,,0.000000,4.000000,4.000000,4.000000,4.000000,4.000000,4.000000,4.000000,4.000000,4.000000,4.000000,4.000000,4.000000,4.000000,4.000000,4.000000,4.000000,4.000000,4.000000,4.000000,4.000000,4.000000,4.000000,4.000000,4.000000,4.000000,4.000000,4.000000,4.000000,4.000000,4.000000,4.000000,4.000000,100.000000
1614404241.648970,55.000000,0.000000,-0.146232,-4.220320,-50.371750,-17.133881,-15.607738,-29.437687,1.080065,-15.399181,-14.206503,-5.870572,-30.871935,-17.014679,-29.840008,-24.107948,-23.583263,9.646244,-20.960272,11.505207,13.904753,-17.114687,-16.706402,-10.175399,-26.881584,-5.585363,-25.944500,-26.244545,-8.689182,-4.581268,-23.274534,-38.424660,-20.151709,-62.336533,7936.000000,0.000000,4.000000,,,,0.000000,4.000000,4.000000,4.000000,4.000000,4.000000,4.000000,4.000000,4.000000,4.000000,4.000000,4.000000,4.000000,4.000000,4.000000,4.000000,4.000000,4.000000,4.000000,4.000000,4.000000,4.000000,4.000000,4.000000,4.000000,4.000000,4.000000,4.000000,4.000000,4.000000,4.000000,4.000000,4.000000,100.000000
1614404241.656819,56.000000,0.000000,0.879555,-4.728920,-50.834198,-15.578285,-15.592131,-21.203121,3.130267,-11.281218,-14.192296,-16.121111,-28.276960,-18.023304,-30.322989,-28.186405,-27.149424,7.585315,-23.503414,6.365497,6.711361,-14.533470,-19.766619,-8.626761,-25.829062,-8.656701,-24.892916,-25.192659,-10.218954,-4.576686,-23.251259,-37.873413,-16.028994,-61.761375,8064.000000,0.000000,4.000000,,,,0.000000,4.000000,4.000000,4.000000,4.000000,4.000000,4.000000,4.000000,4.000000,4.000000,4.000000,4.000000,4.000000,4.000000,4.000000,4.000000,4.000000,4.000000,4.000000,4.000000,4.000000,4.000000,4.000000,4.000000,4.000000,4.000000,4.000000,4.000000,4.000000,4.000000,4.000000,4.000000,4.000000,100.000000
1614404241.664568,57.000000,0.000000,3.442778,-4.724191,-50.270542,-12.998604,-14.038076,-15.028072,4.152778,3.601858,-13.665283,3.382189,-12.864067,-12.877076,-19.010614,-25.081295,-13.276119,20.398243,-8.095295,17.641182,9.781572,-3.236885,-15.131468,-5.028391,-23.751951,-8.135223,-24.868023,-16.962339,-5.593351,-4.572110,-19.638264,-30.143232,-12.423221,-55.545769,8064.000000,0.000000,4.000000,,,,0.000000,4.000000,4.000000,4.000000,4.000000,4.000000,4.000000,4.000000,4.000000,4.000000,4.000000,4.000000,4.000000,4.000000,4.000000,4.000000,4.000000,4.000000,4.000000,4.000000,4.000000,4.000000,4.000000,4.000000,4.000000,4.000000,4.000000,4.000000,4.000000,4.000000,4.000000,4.000000,4.000000,100.000000
1614404241.672418,58.000000,0.000000,2.926515,-7.283569,-49.707451,-12.985605,-11.459936,-15.525865,1.584523,5.136718,-14.164439,13.635217,-10.799921,-7.223173,-12.324937,-14.286983,-8.647459,22.941948,-4.497456,25.315849,13.361535,2.407377,-15.116336,-6.049004,-22.702559,-5.562985,-22.791872,-11.304351,-5.587758,-4.567538,-15.516062,-27.036165,-12.923618,-47.797916,8064.000000,0.000000,4.000000,,,,0.000000,4.000000,4.000000,4.000000,4.000000,4.000000,4.000000,4.000000,4.000000,4.000000,4.000000,4.000000,4.000000,4.000000,4.000000,4.000000,4.000000,4.000000,4.000000,4.000000,4.000000,4.000000,4.000000,4.000000,4.000000,4.000000,4.000000,4.000000,4.000000,4.000000,4.000000,4.000000,4.000000,100.000000
1614404241.680167,59.000000,0.000000,0.359485,-9.327568,-51.196205,-12.459800,-11.448476,-16.023159,0.044477,-5.637650,-14.150274,-2.788675,-16.430147,-7.728771,-15.389535,-7.606030,-10.177273,20.354902,-18.851933,12.982841,13.348173,-3.236055,-16.639681,-7.581417,-23.705496,-5.044602,-21.230619,-16.421251,-10.710375,-4.562970,-18.577469,-36.239899,-13.423515,-47.750118,8064.000000,0.000000,4.000000,,,,0.000000,4.000000,4.000000,4.000000,4.000000,4.000000,4.000000,4.000000,4.000000,4.000000,4.000000,4.000000,4.000000,4.000000,4.000000,4.000000,4.000000,4.000000,4.000000,4.000000,4.000000,4.000000,4.000000,4.000000,4.000000,4.000000,4.000000,4.000000,4.000000,4.000000,4.000000,4.000000,4.000000,100.000000
1614404241.688016,60.000000,0.000000,-0.153695,-8.805420,-49.093727,-10.396057,-12.462668,-15.494316,0.557253,-8.708935,-14.136124,0.291037,-15.388076,-10.285145,-16.912607,-9.136886,-10.167095,21.360189,-22.422825,6.303192,14.360466,-4.771281,-16.110222,-6.548194,-23.681791,-7.090839,-21.722208,-22.045856,-11.212485,-4.558407,-22.661455,-43.383144,-12.897271,-50.779293,8064.000000,0.000000,4.000000,,,,0.000000,4.000000,4.000000,4.000000,4.000000,4.000000,4.000000,4.000000,4.000000,4.000000,4.000000,4.000000,4.000000,4.000000,4.000000,4.000000,4.000000,4.000000,4.000000,4.000000,4.000000,4.000000,4.000000,4.000000,4.000000,4.000000,4.000000,4.000000,4.000000,4.000000,4.000000,4.000000,4.000000,100.000000
1614404241.695766,61.000000,0.000000,0.359280,-8.796615,-42.377968,-8.847200,-8.860462,-15.478822,0.556695,-6.136123,-14.121988,17.213823,-13.834227,-10.274859,-15.357232,-12.717492,-19.387697,19.800367,-16.759377,9.886632,10.243542,-8.356254,-15.068470,-7.567287,-22.119648,-5.032467,-21.187666,-24.587914,-15.303837,-4.553849,-21.100332,-42.314121,-13.397194,-50.728512,8064.000000,0.000000,4.000000,,,,0.000000,4.000000,4.000000,4.000000,4.000000,4.000000,4.000000,4.000000,4.000000,4.000000,4.000000,4.000000,4.000000,4.000000,4.000000,4.000000,4.000000,4.000000,4.000000,4.000000,4.000000,4.000000,4.000000,4.000000,4.000000,4.000000,4.000000,4.000000,4.000000,4.000000,4.000000,4.000000,4.000000,100.000000
1614404241.703615,62.000000,0.000000,0.358920,-8.787818,-37.720203,-8.838353,-7.313140,-15.463343,0.556139,-6.642808,-13.595045,3.350455,-14.333213,-11.290225,-15.854695,-18.345800,-26.547796,16.703644,-18.793900,4.748540,1.515349,-22.194052,-14.027761,-18.328951,-23.123169,-5.027434,-21.166477,-28.153069,-27.596226,-4.549295,-18.515129,-41.246166,-12.870976,-50.164963,8064.000000,0.000000,4.000000,,,,0.000000,4.000000,4.000000,4.000000,4.000000,4.000000,4.000000,4.000000,4.000000,4.000000,4.000000,4.000000,4.000000,4.000000,4.000000,4.000000,4.000000,4.000000,4.000000,4.000000,4.000000,4.000000,4.000000,4.000000,4.000000,4.000000,4.000000,4.000000,4.000000,4.000000,4.000000,4.000000,4.000000,100.000000
1614404241.711364,63.000000,0.000000,2.922664,-8.266210,-38.195305,-8.316694,-11.921212,-15.960700,0.555583,-6.636165,-13.581450,-13.575972,-14.318879,-14.355858,-18.915764,-24.994122,-19.341763,15.661299,-20.826387,3.205330,2.026654,-24.223139,-15.039373,-26.515749,-23.100046,-16.304459,-21.145311,-29.150557,-27.055809,-4.031925,-18.496614,-41.717739,-11.832464,-49.601978,8064.000000,0.000000,4.000000,,,,0.000000,4.000000,4.000000,4.000000,4.000000,4.000000,4.000000,4.000000,4.000000,4.000000,4.000000,4.000000,4.000000,4.000000,4.000000,4.000000,4.000000,4.000000,4.000000,4.000000,4.000000,4.000000,4.000000,4.000000,4.000000,4.000000,4.000000,4.000000,4.000000,4.000000,4.000000,4.000000,4.000000,100.000000
1614404241.719014,64.000000,0.000000,4.458203,-8.770763,-38.669930,-10.359659,-14.986214,-15.431919,0.555027,-8.680811,-14.080689,2.847860,-15.330201,-10.751759,-16.332747,-22.405025,-10.604472,15.645638,-13.626073,16.022638,8.691295,-8.301480,-14.511514,-9.566157,-12.820536,-22.441999,-20.611345,-30.147047,-18.310804,-4.540714,-18.990938,-42.188843,-13.871914,-50.065197,0.000000,185.000000,4.000000,,,,0.000000,4.000000,4.000000,4.000000,4.000000,4.000000,4.000000,4.000000,4.000000,4.000000,4.000000,4.000000,4.000000,4.000000,4.000000,4.000000,4.000000,4.000000,4.000000,4.000000,4.000000,4.000000,4.000000,4.000000,4.000000,4.000000,4.000000,4.000000,4.000000,4.000000,4.000000,4.000000,4.000000,100.000000
1614404241.726763,65.000000,0.000000,3.940924,-8.761992,-39.144081,-13.939043,-15.484048,-15.416487,1.067292,-11.749053,-13.553788,17.716806,-14.289230,-3.561520,-9.136926,-15.203133,-5.978483,19.219736,-4.381678,22.160461,14.323628,6.578617,-8.343156,13.520332,-1.012843,-11.650327,-23.154837,-30.629721,-15.215570,-4.536173,-19.997589,-42.659473,-16.422144,-53.604874,0.000000,171.000000,4.000000,,,,0.000000,4.000000,4.000000,4.000000,4.000000,4.000000,4.000000,4.000000,4.000000,4.000000,4.000000,4.000000,4.000000,4.000000,4.000000,4.000000,4.000000,4.000000,4.000000,4.000000,4.000000,4.000000,4.000000,4.000000,4.000000,4.000000,4.000000,4.000000,4.000000,4.000000,4.000000,4.000000,4.000000,100.000000
1614404241.734412,66.000000,0.000000,4.449804,-7.727590,-43.720322,-11.873822,-20.083948,-19.503635,0.553405,-9.173202,-14.053055,7.955501,-14.787762,-5.609241,-9.640610,-17.239212,-5.972504,21.764618,-1.300373,18.035736,15.847767,6.572038,-8.334813,6.840146,-6.652856,-1.382266,-25.182964,-27.522167,-12.636252,-4.018816,-17.926308,-41.591175,-12.815979,-52.525627,0.000000,197.000000,4.000000,,,,0.000000,4.000000,4.000000,4.000000,4.000000,4.000000,4.000000,4.000000,4.000000,4.000000,4.000000,4.000000,4.000000,4.000000,4.000000,4.000000,4.000000,4.000000,4.000000,4.000000,4.000000,4.000000,4.000000,4.000000,4.000000,4.000000,4.000000,4.000000,4.000000,4.000000,4.000000,4.000000,4.000000,100.000000
1614404241.742162,67.000000,0.000000,3.419713,-8.745503,-52.907372,-12.887589,-25.192070,-23.073874,0.552851,-11.728130,-16.603104,0.255238,-24.003742,-18.424145,-30.143789,-31.580946,-24.940891,6.358238,-14.632406,7.248470,0.447304,-13.434534,-27.300837,-20.859003,-21.005177,-4.970628,-28.234705,-36.725414,-21.341564,-5.040439,-19.446844,-45.652149,-15.367266,-53.498745,0.000000,184.000000,4.000000,,,,0.000000,4.000000,4.000000,4.000000,4.000000,4.000000,4.000000,4.000000,4.000000,4.000000,4.000000,4.000000,4.000000,4.000000,4.000000,4.000000,4.000000,4.000000,4.000000,4.000000,4.000000,4.000000,4.000000,4.000000,4.000000,4.000000,4.000000,4.000000,4.000000,4.000000,4.000000,4.000000,4.000000,100.000000
1614404241.749811,68.000000,0.000000,-2.224732,-13.864963,-62.598053,-26.208035,-29.269442,-23.050800,1.577939,-24.536915,-20.176245,0.767803,-35.774612,-29.174952,-54.729031,-48.985264,-48.505692,-14.673760,-38.207516,-12.758779,-25.194170,-43.164688,-49.324818,-37.761219,-29.702122,-18.811811,-39.488522,-56.688690,-40.807404,-9.650783,-34.299191,-58.427010,-28.685232,-72.932426,0.000000,165.000000,4.000000,,,,0.000000,4.000000,4.000000,4.000000,4.000000,4.000000,4.000000,4.000000,4.000000,4.000000,4.000000,4.000000,4.000000,4.000000,4.000000,4.000000,4.000000,4.000000,4.000000,4.000000,4.000000,4.000000,4.000000,4.000000,4.000000,4.000000,4.000000,4.000000,4.000000,4.000000,4.000000,4.000000,4.000000,100.000000
1614404241.757560,69.000000,0.000000,-6.837893,-16.928020,-60.484173,-30.284391,-31.804276,-24.053391,-1.500562,-27.076481,-21.694530,0.767035,-37.790119,-28.632956,-48.007633,-48.423458,-38.713596,-7.992420,-41.246231,-15.822943,-24.656155,-43.634346,-47.737034,-33.620895,-30.698059,-38.280178,-43.038776,-54.067898,-37.689671,-12.205235,-45.034122,-61.958324,-34.297573,-84.654366,0.000000,197.000000,4.000000,,,,0.000000,4.000000,4.000000,4.000000,4.000000,4.000000,4.000000,4.000000,4.000000,4.000000,4.000000,4.000000,4.000000,4.000000,4.000000,4.000000,4.000000,4.000000,4.000000,4.000000,4.000000,4.000000,4.000000,4.000000,4.000000,4.000000,4.000000,4.000000,4.000000,4.000000,4.000000,4.000000,4.000000,100.000000
1614404241.765210,70.000000,0.000000,-7.343875,-15.885452,-42.987789,-17.433594,-23.567343,-24.542158,-6.114446,-14.228892,-22.185656,2.304729,-30.060020,-18.860733,-16.164755,-22.734009,-5.854372,15.605315,-16.076782,12.398008,4.086450,-13.334301,-20.509808,-15.125735,-21.949413,-38.754719,-25.047020,-31.449728,-14.062239,-11.680208,-33.707039,-43.947647,-29.135069,-63.544067,0.000000,192.000000,4.000000,,,,0.000000,4.000000,4.000000,4.000000,4.000000,4.000000,4.000000,4.000000,4.000000,4.000000,4.000000,4.000000,4.000000,4.000000,4.000000,4.000000,4.000000,4.000000,4.000000,4.000000,4.000000,4.000000,4.000000,4.000000,4.000000,4.000000,4.000000,4.000000,4.000000,4.000000,4.000000,4.000000,4.000000,100.000000
1614404241.772959,71.000000,0.000000,-6.823710,-17.408028,-36.278137,-13.313596,-13.800185,-19.389410,-7.133972,-9.086458,-21.137829,-2.825780,-25.927397,-13.200846,-6.917821,-9.890761,1.330970,22.256376,-2.727371,26.231764,17.415697,-2.038915,-3.053401,-2.290097,-12.696694,-13.587759,-17.842485,-25.777252,-12.509715,-11.668529,-23.416922,-33.134472,-27.054651,-50.660011,0.000000,182.000000,4.000000,,,,0.000000,4.000000,4.000000,4.000000,4.000000,4.000000,4.000000,4.000000,4.000000,4.000000,4.000000,4.000000,4.000000,4.000000,4.000000,4.000000,4.000000,4.000000,4.000000,4.000000,4.000000,4.000000,4.000000,4.000000,4.000000,4.000000,4.000000,4.000000,4.000000,4.000000,4.000000,4.000000,4.000000,100.000000
1614404241.780608,72.000000,0.000000,-7.329707,-20.467543,-52.652115,-20.992590,-23.017155,-18.857201,-6.614018,-14.205577,-20.603870,-14.617826,-32.055317,-17.803030,-25.372442,-30.393690,-21.234463,8.387967,-15.545156,4.154251,3.039307,-16.908670,-19.460604,-13.569859,-19.863485,-3.830582,-36.286182,-39.084808,-27.368999,-12.169681,-28.521709,-47.460312,-28.053238,-67.532425,0.000000,197.000000,4.000000,,,,0.000000,4.000000,4.000000,4.000000,4.000000,4.000000,4.000000,4.000000,4.000000,4.000000,4.000000,4.000000,4.000000,4.000000,4.000000,4.000000,4.000000,4.000000,4.000000,4.000000,4.000000,4.000000,4.000000,4.000000,4.000000,4.000000,4.000000,4.000000,4.000000,4.000000,4.000000,4.000000,4.000000,100.000000
1614404241.788358,73.000000,0.000000,-7.322378,-16.857332,-59.778950,-15.843392,-29.147984,-23.966549,-6.607404,-14.704191,-22.634550,-5.885260,-39.202747,-24.964714,-36.116299,-42.158169,-36.597843,-1.876832,-25.273201,-8.670417,-9.784245,-25.096891,-39.953964,-27.402443,-32.664135,-23.826752,-43.429382,-45.712391,-30.418554,-11.644691,-29.006008,-53.053875,-28.538006,-67.464897,0.000000,194.000000,4.000000,,,,0.000000,4.000000,4.000000,4.000000,4.000000,4.000000,4.000000,4.000000,4.000000,4.000000,4.000000,4.000000,4.000000,4.000000,4.000000,4.000000,4.000000,4.000000,4.000000,4.000000,4.000000,4.000000,4.000000,4.000000,4.000000,4.000000,4.000000,4.000000,4.000000,4.000000,4.000000,4.000000,4.000000,100.000000
1614404241.796007,74.000000,0.000000,-6.802235,-10.686628,-36.642246,-5.058319,-11.682938,-11.122069,-7.113617,-13.151026,-17.996531,18.223190,-31.471237,-25.452570,-33.516083,-22.116011,-29.381760,4.791712,-24.735107,5.697228,-4.133435,-23.020512,-32.221703,-26.349400,-34.169933,-36.623436,-31.078260,-40.538471,-26.285572,-11.633045,-20.259052,-33.000820,-27.483828,-44.320507,0.000000,158.000000,4.000000,,,,0.000000,4.000000,4.000000,4.000000,4.000000,4.000000,4.000000,4.000000,4.000000,4.000000,4.000000,4.000000,4.000000,4.000000,4.000000,4.000000,4.000000,4.000000,4.000000,4.000000,4.000000,4.000000,4.000000,4.000000,4.000000,4.000000,4.000000,4.000000,4.000000,4.000000,4.000000,4.000000,4.000000,100.000000
1614404241.803757,75.000000,0.000000,-6.795433,-8.111839,-15.067143,-4.027619,1.662078,8.376232,-6.593683,-14.163516,-4.132380,20.256248,-19.132072,-23.375835,-31.944103,-9.786202,-21.147249,16.068972,-24.710373,16.973583,8.178391,-20.946209,-17.830505,-23.758947,-31.058838,-30.945787,-26.431797,-31.779985,-24.720825,-12.134233,-17.674692,-21.685770,-19.764036,-36.583881,0.000000,188.000000,4.000000,,,,0.000000,4.000000,4.000000,4.000000,4.000000,4.000000,4.000000,4.000000,4.000000,4.000000,4.000000,4.000000,4.000000,4.000000,4.000000,4.000000,4.000000,4.000000,4.000000,4.000000,4.000000,4.000000,4.000000,4.000000,4.000000,4.000000,4.000000,4.000000,4.000000,4.000000,4.000000,4.000000,4.000000,100.000000
1614404241.811406,76.000000,0.000000,-6.788637,-8.616548,-17.103359,-6.074873,-6.544712,0.675548,-6.587089,-14.662172,-0.025683,2.287274,-22.702684,-21.813997,-29.860878,-19.520006,-20.613281,19.129826,-20.583097,12.341224,11.247135,-18.361160,-17.812675,-20.145445,-30.002138,-24.760996,-28.969469,-25.594358,-21.106359,-11.096457,-19.195478,-29.356392,-12.564784,-44.239605,0.000000,172.000000,4.000000,,,,0.000000,4.000000,4.000000,4.000000,4.000000,4.000000,4.000000,4.000000,4.000000,4.000000,4.000000,4.000000,4.000000,4.000000,4.000000,4.000000,4.000000,4.000000,4.000000,4.000000,4.000000,4.000000,4.000000,4.000000,4.000000,4.000000,4.000000,4.000000,4.000000,4.000000,4.000000,4.000000,4.000000,100.000000
1614404241.819255,77.000000,0.000000,-7.294669,-8.607931,-23.240101,-5.043158,-12.179193,-15.222563,-8.118963,-14.134690,-11.307709,-3.356039,-33.962032,-18.202440,-24.189991,-26.679974,-20.592669,17.059414,-11.844566,9.251960,9.697427,-16.804338,-19.846146,-11.920171,-28.433676,-18.582390,-27.914858,-27.107227,-18.521151,-8.521258,-18.663462,-34.968060,-12.552219,-46.246647,0.000000,166.000000,4.000000,,,,0.000000,4.000000,4.000000,4.000000,4.000000,4.000000,4.000000,4.000000,4.000000,4.000000,4.000000,4.000000,4.000000,4.000000,4.000000,4.000000,4.000000,4.000000,4.000000,4.000000,4.000000,4.000000,4.000000,4.000000,4.000000,4.000000,4.000000,4.000000,4.000000,4.000000,4.000000,4.000000,4.000000,100.000000
1614404241.827004,78.000000,0.000000,-6.774554,-8.086503,-23.216862,-4.012474,-10.628552,-13.156058,-10.674947,-14.633376,-16.424606,1.262702,-30.851149,-14.081674,-22.627340,-26.653294,-20.059256,18.580816,-9.268620,11.293990,12.251832,-13.710610,-18.800657,-8.831327,-27.379601,-12.409961,-28.912584,-30.157042,-17.989809,-7.999917,-18.644798,-33.907452,-12.539667,-45.174759,0.000000,210.000000,4.000000,,,,0.000000,4.000000,4.000000,4.000000,4.000000,4.000000,4.000000,4.000000,4.000000,4.000000,4.000000,4.000000,4.000000,4.000000,4.000000,4.000000,4.000000,4.000000,4.000000,4.000000,4.000000,4.000000,4.000000,4.000000,4.000000,4.000000,4.000000,4.000000,4.000000,4.000000,4.000000,4.000000,4.000000,100.000000
1614404241.834754,79.000000,0.000000,-6.767779,-6.027134,-24.219286,-6.059743,-12.156385,-7.501877,-9.638631,-14.105922,-9.228695,5.876824,-18.512606,-14.067592,-23.117533,-21.498434,-20.039196,19.587875,-10.284991,10.257055,13.778041,-6.517412,-19.807497,-9.848137,-25.300940,-12.397551,-26.319569,-24.485859,-15.407717,-7.479096,-19.651794,-34.386364,-9.963025,-44.616764,0.000000,215.000000,4.000000,,,,0.000000,4.000000,4.000000,4.000000,4.000000,4.000000,4.000000,4.000000,4.000000,4.000000,4.000000,4.000000,4.000000,4.000000,4.000000,4.000000,4.000000,4.000000,4.000000,4.000000,4.000000,4.000000,4.000000,4.000000,4.000000,4.000000,4.000000,4.000000,4.000000,4.000000,4.000000,4.000000,4.000000,100.000000
1614404241.842403,80.000000,0.000000,-7.786653,-4.482646,-22.143784,-6.053683,-8.041665,-2.878990,-4.500787,-9.989252,-2.552799,8.435050,-9.776143,-14.053524,-22.581594,-5.579501,-16.942234,22.132391,-9.761886,10.759619,14.789905,-5.998075,-16.710768,-7.787007,-20.147432,-11.872333,-17.575300,-16.769066,-11.289745,-3.369053,-13.991117,-31.275055,-8.927421,-42.520866,0.000000,171.000000,4.000000,,,,0.000000,4.000000,4.000000,4.000000,4.000000,4.000000,4.000000,4.000000,4.000000,4.000000,4.000000,4.000000,4.000000,4.000000,4.000000,4.000000,4.000000,4.000000,4.000000,4.000000,4.000000,4.000000,4.000000,4.000000,4.000000,4.000000,4.000000,4.000000,4.000000,4.000000,4.000000,4.000000,4.000000,100.000000
1614404241.850153,81.000000,0.000000,-6.240404,-4.478163,-26.224205,-3.996348,-4.443879,2.764914,-2.445004,-5.876698,-3.063067,3.298409,-9.766367,-13.526650,-22.046192,1.092746,-15.899651,21.597439,-9.239304,11.774500,14.262294,-14.197205,-20.283800,-13.933066,-18.076004,-6.732255,-21.147469,-22.393322,-10.252814,0.224059,-10.387383,-30.218140,-8.405673,-44.016804,0.000000,171.000000,4.000000,,,,0.000000,4.000000,4.000000,4.000000,4.000000,4.000000,4.000000,4.000000,4.000000,4.000000,4.000000,4.000000,4.000000,4.000000,4.000000,4.000000,4.000000,4.000000,4.000000,4.000000,4.000000,4.000000,4.000000,4.000000,4.000000,4.000000,4.000000,4.000000,4.000000,4.000000,4.000000,4.000000,4.000000,100.000000
1614404241.857802,82.000000,0.000000,-0.080318,-4.986506,-41.069775,-9.120556,-15.721487,-4.930158,-2.955380,-5.870822,-8.701030,-4.910017,-19.500191,-14.025945,-22.024147,-19.933989,-19.473494,9.268148,-8.717244,3.044777,2.965980,-20.849674,-34.622490,-21.098619,-18.570747,-8.776805,-33.946835,-32.627338,-11.268203,-0.288985,-15.505200,-41.469971,-10.961370,-53.716377,0.000000,214.000000,4.000000,,,,0.000000,4.000000,4.000000,4.000000,4.000000,4.000000,4.000000,4.000000,4.000000,4.000000,4.000000,4.000000,4.000000,4.000000,4.000000,4.000000,4.000000,4.000000,4.000000,4.000000,4.000000,4.000000,4.000000,4.000000,4.000000,4.000000,4.000000,4.000000,4.000000,4.000000,4.000000,4.000000,4.000000,100.000000
1614404241.865651,83.000000,0.000000,5.047968,-4.468699,-43.079987,-18.342205,-23.398073,-16.207279,-2.952425,-6.890592,-15.358995,-6.956389,-28.711460,-13.499098,-23.027763,-35.298668,-17.915560,-1.510351,-7.170065,-3.112114,-1.139550,-17.751902,-29.972483,-7.231368,-10.859869,-19.537258,-29.297503,-31.056252,-10.744114,-0.801517,-18.053799,-42.966965,-14.540152,-58.790867,0.000000,198.000000,4.000000,,,,0.000000,4.000000,4.000000,4.000000,4.000000,4.000000,4.000000,4.000000,4.000000,4.000000,4.000000,4.000000,4.000000,4.000000,4.000000,4.000000,4.000000,4.000000,4.000000,4.000000,4.000000,4.000000,4.000000,4.000000,4.000000,4.000000,4.000000,4.000000,4.000000,4.000000,4.000000,4.000000,4.000000,100.000000
1614404241.873400,84.000000,0.000000,4.530099,-4.977050,-25.601009,-15.246940,-12.605444,-11.575687,-2.436652,-6.370881,-16.369278,-3.359689,-25.093004,-13.998419,-21.979094,-19.878756,-11.743797,7.721929,-6.650074,6.634587,17.323128,-3.375175,-3.788665,13.288684,-3.669522,-14.389516,-14.396410,-18.204681,-4.579524,-0.800715,-9.317796,-20.359894,-5.807663,-45.398743,0.000000,173.000000,4.000000,,,,0.000000,4.000000,4.000000,4.000000,4.000000,4.000000,4.000000,4.000000,4.000000,4.000000,4.000000,4.000000,4.000000,4.000000,4.000000,4.000000,4.000000,4.000000,4.000000,4.000000,4.000000,4.000000,4.000000,4.000000,4.000000,4.000000,4.000000,4.000000,4.000000,4.000000,4.000000,4.000000,4.000000,100.000000
1614404241.881250,85.000000,0.000000,4.012749,-4.972073,-20.960024,-5.488103,-4.387711,-3.871804,-2.434215,-6.877331,-13.275985,3.823158,-17.375605,-18.086985,-24.521217,-7.551185,-12.244874,18.996258,-5.617784,12.781799,26.536575,3.807687,0.830508,8.660010,-9.306878,7.163335,-14.894835,-10.494169,1.066082,0.225726,-3.154632,-3.929278,4.967375,-32.020012,0.000000,195.000000,4.000000,,,,0.000000,4.000000,4.000000,4.000000,4.000000,4.000000,4.000000,4.000000,4.000000,4.000000,4.000000,4.000000,4.000000,4.000000,4.000000,4.000000,4.000000,4.000000,4.000000,4.000000,4.000000,4.000000,4.000000,4.000000,4.000000,4.000000,4.000000,4.000000,4.000000,4.000000,4.000000,4.000000,4.000000,100.000000
1614404241.888999,86.000000,0.000000,4.521556,-4.967101,-31.708296,-8.046718,-9.511528,-5.919214,-3.457422,-9.434556,-13.775529,4.332155,-22.486433,-22.171461,-33.727467,-20.876966,-18.386477,13.336236,-10.227551,3.025428,6.510038,-11.067915,-15.580579,-16.476854,-18.528341,9.720274,-29.238914,-21.252905,-3.037549,-1.825781,-9.818144,-17.771503,-3.755541,-34.552094,0.000000,205.000000,4.000000,,,,0.000000,4.000000,4.000000,4.000000,4.000000,4.000000,4.000000,4.000000,4.000000,4.000000,4.000000,4.000000,4.000000,4.000000,4.000000,4.000000,4.000000,4.000000,4.000000,4.000000,4.000000,4.000000,4.000000,4.000000,4.000000,4.000000,4.000000,4.000000,4.000000,4.000000,4.000000,4.000000,4.000000,100.000000
1614404241.896848,87.000000,0.000000,4.517035,-4.962134,-35.779152,-13.166876,-11.553298,-8.990218,-6.018067,-15.578967,-16.838676,-12.595254,-39.899845,-23.687752,-43.437328,-36.240704,-28.111679,3.579310,-26.114759,-8.772470,-10.419549,-27.979923,-23.257305,-32.357815,-20.561094,-8.750985,-37.414803,-39.180370,-12.265281,-6.952161,-17.500633,-40.830654,-17.597939,-40.158566,0.000000,202.000000,4.000000,,,,0.000000,4.000000,4.000000,4.000000,4.000000,4.000000,4.000000,4.000000,4.000000,4.000000,4.000000,4.000000,4.000000,4.000000,4.000000,4.000000,4.000000,4.000000,4.000000,4.000000,4.000000,4.000000,4.000000,4.000000,4.000000,4.000000,4.000000,4.000000,4.000000,4.000000,4.000000,4.000000,4.000000,100.000000
1614404241.904598,88.000000,0.000000,1.948415,-4.957172,-34.717731,-8.025504,-12.054565,-7.955587,-7.037690,-23.255695,-17.334660,-21.813429,-50.629177,-25.715347,-47.496456,-39.794209,-34.750233,1.011628,-37.370693,-9.789338,-9.383489,-31.541687,-24.259689,-29.761353,-21.566174,-20.537106,-31.223543,-37.602730,-15.329938,-8.483670,-14.919030,-42.841106,-16.554701,-38.579948,0.000000,162.000000,4.000000,,,,0.000000,4.000000,4.000000,4.000000,4.000000,4.000000,4.000000,4.000000,4.000000,4.000000,4.000000,4.000000,4.000000,4.000000,4.000000,4.000000,4.000000,4.000000,4.000000,4.000000,4.000000,4.000000,4.000000,4.000000,4.000000,4.000000,4.000000,4.000000,4.000000,4.000000,4.000000,4.000000,4.000000,100.000000
1614404241.912447,89.000000,0.000000,-0.104815,-4.952215,-34.683014,-5.453376,-11.016870,-8.460452,-7.030653,-18.617056,-18.342964,-0.253153,-36.219570,-26.202452,-40.269470,-31.036465,-20.869329,5.626001,-28.102554,2.015323,-2.194618,-28.946043,-20.645685,-19.475182,-23.595890,-20.516569,-21.961550,-22.693331,-14.801787,-5.398263,-6.186162,-21.772623,-9.871479,-38.028545,0.000000,203.000000,4.000000,,,,0.000000,4.000000,4.000000,4.000000,4.000000,4.000000,4.000000,4.000000,4.000000,4.000000,4.000000,4.000000,4.000000,4.000000,4.000000,4.000000,4.000000,4.000000,4.000000,4.000000,4.000000,4.000000,4.000000,4.000000,4.000000,4.000000,4.000000,4.000000,4.000000,4.000000,4.000000,4.000000,4.000000,100.000000
1614404241.920196,90.000000,0.000000,-0.104710,-4.947262,-30.032946,-8.524845,-2.800725,-8.451991,-6.510801,-4.239464,-17.811802,19.747101,-13.106429,-21.048044,-21.767664,-8.441326,0.690001,15.363965,-13.202658,16.372282,6.525526,-21.224791,-10.368630,-13.301860,-20.495371,-14.855026,-20.913946,-17.542433,-14.786985,-3.854403,-1.051771,-7.391876,-9.348786,-39.016159,0.000000,182.000000,4.000000,,,,0.000000,4.000000,4.000000,4.000000,4.000000,4.000000,4.000000,4.000000,4.000000,4.000000,4.000000,4.000000,4.000000,4.000000,4.000000,4.000000,4.000000,4.000000,4.000000,4.000000,4.000000,4.000000,4.000000,4.000000,4.000000,4.000000,4.000000,4.000000,4.000000,4.000000,4.000000,4.000000,4.000000,100.000000
1614404241.928045,91.000000,0.000000,0.408215,-4.942315,-27.438810,-8.003500,1.304640,-7.930719,-6.504290,-7.824968,-16.255527,14.086328,-15.144605,-16.924433,-13.540768,3.874808,-1.361971,20.989626,-15.240737,14.817448,14.211308,-13.511257,-10.871082,-10.724456,-15.859491,-6.122222,-24.482777,-19.063353,-15.285019,-4.876190,-1.050719,-16.615253,-9.852259,-39.489964,0.000000,205.000000,4.000000,,,,0.000000,4.000000,4.000000,4.000000,4.000000,4.000000,4.000000,4.000000,4.000000,4.000000,4.000000,4.000000,4.000000,4.000000,4.000000,4.000000,4.000000,4.000000,4.000000,4.000000,4.000000,4.000000,4.000000,4.000000,4.000000,4.000000,4.000000,4.000000,4.000000,4.000000,4.000000,4.000000,4.000000,100.000000
1614404241.935795,92.000000,0.000000,-0.105014,-4.937373,-33.052395,-11.072420,-9.465896,-13.563814,-7.010607,-25.765862,-23.931580,7.405574,-31.539717,-18.445969,-25.322098,-12.539324,-16.745224,16.353252,-24.456266,4.033400,12.658635,-15.549028,-21.116621,-9.175270,-15.330812,-2.013536,-24.458294,-17.505827,-15.269734,-4.358493,-1.049668,-27.367868,-9.842406,-38.424831,0.000000,182.000000,4.000000,,,,0.000000,4.000000,4.000000,4.000000,4.000000,4.000000,4.000000,4.000000,4.000000,4.000000,4.000000,4.000000,4.000000,4.000000,4.000000,4.000000,4.000000,4.000000,4.000000,4.000000,4.000000,4.000000,4.000000,4.000000,4.000000,4.000000,4.000000,4.000000,4.000000,4.000000,4.000000,4.000000,4.000000,100.000000
1614404241.943644,93.000000,0.000000,0.407912,-4.932436,-32.506523,-16.189552,-16.635918,-20.216917,-5.977955,-24.201633,-33.138416,8.423810,-33.046638,-18.427523,-30.937801,-20.219091,-20.831043,12.747156,-20.842066,4.542187,10.081874,-18.610403,-19.557043,-8.140453,-15.315480,-4.575625,-23.408194,-18.001143,-14.741644,-3.841314,-0.535798,-20.673834,-8.806923,-34.796665,0.000000,196.000000,4.000000,,,,0.000000,4.000000,4.000000,4.000000,4.000000,4.000000,4.000000,4.000000,4.000000,4.000000,4.000000,4.000000,4.000000,4.000000,4.000000,4.000000,4.000000,4.000000,4.000000,4.000000,4.000000,4.000000,4.000000,4.000000,4.000000,4.000000,4.000000,4.000000,4.000000,4.000000,4.000000,4.000000,4.000000,100.000000
1614404241.951393,94.000000,0.000000,2.971606,-4.927503,-25.294531,-8.993876,-13.029537,-14.555675,-1.869413,-5.715894,-19.259127,6.876925,-21.218719,-9.178327,-13.983788,-6.352719,-19.271751,15.298512,-13.128916,10.691491,10.584612,-16.027689,-13.383640,-8.645133,-14.787345,-5.083870,-24.410427,-14.906218,-12.675620,-4.350294,-0.535262,-13.473674,-6.746834,-31.172123,0.000000,215.000000,4.000000,,,,0.000000,4.000000,4.000000,4.000000,4.000000,4.000000,4.000000,4.000000,4.000000,4.000000,4.000000,4.000000,4.000000,4.000000,4.000000,4.000000,4.000000,4.000000,4.000000,4.000000,4.000000,4.000000,4.000000,4.000000,4.000000,4.000000,4.000000,4.000000,4.000000,4.000000,4.000000,4.000000,4.000000,100.000000
1614404241.959043,95.000000,0.000000,4.507096,-4.922575,-22.705133,-1.805395,-10.452405,-4.284708,1.209380,-2.120435,0.760133,2.254663,-16.069296,-2.502481,-2.687752,-8.397649,-16.688375,17.847315,-13.115788,11.193620,11.086848,-14.473200,-16.447180,-8.636488,-15.285378,-4.565966,-24.386017,-10.275927,-10.611663,-4.345943,-0.534727,-17.049944,-5.201625,-30.628130,0.000000,206.000000,4.000000,,,,0.000000,4.000000,4.000000,4.000000,4.000000,4.000000,4.000000,4.000000,4.000000,4.000000,4.000000,4.000000,4.000000,4.000000,4.000000,4.000000,4.000000,4.000000,4.000000,4.000000,4.000000,4.000000,4.000000,4.000000,4.000000,4.000000,4.000000,4.000000,4.000000,4.000000,4.000000,4.000000,4.000000,100.000000
1614404241.966792,96.000000,0.000000,3.989769,-4.917653,-23.708069,-8.983076,-13.006056,-5.818885,1.208170,-11.349083,-5.394473,-2.875797,-20.668612,-6.089722,-15.505577,-26.337969,-17.184509,14.239724,-12.589850,9.643965,9.024479,-15.484367,-18.482014,-8.627851,-13.218810,-5.074220,-24.361631,-12.316933,-10.088230,-4.341598,-1.047013,-20.109818,-5.196424,-32.648785,8064.000000,0.000000,4.000000,,,,0.000000,4.000000,4.000000,4.000000,4.000000,4.000000,4.000000,4.000000,4.000000,4.000000,4.000000,4.000000,4.000000,4.000000,4.000000,4.000000,4.000000,4.000000,4.000000,4.000000,4.000000,4.000000,4.000000,4.000000,4.000000,4.000000,4.000000,4.000000,4.000000,4.000000,4.000000,4.000000,4.000000,100.000000
1614404241.974441,97.000000,0.000000,3.985779,-4.912735,-24.710001,-17.179222,-15.044332,-13.505374,0.694142,-17.491581,-23.850616,-1.847280,-29.878712,-11.211838,-31.387508,-31.439837,-28.449375,6.020356,-9.500338,8.608680,6.964173,-14.956063,-17.437891,-8.619224,-10.128669,-3.530684,-23.824450,-17.432821,-10.078142,-3.824435,-0.533145,-19.064066,-5.704048,-34.154598,8064.000000,0.000000,4.000000,,,,0.000000,4.000000,4.000000,4.000000,4.000000,4.000000,4.000000,4.000000,4.000000,4.000000,4.000000,4.000000,4.000000,4.000000,4.000000,4.000000,4.000000,4.000000,4.000000,4.000000,4.000000,4.000000,4.000000,4.000000,4.000000,4.000000,4.000000,4.000000,4.000000,4.000000,4.000000,4.000000,4.000000,100.000000
1614404241.982191,98.000000,0.000000,3.981793,-4.907823,-26.223753,-17.162043,-15.542108,-16.568792,1.206268,-20.038191,-26.390869,12.000721,-31.900116,-10.174985,-33.920223,-30.895575,-34.574772,1.911772,-11.029299,7.061610,5.931568,-15.453927,-18.446095,-8.610604,-14.221104,-5.578436,-23.800625,-17.928209,-11.093705,-3.820611,-0.532612,-19.045002,-5.185524,-35.146084,8064.000000,0.000000,4.000000,,,,0.000000,4.000000,4.000000,4.000000,4.000000,4.000000,4.000000,4.000000,4.000000,4.000000,4.000000,4.000000,4.000000,4.000000,4.000000,4.000000,4.000000,4.000000,4.000000,4.000000,4.000000,4.000000,4.000000,4.000000,4.000000,4.000000,4.000000,4.000000,4.000000,4.000000,4.000000,4.000000,4.000000,100.000000
1614404241.989840,99.000000,0.000000,3.977811,-4.902915,-26.197529,-15.093598,-14.500924,-14.500940,0.692241,-21.043795,-20.210632,11.475900,-25.201550,-9.139169,-32.347839,-27.274937,-23.258146,4.986783,-12.043911,6.541728,6.438457,-14.925653,-16.889187,-9.114815,-18.309446,-9.675422,-24.289644,-17.397461,-10.056971,-4.329611,-2.583362,-19.538778,-5.693158,-35.110939,8064.000000,0.000000,4.000000,,,,0.000000,4.000000,4.000000,4.000000,4.000000,4.000000,4.000000,4.000000,4.000000,4.000000,4.000000,4.000000,4.000000,4.000000,4.000000,4.000000,4.000000,4.000000,4.000000,4.000000,4.000000,4.000000,4.000000,4.000000,4.000000,4.000000,4.000000,4.000000,4.000000,4.000000,4.000000,4.000000,4.000000,100.000000
1614404241.997589,100.000000,0.000000,3.973834,-4.385191,-24.120050,-11.488761,-12.435142,-12.435158,0.691549,-21.535570,-17.626318,-4.433012,-20.560963,-13.232594,-33.853954,-18.016891,-14.516939,8.571540,-14.083149,7.048006,6.432018,-14.397907,-15.333836,-11.156981,-18.803957,-4.024721,-24.265354,-16.867243,-11.072555,-3.812461,-4.119240,-19.006418,-5.174644,-35.075829,8064.000000,0.000000,4.000000,,,,0.000000,4.000000,4.000000,4.000000,4.000000,4.000000,4.000000,4.000000,4.000000,4.000000,4.000000,4.000000,4.000000,4.000000,4.000000,4.000000,4.000000,4.000000,4.000000,4.000000,4.000000,4.000000,4.000000,4.000000,4.000000,4.000000,4.000000,4.000000,4.000000,4.000000,4.000000,4.000000,4.000000,100.000000
1614404242.005239,101.000000,0.000000,3.969860,-4.380806,-23.070290,-7.887529,-10.884245,-11.909902,0.690857,-21.514036,-17.608692,0.186806,-21.566042,-19.886028,-34.845741,-20.050158,-17.579346,10.101430,-26.376759,6.015317,6.425586,-17.460432,-26.087732,-17.812492,-31.092846,-1.969414,-23.728270,-18.388836,-18.240969,-3.808648,-4.627941,-20.013052,-5.169470,-34.527931,8064.000000,0.000000,4.000000,,,,0.000000,4.000000,4.000000,4.000000,4.000000,4.000000,4.000000,4.000000,4.000000,4.000000,4.000000,4.000000,4.000000,4.000000,4.000000,4.000000,4.000000,4.000000,4.000000,4.000000,4.000000,4.000000,4.000000,4.000000,4.000000,4.000000,4.000000,4.000000,4.000000,4.000000,4.000000,4.000000,4.000000,100.000000
1614404242.012988,102.000000,0.000000,3.965890,-4.889246,-22.534397,-9.418103,-11.386181,-12.410812,0.690167,-21.492521,-17.591084,6.340465,-21.544477,-24.994347,-35.323715,-28.235235,-20.125868,10.091329,-36.093971,3.958020,6.419160,-22.571177,-38.882156,-28.563910,-46.446369,-17.352060,-26.268642,-27.088396,-27.966318,-7.394583,-6.161775,-24.608425,-5.677121,-35.006222,8064.000000,0.000000,4.000000,,,,0.000000,4.000000,4.000000,4.000000,4.000000,4.000000,4.000000,4.000000,4.000000,4.000000,4.000000,4.000000,4.000000,4.000000,4.000000,4.000000,4.000000,4.000000,4.000000,4.000000,4.000000,4.000000,4.000000,4.000000,4.000000,4.000000,4.000000,4.000000,4.000000,4.000000,4.000000,4.000000,4.000000,100.000000
1614404242.020638,103.000000,0.000000,3.961924,-4.371536,-26.614428,-8.895864,-11.374795,-10.347119,1.202297,-20.958208,-16.547852,-11.101773,-22.548573,-26.507814,-37.852497,-21.540333,-20.105743,10.081237,-30.416851,2.928421,6.412741,-23.061426,-42.945839,-31.612268,-41.784538,-31.180861,-30.857759,-33.727974,-32.040916,-12.002573,-8.206895,-27.147919,-5.671444,-34.971218,8064.000000,0.000000,4.000000,,,,0.000000,4.000000,4.000000,4.000000,4.000000,4.000000,4.000000,4.000000,4.000000,4.000000,4.000000,4.000000,4.000000,4.000000,4.000000,4.000000,4.000000,4.000000,4.000000,4.000000,4.000000,4.000000,4.000000,4.000000,4.000000,4.000000,4.000000,4.000000,4.000000,4.000000,4.000000,4.000000,4.000000,100.000000
1614404242.028387,104.000000,0.000000,3.957962,-4.879985,-32.741661,-6.835686,-11.363420,-13.413695,0.175454,-21.450071,-16.018484,-10.577850,-25.090128,-24.430025,-36.789001,-12.288024,-17.521534,10.583977,-23.206947,2.925493,6.406329,-22.012724,-39.313152,-21.324247,-30.460701,-31.662500,-29.288439,-30.617323,-26.367849,-11.477750,-8.711509,-26.607950,-5.152952,-33.910606,8064.000000,0.000000,4.000000,,,,0.000000,4.000000,4.000000,4.000000,4.000000,4.000000,4.000000,4.000000,4.000000,4.000000,4.000000,4.000000,4.000000,4.000000,4.000000,4.000000,4.000000,4.000000,4.000000,4.000000,4.000000,4.000000,4.000000,4.000000,4.000000,4.000000,4.000000,4.000000,4.000000,4.000000,4.000000,4.000000,4.000000,100.000000
1614404242.036036,105.000000,0.000000,3.954004,-8.977669,-34.247379,-17.085260,-10.839236,-23.143871,-2.388824,-20.402979,-19.592209,12.509650,-24.552216,-18.251749,-30.598366,-13.301377,-13.401448,10.573393,-24.209381,3.435387,6.399922,-23.529173,-27.478966,-12.072153,-27.866138,-30.092377,-22.079664,-30.586706,-17.623533,-11.979093,-10.241259,-26.068521,-7.199081,-36.440796,8064.000000,0.000000,4.000000,,,,0.000000,4.000000,4.000000,4.000000,4.000000,4.000000,4.000000,4.000000,4.000000,4.000000,4.000000,4.000000,4.000000,4.000000,4.000000,4.000000,4.000000,4.000000,4.000000,4.000000,4.000000,4.000000,4.000000,4.000000,4.000000,4.000000,4.000000,4.000000,4.000000,4.000000,4.000000,4.000000,4.000000,100.000000
1614404242.043786,106.000000,0.000000,3.950050,-13.071256,-34.213131,-27.837406,-10.828397,-24.659189,-3.412077,-18.331295,-20.598257,10.958679,-21.963562,-13.105291,-25.439564,-14.826537,-13.388047,10.562819,-24.185173,3.431952,6.393522,-21.454361,-13.092512,-12.060081,-26.812632,-25.959721,-19.493483,-33.120220,-13.503345,-16.069677,-12.282299,-27.068094,-9.755984,-42.045380,8064.000000,0.000000,4.000000,,,,0.000000,4.000000,4.000000,4.000000,4.000000,4.000000,4.000000,4.000000,4.000000,4.000000,4.000000,4.000000,4.000000,4.000000,4.000000,4.000000,4.000000,4.000000,4.000000,4.000000,4.000000,4.000000,4.000000,4.000000,4.000000,4.000000,4.000000,4.000000,4.000000,4.000000,4.000000,4.000000,4.000000,100.000000
1614404242.051435,107.000000,0.000000,3.946100,-10.494081,-35.717381,-19.091619,-11.330389,-16.942223,-2.895844,-16.774502,-13.398171,0.691310,-21.428778,-13.605006,-25.414124,-15.324531,-15.938762,10.039435,-24.160988,2.402879,6.387129,-16.304701,-9.489676,-12.560842,-25.760178,-15.677351,-20.499630,-23.856333,-14.515483,-12.976686,-12.270018,-26.528206,-9.233408,-40.977695,8064.000000,0.000000,4.000000,,,,0.000000,4.000000,4.000000,4.000000,4.000000,4.000000,4.000000,4.000000,4.000000,4.000000,4.000000,4.000000,4.000000,4.000000,4.000000,4.000000,4.000000,4.000000,4.000000,4.000000,4.000000,4.000000,4.000000,4.000000,4.000000,4.000000,4.000000,4.000000,4.000000,4.000000,4.000000,4.000000,4.000000,100.000000
1614404242.059284,108.000000,0.000000,3.942154,-5.355382,-29.527817,-4.713554,-8.754956,-14.873999,-2.892948,-16.757727,-10.820671,10.947029,-20.894527,-14.104222,-26.414351,-13.770745,-15.410003,10.542217,-23.624006,3.426117,6.380742,-14.749935,-13.069930,-11.009819,-24.708776,-10.533468,-19.966309,-14.088886,-13.988147,-5.271400,-11.744926,-22.911934,-6.147252,-33.757229,8064.000000,0.000000,4.000000,,,,0.000000,4.000000,4.000000,4.000000,4.000000,4.000000,4.000000,4.000000,4.000000,4.000000,4.000000,4.000000,4.000000,4.000000,4.000000,4.000000,4.000000,4.000000,4.000000,4.000000,4.000000,4.000000,4.000000,4.000000,4.000000,4.000000,4.000000,4.000000,4.000000,4.000000,4.000000,4.000000,4.000000,100.000000
1614404242.067034,109.000000,0.000000,4.451032,-4.324386,-27.447006,-5.221661,-7.207739,-15.884766,-2.890055,-16.740969,-16.450876,12.987364,-20.873634,-13.577297,-24.849474,-13.756974,-15.394592,10.531674,-22.574741,3.422691,6.374361,-14.735186,-15.108142,-15.101373,-20.068684,-11.548575,-20.459164,-17.664541,-12.948518,-4.240488,-11.220361,-23.401842,-5.115463,-33.723473,8064.000000,0.000000,4.000000,,,,0.000000,4.000000,4.000000,4.000000,4.000000,4.000000,4.000000,4.000000,4.000000,4.000000,4.000000,4.000000,4.000000,4.000000,4.000000,4.000000,4.000000,4.000000,4.000000,4.000000,4.000000,4.000000,4.000000,4.000000,4.000000,4.000000,4.000000,4.000000,4.000000,4.000000,4.000000,4.000000,4.000000,100.000000
1614404242.074883,110.000000,0.000000,2.908120,-4.832882,-42.291355,-9.831824,-14.380019,-14.330419,-3.912806,-18.775511,-17.460066,1.692325,-24.955324,-13.563720,-26.363087,-28.615011,-20.507402,6.931399,-28.706013,-3.247398,6.367986,-14.720450,-19.195599,-19.701656,-20.561436,-11.537027,-25.054089,-22.262260,-17.550953,-7.825991,-12.234782,-29.532286,-5.623168,-38.817955,8064.000000,0.000000,4.000000,,,,0.000000,4.000000,4.000000,4.000000,4.000000,4.000000,4.000000,4.000000,4.000000,4.000000,4.000000,4.000000,4.000000,4.000000,4.000000,4.000000,4.000000,4.000000,4.000000,4.000000,4.000000,4.000000,4.000000,4.000000,4.000000,4.000000,4.000000,4.000000,4.000000,4.000000,4.000000,4.000000,4.000000,100.000000
1614404242.082632,111.000000,0.000000,0.853929,-4.828050,-49.941372,-8.796351,-21.545126,-20.982756,-6.472996,-20.808018,-18.981068,-1.386290,-29.032932,-14.575797,-29.413647,-40.381268,-24.589460,2.821904,-34.831154,-7.346715,6.361619,-16.757011,-22.253326,-20.194775,-25.669079,-12.551131,-29.131599,-20.701538,-22.148787,-7.818165,-12.735368,-30.015575,-5.617545,-38.266315,8064.000000,0.000000,4.000000,,,,0.000000,4.000000,4.000000,4.000000,4.000000,4.000000,4.000000,4.000000,4.000000,4.000000,4.000000,4.000000,4.000000,4.000000,4.000000,4.000000,4.000000,4.000000,4.000000,4.000000,4.000000,4.000000,4.000000,4.000000,4.000000,4.000000,4.000000,4.000000,4.000000,4.000000,4.000000,4.000000,4.000000,100.000000
1614404242.090481,112.000000,0.000000,-0.172566,-4.310401,-38.096558,-7.249094,-22.549223,-29.166901,-6.979343,-20.787209,-25.115932,0.666378,-29.003901,-14.561221,-28.358591,-25.981913,-22.000767,2.306262,-28.642475,-2.211163,6.355257,-19.304358,-19.154150,-19.661760,-23.079308,-15.102682,-27.051186,-20.168015,-21.100998,-7.297527,-7.594427,-19.216328,-2.535005,-34.125484,8064.000000,0.000000,4.000000,,,,0.000000,4.000000,4.000000,4.000000,4.000000,4.000000,4.000000,4.000000,4.000000,4.000000,4.000000,4.000000,4.000000,4.000000,4.000000,4.000000,4.000000,4.000000,4.000000,4.000000,4.000000,4.000000,4.000000,4.000000,4.000000,4.000000,4.000000,4.000000,4.000000,4.000000,4.000000,4.000000,4.000000,100.000000
1614404242.098231,113.000000,0.000000,-0.172393,-4.818911,-28.827692,-8.780306,-22.526672,-23.496708,-6.459544,-21.279242,-21.501074,2.204174,-28.462076,-13.521019,-25.253311,-11.084136,-19.414665,2.816776,-19.895884,3.432074,6.348902,-16.720951,-14.519610,-19.642097,-18.953663,-15.600400,-24.972853,-21.173489,-18.515795,-7.803050,-3.997089,-13.556087,-2.532470,-34.091362,8064.000000,0.000000,4.000000,,,,0.000000,4.000000,4.000000,4.000000,4.000000,4.000000,4.000000,4.000000,4.000000,4.000000,4.000000,4.000000,4.000000,4.000000,4.000000,4.000000,4.000000,4.000000,4.000000,4.000000,4.000000,4.000000,4.000000,4.000000,4.000000,4.000000,4.000000,4.000000,4.000000,4.000000,4.000000,4.000000,4.000000,100.000000
1614404242.106080,114.000000,0.000000,0.340600,-4.814092,-30.337326,-13.899731,-21.991325,-15.780904,-6.453084,-21.257963,-9.684700,0.663508,-29.459255,-14.533139,-26.253698,-17.739719,-19.908070,2.301138,-20.901628,2.915821,6.342553,-14.652947,-14.505091,-20.135277,-24.062916,-16.097620,-24.947880,-21.152315,-17.471638,-7.795247,-9.121297,-22.260479,-6.632501,-35.082909,8064.000000,0.000000,4.000000,,,,0.000000,4.000000,4.000000,4.000000,4.000000,4.000000,4.000000,4.000000,4.000000,4.000000,4.000000,4.000000,4.000000,4.000000,4.000000,4.000000,4.000000,4.000000,4.000000,4.000000,4.000000,4.000000,4.000000,4.000000,4.000000,4.000000,4.000000,4.000000,4.000000,4.000000,4.000000,4.000000,4.000000,100.000000
1614404242.113829,115.000000,0.000000,-0.172561,-5.322099,-30.819809,-16.449934,-17.353951,-14.739482,-6.959452,-19.185423,-5.059631,-4.978181,-25.840052,-14.005786,-26.227444,-23.363005,-18.862520,2.298837,-25.496111,2.912905,6.336210,-15.663936,-15.003407,-20.115141,-25.577314,-15.568703,-17.743444,-21.643984,-18.479807,-7.787451,-10.650638,-23.776680,-9.189971,-33.509365,8064.000000,0.000000,4.000000,,,,0.000000,4.000000,4.000000,4.000000,4.000000,4.000000,4.000000,4.000000,4.000000,4.000000,4.000000,4.000000,4.000000,4.000000,4.000000,4.000000,4.000000,4.000000,4.000000,4.000000,4.000000,4.000000,4.000000,4.000000,4.000000,4.000000,4.000000,4.000000,4.000000,4.000000,4.000000,4.000000,4.000000,100.000000
1614404242.121678,116.000000,0.000000,-0.685209,-4.803956,-30.788990,-12.330919,-14.259673,-8.570896,-6.439672,-17.627775,-5.567392,6.308848,-18.121904,-8.350754,-17.483269,-17.698616,-13.715453,4.347821,-23.932154,3.422813,6.329874,-14.622631,-12.424300,-16.505283,-20.423531,-13.501852,-9.007751,-21.622339,-18.974148,-7.779664,-2.947679,-11.958032,-6.103858,-29.373293,8064.000000,0.000000,4.000000,,,,0.000000,4.000000,4.000000,4.000000,4.000000,4.000000,4.000000,4.000000,4.000000,4.000000,4.000000,4.000000,4.000000,4.000000,4.000000,4.000000,4.000000,4.000000,4.000000,4.000000,4.000000,4.000000,4.000000,4.000000,4.000000,4.000000,4.000000,4.000000,4.000000,4.000000,4.000000,4.000000,4.000000,100.000000
1614404242.129428,117.000000,0.000000,1.879579,-2.747870,-28.706919,-8.728845,-14.758233,-3.946941,-6.433232,-16.584507,-6.074645,24.251257,-14.001218,-2.701378,-7.722195,-17.168097,-10.624815,8.446037,-14.164632,3.419390,6.323544,-11.531085,-10.360594,-9.822111,-18.351826,-12.462708,-11.050026,-20.575075,-15.878250,-7.771884,0.645012,-8.869150,-5.072114,-26.266996,8064.000000,0.000000,4.000000,,,,0.000000,4.000000,4.000000,4.000000,4.000000,4.000000,4.000000,4.000000,4.000000,4.000000,4.000000,4.000000,4.000000,4.000000,4.000000,4.000000,4.000000,4.000000,4.000000,4.000000,4.000000,4.000000,4.000000,4.000000,4.000000,4.000000,4.000000,4.000000,4.000000,4.000000,4.000000,4.000000,4.000000,100.000000
1614404242.137277,118.000000,0.000000,7.005904,-1.206661,-23.550007,-8.720116,-14.743475,-12.660942,-6.939619,-14.516641,-10.171134,16.021877,-13.474397,-2.185856,-7.201653,-18.689390,-13.691113,9.463232,-5.432518,2.903150,6.317221,-12.545195,-10.863054,-7.761006,-14.230910,-11.424605,-17.192822,-21.580141,-10.734166,-7.764112,-1.406915,-18.091051,-6.092682,-27.779190,8064.000000,0.000000,4.000000,,,,0.000000,4.000000,4.000000,4.000000,4.000000,4.000000,4.000000,4.000000,4.000000,4.000000,4.000000,4.000000,4.000000,4.000000,4.000000,4.000000,4.000000,4.000000,4.000000,4.000000,4.000000,4.000000,4.000000,4.000000,4.000000,4.000000,4.000000,4.000000,4.000000,4.000000,4.000000,4.000000,4.000000,100.000000
1614404242.145026,119.000000,0.000000,8.537360,-0.692633,-26.090559,-9.224216,-14.728732,-18.802128,-5.907039,-13.476483,-12.725066,2.159702,-13.460922,-2.183670,-10.784194,-14.568137,-15.728704,10.479409,-8.504009,2.900247,5.798083,-15.096752,-10.852191,-8.778887,-7.550012,-8.849078,-16.662809,-21.558561,-10.210612,-7.756348,-0.379867,-18.072960,-5.573769,-28.264231,8064.000000,0.000000,4.000000,,,,0.000000,4.000000,4.000000,4.000000,4.000000,4.000000,4.000000,4.000000,4.000000,4.000000,4.000000,4.000000,4.000000,4.000000,4.000000,4.000000,4.000000,4.000000,4.000000,4.000000,4.000000,4.000000,4.000000,4.000000,4.000000,4.000000,4.000000,4.000000,4.000000,4.000000,4.000000,4.000000,4.000000,100.000000
1614404242.152875,120.000000,0.000000,7.503181,0.846521,-26.064468,-8.702171,-13.688362,-14.167941,-3.849849,-12.950186,-7.584136,10.362671,-12.934641,-2.181486,-10.773410,-10.451005,-13.148872,14.571494,-12.598069,2.897347,7.330746,-15.081656,-7.764415,-8.257287,-8.568103,-8.327408,-15.620505,-10.767773,-10.713222,-5.697310,3.210257,-8.824118,-2.491272,-21.056480,8064.000000,0.000000,4.000000,,,,0.000000,4.000000,4.000000,4.000000,4.000000,4.000000,4.000000,4.000000,4.000000,4.000000,4.000000,4.000000,4.000000,4.000000,4.000000,4.000000,4.000000,4.000000,4.000000,4.000000,4.000000,4.000000,4.000000,4.000000,4.000000,4.000000,4.000000,4.000000,4.000000,4.000000,4.000000,4.000000,4.000000,100.000000
1614404242.160625,121.000000,0.000000,8.008499,2.896956,-15.269173,-7.667829,-9.059289,-10.564030,-2.307538,-7.809031,-5.012449,14.967692,-12.921706,-3.204946,-11.275457,-10.440554,-9.033160,18.146666,-9.508548,3.407270,9.374698,-14.553753,-7.756651,-8.249030,-10.097997,-7.293440,-16.117704,0.525047,-6.599945,-3.640331,3.719867,-5.738370,-0.437499,-13.343116,8064.000000,0.000000,4.000000,,,,0.000000,4.000000,4.000000,4.000000,4.000000,4.000000,4.000000,4.000000,4.000000,4.000000,4.000000,4.000000,4.000000,4.000000,4.000000,4.000000,4.000000,4.000000,4.000000,4.000000,4.000000,4.000000,4.000000,4.000000,4.000000,4.000000,4.000000,4.000000,4.000000,4.000000,4.000000,4.000000,4.000000,100.000000
1614404242.168474,122.000000,0.000000,8.000490,2.894059,-14.228263,-8.685802,-6.998948,-11.579106,-2.818051,-5.237119,-8.597180,9.311699,-13.934425,-1.663279,-13.828284,-10.942934,-9.536947,17.615700,-10.011860,2.891042,10.390964,-15.052020,-10.312997,-8.753601,-7.010976,-2.670762,-16.101587,-1.526760,-1.977960,-4.149511,3.203326,-8.809555,-2.488343,-18.970798,8064.000000,0.000000,4.000000,,,,0.000000,4.000000,4.000000,4.000000,4.000000,4.000000,4.000000,4.000000,4.000000,4.000000,4.000000,4.000000,4.000000,4.000000,4.000000,4.000000,4.000000,4.000000,4.000000,4.000000,4.000000,4.000000,4.000000,4.000000,4.000000,4.000000,4.000000,4.000000,4.000000,4.000000,4.000000,4.000000,4.000000,100.000000
1614404242.176223,123.000000,0.000000,6.454028,1.865524,-21.906342,-9.189937,-7.504769,-12.080348,-2.815233,-8.308805,-9.614223,12.379311,-12.894850,-4.738539,-16.378559,-10.419170,-11.578692,17.085262,-12.565951,2.375331,9.867752,-15.036968,-10.815504,-8.232027,-10.593708,-0.103988,-17.111126,-8.704720,-3.001623,-3.632541,2.687303,-12.390489,-0.947394,-18.439007,8064.000000,0.000000,4.000000,,,,0.000000,4.000000,4.000000,4.000000,4.000000,4.000000,4.000000,4.000000,4.000000,4.000000,4.000000,4.000000,4.000000,4.000000,4.000000,4.000000,4.000000,4.000000,4.000000,4.000000,4.000000,4.000000,4.000000,4.000000,4.000000,4.000000,4.000000,4.000000,4.000000,4.000000,4.000000,4.000000,4.000000,100.000000
1614404242.184073,124.000000,0.000000,3.883472,3.914941,-12.653666,-2.514080,-3.907521,-11.042626,-1.786777,-9.838958,-8.578969,14.418213,-12.881955,-19.605595,-18.413462,-10.408751,-11.567114,18.093819,-12.553385,3.911417,9.857884,-15.021931,-10.291868,-9.249436,-17.762602,-0.616705,-16.068375,-9.208837,-3.511442,-0.039165,3.710256,-10.326817,4.694580,-2.523132,8064.000000,0.000000,4.000000,,,,0.000000,4.000000,4.000000,4.000000,4.000000,4.000000,4.000000,4.000000,4.000000,4.000000,4.000000,4.000000,4.000000,4.000000,4.000000,4.000000,4.000000,4.000000,4.000000,4.000000,4.000000,4.000000,4.000000,4.000000,4.000000,4.000000,4.000000,4.000000,4.000000,4.000000,4.000000,4.000000,4.000000,100.000000
1614404242.191822,125.000000,0.000000,2.341127,5.449488,-3.410244,2.616639,0.198951,-11.544404,-4.349092,-9.316298,-10.108851,7.737128,-21.074202,-29.329580,-18.907869,-10.911163,-12.581187,17.050083,-16.643396,5.958787,9.848026,-15.006909,-12.845679,-11.804289,-18.770481,-0.616088,-15.539486,-9.199628,-2.482289,-0.551946,3.193726,-10.316489,2.125782,-4.571891,8064.000000,0.000000,4.000000,,,,0.000000,4.000000,4.000000,4.000000,4.000000,4.000000,4.000000,4.000000,4.000000,4.000000,4.000000,4.000000,4.000000,4.000000,4.000000,4.000000,4.000000,4.000000,4.000000,4.000000,4.000000,4.000000,4.000000,4.000000,4.000000,4.000000,4.000000,4.000000,4.000000,4.000000,4.000000,4.000000,4.000000,100.000000
1614404242.199471,126.000000,0.000000,0.287503,2.367115,-15.714526,-4.565464,-3.390992,-12.558501,-6.396026,-11.358264,-10.098742,3.626827,-29.771076,-24.684866,-18.888962,-11.925893,-16.158350,14.468931,-20.729317,2.363085,9.325358,-14.991902,-14.884115,-12.818126,-18.751709,-1.641113,-24.241896,-13.805813,-5.043910,-5.679599,-5.527417,-27.229250,-9.158395,-30.721165,8064.000000,0.000000,4.000000,,,,0.000000,4.000000,4.000000,4.000000,4.000000,4.000000,4.000000,4.000000,4.000000,4.000000,4.000000,4.000000,4.000000,4.000000,4.000000,4.000000,4.000000,4.000000,4.000000,4.000000,4.000000,4.000000,4.000000,4.000000,4.000000,4.000000,4.000000,4.000000,4.000000,4.000000,4.000000,4.000000,4.000000,100.000000
1614404242.207221,127.000000,0.000000,-0.225605,2.877568,-23.391119,-9.176284,-7.490165,-11.007481,-3.825527,-13.398188,-9.063003,-0.992184,-28.202843,-17.993513,-18.870071,-11.913967,-16.142191,13.428822,-15.580382,3.899184,9.828854,-14.976911,-14.356411,-12.292487,-21.809881,-6.767677,-31.397141,-19.945852,-9.654250,-7.725202,-12.188556,-40.535355,-13.764621,-40.946854,8064.000000,0.000000,4.000000,,,,0.000000,4.000000,4.000000,4.000000,4.000000,4.000000,4.000000,4.000000,4.000000,4.000000,4.000000,4.000000,4.000000,4.000000,4.000000,4.000000,4.000000,4.000000,4.000000,4.000000,4.000000,4.000000,4.000000,4.000000,4.000000,4.000000,4.000000,4.000000,4.000000,4.000000,4.000000,4.000000,4.000000,100.000000
1614404242.214870,0.000000,0.000000,0.800262,3.387511,-23.367727,-8.141466,-9.021136,-12.534935,-4.847342,-14.923251,-15.720606,-6.632217,-29.200281,-16.437059,-17.825562,-9.337951,-16.126049,13.415393,-13.000699,10.049130,10.331845,-14.961933,-14.342054,-11.767374,-22.300892,-8.299371,-26.750359,-27.618216,-11.183058,-8.743117,-12.176368,-35.366615,-12.725215,-35.264881,0.000000,173.000000,4.000000,,,,0.000000,4.000000,4.000000,4.000000,4.000000,4.000000,4.000000,4.000000,4.000000,4.000000,4.000000,4.000000,4.000000,4.000000,4.000000,4.000000,4.000000,4.000000,4.000000,4.000000,4.000000,4.000000,4.000000,4.000000,4.000000,4.000000,4.000000,4.000000,4.000000,4.000000,4.000000,4.000000,4.000000,100.000000
1614404242.222619,1.000000,0.000000,-1.251820,-5.846645,-35.139233,-13.774350,-15.165961,-17.137785,-13.047624,-20.036533,-25.448475,-5.087124,-38.401852,-21.548826,-18.320557,-11.892715,-21.750950,12.889156,-21.192827,6.449338,8.270231,-14.946972,-14.840533,-12.268428,-22.278591,-7.778251,-21.082582,-29.641878,-10.659054,-11.298477,-13.189833,-30.715862,-13.225310,-36.255257,0.000000,179.000000,4.000000,,,,0.000000,4.000000,4.000000,4.000000,4.000000,4.000000,4.000000,4.000000,4.000000,4.000000,4.000000,4.000000,4.000000,4.000000,4.000000,4.000000,4.000000,4.000000,4.000000,4.000000,4.000000,4.000000,4.000000,4.000000,4.000000,4.000000,4.000000,4.000000,4.000000,4.000000,4.000000,4.000000,4.000000,100.000000
1614404242.230269,2.000000,0.000000,-6.378774,-11.481825,-34.078453,-16.837500,-14.637975,-12.505262,-12.521755,-22.067780,-21.833282,-2.517934,-29.132679,-25.629843,-18.302237,-11.880822,-18.652275,16.466011,-25.274199,4.904427,11.851705,-12.880742,-13.800052,-12.256159,-21.230671,-10.847396,-15.933295,-20.894289,-10.648395,-11.287178,-9.074079,-26.582582,-12.699265,-26.988234,0.000000,192.000000,4.000000,,,,0.000000,4.000000,4.000000,4.000000,4.000000,4.000000,4.000000,4.000000,4.000000,4.000000,4.000000,4.000000,4.000000,4.000000,4.000000,4.000000,4.000000,4.000000,4.000000,4.000000,4.000000,4.000000,4.000000,4.000000,4.000000,4.000000,4.000000,4.000000,4.000000,4.000000,4.000000,4.000000,4.000000,100.000000
1614404242.238018,3.000000,0.000000,-7.398036,-2.239573,-7.890527,-2.974508,2.299740,-0.185065,-0.714362,-16.404686,-4.375553,-2.515416,-4.488162,-14.834982,-10.078805,6.079776,-1.710546,22.090570,-18.069437,18.745676,22.096264,-10.816580,-10.196507,-12.243903,-17.106876,-10.836549,-5.660951,-10.616983,-9.099285,-8.198968,2.729867,-10.145743,-8.584002,-3.884322,0.000000,183.000000,4.000000,,,,0.000000,4.000000,4.000000,4.000000,4.000000,4.000000,4.000000,4.000000,4.000000,4.000000,4.000000,4.000000,4.000000,4.000000,4.000000,4.000000,4.000000,4.000000,4.000000,4.000000,4.000000,4.000000,4.000000,4.000000,4.000000,4.000000,4.000000,4.000000,4.000000,4.000000,4.000000,4.000000,4.000000,100.000000
1614404242.245668,4.000000,0.000000,-4.313715,3.403692,1.860953,7.284877,11.015389,4.943326,5.953020,-10.234434,6.910874,1.076843,2.695814,-2.512454,-3.402060,18.381390,3.932190,23.606941,-9.846239,23.855135,23.612629,-11.318583,-10.186312,-12.231659,-16.576948,-2.620584,-2.065547,-8.555084,-6.526083,-7.165128,4.778420,-5.007392,-5.498494,1.247767,0.000000,165.000000,4.000000,,,,0.000000,4.000000,4.000000,4.000000,4.000000,4.000000,4.000000,4.000000,4.000000,4.000000,4.000000,4.000000,4.000000,4.000000,4.000000,4.000000,4.000000,4.000000,4.000000,4.000000,4.000000,4.000000,4.000000,4.000000,4.000000,4.000000,4.000000,4.000000,4.000000,4.000000,4.000000,4.000000,4.000000,100.000000
1614404242.253417,5.000000,0.000000,-2.770939,-1.215097,-10.448600,2.662207,1.260784,2.887100,4.408605,-9.198559,5.365502,8.255253,-7.563293,-9.176608,-11.090965,-0.611351,-10.943537,21.019232,-8.810752,13.574870,15.896708,-13.871367,-15.304330,-14.783530,-18.098833,2.510242,-7.191686,-10.597812,-7.032378,-7.670784,-0.867384,-14.233154,-4.980175,-11.061172,0.000000,204.000000,4.000000,,,,0.000000,4.000000,4.000000,4.000000,4.000000,4.000000,4.000000,4.000000,4.000000,4.000000,4.000000,4.000000,4.000000,4.000000,4.000000,4.000000,4.000000,4.000000,4.000000,4.000000,4.000000,4.000000,4.000000,4.000000,4.000000,4.000000,4.000000,4.000000,4.000000,4.000000,4.000000,4.000000,4.000000,100.000000
1614404242.261066,6.000000,0.000000,-3.793809,-2.239522,-7.874049,-1.955839,-4.894323,2.884213,3.891376,-9.702181,1.257572,9.785460,-10.632652,-17.885380,-20.823463,-16.508177,-23.753105,19.972572,-10.853223,12.535654,13.316709,-14.883138,-12.724923,-15.794388,-18.080734,-2.107653,-7.184494,-9.561573,-7.538166,-7.663113,1.697586,-9.090716,-5.488016,-13.101394,0.000000,178.000000,4.000000,,,,0.000000,4.000000,4.000000,4.000000,4.000000,4.000000,4.000000,4.000000,4.000000,4.000000,4.000000,4.000000,4.000000,4.000000,4.000000,4.000000,4.000000,4.000000,4.000000,4.000000,4.000000,4.000000,4.000000,4.000000,4.000000,4.000000,4.000000,4.000000,4.000000,4.000000,4.000000,4.000000,4.000000,100.000000
1614404242.268816,7.000000,0.000000,-3.277195,-0.186001,3.415876,-0.928243,-0.274044,3.906970,5.425946,-10.718120,-0.794967,2.083366,-8.570738,-16.841854,-21.828281,-5.722437,-23.216532,20.978241,-11.868011,17.651323,16.893135,-14.868254,-2.968609,-14.240131,-18.575474,-4.669648,-4.100387,-8.013550,-5.479345,-8.168270,7.336914,2.713246,-5.482528,-7.960087,0.000000,179.000000,4.000000,,,,0.000000,4.000000,4.000000,4.000000,4.000000,4.000000,4.000000,4.000000,4.000000,4.000000,4.000000,4.000000,4.000000,4.000000,4.000000,4.000000,4.000000,4.000000,4.000000,4.000000,4.000000,4.000000,4.000000,4.000000,4.000000,4.000000,4.000000,4.000000,4.000000,4.000000,4.000000,4.000000,4.000000,100.000000
1614404242.276465,8.000000,0.000000,-3.273918,-0.698635,0.848358,-0.927314,0.751871,3.390242,4.907700,-13.271504,-1.306993,-2.021281,-10.100628,-18.363474,-21.806454,-4.691073,-22.167675,20.957262,-12.881783,15.069570,17.389063,-15.366206,0.624104,-10.636147,-17.531258,-2.100876,-4.609107,-8.005536,-3.422584,-7.134461,6.816756,-0.879210,-4.451404,-7.952127,0.000000,197.000000,4.000000,,,,0.000000,4.000000,4.000000,4.000000,4.000000,4.000000,4.000000,4.000000,4.000000,4.000000,4.000000,4.000000,4.000000,4.000000,4.000000,4.000000,4.000000,4.000000,4.000000,4.000000,4.000000,4.000000,4.000000,4.000000,4.000000,4.000000,4.000000,4.000000,4.000000,4.000000,4.000000,4.000000,4.000000,100.000000
1614404242.284314,9.000000,0.000000,-3.270644,-1.210757,-5.306336,-1.952028,-0.787342,2.874032,4.389971,-13.258233,-2.844148,4.647407,-10.090528,-15.268188,-21.784647,-15.968433,-21.119865,19.910664,-12.356081,12.490397,16.346033,-13.812379,-2.966264,-4.471665,-9.821419,-0.560313,-5.630139,-9.023171,-2.906341,-6.614506,6.809939,-8.057818,-5.472594,-9.482636,0.000000,187.000000,4.000000,,,,0.000000,4.000000,4.000000,4.000000,4.000000,4.000000,4.000000,4.000000,4.000000,4.000000,4.000000,4.000000,4.000000,4.000000,4.000000,4.000000,4.000000,4.000000,4.000000,4.000000,4.000000,4.000000,4.000000,4.000000,4.000000,4.000000,4.000000,4.000000,4.000000,4.000000,4.000000,4.000000,4.000000,100.000000
1614404242.292064,10.000000,0.000000,-3.267373,-1.209547,-5.813851,-1.950076,-0.786555,2.358337,4.385581,-10.680872,-2.841303,7.719682,-7.516335,-0.893945,-14.070555,-8.772978,-14.944900,20.403574,-7.215520,12.990728,19.406610,-8.157540,-0.912016,1.686652,-6.734674,-1.072573,-5.624509,-9.014149,-6.493178,-11.223276,6.290309,-8.049761,-5.979941,-9.473154,0.000000,198.000000,4.000000,,,,0.000000,4.000000,4.000000,4.000000,4.000000,4.000000,4.000000,4.000000,4.000000,4.000000,4.000000,4.000000,4.000000,4.000000,4.000000,4.000000,4.000000,4.000000,4.000000,4.000000,4.000000,4.000000,4.000000,4.000000,4.000000,4.000000,4.000000,4.000000,4.000000,4.000000,4.000000,4.000000,4.000000,100.000000
1614404242.299913,11.000000,0.000000,-3.264106,-1.208337,-3.756755,-1.435305,-0.272948,4.407261,4.381196,-9.644550,-0.787180,8.224783,-5.970357,0.132590,-6.876997,-1.071897,-8.263288,24.485735,-2.080099,13.490558,24.002588,-3.533998,1.140178,3.223427,-10.830504,-0.558680,-4.593244,-10.030775,-8.537967,-8.135130,6.284019,-7.016070,-1.358577,-8.438040,0.000000,184.000000,4.000000,,,,0.000000,4.000000,4.000000,4.000000,4.000000,4.000000,4.000000,4.000000,4.000000,4.000000,4.000000,4.000000,4.000000,4.000000,4.000000,4.000000,4.000000,4.000000,4.000000,4.000000,4.000000,4.000000,4.000000,4.000000,4.000000,4.000000,4.000000,4.000000,4.000000,4.000000,4.000000,4.000000,4.000000,100.000000
1614404242.307662,12.000000,0.000000,-3.260842,-1.207129,-3.752998,-1.433870,0.240145,1.325930,4.376814,-9.122085,-8.478701,12.319122,-5.964386,-12.688055,-12.511146,-10.301595,-6.716564,23.948427,-3.103660,13.989888,23.978586,-4.556106,-2.450706,3.220204,-10.306853,-1.070942,-6.127112,-9.507924,2.239802,4.180698,10.380299,-7.009054,1.206884,-8.429602,0.000000,189.000000,4.000000,,,,0.000000,4.000000,4.000000,4.000000,4.000000,4.000000,4.000000,4.000000,4.000000,4.000000,4.000000,4.000000,4.000000,4.000000,4.000000,4.000000,4.000000,4.000000,4.000000,4.000000,4.000000,4.000000,4.000000,4.000000,4.000000,4.000000,4.000000,4.000000,4.000000,4.000000,4.000000,4.000000,4.000000,100.000000
1614404242.315511,13.000000,0.000000,-3.257581,-1.718742,-8.364630,-1.432436,0.239905,-6.367703,4.372437,-10.138604,-16.675350,3.588855,-6.471242,-14.726649,-18.652481,-15.419498,-9.273950,16.232172,-5.664659,11.411796,20.364862,-7.115652,-7.063639,1.165702,-6.706802,-1.069871,-13.300472,-8.985596,10.442690,5.202158,7.292995,-10.591788,-3.409707,-13.036557,0.000000,205.000000,4.000000,,,,0.000000,4.000000,4.000000,4.000000,4.000000,4.000000,4.000000,4.000000,4.000000,4.000000,4.000000,4.000000,4.000000,4.000000,4.000000,4.000000,4.000000,4.000000,4.000000,4.000000,4.000000,4.000000,4.000000,4.000000,4.000000,4.000000,4.000000,4.000000,4.000000,4.000000,4.000000,4.000000,4.000000,100.000000
1614404242.323261,14.000000,0.000000,-3.254323,-1.204203,-12.458829,-0.918183,-0.273155,-4.822874,4.368065,-9.615644,-10.504828,-6.671144,-6.464771,-9.070897,-10.428699,-9.250233,-5.674932,19.292862,-5.658995,9.861922,17.780396,-7.621357,-13.723243,-3.963669,-12.341122,-1.068801,-22.005119,-17.694559,-4.952368,-5.572275,-5.534811,-17.760683,-6.483221,-16.613264,0.000000,199.000000,4.000000,,,,0.000000,4.000000,4.000000,4.000000,4.000000,4.000000,4.000000,4.000000,4.000000,4.000000,4.000000,4.000000,4.000000,4.000000,4.000000,4.000000,4.000000,4.000000,4.000000,4.000000,4.000000,4.000000,4.000000,4.000000,4.000000,4.000000,4.000000,4.000000,4.000000,4.000000,4.000000,4.000000,4.000000,100.000000
1614404242.331110,15.000000,0.000000,-3.251069,-0.690178,-8.856627,-2.455727,0.239938,2.361436,4.876518,-7.041926,-1.263555,1.540655,-3.381383,-9.574647,3.427883,-6.676880,4.587153,32.094082,-5.653336,16.518726,16.736975,-7.100915,-18.837725,-8.575090,-20.021088,-5.683117,-25.572859,-32.035839,-23.408955,-8.643625,-13.734404,-22.871128,-4.938276,-16.083830,0.000000,201.000000,4.000000,,,,0.000000,4.000000,4.000000,4.000000,4.000000,4.000000,4.000000,4.000000,4.000000,4.000000,4.000000,4.000000,4.000000,4.000000,4.000000,4.000000,4.000000,4.000000,4.000000,4.000000,4.000000,4.000000,4.000000,4.000000,4.000000,4.000000,4.000000,4.000000,4.000000,4.000000,4.000000,4.000000,4.000000,100.000000
1614404242.338859,16.000000,0.000000,-3.247818,-3.766411,-10.899053,-5.530194,0.239699,-1.743490,3.846000,-7.547705,-4.852035,6.667319,-3.890823,-11.103534,4.962916,-7.183023,6.121027,34.626091,-5.134862,24.707336,16.720238,-7.606635,-15.229143,-9.592156,-16.924145,-11.831281,-23.496004,-33.542263,-21.847084,-6.583700,-12.182208,-24.899538,-5.958979,-19.144669,0.000000,198.000000,4.000000,,,,0.000000,4.000000,4.000000,4.000000,4.000000,4.000000,4.000000,4.000000,4.000000,4.000000,4.000000,4.000000,4.000000,4.000000,4.000000,4.000000,4.000000,4.000000,4.000000,4.000000,4.000000,4.000000,4.000000,4.000000,4.000000,4.000000,4.000000,4.000000,4.000000,4.000000,4.000000,4.000000,4.000000,100.000000
1614404242.346708,17.000000,0.000000,-3.244570,-4.788286,-17.554819,-4.499023,-5.401567,-7.382771,2.303693,-12.155542,-9.975388,-1.031656,-10.040778,-10.066789,-4.272816,-9.739943,-3.115863,26.386337,-7.181009,25.195450,16.703518,-7.086207,-9.060067,-7.018462,-8.702091,-11.306628,-15.780200,-20.175388,-11.568827,-8.115578,-8.067462,-19.233614,-4.414558,-18.099884,0.000000,177.000000,4.000000,,,,0.000000,4.000000,4.000000,4.000000,4.000000,4.000000,4.000000,4.000000,4.000000,4.000000,4.000000,4.000000,4.000000,4.000000,4.000000,4.000000,4.000000,4.000000,4.000000,4.000000,4.000000,4.000000,4.000000,4.000000,4.000000,4.000000,4.000000,4.000000,4.000000,4.000000,4.000000,4.000000,4.000000,100.000000
1614404242.354458,18.000000,0.000000,-3.241326,0.857528,-8.819316,-3.981703,-11.550012,-1.734363,3.327030,-14.194669,-9.452592,1.533479,-13.620481,-9.543901,-15.550594,-16.396870,-8.753773,23.283028,-10.250751,24.144613,16.686813,-7.079121,-5.974084,-1.370417,-6.642107,-1.551732,-9.097754,-10.924444,1.263255,-7.594642,-5.495291,-6.393867,2.256523,-4.748450,0.000000,212.000000,4.000000,,,,0.000000,4.000000,4.000000,4.000000,4.000000,4.000000,4.000000,4.000000,4.000000,4.000000,4.000000,4.000000,4.000000,4.000000,4.000000,4.000000,4.000000,4.000000,4.000000,4.000000,4.000000,4.000000,4.000000,4.000000,4.000000,4.000000,4.000000,4.000000,4.000000,4.000000,4.000000,4.000000,4.000000,100.000000
1614404242.362307,19.000000,0.000000,-3.238084,1.882312,2.471554,-7.054645,-11.538462,-1.732629,3.836524,-12.642013,-8.930319,2.557586,-13.606860,-9.534358,-23.227352,-16.380472,-8.232199,24.285385,-7.163577,25.146109,16.670126,-8.097683,-1.865546,2.220697,-6.122645,9.731871,-8.575835,-11.426340,11.518402,-4.510124,-3.951335,-0.233627,3.279907,1.410144,0.000000,201.000000,4.000000,,,,0.000000,4.000000,4.000000,4.000000,4.000000,4.000000,4.000000,4.000000,4.000000,4.000000,4.000000,4.000000,4.000000,4.000000,4.000000,4.000000,4.000000,4.000000,4.000000,4.000000,4.000000,4.000000,4.000000,4.000000,4.000000,4.000000,4.000000,4.000000,4.000000,4.000000,4.000000,4.000000,4.000000,100.000000
1614404242.370056,20.000000,0.000000,-3.234846,-1.709314,-4.710404,1.157538,-8.450000,-7.884742,1.268584,-13.142191,-7.382927,-1.547536,-14.106074,-10.550465,-15.511816,-6.620502,-7.711145,23.748280,-2.541029,24.095322,16.653456,-7.063944,0.700422,1.705655,-8.167804,14.850345,-9.592900,-13.466196,1.250474,-5.018434,-4.460204,-5.874419,-1.338757,-9.360497,0.000000,173.000000,4.000000,,,,0.000000,4.000000,4.000000,4.000000,4.000000,4.000000,4.000000,4.000000,4.000000,4.000000,4.000000,4.000000,4.000000,4.000000,4.000000,4.000000,4.000000,4.000000,4.000000,4.000000,4.000000,4.000000,4.000000,4.000000,4.000000,4.000000,4.000000,4.000000,4.000000,4.000000,4.000000,4.000000,4.000000,100.000000
1614404242.377905,21.000000,0.000000,-3.231611,1.882139,-6.756976,12.438432,-6.903088,-3.774293,0.241675,-13.641870,-5.837082,14.351448,-8.963762,-10.027093,-1.650151,0.565605,-5.652153,23.211710,-3.564129,25.096869,17.149624,-7.056880,0.699721,-0.860153,-16.364765,11.245750,-8.557666,-12.939909,-17.212315,-7.064698,-3.942923,-8.432648,-2.363059,-12.428060,0.000000,212.000000,4.000000,,,,0.000000,4.000000,4.000000,4.000000,4.000000,4.000000,4.000000,4.000000,4.000000,4.000000,4.000000,4.000000,4.000000,4.000000,4.000000,4.000000,4.000000,4.000000,4.000000,4.000000,4.000000,4.000000,4.000000,4.000000,4.000000,4.000000,4.000000,4.000000,4.000000,4.000000,4.000000,4.000000,4.000000,100.000000
1614404242.385655,22.000000,0.000000,-3.228380,1.880257,1.454909,1.143942,-7.409006,-2.232058,0.754254,-13.115407,-7.882527,18.952480,-5.877876,-9.504246,-6.263885,-0.460602,-4.108038,21.137217,-6.124668,24.046129,15.594012,-14.229311,0.699022,-5.987498,-23.015066,7.644761,-9.061929,-12.414148,-21.810488,-8.083274,-3.938980,-6.372933,-1.335055,-4.723323,0.000000,193.000000,4.000000,,,,0.000000,4.000000,4.000000,4.000000,4.000000,4.000000,4.000000,4.000000,4.000000,4.000000,4.000000,4.000000,4.000000,4.000000,4.000000,4.000000,4.000000,4.000000,4.000000,4.000000,4.000000,4.000000,4.000000,4.000000,4.000000,4.000000,4.000000,4.000000,4.000000,4.000000,4.000000,4.000000,4.000000,100.000000
1614404242.393504,23.000000,0.000000,-3.225152,-8.890854,-6.238853,-18.857203,-10.991341,-16.075979,0.753499,-13.102291,-9.413106,-8.245958,-16.128408,-11.546023,-21.642237,-5.075526,-6.155213,17.013515,-5.605722,16.842596,13.527137,-18.317646,-2.378600,-9.058434,-19.915129,7.124296,-12.642611,-13.427376,-18.711754,-7.049550,-4.447862,-8.930662,-1.846541,-9.333984,0.000000,194.000000,4.000000,,,,0.000000,4.000000,4.000000,4.000000,4.000000,4.000000,4.000000,4.000000,4.000000,4.000000,4.000000,4.000000,4.000000,4.000000,4.000000,4.000000,4.000000,4.000000,4.000000,4.000000,4.000000,4.000000,4.000000,4.000000,4.000000,4.000000,4.000000,4.000000,4.000000,4.000000,4.000000,4.000000,4.000000,100.000000
1614404242.401253,24.000000,0.000000,-2.709106,-8.881964,-20.078768,-19.863985,-14.570092,-25.290672,0.752746,-13.602010,-9.403693,-14.391559,-23.291767,-12.560119,-26.235979,-10.198655,-7.174698,15.458040,-5.600117,13.236011,12.487968,-13.683943,-7.504427,-6.485272,-14.767008,4.553069,-12.629968,-13.413948,-8.949452,-3.965577,-4.443414,-11.485834,-2.357515,-20.606703,0.000000,168.000000,4.000000,,,,0.000000,4.000000,4.000000,4.000000,4.000000,4.000000,4.000000,4.000000,4.000000,4.000000,4.000000,4.000000,4.000000,4.000000,4.000000,4.000000,4.000000,4.000000,4.000000,4.000000,4.000000,4.000000,4.000000,4.000000,4.000000,4.000000,4.000000,4.000000,4.000000,4.000000,4.000000,4.000000,4.000000,100.000000
1614404242.408903,25.000000,0.000000,-3.219217,1.383329,-20.571510,-14.715917,-15.068343,-19.624357,0.751993,-11.024305,-10.419930,9.725397,-13.012065,-9.470635,-22.619999,-9.162815,-5.629062,18.006685,-5.081696,18.350979,12.988301,-10.593336,-5.445641,-1.863402,-12.188138,8.138259,-8.001953,-11.349252,4.905651,-1.397509,-4.438971,-11.987169,-1.842337,-19.560455,0.000000,223.000000,4.000000,,,,0.000000,4.000000,4.000000,4.000000,4.000000,4.000000,4.000000,4.000000,4.000000,4.000000,4.000000,4.000000,4.000000,4.000000,4.000000,4.000000,4.000000,4.000000,4.000000,4.000000,4.000000,4.000000,4.000000,4.000000,4.000000,4.000000,4.000000,4.000000,4.000000,4.000000,4.000000,4.000000,4.000000,100.000000
1614404242.416652,26.000000,0.000000,-3.728818,-0.669337,-19.012478,-16.752483,-15.053274,-15.502168,0.751241,-6.397896,-7.845408,14.843877,-1.204181,-6.897062,-15.930713,-0.948524,-4.084971,23.116884,-3.025332,21.409552,12.462492,-11.095564,-0.311990,-1.348719,-10.637488,17.873711,-2.352926,-9.286621,3.362283,-2.934573,-4.434532,-11.462361,-1.840494,-12.361406,0.000000,211.000000,4.000000,,,,0.000000,4.000000,4.000000,4.000000,4.000000,4.000000,4.000000,4.000000,4.000000,4.000000,4.000000,4.000000,4.000000,4.000000,4.000000,4.000000,4.000000,4.000000,4.000000,4.000000,4.000000,4.000000,4.000000,4.000000,4.000000,4.000000,4.000000,4.000000,4.000000,4.000000,4.000000,4.000000,4.000000,100.000000
1614404242.424301,27.000000,0.000000,-2.699449,-4.258411,-18.993465,-16.735729,-14.525401,-15.486666,0.750490,-4.853037,-1.170896,7.136725,-4.279900,-5.351704,-9.248116,-0.947576,-4.080887,23.606586,-3.022307,20.362501,13.475671,-7.494724,0.713963,-1.347370,-10.114031,18.368658,-0.812111,-9.277334,-8.435950,-4.470100,-4.430097,-10.938079,-1.838654,-11.836225,0.000000,185.000000,4.000000,,,,0.000000,4.000000,4.000000,4.000000,4.000000,4.000000,4.000000,4.000000,4.000000,4.000000,4.000000,4.000000,4.000000,4.000000,4.000000,4.000000,4.000000,4.000000,4.000000,4.000000,4.000000,4.000000,4.000000,4.000000,4.000000,4.000000,4.000000,4.000000,4.000000,4.000000,4.000000,4.000000,4.000000,100.000000
1614404242.432051,28.000000,0.000000,-2.696749,0.874053,-12.307804,-16.206173,-15.023696,-15.471179,0.749739,-5.361004,0.881557,-2.101181,-17.608953,-6.371993,-18.469637,-15.305603,-8.692190,17.941956,-4.557746,20.854959,16.026297,-9.538511,-0.312392,-2.884484,-9.591096,10.145161,-2.862581,-9.780877,-11.504437,-3.439989,-4.938488,-12.465602,-1.836815,-12.850030,0.000000,173.000000,4.000000,,,,0.000000,4.000000,4.000000,4.000000,4.000000,4.000000,4.000000,4.000000,4.000000,4.000000,4.000000,4.000000,4.000000,4.000000,4.000000,4.000000,4.000000,4.000000,4.000000,4.000000,4.000000,4.000000,4.000000,4.000000,4.000000,4.000000,4.000000,4.000000,4.000000,4.000000,4.000000,4.000000,4.000000,100.000000
1614404242.439700,29.000000,0.000000,-7.309437,-0.665283,-7.167292,-16.189968,-15.521493,-15.455708,0.748990,-5.868464,-2.196248,-13.893951,-25.796473,-15.083570,-30.758860,-24.008245,-14.837344,15.872731,-5.578829,20.321283,17.035912,-15.682819,0.200741,-4.932881,-9.581505,8.596554,-4.911001,-9.258276,-10.467292,-3.436549,-4.933549,-15.017239,-1.834978,-12.324359,0.000000,195.000000,4.000000,,,,0.000000,4.000000,4.000000,4.000000,4.000000,4.000000,4.000000,4.000000,4.000000,4.000000,4.000000,4.000000,4.000000,4.000000,4.000000,4.000000,4.000000,4.000000,4.000000,4.000000,4.000000,4.000000,4.000000,4.000000,4.000000,4.000000,4.000000,4.000000,4.000000,4.000000,4.000000,4.000000,4.000000,100.000000
1614404242.447449,30.000000,0.000000,-10.379050,-2.715900,-8.185765,-10.532752,-11.403407,-14.414611,1.261061,-5.862595,-2.194052,-5.674930,-18.591188,-15.581306,-18.420408,-11.163725,-10.719943,21.497885,-6.598892,21.839424,16.506056,-11.564572,0.713361,-4.927948,-10.597565,10.639239,-5.418910,-9.761838,-7.892722,-3.945933,-3.902974,-13.976581,-1.833143,-12.312035,0.000000,198.000000,4.000000,,,,0.000000,4.000000,4.000000,4.000000,4.000000,4.000000,4.000000,4.000000,4.000000,4.000000,4.000000,4.000000,4.000000,4.000000,4.000000,4.000000,4.000000,4.000000,4.000000,4.000000,4.000000,4.000000,4.000000,4.000000,4.000000,4.000000,4.000000,4.000000,4.000000,4.000000,4.000000,4.000000,4.000000,100.000000
1614404242.455099,31.000000,0.000000,-7.804569,0.876560,-8.690400,-4.881194,-5.238158,-11.836094,-0.278661,-5.343912,-1.679037,11.253822,-6.777726,-0.693930,-1.478911,7.821798,0.060008,26.604591,-2.489728,24.381687,16.489550,-4.886341,-0.312993,-2.871739,-10.074146,9.602960,-5.413491,-9.752076,-2.243804,-3.941987,-5.437533,-11.911322,-1.831310,-12.299723,0.000000,164.000000,4.000000,,,,0.000000,4.000000,4.000000,4.000000,4.000000,4.000000,4.000000,4.000000,4.000000,4.000000,4.000000,4.000000,4.000000,4.000000,4.000000,4.000000,4.000000,4.000000,4.000000,4.000000,4.000000,4.000000,4.000000,4.000000,4.000000,4.000000,4.000000,4.000000,4.000000,4.000000,4.000000,4.000000,4.000000,100.000000
1614404242.462848,32.000000,0.000000,-7.796764,-3.226881,-7.656069,-4.876312,-3.181637,-11.311438,-2.842485,-8.415491,-4.754281,4.575902,-7.796589,2.896507,-8.144098,3.198591,-1.991334,28.116447,-3.512880,18.716280,14.934599,-7.445557,-0.312680,-1.330405,-10.576893,9.080536,-5.920898,-10.767965,-1.215919,-4.963686,-5.432096,-11.386590,-1.829479,-12.800243,8064.000000,0.000000,4.000000,,,,0.000000,4.000000,4.000000,4.000000,4.000000,4.000000,4.000000,4.000000,4.000000,4.000000,4.000000,4.000000,4.000000,4.000000,4.000000,4.000000,4.000000,4.000000,4.000000,4.000000,4.000000,4.000000,4.000000,4.000000,4.000000,4.000000,4.000000,4.000000,4.000000,4.000000,4.000000,4.000000,4.000000,100.000000
1614404242.470498,33.000000,0.000000,-9.840250,-2.198013,-7.135592,-4.358615,-2.665635,-10.787306,-2.839643,-17.125025,-5.262347,-1.582520,-19.070845,-11.465364,-20.956467,-17.317427,-16.348318,26.037050,-17.355520,9.979615,14.406843,-11.027855,0.713273,-1.329075,-16.207342,9.071455,-5.914978,-9.218736,-3.265985,-3.933081,2.265645,-10.862383,-1.827649,-12.274623,8064.000000,0.000000,4.000000,,,,0.000000,4.000000,4.000000,4.000000,4.000000,4.000000,4.000000,4.000000,4.000000,4.000000,4.000000,4.000000,4.000000,4.000000,4.000000,4.000000,4.000000,4.000000,4.000000,4.000000,4.000000,4.000000,4.000000,4.000000,4.000000,4.000000,4.000000,4.000000,4.000000,4.000000,4.000000,4.000000,4.000000,100.000000
1614404242.478247,34.000000,0.000000,-10.856050,11.137518,-8.666918,-1.277334,-3.175790,-6.673954,-2.836803,-21.723284,-5.769905,-0.555297,-25.205620,-19.659027,-23.499613,-25.505238,-19.921713,20.882807,-23.492012,7.918353,11.828334,-11.529648,-1.851542,-1.840567,-22.344980,7.011102,-5.396242,-9.209517,-3.262719,-3.416328,6.365943,-12.389982,-1.825822,-9.185425,8064.000000,0.000000,4.000000,,,,0.000000,4.000000,4.000000,4.000000,4.000000,4.000000,4.000000,4.000000,4.000000,4.000000,4.000000,4.000000,4.000000,4.000000,4.000000,4.000000,4.000000,4.000000,4.000000,4.000000,4.000000,4.000000,4.000000,4.000000,4.000000,4.000000,4.000000,4.000000,4.000000,4.000000,4.000000,4.000000,4.000000,100.000000
1614404242.485896,35.000000,0.000000,-11.870835,7.536637,-8.658251,-1.788877,-4.198256,-3.590357,-4.372428,-18.111816,-6.276956,-9.785510,-14.411183,-12.972701,-17.322268,-20.351528,-5.542817,21.887566,-10.135186,12.525820,11.303685,-13.056580,-3.388153,-1.325905,-21.809814,5.465629,-5.903666,-11.764410,-5.310739,-7.515476,2.769833,-11.864772,-1.823996,-5.586496,8064.000000,0.000000,4.000000,,,,0.000000,4.000000,4.000000,4.000000,4.000000,4.000000,4.000000,4.000000,4.000000,4.000000,4.000000,4.000000,4.000000,4.000000,4.000000,4.000000,4.000000,4.000000,4.000000,4.000000,4.000000,4.000000,4.000000,4.000000,4.000000,4.000000,4.000000,4.000000,4.000000,4.000000,4.000000,4.000000,4.000000,100.000000
1614404242.493646,36.000000,0.000000,-6.730760,-3.752951,-3.521388,1.802655,0.934148,-3.586767,0.760150,-8.862936,-1.142474,0.480685,6.628869,2.424887,1.156593,-10.074766,7.283239,33.147728,3.208282,20.205601,22.574432,-3.812754,2.256261,2.777985,-13.582877,4.947343,-4.359301,-5.085979,0.335598,-4.431037,6.356807,-3.134958,-1.822172,-4.555268,8064.000000,0.000000,4.000000,,,,0.000000,4.000000,4.000000,4.000000,4.000000,4.000000,4.000000,4.000000,4.000000,4.000000,4.000000,4.000000,4.000000,4.000000,4.000000,4.000000,4.000000,4.000000,4.000000,4.000000,4.000000,4.000000,4.000000,4.000000,4.000000,4.000000,4.000000,4.000000,4.000000,4.000000,4.000000,4.000000,4.000000,100.000000
1614404242.501295,37.000000,0.000000,5.070843,3.943110,-3.005046,8.980340,4.010137,-4.096000,8.451697,-1.161766,1.422771,23.044308,15.340189,12.166052,6.796463,1.217360,6.763135,39.781250,5.769177,24.800779,34.859550,10.037212,10.459133,7.903412,-4.851346,7.506498,0.260443,9.278081,17.258339,7.368266,14.042758,3.022023,-1.820350,-5.063534,8064.000000,0.000000,4.000000,,,,0.000000,4.000000,4.000000,4.000000,4.000000,4.000000,4.000000,4.000000,4.000000,4.000000,4.000000,4.000000,4.000000,4.000000,4.000000,4.000000,4.000000,4.000000,4.000000,4.000000,4.000000,4.000000,4.000000,4.000000,4.000000,4.000000,4.000000,4.000000,4.000000,4.000000,4.000000,4.000000,4.000000,100.000000
