title:18, start timestamp:1614404626.309574, stop timestamp:1614404672.199063, headset type:EPOCFLEX, headset serial:F00001ED, headset firmware:f12, subject name:s11, channels:75, sampling rate:128, samples:5920      , version:2.0
Timestamp,EEG.Counter,EEG.Interpolated,EEG.Cz,EEG.Fz,EEG.Fp1,EEG.AF3,EEG.F7,EEG.F3,EEG.FC1,EEG.C3,EEG.FC5,EEG.T7,EEG.CP5,EEG.CP1,EEG.P3,EEG.P7,EEG.PO3,EEG.O1,EEG.Pz,EEG.Oz,EEG.O2,EEG.PO4,EEG.P8,EEG.P4,EEG.CP2,EEG.CP6,EEG.T8,EEG.FC6,EEG.C4,EEG.FC2,EEG.F4,EEG.F8,EEG.AF4,EEG.Fp2,EEG.HighBitFlex,EEG.RawCq,EEG.Battery,MarkerIndex,MarkerType,MarkerValueInt,EEG.MarkerHardware,CQ.Cz,CQ.Fz,CQ.Fp1,CQ.AF3,CQ.F7,CQ.F3,CQ.FC1,CQ.C3,CQ.FC5,CQ.T7,CQ.CP5,CQ.CP1,CQ.P3,CQ.P7,CQ.PO3,CQ.O1,CQ.Pz,CQ.Oz,CQ.O2,CQ.PO4,CQ.P8,CQ.P4,CQ.CP2,CQ.CP6,CQ.T8,CQ.FC6,CQ.C4,CQ.FC2,CQ.F4,CQ.F8,CQ.AF4,CQ.Fp2,CQ.Overall
1614404626.309574,31.000000,0.000000,-17.658747,13.777513,60.964207,23.830313,43.588318,35.114174,3.908172,-2.117565,18.297405,-137.981064,-15.203237,-36.813213,-21.340605,-19.553141,-31.772516,22.880173,-30.936314,-21.740988,-53.372372,-59.464264,-50.665699,-54.502258,-35.565674,-14.599179,-25.624714,-40.596806,-26.332962,-21.148012,-43.795006,-79.529907,-11.048198,-9.765572,0.000000,175.000000,4.000000,,,,0.000000,4.000000,4.000000,4.000000,4.000000,4.000000,4.000000,4.000000,4.000000,4.000000,4.000000,4.000000,4.000000,4.000000,4.000000,4.000000,4.000000,4.000000,4.000000,4.000000,4.000000,4.000000,4.000000,4.000000,4.000000,4.000000,4.000000,4.000000,4.000000,4.000000,4.000000,2.000000,4.000000,83.333336
1614404626.317423,32.000000,0.000000,-18.666729,13.250915,67.569908,23.293663,41.493446,24.309828,2.878623,-9.294934,13.150903,-135.791794,-28.008547,-45.494350,-30.550032,-32.354099,-36.356129,14.139344,-39.110504,-21.206427,-49.216434,-66.584290,-59.332981,-65.216988,-41.683956,-25.353811,-25.086267,-47.222874,-42.716885,-24.716608,-45.802494,-82.527298,-11.037149,-12.319908,8064.000000,0.000000,4.000000,,,,0.000000,4.000000,4.000000,4.000000,4.000000,4.000000,4.000000,4.000000,4.000000,4.000000,4.000000,4.000000,4.000000,4.000000,4.000000,4.000000,4.000000,4.000000,4.000000,4.000000,4.000000,4.000000,4.000000,4.000000,4.000000,4.000000,4.000000,4.000000,4.000000,4.000000,4.000000,2.000000,4.000000,83.333336
1614404626.325172,33.000000,0.000000,-5.827549,9.135099,70.066444,15.578061,41.451954,20.182955,4.414206,1.996412,17.753136,-126.425232,-9.006179,-25.448854,-12.570765,-15.911490,-28.114643,30.535461,-21.635498,-5.287784,-35.321064,-42.415138,-47.991596,-45.151768,-28.308937,-28.405380,-26.086823,-48.201290,-26.263912,-20.589327,-46.269508,-80.906311,-10.513291,-7.692204,8064.000000,0.000000,4.000000,,,,0.000000,4.000000,4.000000,4.000000,4.000000,4.000000,4.000000,4.000000,4.000000,4.000000,4.000000,4.000000,4.000000,4.000000,4.000000,4.000000,4.000000,4.000000,4.000000,4.000000,4.000000,4.000000,4.000000,4.000000,4.000000,4.000000,4.000000,4.000000,4.000000,4.000000,4.000000,2.000000,4.000000,83.333336
1614404626.333021,34.000000,0.000000,4.947509,8.100324,68.457916,13.511201,41.410500,21.701233,6.973894,17.891851,30.043076,-121.170609,11.515648,-6.449048,5.390524,2.053139,-15.778837,45.376720,-4.177964,5.999555,-31.183178,-23.911186,-31.533350,-25.106617,-18.024220,-17.607744,-29.650480,-46.101807,-2.135084,-16.466173,-45.710419,-81.851044,-11.528419,-7.171691,8064.000000,0.000000,4.000000,,,,0.000000,4.000000,4.000000,4.000000,4.000000,4.000000,4.000000,4.000000,4.000000,4.000000,4.000000,4.000000,4.000000,4.000000,4.000000,4.000000,4.000000,4.000000,4.000000,4.000000,4.000000,4.000000,4.000000,4.000000,4.000000,4.000000,4.000000,4.000000,4.000000,4.000000,4.000000,2.000000,4.000000,83.333336
1614404626.340770,35.000000,0.000000,0.839997,6.040941,68.389458,15.548972,40.856270,20.653891,6.454099,18.899601,29.500212,-120.536613,9.965672,-7.468239,8.462057,4.615189,-10.122032,47.382626,-4.686607,5.480735,-23.459688,-17.220608,-21.758226,-19.440485,-18.006195,-10.923470,-28.595188,-43.491604,1.456795,-16.449707,-45.151890,-84.333298,-12.029712,-18.959391,8192.000000,0.000000,4.000000,,,,0.000000,4.000000,4.000000,4.000000,4.000000,4.000000,4.000000,4.000000,4.000000,4.000000,4.000000,4.000000,4.000000,4.000000,4.000000,4.000000,4.000000,4.000000,4.000000,4.000000,4.000000,4.000000,4.000000,4.000000,4.000000,4.000000,4.000000,4.000000,4.000000,4.000000,4.000000,2.000000,4.000000,83.333336
1614404626.348619,36.000000,0.000000,-3.263407,6.034900,70.372353,15.020602,42.866695,25.761442,9.011747,13.752496,21.778404,-114.775055,10.468526,-8.486412,15.633082,11.790060,4.247064,61.694218,3.523208,10.090639,-2.923407,1.770971,-10.454416,-5.062070,-14.398444,-10.912546,-22.412746,-41.396832,-1.108765,-15.920437,-45.106739,-84.248962,-9.453579,-24.581457,8064.000000,0.000000,4.000000,,,,0.000000,4.000000,4.000000,4.000000,4.000000,4.000000,4.000000,4.000000,4.000000,4.000000,4.000000,4.000000,4.000000,4.000000,4.000000,4.000000,4.000000,4.000000,4.000000,4.000000,4.000000,4.000000,4.000000,4.000000,4.000000,4.000000,4.000000,4.000000,4.000000,4.000000,4.000000,2.000000,4.000000,83.333336
1614404626.356368,37.000000,0.000000,-0.696041,3.977583,67.737877,15.005582,45.900753,29.325424,16.182222,15.790025,23.807907,-111.070534,19.688828,0.752843,24.335398,24.085962,22.191534,79.581238,20.955582,21.875420,3.746183,12.538431,-7.879859,5.712223,-7.204559,-6.286249,-22.903154,-43.919537,-0.594836,-15.904516,-46.087273,-85.190353,-15.085151,-23.531235,8192.000000,0.000000,4.000000,,,,0.000000,4.000000,4.000000,4.000000,4.000000,4.000000,4.000000,4.000000,4.000000,4.000000,4.000000,4.000000,4.000000,4.000000,4.000000,4.000000,4.000000,4.000000,4.000000,4.000000,4.000000,4.000000,4.000000,4.000000,4.000000,4.000000,4.000000,4.000000,4.000000,4.000000,4.000000,2.000000,4.000000,83.333336
1614404626.364017,38.000000,0.000000,0.843117,-3.718702,58.439369,13.452115,44.829212,20.065329,14.114758,16.799875,25.322561,-119.677414,16.079393,1.777732,20.208498,22.523415,13.964215,71.809349,18.883345,17.750980,-9.590897,4.320765,-22.230953,-0.960156,-4.120431,0.386704,-30.059738,-46.439720,0.944221,-16.401432,-45.528362,-90.233368,-29.941860,-31.200012,8192.000000,0.000000,4.000000,,,,0.000000,4.000000,4.000000,4.000000,4.000000,4.000000,4.000000,4.000000,4.000000,4.000000,4.000000,4.000000,4.000000,4.000000,4.000000,4.000000,4.000000,4.000000,4.000000,4.000000,4.000000,4.000000,4.000000,4.000000,4.000000,4.000000,4.000000,4.000000,4.000000,4.000000,4.000000,2.000000,4.000000,83.333336
1614404626.371766,39.000000,0.000000,1.355094,-6.791906,53.252724,14.977124,44.271561,17.993982,7.433978,10.116409,17.604931,-127.762863,6.832546,-13.095841,15.060084,8.141917,-3.998467,55.327286,5.018308,-2.779591,-20.350536,-4.401505,-39.131802,-10.189965,-10.270157,-0.126503,-33.619423,-45.880459,0.943277,-16.385031,-44.970016,-96.809807,-32.988842,-38.348297,8192.000000,0.000000,4.000000,,,,0.000000,4.000000,4.000000,4.000000,4.000000,4.000000,4.000000,4.000000,4.000000,4.000000,4.000000,4.000000,4.000000,4.000000,4.000000,4.000000,4.000000,4.000000,4.000000,4.000000,4.000000,4.000000,4.000000,4.000000,4.000000,4.000000,4.000000,4.000000,4.000000,4.000000,4.000000,2.000000,4.000000,83.333336
1614404626.379416,40.000000,0.000000,-4.287287,-2.169730,55.763573,21.115993,45.765751,32.847782,9.477825,3.439626,17.074505,-127.122276,2.210328,-26.416079,6.839896,-7.763660,-8.609853,48.605293,-6.268762,-15.084503,-31.099417,-18.756079,-48.836258,-23.000288,-22.054758,-9.869967,-32.047340,-55.065350,-12.391000,-17.907108,-52.617352,-102.866837,-24.237904,-38.822769,8064.000000,0.000000,4.000000,,,,0.000000,4.000000,4.000000,4.000000,4.000000,4.000000,4.000000,4.000000,4.000000,4.000000,4.000000,4.000000,4.000000,4.000000,4.000000,4.000000,4.000000,4.000000,4.000000,4.000000,4.000000,4.000000,4.000000,4.000000,4.000000,4.000000,4.000000,4.000000,4.000000,4.000000,4.000000,2.000000,4.000000,83.333336
1614404626.387165,41.000000,0.000000,-15.052230,-1.654740,54.682167,17.505133,41.104599,33.840576,10.493989,2.923366,16.544611,-130.584900,-14.714959,-27.415304,-15.218225,-24.166153,-25.524321,32.659252,-22.672750,-17.120701,-48.504215,-41.814243,-58.531010,-47.592670,-32.801933,-24.219070,-32.015293,-74.497459,-31.865789,-25.068687,-64.359604,-110.969101,-24.726486,-40.322411,8064.000000,0.000000,4.000000,,,,0.000000,4.000000,4.000000,4.000000,4.000000,4.000000,4.000000,4.000000,4.000000,4.000000,4.000000,4.000000,4.000000,4.000000,4.000000,4.000000,4.000000,4.000000,4.000000,4.000000,4.000000,4.000000,4.000000,4.000000,4.000000,4.000000,4.000000,4.000000,4.000000,4.000000,4.000000,2.000000,4.000000,83.333336
1614404626.394814,42.000000,0.000000,-12.985896,-7.294111,49.499279,7.231218,31.319906,17.909300,4.842469,3.433264,5.246015,-138.659439,-33.674603,-26.362247,-32.638905,-37.475319,-49.088539,8.011208,-29.829565,-21.206144,-60.250584,-56.131405,-64.113503,-61.391232,-34.820415,-32.912800,-33.008919,-81.602455,-32.859562,-28.633362,-63.782429,-114.447876,-30.855606,-39.256447,7936.000000,0.000000,4.000000,,,,0.000000,4.000000,4.000000,4.000000,4.000000,4.000000,4.000000,4.000000,4.000000,4.000000,4.000000,4.000000,4.000000,4.000000,4.000000,4.000000,4.000000,4.000000,4.000000,4.000000,4.000000,4.000000,4.000000,4.000000,4.000000,4.000000,4.000000,4.000000,4.000000,4.000000,4.000000,2.000000,4.000000,83.333336
1614404626.402563,43.000000,0.000000,-1.690859,-9.338099,51.501064,10.300910,31.801407,19.942673,2.273524,3.429830,2.163846,-132.879761,-29.025543,-26.848705,-27.990881,-37.950665,-44.424065,5.439094,-19.030504,-22.723400,-57.626228,-55.049633,-59.946827,-53.124714,-28.631748,-34.418350,-31.950270,-68.700333,-21.031832,-17.322678,-52.436592,-105.615479,-25.696547,-34.601807,8064.000000,0.000000,4.000000,,,,0.000000,4.000000,4.000000,4.000000,4.000000,4.000000,4.000000,4.000000,4.000000,4.000000,4.000000,4.000000,4.000000,4.000000,4.000000,4.000000,4.000000,4.000000,4.000000,4.000000,4.000000,4.000000,4.000000,4.000000,4.000000,4.000000,4.000000,4.000000,4.000000,4.000000,4.000000,2.000000,4.000000,83.333336
1614404626.410212,44.000000,0.000000,-3.227629,-1.636453,58.629051,20.547020,46.641399,35.820168,3.809712,3.426400,17.033476,-121.464828,-15.663185,-27.334677,-13.603916,-24.066561,-25.405283,25.946476,-11.831986,-14.495548,-46.799374,-44.225353,-51.681755,-43.327999,-21.936449,-33.871109,-29.354218,-57.862404,-18.446697,-4.997663,-47.255951,-94.740631,-17.978542,-33.541561,8064.000000,0.000000,4.000000,,,,0.000000,4.000000,4.000000,4.000000,4.000000,4.000000,4.000000,4.000000,4.000000,4.000000,4.000000,4.000000,4.000000,4.000000,4.000000,4.000000,4.000000,4.000000,4.000000,4.000000,4.000000,4.000000,4.000000,4.000000,4.000000,4.000000,4.000000,4.000000,4.000000,4.000000,4.000000,2.000000,4.000000,83.333336
1614404626.417961,45.000000,0.000000,-13.480812,6.057491,67.288368,23.090574,59.415272,40.912552,3.805902,2.910154,28.811316,-118.266441,-7.955214,-26.794521,-5.898005,-4.555315,-22.815775,38.741043,-12.845796,-4.224642,-35.470520,-34.950359,-40.860840,-42.771851,-21.914513,-29.734674,-27.786402,-58.317364,-19.453892,-8.069589,-51.824081,-94.645889,-17.447742,-34.020840,8064.000000,0.000000,4.000000,,,,0.000000,4.000000,4.000000,4.000000,4.000000,4.000000,4.000000,4.000000,4.000000,4.000000,4.000000,4.000000,4.000000,4.000000,4.000000,4.000000,4.000000,4.000000,4.000000,4.000000,4.000000,4.000000,4.000000,4.000000,4.000000,4.000000,4.000000,4.000000,4.000000,4.000000,4.000000,2.000000,4.000000,83.333336
1614404626.425610,46.000000,0.000000,-15.005793,2.974511,74.400566,22.554665,63.458420,39.333176,3.802097,3.932884,28.269684,-118.148170,4.873254,-20.101061,-0.763902,8.782574,-20.741678,37.676659,-6.679103,2.959069,-27.229923,-30.812843,-27.486647,-35.549591,-21.379778,-24.063915,-29.809896,-56.207764,-15.844695,-15.753826,-56.387642,-97.628166,-17.943115,-30.397078,8064.000000,0.000000,4.000000,,,,0.000000,4.000000,4.000000,4.000000,4.000000,4.000000,4.000000,4.000000,4.000000,4.000000,4.000000,4.000000,4.000000,4.000000,4.000000,4.000000,4.000000,4.000000,4.000000,4.000000,4.000000,4.000000,4.000000,4.000000,4.000000,4.000000,4.000000,4.000000,4.000000,4.000000,4.000000,2.000000,4.000000,83.333336
1614404626.433359,47.000000,0.000000,-10.375402,-6.259233,74.838989,18.942366,62.369320,36.216919,2.772653,10.082798,27.728592,-115.465919,18.714535,-6.234806,8.980453,18.004560,-3.797859,44.818470,0.507063,8.597136,-17.459103,-14.884595,-18.228392,-18.078144,-13.153271,-22.501390,-31.831369,-47.433609,-13.777568,-16.250893,-55.305611,-96.504898,-18.437992,-29.341040,8192.000000,0.000000,4.000000,,,,0.000000,4.000000,4.000000,4.000000,4.000000,4.000000,4.000000,4.000000,4.000000,4.000000,4.000000,4.000000,4.000000,4.000000,4.000000,4.000000,4.000000,4.000000,4.000000,4.000000,4.000000,4.000000,4.000000,4.000000,4.000000,4.000000,4.000000,4.000000,4.000000,4.000000,4.000000,2.000000,4.000000,83.333336
1614404626.441009,48.000000,0.000000,-10.365026,-9.842717,69.635941,13.282397,57.178745,30.026857,3.795522,15.713740,28.726505,-113.299171,21.772743,2.489377,23.330446,28.755787,13.129016,64.773651,0.506556,13.716743,-7.698054,8.207213,-16.671701,-7.803657,-9.550373,-21.453247,-31.799538,-43.796429,-14.276611,-15.209002,-54.737488,-97.946854,-21.496477,-32.388622,8064.000000,0.000000,4.000000,,,,0.000000,4.000000,4.000000,4.000000,4.000000,4.000000,4.000000,4.000000,4.000000,4.000000,4.000000,4.000000,4.000000,4.000000,4.000000,4.000000,4.000000,4.000000,4.000000,4.000000,4.000000,4.000000,4.000000,4.000000,4.000000,4.000000,4.000000,4.000000,4.000000,4.000000,4.000000,2.000000,4.000000,83.333336
1614404626.448758,49.000000,0.000000,-11.380302,-7.268772,68.540665,16.346039,56.608746,31.022472,7.381470,15.698027,28.697779,-110.108955,19.699688,3.512529,27.409679,28.727030,17.731272,76.503746,5.121434,13.703027,-6.151895,10.763108,-19.731953,-10.872776,-14.156208,-18.354872,-31.767738,-45.291096,-14.262335,-16.219433,-56.221210,-100.925835,-21.474981,-34.407513,8064.000000,0.000000,4.000000,,,,0.000000,4.000000,4.000000,4.000000,4.000000,4.000000,4.000000,4.000000,4.000000,4.000000,4.000000,4.000000,4.000000,4.000000,4.000000,4.000000,4.000000,4.000000,4.000000,4.000000,4.000000,4.000000,4.000000,4.000000,4.000000,4.000000,4.000000,4.000000,4.000000,4.000000,4.000000,2.000000,4.000000,83.333336
1614404626.456407,50.000000,0.000000,-10.856102,-5.723042,68.472130,20.945076,63.218803,38.170937,5.322806,12.605406,28.156260,-106.409096,17.628706,2.483376,24.305347,17.929073,17.200720,76.940063,10.757339,12.663683,-9.735487,4.598499,-18.686579,-10.861903,-13.629231,-18.336515,-32.248791,-45.245804,-15.273713,-16.203215,-55.652168,-100.824905,-20.940685,-31.809004,8064.000000,0.000000,4.000000,,,,0.000000,4.000000,4.000000,4.000000,4.000000,4.000000,4.000000,4.000000,4.000000,4.000000,4.000000,4.000000,4.000000,4.000000,4.000000,4.000000,4.000000,4.000000,4.000000,4.000000,4.000000,4.000000,4.000000,4.000000,4.000000,4.000000,4.000000,4.000000,4.000000,4.000000,4.000000,2.000000,4.000000,83.333336
1614404626.464256,51.000000,0.000000,-10.332425,-5.204498,66.865196,18.872850,66.232506,39.671227,3.779022,11.567160,27.615284,-106.815514,17.098257,5.044995,24.281042,13.295759,17.696339,76.350304,11.772222,14.189481,-11.264213,5.106721,-18.667892,-9.312580,-7.974576,-18.318180,-32.729362,-46.739021,-13.719978,-16.187010,-54.570873,-102.262543,-25.535130,-32.802837,7936.000000,0.000000,4.000000,,,,0.000000,4.000000,4.000000,4.000000,4.000000,4.000000,4.000000,4.000000,4.000000,4.000000,4.000000,4.000000,4.000000,4.000000,4.000000,4.000000,4.000000,4.000000,4.000000,4.000000,4.000000,4.000000,4.000000,4.000000,4.000000,4.000000,4.000000,4.000000,4.000000,4.000000,4.000000,2.000000,4.000000,83.333336
1614404626.472005,52.000000,0.000000,-10.322093,-5.199294,63.721405,18.341156,58.473969,39.118736,10.441910,13.606874,28.100489,-111.836899,15.542698,7.604053,20.154196,5.077335,3.832489,62.427803,10.221988,5.970163,-20.996538,-11.308641,-35.572300,-21.610960,-6.428140,-13.684477,-38.850479,-54.384590,-13.706258,-16.170824,-59.644508,-114.980797,-32.176262,-47.129009,8064.000000,0.000000,4.000000,,,,0.000000,4.000000,4.000000,4.000000,4.000000,4.000000,4.000000,4.000000,4.000000,4.000000,4.000000,4.000000,4.000000,4.000000,4.000000,4.000000,4.000000,4.000000,4.000000,4.000000,4.000000,4.000000,4.000000,4.000000,4.000000,4.000000,4.000000,4.000000,4.000000,4.000000,4.000000,2.000000,4.000000,83.333336
1614404626.479854,53.000000,0.000000,-10.311770,-5.194094,51.349991,17.809994,51.748829,38.566795,13.508390,13.593267,28.072388,-118.904549,2.193822,0.929782,5.775068,-20.055946,-23.350830,35.698708,-1.070285,-17.112730,-44.565285,-41.553745,-64.254677,-44.153450,-10.011456,-18.286177,-49.068039,-64.586617,-23.948961,-15.641832,-65.738708,-135.891449,-35.221008,-64.004959,7936.000000,0.000000,4.000000,,,,0.000000,4.000000,4.000000,4.000000,4.000000,4.000000,4.000000,4.000000,4.000000,4.000000,4.000000,4.000000,4.000000,4.000000,4.000000,4.000000,4.000000,4.000000,4.000000,4.000000,4.000000,4.000000,4.000000,4.000000,4.000000,4.000000,4.000000,4.000000,4.000000,4.000000,4.000000,2.000000,4.000000,83.333336
1614404626.487603,54.000000,0.000000,-10.814280,-4.676080,40.529411,12.663980,50.671440,32.887203,6.315395,11.015572,25.480213,-122.888206,-9.090424,-4.712174,-5.512758,-29.779482,-36.660812,23.355316,-17.992292,-26.326387,-58.366875,-51.255779,-71.882729,-54.365707,-11.027085,-33.652508,-51.070255,-69.650230,-34.181423,-17.164652,-67.211433,-141.396591,-36.211430,-68.043518,7808.000000,0.000000,4.000000,,,,0.000000,4.000000,4.000000,4.000000,4.000000,4.000000,4.000000,4.000000,4.000000,4.000000,4.000000,4.000000,4.000000,4.000000,4.000000,4.000000,4.000000,4.000000,4.000000,4.000000,4.000000,4.000000,4.000000,4.000000,4.000000,4.000000,4.000000,4.000000,4.000000,4.000000,4.000000,2.000000,4.000000,83.333336
1614404626.495452,55.000000,0.000000,-9.777824,-5.184224,51.770931,12.651316,51.646408,27.213291,2.206516,9.978915,23.403452,-122.252502,-1.389025,3.497667,-4.481605,-8.211240,-30.470306,28.460165,-18.999941,-12.966726,-49.077736,-46.076317,-54.887772,-46.619034,-8.451956,-36.695778,-39.224312,-62.401096,-31.583139,-19.711590,-66.631401,-123.306473,-36.175217,-65.924187,7936.000000,0.000000,4.000000,,,,0.000000,4.000000,4.000000,4.000000,4.000000,4.000000,4.000000,4.000000,4.000000,4.000000,4.000000,4.000000,4.000000,4.000000,4.000000,4.000000,4.000000,4.000000,4.000000,4.000000,4.000000,4.000000,4.000000,4.000000,4.000000,4.000000,4.000000,4.000000,4.000000,4.000000,4.000000,2.000000,4.000000,83.333336
1614404626.503201,56.000000,0.000000,-11.306508,-5.179040,64.026855,17.254049,50.569122,27.186077,3.229950,10.994576,24.405689,-121.617432,1.689287,4.006989,-3.451482,-1.023542,-26.850092,29.457346,-19.493761,-6.799914,-42.361992,-50.645626,-52.268780,-46.059593,-16.135811,-26.402670,-35.082523,-57.210487,-28.987453,-19.691877,-65.539131,-114.465218,-36.651863,-66.883904,8064.000000,0.000000,4.000000,,,,0.000000,4.000000,4.000000,4.000000,4.000000,4.000000,4.000000,4.000000,4.000000,4.000000,4.000000,4.000000,4.000000,4.000000,4.000000,4.000000,4.000000,4.000000,4.000000,4.000000,4.000000,4.000000,4.000000,4.000000,4.000000,4.000000,4.000000,4.000000,4.000000,4.000000,4.000000,2.000000,4.000000,83.333336
1614404626.511050,57.000000,0.000000,-17.961868,-5.173861,51.655132,16.723974,45.390347,27.671711,3.739541,10.983582,22.842821,-122.521454,-13.184197,-8.817531,-11.653159,-19.996878,-31.951447,26.350965,-39.987087,-18.075165,-52.063221,-61.364212,-74.780617,-64.475075,-39.709419,-29.966011,-50.944878,-66.384048,-41.266159,-19.672186,-67.012054,-132.812286,-38.666492,-66.304199,8064.000000,0.000000,4.000000,,,,0.000000,4.000000,4.000000,4.000000,4.000000,4.000000,4.000000,4.000000,4.000000,4.000000,4.000000,4.000000,4.000000,4.000000,4.000000,4.000000,4.000000,4.000000,4.000000,4.000000,4.000000,4.000000,4.000000,4.000000,4.000000,4.000000,4.000000,4.000000,4.000000,4.000000,4.000000,2.000000,4.000000,83.333336
1614404626.518799,58.000000,0.000000,-22.559292,-5.168687,36.731686,13.630327,43.806496,27.644039,6.299904,10.459778,19.230234,-121.886108,-18.812038,-8.808713,-15.744070,-24.079445,-37.047699,26.324615,-48.152229,-22.159655,-57.139362,-59.764385,-81.885323,-71.077263,-51.977402,-49.423225,-61.663162,-77.599716,-51.481304,-22.216618,-72.586067,-143.961533,-40.166286,-66.750717,7936.000000,0.000000,4.000000,,,,0.000000,4.000000,4.000000,4.000000,4.000000,4.000000,4.000000,4.000000,4.000000,4.000000,4.000000,4.000000,4.000000,4.000000,4.000000,4.000000,4.000000,4.000000,4.000000,4.000000,4.000000,4.000000,4.000000,4.000000,4.000000,4.000000,4.000000,4.000000,4.000000,4.000000,4.000000,2.000000,4.000000,83.333336
1614404626.526648,59.000000,0.000000,-22.536732,-5.163518,37.207771,13.616697,50.942177,30.693319,7.319245,10.449319,21.775108,-115.097557,-6.485534,3.507788,-6.497556,-4.055365,-31.369627,29.375214,-27.078436,-13.419546,-46.825813,-39.704620,-57.188053,-46.390804,-37.566448,-54.502007,-51.345089,-76.496475,-40.147770,-24.245682,-69.949379,-130.484238,-39.613300,-66.171150,8064.000000,0.000000,4.000000,,,,0.000000,4.000000,4.000000,4.000000,4.000000,4.000000,4.000000,4.000000,4.000000,4.000000,4.000000,4.000000,4.000000,4.000000,4.000000,4.000000,4.000000,4.000000,4.000000,4.000000,4.000000,4.000000,4.000000,4.000000,4.000000,4.000000,4.000000,4.000000,4.000000,4.000000,4.000000,2.000000,4.000000,83.333336
1614404626.534397,60.000000,0.000000,-22.001375,-5.671175,38.709026,14.628721,58.583542,31.175446,6.286284,10.951690,28.932819,-107.802971,7.367105,8.632485,3.252531,16.974331,-15.440822,44.217632,-10.641101,-5.713819,-29.855911,-13.511071,-34.566761,-19.677746,-22.144268,-38.037247,-42.062973,-71.291771,-21.133263,-23.195795,-60.135838,-120.610161,-39.573689,-58.412666,8064.000000,0.000000,4.000000,,,,0.000000,4.000000,4.000000,4.000000,4.000000,4.000000,4.000000,4.000000,4.000000,4.000000,4.000000,4.000000,4.000000,4.000000,4.000000,4.000000,4.000000,4.000000,4.000000,4.000000,4.000000,4.000000,4.000000,4.000000,4.000000,4.000000,4.000000,4.000000,4.000000,4.000000,4.000000,2.000000,4.000000,83.333336
1614404626.542246,61.000000,0.000000,-19.415270,-5.665504,39.183140,14.614093,58.524956,31.144270,10.895383,13.504841,32.493629,-107.182350,17.616148,8.623853,5.300560,27.213768,-4.143330,64.686234,-9.604818,-0.579900,-17.005543,-1.189868,-31.968092,-15.555504,-20.070843,-22.614595,-42.020912,-67.630737,-16.496746,-20.095676,-61.614162,-121.002373,-39.534115,-50.149128,8064.000000,0.000000,4.000000,,,,0.000000,4.000000,4.000000,4.000000,4.000000,4.000000,4.000000,4.000000,4.000000,4.000000,4.000000,4.000000,4.000000,4.000000,4.000000,4.000000,4.000000,4.000000,4.000000,4.000000,4.000000,4.000000,4.000000,4.000000,4.000000,4.000000,4.000000,4.000000,4.000000,4.000000,4.000000,2.000000,4.000000,83.333336
1614404626.549995,62.000000,0.000000,-17.344574,-5.147018,47.861904,13.573837,56.927971,32.138767,18.063974,15.029798,30.409855,-110.152092,18.111353,10.153690,3.756798,20.519888,-3.626366,67.698471,-8.056752,5.061706,-16.475716,-5.291242,-34.500225,-22.206615,-22.614874,-20.027878,-43.004532,-66.537468,-24.685377,-19.562761,-70.270500,-121.394188,-39.494579,-50.098976,8064.000000,0.000000,4.000000,,,,0.000000,4.000000,4.000000,4.000000,4.000000,4.000000,4.000000,4.000000,4.000000,4.000000,4.000000,4.000000,4.000000,4.000000,4.000000,4.000000,4.000000,4.000000,4.000000,4.000000,4.000000,4.000000,4.000000,4.000000,4.000000,4.000000,4.000000,4.000000,4.000000,4.000000,4.000000,2.000000,4.000000,83.333336
1614404626.557844,63.000000,0.000000,-19.378511,-5.654692,59.096092,13.560264,62.512070,33.645092,15.481809,14.501946,30.892265,-111.580399,7.836831,10.656358,2.727401,6.653214,-4.648381,56.348724,-7.535875,6.082285,-23.638727,-10.926976,-32.927265,-24.235691,-20.540977,-26.674517,-45.525631,-69.035034,-27.224794,-20.056019,-67.636124,-122.298439,-39.967907,-51.074520,8064.000000,0.000000,4.000000,,,,0.000000,4.000000,4.000000,4.000000,4.000000,4.000000,4.000000,4.000000,4.000000,4.000000,4.000000,4.000000,4.000000,4.000000,4.000000,4.000000,4.000000,4.000000,4.000000,4.000000,4.000000,4.000000,4.000000,4.000000,4.000000,4.000000,4.000000,4.000000,4.000000,4.000000,4.000000,2.000000,4.000000,83.333336
1614404626.565593,64.000000,0.000000,-13.718106,-6.161858,66.729301,22.264652,74.244431,36.688370,10.338121,14.487445,35.476757,-107.366257,9.880276,13.722625,9.904160,9.210663,-3.618091,54.241093,-3.938596,7.101844,-22.589447,-8.351947,-30.330235,-20.108891,-9.751204,-29.211945,-42.403179,-58.196766,-9.248851,-15.420578,-58.337719,-116.535110,-35.825375,-43.843960,0.000000,186.000000,4.000000,,,,0.000000,4.000000,4.000000,4.000000,4.000000,4.000000,4.000000,4.000000,4.000000,4.000000,4.000000,4.000000,4.000000,4.000000,4.000000,4.000000,4.000000,4.000000,4.000000,4.000000,4.000000,4.000000,4.000000,4.000000,4.000000,4.000000,4.000000,4.000000,4.000000,4.000000,4.000000,2.000000,4.000000,83.333336
1614404626.573442,65.000000,0.000000,-3.960799,0.510971,67.688217,28.396233,77.759926,40.754246,10.327784,14.472958,39.031025,-100.592224,20.639627,12.683261,21.176308,18.945042,-4.127294,60.340698,7.860215,9.658845,-18.464294,-9.369236,-30.299904,-20.601603,-3.074787,-16.875042,-29.027445,-38.651390,8.196295,-9.251311,-54.176819,-103.598068,-29.635702,-37.646267,0.000000,171.000000,4.000000,,,,0.000000,4.000000,4.000000,4.000000,4.000000,4.000000,4.000000,4.000000,4.000000,4.000000,4.000000,4.000000,4.000000,4.000000,4.000000,4.000000,4.000000,4.000000,4.000000,4.000000,4.000000,4.000000,4.000000,4.000000,4.000000,4.000000,4.000000,4.000000,4.000000,4.000000,4.000000,2.000000,4.000000,83.333336
1614404626.581191,66.000000,0.000000,-4.982479,8.202767,63.005142,18.624249,67.938576,41.739132,11.343097,14.458485,38.479172,-99.978806,17.029243,4.978270,16.026926,14.310712,-4.635987,58.229076,5.288252,1.444058,-26.650957,-25.770123,-34.884991,-33.401512,-12.302482,-5.576115,-24.895853,-42.202480,1.008612,-7.703598,-54.635460,-105.032928,-29.093246,-41.198364,0.000000,196.000000,4.000000,,,,0.000000,4.000000,4.000000,4.000000,4.000000,4.000000,4.000000,4.000000,4.000000,4.000000,4.000000,4.000000,4.000000,4.000000,4.000000,4.000000,4.000000,4.000000,4.000000,4.000000,4.000000,4.000000,4.000000,4.000000,4.000000,4.000000,4.000000,4.000000,4.000000,4.000000,4.000000,2.000000,4.000000,83.333336
1614404626.589040,67.000000,0.000000,-10.105701,10.245847,60.890858,16.554340,64.280899,43.235851,12.357394,14.444026,37.927872,-102.442932,10.345548,3.947650,2.164745,6.604094,-4.631351,47.914436,-9.076011,-9.326617,-35.342255,-46.257172,-37.414207,-44.650162,-22.546589,-14.288487,-29.999163,-57.544895,-13.864192,-8.208714,-54.580826,-119.286873,-32.141075,-47.311012,0.000000,172.000000,4.000000,,,,0.000000,4.000000,4.000000,4.000000,2.000000,4.000000,4.000000,4.000000,4.000000,4.000000,4.000000,4.000000,4.000000,4.000000,4.000000,4.000000,4.000000,4.000000,4.000000,4.000000,4.000000,4.000000,4.000000,4.000000,4.000000,4.000000,4.000000,4.000000,4.000000,4.000000,4.000000,2.000000,4.000000,66.666664
1614404626.596789,68.000000,0.000000,-8.044313,10.235601,60.317146,29.871120,71.396103,46.782360,14.396319,14.429582,38.402767,-102.340492,10.848022,9.071908,-0.914343,7.110310,-4.626719,41.199856,-13.169498,-10.855752,-34.281273,-49.800659,-37.889614,-44.605515,-20.985580,-26.581892,-28.943521,-53.897606,-15.388789,-9.738968,-52.987785,-120.706047,-31.596113,-48.802162,0.000000,151.000000,4.000000,,,,0.000000,4.000000,4.000000,4.000000,2.000000,4.000000,4.000000,4.000000,4.000000,4.000000,4.000000,4.000000,4.000000,4.000000,4.000000,4.000000,4.000000,4.000000,4.000000,4.000000,4.000000,4.000000,4.000000,4.000000,4.000000,4.000000,4.000000,4.000000,4.000000,4.000000,4.000000,2.000000,4.000000,66.666664
1614404626.604439,69.000000,0.000000,-9.574731,7.661263,58.205547,27.789967,70.299065,41.607372,13.356281,13.902332,38.364365,-102.750969,7.760252,8.037195,0.112213,8.128840,-4.622093,40.645836,-11.617867,-9.819255,-35.272633,-47.699577,-45.544029,-44.048088,-20.964596,-26.042488,-30.965860,-48.715504,-13.322119,-11.780511,-56.524540,-119.046875,-31.051697,-51.317463,0.000000,197.000000,4.000000,,,,0.000000,4.000000,4.000000,4.000000,2.000000,4.000000,4.000000,4.000000,4.000000,4.000000,4.000000,4.000000,4.000000,4.000000,4.000000,4.000000,4.000000,4.000000,4.000000,4.000000,4.000000,4.000000,4.000000,4.000000,4.000000,4.000000,4.000000,4.000000,4.000000,4.000000,4.000000,2.000000,4.000000,66.666664
1614404626.612188,70.000000,0.000000,-14.693361,0.986935,56.096058,10.839100,61.510818,34.386280,10.778823,14.914071,38.326000,-106.237961,9.803773,5.465055,0.112101,8.120712,-4.617471,43.682110,-10.580608,-7.758154,-37.801460,-50.728802,-48.575409,-44.516861,-20.943630,-24.477985,-38.114384,-57.384735,-15.360078,-12.281550,-66.724426,-129.184235,-36.148849,-59.984097,0.000000,188.000000,4.000000,,,,0.000000,4.000000,4.000000,4.000000,2.000000,4.000000,4.000000,4.000000,4.000000,4.000000,4.000000,4.000000,4.000000,4.000000,4.000000,4.000000,4.000000,4.000000,4.000000,4.000000,4.000000,4.000000,4.000000,4.000000,4.000000,4.000000,4.000000,4.000000,4.000000,4.000000,4.000000,2.000000,4.000000,66.666664
1614404626.619837,71.000000,0.000000,-9.550463,-2.090975,54.501499,12.366723,65.551872,40.505737,10.255223,17.463259,38.800491,-105.106087,24.665764,8.536513,5.240193,13.240796,-5.125674,49.279453,-3.390541,0.967553,-30.584173,-42.472942,-34.680679,-38.318497,-12.717559,-26.504789,-33.460884,-58.352993,-14.831898,-11.756449,-68.708984,-128.542236,-39.702446,-63.513855,0.000000,202.000000,4.000000,,,,0.000000,4.000000,4.000000,4.000000,2.000000,4.000000,4.000000,4.000000,4.000000,4.000000,4.000000,4.000000,4.000000,4.000000,4.000000,4.000000,4.000000,4.000000,4.000000,4.000000,4.000000,4.000000,4.000000,4.000000,4.000000,4.000000,4.000000,4.000000,4.000000,4.000000,4.000000,2.000000,4.000000,66.666664
1614404626.627586,72.000000,0.000000,-2.361425,-1.576063,51.370075,22.610765,76.255547,47.131901,10.757789,18.471437,42.351437,-99.359955,29.256483,11.092079,11.388800,20.919863,-4.094907,53.845562,4.305157,9.171714,-19.784359,-19.866367,-21.312666,-29.562229,-6.038175,-22.375721,-24.196653,-51.115150,-11.740143,-12.257513,-62.999249,-117.644463,-38.637100,-58.322136,0.000000,177.000000,4.000000,,,,0.000000,4.000000,4.000000,4.000000,2.000000,4.000000,4.000000,4.000000,4.000000,4.000000,4.000000,4.000000,4.000000,4.000000,4.000000,4.000000,4.000000,4.000000,4.000000,4.000000,4.000000,4.000000,4.000000,4.000000,4.000000,4.000000,4.000000,4.000000,4.000000,4.000000,4.000000,2.000000,4.000000,66.666664
1614404626.635235,73.000000,0.000000,-2.359064,-4.651411,41.575115,19.511232,75.153656,37.854000,11.259851,18.965786,43.334724,-98.234947,17.945175,11.593808,12.915873,20.386124,-3.065171,57.381458,4.813673,11.213824,-16.174831,-6.513168,-19.752893,-25.942924,-6.544957,-15.686678,-24.685276,-52.602497,-10.189941,-12.245255,-65.500351,-122.142204,-38.598465,-66.468941,0.000000,188.000000,4.000000,,,,0.000000,4.000000,4.000000,4.000000,2.000000,4.000000,4.000000,4.000000,4.000000,4.000000,4.000000,4.000000,4.000000,4.000000,4.000000,4.000000,4.000000,4.000000,4.000000,4.000000,4.000000,4.000000,4.000000,4.000000,4.000000,4.000000,4.000000,4.000000,4.000000,4.000000,4.000000,2.000000,4.000000,66.666664
1614404626.642984,74.000000,0.000000,-3.382346,-5.159579,28.200209,13.337875,67.899010,24.995632,10.222951,18.434000,32.009338,-103.264923,9.722102,10.556573,11.877316,6.519583,-4.087747,56.811256,4.808859,9.664148,-18.209938,-8.557938,-21.784422,-28.993904,-9.615335,-13.619709,-27.737514,-61.780666,-10.179751,-11.207369,-72.614342,-137.917496,-41.123970,-87.428116,0.000000,188.000000,4.000000,,,,0.000000,4.000000,4.000000,4.000000,2.000000,4.000000,4.000000,4.000000,4.000000,4.000000,4.000000,4.000000,4.000000,4.000000,4.000000,4.000000,4.000000,4.000000,4.000000,4.000000,4.000000,4.000000,4.000000,4.000000,4.000000,4.000000,4.000000,4.000000,4.000000,4.000000,4.000000,2.000000,4.000000,66.666664
1614404626.650633,75.000000,0.000000,-2.866143,-2.077497,26.633547,12.811716,66.292648,27.534739,10.212728,17.902744,25.823484,-105.725761,12.789303,9.007555,10.326977,-1.179244,-4.083659,56.241623,2.752768,8.628843,-19.730188,-11.113482,-22.788279,-28.452089,-11.144181,-17.708652,-27.709778,-65.308624,-11.195212,-14.273085,-72.541725,-137.779587,-42.621307,-90.930428,0.000000,159.000000,4.000000,,,,0.000000,4.000000,4.000000,4.000000,2.000000,4.000000,4.000000,4.000000,4.000000,4.000000,4.000000,4.000000,4.000000,4.000000,4.000000,4.000000,4.000000,4.000000,4.000000,4.000000,4.000000,4.000000,4.000000,4.000000,4.000000,4.000000,4.000000,4.000000,4.000000,4.000000,4.000000,2.000000,4.000000,66.666664
1614404626.658382,76.000000,0.000000,-1.837636,-5.152342,44.042809,15.875828,72.380203,39.302074,11.740976,18.910484,41.695095,-101.004646,19.956001,11.562650,12.367931,12.668089,3.612732,57.723843,4.288477,11.697138,-16.633535,-7.512625,-18.150106,-15.603125,-6.004832,-18.716585,-25.117964,-53.448448,-10.158376,-18.874197,-68.366615,-122.257187,-42.578686,-73.916420,0.000000,188.000000,4.000000,,,,0.000000,4.000000,4.000000,4.000000,2.000000,4.000000,4.000000,4.000000,4.000000,4.000000,4.000000,4.000000,4.000000,4.000000,4.000000,4.000000,4.000000,4.000000,4.000000,4.000000,4.000000,4.000000,4.000000,4.000000,4.000000,4.000000,4.000000,4.000000,4.000000,4.000000,4.000000,2.000000,4.000000,66.666664
1614404626.666032,77.000000,0.000000,-4.399901,-9.249754,49.126972,15.347132,72.307823,40.801235,9.165133,15.301829,49.345711,-100.390823,14.807839,7.448523,8.252999,17.783627,1.045017,50.999454,5.822650,5.531594,-20.719467,-12.120497,-22.234520,-12.510598,-5.998827,-11.005562,-27.656950,-43.651409,-10.148218,-19.880962,-67.272614,-117.519539,-41.510464,-71.791222,0.000000,168.000000,4.000000,,,,0.000000,4.000000,4.000000,4.000000,2.000000,4.000000,4.000000,4.000000,4.000000,4.000000,4.000000,4.000000,4.000000,4.000000,4.000000,4.000000,4.000000,4.000000,4.000000,4.000000,4.000000,4.000000,4.000000,4.000000,4.000000,4.000000,4.000000,4.000000,4.000000,4.000000,4.000000,2.000000,4.000000,66.666664
1614404626.673781,78.000000,0.000000,-13.626270,-9.240504,24.462461,4.562554,58.389362,29.478382,3.002122,1.440374,25.193800,-114.136589,-9.822352,-14.610208,-15.344997,-9.926465,-25.109875,30.435635,-15.208814,-19.089321,-46.852592,-37.236580,-53.494335,-41.728859,-27.018469,-13.558659,-40.449806,-64.120575,-18.856018,-19.348261,-70.795082,-132.786636,-42.494595,-89.668152,0.000000,170.000000,4.000000,,,,0.000000,4.000000,4.000000,4.000000,2.000000,4.000000,4.000000,4.000000,4.000000,4.000000,4.000000,4.000000,4.000000,4.000000,4.000000,4.000000,4.000000,4.000000,4.000000,4.000000,4.000000,4.000000,4.000000,4.000000,4.000000,4.000000,4.000000,4.000000,4.000000,4.000000,4.000000,2.000000,4.000000,66.666664
1614404626.681430,79.000000,0.000000,-18.740849,-8.205623,7.514921,0.455427,51.664307,22.782238,0.947837,-9.330297,7.732708,-125.304504,-22.120222,-27.416111,-33.278370,-31.455000,-46.110405,15.020583,-38.783348,-35.993309,-68.344200,-65.404472,-79.081871,-68.353798,-42.376068,-37.134842,-48.614483,-87.133385,-31.144854,-19.328913,-75.852493,-147.012833,-45.016205,-98.296432,0.000000,209.000000,4.000000,,,,0.000000,4.000000,4.000000,4.000000,2.000000,4.000000,4.000000,4.000000,4.000000,4.000000,4.000000,4.000000,4.000000,4.000000,4.000000,4.000000,4.000000,4.000000,4.000000,4.000000,4.000000,4.000000,4.000000,4.000000,4.000000,4.000000,4.000000,4.000000,4.000000,4.000000,4.000000,2.000000,4.000000,66.666664
1614404626.689179,80.000000,0.000000,-17.183647,-8.710238,19.302279,12.249844,65.971619,24.810738,3.510992,-4.192762,22.083950,-119.538170,-7.739128,-13.029719,-20.424580,-16.551750,-37.346348,19.108126,-30.539436,-27.239368,-53.916885,-65.339066,-67.207916,-57.003391,-32.590099,-52.995144,-42.924843,-78.328300,-33.164993,-19.822405,-71.674072,-141.737610,-45.996830,-91.531471,0.000000,209.000000,4.000000,,,,0.000000,4.000000,4.000000,4.000000,2.000000,4.000000,4.000000,4.000000,4.000000,4.000000,4.000000,4.000000,4.000000,4.000000,4.000000,4.000000,4.000000,4.000000,4.000000,4.000000,4.000000,4.000000,4.000000,4.000000,4.000000,4.000000,4.000000,4.000000,4.000000,4.000000,4.000000,2.000000,4.000000,66.666664
1614404626.696828,81.000000,0.000000,-19.217745,-8.701528,29.026566,17.365799,70.521027,26.837208,3.507481,5.042200,37.959301,-107.623764,4.576303,-0.196177,-1.942616,4.490442,-23.975666,30.371069,-15.124282,-16.442898,-31.811686,-45.786549,-47.653526,-37.972027,-25.890844,-44.737022,-43.907558,-67.480743,-29.029263,-19.289762,-64.422913,-133.390747,-45.950832,-85.286087,0.000000,147.000000,4.000000,,,,0.000000,4.000000,4.000000,4.000000,2.000000,4.000000,4.000000,4.000000,4.000000,4.000000,4.000000,4.000000,4.000000,4.000000,4.000000,4.000000,4.000000,4.000000,4.000000,4.000000,4.000000,4.000000,4.000000,4.000000,4.000000,2.000000,4.000000,4.000000,4.000000,4.000000,4.000000,2.000000,4.000000,50.000000
1614404626.704577,82.000000,0.000000,-17.147245,-9.205647,21.818052,8.117663,57.117176,26.810371,2.478333,7.088440,36.382881,-103.926392,4.058907,-0.708802,-0.915032,1.409029,-22.926050,33.930443,-17.160440,-16.939276,-33.318336,-41.638199,-47.093052,-42.549438,-35.095722,-35.974335,-52.068779,-76.644028,-30.025875,-19.270472,-66.922592,-137.359909,-45.392059,-86.226448,0.000000,200.000000,4.000000,,,,0.000000,4.000000,4.000000,4.000000,2.000000,4.000000,4.000000,4.000000,4.000000,4.000000,4.000000,4.000000,4.000000,4.000000,4.000000,4.000000,4.000000,4.000000,4.000000,4.000000,4.000000,4.000000,4.000000,4.000000,4.000000,2.000000,4.000000,4.000000,4.000000,4.000000,4.000000,2.000000,4.000000,50.000000
1614404626.712226,83.000000,0.000000,-8.412149,-8.170800,18.206490,5.545444,55.008778,26.783562,3.501495,6.568531,33.269577,-105.360931,1.490745,-0.708093,-4.503860,-9.361611,-22.903124,32.358051,-17.143280,-17.435156,-40.977325,-53.904255,-48.584419,-53.276123,-37.111908,-37.989643,-53.555172,-81.182770,-34.098412,-18.738380,-71.471054,-140.299484,-45.859489,-84.601761,0.000000,209.000000,4.000000,,,,0.000000,4.000000,4.000000,4.000000,2.000000,4.000000,4.000000,4.000000,4.000000,4.000000,4.000000,4.000000,4.000000,4.000000,4.000000,4.000000,4.000000,4.000000,4.000000,4.000000,4.000000,4.000000,4.000000,4.000000,4.000000,2.000000,4.000000,4.000000,4.000000,4.000000,4.000000,2.000000,4.000000,50.000000
1614404626.720075,84.000000,0.000000,-10.455019,-7.649808,21.778027,8.616821,63.158897,26.756777,3.497994,7.074783,34.774769,-107.306847,-1.587669,-4.297128,-3.986536,-3.711224,-23.393042,35.915436,-15.587675,-16.392080,-41.449165,-52.824707,-46.997375,-51.171562,-35.023514,-40.002937,-52.988796,-77.511841,-32.525852,-19.232464,-71.399582,-137.082260,-45.813629,-83.491516,0.000000,191.000000,4.000000,,,,0.000000,4.000000,4.000000,4.000000,2.000000,4.000000,4.000000,4.000000,4.000000,4.000000,4.000000,4.000000,4.000000,4.000000,4.000000,4.000000,4.000000,4.000000,4.000000,4.000000,4.000000,4.000000,4.000000,4.000000,4.000000,2.000000,4.000000,4.000000,4.000000,4.000000,4.000000,4.000000,4.000000,66.666664
1614404626.727824,85.000000,0.000000,-17.111231,-9.180620,21.243429,5.531281,62.070095,27.242842,3.494496,7.580529,34.739994,-107.712364,-2.098902,-10.446677,-1.931268,10.138641,-19.779905,51.776955,-17.623369,-12.273124,-36.279514,-30.720602,-44.386276,-37.787060,-34.475670,-39.450111,-51.910168,-74.870232,-24.288198,-19.213230,-71.328186,-137.970810,-45.254997,-92.638794,0.000000,214.000000,4.000000,,,,0.000000,4.000000,4.000000,4.000000,2.000000,4.000000,4.000000,4.000000,4.000000,4.000000,4.000000,4.000000,4.000000,4.000000,4.000000,4.000000,4.000000,4.000000,4.000000,4.000000,4.000000,4.000000,4.000000,4.000000,4.000000,2.000000,4.000000,4.000000,4.000000,4.000000,4.000000,4.000000,4.000000,66.666664
1614404626.735673,86.000000,0.000000,-11.965915,-7.632978,19.170904,2.961647,59.443924,26.702778,5.029463,6.547307,36.243713,-103.502090,2.005761,-4.282384,4.737330,13.205425,-2.324227,67.109795,-4.785233,-0.978799,-27.012465,-10.177060,-40.752144,-22.877476,-26.748888,-34.795277,-45.704411,-69.667152,-20.674168,-18.681198,-70.744034,-139.884125,-45.209740,-99.725639,0.000000,166.000000,4.000000,,,,0.000000,4.000000,4.000000,4.000000,2.000000,4.000000,4.000000,4.000000,4.000000,4.000000,4.000000,4.000000,4.000000,4.000000,4.000000,4.000000,4.000000,4.000000,4.000000,4.000000,4.000000,4.000000,4.000000,4.000000,4.000000,2.000000,4.000000,4.000000,4.000000,4.000000,4.000000,4.000000,4.000000,66.666664
1614404626.743423,87.000000,0.000000,-5.800102,-2.497140,21.203014,5.009968,63.487041,26.676075,7.075716,6.540760,38.771572,-99.296021,4.567858,3.927026,7.296695,4.474271,6.396046,64.478584,7.527245,4.150384,-28.523912,-9.654063,-45.326778,-20.290497,-20.055471,-28.093815,-48.735630,-73.700050,-26.294518,-19.688156,-71.186111,-138.718597,-45.164532,-96.036171,0.000000,190.000000,4.000000,,,,0.000000,4.000000,4.000000,4.000000,2.000000,4.000000,4.000000,4.000000,4.000000,4.000000,4.000000,4.000000,4.000000,4.000000,4.000000,4.000000,4.000000,4.000000,4.000000,4.000000,4.000000,4.000000,4.000000,4.000000,4.000000,2.000000,4.000000,4.000000,4.000000,4.000000,4.000000,4.000000,4.000000,66.666664
1614404626.751272,88.000000,0.000000,-9.896866,-5.058745,18.617708,7.056240,60.859455,26.649399,7.068640,7.047040,31.553314,-103.299286,2.512008,2.897458,-0.915729,-4.248152,-7.456504,50.567951,-0.172590,-2.520432,-43.880005,-21.952101,-55.025040,-28.475334,-19.522596,-28.065722,-58.430485,-87.472504,-32.934891,-22.745392,-79.320053,-142.682449,-45.119366,-95.940132,0.000000,183.000000,4.000000,,,,0.000000,4.000000,4.000000,4.000000,2.000000,4.000000,4.000000,4.000000,4.000000,4.000000,4.000000,4.000000,4.000000,4.000000,4.000000,4.000000,4.000000,4.000000,4.000000,4.000000,4.000000,4.000000,4.000000,4.000000,4.000000,2.000000,4.000000,4.000000,4.000000,4.000000,4.000000,4.000000,4.000000,66.666664
1614404626.759021,89.000000,0.000000,-8.861328,-13.258815,4.752937,7.049183,56.183208,27.135571,7.061571,6.014351,22.803812,-109.862656,0.458214,2.381740,-1.940455,-6.295186,-16.679817,44.363537,-8.890367,-9.184579,-48.964329,-28.083996,-59.585400,-31.523783,-17.964611,-36.755604,-54.782310,-87.897850,-32.389133,-23.235468,-81.804840,-147.155151,-45.074245,-104.562141,0.000000,199.000000,4.000000,,,,0.000000,4.000000,4.000000,4.000000,2.000000,4.000000,4.000000,4.000000,4.000000,4.000000,4.000000,4.000000,4.000000,4.000000,4.000000,4.000000,4.000000,4.000000,4.000000,4.000000,4.000000,4.000000,4.000000,4.000000,4.000000,2.000000,4.000000,4.000000,4.000000,4.000000,4.000000,4.000000,4.000000,66.666664
1614404626.766870,90.000000,0.000000,-4.237082,-16.322479,-1.918482,6.016493,55.614204,26.082794,7.054510,9.598081,27.396393,-101.034843,0.457756,5.969102,6.779434,-3.724788,-11.022112,44.831993,-6.830194,-9.175394,-41.223057,-26.517450,-58.500175,-30.979437,-16.921005,-42.872696,-41.907013,-79.092003,-29.792643,-21.673771,-75.569183,-143.931076,-45.029171,-107.534508,0.000000,189.000000,4.000000,,,,0.000000,4.000000,4.000000,4.000000,2.000000,4.000000,4.000000,4.000000,4.000000,4.000000,4.000000,4.000000,4.000000,4.000000,4.000000,4.000000,4.000000,4.000000,4.000000,4.000000,4.000000,4.000000,4.000000,4.000000,4.000000,2.000000,4.000000,4.000000,4.000000,4.000000,4.000000,4.000000,4.000000,66.666664
1614404626.774619,91.000000,0.000000,-5.258486,-16.818977,5.262923,8.061759,55.045773,27.082352,7.047455,18.306431,37.112587,-88.113297,0.970119,7.501595,9.336758,-2.695422,-9.985449,44.274342,-5.797723,-8.140578,-39.130554,-29.055035,-53.313469,-36.076664,-19.468187,-42.829823,-38.788185,-79.012917,-28.737209,-24.729019,-77.032082,-141.735855,-44.984142,-104.350044,0.000000,198.000000,4.000000,,,,0.000000,4.000000,4.000000,4.000000,2.000000,4.000000,4.000000,4.000000,4.000000,4.000000,4.000000,4.000000,4.000000,4.000000,4.000000,4.000000,4.000000,4.000000,4.000000,4.000000,4.000000,4.000000,4.000000,4.000000,4.000000,2.000000,4.000000,4.000000,4.000000,4.000000,4.000000,4.000000,4.000000,66.666664
1614404626.782468,92.000000,0.000000,-6.791689,-14.238055,10.385865,14.207543,58.580467,32.696297,7.040408,21.877869,38.613934,-96.743134,0.969149,7.494093,6.250498,-4.744009,-12.539565,43.717247,-4.766284,-9.158078,-40.629883,-33.128544,-45.567848,-40.143150,-17.910257,-42.274174,-41.826321,-75.856979,-28.708473,-26.242752,-76.955048,-143.132584,-44.939159,-102.707237,0.000000,183.000000,4.000000,,,,0.000000,4.000000,4.000000,4.000000,2.000000,4.000000,4.000000,4.000000,4.000000,4.000000,4.000000,4.000000,4.000000,4.000000,4.000000,4.000000,4.000000,4.000000,4.000000,4.000000,4.000000,4.000000,4.000000,4.000000,4.000000,2.000000,4.000000,4.000000,4.000000,4.000000,4.000000,4.000000,4.000000,66.666664
1614404626.790217,93.000000,0.000000,-6.784898,-9.608433,7.811377,17.783079,67.239838,35.227703,7.033367,21.855991,37.036861,-111.005363,-0.057462,6.460958,7.269888,0.901761,-11.501385,45.724812,-1.171774,-10.174562,-41.102074,-32.582596,-41.932537,-39.590187,-16.866707,-43.257538,-41.784492,-68.601631,-28.679764,-20.062662,-64.057579,-135.809967,-44.894218,-98.501961,0.000000,195.000000,4.000000,,,,0.000000,4.000000,4.000000,4.000000,2.000000,4.000000,4.000000,4.000000,4.000000,4.000000,4.000000,4.000000,4.000000,4.000000,4.000000,4.000000,4.000000,4.000000,4.000000,4.000000,4.000000,4.000000,4.000000,4.000000,4.000000,2.000000,4.000000,4.000000,4.000000,4.000000,4.000000,4.000000,4.000000,66.666664
1614404626.798066,94.000000,0.000000,-6.778113,-13.188568,10.880489,14.688374,71.275162,33.141193,7.026334,22.859776,36.999825,-106.791794,0.455416,2.351933,8.288260,8.593167,-12.515525,49.268829,-0.144961,-8.625925,-40.035332,-34.088474,-43.941887,-39.037777,-20.439583,-43.214283,-38.665787,-67.507393,-28.651085,-14.914395,-60.916599,-126.443382,-44.849327,-91.223976,0.000000,212.000000,4.000000,,,,0.000000,4.000000,4.000000,4.000000,2.000000,4.000000,4.000000,4.000000,4.000000,4.000000,4.000000,4.000000,4.000000,4.000000,4.000000,4.000000,4.000000,4.000000,4.000000,4.000000,4.000000,4.000000,4.000000,4.000000,4.000000,2.000000,4.000000,4.000000,4.000000,4.000000,4.000000,4.000000,4.000000,66.666664
1614404626.805815,95.000000,0.000000,-5.232873,-17.790764,13.433711,13.648044,71.203888,34.646511,7.019308,17.708712,38.501286,-102.582436,-0.057860,-2.778624,-0.950798,3.456369,-20.195316,47.681099,-7.837124,-8.617299,-38.456833,-43.285156,-45.436405,-38.998737,-23.496067,-42.658245,-41.191223,-66.927063,-28.109613,-19.002045,-74.701836,-129.393860,-44.804478,-90.107109,0.000000,188.000000,4.000000,,,,0.000000,4.000000,4.000000,4.000000,2.000000,4.000000,4.000000,4.000000,4.000000,4.000000,4.000000,4.000000,4.000000,4.000000,4.000000,4.000000,4.000000,4.000000,4.000000,4.000000,4.000000,4.000000,4.000000,4.000000,4.000000,2.000000,4.000000,4.000000,4.000000,4.000000,4.000000,4.000000,4.000000,66.666664
1614404626.813664,96.000000,0.000000,-10.355845,-13.670409,0.599764,14.660037,70.107040,35.124687,5.986647,6.408951,37.949963,-111.710625,-6.724468,-8.929692,-13.770360,-6.290678,-26.328968,40.453930,-21.675442,-14.249707,-41.495300,-51.446999,-46.416611,-38.959740,-26.549494,-42.102768,-51.919262,-68.398598,-28.081503,-22.572786,-76.165596,-138.495239,-44.759670,-93.606743,8064.000000,0.000000,4.000000,,,,0.000000,4.000000,4.000000,4.000000,2.000000,4.000000,4.000000,4.000000,4.000000,4.000000,4.000000,4.000000,4.000000,4.000000,4.000000,4.000000,4.000000,4.000000,4.000000,4.000000,4.000000,4.000000,4.000000,4.000000,4.000000,2.000000,4.000000,4.000000,4.000000,4.000000,4.000000,4.000000,4.000000,66.666664
1614404626.821413,97.000000,0.000000,-20.089079,-13.143918,-14.785451,14.132556,62.344627,24.320330,3.416558,1.274337,30.732525,-116.214302,-14.410051,-17.125891,-14.269410,-7.310028,-25.276999,36.823734,-26.269150,-16.286739,-44.530727,-48.318626,-46.370193,-38.920780,-30.625509,-42.060665,-53.918625,-74.996864,-29.079063,-22.037394,-65.320198,-137.843918,-44.714912,-94.025963,8064.000000,0.000000,4.000000,,,,0.000000,4.000000,4.000000,4.000000,2.000000,4.000000,4.000000,4.000000,4.000000,4.000000,4.000000,4.000000,4.000000,4.000000,4.000000,4.000000,4.000000,4.000000,4.000000,4.000000,4.000000,4.000000,4.000000,4.000000,4.000000,2.000000,4.000000,4.000000,4.000000,4.000000,4.000000,4.000000,4.000000,66.666664
1614404626.829262,98.000000,0.000000,-19.043348,-15.694877,-10.668101,14.631244,56.128437,15.578061,2.387501,3.324344,22.496664,-111.482697,-9.780257,-13.006201,-6.562833,-5.764256,-19.097874,40.376652,-13.422368,-4.988402,-34.742607,-34.936974,-46.323822,-34.779297,-27.005140,-43.044247,-41.044193,-70.306480,-28.537163,-23.553818,-61.665134,-132.065048,-44.670197,-91.367828,8064.000000,0.000000,4.000000,,,,0.000000,4.000000,4.000000,4.000000,2.000000,4.000000,4.000000,4.000000,4.000000,4.000000,4.000000,4.000000,4.000000,4.000000,4.000000,4.000000,4.000000,4.000000,4.000000,4.000000,4.000000,4.000000,4.000000,4.000000,4.000000,2.000000,4.000000,4.000000,4.000000,4.000000,4.000000,4.000000,4.000000,66.666664
1614404626.837011,99.000000,0.000000,-10.819178,-10.038157,3.701541,16.667894,60.687691,20.690689,6.487677,7.936405,21.961348,-109.319939,2.537216,0.852960,-0.915245,-7.809774,-14.463392,41.361916,-4.178176,4.247356,-28.041199,-26.184090,-46.277500,-31.154772,-19.285826,-39.411457,-36.900585,-57.928486,-24.918882,-20.453341,-63.654751,-129.881714,-44.625526,-89.225182,8192.000000,0.000000,4.000000,,,,0.000000,4.000000,4.000000,4.000000,2.000000,4.000000,4.000000,4.000000,4.000000,4.000000,4.000000,4.000000,4.000000,4.000000,4.000000,4.000000,4.000000,4.000000,4.000000,4.000000,4.000000,4.000000,4.000000,4.000000,4.000000,2.000000,4.000000,4.000000,4.000000,4.000000,4.000000,4.000000,4.000000,66.666664
1614404626.844660,100.000000,0.000000,-13.885282,-4.387093,7.287583,17.676868,62.165466,26.311024,11.096574,10.492571,22.452208,-109.723434,2.021858,-0.173534,1.136953,-7.289144,-17.525852,36.705170,-9.815023,-4.474840,-40.320850,-31.798931,-46.744041,-33.687721,-23.881926,-32.705379,-48.658558,-58.896198,-25.919605,-19.407246,-66.668022,-130.777466,-44.068081,-91.187241,8064.000000,0.000000,4.000000,,,,0.000000,4.000000,4.000000,4.000000,2.000000,4.000000,4.000000,4.000000,4.000000,4.000000,4.000000,4.000000,4.000000,4.000000,4.000000,4.000000,4.000000,4.000000,4.000000,4.000000,4.000000,4.000000,4.000000,4.000000,4.000000,2.000000,4.000000,4.000000,4.000000,4.000000,4.000000,4.000000,4.000000,66.666664
1614404626.852409,101.000000,0.000000,-21.050884,-3.869885,4.203373,18.172012,59.539200,25.771893,9.034195,0.225668,21.916935,-110.126534,-13.877600,-16.583618,-7.069313,-7.281855,-27.764736,33.078720,-15.446235,-15.239596,-51.562580,-37.920979,-46.697296,-38.782238,-31.550352,-31.647034,-52.712463,-69.093712,-28.970608,-26.567326,-70.703918,-130.646683,-45.562473,-92.121689,8192.000000,0.000000,4.000000,,,,0.000000,4.000000,4.000000,4.000000,2.000000,4.000000,4.000000,4.000000,4.000000,4.000000,4.000000,4.000000,4.000000,4.000000,4.000000,4.000000,4.000000,4.000000,4.000000,4.000000,4.000000,4.000000,4.000000,4.000000,4.000000,2.000000,4.000000,4.000000,4.000000,4.000000,4.000000,4.000000,4.000000,66.666664
1614404626.860058,102.000000,0.000000,-18.978550,-1.301913,7.276093,18.153839,59.479660,27.284582,3.896956,-12.082250,22.920658,-111.554871,-24.632954,-23.746521,-21.421217,-14.966881,-33.890816,32.532822,-14.405148,-16.762817,-46.382813,-33.267673,-45.624958,-38.230633,-26.390596,-35.717949,-45.993084,-68.511795,-23.300611,-27.053579,-67.556290,-128.464767,-44.491272,-85.875725,8192.000000,0.000000,4.000000,,,,0.000000,4.000000,4.000000,4.000000,2.000000,4.000000,4.000000,4.000000,4.000000,4.000000,4.000000,4.000000,4.000000,4.000000,4.000000,4.000000,4.000000,4.000000,4.000000,4.000000,4.000000,4.000000,4.000000,4.000000,4.000000,2.000000,4.000000,4.000000,4.000000,4.000000,4.000000,4.000000,4.000000,66.666664
1614404626.867807,103.000000,0.000000,-16.395470,-2.839072,5.730355,11.469019,53.779152,24.180374,2.867418,-5.916322,21.872097,-112.981773,-14.864730,-17.056108,-13.194668,-18.541656,-31.292824,33.013111,-10.288178,-15.207594,-41.721046,-32.208763,-47.117798,-37.679585,-16.620615,-33.630951,-42.870167,-60.238155,-14.559362,-15.744474,-63.386169,-125.772194,-42.908318,-84.764206,8064.000000,0.000000,4.000000,,,,0.000000,4.000000,4.000000,4.000000,2.000000,4.000000,4.000000,4.000000,4.000000,4.000000,4.000000,4.000000,4.000000,4.000000,4.000000,4.000000,4.000000,4.000000,4.000000,4.000000,4.000000,4.000000,4.000000,4.000000,4.000000,2.000000,4.000000,4.000000,4.000000,4.000000,4.000000,4.000000,4.000000,66.666664
1614404626.875457,104.000000,0.000000,-17.404715,-6.938797,-7.608709,3.765243,43.468964,11.848501,3.890192,8.961390,18.260481,-112.868790,3.098852,-5.757000,10.921090,-7.753885,-27.158968,32.980099,-6.175326,-16.730848,-43.730606,-41.920147,-52.198883,-42.770107,-16.091175,-30.520395,-44.365757,-60.690739,-13.519162,-9.574883,-63.322781,-126.672058,-51.070538,-95.961494,8064.000000,0.000000,4.000000,,,,0.000000,4.000000,4.000000,4.000000,2.000000,4.000000,4.000000,4.000000,4.000000,4.000000,4.000000,4.000000,4.000000,4.000000,4.000000,4.000000,4.000000,4.000000,4.000000,4.000000,4.000000,4.000000,4.000000,4.000000,4.000000,2.000000,4.000000,4.000000,4.000000,4.000000,4.000000,4.000000,4.000000,66.666664
1614404626.883206,105.000000,0.000000,-17.900131,-3.854935,-16.831869,5.299939,47.015240,9.272551,3.373481,12.542171,23.370426,-113.268745,10.275241,3.992347,14.499913,5.587203,-25.593348,32.434296,-10.784535,-16.714117,-44.199696,-46.493610,-54.197968,-48.368366,-20.690468,-34.079620,-44.321392,-68.322357,-17.095387,-11.616590,-59.669716,-126.032570,-58.198956,-99.455276,8064.000000,0.000000,4.000000,,,,0.000000,4.000000,4.000000,4.000000,2.000000,4.000000,4.000000,4.000000,4.000000,4.000000,4.000000,4.000000,4.000000,4.000000,4.000000,4.000000,4.000000,4.000000,4.000000,4.000000,4.000000,4.000000,4.000000,4.000000,4.000000,2.000000,4.000000,4.000000,4.000000,4.000000,4.000000,4.000000,4.000000,66.666664
1614404626.890855,106.000000,0.000000,-17.369410,-2.312619,-13.738114,11.448485,55.173351,17.981226,2.857287,8.427066,31.039362,-112.642654,0.008555,-2.678313,-0.899202,3.017513,-25.054934,32.914684,-20.004520,-16.184582,-42.104214,-46.959938,-52.605309,-49.345638,-22.721060,-39.173744,-43.251431,-62.613007,-20.668034,-11.604975,-51.404919,-122.316795,-50.448448,-89.099411,8064.000000,0.000000,4.000000,,,,0.000000,4.000000,4.000000,4.000000,2.000000,4.000000,4.000000,4.000000,4.000000,4.000000,4.000000,4.000000,4.000000,4.000000,4.000000,4.000000,4.000000,4.000000,4.000000,4.000000,4.000000,4.000000,4.000000,4.000000,4.000000,2.000000,4.000000,4.000000,4.000000,4.000000,4.000000,4.000000,4.000000,66.666664
1614404626.898604,107.000000,0.000000,-16.839220,-6.925691,-11.160274,10.924216,47.425869,17.963245,3.367250,6.880177,24.854477,-112.017189,-11.273504,-21.137173,-7.052149,-8.780376,-28.106800,33.907410,-22.035797,-15.142756,-41.549290,-52.041183,-53.065521,-49.296291,-26.288082,-38.621750,-42.695358,-53.832447,-24.237110,-10.567728,-51.353512,-122.194473,-43.731335,-87.471848,8064.000000,0.000000,4.000000,,,,0.000000,4.000000,4.000000,4.000000,2.000000,4.000000,4.000000,4.000000,4.000000,4.000000,4.000000,4.000000,4.000000,4.000000,4.000000,4.000000,4.000000,4.000000,4.000000,4.000000,4.000000,4.000000,4.000000,4.000000,4.000000,2.000000,4.000000,4.000000,4.000000,4.000000,4.000000,4.000000,4.000000,66.666664
1614404626.906253,108.000000,0.000000,-14.258279,-7.944407,-13.200396,3.733805,40.711777,11.791436,3.363883,4.822015,12.009109,-114.469276,-13.313513,-26.244240,-7.557918,-12.874160,-32.694080,33.360680,-20.988121,-15.640434,-43.046200,-54.040424,-56.602200,-49.759815,-28.313076,-38.070309,-42.652664,-66.599129,-24.212873,-11.069981,-60.020107,-126.174843,-49.841450,-93.538223,8064.000000,0.000000,4.000000,,,,0.000000,4.000000,4.000000,4.000000,2.000000,4.000000,4.000000,4.000000,4.000000,4.000000,4.000000,4.000000,4.000000,4.000000,4.000000,4.000000,4.000000,4.000000,4.000000,4.000000,4.000000,4.000000,4.000000,4.000000,4.000000,2.000000,4.000000,4.000000,4.000000,4.000000,4.000000,4.000000,4.000000,66.666664
1614404626.914002,109.000000,0.000000,-13.218379,-12.551847,-12.161554,-0.885314,46.312092,13.318106,3.360519,2.765911,10.971459,-114.354805,-10.736097,-18.012869,-10.114462,-8.758722,-31.122923,32.301678,-21.992773,-15.624794,-42.490334,-48.858177,-55.519958,-44.069031,-20.592455,-38.545059,-44.661293,-75.250473,-21.624557,-11.058911,-63.037010,-122.971748,-52.868530,-91.906227,8064.000000,0.000000,4.000000,,,,0.000000,4.000000,4.000000,4.000000,2.000000,4.000000,4.000000,4.000000,4.000000,4.000000,4.000000,4.000000,4.000000,4.000000,4.000000,4.000000,4.000000,4.000000,4.000000,4.000000,4.000000,4.000000,4.000000,4.000000,4.000000,2.000000,4.000000,4.000000,4.000000,4.000000,4.000000,4.000000,4.000000,66.666664
1614404626.921651,110.000000,0.000000,-13.717981,-23.821346,-12.662213,-0.884429,49.342705,16.894531,3.357158,3.275965,17.114334,-109.625069,-9.186899,-13.379471,-7.027425,-5.160220,-25.450775,34.320660,-19.406677,-15.096349,-38.858101,-44.706757,-51.361874,-37.871117,-15.956478,-38.506512,-43.078167,-62.354713,-23.141394,-13.099134,-61.948334,-117.207748,-50.251560,-90.275856,8064.000000,0.000000,4.000000,,,,0.000000,4.000000,4.000000,4.000000,2.000000,4.000000,4.000000,4.000000,4.000000,4.000000,4.000000,4.000000,4.000000,4.000000,4.000000,4.000000,4.000000,4.000000,4.000000,4.000000,4.000000,4.000000,4.000000,4.000000,4.000000,2.000000,4.000000,4.000000,4.000000,4.000000,4.000000,4.000000,4.000000,66.666664
1614404626.929400,111.000000,0.000000,-13.704264,-26.361628,-24.957243,-0.883544,42.626694,15.851995,3.353801,3.272689,20.174143,-109.515442,-12.767456,-16.955835,-8.558859,-7.206341,-30.040709,31.209415,-17.848810,-18.670996,-43.947449,-45.687691,-55.413074,-41.935810,-26.196932,-37.955185,-43.547913,-66.907745,-24.143894,-15.137317,-65.988953,-125.295670,-52.252590,-94.288147,8064.000000,0.000000,4.000000,,,,0.000000,4.000000,4.000000,4.000000,2.000000,4.000000,4.000000,4.000000,4.000000,4.000000,4.000000,4.000000,4.000000,4.000000,4.000000,4.000000,4.000000,4.000000,4.000000,4.000000,4.000000,4.000000,4.000000,4.000000,4.000000,2.000000,4.000000,4.000000,4.000000,4.000000,4.000000,4.000000,4.000000,66.666664
1614404626.937050,112.000000,0.000000,-13.177738,-22.232702,-36.214336,-0.369840,36.430222,15.323323,3.350448,1.730955,17.589867,-111.970032,-23.523920,-20.528622,-23.934916,-16.942724,-41.292721,17.332052,-26.036089,-25.831812,-58.775295,-47.693283,-70.229454,-50.611820,-38.478428,-39.968513,-57.350517,-90.430580,-26.171032,-15.122180,-73.615265,-137.990891,-55.277260,-98.296425,8064.000000,0.000000,4.000000,,,,0.000000,4.000000,4.000000,4.000000,2.000000,4.000000,4.000000,4.000000,4.000000,4.000000,4.000000,4.000000,4.000000,4.000000,4.000000,4.000000,4.000000,4.000000,4.000000,4.000000,4.000000,4.000000,4.000000,4.000000,4.000000,2.000000,4.000000,4.000000,4.000000,4.000000,4.000000,4.000000,4.000000,66.666664
1614404626.944899,113.000000,0.000000,-13.677382,-22.723289,-30.537098,4.245914,33.316868,15.820821,3.347097,-0.322058,12.444072,-111.858063,-30.167063,-22.046555,-33.141750,-31.284756,-48.430912,6.545490,-33.189541,-30.421366,-66.921646,-48.671230,-80.928459,-53.638134,-38.439949,-41.979828,-70.626503,-86.750404,-31.273066,-15.107058,-75.080116,-134.263153,-55.221981,-98.710945,7936.000000,0.000000,4.000000,,,,0.000000,4.000000,4.000000,4.000000,2.000000,4.000000,4.000000,4.000000,4.000000,4.000000,4.000000,4.000000,4.000000,4.000000,4.000000,4.000000,4.000000,4.000000,4.000000,4.000000,4.000000,4.000000,4.000000,4.000000,4.000000,2.000000,4.000000,4.000000,4.000000,4.000000,4.000000,4.000000,4.000000,66.666664
1614404626.952648,114.000000,0.000000,-13.663704,-23.213387,-18.198868,7.318592,32.770729,15.804999,3.343750,-0.321736,11.918807,-113.797485,-24.495869,-23.050150,-27.980402,-35.868855,-48.895302,9.103046,-32.130711,-31.929405,-62.239342,-50.161022,-78.283424,-52.558853,-34.811764,-41.937847,-64.402031,-61.535450,-31.241793,-15.091950,-71.415291,-121.308380,-54.653938,-90.407104,8064.000000,0.000000,4.000000,,,,0.000000,4.000000,4.000000,4.000000,2.000000,4.000000,4.000000,4.000000,4.000000,4.000000,4.000000,4.000000,4.000000,4.000000,4.000000,4.000000,4.000000,4.000000,4.000000,4.000000,4.000000,4.000000,4.000000,4.000000,4.000000,2.000000,4.000000,4.000000,4.000000,4.000000,4.000000,4.000000,4.000000,66.666664
1614404626.960497,115.000000,0.000000,-13.650041,-20.113251,-16.129387,6.798452,35.302063,15.789195,3.340406,2.242688,17.035093,-114.709328,-18.830347,-20.975819,-25.388319,-28.653500,-43.205383,14.222149,-29.021656,-28.820553,-53.459152,-49.598042,-69.487198,-47.890911,-34.776955,-41.383087,-52.029934,-53.268787,-24.543884,-15.076859,-67.754135,-116.571686,-54.599285,-78.009010,7936.000000,0.000000,4.000000,,,,0.000000,4.000000,4.000000,4.000000,2.000000,4.000000,4.000000,4.000000,4.000000,4.000000,4.000000,4.000000,4.000000,4.000000,4.000000,4.000000,4.000000,4.000000,4.000000,4.000000,4.000000,4.000000,4.000000,4.000000,4.000000,2.000000,4.000000,4.000000,4.000000,4.000000,4.000000,4.000000,4.000000,66.666664
1614404626.968246,116.000000,0.000000,-13.636390,-18.041855,-15.600437,6.791654,36.805222,15.773405,3.337066,3.266087,18.556520,-111.004875,-18.298697,-13.775354,-25.875751,-21.445360,-34.444229,16.772030,-24.377249,-19.560963,-49.303131,-48.009979,-63.776684,-46.304558,-34.742176,-42.367348,-50.439442,-57.318081,-19.903955,-15.061782,-65.635094,-118.506393,-55.057507,-74.341255,7936.000000,0.000000,4.000000,,,,0.000000,4.000000,4.000000,4.000000,2.000000,4.000000,4.000000,4.000000,4.000000,4.000000,4.000000,4.000000,4.000000,4.000000,4.000000,4.000000,4.000000,4.000000,4.000000,4.000000,4.000000,4.000000,4.000000,4.000000,4.000000,2.000000,4.000000,4.000000,4.000000,4.000000,4.000000,4.000000,4.000000,66.666664
1614404626.976095,117.000000,0.000000,-13.622754,-15.972530,-9.943810,7.297683,36.768417,16.270452,3.846549,3.262821,15.461040,-106.791306,-17.254757,-11.197476,-25.849876,-20.398273,-31.332861,18.806540,-21.788771,-21.592684,-52.330750,-54.628635,-63.712906,-55.489021,-34.194614,-41.812160,-51.414642,-55.722301,-19.884052,-15.046720,-60.954075,-118.387886,-54.489628,-74.266914,7936.000000,0.000000,4.000000,,,,0.000000,4.000000,4.000000,4.000000,2.000000,4.000000,4.000000,4.000000,4.000000,4.000000,4.000000,4.000000,4.000000,4.000000,4.000000,4.000000,4.000000,4.000000,4.000000,4.000000,4.000000,4.000000,4.000000,4.000000,4.000000,2.000000,4.000000,4.000000,4.000000,4.000000,4.000000,4.000000,4.000000,66.666664
1614404626.983844,118.000000,0.000000,-13.609131,-14.930917,-7.882585,6.777565,37.244469,14.715720,2.304241,3.259558,14.419938,-107.710159,-17.750322,-15.288843,-26.849667,-21.916336,-32.839989,16.736450,-25.356724,-32.853142,-53.816883,-60.215034,-64.162010,-60.561737,-33.647598,-40.231884,-50.337589,-54.128117,-21.402630,-15.031673,-57.816200,-116.218216,-54.435139,-71.115723,7808.000000,0.000000,4.000000,,,,0.000000,4.000000,4.000000,4.000000,2.000000,4.000000,4.000000,4.000000,4.000000,4.000000,4.000000,4.000000,4.000000,4.000000,4.000000,4.000000,4.000000,4.000000,4.000000,4.000000,4.000000,4.000000,4.000000,4.000000,4.000000,2.000000,4.000000,4.000000,4.000000,4.000000,4.000000,4.000000,4.000000,66.666664
1614404626.991693,119.000000,0.000000,-13.595522,-15.428807,-13.002908,6.770787,36.694405,12.649723,0.250655,3.256298,16.456800,-108.628090,-14.142829,-14.247913,-16.566408,-16.253395,-24.602020,24.412022,-22.767265,-24.102341,-41.455372,-47.334305,-58.456825,-50.244766,-32.588310,-42.755756,-50.287251,-55.612450,-21.381227,-15.016642,-58.784023,-118.666100,-54.893524,-76.685631,7936.000000,0.000000,4.000000,,,,0.000000,4.000000,4.000000,4.000000,2.000000,4.000000,4.000000,4.000000,4.000000,4.000000,4.000000,4.000000,4.000000,4.000000,4.000000,4.000000,4.000000,4.000000,4.000000,4.000000,4.000000,4.000000,4.000000,4.000000,4.000000,2.000000,4.000000,4.000000,4.000000,4.000000,4.000000,4.000000,4.000000,66.666664
1614404626.999442,120.000000,0.000000,-13.581926,-14.900558,-11.964264,7.276837,37.170528,11.611432,-0.775237,2.740222,18.491625,-105.442535,7.409775,-5.515717,2.424518,3.250038,-9.192803,50.028637,-9.923985,1.562787,-26.029301,-30.876715,-48.141960,-37.886829,-31.017260,-42.200180,-51.262604,-56.582478,-14.693179,-15.001625,-56.673958,-118.547440,-54.838631,-77.634590,8064.000000,0.000000,4.000000,,,,0.000000,4.000000,4.000000,4.000000,2.000000,4.000000,4.000000,4.000000,4.000000,4.000000,4.000000,4.000000,4.000000,4.000000,4.000000,4.000000,4.000000,4.000000,4.000000,4.000000,4.000000,4.000000,4.000000,4.000000,4.000000,2.000000,4.000000,4.000000,4.000000,4.000000,4.000000,4.000000,4.000000,66.666664
1614404627.007291,121.000000,0.000000,-13.568344,-14.885657,-5.285633,7.269560,39.184639,12.112641,-0.261641,3.250302,18.985954,-100.721710,24.838263,-2.946099,8.575939,17.605762,-3.542585,62.799118,-7.862779,10.279173,-22.413528,-32.384300,-43.991253,-36.310482,-28.934961,-28.824646,-49.672878,-54.987434,-15.704127,-14.986624,-50.976257,-109.198120,-54.270973,-64.736443,8064.000000,0.000000,4.000000,,,,0.000000,4.000000,4.000000,4.000000,2.000000,4.000000,4.000000,4.000000,4.000000,4.000000,4.000000,4.000000,4.000000,4.000000,4.000000,4.000000,4.000000,4.000000,4.000000,4.000000,4.000000,4.000000,4.000000,4.000000,4.000000,2.000000,4.000000,4.000000,4.000000,4.000000,4.000000,4.000000,4.000000,66.666664
1614404627.015040,122.000000,0.000000,-13.554776,-16.409233,-8.357270,5.723829,41.196739,12.100529,-0.261379,2.734231,18.966969,-99.082527,14.044194,-7.045717,2.926338,8.357388,-12.256991,47.864525,-16.572865,-2.038798,-24.442398,-38.505764,-48.562645,-41.402374,-34.034229,-25.206078,-50.648849,-53.906807,-31.073038,-14.971637,-50.925282,-98.319695,-55.755161,-63.646065,8064.000000,0.000000,4.000000,,,,0.000000,4.000000,4.000000,4.000000,2.000000,4.000000,4.000000,4.000000,4.000000,4.000000,4.000000,4.000000,4.000000,4.000000,4.000000,4.000000,4.000000,4.000000,4.000000,4.000000,4.000000,4.000000,4.000000,4.000000,4.000000,2.000000,4.000000,4.000000,4.000000,4.000000,4.000000,4.000000,4.000000,66.666664
1614404627.022889,123.000000,0.000000,-13.541222,-13.315901,-12.451477,6.230926,40.642719,11.575607,-0.773938,2.731497,18.948002,-100.009087,-2.380107,-7.038671,1.897771,-5.497124,-19.937042,35.508968,-17.069113,-13.318810,-22.879494,-36.928795,-51.078186,-43.925076,-37.077122,-40.565487,-51.623840,-50.775978,-31.554787,-14.956665,-51.387177,-93.093170,-54.673767,-67.684982,8064.000000,0.000000,4.000000,,,,0.000000,4.000000,4.000000,4.000000,2.000000,4.000000,4.000000,4.000000,4.000000,4.000000,4.000000,4.000000,4.000000,4.000000,4.000000,4.000000,4.000000,4.000000,4.000000,4.000000,4.000000,4.000000,4.000000,4.000000,4.000000,2.000000,4.000000,4.000000,4.000000,4.000000,4.000000,4.000000,4.000000,66.666664
1614404627.030638,124.000000,0.000000,-13.527680,-8.687200,-4.746718,7.763156,40.602077,12.076853,-0.260344,6.318509,18.929054,-99.909073,-2.890547,-3.441889,1.895873,-6.517268,-20.942747,37.011921,-11.923839,-15.869595,-22.343794,-35.353405,-45.386082,-43.368328,-26.783632,-44.627487,-39.777344,-44.058533,-11.523232,-14.941709,-46.207584,-86.846230,-47.439606,-52.232681,8064.000000,0.000000,4.000000,,,,0.000000,4.000000,4.000000,4.000000,2.000000,4.000000,4.000000,4.000000,4.000000,4.000000,4.000000,4.000000,4.000000,4.000000,4.000000,4.000000,4.000000,4.000000,4.000000,4.000000,4.000000,4.000000,4.000000,4.000000,4.000000,2.000000,4.000000,4.000000,4.000000,4.000000,4.000000,4.000000,4.000000,66.666664
1614404627.038487,125.000000,0.000000,-11.462871,-11.242616,-2.177869,1.601547,40.561478,12.064775,-0.260084,10.927575,18.910124,-99.296349,-1.862016,-3.438447,0.355515,-5.485109,-22.460264,36.462090,-10.373453,-14.828084,-24.372732,-38.394974,-40.212490,-42.812141,-12.397875,-27.659781,-24.865772,-40.424732,-0.229657,-14.926766,-43.597275,-80.092712,-41.751141,-42.436859,8064.000000,0.000000,4.000000,,,,0.000000,4.000000,4.000000,4.000000,2.000000,4.000000,4.000000,4.000000,4.000000,4.000000,4.000000,4.000000,4.000000,4.000000,4.000000,4.000000,4.000000,4.000000,4.000000,4.000000,4.000000,4.000000,4.000000,4.000000,4.000000,2.000000,4.000000,4.000000,4.000000,4.000000,4.000000,4.000000,4.000000,66.666664
1614404627.046236,126.000000,0.000000,-9.912946,-15.846757,-11.919280,-4.553901,36.931171,10.001429,-0.772644,9.891006,18.891214,-101.248329,-3.911436,-4.460649,0.867980,-7.530906,-25.001907,34.887165,-9.850259,-16.864538,-24.348358,-38.869400,-42.223560,-41.743687,-10.847015,-17.888531,-30.481932,-43.461231,-3.819170,-15.424661,-44.579319,-80.012619,-39.658108,-54.702114,8064.000000,0.000000,4.000000,,,,0.000000,4.000000,4.000000,4.000000,2.000000,4.000000,4.000000,4.000000,4.000000,4.000000,4.000000,4.000000,4.000000,4.000000,4.000000,4.000000,4.000000,4.000000,4.000000,4.000000,4.000000,4.000000,4.000000,4.000000,4.000000,2.000000,4.000000,4.000000,4.000000,4.000000,4.000000,4.000000,4.000000,66.666664
1614404627.053885,127.000000,0.000000,-9.903033,-14.292449,-9.856079,5.194243,32.791676,7.940145,0.253770,7.317013,18.872322,-103.198364,-2.369063,-2.917727,-5.286734,-7.010555,-27.028187,35.365097,-13.430153,-19.924597,-23.811190,-36.266426,-47.309544,-40.163483,-19.041296,-20.947567,-41.733501,-43.930592,-7.917915,-14.383595,-39.919353,-81.983894,-32.438961,-54.647411,8064.000000,0.000000,4.000000,,,,0.000000,4.000000,4.000000,4.000000,2.000000,4.000000,4.000000,4.000000,4.000000,4.000000,4.000000,4.000000,4.000000,4.000000,4.000000,4.000000,4.000000,4.000000,4.000000,4.000000,4.000000,4.000000,4.000000,4.000000,4.000000,2.000000,4.000000,4.000000,4.000000,4.000000,4.000000,4.000000,4.000000,66.666664
1614404627.061634,0.000000,0.000000,-9.893130,-11.201234,-0.615454,18.009562,32.246063,7.932205,2.304798,7.309696,18.853451,-103.607986,-8.520540,-10.094296,-20.666061,-12.131749,-33.667828,26.098965,-24.185953,-22.981594,-32.505329,-43.922470,-52.390438,-50.379730,-30.817127,-26.567644,-43.230228,-45.937943,-19.192049,-14.882031,-37.828152,-79.850624,-24.714214,-40.746613,0.000000,155.000000,4.000000,,,,0.000000,4.000000,4.000000,4.000000,2.000000,4.000000,4.000000,4.000000,4.000000,4.000000,4.000000,4.000000,4.000000,4.000000,4.000000,4.000000,4.000000,4.000000,4.000000,4.000000,4.000000,4.000000,4.000000,4.000000,4.000000,2.000000,4.000000,4.000000,4.000000,4.000000,4.000000,4.000000,4.000000,66.666664
1614404627.069284,1.000000,0.000000,-9.883237,-11.702853,-4.204582,16.965910,33.239460,8.437094,1.789672,5.763925,18.834597,-102.991562,-18.255610,-21.879074,-29.363344,-18.786283,-39.788006,15.816455,-30.828434,-25.009895,-47.857437,-58.750343,-53.876511,-66.739609,-40.017078,-33.720562,-43.699818,-51.020210,-31.993370,-18.456894,-40.867249,-76.693848,-24.689501,-37.116119,0.000000,178.000000,4.000000,,,,0.000000,4.000000,4.000000,4.000000,2.000000,4.000000,4.000000,4.000000,4.000000,4.000000,4.000000,4.000000,4.000000,4.000000,4.000000,4.000000,4.000000,4.000000,4.000000,4.000000,4.000000,4.000000,4.000000,4.000000,4.000000,2.000000,4.000000,4.000000,4.000000,4.000000,4.000000,4.000000,4.000000,66.666664
1614404627.077033,2.000000,0.000000,-9.873354,-12.203971,0.927828,13.359201,32.693398,7.915836,-0.263399,3.194058,18.815763,-103.401390,-11.570686,-20.318733,-17.026289,-13.126472,-32.568729,25.031408,-20.028376,-19.856680,-48.322399,-51.512104,-43.053402,-56.929276,-29.720652,-36.250946,-39.553555,-42.251240,-26.320351,-16.387154,-33.646893,-69.437668,-24.151991,-35.027721,0.000000,195.000000,4.000000,,,,0.000000,4.000000,4.000000,4.000000,2.000000,4.000000,4.000000,4.000000,4.000000,4.000000,4.000000,4.000000,4.000000,4.000000,4.000000,4.000000,4.000000,4.000000,4.000000,4.000000,4.000000,4.000000,4.000000,4.000000,4.000000,2.000000,4.000000,4.000000,4.000000,4.000000,4.000000,4.000000,4.000000,66.666664
1614404627.084682,3.000000,0.000000,-7.299377,-11.678946,19.388439,13.345842,32.660706,7.907920,-0.775956,5.242146,18.796947,-103.297989,2.287038,-9.529184,1.965096,-1.318474,-19.715647,42.955093,-0.521167,-5.990670,-34.427925,-25.306746,-30.189835,-30.718502,-10.716572,-29.548029,-25.667849,-25.285912,-10.909415,-9.191280,-22.331194,-58.086182,-18.486813,-26.274746,0.000000,160.000000,4.000000,,,,0.000000,4.000000,4.000000,4.000000,4.000000,4.000000,4.000000,4.000000,4.000000,4.000000,4.000000,4.000000,4.000000,4.000000,4.000000,4.000000,4.000000,4.000000,4.000000,4.000000,4.000000,4.000000,4.000000,4.000000,4.000000,2.000000,4.000000,4.000000,4.000000,4.000000,4.000000,4.000000,4.000000,83.333336
1614404627.092431,4.000000,0.000000,-5.753617,-11.667267,20.907511,11.794035,33.140865,8.412832,0.250461,5.749724,18.778151,-102.681870,3.310392,-6.442732,2.988772,2.785408,-18.157471,49.065987,5.633201,4.271731,-27.726830,-20.666054,-31.698107,-27.098040,-11.218676,-21.826172,-22.052437,-21.670881,-5.770300,-6.105165,-23.847324,-51.361427,-18.468327,-22.145906,0.000000,165.000000,4.000000,,,,0.000000,4.000000,4.000000,4.000000,4.000000,4.000000,4.000000,4.000000,4.000000,4.000000,4.000000,4.000000,4.000000,4.000000,4.000000,4.000000,4.000000,4.000000,4.000000,4.000000,4.000000,4.000000,4.000000,4.000000,4.000000,2.000000,4.000000,4.000000,4.000000,4.000000,4.000000,4.000000,4.000000,83.333336
1614404627.100080,5.000000,0.000000,-7.286325,-11.655600,8.578912,10.756599,33.107723,8.404420,-0.262610,1.128590,18.759371,-101.553543,-2.333944,-8.487571,-8.296268,1.244162,-24.293159,45.939995,-5.141664,3.754639,-30.263205,-37.568466,-40.384357,-41.942738,-24.027969,-19.753065,-33.312435,-26.264595,-8.328632,-7.637522,-29.977324,-51.310066,-21.526781,-23.662224,0.000000,203.000000,4.000000,,,,0.000000,4.000000,4.000000,4.000000,4.000000,4.000000,4.000000,4.000000,4.000000,4.000000,4.000000,4.000000,4.000000,4.000000,4.000000,4.000000,4.000000,4.000000,4.000000,4.000000,4.000000,4.000000,4.000000,4.000000,4.000000,2.000000,4.000000,4.000000,4.000000,4.000000,4.000000,4.000000,4.000000,83.333336
1614404627.107829,6.000000,0.000000,-9.843141,-11.643944,4.980589,10.233023,33.074615,8.396015,-0.262348,-0.923821,18.740612,-102.477631,-2.331610,-7.453443,-8.800793,-1.321185,-25.294506,42.304314,-13.341650,-0.864500,-32.284225,-42.146282,-41.882435,-45.490536,-27.593685,-22.810234,-36.356045,-28.289614,-9.858766,-7.629884,-29.434526,-51.771576,-21.505255,-25.177023,0.000000,194.000000,4.000000,,,,0.000000,4.000000,4.000000,4.000000,4.000000,4.000000,4.000000,4.000000,4.000000,4.000000,4.000000,4.000000,4.000000,4.000000,4.000000,4.000000,4.000000,4.000000,4.000000,4.000000,4.000000,4.000000,4.000000,4.000000,4.000000,2.000000,4.000000,4.000000,4.000000,4.000000,4.000000,4.000000,4.000000,83.333336
1614404627.115478,7.000000,0.000000,-9.833298,-12.145121,4.975608,8.684328,33.041542,8.387619,-0.262085,2.154026,18.209051,-103.400795,-2.329279,-6.420348,-2.125325,-1.319864,-23.217930,40.210728,-8.712924,0.162005,-29.687838,-34.411827,-40.302090,-40.316841,-25.001989,-28.941271,-32.217125,-29.799786,-9.336086,-7.109434,-28.379450,-51.206985,-22.509390,-23.100563,0.000000,175.000000,4.000000,,,,0.000000,4.000000,4.000000,4.000000,4.000000,4.000000,4.000000,4.000000,4.000000,4.000000,4.000000,4.000000,4.000000,4.000000,4.000000,4.000000,4.000000,4.000000,4.000000,4.000000,4.000000,4.000000,4.000000,4.000000,4.000000,2.000000,4.000000,4.000000,4.000000,4.000000,4.000000,4.000000,4.000000,83.333336
1614404627.123227,8.000000,0.000000,-9.310644,-10.594514,14.201403,13.291028,33.008499,8.379231,-0.261823,3.690334,19.216484,-100.220474,-1.814129,-6.926748,-3.661661,-1.831365,-24.733173,39.657696,-2.037544,0.161843,-28.632509,-32.326134,-41.287430,-39.250885,-26.002628,-30.963612,-30.646448,-27.718702,-7.788289,-7.102324,-28.863892,-51.668598,-20.948420,-15.385155,0.000000,170.000000,4.000000,,,,0.000000,4.000000,4.000000,4.000000,4.000000,4.000000,4.000000,4.000000,4.000000,4.000000,4.000000,4.000000,4.000000,4.000000,4.000000,4.000000,4.000000,4.000000,4.000000,4.000000,4.000000,4.000000,4.000000,4.000000,4.000000,2.000000,4.000000,4.000000,4.000000,4.000000,4.000000,4.000000,4.000000,83.333336
1614404627.130877,9.000000,0.000000,-9.814154,-8.019817,28.546175,14.303378,31.949850,8.370852,-0.261561,3.173823,18.684446,-104.222816,-2.325135,-7.432642,-7.760564,-9.009021,-27.272543,38.079575,-2.035507,-7.530626,-36.809006,-33.832268,-41.758965,-40.237274,-27.002266,-28.368546,-29.590160,-23.588421,-5.729218,-7.095222,-26.783747,-50.078468,-15.799266,-8.703103,0.000000,189.000000,4.000000,,,,0.000000,4.000000,4.000000,4.000000,4.000000,4.000000,4.000000,4.000000,4.000000,4.000000,4.000000,4.000000,4.000000,4.000000,4.000000,4.000000,4.000000,4.000000,4.000000,4.000000,4.000000,4.000000,4.000000,4.000000,4.000000,2.000000,4.000000,4.000000,4.000000,4.000000,4.000000,4.000000,4.000000,83.333336
1614404627.138626,10.000000,0.000000,-9.804339,-7.498977,16.722757,0.955742,27.815336,8.362481,-0.261300,3.170649,15.076018,-116.426285,-14.117682,-7.425209,-7.239983,-17.717960,-28.783731,32.913292,-5.623215,-15.728224,-45.490143,-34.311256,-41.204384,-41.222679,-26.462444,-27.827356,-28.534929,-23.564833,-6.236310,-8.113768,-25.218500,-48.489929,-17.834749,-9.207221,0.000000,194.000000,4.000000,,,,0.000000,4.000000,4.000000,4.000000,4.000000,4.000000,4.000000,4.000000,4.000000,4.000000,4.000000,4.000000,4.000000,4.000000,4.000000,4.000000,4.000000,4.000000,4.000000,4.000000,4.000000,4.000000,4.000000,4.000000,4.000000,2.000000,4.000000,4.000000,4.000000,4.000000,4.000000,4.000000,4.000000,83.333336
1614404627.146275,11.000000,0.000000,-9.794536,-8.004298,-3.806786,-3.147778,25.223419,8.866940,-0.261039,3.167479,11.984019,-117.848320,-21.283051,-6.904963,-6.207101,-18.725883,-28.242128,30.829096,-7.668873,-16.738136,-42.880550,-33.764126,-41.163177,-40.668633,-26.435982,-25.748247,-27.993574,-22.002806,-6.230073,-7.592834,-24.680462,-47.415798,-24.483580,-9.198013,0.000000,182.000000,4.000000,,,,0.000000,4.000000,4.000000,4.000000,4.000000,4.000000,4.000000,4.000000,4.000000,4.000000,4.000000,4.000000,4.000000,4.000000,4.000000,4.000000,4.000000,4.000000,4.000000,4.000000,4.000000,4.000000,4.000000,4.000000,4.000000,2.000000,4.000000,4.000000,4.000000,4.000000,4.000000,4.000000,4.000000,83.333336
1614404627.154024,12.000000,0.000000,-9.784740,-7.996294,2.863687,7.624600,25.711016,7.319611,0.252043,3.164311,11.459214,-106.961243,-13.056641,-8.436521,-6.713715,-16.655876,-27.701065,31.823908,-5.097102,-15.182937,-37.196644,-31.679079,-40.609196,-38.576683,-25.896725,-18.030190,-26.939939,-23.006443,-5.198202,-6.046780,-26.194242,-47.881203,-25.484737,-9.701636,0.000000,191.000000,4.000000,,,,0.000000,4.000000,4.000000,4.000000,4.000000,4.000000,4.000000,4.000000,4.000000,4.000000,4.000000,4.000000,4.000000,4.000000,4.000000,4.000000,4.000000,4.000000,4.000000,4.000000,4.000000,4.000000,4.000000,4.000000,4.000000,2.000000,4.000000,4.000000,4.000000,4.000000,4.000000,4.000000,4.000000,83.333336
1614404627.161673,13.000000,0.000000,-9.774956,-7.475477,7.476208,6.078514,25.685305,5.261009,-1.286671,3.673967,9.396473,-107.367104,-10.992302,-10.479365,-8.245462,-18.177681,-30.237467,31.279264,-9.194569,-16.193396,-40.749191,-38.826889,-42.619869,-46.743237,-27.922110,-15.448057,-29.477100,-31.188566,-8.782747,-11.681758,-31.809074,-48.858963,-26.484894,-14.820139,0.000000,202.000000,4.000000,,,,0.000000,4.000000,4.000000,4.000000,4.000000,4.000000,4.000000,4.000000,4.000000,4.000000,4.000000,4.000000,4.000000,4.000000,4.000000,4.000000,4.000000,4.000000,4.000000,4.000000,4.000000,4.000000,4.000000,4.000000,4.000000,2.000000,4.000000,4.000000,4.000000,4.000000,4.000000,4.000000,4.000000,83.333336
1614404627.169422,14.000000,0.000000,-9.765182,-7.980822,-6.890242,-5.209616,22.582697,4.230107,-3.336666,1.619011,7.335795,-115.464859,-17.647976,-11.494527,-10.801320,-18.159504,-32.258511,31.247984,-22.005888,-16.690022,-45.836647,-53.659855,-44.628529,-58.491364,-30.458290,-22.612097,-32.011726,-31.157377,-15.440632,-18.336742,-32.802906,-46.246002,-28.509691,-17.369421,0.000000,197.000000,4.000000,,,,0.000000,4.000000,4.000000,4.000000,4.000000,4.000000,4.000000,4.000000,4.000000,4.000000,4.000000,4.000000,4.000000,4.000000,4.000000,4.000000,4.000000,4.000000,4.000000,4.000000,4.000000,4.000000,4.000000,4.000000,4.000000,2.000000,4.000000,4.000000,4.000000,4.000000,4.000000,4.000000,4.000000,83.333336
1614404627.177071,15.000000,0.000000,-9.755416,-7.972841,-5.857711,-2.640303,21.534473,5.251518,-4.358970,-0.433890,7.841280,-113.298111,-14.553405,-10.970212,-9.764877,-13.525959,-30.174971,34.806480,-22.496702,-15.134871,-45.277992,-50.529274,-42.532619,-53.817486,-29.402191,-27.717690,-28.389971,-18.818527,-17.989294,-14.728662,-30.206001,-41.584370,-24.891438,-16.839231,0.000000,208.000000,4.000000,,,,0.000000,4.000000,4.000000,4.000000,4.000000,4.000000,4.000000,4.000000,4.000000,4.000000,4.000000,4.000000,4.000000,4.000000,4.000000,4.000000,4.000000,4.000000,4.000000,4.000000,4.000000,4.000000,4.000000,4.000000,4.000000,2.000000,4.000000,4.000000,4.000000,4.000000,4.000000,4.000000,4.000000,83.333336
1614404627.184820,16.000000,0.000000,-9.745661,-7.964869,5.430198,4.029004,22.538580,4.733446,-5.893073,-0.946277,5.782156,-108.056610,-9.410646,-10.959242,-6.678190,-9.409869,-25.529411,38.874237,-9.653692,-12.555634,-44.719891,-35.606949,-40.438805,-40.943157,-26.295866,-26.151510,-28.874401,-13.158683,-16.945663,-10.611370,-32.227077,-40.004326,-23.840906,-16.822393,0.000000,200.000000,4.000000,,,,0.000000,4.000000,4.000000,4.000000,4.000000,4.000000,4.000000,4.000000,4.000000,4.000000,4.000000,4.000000,4.000000,4.000000,4.000000,4.000000,4.000000,4.000000,4.000000,4.000000,4.000000,4.000000,4.000000,4.000000,4.000000,2.000000,4.000000,4.000000,4.000000,4.000000,4.000000,4.000000,4.000000,83.333336
1614404627.192470,17.000000,0.000000,-9.735915,-7.956903,-1.241899,3.512154,19.439117,2.164610,-7.938462,-0.432510,1.160989,-107.948555,-14.529441,-10.948283,-6.158691,-8.887639,-23.965420,39.861004,-4.515834,-11.517437,-45.187992,-31.981598,-40.911186,-38.850933,-25.756750,-26.125359,-39.101936,-18.786551,-16.928717,-15.728964,-36.297413,-40.989960,-28.945271,-17.318390,0.000000,161.000000,4.000000,,,,0.000000,4.000000,4.000000,4.000000,4.000000,4.000000,4.000000,4.000000,4.000000,4.000000,4.000000,4.000000,4.000000,4.000000,4.000000,4.000000,4.000000,4.000000,4.000000,4.000000,4.000000,4.000000,4.000000,4.000000,4.000000,4.000000,4.000000,4.000000,4.000000,4.000000,4.000000,4.000000,4.000000,100.000000
1614404627.200219,18.000000,0.000000,-9.726179,-7.948947,-9.958606,4.021462,14.291473,0.623984,-7.930523,-0.432077,-0.378633,-108.866249,-17.591835,-11.450155,-7.178173,-10.930033,-24.454275,38.282681,-7.588241,-12.531560,-43.091522,-33.488079,-41.383095,-41.376183,-26.243814,-27.124874,-43.165401,-25.434431,-17.937429,-19.815800,-36.773937,-40.948971,-29.941965,-18.326714,0.000000,220.000000,4.000000,,,,0.000000,4.000000,4.000000,4.000000,4.000000,4.000000,4.000000,4.000000,4.000000,4.000000,4.000000,4.000000,4.000000,4.000000,4.000000,4.000000,4.000000,4.000000,4.000000,4.000000,4.000000,4.000000,4.000000,4.000000,4.000000,4.000000,4.000000,4.000000,4.000000,4.000000,4.000000,4.000000,4.000000,100.000000
1614404627.207868,19.000000,0.000000,-10.229273,-7.940998,-7.897365,6.068723,13.251541,0.110540,-7.409772,-0.944466,0.134566,-109.270203,-15.010140,-10.925884,-7.683815,-10.919103,-24.942642,37.731579,-7.067832,-13.031849,-40.484329,-31.916128,-42.367355,-40.821987,-26.217569,-27.097750,-36.455566,-23.357714,-17.406672,-16.719061,-37.249985,-38.343918,-26.835100,-18.308386,0.000000,228.000000,4.000000,,,,0.000000,4.000000,4.000000,4.000000,4.000000,4.000000,4.000000,4.000000,4.000000,4.000000,4.000000,4.000000,4.000000,4.000000,4.000000,4.000000,4.000000,4.000000,4.000000,4.000000,4.000000,4.000000,4.000000,4.000000,4.000000,4.000000,4.000000,4.000000,4.000000,4.000000,4.000000,4.000000,4.000000,100.000000
1614404627.215717,20.000000,0.000000,-9.706223,-7.933057,-4.812545,7.601116,14.263930,1.136070,-7.915183,-1.456342,-0.378389,-108.135292,-12.943848,-10.914959,-7.676132,-9.369722,-25.943340,39.232307,-7.573585,-11.480355,-37.366920,-28.807289,-41.299347,-40.268345,-26.191353,-28.096292,-30.778088,-15.129228,-15.337983,-14.138239,-35.674271,-36.254295,-24.756983,-15.213155,0.000000,170.000000,4.000000,,,,0.000000,4.000000,4.000000,4.000000,4.000000,4.000000,4.000000,4.000000,4.000000,4.000000,4.000000,4.000000,4.000000,4.000000,4.000000,4.000000,4.000000,4.000000,4.000000,4.000000,4.000000,4.000000,4.000000,4.000000,4.000000,4.000000,4.000000,4.000000,4.000000,4.000000,4.000000,4.000000,4.000000,100.000000
1614404627.223466,21.000000,0.000000,-9.183697,-6.899483,1.346114,7.593515,14.762487,0.109293,-6.881627,0.083576,1.160451,-106.488693,-12.930904,-11.416864,-7.155635,-12.437276,-26.943037,37.141796,-9.617293,-11.981696,-38.355194,-26.727200,-39.719585,-38.689613,-26.165161,-27.555376,-30.747309,-20.755125,-12.758542,-14.636921,-31.536034,-38.269321,-24.732227,-14.172301,0.000000,198.000000,4.000000,,,,0.000000,4.000000,4.000000,4.000000,4.000000,4.000000,4.000000,4.000000,4.000000,4.000000,4.000000,4.000000,4.000000,4.000000,4.000000,4.000000,4.000000,4.000000,4.000000,4.000000,4.000000,4.000000,4.000000,4.000000,4.000000,4.000000,4.000000,4.000000,4.000000,4.000000,4.000000,4.000000,4.000000,100.000000
1614404627.231315,22.000000,0.000000,-11.738616,-7.405404,4.421691,3.483357,14.234904,-2.454919,-7.387566,0.083493,0.646470,-111.510406,-16.507717,-10.379807,-11.763865,-19.091505,-28.967377,28.899525,-10.120497,-11.969714,-43.445045,-33.879959,-42.756786,-40.702206,-26.651815,-25.989359,-34.306305,-36.631805,-14.284245,-15.647924,-28.940395,-37.718231,-27.271597,-13.132487,0.000000,211.000000,4.000000,,,,0.000000,4.000000,4.000000,4.000000,4.000000,4.000000,4.000000,4.000000,4.000000,4.000000,4.000000,4.000000,4.000000,4.000000,4.000000,4.000000,4.000000,4.000000,4.000000,4.000000,4.000000,4.000000,4.000000,4.000000,4.000000,4.000000,4.000000,4.000000,4.000000,4.000000,4.000000,4.000000,4.000000,100.000000
1614404627.239064,23.000000,0.000000,-13.265339,-8.423639,2.878808,5.531156,14.733490,-0.401182,-7.892999,-1.967873,-0.379818,-111.398903,-14.952747,-6.779683,-11.239280,-9.841644,-26.887127,36.050114,-8.059093,-4.778257,-37.760574,-37.435822,-37.073006,-41.174324,-24.061062,-28.014652,-29.143793,-23.261841,-12.731500,-14.093816,-23.783249,-20.757437,-20.577658,0.213978,0.000000,201.000000,4.000000,,,,0.000000,4.000000,4.000000,4.000000,4.000000,4.000000,4.000000,4.000000,4.000000,4.000000,4.000000,4.000000,4.000000,4.000000,4.000000,4.000000,4.000000,4.000000,4.000000,4.000000,4.000000,4.000000,4.000000,4.000000,4.000000,4.000000,4.000000,4.000000,4.000000,4.000000,4.000000,4.000000,4.000000,100.000000
1614404627.246913,24.000000,0.000000,-7.611048,-2.774190,11.081058,17.320496,20.872602,8.829988,-3.269721,2.649480,9.364152,-92.313141,-0.066000,-1.131877,11.336062,15.809223,-10.962805,60.629448,5.795119,8.559855,-14.133071,-15.859925,-12.933369,-24.722895,-16.857513,-21.832790,-8.601830,9.581935,-0.923896,-7.925876,-12.990235,-2.275140,-5.685286,19.700943,0.000000,169.000000,4.000000,,,,0.000000,4.000000,4.000000,4.000000,4.000000,4.000000,4.000000,4.000000,4.000000,4.000000,4.000000,4.000000,4.000000,4.000000,4.000000,4.000000,4.000000,4.000000,4.000000,4.000000,4.000000,4.000000,4.000000,4.000000,4.000000,4.000000,4.000000,4.000000,4.000000,4.000000,4.000000,4.000000,4.000000,100.000000
1614404627.254662,25.000000,0.000000,-1.962411,1.331148,20.300745,19.354458,27.518396,14.462184,0.836113,12.390420,18.585558,-81.451599,9.164835,2.971818,26.196522,22.460081,1.868671,68.261124,23.225222,12.653858,-5.913809,-1.997912,0.412898,-10.339197,-11.199631,0.753144,2.176003,13.162096,11.384720,-3.302565,-10.925962,-1.760045,-6.192421,23.783806,0.000000,198.000000,4.000000,,,,0.000000,4.000000,4.000000,4.000000,4.000000,4.000000,4.000000,4.000000,4.000000,4.000000,4.000000,4.000000,4.000000,4.000000,4.000000,4.000000,4.000000,4.000000,4.000000,4.000000,4.000000,4.000000,4.000000,4.000000,4.000000,4.000000,4.000000,4.000000,4.000000,4.000000,4.000000,4.000000,4.000000,100.000000
1614404627.262511,26.000000,0.000000,-1.447628,-8.413773,10.536855,4.976129,23.388313,7.781055,-2.241647,10.839568,8.823381,-100.344505,-2.639201,3.994488,6.683145,1.924800,-10.953711,49.731323,18.073792,-0.692129,-24.369434,-23.021555,-12.920848,-24.687832,-10.675611,18.188288,-11.159506,-8.389527,13.424617,-4.837724,-19.120165,-8.424952,-20.032383,12.477972,0.000000,204.000000,4.000000,,,,0.000000,4.000000,4.000000,4.000000,4.000000,4.000000,4.000000,4.000000,4.000000,4.000000,4.000000,4.000000,4.000000,4.000000,4.000000,4.000000,4.000000,4.000000,4.000000,4.000000,4.000000,4.000000,4.000000,4.000000,4.000000,4.000000,4.000000,4.000000,4.000000,4.000000,4.000000,4.000000,4.000000,100.000000
1614404627.270260,27.000000,0.000000,-2.984642,-19.174589,2.321190,-2.208334,13.621336,-4.021597,-7.367610,0.572318,-6.057237,-116.654419,-14.944254,3.477673,-10.246615,-10.384817,-27.353012,39.425182,-0.405821,-12.486308,-35.627117,-37.357510,-27.266901,-40.560581,-11.177755,9.452151,-21.917578,-14.534984,12.385551,-7.396989,-21.152327,-7.390885,-18.473888,4.260365,0.000000,180.000000,4.000000,,,,0.000000,4.000000,4.000000,4.000000,4.000000,4.000000,4.000000,4.000000,4.000000,4.000000,4.000000,4.000000,4.000000,4.000000,4.000000,4.000000,4.000000,4.000000,4.000000,4.000000,4.000000,4.000000,4.000000,4.000000,4.000000,4.000000,4.000000,4.000000,4.000000,4.000000,4.000000,4.000000,4.000000,100.000000
1614404627.278109,28.000000,0.000000,-1.956016,-17.104134,10.523997,1.896438,10.017971,-6.068858,-7.873063,-1.992357,-4.512718,-109.358276,-12.878028,4.499836,0.020042,-3.194945,-21.171814,47.078068,-3.482338,-4.268694,-25.847898,-24.499638,-25.188353,-31.289251,-11.166577,-6.454737,-17.793095,-7.853782,12.885986,-6.876771,-17.541431,-7.383494,-7.173364,7.845849,0.000000,175.000000,4.000000,,,,0.000000,4.000000,4.000000,4.000000,4.000000,4.000000,4.000000,4.000000,4.000000,4.000000,4.000000,4.000000,4.000000,4.000000,4.000000,4.000000,4.000000,4.000000,4.000000,4.000000,4.000000,4.000000,4.000000,4.000000,4.000000,4.000000,4.000000,4.000000,4.000000,4.000000,4.000000,4.000000,4.000000,100.000000
1614404627.285858,29.000000,0.000000,-1.441240,-11.958824,14.616037,3.433003,11.546414,-2.985866,-6.839549,0.573738,1.132821,-101.556610,-1.583099,7.059439,6.686688,3.987737,-8.842950,55.748936,2.162169,9.068909,-18.129744,-15.757189,-21.573421,-19.975910,-10.642591,-8.499564,-15.211200,-8.358749,12.873100,-6.869895,-17.523890,-7.376111,-7.166190,12.453387,0.000000,169.000000,4.000000,,,,0.000000,4.000000,4.000000,4.000000,4.000000,4.000000,4.000000,4.000000,4.000000,4.000000,4.000000,4.000000,4.000000,4.000000,4.000000,4.000000,4.000000,4.000000,4.000000,4.000000,4.000000,4.000000,4.000000,4.000000,4.000000,4.000000,4.000000,4.000000,4.000000,4.000000,4.000000,4.000000,4.000000,100.000000
1614404627.293607,30.000000,0.000000,-4.003901,-11.434045,13.062960,2.403929,11.022048,-2.470060,-7.345530,-0.965297,-0.406774,-104.019157,5.597971,8.078020,3.603079,8.599133,-9.859748,57.744469,0.108725,11.111121,-19.137255,-17.792713,-22.064669,-23.032858,-11.657589,-6.952603,-17.247271,-10.914493,11.321766,-7.375845,-18.532007,-4.291812,-11.261588,11.415293,0.000000,219.000000,4.000000,,,,0.000000,4.000000,4.000000,4.000000,4.000000,4.000000,4.000000,4.000000,4.000000,4.000000,4.000000,4.000000,4.000000,4.000000,4.000000,4.000000,4.000000,4.000000,4.000000,4.000000,4.000000,4.000000,4.000000,4.000000,4.000000,4.000000,4.000000,4.000000,4.000000,4.000000,4.000000,4.000000,4.000000,100.000000
1614404627.301356,31.000000,0.000000,-8.615282,-9.884149,15.101178,4.452807,10.498205,0.096513,-7.851005,-0.964332,2.670556,-104.427956,2.515450,5.505840,4.112296,11.667458,-13.952452,54.096981,-5.532409,9.561549,-22.195040,-21.877485,-25.632347,-29.163671,-15.235675,-10.535394,-18.768484,-9.877937,5.669418,-7.368469,-18.000654,-6.338802,-10.737506,11.916698,0.000000,190.000000,4.000000,,,,0.000000,4.000000,4.000000,4.000000,4.000000,4.000000,4.000000,4.000000,4.000000,4.000000,4.000000,4.000000,4.000000,4.000000,4.000000,4.000000,4.000000,4.000000,4.000000,4.000000,4.000000,4.000000,4.000000,4.000000,4.000000,4.000000,4.000000,4.000000,4.000000,4.000000,4.000000,4.000000,4.000000,100.000000
1614404627.309006,32.000000,0.000000,-10.145128,-6.797342,15.598898,7.012457,11.000527,0.609237,-7.330333,-0.450547,7.796091,-102.272247,-6.205014,1.397770,0.005620,3.963482,-13.425679,50.453140,-7.065338,9.551987,-22.685665,-31.086376,-30.222099,-31.698610,-19.323004,-13.088961,-17.211254,-8.842419,-1.515738,-7.361101,-17.469833,-10.435027,-11.752410,11.904781,8064.000000,0.000000,4.000000,,,,0.000000,4.000000,4.000000,4.000000,4.000000,4.000000,4.000000,4.000000,4.000000,4.000000,4.000000,4.000000,4.000000,4.000000,4.000000,4.000000,4.000000,4.000000,4.000000,4.000000,4.000000,4.000000,4.000000,4.000000,4.000000,4.000000,4.000000,4.000000,4.000000,4.000000,4.000000,4.000000,4.000000,100.000000
1614404627.316755,33.000000,0.000000,-9.622162,-8.329006,14.557658,7.005445,8.938245,-8.109321,-7.323003,-0.450097,3.172910,-103.708435,-9.788552,-1.167730,-6.148232,-8.860994,-12.386612,49.889866,-6.545453,6.465512,-21.637339,-36.183495,-29.166237,-32.179733,-18.790859,-12.563051,-14.629941,-8.833576,-3.052684,-6.840919,-17.452364,-11.963054,-14.304760,6.251851,8064.000000,0.000000,4.000000,,,,0.000000,4.000000,4.000000,4.000000,4.000000,4.000000,4.000000,4.000000,4.000000,4.000000,4.000000,4.000000,4.000000,4.000000,4.000000,4.000000,4.000000,4.000000,4.000000,4.000000,4.000000,4.000000,4.000000,4.000000,4.000000,4.000000,4.000000,4.000000,4.000000,4.000000,4.000000,4.000000,4.000000,100.000000
1614404627.324404,34.000000,0.000000,-9.612540,-10.884779,12.491818,4.947157,7.390845,-14.767879,-7.315680,1.601636,-3.496930,-107.707291,-9.265944,0.884719,-7.167725,-10.903415,-12.887046,45.737415,-6.538907,-0.720441,-26.743908,-34.096031,-29.137070,-32.147552,-13.643864,-11.524847,-22.307619,-9.337563,-2.536811,-6.834078,-17.947731,-16.053656,-14.803275,0.604574,8064.000000,0.000000,4.000000,,,,0.000000,4.000000,4.000000,4.000000,4.000000,4.000000,4.000000,4.000000,4.000000,4.000000,4.000000,4.000000,4.000000,4.000000,4.000000,4.000000,4.000000,4.000000,4.000000,4.000000,4.000000,4.000000,4.000000,4.000000,4.000000,4.000000,4.000000,4.000000,4.000000,4.000000,4.000000,4.000000,4.000000,100.000000
1614404627.332153,35.000000,0.000000,-10.115748,-11.386715,3.248557,2.890928,6.357813,-13.214649,-6.795544,3.651316,-3.493433,-110.163689,-9.256678,3.447937,-9.211840,-9.354050,-14.925442,38.512188,-7.045188,-8.412028,-36.460754,-37.651676,-36.800240,-33.653866,-11.578938,-11.513323,-32.028900,-9.328225,-3.559915,-7.340065,-18.442604,-18.601704,-14.275652,0.091149,8064.000000,0.000000,4.000000,,,,0.000000,4.000000,4.000000,4.000000,4.000000,4.000000,4.000000,4.000000,4.000000,4.000000,4.000000,4.000000,4.000000,4.000000,4.000000,4.000000,4.000000,4.000000,4.000000,4.000000,4.000000,4.000000,4.000000,4.000000,4.000000,4.000000,4.000000,4.000000,4.000000,4.000000,4.000000,4.000000,4.000000,100.000000
1614404627.339802,36.000000,0.000000,-9.592812,-11.375328,-4.959820,2.888037,4.300173,-13.714254,-7.814389,1.596383,-1.951478,-110.566345,-11.811523,-0.658075,-14.330832,-10.883158,-16.961798,36.422394,-7.038143,-13.019000,-35.911472,-41.203770,-40.866005,-32.081749,-13.105821,-12.527451,-21.227642,-8.293256,-2.530714,-6.819904,-16.372879,-11.916435,-13.748555,1.116699,8064.000000,0.000000,4.000000,,,,0.000000,4.000000,4.000000,4.000000,4.000000,4.000000,4.000000,4.000000,4.000000,4.000000,4.000000,4.000000,4.000000,4.000000,4.000000,4.000000,4.000000,4.000000,4.000000,4.000000,4.000000,4.000000,4.000000,4.000000,4.000000,4.000000,4.000000,4.000000,4.000000,4.000000,4.000000,4.000000,4.000000,100.000000
1614404627.347551,37.000000,0.000000,-9.583219,-11.363953,-1.365116,2.885149,3.270232,-16.777464,-9.857857,-0.456496,-2.975167,-109.942955,-13.338173,-9.375365,-14.829322,-10.359454,-16.944836,37.924435,-6.518285,-11.980340,-30.234535,-39.624104,-33.645653,-33.075310,-15.656817,-11.489282,-8.385900,-12.387527,-3.041004,-7.325905,-18.920609,-8.314775,-15.273269,0.602761,8064.000000,0.000000,4.000000,,,,0.000000,4.000000,4.000000,4.000000,4.000000,4.000000,4.000000,4.000000,4.000000,4.000000,4.000000,4.000000,4.000000,4.000000,4.000000,4.000000,4.000000,4.000000,4.000000,4.000000,4.000000,4.000000,4.000000,4.000000,4.000000,4.000000,4.000000,4.000000,4.000000,4.000000,4.000000,4.000000,4.000000,100.000000
1614404627.355200,38.000000,0.000000,-9.573636,-11.352589,3.251634,2.882264,3.779782,-15.735045,-11.386460,-0.456039,-3.485013,-109.833015,-13.324835,-12.442913,-13.788852,-9.836274,-16.927891,37.886509,-5.998946,-9.404258,-33.281223,-43.687046,-28.483801,-43.811466,-21.282187,-10.452151,-20.685207,-19.041805,-8.678988,-11.421143,-27.106817,-11.896204,-17.822098,0.602159,8064.000000,0.000000,4.000000,,,,0.000000,4.000000,4.000000,4.000000,4.000000,4.000000,4.000000,4.000000,4.000000,4.000000,4.000000,4.000000,4.000000,4.000000,4.000000,4.000000,4.000000,4.000000,4.000000,4.000000,4.000000,4.000000,4.000000,4.000000,4.000000,4.000000,4.000000,4.000000,4.000000,4.000000,4.000000,4.000000,4.000000,100.000000
1614404627.362949,39.000000,0.000000,-9.564062,-11.341236,0.684279,3.392202,3.776003,-12.642387,-10.862253,0.057237,-2.455887,-109.723183,-12.798690,-9.866367,-13.775063,-9.826438,-16.910963,37.335804,-7.018588,-8.369212,-37.350506,-45.181820,-29.480957,-46.844578,-26.389109,-17.108366,-33.485035,-19.535585,-12.260053,-14.486645,-25.028427,-10.345846,-14.727352,0.601556,8064.000000,0.000000,4.000000,,,,0.000000,4.000000,4.000000,4.000000,4.000000,4.000000,4.000000,4.000000,4.000000,4.000000,4.000000,4.000000,4.000000,4.000000,4.000000,4.000000,4.000000,4.000000,4.000000,4.000000,4.000000,4.000000,4.000000,4.000000,4.000000,4.000000,4.000000,4.000000,4.000000,4.000000,4.000000,4.000000,4.000000,100.000000
1614404627.370599,40.000000,0.000000,-9.554498,-11.329895,-1.880507,2.363169,3.772227,-12.629745,-8.800109,-0.455640,-2.453431,-109.613457,-13.298712,-5.753937,-11.710006,-5.714047,-16.894053,37.811287,-5.985929,-7.848022,-34.236233,-36.418690,-28.425835,-36.541321,-22.772976,-25.809206,-27.810524,-13.875024,-7.632409,-14.984979,-16.798271,-7.258577,-10.097240,1.113775,8064.000000,0.000000,4.000000,,,,0.000000,4.000000,4.000000,4.000000,4.000000,4.000000,4.000000,4.000000,4.000000,4.000000,4.000000,4.000000,4.000000,4.000000,4.000000,4.000000,4.000000,4.000000,4.000000,4.000000,4.000000,4.000000,4.000000,4.000000,4.000000,4.000000,4.000000,4.000000,4.000000,4.000000,4.000000,4.000000,4.000000,100.000000
1614404627.378348,41.000000,0.000000,-9.544944,-11.318565,-1.365806,-0.203297,3.768454,-13.129935,-7.252848,-0.455185,-6.040721,-109.503845,-13.285413,-3.184081,-10.159834,-1.092948,-16.877159,37.773476,-1.364558,-7.327354,-32.663536,-36.382271,-27.884588,-30.863754,-17.109179,-26.296217,-22.141687,-11.809866,-0.958109,-14.457173,-24.473782,-10.841063,-13.164066,1.112662,8064.000000,0.000000,4.000000,,,,0.000000,4.000000,4.000000,4.000000,4.000000,4.000000,4.000000,4.000000,4.000000,4.000000,4.000000,4.000000,4.000000,4.000000,4.000000,4.000000,4.000000,4.000000,4.000000,4.000000,4.000000,4.000000,4.000000,4.000000,4.000000,4.000000,4.000000,4.000000,4.000000,4.000000,4.000000,4.000000,4.000000,100.000000
1614404627.385997,42.000000,0.000000,-9.535398,-11.820067,-1.364441,-1.228734,3.764686,-13.116805,-7.245595,-1.480371,-10.137244,-108.881523,-12.246487,-6.257820,-9.636854,-3.655958,-16.860281,38.248524,1.200909,-8.345668,-33.143692,-42.499733,-29.907988,-32.884174,-17.604889,-22.680178,-24.170828,-13.849339,-2.495613,-14.955537,-33.680077,-12.368683,-18.279108,0.085908,8064.000000,0.000000,4.000000,,,,0.000000,4.000000,4.000000,4.000000,4.000000,4.000000,4.000000,4.000000,4.000000,4.000000,4.000000,4.000000,4.000000,4.000000,4.000000,4.000000,4.000000,4.000000,4.000000,4.000000,4.000000,4.000000,4.000000,4.000000,4.000000,4.000000,4.000000,4.000000,4.000000,4.000000,4.000000,4.000000,4.000000,100.000000
1614404627.393746,43.000000,0.000000,-9.525864,-10.782606,-1.363076,-0.714685,3.760921,-12.590868,-7.238349,-4.555813,-10.127107,-110.311096,-14.285522,-10.866946,-9.627217,-8.780507,-16.330601,38.210274,-2.390035,-6.798861,-33.110546,-40.918774,-28.339617,-32.338467,-18.100105,-22.657497,-25.685120,-12.809848,-11.723886,-14.940581,-22.877165,-7.228109,-18.260828,3.675565,8064.000000,0.000000,4.000000,,,,0.000000,4.000000,4.000000,4.000000,4.000000,4.000000,4.000000,4.000000,4.000000,4.000000,4.000000,4.000000,4.000000,4.000000,4.000000,4.000000,4.000000,4.000000,4.000000,4.000000,4.000000,4.000000,4.000000,4.000000,4.000000,4.000000,4.000000,4.000000,4.000000,4.000000,4.000000,4.000000,4.000000,100.000000
1614404627.401395,44.000000,0.000000,-9.516337,-8.207721,-1.874534,-0.713971,3.757160,-12.578278,-6.718290,-8.141001,-10.629801,-112.252068,-18.886621,-10.856080,-13.207334,-9.797368,-17.339911,37.659245,-7.515851,-7.304882,-36.667179,-43.954777,-31.388201,-37.947155,-23.723030,-24.686123,-23.608152,-13.309859,-19.404470,-14.412820,-17.726084,-3.631138,-17.216927,8.287274,8064.000000,0.000000,4.000000,,,,0.000000,4.000000,4.000000,4.000000,4.000000,4.000000,4.000000,4.000000,4.000000,4.000000,4.000000,4.000000,4.000000,4.000000,4.000000,4.000000,4.000000,4.000000,4.000000,4.000000,4.000000,4.000000,4.000000,4.000000,4.000000,4.000000,4.000000,4.000000,4.000000,4.000000,4.000000,4.000000,4.000000,100.000000
1614404627.409244,45.000000,0.000000,-9.506821,-7.173872,-1.872659,-1.226077,3.753403,-14.616981,-7.224392,-8.132860,-13.696094,-113.165459,-20.919016,-10.332403,-17.296690,-9.787570,-19.373854,38.647224,-10.585258,-17.041166,-43.297180,-56.731335,-47.767067,-53.293823,-37.545460,-26.712719,-23.071724,-24.065781,-21.949169,-14.911227,-30.016048,-4.653147,-17.712530,5.714885,8064.000000,0.000000,4.000000,,,,0.000000,4.000000,4.000000,4.000000,4.000000,4.000000,4.000000,4.000000,4.000000,4.000000,4.000000,4.000000,4.000000,4.000000,4.000000,4.000000,4.000000,4.000000,4.000000,4.000000,4.000000,4.000000,4.000000,4.000000,4.000000,4.000000,4.000000,4.000000,4.000000,4.000000,4.000000,4.000000,4.000000,100.000000
1614404627.416993,46.000000,0.000000,-9.497314,-7.679519,-0.845145,-0.712031,3.749650,-16.653646,-7.217168,-2.483702,-13.682398,-112.539474,-20.898098,-11.347712,-18.305035,-12.854706,-20.892941,38.095757,-10.061852,-26.767715,-45.817986,-60.264347,-60.026993,-59.907196,-35.456635,-31.301390,-26.638395,-28.144278,-20.901579,-13.870675,-28.447571,-4.648494,-18.720459,1.093785,8064.000000,0.000000,4.000000,,,,0.000000,4.000000,4.000000,4.000000,4.000000,4.000000,4.000000,4.000000,4.000000,4.000000,4.000000,4.000000,4.000000,4.000000,4.000000,4.000000,4.000000,4.000000,4.000000,4.000000,4.000000,4.000000,4.000000,4.000000,4.000000,4.000000,4.000000,4.000000,4.000000,4.000000,4.000000,4.000000,4.000000,100.000000
1614404627.424842,47.000000,0.000000,-9.487817,-7.671839,-1.869941,-0.711318,4.258720,-16.636992,-6.697131,0.082885,-14.181536,-111.401291,-19.338737,-10.310723,-17.773909,-13.867492,-19.846407,31.903816,-6.462046,-27.253769,-43.208065,-52.511776,-49.197735,-45.488316,-13.369895,-35.372654,-27.124577,-16.321262,-11.137087,-9.241420,-12.008867,-4.131025,-17.163277,0.579871,8064.000000,0.000000,4.000000,,,,0.000000,4.000000,4.000000,4.000000,4.000000,4.000000,4.000000,4.000000,4.000000,4.000000,4.000000,4.000000,4.000000,4.000000,4.000000,4.000000,4.000000,4.000000,4.000000,4.000000,4.000000,4.000000,4.000000,4.000000,4.000000,4.000000,4.000000,4.000000,4.000000,4.000000,4.000000,4.000000,4.000000,100.000000
1614404627.432591,48.000000,0.000000,-9.478329,-7.151347,-4.944994,-0.710607,4.767282,-15.594714,-8.741715,-5.558224,-16.731457,-115.392456,-19.832220,-11.326054,-16.730494,-13.340804,-19.313740,26.230886,-2.865841,-25.688053,-39.062294,-43.741314,-28.122898,-25.442827,-4.638576,-28.157793,-17.866684,-5.022890,0.668922,-6.155256,-7.894295,-4.126894,-12.017908,1.092112,8064.000000,0.000000,4.000000,,,,0.000000,4.000000,4.000000,4.000000,4.000000,4.000000,4.000000,4.000000,4.000000,4.000000,4.000000,4.000000,4.000000,4.000000,4.000000,4.000000,4.000000,4.000000,4.000000,4.000000,4.000000,4.000000,4.000000,4.000000,4.000000,4.000000,4.000000,4.000000,4.000000,4.000000,4.000000,4.000000,4.000000,100.000000
1614404627.440440,49.000000,0.000000,-9.468851,-7.657016,-4.427229,-0.709897,3.736874,-16.604761,-10.784256,-12.732153,-17.227547,-124.507835,-25.966234,-17.468573,-19.277866,-15.378745,-23.909811,26.204655,-2.862975,-27.200827,-36.459129,-42.671932,-20.915287,-24.391743,-13.864707,-12.745020,-13.233432,-3.992226,-0.870208,-6.661921,-15.065887,-4.635588,-9.441788,1.091020,8064.000000,0.000000,4.000000,,,,0.000000,4.000000,4.000000,4.000000,4.000000,4.000000,4.000000,4.000000,4.000000,4.000000,4.000000,4.000000,4.000000,4.000000,4.000000,4.000000,4.000000,4.000000,4.000000,4.000000,4.000000,4.000000,4.000000,4.000000,4.000000,4.000000,4.000000,4.000000,4.000000,4.000000,4.000000,4.000000,4.000000,100.000000
1614404627.448189,50.000000,0.000000,-9.459382,-7.649359,-1.858699,-0.709187,4.758778,-16.075335,-10.773472,-10.668139,-17.210318,-125.921783,-26.965908,-21.040848,-22.335512,-17.414648,-31.578209,26.178452,-3.372932,-27.173626,-36.935490,-46.219006,-23.458475,-36.162224,-18.979048,-9.655352,-16.809942,-5.526695,-8.561646,-7.168079,-18.127745,-4.630952,-10.457987,4.166852,8064.000000,0.000000,4.000000,,,,0.000000,4.000000,4.000000,4.000000,4.000000,4.000000,4.000000,4.000000,4.000000,4.000000,4.000000,4.000000,4.000000,4.000000,4.000000,4.000000,4.000000,4.000000,4.000000,4.000000,4.000000,4.000000,4.000000,4.000000,4.000000,4.000000,4.000000,4.000000,4.000000,4.000000,4.000000,4.000000,4.000000,100.000000
1614404627.456038,51.000000,0.000000,-9.449923,-7.641710,-2.882482,-0.708477,5.266840,-15.546439,-10.762698,-4.503624,-16.167467,-117.077919,-17.195353,-19.481346,-16.159330,-17.397234,-32.059452,26.152271,-2.343919,-26.120811,-36.898556,-40.018940,-23.947836,-32.536316,-17.421606,-16.825184,-16.280312,-9.623733,-9.578725,-6.648091,-16.058334,-5.139142,-10.447529,4.675505,8064.000000,0.000000,4.000000,,,,0.000000,4.000000,4.000000,4.000000,4.000000,4.000000,4.000000,4.000000,4.000000,4.000000,4.000000,4.000000,4.000000,4.000000,4.000000,4.000000,4.000000,4.000000,4.000000,4.000000,4.000000,4.000000,4.000000,4.000000,4.000000,4.000000,4.000000,4.000000,4.000000,4.000000,4.000000,4.000000,4.000000,100.000000
1614404627.463787,52.000000,0.000000,-9.440473,-7.121248,-8.520625,-0.194948,-4.994837,-19.633457,-10.751935,-3.986300,-16.151299,-114.396736,-18.203798,-17.410583,-6.399580,-15.841375,-28.437647,26.638941,-2.341574,-25.581869,-35.836014,-29.209688,-25.462351,-20.196089,-17.917006,-19.372461,-18.828135,-15.255135,-8.543506,-6.641443,-12.965354,-4.108362,-8.898620,0.055445,8064.000000,0.000000,4.000000,,,,0.000000,4.000000,4.000000,4.000000,4.000000,4.000000,4.000000,4.000000,4.000000,4.000000,4.000000,4.000000,4.000000,4.000000,4.000000,4.000000,4.000000,4.000000,4.000000,4.000000,4.000000,4.000000,4.000000,4.000000,4.000000,4.000000,4.000000,4.000000,4.000000,4.000000,4.000000,4.000000,4.000000,100.000000
1614404627.471636,53.000000,0.000000,-9.431032,-7.114126,-14.153130,0.318067,-18.323175,-25.767670,-10.741183,-10.648980,-20.750532,-120.949005,-29.467646,-18.418814,-5.367540,-16.338354,-27.896389,26.099482,-3.364874,-22.479364,-35.800179,-31.744581,-32.103554,-26.329739,-18.924730,-17.814627,-29.065716,-15.752700,-9.560603,-8.686084,-17.054953,-4.617074,-12.479465,-3.021533,8064.000000,0.000000,4.000000,,,,0.000000,4.000000,4.000000,4.000000,4.000000,4.000000,4.000000,4.000000,4.000000,4.000000,4.000000,4.000000,4.000000,4.000000,4.000000,4.000000,4.000000,4.000000,4.000000,4.000000,4.000000,4.000000,4.000000,4.000000,4.000000,4.000000,4.000000,4.000000,4.000000,4.000000,4.000000,4.000000,4.000000,100.000000
1614404627.479385,54.000000,0.000000,-9.421601,-7.619833,-18.754362,-0.707892,-22.920237,-28.306005,-10.217622,-10.638331,-22.781065,-125.443443,-25.848434,-18.400394,-5.874993,-17.347656,-22.740288,29.663126,-1.823048,-15.277398,-36.277199,-38.892323,-35.661194,-37.585461,-18.905806,-18.309633,-28.523830,-17.788229,-10.063863,-10.728680,-24.730206,-5.125277,-18.108011,-2.505691,8064.000000,0.000000,4.000000,,,,0.000000,4.000000,4.000000,4.000000,4.000000,4.000000,4.000000,4.000000,4.000000,4.000000,4.000000,4.000000,4.000000,4.000000,4.000000,4.000000,4.000000,4.000000,4.000000,4.000000,4.000000,4.000000,4.000000,4.000000,4.000000,4.000000,4.000000,4.000000,4.000000,4.000000,4.000000,4.000000,4.000000,100.000000
1614404627.487234,55.000000,0.000000,-8.899359,-7.099392,-20.786888,-0.194364,-20.846035,-26.739237,-10.207404,-4.473847,-20.707001,-125.830818,-13.002073,-16.330711,-0.228092,-12.714925,-10.922676,35.787308,0.230058,-8.082634,-34.702461,-39.366253,-34.087070,-33.958130,-18.374079,-18.291323,-16.700434,-16.231979,-9.540978,-10.717951,-23.679834,-1.017588,-15.012980,-2.503186,8064.000000,0.000000,4.000000,,,,0.000000,4.000000,4.000000,4.000000,4.000000,4.000000,4.000000,4.000000,4.000000,4.000000,4.000000,4.000000,4.000000,4.000000,4.000000,4.000000,4.000000,4.000000,4.000000,4.000000,4.000000,4.000000,4.000000,4.000000,4.000000,4.000000,4.000000,4.000000,4.000000,4.000000,4.000000,4.000000,4.000000,100.000000
1614404627.494983,56.000000,0.000000,-9.403280,-7.092293,-17.689178,-0.706990,-20.312368,-26.199678,-10.710017,-6.007835,-25.814499,-125.704987,-15.040353,-14.263099,2.336238,-8.086825,-6.809189,37.802803,1.255468,-6.536089,-33.129295,-41.378170,-32.514523,-35.462635,-18.355705,-17.247391,-13.606811,-4.933696,-9.531438,-10.707232,-16.989487,4.624455,-9.356941,-3.526324,8064.000000,0.000000,4.000000,,,,0.000000,4.000000,4.000000,4.000000,4.000000,4.000000,4.000000,4.000000,4.000000,4.000000,4.000000,4.000000,4.000000,4.000000,4.000000,4.000000,4.000000,4.000000,4.000000,4.000000,4.000000,4.000000,4.000000,4.000000,4.000000,4.000000,4.000000,4.000000,4.000000,4.000000,4.000000,4.000000,4.000000,100.000000
1614404627.502832,57.000000,0.000000,-9.906697,-9.136483,-18.184311,-9.937052,-25.933081,-29.763222,-10.186486,-11.642853,-30.916889,-126.092102,-23.230440,-14.248836,-1.768662,-15.258225,-13.981867,34.175255,1.254213,-10.632117,-36.173088,-42.362431,-35.558933,-47.734863,-18.337349,-15.178862,-17.182947,-4.928762,-9.521906,-10.696526,-19.536600,4.107010,-14.475789,-3.009977,8064.000000,0.000000,4.000000,,,,0.000000,4.000000,4.000000,4.000000,4.000000,4.000000,4.000000,4.000000,4.000000,4.000000,4.000000,4.000000,4.000000,4.000000,4.000000,4.000000,4.000000,4.000000,4.000000,4.000000,4.000000,4.000000,4.000000,4.000000,4.000000,4.000000,4.000000,4.000000,4.000000,4.000000,4.000000,4.000000,4.000000,100.000000
1614404627.510582,58.000000,0.000000,-8.871150,-13.229911,-28.935356,-23.773270,-36.163559,-37.938587,-12.227582,-10.605569,-31.911613,-125.966011,-24.745672,-14.747408,-9.459201,-26.525019,-27.814039,22.346209,0.227318,-17.288153,-47.418968,-42.320068,-47.318245,-52.815334,-18.319012,-13.625221,-21.268330,-20.821270,-10.025205,-10.685829,-25.158089,-3.589404,-22.153622,-6.596710,8064.000000,0.000000,4.000000,,,,0.000000,4.000000,4.000000,4.000000,4.000000,4.000000,4.000000,4.000000,4.000000,4.000000,4.000000,4.000000,4.000000,4.000000,4.000000,4.000000,4.000000,4.000000,4.000000,4.000000,4.000000,4.000000,4.000000,4.000000,4.000000,4.000000,4.000000,4.000000,4.000000,4.000000,4.000000,4.000000,4.000000,100.000000
1614404627.518431,59.000000,0.000000,-9.375099,-15.267962,-39.675652,-25.800777,-40.229958,-42.516033,-17.343559,-14.697527,-40.084831,-130.455429,-26.259388,-13.707019,-19.706152,-29.062595,-39.581097,5.913607,-3.362653,-23.424709,-57.627960,-51.508518,-51.886311,-50.198418,-18.300692,-19.765442,-24.323984,-20.800447,-8.989538,-10.675143,-21.543188,-5.637097,-17.516083,-12.231139,8064.000000,0.000000,4.000000,,,,0.000000,4.000000,4.000000,4.000000,4.000000,4.000000,4.000000,4.000000,4.000000,4.000000,4.000000,4.000000,4.000000,4.000000,4.000000,4.000000,4.000000,4.000000,4.000000,4.000000,4.000000,4.000000,4.000000,4.000000,4.000000,4.000000,4.000000,4.000000,4.000000,4.000000,4.000000,4.000000,4.000000,100.000000
1614404627.526180,60.000000,0.000000,-12.442647,-14.739874,-35.533413,-18.082668,-36.599987,-41.447876,-21.941601,-24.939240,-43.634491,-133.401901,-30.335693,-15.744595,-25.327471,-26.982252,-38.515873,6.933334,-6.949034,-22.375645,-52.442127,-51.457008,-34.398529,-46.558475,-18.282393,-26.412344,-15.068891,-5.907853,-6.929267,-10.664468,-12.290875,6.676232,-9.806259,-8.116344,8064.000000,0.000000,4.000000,,,,0.000000,4.000000,4.000000,4.000000,4.000000,4.000000,4.000000,4.000000,4.000000,4.000000,4.000000,4.000000,4.000000,4.000000,4.000000,4.000000,4.000000,4.000000,4.000000,4.000000,4.000000,4.000000,4.000000,4.000000,4.000000,4.000000,4.000000,4.000000,4.000000,4.000000,4.000000,4.000000,4.000000,100.000000
1614404627.534029,61.000000,0.000000,-12.430204,-14.725134,-19.087622,-14.474843,-34.512104,-40.893608,-22.432480,-21.324556,-31.795982,-127.627472,-29.792536,-18.292952,-22.738041,-23.365526,-27.708128,25.900761,-6.942085,-16.712242,-38.543530,-33.456833,-14.364129,-40.358070,-18.264109,-18.693623,-0.182027,0.764722,-5.896697,-10.653804,-8.176021,21.541351,-9.283632,3.686644,8064.000000,0.000000,4.000000,,,,0.000000,4.000000,4.000000,4.000000,4.000000,4.000000,4.000000,4.000000,4.000000,4.000000,4.000000,4.000000,4.000000,4.000000,4.000000,4.000000,4.000000,4.000000,4.000000,4.000000,4.000000,4.000000,4.000000,4.000000,4.000000,4.000000,4.000000,4.000000,4.000000,4.000000,4.000000,4.000000,4.000000,100.000000
1614404627.541778,62.000000,0.000000,-7.289569,-14.710409,-9.837766,-15.486010,-36.016052,-41.878353,-20.358765,-8.995541,-25.610340,-118.781891,-26.685822,-14.684916,-22.202482,-16.162674,-24.090677,33.054348,-6.422322,-14.644249,-31.325500,-30.859276,-12.298483,-38.266430,-18.245846,-4.828776,-1.207486,0.251137,-5.377979,-10.643149,-13.296049,25.622374,-11.325631,9.836803,8064.000000,0.000000,4.000000,,,,0.000000,4.000000,4.000000,4.000000,4.000000,4.000000,4.000000,4.000000,4.000000,4.000000,4.000000,4.000000,4.000000,4.000000,4.000000,4.000000,4.000000,4.000000,4.000000,4.000000,4.000000,4.000000,4.000000,4.000000,4.000000,4.000000,4.000000,4.000000,4.000000,4.000000,4.000000,4.000000,4.000000,100.000000
1614404627.549427,63.000000,0.000000,-4.718177,-14.695699,-14.956133,-14.957703,-35.467216,-38.759552,-15.723022,-6.935263,-27.123192,-116.611832,-24.095032,-7.490744,-19.103357,-12.556767,-23.040945,30.457190,-6.928720,-17.193707,-32.832634,-41.597645,-16.388748,-38.228165,-18.227600,-3.285485,-10.949868,0.763706,-5.372602,-10.632506,-16.872498,23.032648,-10.801485,8.288506,8064.000000,0.000000,4.000000,,,,0.000000,4.000000,4.000000,4.000000,4.000000,4.000000,4.000000,4.000000,4.000000,4.000000,4.000000,4.000000,4.000000,4.000000,4.000000,4.000000,4.000000,4.000000,4.000000,4.000000,4.000000,4.000000,4.000000,4.000000,4.000000,4.000000,4.000000,4.000000,4.000000,4.000000,4.000000,4.000000,4.000000,100.000000
1614404627.557176,64.000000,0.000000,-5.739100,-14.681003,-22.120665,-13.917104,-34.406109,-34.105408,-13.656016,-6.928328,-24.019146,-117.008041,-22.532476,-3.893509,-7.802203,-12.544210,-12.248673,37.093399,-5.896151,-9.997026,-33.825443,-30.786818,-16.885180,-32.548908,-15.645269,-7.897584,-13.503020,-1.801160,-6.905690,-10.621874,-11.727420,23.522436,-8.226581,7.767396,0.000000,182.000000,4.000000,,,,0.000000,4.000000,4.000000,4.000000,4.000000,4.000000,4.000000,4.000000,4.000000,4.000000,4.000000,4.000000,4.000000,4.000000,4.000000,4.000000,4.000000,4.000000,4.000000,4.000000,4.000000,4.000000,4.000000,4.000000,4.000000,4.000000,4.000000,4.000000,4.000000,4.000000,4.000000,4.000000,4.000000,100.000000
1614404627.564825,65.000000,0.000000,-5.733361,-15.179143,-22.611364,-15.441648,-36.422985,-37.661049,-13.642361,-5.895758,-28.610512,-115.865387,-23.535585,-2.351154,-0.102093,-10.480384,-3.005655,45.774254,-0.762050,2.320663,-27.637772,-12.807313,-16.355474,-27.388155,-14.091163,-7.889687,-12.463877,0.764743,-2.283400,-10.611252,-6.587487,25.037376,-6.167072,9.298090,0.000000,200.000000,4.000000,,,,0.000000,4.000000,4.000000,4.000000,4.000000,4.000000,4.000000,4.000000,4.000000,4.000000,4.000000,4.000000,4.000000,4.000000,4.000000,4.000000,4.000000,4.000000,4.000000,4.000000,4.000000,4.000000,4.000000,4.000000,4.000000,4.000000,4.000000,4.000000,4.000000,4.000000,4.000000,4.000000,4.000000,100.000000
1614404627.572574,66.000000,0.000000,-5.214807,-14.651143,-21.563112,-17.990309,-42.027588,-48.392616,-13.628718,-16.659094,-42.428055,-118.826447,-25.563332,-3.374444,-1.127632,-7.392980,-5.053932,47.266941,2.315635,4.882445,-20.943468,-12.281686,-16.339119,-26.335127,-14.589891,-6.856156,-9.374490,5.379363,4.385550,-11.113461,-6.068079,22.961056,-7.186546,7.750331,0.000000,235.000000,4.000000,,,,0.000000,4.000000,4.000000,4.000000,4.000000,4.000000,4.000000,4.000000,4.000000,4.000000,4.000000,4.000000,4.000000,4.000000,4.000000,4.000000,4.000000,4.000000,4.000000,4.000000,4.000000,4.000000,4.000000,4.000000,4.000000,4.000000,4.000000,4.000000,4.000000,4.000000,4.000000,4.000000,4.000000,100.000000
1614404627.580223,67.000000,0.000000,-7.260874,-14.636492,-22.567190,-18.485140,-46.088123,-52.959610,-15.153551,-25.873203,-47.001011,-124.348648,-27.589050,-2.858249,-2.152145,-8.411228,-8.125801,44.142750,-0.763603,1.287819,-21.948166,-18.423250,-18.374062,-27.334433,-14.575302,-5.310839,-6.288192,2.297061,1.817062,-11.102348,-1.959447,22.425276,-7.179359,7.742580,0.000000,159.000000,4.000000,,,,0.000000,4.000000,4.000000,4.000000,4.000000,4.000000,4.000000,4.000000,4.000000,4.000000,4.000000,4.000000,4.000000,4.000000,4.000000,4.000000,4.000000,4.000000,4.000000,4.000000,4.000000,4.000000,4.000000,4.000000,4.000000,4.000000,4.000000,4.000000,4.000000,4.000000,4.000000,4.000000,4.000000,100.000000
1614404627.587972,68.000000,0.000000,-9.304895,-15.134676,-22.031801,-18.466654,-45.016396,-50.855366,-18.215321,-18.155022,-44.902729,-127.301224,-31.151205,-2.342570,-7.791019,-9.428458,-11.707418,34.867840,-5.378224,-0.764751,-27.054422,-28.661238,-22.458252,-31.922482,-14.047906,-3.767066,-8.846006,4.346046,-5.877063,-11.091246,1.632256,33.172081,0.520127,10.298941,0.000000,167.000000,4.000000,,,,0.000000,4.000000,4.000000,4.000000,4.000000,4.000000,4.000000,4.000000,4.000000,4.000000,4.000000,4.000000,4.000000,4.000000,4.000000,4.000000,4.000000,4.000000,4.000000,4.000000,4.000000,4.000000,4.000000,4.000000,4.000000,4.000000,4.000000,4.000000,4.000000,4.000000,4.000000,4.000000,4.000000,100.000000
