title:31, start timestamp:1614406278.892580, stop timestamp:1614406324.688861, headset type:EPOCFLEX, headset serial:F00001ED, headset firmware:f12, subject name:s11, channels:75, sampling rate:128, samples:5913      , version:2.0
Timestamp,EEG.Counter,EEG.Interpolated,EEG.Cz,EEG.Fz,EEG.Fp1,EEG.AF3,EEG.F7,EEG.F3,EEG.FC1,EEG.C3,EEG.FC5,EEG.T7,EEG.CP5,EEG.CP1,EEG.P3,EEG.P7,EEG.PO3,EEG.O1,EEG.Pz,EEG.Oz,EEG.O2,EEG.PO4,EEG.P8,EEG.P4,EEG.CP2,EEG.CP6,EEG.T8,EEG.FC6,EEG.C4,EEG.FC2,EEG.F4,EEG.F8,EEG.AF4,EEG.Fp2,EEG.HighBitFlex,EEG.RawCq,EEG.Battery,MarkerIndex,MarkerType,MarkerValueInt,EEG.MarkerHardware,CQ.Cz,CQ.Fz,CQ.Fp1,CQ.AF3,CQ.F7,CQ.F3,CQ.FC1,CQ.C3,CQ.FC5,CQ.T7,CQ.CP5,CQ.CP1,CQ.P3,CQ.P7,CQ.PO3,CQ.O1,CQ.Pz,CQ.Oz,CQ.O2,CQ.PO4,CQ.P8,CQ.P4,CQ.CP2,CQ.CP6,CQ.T8,CQ.FC6,CQ.C4,CQ.FC2,CQ.F4,CQ.F8,CQ.AF4,CQ.Fp2,CQ.Overall
1614406278.892580,45.000000,0.000000,15.176992,12.685655,31.366987,16.353262,23.696775,20.597027,31.262011,3.270678,20.121881,20.129827,26.973610,30.874012,12.174543,3.628360,29.845779,24.150740,27.308969,18.456406,20.678648,13.532129,28.805332,28.249777,23.345217,8.843547,1.356499,21.284674,20.075628,11.010522,8.422024,-5.954504,13.118825,15.853293,8064.000000,0.000000,4.000000,,,,0.000000,4.000000,4.000000,4.000000,4.000000,4.000000,4.000000,4.000000,4.000000,4.000000,4.000000,4.000000,4.000000,4.000000,4.000000,4.000000,4.000000,4.000000,4.000000,4.000000,4.000000,4.000000,4.000000,4.000000,4.000000,4.000000,4.000000,4.000000,4.000000,4.000000,4.000000,4.000000,4.000000,100.000000
1614406278.900229,46.000000,0.000000,15.161816,13.698610,31.335621,18.901011,23.673079,20.576429,29.179466,5.831510,19.588940,19.084057,28.997919,30.843138,21.905958,2.599090,30.841576,21.049667,31.384226,16.386667,20.657969,14.031418,26.212425,26.170244,25.373152,9.860345,1.355142,19.724928,22.619654,10.999511,13.541806,-0.820345,13.105706,15.324619,8192.000000,0.000000,4.000000,,,,0.000000,4.000000,4.000000,4.000000,4.000000,4.000000,4.000000,4.000000,4.000000,4.000000,4.000000,4.000000,4.000000,4.000000,4.000000,4.000000,4.000000,4.000000,4.000000,4.000000,4.000000,4.000000,4.000000,4.000000,4.000000,4.000000,4.000000,4.000000,4.000000,4.000000,4.000000,4.000000,4.000000,100.000000
1614406278.907978,47.000000,0.000000,15.146653,16.249014,30.791464,18.882109,23.136585,23.632776,29.663107,6.851319,19.056530,20.603436,26.917639,28.761013,16.243027,-8.685560,20.554323,20.002975,20.070789,12.267715,7.816799,2.735335,7.724674,18.451767,23.296497,10.876125,0.840967,19.705202,14.904727,10.988511,15.066727,-0.819524,12.066959,14.796474,8192.000000,0.000000,4.000000,,,,0.000000,4.000000,4.000000,4.000000,4.000000,4.000000,4.000000,4.000000,4.000000,4.000000,4.000000,4.000000,4.000000,4.000000,4.000000,4.000000,4.000000,4.000000,4.000000,4.000000,4.000000,4.000000,4.000000,4.000000,4.000000,4.000000,4.000000,4.000000,4.000000,4.000000,4.000000,4.000000,4.000000,100.000000
1614406278.915627,48.000000,0.000000,15.131507,17.258406,30.760672,18.350407,23.113449,22.583502,30.659086,6.331647,19.550295,15.454626,8.429182,21.039944,-8.388600,-29.189695,-7.671360,2.547076,9.794309,-11.847116,-7.062813,-10.600734,-9.206128,13.305109,13.016790,6.249865,0.840126,19.685497,13.351361,10.977523,14.538839,-3.895628,13.080534,15.807319,8064.000000,0.000000,4.000000,,,,0.000000,4.000000,4.000000,4.000000,4.000000,4.000000,4.000000,4.000000,4.000000,4.000000,4.000000,4.000000,4.000000,4.000000,4.000000,4.000000,4.000000,4.000000,4.000000,4.000000,4.000000,4.000000,4.000000,4.000000,4.000000,4.000000,4.000000,4.000000,4.000000,4.000000,4.000000,4.000000,4.000000,100.000000
1614406278.923376,49.000000,0.000000,15.116375,16.728327,32.781193,18.844877,23.603157,16.919893,27.038683,6.838136,20.043564,1.593018,-9.015144,14.865058,-23.764828,-40.955376,-25.099586,-21.045216,7.220412,-23.630140,-7.568571,-16.231159,-9.709743,10.214881,8.388390,-1.448693,1.352106,17.614529,16.414932,10.966545,14.524301,-4.404553,16.144377,15.278691,8064.000000,0.000000,4.000000,,,,0.000000,4.000000,4.000000,4.000000,4.000000,4.000000,4.000000,4.000000,4.000000,4.000000,4.000000,4.000000,4.000000,4.000000,4.000000,4.000000,4.000000,4.000000,4.000000,4.000000,4.000000,4.000000,4.000000,4.000000,4.000000,4.000000,4.000000,4.000000,4.000000,4.000000,4.000000,4.000000,4.000000,100.000000
1614406278.931026,50.000000,0.000000,15.101259,16.711599,30.697130,18.826033,23.579554,16.390154,22.396259,5.292837,19.510700,-3.023960,-5.929206,15.363013,-23.228241,-40.914421,-26.100126,-27.178017,-0.991937,-12.324459,-11.150745,-23.394415,-6.110289,0.461077,10.431283,-2.472885,0.325113,15.545632,6.142107,10.955579,15.022596,-3.374507,16.641052,14.750592,8064.000000,0.000000,4.000000,,,,0.000000,4.000000,4.000000,4.000000,4.000000,4.000000,4.000000,4.000000,4.000000,4.000000,4.000000,4.000000,4.000000,4.000000,4.000000,4.000000,4.000000,4.000000,4.000000,4.000000,4.000000,4.000000,4.000000,4.000000,4.000000,4.000000,4.000000,4.000000,4.000000,4.000000,4.000000,4.000000,4.000000,100.000000
1614406278.938775,51.000000,0.000000,15.086158,16.694887,30.666433,18.807205,22.530333,19.450686,21.348223,2.723441,18.465548,11.850859,4.845954,13.296369,-22.692192,-30.617098,-25.048386,-22.022633,-10.221714,-8.209571,-23.447287,-31.576149,-12.258025,-14.411180,3.754185,-0.931951,1.350429,15.530087,-6.171727,10.431803,14.494753,-4.396774,16.624411,21.915329,8064.000000,0.000000,4.000000,,,,0.000000,4.000000,4.000000,4.000000,4.000000,4.000000,4.000000,4.000000,4.000000,4.000000,4.000000,4.000000,4.000000,4.000000,4.000000,4.000000,4.000000,4.000000,4.000000,4.000000,4.000000,4.000000,4.000000,4.000000,4.000000,4.000000,4.000000,4.000000,4.000000,4.000000,4.000000,4.000000,4.000000,100.000000
1614406278.946424,52.000000,0.000000,15.071072,16.678192,46.020382,20.326860,24.046263,19.944056,22.352516,4.772000,21.011185,29.787725,8.430852,11.231791,-18.054115,-17.253147,-15.279748,-13.795482,-8.160211,-7.688540,-12.141788,-26.416367,-12.758587,-13.883947,-0.352133,-9.136147,6.990104,15.001737,3.065214,10.421371,14.480259,-2.853915,22.761633,32.149822,8064.000000,0.000000,4.000000,,,,0.000000,4.000000,4.000000,4.000000,4.000000,4.000000,4.000000,4.000000,4.000000,4.000000,4.000000,4.000000,4.000000,4.000000,4.000000,4.000000,4.000000,4.000000,4.000000,4.000000,4.000000,4.000000,4.000000,4.000000,4.000000,4.000000,4.000000,4.000000,4.000000,4.000000,4.000000,4.000000,4.000000,100.000000
1614406278.954173,53.000000,0.000000,15.568821,16.661514,53.666668,22.357815,29.663242,21.975393,21.817343,7.844151,24.579918,28.219477,7.909600,15.323122,-6.241190,-11.594868,0.632968,-1.473994,-0.459742,6.165302,17.101122,-5.877130,9.818274,7.155577,12.981552,-8.614190,13.136960,15.499556,20.498047,12.975052,14.465778,-0.286959,28.892717,36.733059,8064.000000,0.000000,4.000000,,,,0.000000,4.000000,4.000000,4.000000,4.000000,4.000000,4.000000,4.000000,4.000000,4.000000,4.000000,4.000000,4.000000,4.000000,4.000000,4.000000,4.000000,4.000000,4.000000,4.000000,4.000000,4.000000,4.000000,4.000000,4.000000,4.000000,4.000000,4.000000,4.000000,4.000000,4.000000,4.000000,4.000000,100.000000
1614406278.961822,54.000000,0.000000,14.014791,16.644854,33.100182,22.848278,30.659222,23.491880,21.795525,1.682461,18.914312,13.832283,8.414512,19.410364,-1.619564,-12.096093,3.709258,5.706967,2.617640,10.774521,21.699406,4.385157,30.834097,20.481754,20.660879,14.471347,13.123823,17.022518,20.990368,15.013359,14.451312,0.738969,22.709978,30.029659,8064.000000,0.000000,4.000000,,,,0.000000,4.000000,4.000000,4.000000,4.000000,4.000000,4.000000,4.000000,4.000000,4.000000,4.000000,4.000000,4.000000,4.000000,4.000000,4.000000,4.000000,4.000000,4.000000,4.000000,4.000000,4.000000,4.000000,4.000000,4.000000,4.000000,4.000000,4.000000,4.000000,4.000000,4.000000,4.000000,4.000000,100.000000
1614406278.969671,55.000000,0.000000,11.436673,16.628208,20.246569,22.312609,26.525997,23.981209,21.773729,-3.447427,12.228731,8.177425,11.483020,18.878132,-3.669227,-12.083998,3.192728,6.726901,1.589382,8.199644,12.446937,-0.747433,26.700699,13.281786,12.435089,23.687645,11.572238,14.954213,13.789891,13.972705,14.436861,-0.287411,12.943679,25.384245,8064.000000,0.000000,4.000000,,,,0.000000,4.000000,4.000000,4.000000,4.000000,4.000000,4.000000,4.000000,4.000000,4.000000,4.000000,4.000000,4.000000,4.000000,4.000000,4.000000,4.000000,4.000000,4.000000,4.000000,4.000000,4.000000,4.000000,4.000000,4.000000,4.000000,4.000000,4.000000,4.000000,4.000000,4.000000,4.000000,4.000000,100.000000
1614406278.977420,56.000000,0.000000,10.912416,16.611580,38.175041,22.803118,31.114857,28.572613,22.264776,3.735508,21.960093,19.964119,16.086922,18.346434,4.539570,-12.071914,17.548510,18.002226,7.228818,23.063240,28.331926,8.996904,23.597075,15.832607,7.807270,6.228060,14.124768,18.016182,13.776101,14.471553,14.935245,-0.287124,17.033300,35.615269,8192.000000,0.000000,4.000000,,,,0.000000,4.000000,4.000000,4.000000,4.000000,4.000000,4.000000,4.000000,4.000000,4.000000,4.000000,4.000000,4.000000,4.000000,4.000000,4.000000,4.000000,4.000000,4.000000,4.000000,4.000000,4.000000,4.000000,4.000000,4.000000,4.000000,4.000000,4.000000,4.000000,4.000000,4.000000,4.000000,4.000000,100.000000
1614406278.985269,57.000000,0.000000,11.414324,16.594969,48.393276,25.857237,41.852970,31.620962,24.806614,11.936900,35.271465,32.251846,23.250322,19.353729,18.894005,-6.931636,30.864294,33.368839,17.990820,31.245304,47.277954,31.039188,36.393990,32.227032,10.363564,7.760293,16.674746,31.844318,15.813607,17.534004,14.920310,0.738805,24.195753,45.836067,8064.000000,0.000000,4.000000,,,,0.000000,4.000000,4.000000,4.000000,4.000000,4.000000,4.000000,4.000000,4.000000,4.000000,4.000000,4.000000,4.000000,4.000000,4.000000,4.000000,4.000000,4.000000,4.000000,4.000000,4.000000,4.000000,4.000000,4.000000,4.000000,4.000000,4.000000,4.000000,4.000000,4.000000,4.000000,4.000000,4.000000,100.000000
1614406278.993018,58.000000,0.000000,11.402909,16.578373,32.447449,25.318560,40.272659,31.076521,25.807449,10.899323,33.697731,27.604212,25.278353,18.821554,15.285368,-5.386243,19.551378,26.155983,17.972830,14.803802,31.846060,23.315842,30.203751,28.605061,10.353201,24.675610,11.017046,34.889397,14.259332,17.003649,14.392569,0.225245,19.556173,36.559460,8192.000000,0.000000,4.000000,,,,0.000000,4.000000,4.000000,4.000000,4.000000,4.000000,4.000000,4.000000,4.000000,4.000000,4.000000,4.000000,4.000000,4.000000,4.000000,4.000000,4.000000,4.000000,4.000000,4.000000,4.000000,4.000000,4.000000,4.000000,4.000000,4.000000,4.000000,4.000000,4.000000,4.000000,4.000000,4.000000,4.000000,100.000000
1614406279.000867,59.000000,0.000000,10.878686,16.561794,22.158588,17.600933,30.488794,32.071087,25.781641,7.298679,21.869164,10.140709,16.022306,18.802732,-8.319661,-18.714190,-3.545095,0.488801,7.185626,1.968486,2.070624,-3.374140,4.532521,8.576455,8.291566,15.420165,2.800900,17.931431,13.219432,14.422544,15.403817,-6.954467,15.434052,25.753670,8064.000000,0.000000,4.000000,,,,0.000000,4.000000,4.000000,4.000000,4.000000,4.000000,4.000000,4.000000,4.000000,4.000000,4.000000,4.000000,4.000000,4.000000,4.000000,4.000000,4.000000,4.000000,4.000000,4.000000,4.000000,4.000000,4.000000,4.000000,4.000000,4.000000,4.000000,4.000000,4.000000,4.000000,4.000000,4.000000,4.000000,100.000000
1614406279.008616,60.000000,0.000000,11.380629,16.545233,25.213354,10.916666,24.304461,29.987732,25.243038,7.804201,14.154986,-0.125842,2.160130,18.783930,-23.183136,-33.567272,-13.797960,-14.383483,6.152799,-1.623226,-6.649395,-10.550253,-6.754063,1.901212,8.796095,-2.543973,0.233997,6.118629,15.257494,14.408121,13.337132,-11.562898,20.546824,27.266378,8064.000000,0.000000,4.000000,,,,0.000000,4.000000,4.000000,4.000000,4.000000,4.000000,4.000000,4.000000,4.000000,4.000000,4.000000,4.000000,4.000000,4.000000,4.000000,4.000000,4.000000,4.000000,4.000000,4.000000,4.000000,4.000000,4.000000,4.000000,4.000000,4.000000,4.000000,4.000000,4.000000,4.000000,4.000000,4.000000,4.000000,100.000000
1614406279.016465,61.000000,0.000000,11.369247,16.528688,21.085577,10.905749,19.664770,21.239796,25.730616,5.745115,11.576729,1.412746,-3.483056,18.252325,-19.570210,-36.097805,-12.245701,-13.856278,8.197928,-6.236988,-2.540182,-12.078164,-3.670386,-0.151971,9.300119,-2.541429,1.259404,10.215074,11.652493,14.393713,6.144307,-11.038514,19.500635,20.059624,8064.000000,0.000000,4.000000,,,,0.000000,4.000000,4.000000,4.000000,4.000000,4.000000,4.000000,4.000000,4.000000,4.000000,4.000000,4.000000,4.000000,4.000000,4.000000,4.000000,4.000000,4.000000,4.000000,4.000000,4.000000,4.000000,4.000000,4.000000,4.000000,4.000000,4.000000,4.000000,4.000000,4.000000,4.000000,4.000000,4.000000,100.000000
1614406279.024214,62.000000,0.000000,10.332237,16.512159,8.756799,11.407663,15.029721,15.064710,25.704885,-2.978579,11.565152,1.411333,-1.941111,15.669971,-18.524998,-35.548889,-12.746276,-13.842422,-7.194885,-9.307673,-8.178667,-28.989162,-5.205177,-9.895409,5.701076,-6.128632,0.745324,7.127936,-1.692493,10.276755,-0.528504,-13.078757,8.711905,3.116488,8064.000000,0.000000,4.000000,,,,0.000000,4.000000,4.000000,4.000000,4.000000,4.000000,4.000000,4.000000,4.000000,4.000000,4.000000,4.000000,4.000000,4.000000,4.000000,4.000000,4.000000,4.000000,4.000000,4.000000,4.000000,4.000000,4.000000,4.000000,4.000000,4.000000,4.000000,4.000000,4.000000,4.000000,4.000000,4.000000,4.000000,100.000000
1614406279.032063,63.000000,0.000000,7.757802,14.444365,3.619837,10.883435,14.501871,16.075287,25.679180,-11.693549,11.040767,-0.128540,-2.964811,12.577377,-23.634678,-35.513340,-16.323273,-16.392683,-20.521023,-10.324007,-17.914078,-41.780685,-9.302536,-17.065001,-1.484113,-17.404554,0.744579,-5.186884,-9.383108,6.676734,-1.040796,-18.706705,3.574987,-2.014834,8064.000000,0.000000,4.000000,,,,0.000000,4.000000,4.000000,4.000000,4.000000,4.000000,4.000000,4.000000,4.000000,4.000000,4.000000,4.000000,4.000000,4.000000,4.000000,4.000000,4.000000,4.000000,4.000000,4.000000,4.000000,4.000000,4.000000,4.000000,4.000000,4.000000,4.000000,4.000000,4.000000,4.000000,4.000000,4.000000,4.000000,100.000000
1614406279.039812,64.000000,0.000000,7.750045,12.378638,5.667499,10.872552,13.974549,16.572031,25.140680,-11.169035,11.029725,2.435691,-3.474667,11.026339,-20.021301,-34.965004,-16.306950,-17.914751,-11.269733,-11.339324,-15.844882,-38.661983,-8.267592,-16.535116,-2.508270,-17.387150,1.256655,-5.181697,-5.271161,6.157238,-0.014114,-19.200817,5.622694,3.628206,0.000000,185.000000,4.000000,,,,0.000000,4.000000,4.000000,4.000000,4.000000,4.000000,4.000000,4.000000,4.000000,4.000000,4.000000,4.000000,4.000000,4.000000,4.000000,4.000000,4.000000,4.000000,4.000000,4.000000,4.000000,4.000000,4.000000,4.000000,4.000000,4.000000,4.000000,4.000000,4.000000,4.000000,4.000000,4.000000,4.000000,100.000000
1614406279.047661,65.000000,0.000000,10.306397,12.366260,5.661831,11.374500,11.909292,13.478537,25.628361,-6.029661,11.531516,4.997358,0.118551,11.015312,-11.796151,-36.468502,-12.700899,-18.409657,3.613331,-7.738241,-9.162371,-28.879732,-5.695222,-8.826273,6.212187,-10.703095,1.768219,4.054254,-1.163325,8.202362,-0.526921,-18.155975,5.104251,5.163040,0.000000,171.000000,4.000000,,,,0.000000,4.000000,4.000000,4.000000,4.000000,4.000000,4.000000,4.000000,4.000000,4.000000,4.000000,4.000000,4.000000,4.000000,4.000000,4.000000,4.000000,4.000000,4.000000,4.000000,4.000000,4.000000,4.000000,4.000000,4.000000,4.000000,4.000000,4.000000,4.000000,4.000000,4.000000,4.000000,4.000000,100.000000
1614406279.055410,66.000000,0.000000,12.347373,12.866714,4.117708,11.363126,11.897383,11.413775,25.602732,-4.997990,12.032805,4.992361,1.144074,11.004297,-9.733072,-29.765366,-8.072814,-9.673299,3.096897,-8.243323,-7.614747,-19.620083,-3.638245,4.003067,12.872642,-8.641110,0.740809,5.075840,-1.674983,10.245441,-0.526394,-19.163462,4.586327,2.080954,0.000000,219.000000,4.000000,,,,0.000000,4.000000,4.000000,4.000000,4.000000,4.000000,4.000000,4.000000,4.000000,4.000000,4.000000,4.000000,4.000000,4.000000,4.000000,4.000000,4.000000,4.000000,4.000000,4.000000,4.000000,4.000000,4.000000,4.000000,4.000000,4.000000,4.000000,4.000000,4.000000,4.000000,4.000000,4.000000,4.000000,100.000000
1614406279.063259,67.000000,0.000000,9.258102,12.853848,7.703334,10.838942,15.475229,12.940824,24.038668,-4.992992,12.020773,6.525830,2.168571,10.993293,-11.261801,-13.325345,-3.449356,4.182528,-2.547225,-6.183798,-5.043029,-16.010719,-4.660248,7.075986,6.193103,-7.094008,0.227248,4.045123,-1.160487,8.696734,-0.013047,-17.605837,10.735586,6.694257,0.000000,181.000000,4.000000,,,,0.000000,4.000000,4.000000,4.000000,4.000000,4.000000,4.000000,4.000000,4.000000,4.000000,4.000000,4.000000,4.000000,4.000000,4.000000,4.000000,4.000000,4.000000,4.000000,4.000000,4.000000,4.000000,4.000000,4.000000,4.000000,4.000000,4.000000,4.000000,4.000000,4.000000,4.000000,4.000000,4.000000,100.000000
1614406279.071008,68.000000,0.000000,4.633460,12.840994,16.926399,11.340923,22.126421,17.543268,21.963348,-2.423896,12.008752,8.570586,7.807427,10.982300,-10.737719,-8.183814,-0.881804,10.332192,-4.083139,6.130078,2.141501,-16.507528,-4.142767,0.402244,-8.172065,-6.061273,2.791123,13.271848,-2.697788,7.149577,-0.525854,-11.947205,16.365877,18.995255,0.000000,167.000000,4.000000,,,,0.000000,4.000000,4.000000,4.000000,4.000000,4.000000,4.000000,4.000000,4.000000,4.000000,4.000000,4.000000,4.000000,4.000000,4.000000,4.000000,4.000000,4.000000,4.000000,4.000000,4.000000,4.000000,4.000000,4.000000,4.000000,4.000000,4.000000,4.000000,4.000000,4.000000,4.000000,4.000000,4.000000,100.000000
1614406279.078758,69.000000,0.000000,5.654467,12.828153,21.524858,11.329582,24.155577,20.089827,21.428564,-0.370190,11.483922,9.074836,8.825261,10.971317,-10.214161,-18.944860,0.144718,9.809039,-2.540595,9.200871,4.703462,-13.926918,-1.574522,-0.623799,-9.189534,-4.003930,-0.801411,15.822678,-4.233552,9.193709,-0.012508,-9.371155,16.862331,24.104465,0.000000,197.000000,4.000000,,,,0.000000,4.000000,4.000000,4.000000,4.000000,4.000000,4.000000,4.000000,4.000000,4.000000,4.000000,4.000000,4.000000,4.000000,4.000000,4.000000,4.000000,4.000000,4.000000,4.000000,4.000000,4.000000,4.000000,4.000000,4.000000,4.000000,4.000000,4.000000,4.000000,4.000000,4.000000,4.000000,4.000000,100.000000
1614406279.086507,70.000000,0.000000,10.264197,12.815325,20.477692,10.292612,16.439114,19.044096,21.919956,-0.882641,11.472439,8.552940,3.175410,15.062910,-10.716767,-24.566942,-1.393888,9.286409,-0.999593,-6.705766,-1.967908,-13.400171,-6.188332,-0.623176,10.306835,-3.999926,-8.492918,6.576086,-1.152395,11.235798,-0.012495,-14.489989,15.819828,17.413694,0.000000,189.000000,4.000000,,,,0.000000,4.000000,4.000000,4.000000,4.000000,4.000000,4.000000,4.000000,4.000000,4.000000,4.000000,4.000000,4.000000,4.000000,4.000000,4.000000,4.000000,4.000000,4.000000,4.000000,4.000000,4.000000,4.000000,4.000000,4.000000,4.000000,4.000000,4.000000,4.000000,4.000000,4.000000,4.000000,4.000000,100.000000
1614406279.094156,71.000000,0.000000,11.792395,12.802509,20.457214,12.333602,12.320110,21.076334,21.385216,-0.881758,11.973786,8.031568,0.608132,21.201693,-11.218871,-22.491093,-2.418135,6.713021,-1.511413,-14.904188,-6.068505,-12.361130,-7.720605,-0.109732,30.296528,-8.611310,-2.843399,7.082331,7.053885,10.711741,-1.038124,-14.988319,16.829649,15.344998,0.000000,200.000000,4.000000,,,,0.000000,4.000000,4.000000,4.000000,4.000000,4.000000,4.000000,4.000000,4.000000,4.000000,4.000000,4.000000,4.000000,4.000000,4.000000,4.000000,4.000000,4.000000,4.000000,4.000000,4.000000,4.000000,4.000000,4.000000,4.000000,4.000000,4.000000,4.000000,4.000000,4.000000,4.000000,4.000000,4.000000,100.000000
1614406279.101905,72.000000,0.000000,10.754961,12.789706,21.462399,16.936653,17.435995,20.542437,21.363831,-1.393697,11.448993,8.536356,4.197268,22.718952,-10.694831,-22.981422,2.199668,4.655025,0.028559,-1.555951,0.604231,-6.707743,7.671731,4.505763,28.727770,-0.910391,11.005598,15.280376,13.200678,10.188209,1.014196,-1.127177,16.299999,20.970678,0.000000,194.000000,4.000000,,,,0.000000,4.000000,4.000000,4.000000,4.000000,4.000000,4.000000,4.000000,4.000000,4.000000,4.000000,4.000000,4.000000,4.000000,4.000000,4.000000,4.000000,4.000000,4.000000,4.000000,4.000000,4.000000,4.000000,4.000000,4.000000,4.000000,4.000000,4.000000,4.000000,4.000000,4.000000,4.000000,4.000000,100.000000
1614406279.109554,73.000000,0.000000,11.257027,12.776917,20.415295,18.970999,18.957020,14.880869,21.855288,-0.366662,11.950364,10.579102,5.731532,22.696234,-11.709778,-23.984081,-0.366634,5.676012,0.541351,4.599452,3.167729,-11.316420,15.356367,-3.191051,11.775966,17.039238,13.558695,16.290737,5.495169,10.690841,5.628567,8.104719,15.770878,22.488171,0.000000,187.000000,4.000000,,,,0.000000,4.000000,4.000000,4.000000,4.000000,4.000000,4.000000,4.000000,4.000000,4.000000,4.000000,4.000000,4.000000,4.000000,4.000000,4.000000,4.000000,4.000000,4.000000,4.000000,4.000000,4.000000,4.000000,4.000000,4.000000,4.000000,4.000000,4.000000,4.000000,4.000000,4.000000,4.000000,4.000000,100.000000
1614406279.117303,74.000000,0.000000,11.758591,12.764140,20.394880,17.926386,20.476524,22.558296,21.833431,2.197807,13.989696,13.132626,5.212980,22.673538,-15.287811,-23.447277,-12.673960,1.054951,-8.689960,-7.712840,-5.040567,-25.664078,-5.171810,-20.110937,2.020600,9.842710,6.365649,15.248805,-10.920582,10.680150,7.674220,-1.646975,16.267927,18.363117,0.000000,187.000000,4.000000,,,,0.000000,4.000000,4.000000,4.000000,4.000000,4.000000,4.000000,4.000000,4.000000,4.000000,4.000000,4.000000,4.000000,4.000000,4.000000,4.000000,4.000000,4.000000,4.000000,4.000000,4.000000,4.000000,4.000000,4.000000,4.000000,4.000000,4.000000,4.000000,4.000000,4.000000,4.000000,4.000000,4.000000,100.000000
1614406279.124952,75.000000,0.000000,10.721190,12.751376,21.400126,19.959742,28.661177,34.330608,21.811598,3.221250,16.026987,12.606672,5.207767,21.625223,-13.221241,-23.423830,-12.148466,-3.048668,-11.758192,-11.294871,-7.086809,-26.151234,-15.423048,-14.962621,8.172425,-14.269696,4.308002,17.797659,-6.294277,10.156650,7.153726,-8.824816,17.277302,18.857574,0.000000,157.000000,4.000000,,,,0.000000,4.000000,4.000000,4.000000,4.000000,4.000000,4.000000,4.000000,4.000000,4.000000,4.000000,4.000000,4.000000,4.000000,4.000000,4.000000,4.000000,4.000000,4.000000,4.000000,4.000000,4.000000,4.000000,4.000000,4.000000,4.000000,4.000000,4.000000,4.000000,4.000000,4.000000,4.000000,4.000000,100.000000
1614406279.132701,76.000000,0.000000,10.710469,12.738625,19.327444,17.375679,25.555592,22.501408,21.789785,2.705209,16.010962,11.055604,7.253841,22.116419,-3.464430,-22.887587,2.735478,3.108227,2.099720,1.536937,2.151047,-14.843032,6.643657,5.565162,18.933483,-7.588760,9.431899,15.215759,16.788940,12.197775,7.659392,-2.149324,16.234383,23.966923,0.000000,209.000000,4.000000,,,,0.000000,4.000000,4.000000,4.000000,4.000000,4.000000,4.000000,4.000000,4.000000,4.000000,4.000000,4.000000,4.000000,4.000000,4.000000,4.000000,4.000000,4.000000,4.000000,4.000000,4.000000,4.000000,4.000000,4.000000,4.000000,4.000000,4.000000,4.000000,4.000000,4.000000,4.000000,4.000000,4.000000,100.000000
1614406279.140351,77.000000,0.000000,11.725400,12.725885,17.256834,13.255739,13.735165,9.145572,21.767996,3.215324,15.482129,16.172754,10.323510,21.581482,1.154419,-23.890339,7.348127,11.310246,4.661723,9.740528,7.277102,-12.264086,23.047270,8.123700,16.863268,19.598316,13.525031,16.739004,18.823433,14.236859,7.138912,1.442569,16.218149,21.891674,0.000000,194.000000,4.000000,,,,0.000000,4.000000,4.000000,4.000000,4.000000,4.000000,4.000000,4.000000,4.000000,4.000000,4.000000,4.000000,4.000000,4.000000,4.000000,4.000000,4.000000,4.000000,4.000000,4.000000,4.000000,4.000000,4.000000,4.000000,4.000000,4.000000,4.000000,4.000000,4.000000,4.000000,4.000000,4.000000,4.000000,100.000000
1614406279.148100,78.000000,0.000000,8.123931,12.713160,18.265219,20.934792,15.259892,19.392838,21.746229,1.160826,15.466647,21.284786,7.749084,12.329131,-2.436479,-23.353628,1.699753,12.837399,-11.240376,6.141044,6.757004,-14.303104,18.408838,-1.628014,6.077174,24.706923,9.408941,29.542778,1.881533,14.222623,7.644594,-1.122976,21.330135,15.715936,0.000000,194.000000,4.000000,,,,0.000000,4.000000,4.000000,4.000000,4.000000,4.000000,4.000000,4.000000,4.000000,4.000000,4.000000,4.000000,4.000000,4.000000,4.000000,4.000000,4.000000,4.000000,4.000000,4.000000,4.000000,4.000000,4.000000,4.000000,4.000000,4.000000,4.000000,4.000000,4.000000,4.000000,4.000000,4.000000,4.000000,100.000000
1614406279.155749,79.000000,0.000000,3.500422,12.700447,13.118748,28.093344,18.834375,22.450367,21.724482,-2.430078,15.964001,11.519912,1.074669,2.573212,-5.510966,-22.304634,2.210874,12.824561,-16.870161,7.673364,6.750247,-11.724698,14.287865,-3.164847,0.942892,14.425806,3.758507,28.487595,-2.735733,13.695580,10.201052,0.416608,18.231882,16.213041,0.000000,171.000000,4.000000,,,,0.000000,4.000000,4.000000,4.000000,4.000000,4.000000,4.000000,4.000000,4.000000,4.000000,4.000000,4.000000,4.000000,4.000000,4.000000,4.000000,4.000000,4.000000,4.000000,4.000000,4.000000,4.000000,4.000000,4.000000,4.000000,4.000000,4.000000,4.000000,4.000000,4.000000,4.000000,4.000000,4.000000,100.000000
1614406279.163498,80.000000,0.000000,6.573845,12.687746,4.387680,16.270378,10.097592,6.017660,21.702757,-4.478930,14.409575,-2.850583,-2.516150,7.698844,-8.069557,-24.846432,3.747124,11.273274,-6.596880,8.178512,2.128112,-11.200153,6.068449,-1.623221,2.480411,10.821636,2.216287,3.330902,1.369567,14.194704,8.139569,-3.173552,1.290573,12.094263,0.000000,198.000000,4.000000,,,,0.000000,4.000000,4.000000,4.000000,4.000000,4.000000,4.000000,4.000000,4.000000,4.000000,4.000000,4.000000,4.000000,4.000000,4.000000,4.000000,4.000000,4.000000,4.000000,4.000000,4.000000,4.000000,4.000000,4.000000,4.000000,4.000000,4.000000,4.000000,4.000000,4.000000,4.000000,4.000000,4.000000,100.000000
1614406279.171147,81.000000,0.000000,13.233938,12.675058,3.357651,2.407954,3.420828,0.370617,21.681055,-5.500092,11.831063,-1.822091,-2.513633,23.075760,-3.446103,-26.360046,2.204916,4.082514,-0.436437,1.503666,-0.438119,-12.214594,-10.347877,-2.647238,4.016392,7.733891,-1.888493,-8.980122,-1.195905,13.667689,3.516045,-17.016533,-6.915845,-2.789626,0.000000,130.000000,4.000000,,,,0.000000,4.000000,4.000000,4.000000,4.000000,4.000000,4.000000,4.000000,4.000000,4.000000,4.000000,4.000000,4.000000,4.000000,4.000000,4.000000,4.000000,4.000000,4.000000,4.000000,4.000000,4.000000,4.000000,4.000000,4.000000,2.000000,4.000000,4.000000,4.000000,4.000000,4.000000,4.000000,4.000000,83.333336
1614406279.178996,82.000000,0.000000,15.271986,12.662383,-2.286732,2.918367,4.443048,7.549733,21.146553,-3.956131,11.306412,6.897680,-3.023940,34.334736,9.377855,-22.231123,4.253993,1.001508,-0.948821,2.527804,10.844371,-3.484431,-5.722144,2.483614,7.602119,1.059491,-1.373784,5.387833,4.446316,14.679663,2.999708,-22.640541,0.783378,-13.043246,0.000000,211.000000,4.000000,,,,0.000000,4.000000,4.000000,4.000000,4.000000,4.000000,4.000000,4.000000,4.000000,4.000000,4.000000,4.000000,4.000000,4.000000,4.000000,4.000000,4.000000,4.000000,4.000000,4.000000,4.000000,4.000000,4.000000,4.000000,4.000000,2.000000,4.000000,4.000000,4.000000,4.000000,4.000000,4.000000,4.000000,83.333336
1614406279.186745,83.000000,0.000000,14.231073,12.649721,-14.592137,4.453910,4.438605,10.106286,21.125406,-1.388072,11.807926,8.429243,-1.995275,32.249119,7.830016,-19.131968,4.249739,5.615891,-0.435052,9.704763,18.525835,7.288284,16.847681,14.276002,12.209902,6.186637,8.371180,18.715778,20.852127,16.716265,6.073631,-12.874311,5.397979,-10.466101,0.000000,215.000000,4.000000,,,,0.000000,4.000000,4.000000,4.000000,4.000000,4.000000,4.000000,4.000000,4.000000,4.000000,4.000000,4.000000,4.000000,4.000000,4.000000,4.000000,4.000000,4.000000,4.000000,4.000000,4.000000,4.000000,4.000000,4.000000,4.000000,2.000000,4.000000,4.000000,4.000000,4.000000,4.000000,4.000000,4.000000,83.333336
1614406279.194594,84.000000,0.000000,14.729663,12.124251,-5.346776,2.398174,6.485448,10.609000,21.617102,-3.437966,11.283298,6.882353,-3.531742,13.242511,-12.177814,-22.702579,-4.472459,2.020532,-0.947437,4.054033,8.250898,-4.001055,14.266731,12.723265,10.146410,22.590706,8.362808,19.209883,25.446659,17.725189,6.580379,-4.656309,4.366940,-7.378712,0.000000,169.000000,4.000000,,,,0.000000,4.000000,4.000000,4.000000,4.000000,4.000000,4.000000,4.000000,4.000000,4.000000,4.000000,4.000000,4.000000,4.000000,4.000000,4.000000,4.000000,4.000000,4.000000,4.000000,4.000000,4.000000,4.000000,4.000000,4.000000,2.000000,4.000000,4.000000,4.000000,4.000000,4.000000,4.000000,4.000000,83.333336
1614406279.202343,85.000000,0.000000,15.227754,12.624948,9.530366,4.959878,8.530245,12.649673,21.082664,-8.049912,11.272015,7.901111,-9.682055,-1.642526,-23.447687,-28.320904,-12.673116,-13.878924,-8.125977,-9.283355,-3.552225,-29.125259,-12.414203,-14.468946,2.956776,24.106577,-4.978888,14.575289,12.600699,17.194643,6.573798,-10.292678,8.977958,-9.422615,0.000000,169.000000,4.000000,,,,0.000000,4.000000,4.000000,4.000000,4.000000,4.000000,4.000000,4.000000,4.000000,4.000000,4.000000,4.000000,4.000000,4.000000,4.000000,4.000000,4.000000,4.000000,4.000000,4.000000,4.000000,4.000000,4.000000,4.000000,4.000000,2.000000,4.000000,4.000000,4.000000,4.000000,4.000000,4.000000,4.000000,83.333336
1614406279.210192,86.000000,0.000000,14.699705,12.612322,-3.812498,6.493380,5.957612,12.637024,21.061583,-5.477760,13.824844,8.918851,-5.569810,8.102706,-21.885778,-33.933609,-13.173263,-22.582994,-15.810159,-13.376636,-10.215339,-40.378185,-25.735121,-33.941658,0.902537,2.544009,-10.102115,5.842765,-3.822158,18.715910,7.080045,-19.513155,15.122827,-10.438833,0.000000,203.000000,4.000000,,,,0.000000,4.000000,4.000000,4.000000,4.000000,4.000000,4.000000,4.000000,4.000000,4.000000,4.000000,4.000000,4.000000,4.000000,4.000000,4.000000,4.000000,4.000000,4.000000,4.000000,4.000000,4.000000,4.000000,4.000000,4.000000,2.000000,4.000000,4.000000,4.000000,4.000000,4.000000,4.000000,4.000000,83.333336
1614406279.217941,87.000000,0.000000,14.685005,9.522787,-13.039454,7.512528,6.977295,12.624387,25.655905,-0.856897,15.349482,9.935574,6.230632,25.017681,-20.838251,-32.361214,-13.160089,-16.919386,-13.230246,-11.311976,-11.230764,-37.773705,-19.042721,-19.548740,3.978558,-15.920074,-10.604833,0.195897,-13.561926,16.133093,6.560144,-13.339795,12.030780,-6.325830,0.000000,200.000000,4.000000,,,,0.000000,4.000000,4.000000,4.000000,4.000000,4.000000,4.000000,4.000000,4.000000,4.000000,4.000000,4.000000,4.000000,4.000000,4.000000,4.000000,4.000000,4.000000,4.000000,4.000000,4.000000,4.000000,4.000000,4.000000,4.000000,2.000000,4.000000,4.000000,4.000000,4.000000,4.000000,4.000000,4.000000,83.333336
1614406279.225790,88.000000,0.000000,14.670321,7.974802,11.588969,14.684503,15.175447,14.663045,28.707172,-0.343220,15.334132,13.515382,9.814145,26.018303,-17.740490,-17.457056,-8.018724,-5.107594,-5.524708,-3.095537,1.600979,-29.017982,-1.587780,2.522090,5.000220,-17.442616,-8.542946,8.913650,-7.907338,12.014395,8.092046,2.570981,10.993109,2.398444,0.000000,165.000000,4.000000,,,,0.000000,4.000000,4.000000,4.000000,4.000000,4.000000,4.000000,4.000000,4.000000,4.000000,4.000000,4.000000,4.000000,4.000000,4.000000,4.000000,4.000000,4.000000,4.000000,4.000000,4.000000,4.000000,4.000000,4.000000,4.000000,2.000000,4.000000,4.000000,4.000000,4.000000,4.000000,4.000000,4.000000,83.333336
1614406279.233539,89.000000,0.000000,14.142830,13.607853,30.038919,21.849306,21.314117,16.699663,29.191286,-1.368518,15.318798,17.604429,10.317151,19.838440,-9.517621,-2.054984,3.784166,10.282128,-4.493542,11.266533,24.676300,-10.527426,21.490730,7.647773,4.482399,-4.091839,11.465597,30.443197,13.126210,21.745970,13.212158,10.260717,25.853910,14.190918,0.000000,201.000000,4.000000,,,,0.000000,4.000000,4.000000,4.000000,4.000000,4.000000,4.000000,4.000000,4.000000,4.000000,4.000000,4.000000,4.000000,4.000000,4.000000,4.000000,4.000000,4.000000,4.000000,4.000000,4.000000,4.000000,4.000000,4.000000,4.000000,2.000000,4.000000,4.000000,4.000000,4.000000,4.000000,4.000000,4.000000,83.333336
1614406279.241388,90.000000,0.000000,15.154327,19.748091,18.214008,23.365917,21.805624,18.734245,28.649273,-0.854329,15.303479,20.150928,14.922218,18.792959,-2.841437,4.613738,13.011151,23.605181,-5.001869,19.460396,35.420856,5.380538,35.315395,9.178587,5.503558,18.989176,25.813107,46.310188,27.984879,31.980635,17.814331,7.686354,37.622929,20.843393,0.000000,196.000000,4.000000,,,,0.000000,4.000000,4.000000,4.000000,4.000000,4.000000,4.000000,4.000000,4.000000,4.000000,4.000000,4.000000,4.000000,4.000000,4.000000,4.000000,4.000000,4.000000,4.000000,4.000000,4.000000,4.000000,4.000000,4.000000,4.000000,2.000000,4.000000,4.000000,4.000000,4.000000,4.000000,4.000000,4.000000,83.333336
1614406279.249137,91.000000,0.000000,13.600712,20.241163,11.529127,22.829731,21.783817,19.741152,27.082163,-0.853475,15.288176,19.105137,18.497040,18.261347,-1.812955,1.532201,16.075064,25.632856,-0.381483,19.953754,24.616203,3.323875,28.613413,10.195049,2.421131,29.226597,11.428318,36.520290,16.674843,22.717884,18.309338,4.601745,24.251972,13.643063,0.000000,191.000000,4.000000,,,,0.000000,4.000000,4.000000,4.000000,4.000000,4.000000,4.000000,4.000000,4.000000,4.000000,4.000000,4.000000,4.000000,4.000000,4.000000,4.000000,4.000000,4.000000,4.000000,4.000000,4.000000,4.000000,4.000000,4.000000,4.000000,2.000000,4.000000,4.000000,4.000000,4.000000,4.000000,4.000000,4.000000,83.333336
1614406279.256986,92.000000,0.000000,9.997368,20.220922,18.184265,18.704338,24.326138,19.721411,22.439695,-0.852621,15.272887,14.470647,16.940081,15.166162,-7.964988,-12.315485,11.956424,14.837994,-1.919563,13.267135,3.565947,-4.371757,6.533517,-2.122838,-5.786418,12.787114,-0.377982,12.894026,-4.367473,9.361834,17.265387,4.084322,10.894386,4.911471,0.000000,182.000000,4.000000,,,,0.000000,4.000000,4.000000,4.000000,4.000000,4.000000,4.000000,4.000000,4.000000,4.000000,4.000000,4.000000,4.000000,4.000000,4.000000,4.000000,4.000000,4.000000,4.000000,4.000000,4.000000,4.000000,4.000000,4.000000,4.000000,2.000000,4.000000,4.000000,4.000000,4.000000,4.000000,4.000000,4.000000,83.333336
1614406279.264736,93.000000,0.000000,12.038652,19.175060,6.884029,10.993325,24.301811,20.727331,20.365974,-0.851768,15.257614,12.404894,10.769295,13.612535,-12.572408,-28.713427,2.713698,0.464181,-6.020207,-0.079466,-13.360696,-10.008410,-16.549940,-12.889946,-5.780632,-4.661571,2.186499,4.676004,-12.055413,9.352471,13.145557,1.516135,17.550159,6.957841,0.000000,189.000000,4.000000,,,,0.000000,4.000000,4.000000,4.000000,4.000000,4.000000,4.000000,4.000000,4.000000,4.000000,4.000000,4.000000,4.000000,4.000000,4.000000,4.000000,4.000000,4.000000,4.000000,4.000000,4.000000,4.000000,4.000000,4.000000,4.000000,2.000000,4.000000,4.000000,4.000000,4.000000,4.000000,4.000000,4.000000,83.333336
1614406279.272584,94.000000,0.000000,19.718922,15.566142,-17.225418,7.392588,11.969816,20.706604,21.371250,-0.338096,15.755177,12.905310,5.630321,15.137383,-9.482912,-28.171892,-0.365938,-6.202950,2.190941,-7.258873,-15.911438,-12.049684,-22.174416,-3.133466,8.584124,-4.656909,-3.969534,5.696969,-8.966434,11.394402,6.978566,-11.818714,14.455686,1.822679,0.000000,204.000000,4.000000,,,,0.000000,4.000000,4.000000,4.000000,4.000000,4.000000,4.000000,4.000000,4.000000,4.000000,4.000000,4.000000,4.000000,4.000000,4.000000,4.000000,4.000000,4.000000,4.000000,4.000000,4.000000,4.000000,4.000000,4.000000,4.000000,2.000000,4.000000,4.000000,4.000000,4.000000,4.000000,4.000000,4.000000,83.333336
1614406279.280334,95.000000,0.000000,21.750484,11.960833,-18.233835,7.385196,4.265539,19.147436,20.837057,-0.337758,16.252243,11.866763,6.650331,17.686348,-6.396506,-16.348848,4.249812,-1.581362,15.009263,-3.661871,-6.151937,-1.268404,-1.639421,12.767103,21.396051,-4.139431,-7.042488,-0.462574,-2.290802,9.331725,6.971587,-23.088947,-1.456206,-13.563760,0.000000,191.000000,4.000000,,,,0.000000,4.000000,4.000000,4.000000,4.000000,4.000000,4.000000,4.000000,4.000000,4.000000,4.000000,4.000000,4.000000,4.000000,4.000000,4.000000,4.000000,4.000000,4.000000,4.000000,4.000000,4.000000,4.000000,4.000000,4.000000,2.000000,4.000000,4.000000,4.000000,4.000000,4.000000,4.000000,4.000000,83.333336
1614406279.288183,96.000000,0.000000,18.651812,11.948872,1.271579,6.864990,15.543324,22.718031,20.816221,-0.850241,14.697529,10.829255,8.694963,18.694304,-5.877289,-12.742756,-2.421104,2.009963,14.481433,0.444355,5.649087,4.373890,21.951962,13.779977,20.861835,-7.212215,5.785068,4.153273,4.890976,9.322393,13.118462,-11.270986,1.109353,-9.960452,8064.000000,0.000000,4.000000,,,,0.000000,4.000000,4.000000,4.000000,4.000000,4.000000,4.000000,4.000000,4.000000,4.000000,4.000000,4.000000,4.000000,4.000000,4.000000,4.000000,4.000000,4.000000,4.000000,4.000000,4.000000,4.000000,4.000000,4.000000,4.000000,2.000000,4.000000,4.000000,4.000000,4.000000,4.000000,4.000000,4.000000,83.333336
1614406279.295932,97.000000,0.000000,18.120338,13.475385,0.757487,7.370945,18.091885,23.720955,20.795404,-0.849391,13.657190,11.331246,3.558063,17.649967,-7.922694,-22.473604,-17.803299,-8.248458,-1.943305,-3.145833,3.079335,-15.117662,18.853086,1.458505,11.097384,2.538587,13.471591,21.585016,5.398906,10.338712,11.054061,0.022336,15.980039,6.459765,8064.000000,0.000000,4.000000,,,,0.000000,4.000000,4.000000,4.000000,4.000000,4.000000,4.000000,4.000000,4.000000,4.000000,4.000000,4.000000,4.000000,4.000000,4.000000,4.000000,4.000000,4.000000,4.000000,4.000000,4.000000,4.000000,4.000000,4.000000,4.000000,2.000000,4.000000,4.000000,4.000000,4.000000,4.000000,4.000000,4.000000,83.333336
1614406279.303781,98.000000,0.000000,17.076578,8.846524,-25.909937,4.799472,-0.387746,8.312618,21.287430,-0.848541,15.181994,5.678890,-8.753187,15.068215,-17.658361,-44.502411,-23.939341,-23.112003,-21.941360,-20.578585,-18.462206,-36.128185,-10.909355,-10.850646,2.881158,8.689895,4.740170,13.358304,-1.785980,10.328373,-1.264685,-19.464865,7.246109,-6.880028,8192.000000,0.000000,4.000000,,,,0.000000,4.000000,4.000000,4.000000,4.000000,4.000000,4.000000,4.000000,4.000000,4.000000,4.000000,4.000000,4.000000,4.000000,4.000000,4.000000,4.000000,4.000000,4.000000,4.000000,4.000000,4.000000,4.000000,4.000000,4.000000,2.000000,4.000000,4.000000,4.000000,4.000000,4.000000,4.000000,4.000000,83.333336
1614406279.311530,99.000000,0.000000,12.444116,-0.393091,-42.807106,-6.487379,-13.207871,-10.670053,21.266142,-9.052821,5.936044,-10.737045,-19.000845,14.027506,-25.333010,-66.509193,-25.453863,-31.806841,-29.611727,-37.993904,-35.366821,-40.194622,-31.924088,-20.070564,1.339816,-10.805975,-9.623545,-14.860183,-4.348297,10.318045,-9.468549,-42.009502,-16.350880,-39.180840,8064.000000,0.000000,4.000000,,,,0.000000,4.000000,4.000000,4.000000,4.000000,4.000000,4.000000,4.000000,4.000000,4.000000,4.000000,4.000000,4.000000,4.000000,4.000000,4.000000,4.000000,4.000000,4.000000,4.000000,4.000000,4.000000,4.000000,4.000000,4.000000,2.000000,4.000000,4.000000,4.000000,4.000000,4.000000,4.000000,4.000000,83.333336
1614406279.319179,100.000000,0.000000,9.867569,-2.956801,-35.071991,-12.634738,-11.656202,-8.608101,21.244875,-18.787357,-9.967328,-16.880156,-15.904921,15.039120,-22.743574,-60.801655,-22.351486,-24.082726,-24.966732,-27.186678,-22.510941,-38.103146,-22.148573,-23.127417,2.364117,-31.820810,-13.716485,-19.460707,-2.805487,10.307727,-7.920619,-33.249546,-17.360170,-43.757046,8064.000000,0.000000,4.000000,,,,0.000000,4.000000,4.000000,4.000000,4.000000,4.000000,4.000000,4.000000,4.000000,4.000000,4.000000,4.000000,4.000000,4.000000,4.000000,4.000000,4.000000,4.000000,4.000000,4.000000,4.000000,4.000000,4.000000,4.000000,4.000000,2.000000,4.000000,4.000000,4.000000,4.000000,4.000000,4.000000,4.000000,83.333336
1614406279.326928,101.000000,0.000000,10.370522,1.661541,-25.293327,-3.391334,-3.439418,5.246661,21.223631,-18.255751,-2.265053,4.162366,-2.555682,13.485619,-21.182369,-29.971624,-3.354776,1.582382,-21.864841,3.096918,5.716698,-21.141966,4.027421,-15.924803,1.848932,-25.635143,1.169026,-3.543810,-5.366784,10.297419,-3.810134,-12.190655,1.631549,-17.046621,8064.000000,0.000000,4.000000,,,,0.000000,4.000000,4.000000,4.000000,4.000000,4.000000,4.000000,4.000000,4.000000,4.000000,4.000000,4.000000,4.000000,4.000000,4.000000,4.000000,4.000000,4.000000,4.000000,4.000000,4.000000,4.000000,4.000000,4.000000,4.000000,2.000000,4.000000,4.000000,4.000000,4.000000,4.000000,4.000000,4.000000,83.333336
1614406279.334577,102.000000,0.000000,10.872972,5.249623,-25.780855,5.330007,7.846073,10.369619,21.715227,-10.545186,20.301313,25.696665,3.087899,7.831108,-20.135546,-11.992934,13.058835,21.067980,-23.381437,14.375873,19.557135,2.468920,19.408009,-2.575544,1.334263,-9.712071,12.962729,-1.488984,0.792429,10.287122,-0.729401,-9.614361,10.860686,-4.209061,8064.000000,0.000000,4.000000,,,,0.000000,4.000000,4.000000,4.000000,4.000000,4.000000,4.000000,4.000000,4.000000,4.000000,4.000000,4.000000,4.000000,4.000000,4.000000,4.000000,4.000000,4.000000,4.000000,4.000000,4.000000,4.000000,4.000000,4.000000,4.000000,2.000000,4.000000,4.000000,4.000000,4.000000,4.000000,4.000000,4.000000,83.333336
1614406279.342326,103.000000,0.000000,10.862100,4.731553,-28.831997,2.760574,11.427971,7.282327,21.693512,-10.534641,19.255371,20.029943,0.007888,6.284815,-13.961564,-11.980942,9.456033,14.380244,-21.819595,4.617907,17.486296,-1.123292,16.311678,1.529595,0.820108,-6.625437,3.718997,-5.077239,13.099329,10.276834,-0.728671,-16.271414,5.721621,-11.897160,8064.000000,0.000000,4.000000,,,,0.000000,4.000000,4.000000,4.000000,4.000000,4.000000,4.000000,4.000000,4.000000,4.000000,4.000000,4.000000,4.000000,4.000000,4.000000,4.000000,4.000000,4.000000,4.000000,4.000000,4.000000,4.000000,4.000000,4.000000,4.000000,2.000000,4.000000,4.000000,4.000000,4.000000,4.000000,4.000000,4.000000,83.333336
1614406279.349975,104.000000,0.000000,9.825596,5.239642,-25.726242,3.270634,11.929363,9.326326,20.133358,-8.985645,10.518167,10.779144,5.648906,12.945197,-10.357859,-9.404858,6.369654,5.647915,-18.720852,4.100469,10.802143,-17.019606,6.551777,-7.189883,2.357749,-6.618811,-3.464209,4.671428,6.419563,10.266558,-0.215122,-13.178219,5.203078,-13.936544,8064.000000,0.000000,4.000000,,,,0.000000,4.000000,4.000000,4.000000,4.000000,4.000000,4.000000,4.000000,4.000000,4.000000,4.000000,4.000000,4.000000,4.000000,4.000000,4.000000,4.000000,4.000000,4.000000,4.000000,4.000000,4.000000,4.000000,4.000000,4.000000,2.000000,4.000000,4.000000,4.000000,4.000000,4.000000,4.000000,4.000000,83.333336
1614406279.357724,105.000000,0.000000,10.841412,5.747222,-20.572311,8.908389,18.584101,10.855461,21.651686,-2.309993,17.687138,13.845288,11.284283,20.111738,-8.296219,-15.036479,7.388925,7.180729,-17.676491,5.634830,-1.516351,-18.541046,-8.326570,-16.413462,1.842571,-5.073731,-2.435104,4.153936,-13.074037,10.256291,0.297914,-13.165041,9.813260,-12.384147,8064.000000,0.000000,4.000000,,,,0.000000,4.000000,4.000000,4.000000,4.000000,4.000000,4.000000,4.000000,4.000000,4.000000,4.000000,4.000000,4.000000,4.000000,4.000000,4.000000,4.000000,4.000000,4.000000,4.000000,4.000000,4.000000,4.000000,4.000000,4.000000,2.000000,4.000000,4.000000,4.000000,4.000000,4.000000,4.000000,4.000000,83.333336
1614406279.365374,106.000000,0.000000,11.343390,5.741475,-28.244045,-0.844109,4.719362,0.075375,21.630033,-12.564093,8.951501,4.600674,-8.214181,14.450602,-11.364846,-41.688110,-5.438977,-7.185426,-17.658813,-10.268241,-14.335347,-25.189173,-30.882345,-18.961151,-6.364399,-14.299426,-9.612156,-16.875858,-21.778912,10.246035,-4.830589,-27.510851,7.239344,-19.551250,8064.000000,0.000000,4.000000,,,,0.000000,4.000000,4.000000,4.000000,4.000000,4.000000,4.000000,4.000000,4.000000,4.000000,4.000000,4.000000,4.000000,4.000000,4.000000,4.000000,4.000000,4.000000,4.000000,4.000000,4.000000,4.000000,4.000000,4.000000,4.000000,2.000000,4.000000,4.000000,4.000000,4.000000,4.000000,4.000000,4.000000,83.333336
1614406279.373123,107.000000,0.000000,6.716663,5.222913,-38.985031,-16.740702,-18.362280,-10.181110,8.787891,-33.064350,-11.570271,-13.865465,-32.308533,0.589997,-27.250917,-55.492577,-22.869436,-28.716702,-20.205257,-23.591307,-17.397936,-34.907574,-32.902744,-18.942190,-9.434958,-26.592819,-12.679466,-20.448727,-13.552004,9.722968,-8.415503,-34.150005,2.103900,-26.198364,8064.000000,0.000000,4.000000,,,,0.000000,4.000000,4.000000,4.000000,4.000000,4.000000,4.000000,4.000000,4.000000,4.000000,4.000000,4.000000,4.000000,4.000000,4.000000,4.000000,4.000000,4.000000,4.000000,4.000000,4.000000,4.000000,4.000000,4.000000,4.000000,2.000000,4.000000,4.000000,4.000000,4.000000,4.000000,4.000000,4.000000,83.333336
1614406279.380772,108.000000,0.000000,5.684305,5.217690,-28.176817,-12.621396,-8.600327,-4.529903,-0.964487,-24.826157,-5.404855,-8.723395,-21.506992,0.076586,-34.403152,-40.565289,-24.897848,-29.200806,-17.108130,-15.875407,-14.816435,-28.205999,-4.664715,-14.307863,2.369349,-19.899559,-0.359095,-0.428278,6.974369,9.713245,-1.227600,-21.295343,1.588975,-25.146526,8064.000000,0.000000,4.000000,,,,0.000000,4.000000,4.000000,4.000000,4.000000,4.000000,4.000000,4.000000,4.000000,4.000000,4.000000,4.000000,4.000000,4.000000,4.000000,4.000000,4.000000,4.000000,4.000000,4.000000,4.000000,4.000000,4.000000,4.000000,4.000000,2.000000,4.000000,4.000000,4.000000,4.000000,4.000000,4.000000,4.000000,83.333336
1614406279.388521,109.000000,0.000000,12.345287,5.212472,-13.789666,-3.378006,11.408273,2.654114,8.267247,2.890977,11.523627,7.182765,2.104259,15.973946,-23.086699,-28.729851,-22.308847,-20.453657,-7.347432,-8.680045,-16.852900,-25.613689,5.596360,-8.652530,12.110569,-2.443763,6.820751,0.597791,20.813549,10.729173,7.491577,-12.043279,-1.489537,-24.608559,8064.000000,0.000000,4.000000,,,,0.000000,4.000000,4.000000,4.000000,4.000000,4.000000,4.000000,4.000000,4.000000,4.000000,4.000000,4.000000,4.000000,4.000000,4.000000,4.000000,4.000000,4.000000,4.000000,4.000000,4.000000,4.000000,4.000000,4.000000,4.000000,2.000000,4.000000,4.000000,4.000000,4.000000,4.000000,4.000000,4.000000,83.333336
1614406279.396170,110.000000,0.000000,14.897044,5.207260,-22.493824,-6.964371,4.217377,-0.425464,19.028212,6.477829,8.948001,9.226864,0.563693,21.086176,-18.961048,-33.829327,-25.876282,-22.484486,-11.442648,-14.312390,-17.348867,-33.280384,-12.870774,-13.259262,4.918971,1.148425,4.249828,-11.710499,6.946581,8.667162,7.996905,-15.620979,-4.564970,-25.609591,8064.000000,0.000000,4.000000,,,,0.000000,4.000000,4.000000,4.000000,4.000000,4.000000,4.000000,4.000000,4.000000,4.000000,4.000000,4.000000,4.000000,4.000000,4.000000,4.000000,4.000000,4.000000,4.000000,4.000000,4.000000,4.000000,4.000000,4.000000,4.000000,2.000000,4.000000,4.000000,4.000000,4.000000,4.000000,4.000000,4.000000,83.333336
1614406279.403919,111.000000,0.000000,9.241122,4.689232,-24.009792,-2.854843,-3.479148,1.113423,15.932260,-6.349161,5.862130,6.653534,-9.180460,11.834321,-20.993370,-36.359600,-23.799124,-20.923538,-18.097872,-10.195514,-4.511006,-23.503513,-6.704058,-10.169080,0.298668,-7.057852,8.860963,6.762750,-4.342417,5.581572,5.937626,-9.451511,0.567800,-18.917315,8064.000000,0.000000,4.000000,,,,0.000000,4.000000,4.000000,4.000000,4.000000,4.000000,4.000000,4.000000,4.000000,4.000000,4.000000,4.000000,4.000000,4.000000,4.000000,4.000000,4.000000,4.000000,4.000000,4.000000,4.000000,4.000000,4.000000,4.000000,4.000000,2.000000,4.000000,4.000000,4.000000,4.000000,4.000000,4.000000,4.000000,83.333336
1614406279.411568,112.000000,0.000000,10.770343,5.710184,-9.113988,6.891602,4.729459,11.368720,12.326584,-8.906915,8.420370,8.698163,-3.530254,11.309667,-11.741607,-31.707855,-9.416350,-5.005179,-2.695159,7.763400,9.852479,-1.428729,22.533415,13.943653,10.554779,-3.461051,14.493128,28.294449,13.097823,9.165733,9.008612,1.839991,6.208258,-9.667628,8064.000000,0.000000,4.000000,,,,0.000000,4.000000,4.000000,4.000000,4.000000,4.000000,4.000000,4.000000,4.000000,4.000000,4.000000,4.000000,4.000000,4.000000,4.000000,4.000000,4.000000,4.000000,4.000000,4.000000,4.000000,4.000000,4.000000,4.000000,4.000000,2.000000,4.000000,4.000000,4.000000,4.000000,4.000000,4.000000,4.000000,83.333336
1614406279.419318,113.000000,0.000000,15.374957,8.268577,-13.720259,3.294967,3.699089,11.870172,14.365539,-6.846725,3.283745,9.202285,-0.962621,8.734254,-12.755506,-33.214607,-2.227447,4.743416,6.538305,10.832560,11.893909,0.623982,17.382677,19.057915,12.595507,11.414206,7.299147,10.830257,19.238571,13.771953,11.050885,-6.366977,5.176408,-9.145141,8064.000000,0.000000,4.000000,,,,0.000000,4.000000,4.000000,4.000000,4.000000,4.000000,4.000000,4.000000,4.000000,4.000000,4.000000,4.000000,4.000000,4.000000,4.000000,4.000000,4.000000,4.000000,4.000000,4.000000,4.000000,4.000000,4.000000,4.000000,4.000000,2.000000,4.000000,4.000000,4.000000,4.000000,4.000000,4.000000,4.000000,83.333336
1614406279.426967,114.000000,0.000000,8.180095,9.285949,-29.091154,-3.374995,-2.971277,7.755738,14.351173,-6.327058,2.767641,8.680263,-6.089864,-6.146275,-26.076084,-38.822418,-7.353425,0.636108,-13.468233,-2.511606,10.856374,-11.684334,-7.762910,-9.166271,-6.904269,11.402791,-3.990203,-10.206214,-2.831949,10.168437,3.347527,-21.232405,4.658412,-12.725739,8064.000000,0.000000,4.000000,,,,0.000000,4.000000,4.000000,4.000000,4.000000,4.000000,4.000000,4.000000,4.000000,4.000000,4.000000,4.000000,4.000000,4.000000,4.000000,4.000000,4.000000,4.000000,4.000000,4.000000,4.000000,4.000000,4.000000,4.000000,4.000000,2.000000,4.000000,4.000000,4.000000,4.000000,4.000000,4.000000,4.000000,83.333336
1614406279.434816,115.000000,0.000000,4.069350,8.763843,-23.421038,-1.833158,1.647079,16.465931,12.798361,-2.730988,16.611027,8.158762,2.121354,-1.011923,-16.306417,-27.501545,3.935980,10.891882,-21.147072,5.183213,20.076286,-10.134189,4.552545,-12.746848,-14.076852,-4.506048,-0.909290,1.598864,-11.034245,5.542884,-5.886590,-18.647070,5.679394,-13.738654,8064.000000,0.000000,4.000000,,,,0.000000,4.000000,4.000000,4.000000,4.000000,4.000000,4.000000,4.000000,4.000000,4.000000,4.000000,4.000000,4.000000,4.000000,4.000000,4.000000,4.000000,4.000000,4.000000,4.000000,4.000000,4.000000,4.000000,4.000000,4.000000,2.000000,4.000000,4.000000,4.000000,4.000000,4.000000,4.000000,4.000000,83.333336
1614406279.442565,116.000000,0.000000,15.347332,9.267900,-10.577103,0.732777,11.389022,27.218695,15.862486,0.348666,27.876467,8.150602,21.093592,23.604473,7.812452,-4.397121,31.111532,34.983555,5.027921,29.793415,29.286980,6.799023,33.778763,17.009489,6.962866,-6.040003,12.424953,14.930598,3.848583,7.075802,0.273143,-7.346372,5.673715,-13.212095,8064.000000,0.000000,4.000000,,,,0.000000,4.000000,4.000000,4.000000,4.000000,4.000000,4.000000,4.000000,4.000000,4.000000,4.000000,4.000000,4.000000,4.000000,4.000000,4.000000,4.000000,4.000000,4.000000,4.000000,4.000000,4.000000,4.000000,4.000000,4.000000,2.000000,4.000000,4.000000,4.000000,4.000000,4.000000,4.000000,4.000000,83.333336
1614406279.450414,117.000000,0.000000,22.511473,8.745811,-11.079347,1.757686,13.428915,23.088913,20.462008,-0.677323,22.720385,8.655272,26.200703,27.683434,14.984127,-2.341442,32.618881,31.871649,22.458790,26.173878,24.129488,9.869147,25.539854,21.607862,21.314878,12.427575,9.335605,12.864386,12.049863,10.145650,16.170305,-5.287743,5.155221,-13.711703,8064.000000,0.000000,4.000000,,,,0.000000,4.000000,4.000000,4.000000,4.000000,4.000000,4.000000,4.000000,4.000000,4.000000,4.000000,4.000000,4.000000,4.000000,4.000000,4.000000,4.000000,4.000000,4.000000,4.000000,4.000000,4.000000,4.000000,4.000000,4.000000,2.000000,4.000000,4.000000,4.000000,4.000000,4.000000,4.000000,4.000000,83.333336
1614406279.458163,118.000000,0.000000,14.796653,8.737065,-22.350319,-3.372277,7.261640,15.373516,19.928724,-0.676646,11.928434,6.082515,15.405272,14.322416,11.892220,-21.826281,11.560621,4.147469,13.205563,-0.518963,10.772024,-9.627902,-6.793378,-0.465027,15.652537,18.568995,-7.596808,9.774598,9.473711,10.135504,17.179777,-8.872199,4.637245,-13.697991,8064.000000,0.000000,4.000000,,,,0.000000,4.000000,4.000000,4.000000,4.000000,4.000000,4.000000,4.000000,4.000000,4.000000,4.000000,4.000000,4.000000,4.000000,4.000000,4.000000,4.000000,4.000000,4.000000,4.000000,4.000000,4.000000,4.000000,4.000000,4.000000,2.000000,4.000000,4.000000,4.000000,4.000000,4.000000,4.000000,4.000000,83.333336
1614406279.466012,119.000000,0.000000,10.166471,9.241148,-36.174122,-10.035572,1.100532,15.870963,17.344694,0.862492,7.301121,1.461048,8.723200,13.282453,8.803405,-31.035223,2.318291,-7.138730,2.423126,-8.210752,6.145868,-21.925966,-16.530174,-6.618408,12.559961,6.242733,-7.589211,11.816106,9.977057,10.125369,6.906186,-10.401789,6.171069,-13.684294,8064.000000,0.000000,4.000000,,,,0.000000,4.000000,4.000000,4.000000,4.000000,4.000000,4.000000,4.000000,4.000000,4.000000,4.000000,4.000000,4.000000,4.000000,4.000000,4.000000,4.000000,4.000000,4.000000,4.000000,4.000000,4.000000,4.000000,4.000000,4.000000,2.000000,4.000000,4.000000,4.000000,4.000000,4.000000,4.000000,4.000000,83.333336
1614406279.473761,120.000000,0.000000,11.181946,6.154984,-37.163589,-3.871690,1.612252,16.880733,16.814529,-3.240934,8.319461,0.433946,9.740118,16.346092,-4.025911,-28.440084,-2.299411,-5.080309,0.369421,-3.074336,6.652543,-17.801476,-5.744413,-0.970764,14.085863,1.108285,4.726070,13.855572,9.454260,10.115243,3.822357,-9.365746,4.113616,-13.670609,8064.000000,0.000000,4.000000,,,,0.000000,4.000000,4.000000,4.000000,4.000000,4.000000,4.000000,4.000000,4.000000,4.000000,4.000000,4.000000,4.000000,4.000000,4.000000,4.000000,4.000000,4.000000,4.000000,4.000000,4.000000,4.000000,4.000000,4.000000,4.000000,2.000000,4.000000,4.000000,4.000000,4.000000,4.000000,4.000000,4.000000,83.333336
1614406279.481610,121.000000,0.000000,8.606662,2.046265,-24.818733,3.824489,4.687562,16.351032,14.233611,-12.468463,7.798321,0.946332,4.602172,12.740004,-19.919321,-28.924465,-19.220188,-16.870100,-7.836077,-12.814852,-6.174623,-28.040085,-9.841233,-11.226203,6.379470,3.671279,3.182883,8.200690,3.803780,6.002564,2.280073,-10.894841,-2.557164,-13.656939,8064.000000,0.000000,4.000000,,,,0.000000,4.000000,4.000000,4.000000,4.000000,4.000000,4.000000,4.000000,4.000000,4.000000,4.000000,4.000000,4.000000,4.000000,4.000000,4.000000,4.000000,4.000000,4.000000,4.000000,4.000000,4.000000,4.000000,4.000000,4.000000,2.000000,4.000000,4.000000,4.000000,4.000000,4.000000,4.000000,4.000000,83.333336
1614406279.489359,122.000000,0.000000,7.059594,0.505757,-21.716991,-2.846002,1.605952,15.309040,9.603993,-16.045738,4.200779,0.945386,-6.171660,10.163161,-26.566069,-30.946823,-26.893276,-27.622461,-20.648754,-24.596909,-18.988960,-46.473583,-25.216007,-29.676516,-2.344858,-6.075982,-6.563890,-7.192126,-1.328229,2.406818,-5.927335,-18.063435,-0.503325,-13.643282,8064.000000,0.000000,4.000000,,,,0.000000,4.000000,4.000000,4.000000,4.000000,4.000000,4.000000,4.000000,4.000000,4.000000,4.000000,4.000000,4.000000,4.000000,4.000000,4.000000,4.000000,4.000000,4.000000,4.000000,4.000000,4.000000,4.000000,4.000000,4.000000,2.000000,4.000000,4.000000,4.000000,4.000000,4.000000,4.000000,4.000000,83.333336
1614406279.497208,123.000000,0.000000,6.026893,1.530892,-29.900402,-5.920079,-3.011039,15.806551,9.081569,-11.927128,4.709399,0.944441,-10.780873,10.152998,-25.513863,-30.403055,-19.174076,-17.338428,-24.217848,-17.392824,-11.790485,-39.760445,-21.088226,-27.082737,-2.855334,-16.839136,-7.070147,-9.749036,-0.814080,2.404411,-5.921408,-20.096653,5.651024,-13.116817,8064.000000,0.000000,4.000000,,,,0.000000,4.000000,4.000000,4.000000,4.000000,4.000000,4.000000,4.000000,4.000000,4.000000,4.000000,4.000000,4.000000,4.000000,4.000000,4.000000,4.000000,4.000000,4.000000,4.000000,4.000000,4.000000,4.000000,4.000000,4.000000,2.000000,4.000000,4.000000,4.000000,4.000000,4.000000,4.000000,4.000000,83.333336
1614406279.504957,124.000000,0.000000,-0.132980,1.529362,-33.460247,-0.273133,-3.008028,16.816385,10.098128,-10.889560,7.268792,0.943496,-8.718811,8.604383,-24.462708,-28.834190,-13.513876,-7.064680,-21.116707,-7.119021,0.016177,-18.182220,-3.118421,-5.004372,-3.365299,-13.232554,-5.011794,4.619687,0.212375,3.427648,3.828103,-14.948351,0.517168,-12.590880,8064.000000,0.000000,4.000000,,,,0.000000,4.000000,4.000000,4.000000,4.000000,4.000000,4.000000,4.000000,4.000000,4.000000,4.000000,4.000000,4.000000,4.000000,4.000000,4.000000,4.000000,4.000000,4.000000,4.000000,4.000000,4.000000,4.000000,4.000000,4.000000,2.000000,4.000000,4.000000,4.000000,4.000000,4.000000,4.000000,4.000000,83.333336
1614406279.512806,125.000000,0.000000,-4.748232,1.015012,-31.888323,-4.375424,-2.492199,13.209826,9.575210,-13.955593,5.210241,0.942553,-9.735733,7.057317,-25.463884,-27.779716,-17.602926,-9.621718,-22.634052,-7.624723,0.528982,-9.958911,2.525723,5.257043,-6.438857,-5.527014,-6.032423,9.230453,-2.351940,2.911399,4.337096,-15.959044,-6.150016,-12.578290,8064.000000,0.000000,4.000000,,,,0.000000,4.000000,4.000000,4.000000,4.000000,4.000000,4.000000,4.000000,4.000000,4.000000,4.000000,4.000000,4.000000,4.000000,4.000000,4.000000,4.000000,4.000000,4.000000,4.000000,4.000000,4.000000,4.000000,4.000000,4.000000,2.000000,4.000000,4.000000,4.000000,4.000000,4.000000,4.000000,4.000000,83.333336
1614406279.520555,126.000000,0.000000,-4.743484,1.526817,-31.856436,-8.986433,-5.566630,4.478667,9.565635,-15.480100,0.076826,1.454431,-10.238817,6.024619,-25.951242,-29.290398,-15.534041,-6.022353,-23.637060,-4.540175,-1.522829,-12.513054,0.471915,-4.491804,-6.432418,-5.521487,-6.539211,-0.522368,-0.811127,1.370026,-3.359549,-20.558470,1.035622,-13.591352,8064.000000,0.000000,4.000000,,,,0.000000,4.000000,4.000000,4.000000,4.000000,4.000000,4.000000,4.000000,4.000000,4.000000,4.000000,4.000000,4.000000,4.000000,4.000000,4.000000,4.000000,4.000000,4.000000,4.000000,4.000000,4.000000,4.000000,4.000000,4.000000,2.000000,4.000000,4.000000,4.000000,4.000000,4.000000,4.000000,4.000000,83.333336
1614406279.528404,127.000000,0.000000,-4.738740,1.525290,-32.850220,-5.900524,-7.099525,0.371625,10.068890,-15.464619,0.076749,0.940156,-6.638835,5.505774,-16.694521,-24.645723,4.481493,11.419567,-15.921115,4.695134,3.094078,-11.987720,1.497085,-10.128338,-5.913165,-6.028786,-6.019852,-4.111589,0.728146,3.932759,-4.381831,-21.050732,7.188432,-13.064940,8064.000000,0.000000,4.000000,,,,0.000000,4.000000,4.000000,4.000000,4.000000,4.000000,4.000000,4.000000,4.000000,4.000000,4.000000,4.000000,4.000000,4.000000,4.000000,4.000000,4.000000,4.000000,4.000000,4.000000,4.000000,4.000000,4.000000,4.000000,4.000000,2.000000,4.000000,4.000000,4.000000,4.000000,4.000000,4.000000,4.000000,83.333336
1614406279.536153,0.000000,0.000000,-3.708360,1.523765,-33.843010,-11.022828,-6.066784,0.884073,9.546000,-15.961975,1.102313,-1.112067,-7.145017,8.064370,-6.934237,-13.339025,17.810345,19.613276,-8.212886,8.793003,5.655087,-9.411631,-2.606977,-6.015645,-5.907252,-6.022757,-6.013832,-2.569016,-9.528993,2.903185,-4.377449,-25.132244,2.053039,-16.128799,0.000000,166.000000,4.000000,,,,0.000000,4.000000,4.000000,4.000000,4.000000,4.000000,4.000000,4.000000,4.000000,4.000000,4.000000,4.000000,4.000000,4.000000,4.000000,4.000000,4.000000,4.000000,4.000000,4.000000,4.000000,4.000000,4.000000,4.000000,4.000000,2.000000,4.000000,4.000000,4.000000,4.000000,4.000000,4.000000,4.000000,83.333336
1614406279.543802,1.000000,0.000000,-5.243114,1.522241,-36.373272,-17.165651,-6.060718,0.883189,10.049274,-14.920372,0.075570,-2.649416,-13.291718,4.466563,-16.158072,-18.453892,-0.156183,3.696227,-14.358519,7.758569,-2.042876,-11.453501,-11.322318,-6.522450,-5.388524,-8.068016,-6.007818,-8.720293,-19.775873,-6.843307,-14.116661,-34.337883,-3.077220,-26.369080,0.000000,181.000000,4.000000,,,,0.000000,4.000000,4.000000,4.000000,4.000000,4.000000,4.000000,4.000000,4.000000,4.000000,4.000000,4.000000,4.000000,4.000000,4.000000,4.000000,4.000000,4.000000,4.000000,4.000000,4.000000,4.000000,4.000000,4.000000,4.000000,2.000000,4.000000,4.000000,4.000000,4.000000,4.000000,4.000000,4.000000,83.333336
1614406279.551551,2.000000,0.000000,-4.725050,0.495078,-39.413818,-10.994639,-7.593118,0.882306,10.039226,-15.931092,0.075494,-2.646767,-16.868170,-7.845596,-32.039349,-46.127747,-17.591925,-15.281829,-17.933905,7.237990,-15.886987,-17.083073,-15.413560,-7.541569,-5.895956,-9.598410,-6.001810,-15.378240,-10.525329,-7.862105,-21.282032,-36.354824,-2.048501,-35.573479,0.000000,207.000000,4.000000,,,,0.000000,4.000000,4.000000,4.000000,4.000000,4.000000,4.000000,4.000000,4.000000,4.000000,4.000000,4.000000,4.000000,4.000000,4.000000,4.000000,4.000000,4.000000,4.000000,4.000000,4.000000,4.000000,4.000000,4.000000,4.000000,2.000000,4.000000,4.000000,4.000000,4.000000,4.000000,4.000000,4.000000,83.333336
1614406279.559201,3.000000,0.000000,7.587368,1.520224,-42.451328,-5.342619,-10.149628,0.368603,9.516365,-15.915162,0.588239,-3.669761,-17.364122,-2.709546,-24.315002,-58.389309,-6.292282,-17.317829,-0.480073,7.743573,-20.999306,-20.142914,-14.885326,-4.969924,-3.838778,-9.075991,-6.508629,-12.285938,3.331351,7.017551,-9.465878,-31.190266,-1.533632,-36.563549,0.000000,146.000000,4.000000,,,,0.000000,4.000000,4.000000,4.000000,4.000000,4.000000,4.000000,4.000000,4.000000,2.000000,4.000000,4.000000,4.000000,4.000000,4.000000,4.000000,4.000000,4.000000,4.000000,4.000000,4.000000,4.000000,4.000000,4.000000,4.000000,2.000000,4.000000,4.000000,4.000000,4.000000,4.000000,4.000000,4.000000,66.666664
1614406279.566950,4.000000,0.000000,17.836191,2.031524,-43.434521,-7.388559,-9.626657,1.393876,10.019670,-6.668477,0.074831,-1.614809,-13.757014,20.370087,-1.726585,-40.382202,5.508883,-13.197947,13.879382,7.223009,-16.362921,-20.122770,-14.357620,-10.605980,2.831727,-9.579736,-5.989300,-2.017242,3.840840,9.574636,4.902563,-25.518049,-2.044919,-34.475700,0.000000,168.000000,4.000000,,,,0.000000,4.000000,4.000000,4.000000,4.000000,4.000000,4.000000,4.000000,4.000000,2.000000,4.000000,4.000000,4.000000,4.000000,4.000000,4.000000,4.000000,4.000000,4.000000,4.000000,4.000000,4.000000,4.000000,4.000000,4.000000,2.000000,4.000000,4.000000,4.000000,4.000000,4.000000,4.000000,4.000000,66.666664
1614406279.574599,5.000000,0.000000,11.664508,-0.021789,-43.391083,-7.381170,-6.540108,9.084789,12.573752,6.158704,1.100397,3.002190,-3.999668,24.452282,-1.212038,-27.008488,-5.265857,-13.697570,2.583451,7.215786,-15.833738,-22.666750,-14.856083,-21.877426,6.418639,-9.057335,-5.983311,3.625801,1.785717,-2.742630,1.820737,-21.389967,-1.530054,-34.954048,0.000000,189.000000,4.000000,,,,0.000000,4.000000,4.000000,4.000000,4.000000,4.000000,4.000000,4.000000,4.000000,2.000000,4.000000,4.000000,4.000000,4.000000,4.000000,4.000000,4.000000,4.000000,4.000000,4.000000,4.000000,4.000000,4.000000,4.000000,4.000000,2.000000,4.000000,4.000000,4.000000,4.000000,4.000000,4.000000,4.000000,66.666664
1614406279.582348,6.000000,0.000000,7.037459,3.055156,-44.373333,-6.860969,-6.020747,16.768013,13.586820,7.691007,3.150578,2.486368,-3.995668,4.940650,-27.877493,-32.622505,-24.747770,-17.273615,-14.855030,7.208570,-20.433289,-28.285109,-15.866868,-20.829906,4.360939,-9.561098,-5.977327,-0.993210,3.322393,-2.227067,-4.847751,-20.855757,-1.528524,-35.431915,0.000000,193.000000,4.000000,,,,0.000000,4.000000,4.000000,4.000000,4.000000,4.000000,4.000000,4.000000,4.000000,2.000000,4.000000,4.000000,4.000000,4.000000,4.000000,4.000000,4.000000,4.000000,4.000000,4.000000,4.000000,4.000000,4.000000,4.000000,4.000000,2.000000,4.000000,4.000000,4.000000,4.000000,4.000000,4.000000,4.000000,66.666664
1614406279.589997,7.000000,0.000000,10.620165,13.821331,-42.277679,-5.315646,-6.527547,15.725603,14.086054,3.580752,4.685890,1.458240,-15.786544,-9.423265,-44.772694,-37.718086,-33.953793,-18.281982,-19.455559,7.201361,-14.771830,-26.205542,-9.184335,-5.937282,2.305295,-10.064358,-2.381606,2.084707,3.831891,7.005929,4.900687,-21.860542,0.011466,-31.293917,0.000000,199.000000,4.000000,,,,0.000000,4.000000,4.000000,4.000000,4.000000,4.000000,4.000000,4.000000,4.000000,2.000000,4.000000,4.000000,4.000000,4.000000,4.000000,4.000000,4.000000,4.000000,4.000000,4.000000,4.000000,4.000000,4.000000,4.000000,4.000000,2.000000,4.000000,4.000000,4.000000,4.000000,4.000000,4.000000,4.000000,66.666664
1614406279.597746,8.000000,0.000000,5.994160,17.397253,-35.055916,-1.207767,-2.931276,16.735519,14.071967,4.089992,6.219665,6.072166,-12.181014,-6.849740,-28.830484,-35.629086,-23.150608,-11.597034,-15.846360,7.194160,0.627557,-15.410105,5.696645,9.966091,1.790170,-5.951729,3.774621,21.056980,2.802418,8.024564,17.203478,-14.146374,3.601198,-21.519033,0.000000,195.000000,4.000000,,,,0.000000,4.000000,4.000000,4.000000,4.000000,4.000000,4.000000,4.000000,4.000000,2.000000,4.000000,4.000000,4.000000,4.000000,4.000000,4.000000,4.000000,4.000000,4.000000,4.000000,4.000000,4.000000,4.000000,4.000000,4.000000,2.000000,4.000000,4.000000,4.000000,4.000000,4.000000,4.000000,4.000000,66.666664
1614406279.605395,9.000000,0.000000,-0.165680,9.687549,-31.431114,-0.180918,1.687040,16.718782,12.519434,4.085902,8.777548,8.630197,3.215782,0.336597,-5.211909,-31.490894,-2.101816,0.722255,-12.753591,7.186965,8.832058,-6.676746,13.896076,12.520227,2.301200,2.259351,4.283668,21.548744,2.799616,5.452437,8.468327,-9.516843,0.520674,-17.907772,0.000000,192.000000,4.000000,,,,0.000000,4.000000,4.000000,4.000000,4.000000,4.000000,4.000000,4.000000,4.000000,2.000000,4.000000,4.000000,4.000000,4.000000,4.000000,4.000000,4.000000,4.000000,4.000000,4.000000,4.000000,4.000000,4.000000,4.000000,4.000000,2.000000,4.000000,4.000000,4.000000,4.000000,4.000000,4.000000,4.000000,66.666664
1614406279.613144,10.000000,0.000000,1.885768,4.549656,-31.912504,-2.232019,1.172532,1.830270,9.942812,3.056175,6.204668,8.621567,5.776669,4.951645,-3.668236,-26.844019,7.131055,6.875379,-11.715197,7.179779,6.771944,-7.695711,11.830898,0.712835,1.786078,6.359655,0.689640,-3.601010,2.796816,6.472626,-6.924757,-17.712454,-13.838820,-26.607813,0.000000,171.000000,4.000000,,,,0.000000,4.000000,4.000000,4.000000,4.000000,4.000000,4.000000,4.000000,4.000000,2.000000,4.000000,4.000000,4.000000,4.000000,4.000000,4.000000,4.000000,4.000000,4.000000,4.000000,4.000000,4.000000,4.000000,4.000000,4.000000,2.000000,4.000000,4.000000,4.000000,4.000000,4.000000,4.000000,4.000000,66.666664
1614406279.620794,11.000000,0.000000,1.883882,5.570747,-31.367771,-4.281069,0.658539,-9.966433,9.932869,3.053118,1.070258,9.125766,2.181149,7.510796,-13.920979,-25.278713,5.072642,4.817222,-11.703481,4.608496,5.739531,-9.226477,10.793427,-10.057108,-0.266990,5.327655,1.201771,-5.648691,1.768378,6.978973,-7.430653,-18.720383,-15.363443,-35.299152,0.000000,159.000000,4.000000,,,,0.000000,4.000000,4.000000,4.000000,4.000000,4.000000,4.000000,4.000000,4.000000,2.000000,4.000000,4.000000,4.000000,4.000000,4.000000,4.000000,4.000000,4.000000,4.000000,4.000000,4.000000,4.000000,4.000000,4.000000,4.000000,2.000000,4.000000,4.000000,4.000000,4.000000,4.000000,4.000000,4.000000,66.666664
1614406279.628543,12.000000,0.000000,-0.169284,5.565176,-35.951790,-7.353711,3.221983,-4.315440,8.384475,-0.539678,0.043547,1.424332,-0.385135,4.939183,-13.394237,-25.253433,8.144492,5.838045,-10.153316,3.578247,8.810715,-5.114686,13.346735,-10.559872,-1.805184,5.322327,4.277492,16.921061,2.279430,6.971994,-0.243735,-5.368329,-0.476285,-33.725391,0.000000,191.000000,4.000000,,,,0.000000,4.000000,4.000000,4.000000,4.000000,4.000000,4.000000,4.000000,4.000000,2.000000,4.000000,4.000000,4.000000,4.000000,4.000000,4.000000,4.000000,4.000000,4.000000,4.000000,4.000000,4.000000,4.000000,4.000000,4.000000,2.000000,4.000000,4.000000,4.000000,4.000000,4.000000,4.000000,4.000000,66.666664
1614406279.636192,13.000000,0.000000,-0.681935,4.533970,-42.582504,-10.423281,0.141838,1.842721,3.247885,-9.769908,0.556324,-9.346323,-7.564237,-4.296526,-10.816740,-26.253822,4.546605,7.370669,-10.655983,4.087489,5.724981,-9.724956,4.615440,-10.036491,-1.803379,6.342646,3.247574,13.314396,3.302792,6.452202,0.269329,-0.234756,1.575473,-30.614744,0.000000,189.000000,4.000000,,,,0.000000,4.000000,4.000000,4.000000,4.000000,4.000000,4.000000,4.000000,4.000000,2.000000,4.000000,4.000000,4.000000,4.000000,4.000000,4.000000,4.000000,4.000000,4.000000,4.000000,4.000000,4.000000,4.000000,4.000000,4.000000,2.000000,4.000000,4.000000,4.000000,4.000000,4.000000,4.000000,4.000000,66.666664
1614406279.643941,14.000000,0.000000,-1.194074,4.529436,-40.488640,-11.438498,-3.960868,0.815238,1.706176,-13.862702,0.042947,-7.798515,-12.172057,-8.394794,-19.011051,-29.304491,-7.765635,1.209452,-11.670968,2.544940,-1.973052,-22.022923,-12.825073,-11.564917,-2.314396,3.772201,0.680224,-7.724559,-0.290254,4.394468,-2.295043,-6.388367,-12.272256,-31.096951,0.000000,206.000000,4.000000,,,,0.000000,4.000000,4.000000,4.000000,4.000000,4.000000,4.000000,4.000000,4.000000,2.000000,4.000000,4.000000,4.000000,4.000000,4.000000,4.000000,4.000000,4.000000,4.000000,4.000000,4.000000,4.000000,4.000000,4.000000,4.000000,2.000000,4.000000,4.000000,4.000000,4.000000,4.000000,4.000000,4.000000,66.666664
1614406279.651590,15.000000,0.000000,4.448146,5.550548,-35.832764,-9.888598,4.248221,4.916986,5.294213,-6.156532,3.119827,-1.124050,-8.570142,1.870012,-17.966398,-26.198263,-1.091202,0.182601,1.161216,5.619318,5.721229,-18.923977,-13.325068,-10.527710,-1.799262,-1.359777,2.218005,-5.152732,-1.828426,2.338791,-3.318389,-9.971723,-12.259984,-31.578672,0.000000,191.000000,4.000000,,,,0.000000,4.000000,4.000000,4.000000,4.000000,4.000000,4.000000,4.000000,4.000000,2.000000,4.000000,4.000000,4.000000,4.000000,4.000000,4.000000,4.000000,4.000000,4.000000,4.000000,4.000000,4.000000,4.000000,4.000000,4.000000,2.000000,4.000000,4.000000,4.000000,4.000000,4.000000,4.000000,4.000000,66.666664
1614406279.659339,16.000000,0.000000,13.161647,5.032177,-35.284111,-7.827427,9.884999,10.040275,6.314560,3.080394,8.244912,3.492459,-4.971828,14.688655,1.025926,-14.890014,16.858606,9.926008,13.980567,14.844468,23.664225,-6.084540,8.739539,-7.953080,2.817922,0.692865,5.292710,4.596010,10.481095,2.849273,-4.853532,-9.961751,-1.991314,-31.034273,0.000000,193.000000,4.000000,,,,0.000000,4.000000,4.000000,4.000000,4.000000,4.000000,4.000000,4.000000,4.000000,2.000000,4.000000,4.000000,4.000000,4.000000,4.000000,4.000000,4.000000,4.000000,4.000000,4.000000,4.000000,4.000000,4.000000,4.000000,4.000000,2.000000,4.000000,4.000000,4.000000,4.000000,4.000000,4.000000,4.000000,66.666664
1614406279.666988,17.000000,0.000000,10.071562,2.463042,-36.274467,-7.306779,-1.919758,7.466132,5.795425,1.026032,8.236668,9.642813,1.186990,19.289351,10.768490,-9.746919,12.739184,10.941724,8.838382,10.727059,22.102100,-11.206661,19.500031,-6.919486,4.866386,7.358839,4.774597,5.104235,19.701384,2.846424,-2.797396,-8.413327,-5.066246,-30.490419,0.000000,168.000000,4.000000,,,,0.000000,4.000000,4.000000,4.000000,4.000000,4.000000,4.000000,4.000000,4.000000,2.000000,4.000000,4.000000,4.000000,4.000000,4.000000,4.000000,4.000000,4.000000,4.000000,4.000000,4.000000,4.000000,4.000000,4.000000,4.000000,4.000000,4.000000,4.000000,4.000000,4.000000,4.000000,4.000000,4.000000,83.333336
1614406279.674837,18.000000,0.000000,2.882003,0.922118,-35.725372,-10.376395,-10.122967,4.894563,6.302450,-5.128840,5.151508,11.171631,4.775547,17.731600,-5.139714,-15.378198,-6.247914,-3.428192,0.624415,-5.693924,4.644100,-26.580070,6.147197,-6.912567,1.271777,8.889941,4.257002,8.176054,12.502194,2.330757,2.846426,-6.353632,-9.676564,-27.383005,0.000000,199.000000,4.000000,,,,0.000000,4.000000,4.000000,4.000000,4.000000,4.000000,4.000000,4.000000,4.000000,2.000000,4.000000,4.000000,4.000000,4.000000,4.000000,4.000000,4.000000,4.000000,4.000000,4.000000,4.000000,4.000000,4.000000,4.000000,4.000000,4.000000,4.000000,4.000000,4.000000,4.000000,4.000000,4.000000,4.000000,83.333336
1614406279.682586,19.000000,0.000000,2.879121,3.485298,-35.689648,-10.878839,-3.958997,7.453771,5.783327,-3.585250,4.120715,5.519434,-3.947178,7.457458,-20.519190,-23.567947,-10.857051,-11.117072,-2.965953,-12.354897,-3.052852,-28.604773,-8.217925,-7.931295,0.757684,8.881052,4.765565,9.706339,5.310205,2.841247,2.843580,-9.937022,-0.948939,-23.253059,0.000000,200.000000,4.000000,,,,0.000000,4.000000,4.000000,4.000000,4.000000,4.000000,4.000000,4.000000,4.000000,2.000000,4.000000,4.000000,4.000000,4.000000,4.000000,4.000000,4.000000,4.000000,4.000000,4.000000,4.000000,4.000000,4.000000,4.000000,4.000000,4.000000,4.000000,4.000000,4.000000,4.000000,4.000000,4.000000,4.000000,83.333336
1614406279.690435,20.000000,0.000000,-0.200681,5.533095,-35.141140,-7.791038,-0.878115,9.497600,6.290364,-6.145767,4.116595,3.462633,-12.661180,-7.421794,-20.498671,-33.800789,-7.256450,-10.080314,-14.245038,-12.342542,-0.485696,-15.755654,-5.645605,-5.359261,2.295388,7.333709,4.760799,2.004325,6.330536,2.838405,-2.800289,-16.080931,8.282780,-23.229805,0.000000,173.000000,4.000000,,,,0.000000,4.000000,4.000000,4.000000,4.000000,4.000000,4.000000,4.000000,4.000000,2.000000,4.000000,4.000000,4.000000,4.000000,4.000000,4.000000,4.000000,4.000000,4.000000,4.000000,4.000000,4.000000,4.000000,4.000000,4.000000,4.000000,4.000000,4.000000,4.000000,4.000000,4.000000,4.000000,4.000000,83.333336
1614406279.698185,21.000000,0.000000,-3.277404,5.014741,-36.644459,-6.244785,-3.441340,6.923999,6.284074,-14.857571,3.086837,5.510452,-14.186979,-12.542578,-21.503813,-42.484936,-9.813296,-9.557413,-17.307716,-10.791738,7.207097,2.208819,6.667733,3.364047,-0.271010,4.249452,5.268859,2.002321,5.811385,2.322746,0.792255,-19.141773,5.710394,-24.232218,0.000000,193.000000,4.000000,,,,0.000000,4.000000,4.000000,4.000000,4.000000,4.000000,4.000000,4.000000,4.000000,2.000000,4.000000,4.000000,4.000000,4.000000,4.000000,4.000000,4.000000,4.000000,4.000000,4.000000,4.000000,4.000000,4.000000,4.000000,4.000000,4.000000,4.000000,4.000000,4.000000,4.000000,4.000000,4.000000,4.000000,83.333336
1614406279.706034,22.000000,0.000000,2.879720,4.496906,-35.582172,-6.751361,-3.437898,4.352973,5.252149,-13.304252,4.109391,3.966480,-12.634331,-3.812087,-20.969488,-32.186043,-7.239380,-2.881189,0.658309,1.526746,16.943480,13.488662,14.353374,10.540170,3.319005,8.347767,7.314873,12.256728,9.395317,3.346065,13.611976,-16.045708,4.166222,-22.156702,0.000000,204.000000,4.000000,,,,0.000000,4.000000,4.000000,4.000000,4.000000,4.000000,4.000000,4.000000,4.000000,2.000000,4.000000,4.000000,4.000000,4.000000,4.000000,4.000000,4.000000,4.000000,4.000000,4.000000,4.000000,4.000000,4.000000,4.000000,4.000000,4.000000,4.000000,4.000000,4.000000,4.000000,4.000000,4.000000,4.000000,83.333336
1614406279.713783,23.000000,0.000000,8.517866,5.005229,-27.341463,-7.257430,-2.921640,7.425543,6.272537,-1.496075,10.771949,6.526616,1.224457,9.525059,-4.025443,-11.641036,8.152474,7.890923,17.580729,16.397015,21.029100,10.911071,13.826200,11.555271,17.161840,19.108650,8.333199,15.321395,23.232075,6.932462,19.239389,-8.337355,9.290261,-18.031982,0.000000,219.000000,4.000000,,,,0.000000,4.000000,4.000000,4.000000,4.000000,4.000000,4.000000,4.000000,4.000000,2.000000,4.000000,4.000000,4.000000,4.000000,4.000000,4.000000,4.000000,4.000000,4.000000,4.000000,4.000000,4.000000,4.000000,4.000000,4.000000,4.000000,4.000000,4.000000,4.000000,4.000000,4.000000,4.000000,4.000000,83.333336
1614406279.721632,24.000000,0.000000,16.714476,5.513045,-20.647455,-6.737352,-1.893077,11.520681,11.394470,4.146447,15.889381,17.802141,21.736053,19.771944,15.465762,-1.885805,22.503296,15.575339,19.101608,19.970362,21.008072,7.310416,14.838015,11.030895,25.349806,24.730566,8.324865,16.331715,31.413971,10.002453,18.194510,-1.149530,9.280971,-15.449847,0.000000,165.000000,4.000000,,,,0.000000,4.000000,4.000000,4.000000,4.000000,4.000000,4.000000,4.000000,4.000000,2.000000,4.000000,4.000000,4.000000,4.000000,4.000000,4.000000,4.000000,4.000000,4.000000,4.000000,4.000000,4.000000,4.000000,4.000000,4.000000,4.000000,4.000000,4.000000,4.000000,4.000000,4.000000,4.000000,4.000000,83.333336
1614406279.729381,25.000000,0.000000,24.390070,5.507532,-20.113987,-5.704974,-1.891184,12.534801,14.459999,3.116659,15.360672,24.451006,21.201496,22.316275,14.937476,-1.883919,19.916691,17.098227,18.569687,17.899109,23.038345,8.328747,16.874458,12.558326,23.785995,23.167376,8.829361,22.982050,23.690250,10.505271,17.663494,-1.661201,-2.010361,-14.921576,0.000000,201.000000,4.000000,,,,0.000000,4.000000,4.000000,4.000000,4.000000,4.000000,4.000000,4.000000,4.000000,2.000000,4.000000,4.000000,4.000000,4.000000,4.000000,4.000000,4.000000,4.000000,4.000000,4.000000,4.000000,4.000000,4.000000,4.000000,4.000000,4.000000,4.000000,4.000000,4.000000,4.000000,4.000000,4.000000,4.000000,83.333336
1614406279.737230,26.000000,0.000000,18.724653,4.476383,-17.529770,-7.237731,-3.940575,12.522266,13.932718,3.626363,15.345311,16.734247,7.334141,21.781137,6.204590,-2.907676,12.717287,15.542666,20.089579,14.804287,20.964025,4.730674,14.293481,11.520126,23.762209,20.067284,8.307712,21.933426,13.410150,9.469125,14.568907,-4.223643,-10.726299,-17.470758,0.000000,204.000000,4.000000,,,,0.000000,4.000000,4.000000,4.000000,4.000000,4.000000,4.000000,4.000000,4.000000,2.000000,4.000000,4.000000,4.000000,4.000000,4.000000,4.000000,4.000000,4.000000,4.000000,4.000000,4.000000,4.000000,4.000000,4.000000,4.000000,4.000000,4.000000,4.000000,4.000000,4.000000,4.000000,4.000000,4.000000,83.333336
1614406279.744979,27.000000,0.000000,12.552083,7.548830,-12.384035,-5.692031,3.755673,15.586668,13.918785,3.622736,15.329966,12.102128,11.429371,23.297819,9.788129,-1.366307,25.012262,23.219431,18.531027,15.302302,21.968702,2.161841,18.894573,10.995786,24.764088,20.047216,8.299403,16.270468,14.935201,10.485296,16.092800,3.472888,-0.459163,-13.863544,0.000000,173.000000,4.000000,,,,0.000000,4.000000,4.000000,4.000000,4.000000,4.000000,4.000000,4.000000,4.000000,2.000000,4.000000,4.000000,4.000000,4.000000,4.000000,4.000000,4.000000,4.000000,4.000000,4.000000,4.000000,4.000000,4.000000,4.000000,4.000000,4.000000,4.000000,4.000000,4.000000,4.000000,4.000000,4.000000,4.000000,83.333336
1614406279.752828,28.000000,0.000000,19.206198,12.669486,-8.781907,3.031610,16.572430,16.596722,16.468969,3.619114,14.801815,20.807974,28.341019,25.325802,22.598854,10.429931,46.525711,43.709034,20.050957,21.953667,35.792889,6.775064,32.209011,14.574533,20.636759,24.642555,11.880848,21.895222,21.074112,13.038914,21.204912,12.187365,16.464373,-1.029167,0.000000,176.000000,4.000000,,,,0.000000,4.000000,4.000000,4.000000,4.000000,4.000000,4.000000,4.000000,4.000000,2.000000,4.000000,4.000000,4.000000,4.000000,4.000000,4.000000,4.000000,4.000000,4.000000,4.000000,4.000000,4.000000,4.000000,4.000000,4.000000,4.000000,4.000000,4.000000,4.000000,4.000000,4.000000,4.000000,4.000000,83.333336
1614406279.760577,29.000000,0.000000,17.648529,9.067073,-9.798767,4.054219,12.966114,12.477561,18.503782,3.615495,15.812654,23.351269,29.851139,25.813297,22.576254,16.060526,43.915081,43.152504,17.466805,17.316328,37.808376,1.127263,27.561419,14.047138,16.513557,27.182014,8.792044,19.822044,19.001757,12.000234,16.055502,7.046972,12.858165,-0.002497,0.000000,193.000000,4.000000,,,,0.000000,4.000000,4.000000,4.000000,4.000000,4.000000,4.000000,4.000000,4.000000,2.000000,4.000000,4.000000,4.000000,4.000000,4.000000,4.000000,4.000000,4.000000,4.000000,4.000000,4.000000,4.000000,4.000000,4.000000,4.000000,4.000000,4.000000,4.000000,4.000000,4.000000,4.000000,4.000000,4.000000,83.333336
1614406279.768426,30.000000,0.000000,6.861650,-0.172763,-25.173584,-7.744707,-2.944288,7.849699,15.921176,0.534956,12.207098,11.533046,12.898211,25.787483,1.015217,-4.981175,14.127578,13.878581,3.090363,-3.213808,12.129542,-18.873863,3.944113,2.751040,13.932942,24.077909,-0.447517,1.340685,11.803267,8.398490,6.295856,-6.293408,-9.205976,-19.489674,0.000000,210.000000,4.000000,,,,0.000000,4.000000,4.000000,4.000000,4.000000,4.000000,4.000000,4.000000,4.000000,2.000000,4.000000,4.000000,4.000000,4.000000,4.000000,4.000000,4.000000,4.000000,4.000000,4.000000,4.000000,4.000000,4.000000,4.000000,4.000000,4.000000,4.000000,4.000000,4.000000,4.000000,4.000000,4.000000,4.000000,83.333336
1614406279.776175,31.000000,0.000000,4.803507,-3.762334,-43.097126,-14.403629,-7.043908,4.252106,7.187306,-3.568143,2.964122,3.316385,-3.524943,18.582209,-20.524260,-29.591578,-9.989114,-6.135298,-9.220420,-14.492645,-9.933869,-29.111401,-8.880344,-7.508121,9.303625,23.028191,-1.985531,-2.763220,9.740182,6.338809,2.699817,-10.389679,-18.940359,-32.290695,0.000000,181.000000,4.000000,,,,0.000000,4.000000,4.000000,4.000000,4.000000,4.000000,4.000000,4.000000,4.000000,2.000000,4.000000,4.000000,4.000000,4.000000,4.000000,4.000000,4.000000,4.000000,4.000000,4.000000,4.000000,4.000000,4.000000,4.000000,4.000000,4.000000,4.000000,4.000000,4.000000,4.000000,4.000000,4.000000,4.000000,83.333336
1614406279.783924,32.000000,0.000000,5.824344,-1.707290,-30.233519,-12.337943,-2.421479,4.247854,1.539093,-4.590216,-0.115765,3.825889,-7.111162,2.666191,-26.144762,-31.100449,-17.158611,-4.077880,-9.211199,-8.324306,1.870936,-17.287416,-4.768900,-3.910870,5.191757,24.030804,4.683121,10.060056,9.730441,5.819650,1.158656,-9.353648,-7.639368,-22.001997,8064.000000,0.000000,4.000000,,,,0.000000,4.000000,4.000000,4.000000,4.000000,4.000000,4.000000,4.000000,4.000000,2.000000,4.000000,4.000000,4.000000,4.000000,4.000000,4.000000,4.000000,4.000000,4.000000,4.000000,4.000000,4.000000,4.000000,4.000000,4.000000,4.000000,4.000000,4.000000,4.000000,4.000000,4.000000,4.000000,4.000000,83.333336
1614406279.791673,33.000000,0.000000,3.767238,3.422623,-3.536618,-11.812785,-3.444699,11.423093,2.050375,-4.072805,4.499735,4.334883,-6.078410,-8.105706,-25.092976,-26.453962,-18.167095,-2.022520,-7.663527,-2.162136,21.869066,-0.347053,1.389715,3.272528,3.648104,22.981131,8.781002,15.691022,8.182249,6.326651,5.260061,-8.831474,3.650323,-8.646661,8064.000000,0.000000,4.000000,,,,0.000000,4.000000,4.000000,4.000000,4.000000,4.000000,4.000000,4.000000,4.000000,2.000000,4.000000,4.000000,4.000000,4.000000,4.000000,4.000000,4.000000,4.000000,4.000000,4.000000,4.000000,4.000000,4.000000,4.000000,4.000000,4.000000,4.000000,4.000000,4.000000,4.000000,4.000000,4.000000,4.000000,83.333336
1614406279.799322,34.000000,0.000000,1.712189,9.060225,-5.584363,-5.647126,-4.466895,20.129618,2.561145,-4.068732,7.059338,2.792087,-8.123613,-10.661703,-26.606344,-29.504433,-18.148928,-5.610241,-10.219966,-1.647154,17.744633,4.268679,6.003710,2.756435,4.670096,21.932508,7.746580,14.649690,12.276631,8.884427,11.921468,-6.771361,5.697955,-7.612373,8064.000000,0.000000,4.000000,,,,0.000000,4.000000,4.000000,4.000000,4.000000,4.000000,4.000000,4.000000,4.000000,2.000000,4.000000,4.000000,4.000000,4.000000,4.000000,4.000000,4.000000,4.000000,4.000000,4.000000,4.000000,4.000000,4.000000,4.000000,4.000000,4.000000,4.000000,4.000000,4.000000,4.000000,4.000000,4.000000,4.000000,83.333336
1614406279.807071,35.000000,0.000000,1.197656,7.512704,-23.527496,-2.564556,-1.385505,10.878719,1.020122,-4.577484,7.565099,2.789295,-6.577028,-8.086939,-27.092558,-34.090313,-18.643599,-8.681554,-8.671284,-1.132686,0.290990,-7.017641,0.356681,3.266500,4.665426,23.449038,4.661910,9.506835,16.879740,9.901183,3.704418,-8.815871,0.564052,-13.245787,8064.000000,0.000000,4.000000,,,,0.000000,4.000000,4.000000,4.000000,4.000000,4.000000,4.000000,4.000000,4.000000,2.000000,4.000000,4.000000,4.000000,4.000000,4.000000,4.000000,4.000000,4.000000,4.000000,4.000000,4.000000,4.000000,4.000000,4.000000,4.000000,4.000000,4.000000,4.000000,4.000000,4.000000,4.000000,4.000000,4.000000,83.333336
1614406279.814720,36.000000,0.000000,9.401587,-0.699937,-29.657816,-14.356863,-6.512324,-10.670621,2.044743,-4.572906,6.531893,0.222403,-7.083272,3.203200,-22.962902,-41.235710,-18.624954,-12.775436,-4.047228,-3.182835,-7.914429,-19.318316,-17.079573,3.776054,3.635120,17.784563,0.041863,-2.810364,12.247475,6.301538,-9.119799,-19.576286,-4.051897,-18.873566,8064.000000,0.000000,4.000000,,,,0.000000,4.000000,4.000000,4.000000,4.000000,4.000000,4.000000,4.000000,4.000000,2.000000,4.000000,4.000000,4.000000,4.000000,4.000000,4.000000,4.000000,4.000000,4.000000,4.000000,4.000000,4.000000,4.000000,4.000000,4.000000,4.000000,4.000000,4.000000,4.000000,4.000000,4.000000,4.000000,4.000000,83.333336
1614406279.822470,37.000000,0.000000,20.161415,-0.699237,-28.089695,-13.829685,-12.146838,-10.659950,2.555519,-4.055513,6.525361,-0.803460,-7.589009,16.533329,-13.709169,-41.707294,-7.837100,-8.147277,1.597845,-4.205294,-3.291130,-14.170793,-16.549673,2.233816,6.708408,3.920625,1.067463,2.320651,11.209586,6.808058,0.632911,-19.556709,3.131642,-14.239308,8064.000000,0.000000,4.000000,,,,0.000000,4.000000,4.000000,4.000000,4.000000,4.000000,4.000000,4.000000,4.000000,2.000000,4.000000,4.000000,4.000000,4.000000,4.000000,4.000000,4.000000,4.000000,4.000000,4.000000,4.000000,4.000000,4.000000,4.000000,4.000000,4.000000,4.000000,4.000000,4.000000,4.000000,4.000000,4.000000,4.000000,83.333336
1614406279.830119,38.000000,0.000000,18.602793,8.532231,-14.728272,11.825170,6.326848,16.017376,1.527322,-4.564278,23.954733,7.402471,8.316016,18.055258,2.201976,-20.127125,17.811764,12.886512,12.365478,6.055322,9.019854,5.330558,9.107902,11.975172,16.958109,1.865422,11.322805,32.574741,24.018890,12.442275,18.580996,7.642334,16.461843,7.313393,8064.000000,0.000000,4.000000,,,,0.000000,4.000000,4.000000,4.000000,4.000000,4.000000,4.000000,4.000000,4.000000,2.000000,4.000000,4.000000,4.000000,4.000000,4.000000,4.000000,4.000000,4.000000,4.000000,4.000000,4.000000,4.000000,4.000000,4.000000,4.000000,4.000000,4.000000,4.000000,4.000000,4.000000,4.000000,4.000000,4.000000,83.333336
1614406279.837868,39.000000,0.000000,14.994447,15.190366,5.799276,22.582575,30.423084,36.514179,4.089897,-4.559714,42.905136,19.702761,28.820520,18.037203,17.584389,2.969925,37.793953,32.360806,28.763369,21.946703,21.831347,20.709843,27.047512,29.399094,24.120640,18.786634,19.516611,47.413960,33.225639,13.455474,23.177799,28.147512,17.471024,24.229156,8064.000000,0.000000,4.000000,,,,0.000000,4.000000,4.000000,4.000000,4.000000,4.000000,4.000000,4.000000,4.000000,2.000000,4.000000,4.000000,4.000000,4.000000,4.000000,4.000000,4.000000,4.000000,4.000000,4.000000,4.000000,4.000000,4.000000,4.000000,4.000000,4.000000,4.000000,4.000000,4.000000,4.000000,4.000000,4.000000,4.000000,83.333336
1614406279.845517,40.000000,0.000000,24.210220,16.200817,3.229374,3.585634,24.238815,28.785358,10.752474,1.598692,35.169926,24.298443,31.355803,26.224295,25.771933,5.531057,39.807438,35.405365,39.503838,27.052961,25.399258,20.689133,25.482002,30.908157,23.583698,34.665283,19.497095,35.571674,31.653954,14.467660,20.077698,14.273211,12.325347,15.999799,8192.000000,0.000000,4.000000,,,,0.000000,4.000000,4.000000,4.000000,4.000000,4.000000,4.000000,4.000000,4.000000,2.000000,4.000000,4.000000,4.000000,4.000000,4.000000,4.000000,4.000000,4.000000,4.000000,4.000000,4.000000,4.000000,4.000000,4.000000,4.000000,4.000000,4.000000,4.000000,4.000000,4.000000,4.000000,4.000000,4.000000,83.333336
1614406279.853266,41.000000,0.000000,30.852678,16.184616,-13.696932,-10.776926,9.342782,11.833496,14.844286,7.238119,21.288601,21.197222,26.709063,31.326275,27.797443,6.551167,39.767632,33.831501,34.848946,22.410524,24.348219,13.488956,28.020624,22.159300,24.072935,38.220360,18.451956,27.843796,31.109478,17.530115,17.493519,-0.612857,13.851483,6.240210,8192.000000,0.000000,4.000000,,,,0.000000,4.000000,4.000000,4.000000,4.000000,4.000000,4.000000,4.000000,4.000000,2.000000,4.000000,4.000000,4.000000,4.000000,4.000000,4.000000,4.000000,4.000000,4.000000,4.000000,4.000000,4.000000,4.000000,4.000000,4.000000,4.000000,4.000000,4.000000,4.000000,4.000000,4.000000,4.000000,4.000000,83.333336
1614406279.860915,42.000000,0.000000,27.744902,15.655611,-9.067850,0.003082,16.512926,16.437046,13.290980,7.743701,25.882696,23.227306,28.220814,32.833408,29.308107,13.211283,41.779148,36.361771,23.532047,22.900934,25.349510,10.911365,38.249012,22.137140,24.561682,37.669319,22.023249,30.380054,31.591188,14.948483,18.501665,10.669806,16.914555,12.900636,8192.000000,0.000000,4.000000,,,,0.000000,4.000000,4.000000,4.000000,4.000000,4.000000,4.000000,4.000000,4.000000,2.000000,4.000000,4.000000,4.000000,4.000000,4.000000,4.000000,4.000000,4.000000,4.000000,4.000000,4.000000,4.000000,4.000000,4.000000,4.000000,4.000000,4.000000,4.000000,4.000000,4.000000,4.000000,4.000000,4.000000,83.333336
1614406279.868664,43.000000,0.000000,24.640234,16.665596,8.377114,18.464617,31.368208,40.010353,13.790509,6.710317,34.061943,28.845104,25.115671,33.826218,24.150595,12.172431,34.557880,34.274128,19.405951,26.980597,27.375444,11.926095,37.185123,23.140644,22.998659,37.631653,24.052507,31.375315,31.559599,10.318150,23.098549,17.838625,16.897640,18.528761,8192.000000,0.000000,4.000000,,,,0.000000,4.000000,4.000000,4.000000,4.000000,4.000000,4.000000,4.000000,4.000000,2.000000,4.000000,4.000000,4.000000,4.000000,4.000000,4.000000,4.000000,4.000000,4.000000,4.000000,4.000000,4.000000,4.000000,4.000000,4.000000,4.000000,4.000000,4.000000,4.000000,4.000000,4.000000,4.000000,4.000000,83.333336
1614406279.876313,44.000000,0.000000,24.615593,16.136110,10.420020,19.471794,30.311199,43.047268,17.366463,7.729247,34.027882,27.277798,20.475170,27.638546,13.870033,6.519233,23.754091,27.573187,18.873724,22.851051,25.296785,9.862886,27.917170,18.502119,25.026943,39.645302,20.951530,29.292658,32.040859,9.795011,16.408783,3.974632,15.855102,16.971771,8064.000000,0.000000,4.000000,,,,0.000000,4.000000,4.000000,4.000000,4.000000,4.000000,4.000000,4.000000,4.000000,2.000000,4.000000,4.000000,4.000000,4.000000,4.000000,4.000000,4.000000,4.000000,4.000000,4.000000,4.000000,4.000000,4.000000,4.000000,4.000000,4.000000,4.000000,4.000000,4.000000,4.000000,4.000000,4.000000,4.000000,83.333336
1614406279.884063,45.000000,0.000000,25.616619,8.427666,6.307035,6.118988,16.947554,16.337553,15.297814,5.157415,29.378468,23.147957,20.454695,16.328856,11.804881,3.435790,23.730337,27.032793,13.213825,18.212816,22.707386,9.340203,26.350790,18.483618,20.899351,38.067196,20.417759,26.699263,27.906254,6.708292,3.059041,-4.234471,10.711041,15.416337,8064.000000,0.000000,4.000000,,,,0.000000,4.000000,4.000000,4.000000,4.000000,4.000000,4.000000,4.000000,4.000000,2.000000,4.000000,4.000000,4.000000,4.000000,4.000000,4.000000,4.000000,4.000000,4.000000,4.000000,4.000000,4.000000,4.000000,4.000000,4.000000,4.000000,4.000000,4.000000,4.000000,4.000000,4.000000,4.000000,4.000000,83.333336
1614406279.891712,46.000000,0.000000,23.539721,0.214110,9.377651,-0.553797,4.110094,-3.678786,6.564568,1.049694,20.118320,21.586346,15.306035,11.184321,11.793077,4.970816,23.193787,27.005760,6.021124,18.194603,23.197500,11.382145,22.734695,15.901031,4.981016,30.336821,19.371700,26.672564,21.211681,2.086200,5.620085,0.897968,5.059305,10.785537,8064.000000,0.000000,4.000000,,,,0.000000,4.000000,4.000000,4.000000,4.000000,4.000000,4.000000,4.000000,4.000000,2.000000,4.000000,4.000000,4.000000,4.000000,4.000000,4.000000,4.000000,4.000000,4.000000,4.000000,4.000000,4.000000,4.000000,4.000000,4.000000,4.000000,4.000000,4.000000,4.000000,4.000000,4.000000,4.000000,4.000000,83.333336
1614406279.899561,47.000000,0.000000,14.285412,0.213896,8.342633,1.498038,5.131625,-4.187927,1.429798,0.023003,11.380253,16.436556,8.111242,13.737240,-2.064871,3.427384,6.247516,10.568498,3.451001,8.432819,14.456354,2.652814,3.224782,4.090258,-6.818837,22.614176,6.531816,25.107430,19.652008,4.135396,14.332414,-1.154212,4.028605,9.236289,8064.000000,0.000000,4.000000,,,,0.000000,4.000000,4.000000,4.000000,4.000000,4.000000,4.000000,4.000000,4.000000,2.000000,4.000000,4.000000,4.000000,4.000000,4.000000,4.000000,4.000000,4.000000,4.000000,4.000000,4.000000,4.000000,4.000000,4.000000,4.000000,4.000000,4.000000,4.000000,4.000000,4.000000,4.000000,4.000000,4.000000,83.333336
1614406279.907310,48.000000,0.000000,5.553177,4.316247,-4.486223,0.470899,8.716237,-2.132457,1.941189,-3.053943,10.856052,6.163708,0.923644,9.108118,-21.549986,-18.627325,-18.886936,-18.672840,-6.296040,-11.575614,-10.173488,-16.837019,-20.368187,-8.734345,-7.837659,18.488997,-7.320870,14.313091,20.657997,5.669722,2.523209,-11.922288,5.050217,9.739874,8064.000000,0.000000,4.000000,,,,0.000000,4.000000,4.000000,4.000000,4.000000,4.000000,4.000000,4.000000,4.000000,2.000000,4.000000,4.000000,4.000000,4.000000,4.000000,4.000000,4.000000,4.000000,4.000000,4.000000,4.000000,4.000000,4.000000,4.000000,4.000000,4.000000,4.000000,4.000000,4.000000,4.000000,4.000000,4.000000,4.000000,83.333336
1614406279.915159,49.000000,0.000000,6.060444,4.311930,-18.840712,-0.555213,-2.061710,-4.181607,2.452068,-9.717556,8.793914,2.567801,-12.410613,-5.772785,-31.784845,-50.916389,-29.637281,-34.551601,-18.084616,-22.333269,-26.060749,-25.025309,-26.501665,-16.930738,-7.317001,9.239739,-8.339190,3.016727,19.611698,2.587129,-12.351109,-18.577032,4.532346,-4.628841,8064.000000,0.000000,4.000000,,,,0.000000,4.000000,4.000000,4.000000,4.000000,4.000000,4.000000,4.000000,4.000000,2.000000,4.000000,4.000000,4.000000,4.000000,4.000000,4.000000,4.000000,4.000000,4.000000,4.000000,4.000000,4.000000,4.000000,4.000000,4.000000,4.000000,4.000000,4.000000,4.000000,4.000000,4.000000,4.000000,4.000000,83.333336
1614406279.922908,50.000000,0.000000,9.644128,4.307618,-22.411613,-0.041837,-11.290418,-4.690246,1.936795,-11.759120,4.169736,3.590874,-18.039228,-9.356756,-26.624855,-53.429577,-20.376875,-25.799103,-8.835762,-18.208372,-17.316740,-15.769515,-12.116189,-12.298424,-2.181479,-0.513090,-4.741107,2.500890,20.104906,5.148644,-7.210553,-21.122559,4.527814,-17.444725,8064.000000,0.000000,4.000000,,,,0.000000,4.000000,4.000000,4.000000,4.000000,4.000000,4.000000,4.000000,4.000000,2.000000,4.000000,4.000000,4.000000,4.000000,4.000000,4.000000,4.000000,4.000000,4.000000,4.000000,4.000000,4.000000,4.000000,4.000000,4.000000,4.000000,4.000000,4.000000,4.000000,4.000000,4.000000,4.000000,4.000000,83.333336
1614406279.930757,51.000000,0.000000,9.634483,6.867413,-16.748177,-0.041795,-4.099640,-2.121453,1.934858,-6.106335,7.242489,4.100104,-3.662215,6.550036,-7.623872,-26.709480,-5.997523,-9.875868,11.173074,-5.882471,-4.991731,-5.497335,6.870286,2.072849,8.077113,2.051525,-3.197905,4.036850,18.546341,10.784521,4.078709,-20.588615,5.036107,-4.606767,8064.000000,0.000000,4.000000,,,,0.000000,4.000000,4.000000,4.000000,4.000000,4.000000,4.000000,4.000000,4.000000,2.000000,4.000000,4.000000,4.000000,4.000000,4.000000,4.000000,4.000000,4.000000,4.000000,4.000000,4.000000,4.000000,4.000000,4.000000,4.000000,4.000000,4.000000,4.000000,4.000000,4.000000,4.000000,4.000000,4.000000,83.333336
1614406279.938506,52.000000,0.000000,9.112029,8.911828,-11.090403,0.471067,4.109588,2.496053,3.471385,-3.536126,13.901914,3.070363,8.649139,18.851179,3.152983,-17.452002,0.162321,-3.199325,12.187542,2.841360,-6.012381,-4.979017,15.581365,4.634879,7.556215,12.818705,-0.630604,3.007173,10.322666,7.696814,1.510528,-17.491104,5.031070,11.808096,8064.000000,0.000000,4.000000,,,,0.000000,4.000000,4.000000,4.000000,4.000000,4.000000,4.000000,4.000000,4.000000,2.000000,4.000000,4.000000,4.000000,4.000000,4.000000,4.000000,4.000000,4.000000,4.000000,4.000000,4.000000,4.000000,4.000000,4.000000,4.000000,4.000000,4.000000,4.000000,4.000000,4.000000,4.000000,4.000000,4.000000,83.333336
1614406279.946355,53.000000,0.000000,9.615737,8.390096,-10.053671,0.470596,1.541376,5.057660,5.519196,-4.558231,12.862370,2.554472,8.127670,15.242584,-6.080939,-27.690960,1.187800,-3.708946,2.944585,-0.238404,-7.032009,-6.512500,14.027322,-1.523602,4.471736,14.857168,0.395667,3.004165,4.671318,2.560912,-4.644829,-16.960793,5.026039,9.232185,8064.000000,0.000000,4.000000,,,,0.000000,4.000000,4.000000,4.000000,4.000000,4.000000,4.000000,4.000000,4.000000,2.000000,4.000000,4.000000,4.000000,4.000000,4.000000,4.000000,4.000000,4.000000,4.000000,4.000000,4.000000,4.000000,4.000000,4.000000,4.000000,4.000000,4.000000,4.000000,4.000000,4.000000,4.000000,4.000000,4.000000,83.333336
1614406279.954104,54.000000,0.000000,10.118942,8.381705,-11.069259,-0.042695,0.514193,5.052602,6.026497,-4.040853,9.772585,6.654481,9.658004,13.176060,-9.151781,-23.560705,3.750714,-0.628314,3.967281,-2.802268,3.744254,-2.403423,16.064577,7.708691,12.159572,10.226926,2.446554,3.001161,8.256390,2.045530,-3.101722,-18.482292,5.021013,4.094748,8064.000000,0.000000,4.000000,,,,0.000000,4.000000,4.000000,4.000000,4.000000,4.000000,4.000000,4.000000,4.000000,2.000000,4.000000,4.000000,4.000000,4.000000,4.000000,4.000000,4.000000,4.000000,4.000000,4.000000,4.000000,4.000000,4.000000,4.000000,4.000000,4.000000,4.000000,4.000000,4.000000,4.000000,4.000000,4.000000,4.000000,83.333336
1614406279.961953,55.000000,0.000000,10.108823,8.886144,-7.981266,0.982989,4.616243,4.534729,6.020471,-3.011171,10.788453,9.724750,7.084243,15.214166,-2.475963,-14.819196,3.234143,2.449237,3.963314,1.815919,15.022561,0.675903,20.151075,18.983034,16.762796,12.267982,7.059492,5.562263,12.350698,3.069126,2.542405,-13.848426,5.528813,5.116294,8064.000000,0.000000,4.000000,,,,0.000000,4.000000,4.000000,4.000000,4.000000,4.000000,4.000000,4.000000,4.000000,2.000000,4.000000,4.000000,4.000000,4.000000,4.000000,4.000000,4.000000,4.000000,4.000000,4.000000,4.000000,4.000000,4.000000,4.000000,4.000000,4.000000,4.000000,4.000000,4.000000,4.000000,4.000000,4.000000,4.000000,83.333336
1614406279.969702,56.000000,0.000000,9.073073,8.364437,-4.383541,3.033288,4.611627,4.530194,6.014450,-4.546621,11.290485,2.022717,5.538698,13.660490,-2.473487,-16.855659,3.230909,0.908326,-0.656034,3.352564,12.956256,-4.965798,19.105284,12.297383,9.053726,18.409559,9.103714,10.684905,12.851168,2.553236,4.078324,-7.167911,5.010463,6.136819,8064.000000,0.000000,4.000000,,,,0.000000,4.000000,4.000000,4.000000,4.000000,4.000000,4.000000,4.000000,4.000000,2.000000,4.000000,4.000000,4.000000,4.000000,4.000000,4.000000,4.000000,4.000000,4.000000,4.000000,4.000000,4.000000,4.000000,4.000000,4.000000,4.000000,4.000000,4.000000,4.000000,4.000000,4.000000,4.000000,4.000000,83.333336
1614406279.977551,57.000000,0.000000,11.115282,8.356073,-2.327876,4.568716,4.094195,7.089767,4.982795,-2.490792,10.253553,3.046336,21.430595,16.210932,9.323858,-6.069572,18.612293,9.112546,12.165135,6.938955,14.481761,-0.858268,17.034897,11.259445,3.916468,19.416790,8.068970,11.187041,12.325496,2.037862,2.535784,-5.109460,3.979812,6.130682,8064.000000,0.000000,4.000000,,,,0.000000,4.000000,4.000000,4.000000,4.000000,4.000000,4.000000,4.000000,4.000000,2.000000,4.000000,4.000000,4.000000,4.000000,4.000000,4.000000,4.000000,4.000000,4.000000,4.000000,4.000000,4.000000,4.000000,4.000000,4.000000,4.000000,4.000000,4.000000,4.000000,4.000000,4.000000,4.000000,4.000000,83.333336
1614406279.985300,58.000000,0.000000,16.232372,8.347717,-1.812727,4.051327,5.628562,11.185241,7.541914,3.665545,10.756121,18.427904,30.639933,21.322926,29.827354,9.833933,31.927015,20.385485,26.511944,12.573042,23.185228,14.014385,14.966579,17.914852,7.502295,18.884554,8.060901,11.688675,11.287529,2.548645,3.046069,-6.129992,8.078396,0.996346,8064.000000,0.000000,4.000000,,,,0.000000,4.000000,4.000000,4.000000,4.000000,4.000000,4.000000,4.000000,4.000000,2.000000,4.000000,4.000000,4.000000,4.000000,4.000000,4.000000,4.000000,4.000000,4.000000,4.000000,4.000000,4.000000,4.000000,4.000000,4.000000,4.000000,4.000000,4.000000,4.000000,4.000000,4.000000,4.000000,4.000000,83.333336
1614406279.993149,59.000000,0.000000,17.754601,6.288087,-6.939120,4.047276,-0.018092,10.661235,12.149757,2.636238,10.745365,14.306912,12.147756,16.686218,19.541117,-2.996413,15.484831,8.570228,15.716202,1.791238,10.854351,3.743960,9.310588,10.204630,9.033255,19.378489,9.078481,12.702627,8.712139,2.546096,3.555843,-6.123862,9.608779,-3.107214,8064.000000,0.000000,4.000000,,,,0.000000,4.000000,4.000000,4.000000,4.000000,4.000000,4.000000,4.000000,4.000000,2.000000,4.000000,4.000000,4.000000,4.000000,4.000000,4.000000,4.000000,4.000000,4.000000,4.000000,4.000000,4.000000,4.000000,4.000000,4.000000,4.000000,4.000000,4.000000,4.000000,4.000000,4.000000,4.000000,4.000000,83.333336
1614406280.000898,60.000000,0.000000,15.172744,4.743338,-14.111668,4.043228,-7.710382,8.086472,12.650428,-5.058706,10.221799,-3.656112,-4.274649,7.438763,-10.222013,-25.044699,-10.171679,-11.438343,-0.196951,-11.543886,-12.233427,-21.900810,3.147431,-1.087626,8.511400,18.333469,7.530941,7.561719,10.241888,2.543550,3.039467,-5.604918,0.881222,5.613842,8064.000000,0.000000,4.000000,,,,0.000000,4.000000,4.000000,4.000000,4.000000,4.000000,4.000000,4.000000,4.000000,2.000000,4.000000,4.000000,4.000000,4.000000,4.000000,4.000000,4.000000,4.000000,4.000000,4.000000,4.000000,4.000000,4.000000,4.000000,4.000000,4.000000,4.000000,4.000000,4.000000,4.000000,4.000000,4.000000,4.000000,83.333336
1614406280.008747,61.000000,0.000000,13.106289,4.738594,-10.507813,4.039185,1.015278,7.565564,9.560854,-6.079288,11.237218,5.578313,-2.731913,5.380042,-16.878458,-21.429911,-13.751251,-9.888443,-0.709574,-1.788753,-5.041706,-22.904551,1.605822,-1.599359,9.015710,14.212572,7.523410,3.964414,12.282928,2.541007,3.036427,-6.112133,-1.170941,11.762074,8064.000000,0.000000,4.000000,,,,0.000000,4.000000,4.000000,4.000000,4.000000,4.000000,4.000000,4.000000,4.000000,2.000000,4.000000,4.000000,4.000000,4.000000,4.000000,4.000000,4.000000,4.000000,4.000000,4.000000,4.000000,4.000000,4.000000,4.000000,4.000000,4.000000,4.000000,4.000000,4.000000,4.000000,4.000000,4.000000,4.000000,83.333336
1614406280.016496,62.000000,0.000000,13.606004,4.733856,-0.240894,4.035146,17.424519,8.583640,9.038473,-1.457824,12.764442,24.547094,-1.190719,6.400303,-9.169272,-9.100788,-6.558013,0.890676,-2.247326,11.546370,13.424874,-10.573953,3.142678,-3.136221,6.442591,14.711181,9.054348,10.114296,9.706543,2.538466,3.033391,-6.106021,8.573819,4.570825,8064.000000,0.000000,4.000000,,,,0.000000,4.000000,4.000000,4.000000,4.000000,4.000000,4.000000,4.000000,4.000000,2.000000,4.000000,4.000000,4.000000,4.000000,4.000000,4.000000,4.000000,4.000000,4.000000,4.000000,4.000000,4.000000,4.000000,4.000000,4.000000,4.000000,4.000000,4.000000,4.000000,4.000000,4.000000,4.000000,4.000000,83.333336
1614406280.024145,63.000000,0.000000,13.592398,5.241942,-0.753474,3.518290,17.919914,8.062236,10.055076,0.082095,14.802960,17.855881,-3.753631,5.881083,-9.672923,-9.091688,-5.525814,1.402606,-8.398925,8.970720,8.283244,-12.101840,3.652355,-8.261291,1.820764,16.747751,4.942729,6.001617,5.594273,2.535927,3.030358,-6.099915,5.488322,0.976511,8064.000000,0.000000,4.000000,,,,0.000000,4.000000,4.000000,4.000000,4.000000,4.000000,4.000000,4.000000,4.000000,2.000000,4.000000,4.000000,4.000000,4.000000,4.000000,4.000000,4.000000,4.000000,4.000000,4.000000,4.000000,4.000000,4.000000,4.000000,4.000000,4.000000,4.000000,4.000000,4.000000,4.000000,4.000000,4.000000,4.000000,83.333336
1614406280.031894,64.000000,0.000000,13.065985,4.211060,-6.906567,4.027593,10.722507,6.002892,9.532200,-0.943628,14.788157,5.017511,-3.237057,5.875201,-12.227353,-10.621058,-7.571570,-0.650078,-9.928988,5.372006,0.069833,-12.602559,2.110241,-9.278669,0.280482,8.525875,-3.267341,-7.337718,4.050217,2.533391,3.027327,-6.093815,-6.824858,5.078098,0.000000,193.000000,4.000000,,,,0.000000,4.000000,4.000000,4.000000,4.000000,4.000000,4.000000,4.000000,4.000000,2.000000,4.000000,4.000000,4.000000,4.000000,4.000000,4.000000,4.000000,4.000000,4.000000,4.000000,4.000000,4.000000,4.000000,4.000000,4.000000,4.000000,4.000000,4.000000,4.000000,4.000000,4.000000,4.000000,4.000000,83.333336
1614406280.039544,65.000000,0.000000,13.052918,0.104284,-6.386839,4.023565,11.224606,3.945606,9.009848,-0.429864,12.722087,6.038135,-2.720999,3.305224,-12.215126,-9.584796,-7.051178,-0.136608,-8.380597,7.417916,6.223609,-6.436110,4.159413,-5.166827,0.793022,1.337862,0.325669,1.900389,6.610269,2.018037,3.024300,-6.087721,-0.664187,3.021738,0.000000,171.000000,4.000000,,,,0.000000,4.000000,4.000000,4.000000,4.000000,4.000000,4.000000,4.000000,4.000000,2.000000,4.000000,4.000000,4.000000,4.000000,4.000000,4.000000,4.000000,4.000000,4.000000,4.000000,4.000000,4.000000,4.000000,4.000000,4.000000,4.000000,4.000000,4.000000,4.000000,4.000000,4.000000,4.000000,4.000000,83.333336
1614406280.047293,66.000000,0.000000,13.039865,-2.972743,-2.790709,3.506721,13.264663,3.941661,9.000837,0.083386,15.786287,11.673122,-2.205458,-1.826287,-8.100347,-8.036749,-2.941563,2.940452,-7.346575,7.410498,10.832770,-3.865572,15.950126,5.607571,0.792229,12.105755,13.658677,22.411310,10.193402,2.528840,3.021276,-6.081634,9.592887,1.993075,0.000000,196.000000,4.000000,,,,0.000000,4.000000,4.000000,4.000000,4.000000,4.000000,4.000000,4.000000,4.000000,2.000000,4.000000,4.000000,4.000000,4.000000,4.000000,4.000000,4.000000,4.000000,4.000000,4.000000,4.000000,4.000000,4.000000,4.000000,4.000000,4.000000,4.000000,4.000000,4.000000,4.000000,4.000000,4.000000,4.000000,83.333336
1614406280.054942,67.000000,0.000000,13.539646,-3.995411,-0.736636,5.554496,11.200116,5.989001,8.991837,-0.429517,25.514091,14.738373,-2.203253,0.226822,-0.912759,-3.926148,3.215225,9.604178,-7.852049,7.403088,11.334758,-1.297603,23.626484,14.319912,0.791436,26.452623,14.670659,18.286333,13.260132,5.090414,3.018255,-5.562731,1.890987,7.119287,0.000000,187.000000,4.000000,,,,0.000000,4.000000,4.000000,4.000000,4.000000,4.000000,4.000000,4.000000,4.000000,4.000000,4.000000,4.000000,4.000000,4.000000,4.000000,4.000000,4.000000,4.000000,4.000000,4.000000,4.000000,4.000000,4.000000,4.000000,4.000000,4.000000,4.000000,4.000000,4.000000,4.000000,4.000000,4.000000,4.000000,100.000000
1614406280.062691,68.000000,0.000000,13.013286,-0.401672,1.828203,10.164327,10.676096,8.547114,9.495666,-0.429088,27.027039,14.210814,-3.226690,7.918902,1.139436,-1.358120,9.365856,11.133036,-9.382659,9.446967,14.913167,2.293438,16.423370,13.279951,-0.234996,25.400530,4.399579,9.037278,12.221231,6.110964,3.015236,-6.582810,-4.777571,7.624989,0.000000,156.000000,4.000000,,,,0.000000,4.000000,4.000000,4.000000,4.000000,4.000000,4.000000,4.000000,4.000000,4.000000,4.000000,4.000000,4.000000,4.000000,4.000000,4.000000,4.000000,4.000000,4.000000,4.000000,4.000000,4.000000,4.000000,4.000000,4.000000,4.000000,4.000000,4.000000,4.000000,4.000000,4.000000,4.000000,4.000000,100.000000
1614406280.070340,69.000000,0.000000,13.000273,6.778216,4.390477,12.205444,15.793625,13.153953,8.973350,-0.428659,21.358986,15.222244,-0.146541,14.064830,4.728040,-0.843941,18.074438,13.173184,1.395955,11.488802,17.975176,4.342426,10.253100,11.728209,4.380624,21.272566,0.805435,16.720549,12.721830,6.104853,3.012221,-6.576227,8.047719,14.796850,0.000000,217.000000,4.000000,,,,0.000000,4.000000,4.000000,4.000000,4.000000,4.000000,4.000000,4.000000,4.000000,4.000000,4.000000,4.000000,4.000000,4.000000,4.000000,4.000000,4.000000,4.000000,4.000000,4.000000,4.000000,4.000000,4.000000,4.000000,4.000000,4.000000,4.000000,4.000000,4.000000,4.000000,4.000000,4.000000,4.000000,100.000000
1614406280.078089,70.000000,0.000000,17.602657,12.412464,6.950189,11.167598,19.880396,15.704901,9.477197,-0.428230,21.337627,21.873688,7.033093,18.153330,17.031004,-0.330277,27.799953,24.954884,19.856096,11.990133,18.470022,6.389366,12.294129,14.793405,13.607012,22.789755,4.394373,16.191008,13.734749,8.150030,3.009209,-4.518369,17.783262,24.525644,0.000000,211.000000,4.000000,,,,0.000000,4.000000,4.000000,4.000000,4.000000,4.000000,4.000000,4.000000,4.000000,4.000000,4.000000,4.000000,4.000000,4.000000,4.000000,4.000000,4.000000,4.000000,4.000000,4.000000,4.000000,4.000000,4.000000,4.000000,4.000000,4.000000,4.000000,4.000000,4.000000,4.000000,4.000000,4.000000,4.000000,100.000000
1614406280.085738,71.000000,0.000000,21.687618,12.400051,3.353495,9.617969,16.270771,15.689196,11.519001,-0.427802,21.316290,20.826174,9.077342,21.212099,19.578075,-5.458151,25.720873,21.340185,19.836241,6.849938,15.374629,6.382977,8.179271,14.265790,16.670328,23.792606,4.902800,1.303022,12.182553,8.654701,3.519020,-8.616414,8.534709,12.193425,0.000000,180.000000,4.000000,,,,0.000000,4.000000,4.000000,4.000000,4.000000,4.000000,4.000000,4.000000,4.000000,4.000000,4.000000,4.000000,4.000000,4.000000,4.000000,4.000000,4.000000,4.000000,4.000000,4.000000,4.000000,4.000000,4.000000,4.000000,4.000000,4.000000,4.000000,4.000000,4.000000,4.000000,4.000000,4.000000,4.000000,100.000000
1614406280.093488,72.000000,0.000000,18.589008,11.874831,-7.931910,8.069889,11.639115,14.647865,13.045943,-0.940195,15.653948,9.010475,7.016983,21.703707,6.737985,-12.632180,13.900279,-1.758079,7.508712,0.176422,8.692588,3.299670,4.581348,13.738704,15.628017,21.717531,2.846615,2.840180,11.657550,6.081944,1.977039,-16.300106,-2.755877,-4.741845,0.000000,194.000000,4.000000,,,,0.000000,4.000000,4.000000,4.000000,4.000000,4.000000,4.000000,4.000000,4.000000,4.000000,4.000000,4.000000,4.000000,4.000000,4.000000,4.000000,4.000000,4.000000,4.000000,4.000000,4.000000,4.000000,4.000000,4.000000,4.000000,4.000000,4.000000,4.000000,4.000000,4.000000,4.000000,4.000000,4.000000,100.000000
1614406280.101137,73.000000,0.000000,17.031958,12.375776,-9.462439,7.036178,11.627477,15.658859,13.032898,-1.452075,13.074191,2.847619,9.574068,20.656363,0.064580,-12.619548,5.168430,-9.961449,6.988383,-0.336575,5.606972,2.783550,13.807536,15.263427,16.125210,20.670172,3.356589,16.683495,17.286919,5.563041,3.513524,-13.206882,-0.701839,3.468025,0.000000,207.000000,4.000000,,,,0.000000,4.000000,4.000000,4.000000,4.000000,4.000000,4.000000,4.000000,4.000000,4.000000,4.000000,4.000000,4.000000,4.000000,4.000000,4.000000,4.000000,4.000000,4.000000,4.000000,4.000000,4.000000,4.000000,4.000000,4.000000,4.000000,4.000000,4.000000,4.000000,4.000000,4.000000,4.000000,4.000000,100.000000
1614406280.108886,74.000000,0.000000,21.117489,11.850580,-2.786310,7.541962,11.103028,15.130380,13.019865,-0.424982,14.086758,3.357592,7.513212,18.584423,-1.986766,-16.709494,-3.041866,-3.284821,5.955754,-4.951623,4.575724,0.216664,13.793728,6.530215,8.929597,22.700785,5.404514,16.666811,19.320913,6.583119,7.099754,-5.501368,2.888606,12.695327,0.000000,179.000000,4.000000,,,,0.000000,4.000000,4.000000,4.000000,4.000000,4.000000,4.000000,4.000000,4.000000,4.000000,4.000000,4.000000,4.000000,4.000000,4.000000,4.000000,4.000000,4.000000,4.000000,4.000000,4.000000,4.000000,4.000000,4.000000,4.000000,4.000000,4.000000,4.000000,4.000000,4.000000,4.000000,4.000000,4.000000,100.000000
1614406280.116535,75.000000,0.000000,18.019449,11.838730,-10.988651,7.534420,8.015002,14.602428,13.006845,0.088264,14.072671,3.354234,-4.801993,17.027378,-6.600164,-27.974834,-11.243953,-6.358459,-5.845074,-15.203082,0.468584,-5.937398,1.472242,-5.271187,-2.361384,19.601160,3.860648,10.496298,9.558002,5.550895,4.015731,-8.059969,0.321615,3.451862,0.000000,188.000000,4.000000,,,,0.000000,4.000000,4.000000,4.000000,4.000000,4.000000,4.000000,4.000000,4.000000,4.000000,4.000000,4.000000,4.000000,4.000000,4.000000,4.000000,4.000000,4.000000,4.000000,4.000000,4.000000,4.000000,4.000000,4.000000,4.000000,4.000000,4.000000,4.000000,4.000000,4.000000,4.000000,4.000000,4.000000,100.000000
1614406280.124284,76.000000,0.000000,12.360404,11.826891,-21.234074,7.526886,6.981347,15.613467,12.993838,-1.450286,13.545778,5.914983,-8.386935,16.497530,-3.003820,-24.869936,-5.591683,-3.787998,-6.352049,-9.546853,6.621962,-1.316077,11.727180,2.939212,1.230721,10.350790,2.831146,15.101186,4.420239,6.058165,-0.090849,-8.051909,0.834114,-1.166975,0.000000,188.000000,4.000000,,,,0.000000,4.000000,4.000000,4.000000,4.000000,4.000000,4.000000,4.000000,4.000000,4.000000,4.000000,4.000000,4.000000,4.000000,4.000000,4.000000,4.000000,4.000000,4.000000,4.000000,4.000000,4.000000,4.000000,4.000000,4.000000,4.000000,4.000000,4.000000,4.000000,4.000000,4.000000,4.000000,4.000000,100.000000
1614406280.131933,77.000000,0.000000,21.065992,11.815064,-11.469250,7.519359,8.000006,17.649136,12.980844,5.217831,13.019411,11.550094,11.108631,16.993853,8.281235,-8.434811,16.465191,15.702970,13.141482,12.001155,24.051237,15.095496,37.869301,21.910631,13.024363,14.955824,13.597546,19.701469,16.210691,8.103389,5.037447,4.263835,4.423023,9.603423,0.000000,217.000000,4.000000,,,,0.000000,4.000000,4.000000,4.000000,4.000000,4.000000,4.000000,4.000000,4.000000,4.000000,4.000000,4.000000,4.000000,4.000000,4.000000,4.000000,4.000000,4.000000,4.000000,4.000000,4.000000,4.000000,4.000000,4.000000,4.000000,4.000000,4.000000,4.000000,4.000000,4.000000,4.000000,4.000000,4.000000,100.000000
1614406280.139782,78.000000,0.000000,28.224413,11.803249,1.875553,7.511839,7.479186,18.657127,12.967863,17.007484,13.519213,15.128286,28.533421,16.976860,12.888338,0.291573,32.858982,27.994959,28.512957,22.758385,33.257954,22.772709,43.985275,26.504107,17.113901,33.402405,22.814718,18.143307,27.989351,9.633747,11.186256,10.926238,4.931421,15.234845,0.000000,202.000000,4.000000,,,,0.000000,4.000000,4.000000,4.000000,4.000000,4.000000,4.000000,4.000000,4.000000,4.000000,4.000000,4.000000,4.000000,4.000000,4.000000,4.000000,4.000000,4.000000,4.000000,4.000000,4.000000,4.000000,4.000000,4.000000,4.000000,4.000000,4.000000,4.000000,4.000000,4.000000,4.000000,4.000000,4.000000,100.000000
1614406280.147531,79.000000,0.000000,17.939779,11.791446,1.360857,7.504328,7.984527,18.638470,12.954896,14.426374,14.531335,16.138800,20.812580,15.934241,11.849809,-2.785641,29.236380,25.915682,20.792135,21.197165,31.686235,21.211473,33.684879,21.862217,14.019865,40.548492,16.125237,17.612343,27.448542,9.624113,10.662250,3.223004,4.926489,4.963200,0.000000,185.000000,4.000000,,,,0.000000,4.000000,4.000000,4.000000,4.000000,4.000000,4.000000,4.000000,4.000000,4.000000,4.000000,4.000000,4.000000,4.000000,4.000000,4.000000,4.000000,4.000000,4.000000,4.000000,4.000000,4.000000,4.000000,4.000000,4.000000,4.000000,4.000000,4.000000,4.000000,4.000000,4.000000,4.000000,4.000000,100.000000
1614406280.155380,80.000000,0.000000,7.665429,11.779655,-0.178965,7.496823,7.463722,18.619833,12.941940,0.565794,12.465521,10.481635,7.458433,13.867025,11.837959,-6.885420,20.489195,22.300022,2.309805,21.175968,26.013523,19.651800,26.471708,21.327534,12.467383,32.302814,7.903983,19.133192,24.344170,9.614489,9.625946,-2.934065,5.947204,-6.323814,0.000000,193.000000,4.000000,,,,0.000000,4.000000,4.000000,4.000000,4.000000,4.000000,4.000000,4.000000,4.000000,4.000000,4.000000,4.000000,4.000000,4.000000,4.000000,4.000000,4.000000,4.000000,4.000000,4.000000,4.000000,4.000000,4.000000,4.000000,4.000000,4.000000,4.000000,4.000000,4.000000,4.000000,4.000000,4.000000,4.000000,100.000000
1614406280.163129,81.000000,0.000000,9.196224,11.767875,1.872496,7.489326,8.481899,17.575571,12.928999,-6.614259,15.017159,7.907051,11.040718,12.827518,12.851762,0.300953,21.494347,22.790543,2.307495,22.693253,23.423407,18.093687,26.958057,22.844667,12.454916,26.629486,11.998643,18.601238,22.781364,9.604875,10.641961,-2.418311,4.402795,-3.240567,0.000000,163.000000,4.000000,,,,0.000000,4.000000,4.000000,4.000000,4.000000,4.000000,4.000000,4.000000,4.000000,4.000000,4.000000,4.000000,4.000000,4.000000,4.000000,4.000000,4.000000,4.000000,4.000000,4.000000,4.000000,4.000000,4.000000,4.000000,4.000000,4.000000,4.000000,4.000000,4.000000,4.000000,4.000000,4.000000,4.000000,100.000000
1614406280.170978,82.000000,0.000000,10.212669,11.756106,2.896264,7.481837,11.550341,15.506714,12.916070,-3.017901,24.232910,22.770939,21.798908,13.327510,16.941475,14.659626,27.113878,29.434420,19.228264,22.670561,31.605112,17.562773,32.059303,22.309004,12.442461,26.090036,16.602030,17.556995,19.168840,9.595269,10.631319,-1.903072,4.911213,1.890878,0.000000,189.000000,4.000000,,,,0.000000,4.000000,4.000000,4.000000,4.000000,4.000000,4.000000,4.000000,4.000000,4.000000,4.000000,4.000000,4.000000,4.000000,4.000000,4.000000,4.000000,4.000000,4.000000,4.000000,4.000000,4.000000,4.000000,4.000000,4.000000,4.000000,4.000000,4.000000,4.000000,4.000000,4.000000,4.000000,4.000000,100.000000
1614406280.178727,83.000000,0.000000,8.663995,11.744350,2.380547,7.474356,11.538790,13.952745,12.903153,4.164604,28.311241,33.004578,23.828392,13.314182,20.514277,17.721889,28.112404,32.994728,20.747498,20.596607,39.265816,17.545210,31.001604,19.722591,11.917198,26.063946,15.046966,19.590721,15.559927,9.585674,10.620687,-2.926810,13.624250,0.863347,0.000000,196.000000,4.000000,,,,0.000000,4.000000,4.000000,4.000000,4.000000,4.000000,4.000000,4.000000,4.000000,4.000000,4.000000,4.000000,4.000000,4.000000,4.000000,4.000000,4.000000,4.000000,4.000000,4.000000,4.000000,4.000000,4.000000,4.000000,4.000000,4.000000,4.000000,4.000000,4.000000,4.000000,4.000000,4.000000,4.000000,100.000000
1614406280.186576,84.000000,0.000000,9.168152,11.732606,4.429449,7.979702,11.527251,15.477254,12.890250,9.801465,26.231647,21.689522,21.753281,12.788048,15.878378,13.088783,22.443266,23.218143,5.854956,15.447805,25.893215,14.450742,20.714191,17.138767,11.905281,25.525061,14.519098,18.032669,15.544368,9.576089,9.071606,-2.923883,15.661908,3.426586,0.000000,176.000000,4.000000,,,,0.000000,4.000000,4.000000,4.000000,4.000000,4.000000,4.000000,4.000000,4.000000,4.000000,4.000000,4.000000,4.000000,4.000000,4.000000,4.000000,4.000000,4.000000,4.000000,4.000000,4.000000,4.000000,4.000000,4.000000,4.000000,4.000000,4.000000,4.000000,4.000000,4.000000,4.000000,4.000000,4.000000,100.000000
1614406280.194325,85.000000,0.000000,9.671804,11.720874,5.963481,7.971722,16.131109,14.948956,12.877360,11.842946,24.666954,14.488345,24.295631,13.288080,10.221474,15.126976,13.702874,14.989798,3.284998,13.893896,12.021169,10.333728,17.103735,17.121628,12.406197,23.448254,14.504579,6.732584,19.118567,9.566512,6.498432,-2.408139,4.364195,3.935980,0.000000,186.000000,4.000000,,,,0.000000,4.000000,4.000000,4.000000,4.000000,4.000000,4.000000,4.000000,4.000000,4.000000,4.000000,4.000000,4.000000,4.000000,4.000000,4.000000,4.000000,4.000000,4.000000,4.000000,4.000000,4.000000,4.000000,4.000000,4.000000,4.000000,4.000000,4.000000,4.000000,4.000000,4.000000,4.000000,4.000000,100.000000
1614406280.202174,86.000000,0.000000,9.662132,11.709153,-1.221970,4.374007,10.473952,7.241700,12.864483,8.241360,13.873057,14.473857,22.732874,13.274793,7.134329,7.419542,7.022505,16.000448,7.897098,14.392823,12.009148,6.220829,17.086630,14.027583,10.342508,20.860704,16.028536,2.110467,19.099447,9.556946,6.491933,-2.405730,-0.255554,-6.837187,0.000000,211.000000,4.000000,,,,0.000000,4.000000,4.000000,4.000000,4.000000,4.000000,4.000000,4.000000,4.000000,4.000000,4.000000,4.000000,4.000000,4.000000,4.000000,4.000000,4.000000,4.000000,4.000000,4.000000,4.000000,4.000000,4.000000,4.000000,4.000000,4.000000,4.000000,4.000000,4.000000,4.000000,4.000000,4.000000,4.000000,100.000000
1614406280.209924,87.000000,0.000000,9.652471,11.697444,-18.143826,1.292709,-9.023702,-0.457850,12.851619,0.027990,-2.038252,-0.412412,9.889627,13.774338,2.511810,-14.639160,4.964200,8.292141,-1.341569,7.198943,5.843292,2.624865,7.838775,6.834068,5.203960,21.865484,14.986866,10.826305,10.875220,10.060209,5.459800,-2.403325,6.411368,-13.497017,0.000000,184.000000,4.000000,,,,0.000000,4.000000,4.000000,4.000000,4.000000,4.000000,4.000000,4.000000,4.000000,4.000000,4.000000,4.000000,4.000000,4.000000,4.000000,4.000000,4.000000,4.000000,4.000000,4.000000,4.000000,4.000000,4.000000,4.000000,4.000000,4.000000,4.000000,4.000000,4.000000,4.000000,4.000000,4.000000,4.000000,100.000000
