title:11, start timestamp:1613957541.272358, stop timestamp:1613957587.254612, headset type:EPOCFLEX, headset serial:F00001ED, headset firmware:f12, subject name:s04, channels:75, sampling rate:128, samples:5935      , version:2.0
Timestamp,EEG.Counter,EEG.Interpolated,EEG.Cz,EEG.Fz,EEG.Fp1,EEG.AF3,EEG.F7,EEG.F3,EEG.FC1,EEG.C3,EEG.FC5,EEG.T7,EEG.CP5,EEG.CP1,EEG.P3,EEG.P7,EEG.PO3,EEG.O1,EEG.Pz,EEG.Oz,EEG.O2,EEG.PO4,EEG.P8,EEG.P4,EEG.CP2,EEG.CP6,EEG.T8,EEG.FC6,EEG.C4,EEG.FC2,EEG.F4,EEG.F8,EEG.AF4,EEG.Fp2,EEG.HighBitFlex,EEG.RawCq,EEG.Battery,MarkerIndex,MarkerType,MarkerValueInt,EEG.MarkerHardware,CQ.Cz,CQ.Fz,CQ.Fp1,CQ.AF3,CQ.F7,CQ.F3,CQ.FC1,CQ.C3,CQ.FC5,CQ.T7,CQ.CP5,CQ.CP1,CQ.P3,CQ.P7,CQ.PO3,CQ.O1,CQ.Pz,CQ.Oz,CQ.O2,CQ.PO4,CQ.P8,CQ.P4,CQ.CP2,CQ.CP6,CQ.T8,CQ.FC6,CQ.C4,CQ.FC2,CQ.F4,CQ.F8,CQ.AF4,CQ.Fp2,CQ.Overall
1613957541.272358,57.000000,0.000000,-5.367542,-10.275361,7.416888,1.360492,-0.929767,-7.697423,14.295908,-5.309412,-7.749074,-5.330878,-14.292695,-19.893736,-24.240204,-26.037088,-35.966755,-44.343113,-16.557375,-45.823349,-59.717987,-50.771713,-37.860970,-38.305035,-30.154182,-17.945610,-25.463051,-29.974665,-27.624699,-9.666476,-15.631601,-29.329790,-6.685784,11.752491,8064.000000,0.000000,4.000000,,,,0.000000,4.000000,4.000000,4.000000,4.000000,4.000000,4.000000,4.000000,4.000000,4.000000,4.000000,4.000000,2.000000,4.000000,4.000000,4.000000,4.000000,4.000000,4.000000,4.000000,4.000000,4.000000,4.000000,4.000000,4.000000,4.000000,4.000000,4.000000,4.000000,4.000000,4.000000,4.000000,4.000000,83.333336
1613957541.280007,58.000000,0.000000,-12.028841,-10.265085,8.435112,1.359132,-11.185247,-5.638444,8.640586,-3.765641,-6.202863,-5.838368,-15.816864,-14.232816,-29.344168,-29.087975,-42.084637,-45.837234,-20.643383,-43.726242,-55.555706,-52.259403,-45.002594,-39.292374,-27.559927,-26.645613,-23.386307,-29.431870,-26.058613,-9.656810,-15.615970,-28.787640,-6.679099,11.740738,7936.000000,0.000000,4.000000,,,,0.000000,4.000000,4.000000,4.000000,4.000000,4.000000,4.000000,4.000000,4.000000,4.000000,4.000000,4.000000,2.000000,4.000000,4.000000,4.000000,4.000000,4.000000,4.000000,4.000000,4.000000,4.000000,4.000000,4.000000,4.000000,4.000000,4.000000,4.000000,4.000000,4.000000,4.000000,4.000000,4.000000,83.333336
1613957541.287856,59.000000,0.000000,-15.606556,-10.254820,10.477959,5.460337,-9.122780,-6.145626,-1.624465,-3.761876,-7.222301,-5.319709,-19.903610,-14.218583,-29.314823,-31.622990,-43.068192,-42.714474,-25.238123,-44.708157,-49.859123,-46.053299,-50.598618,-39.765900,-28.045187,-30.208712,-22.337278,-29.402437,-25.519733,-9.647154,-15.600353,-30.810135,-5.646779,13.267459,7936.000000,0.000000,4.000000,,,,0.000000,4.000000,4.000000,4.000000,4.000000,4.000000,4.000000,4.000000,4.000000,4.000000,4.000000,4.000000,2.000000,4.000000,4.000000,4.000000,4.000000,4.000000,4.000000,4.000000,4.000000,4.000000,4.000000,4.000000,4.000000,4.000000,4.000000,4.000000,4.000000,4.000000,4.000000,4.000000,4.000000,83.333336
1613957541.295606,60.000000,0.000000,-12.514027,-10.244566,15.082866,12.121543,3.706856,-4.088199,1.454083,-3.758114,-2.086874,-5.314389,-20.909348,-14.717185,-30.311150,-32.104187,-43.537945,-45.748680,-28.802629,-42.612167,-50.834908,-43.955963,-49.522381,-38.700493,-29.042782,-32.229786,-22.827763,-26.808931,-27.545496,-9.124685,-14.046291,-25.138298,-6.666773,11.715730,8064.000000,0.000000,4.000000,,,,0.000000,4.000000,4.000000,4.000000,4.000000,4.000000,4.000000,4.000000,4.000000,4.000000,4.000000,4.000000,2.000000,4.000000,4.000000,4.000000,4.000000,4.000000,4.000000,4.000000,4.000000,4.000000,4.000000,4.000000,4.000000,4.000000,4.000000,4.000000,4.000000,4.000000,4.000000,4.000000,4.000000,83.333336
1613957541.303455,61.000000,0.000000,-8.398948,-10.747142,15.580604,13.135062,5.754431,1.044095,-0.085833,-4.779997,1.504957,-4.796254,-21.401260,-23.420416,-27.203917,-25.405416,-35.289280,-41.087547,-23.132801,-29.236221,-38.989201,-32.629955,-32.036961,-27.892563,-29.013741,-34.248837,-15.625447,-18.576994,-23.415386,-10.141202,-7.365579,-6.138802,-6.660106,15.806579,8064.000000,0.000000,4.000000,,,,0.000000,4.000000,4.000000,4.000000,4.000000,4.000000,4.000000,4.000000,4.000000,4.000000,4.000000,4.000000,2.000000,4.000000,4.000000,4.000000,4.000000,4.000000,4.000000,4.000000,4.000000,4.000000,4.000000,4.000000,4.000000,4.000000,4.000000,4.000000,4.000000,4.000000,4.000000,4.000000,4.000000,83.333336
1613957541.311204,62.000000,0.000000,-5.313626,-8.685112,22.231689,16.711670,6.261497,4.119974,-0.598568,-2.723935,0.477811,1.362388,-17.790115,-28.012381,-11.279276,-12.559498,-9.612964,-15.918255,-9.263514,0.536605,-9.206621,-3.366556,-2.261333,-10.941593,-26.933443,-28.060741,8.492743,-1.635341,-11.597099,-9.618240,3.923838,8.226312,5.141426,36.816414,8064.000000,0.000000,4.000000,,,,0.000000,4.000000,4.000000,4.000000,4.000000,4.000000,4.000000,4.000000,4.000000,4.000000,4.000000,4.000000,2.000000,4.000000,4.000000,4.000000,4.000000,4.000000,4.000000,4.000000,4.000000,4.000000,4.000000,4.000000,4.000000,4.000000,4.000000,4.000000,4.000000,4.000000,4.000000,4.000000,4.000000,83.333336
1613957541.319053,63.000000,0.000000,-3.257030,-4.061042,40.670998,25.925728,16.511646,6.167136,11.196902,1.381353,10.220922,12.643077,-8.541555,-9.522830,1.552516,-6.393092,13.986393,14.866894,4.591904,31.305300,16.443611,23.816298,17.228107,3.428323,-16.137280,-4.442938,33.612453,14.776551,-0.816271,-5.506058,11.612223,9.243727,21.546541,58.318058,8064.000000,0.000000,4.000000,,,,0.000000,4.000000,4.000000,4.000000,4.000000,4.000000,4.000000,4.000000,4.000000,4.000000,4.000000,4.000000,2.000000,4.000000,4.000000,4.000000,4.000000,4.000000,4.000000,4.000000,4.000000,4.000000,4.000000,4.000000,4.000000,4.000000,4.000000,4.000000,4.000000,4.000000,4.000000,4.000000,4.000000,83.333336
1613957541.326802,64.000000,0.000000,-3.253773,-3.031340,48.322632,28.976727,25.725903,9.750712,7.083142,0.867151,23.544035,19.297100,-4.943270,13.050796,1.038143,-7.925161,20.126253,27.159719,12.279619,34.350918,24.119476,29.946327,19.774982,10.604382,-6.377553,20.689711,37.168587,16.300236,1.235827,-1.910808,11.087790,7.183201,24.601917,53.644356,0.000000,166.000000,4.000000,,,,0.000000,4.000000,4.000000,4.000000,4.000000,4.000000,4.000000,4.000000,4.000000,4.000000,4.000000,4.000000,2.000000,4.000000,4.000000,4.000000,4.000000,4.000000,4.000000,4.000000,4.000000,4.000000,4.000000,4.000000,4.000000,4.000000,4.000000,4.000000,4.000000,4.000000,4.000000,4.000000,4.000000,83.333336
1613957541.334651,65.000000,0.000000,-2.737699,-5.592412,34.940975,23.819544,24.161716,8.202500,-14.975224,-3.749100,21.469210,17.226521,-8.015250,12.012103,0.524284,-8.430057,17.542025,23.542816,10.728878,17.906309,16.403048,23.249714,14.627003,10.593778,-4.319893,21.694662,27.387827,12.181372,-0.816691,-1.908898,10.563881,6.150376,16.372187,34.103531,0.000000,202.000000,4.000000,,,,0.000000,4.000000,4.000000,4.000000,4.000000,4.000000,4.000000,4.000000,4.000000,4.000000,4.000000,4.000000,2.000000,4.000000,4.000000,4.000000,4.000000,4.000000,4.000000,4.000000,4.000000,4.000000,4.000000,4.000000,4.000000,4.000000,4.000000,4.000000,4.000000,4.000000,4.000000,4.000000,4.000000,83.333336
1613957541.342400,66.000000,0.000000,-3.760602,-8.150922,21.572702,18.667519,13.368323,1.014810,-21.114094,-4.770992,8.627227,9.516987,-9.032876,-7.999909,2.575042,-5.857523,11.370636,14.288504,5.077124,12.247377,-0.023611,10.405951,7.432889,6.480619,-4.828394,12.955018,23.257875,12.682011,-1.841515,-2.419809,12.091779,4.605764,10.714789,26.889940,0.000000,188.000000,4.000000,,,,0.000000,4.000000,4.000000,4.000000,4.000000,4.000000,4.000000,4.000000,4.000000,4.000000,4.000000,4.000000,2.000000,4.000000,4.000000,4.000000,4.000000,4.000000,4.000000,4.000000,4.000000,4.000000,4.000000,4.000000,4.000000,4.000000,4.000000,4.000000,4.000000,4.000000,4.000000,4.000000,4.000000,83.333336
1613957541.350249,67.000000,0.000000,-3.756842,-9.681232,18.987026,12.495006,4.637006,-3.088768,-15.964775,-3.740580,0.413472,3.353624,-10.562304,-20.812422,-4.607020,-8.415769,-2.999709,3.504985,0.969482,6.594105,-14.895382,-6.014711,2.297251,-0.192528,-6.874847,12.942063,24.260260,10.618047,-3.378135,-1.904569,6.951482,4.601159,7.627151,27.888693,0.000000,179.000000,4.000000,,,,0.000000,4.000000,4.000000,4.000000,4.000000,4.000000,4.000000,4.000000,4.000000,4.000000,4.000000,4.000000,2.000000,4.000000,4.000000,4.000000,4.000000,4.000000,4.000000,4.000000,4.000000,4.000000,4.000000,4.000000,4.000000,4.000000,4.000000,4.000000,4.000000,4.000000,4.000000,4.000000,4.000000,83.333336
1613957541.357998,68.000000,0.000000,-2.727444,-10.184372,21.532143,8.379947,5.145190,-2.060039,-16.461632,-4.762481,-2.663865,2.837450,-12.090203,-17.714685,-14.858824,-15.586840,-16.842863,-6.754930,-0.569949,-14.438130,-28.213820,-19.342030,-8.474277,-10.448746,-11.483357,10.365019,16.543692,1.376659,-3.374757,-2.415485,-2.286239,2.032455,5.055422,26.322342,0.000000,200.000000,4.000000,,,,0.000000,4.000000,4.000000,4.000000,4.000000,4.000000,4.000000,4.000000,4.000000,4.000000,4.000000,4.000000,2.000000,4.000000,4.000000,4.000000,4.000000,4.000000,4.000000,4.000000,4.000000,4.000000,4.000000,4.000000,4.000000,4.000000,4.000000,4.000000,4.000000,4.000000,4.000000,4.000000,4.000000,83.333336
1613957541.365847,69.000000,0.000000,-8.365742,-10.174188,19.459328,9.397207,2.575942,-1.545158,-16.957991,-4.244898,-2.148381,0.783331,-13.616575,-10.004663,-14.843965,-21.212278,-23.492687,-25.209715,1.481903,-32.885231,-42.544582,-23.425251,-27.440163,-17.617785,-13.523156,0.611064,0.116891,-7.855486,-2.858562,-2.413069,-5.360876,-1.559321,4.537546,21.167814,0.000000,180.000000,4.000000,,,,0.000000,4.000000,4.000000,4.000000,4.000000,4.000000,4.000000,4.000000,4.000000,4.000000,4.000000,4.000000,2.000000,4.000000,4.000000,4.000000,4.000000,4.000000,4.000000,4.000000,4.000000,4.000000,4.000000,4.000000,4.000000,4.000000,4.000000,4.000000,4.000000,4.000000,4.000000,4.000000,4.000000,83.333336
1613957541.373596,70.000000,0.000000,-19.639427,-10.164013,6.106536,8.874990,-7.170224,-4.107716,-20.530775,-4.753473,-5.735976,-5.884120,-19.243984,-5.379274,-14.316300,-28.370554,-33.725605,-53.902454,-2.109322,-49.262604,-50.194344,-28.530031,-39.207592,-20.164268,-12.996812,-6.056214,-10.139636,-10.924554,-7.471088,-1.897836,-4.329874,-4.634685,3.507367,11.403057,0.000000,179.000000,4.000000,,,,0.000000,4.000000,4.000000,4.000000,4.000000,4.000000,4.000000,4.000000,4.000000,4.000000,4.000000,4.000000,2.000000,4.000000,4.000000,4.000000,4.000000,4.000000,4.000000,4.000000,4.000000,4.000000,4.000000,4.000000,4.000000,4.000000,4.000000,4.000000,4.000000,4.000000,4.000000,4.000000,4.000000,83.333336
1613957541.381445,71.000000,0.000000,-21.158249,-10.153850,-6.720084,4.250730,-10.752797,-5.642069,-26.664091,-7.825643,-14.961009,-10.493620,-24.352945,-11.014921,-24.045574,-42.701157,-49.076496,-75.387009,-21.594393,-71.777443,-50.144150,-39.270733,-38.655567,-22.708206,-12.983815,-11.178363,-8.591035,-10.913630,-14.130283,-3.434399,-4.325544,-11.296717,0.939758,0.622423,0.000000,180.000000,4.000000,,,,0.000000,4.000000,4.000000,4.000000,4.000000,4.000000,4.000000,4.000000,4.000000,4.000000,4.000000,4.000000,2.000000,4.000000,4.000000,4.000000,4.000000,4.000000,4.000000,4.000000,4.000000,4.000000,4.000000,4.000000,4.000000,4.000000,4.000000,4.000000,4.000000,4.000000,4.000000,4.000000,4.000000,83.333336
1613957541.389194,72.000000,0.000000,-11.393502,-10.143695,-5.174902,1.682377,-5.613839,-6.149248,-21.509222,-8.330638,-16.997330,-8.944665,-22.790131,-29.465445,-29.662554,-46.761021,-53.129982,-75.824448,-32.342030,-71.705666,-50.094006,-40.257103,-37.591270,-22.172678,-12.970832,-16.808210,-8.069623,-10.389895,-15.654614,-5.482247,-5.346859,-14.875164,0.425997,3.185903,0.000000,191.000000,4.000000,,,,0.000000,4.000000,4.000000,4.000000,4.000000,4.000000,4.000000,4.000000,4.000000,4.000000,4.000000,4.000000,2.000000,4.000000,4.000000,4.000000,4.000000,4.000000,4.000000,4.000000,4.000000,4.000000,4.000000,4.000000,4.000000,4.000000,4.000000,4.000000,4.000000,4.000000,4.000000,4.000000,4.000000,83.333336
1613957541.396843,73.000000,0.000000,-6.766724,-10.133552,2.522581,1.167874,-3.044123,-6.655919,-12.769764,-3.706923,-8.775205,-4.833156,-20.716059,-36.102646,-21.940584,-31.329643,-32.564030,-54.722980,-14.873789,-40.864727,-41.838783,-23.806589,-38.579319,-18.047941,-13.470681,-18.842684,-12.164118,-12.430788,-14.613319,-6.502406,-4.315871,-10.244904,1.451212,11.387845,0.000000,141.000000,4.000000,,,,0.000000,2.000000,4.000000,4.000000,4.000000,4.000000,4.000000,4.000000,4.000000,4.000000,4.000000,4.000000,2.000000,4.000000,4.000000,4.000000,4.000000,4.000000,4.000000,4.000000,4.000000,4.000000,4.000000,4.000000,4.000000,4.000000,4.000000,4.000000,4.000000,4.000000,4.000000,4.000000,4.000000,66.666664
1613957541.404592,74.000000,0.000000,-7.785598,-10.636239,4.571340,1.679527,-3.041079,-6.136443,-12.244173,-0.113472,-7.227968,-1.238579,-20.695343,-10.938338,-14.226336,-15.400879,-7.916083,-21.847744,3.602623,-18.259760,-23.335405,-10.449449,-37.515099,-15.465791,-12.944390,-18.311020,-13.177595,-13.956819,-14.598705,-5.983083,-4.824376,-9.209018,0.424120,11.376457,0.000000,198.000000,4.000000,,,,0.000000,2.000000,4.000000,4.000000,4.000000,4.000000,4.000000,4.000000,4.000000,4.000000,4.000000,4.000000,2.000000,4.000000,4.000000,4.000000,4.000000,4.000000,4.000000,4.000000,4.000000,4.000000,4.000000,4.000000,4.000000,4.000000,4.000000,4.000000,4.000000,4.000000,4.000000,4.000000,4.000000,66.666664
1613957541.412242,75.000000,0.000000,-6.752172,-10.112782,5.079589,2.190668,-5.602140,-5.617486,-13.257570,-0.626179,-12.348945,-1.237341,-20.161827,13.175164,-14.212109,-15.385478,0.809782,-0.287435,5.137482,-15.164577,-13.055660,-9.413359,-37.477585,-15.450325,-10.367343,-18.292709,-11.625956,-14.455682,-15.096928,-6.489921,-7.896475,-14.840835,-3.166048,8.288158,0.000000,189.000000,4.000000,,,,0.000000,2.000000,4.000000,4.000000,4.000000,4.000000,4.000000,4.000000,4.000000,4.000000,4.000000,4.000000,2.000000,4.000000,4.000000,4.000000,4.000000,4.000000,4.000000,4.000000,4.000000,4.000000,4.000000,4.000000,4.000000,4.000000,4.000000,4.000000,4.000000,4.000000,4.000000,4.000000,4.000000,66.666664
1613957541.419991,76.000000,0.000000,-6.232599,-10.102669,4.048869,0.650015,-7.647820,-7.150330,-12.731492,-0.625553,-7.208391,-2.774565,-22.192947,10.597887,-14.197897,-17.934195,-0.216669,2.789775,4.106703,-12.585311,-14.581066,-10.942407,-36.414463,-15.947696,-8.818514,-17.761597,-13.152791,-14.954047,-14.569010,-5.970610,-8.401399,-15.338815,-2.137241,9.818332,0.000000,190.000000,4.000000,,,,0.000000,2.000000,4.000000,4.000000,4.000000,4.000000,4.000000,4.000000,4.000000,4.000000,4.000000,4.000000,2.000000,4.000000,4.000000,4.000000,4.000000,4.000000,4.000000,4.000000,4.000000,4.000000,4.000000,4.000000,4.000000,4.000000,4.000000,4.000000,4.000000,4.000000,4.000000,4.000000,4.000000,66.666664
1613957541.427640,77.000000,0.000000,-7.764828,-11.118207,6.096102,2.700647,2.103418,-2.014974,-11.693120,-0.112107,2.029587,0.817953,-21.657934,5.459084,-13.670878,-11.249594,-0.216452,-0.289938,5.128238,-11.034264,-15.079306,-8.880182,-28.685743,-15.418927,-9.322516,-18.769476,-10.575536,-13.400631,-14.554441,-5.964639,-3.777613,-11.733732,4.531563,12.885436,0.000000,191.000000,4.000000,,,,0.000000,2.000000,4.000000,4.000000,4.000000,4.000000,4.000000,4.000000,4.000000,4.000000,4.000000,4.000000,2.000000,4.000000,4.000000,4.000000,4.000000,4.000000,4.000000,4.000000,4.000000,4.000000,4.000000,4.000000,4.000000,4.000000,4.000000,4.000000,4.000000,4.000000,4.000000,4.000000,4.000000,66.666664
1613957541.435389,78.000000,0.000000,-5.192960,-7.517345,15.320775,13.979998,16.460289,11.833195,-7.066042,-0.111995,5.617301,7.483802,-12.918326,2.889522,-13.144387,0.556528,0.296585,-0.289648,6.148750,-11.023230,-13.525764,-8.871302,-19.939108,-9.762483,-9.313193,-17.212246,1.229911,-8.259026,-11.975784,-6.471495,-0.184092,-6.080973,9.142416,17.487936,0.000000,136.000000,4.000000,,,,0.000000,2.000000,4.000000,4.000000,4.000000,4.000000,4.000000,4.000000,4.000000,4.000000,4.000000,4.000000,2.000000,4.000000,4.000000,4.000000,4.000000,4.000000,4.000000,4.000000,4.000000,4.000000,4.000000,4.000000,4.000000,4.000000,4.000000,4.000000,4.000000,4.000000,4.000000,4.000000,4.000000,66.666664
1613957541.443038,79.000000,0.000000,-2.110844,-1.355982,24.023403,24.735249,21.572033,21.564951,-1.930771,-0.624703,10.739889,11.066062,-5.213101,-9.421060,-10.567140,4.658535,0.809109,0.223462,5.116961,-8.448104,-15.050700,-11.939354,-17.867887,-7.188618,-8.278239,-10.528366,10.972271,-5.686664,-9.912526,-3.388101,-0.696728,-0.433866,9.133274,22.598652,0.000000,137.000000,4.000000,,,,0.000000,2.000000,4.000000,4.000000,4.000000,4.000000,4.000000,4.000000,4.000000,4.000000,4.000000,2.000000,2.000000,4.000000,4.000000,4.000000,4.000000,4.000000,4.000000,4.000000,4.000000,4.000000,4.000000,4.000000,4.000000,4.000000,4.000000,4.000000,4.000000,4.000000,4.000000,4.000000,4.000000,50.000000
1613957541.450787,80.000000,0.000000,-9.288220,1.722297,24.512199,24.710514,18.986359,20.517746,-1.416019,-0.624079,16.370174,10.029355,-4.695067,-8.898818,-10.556573,1.576954,-6.371188,-3.366505,-5.657387,-14.080682,-17.599752,-17.055620,-18.362841,-17.950659,-8.782782,-6.415274,10.961299,-6.706618,-11.953896,0.717852,-0.696031,0.079388,8.611320,24.114515,0.000000,169.000000,4.000000,,,,0.000000,2.000000,4.000000,4.000000,4.000000,4.000000,4.000000,4.000000,4.000000,4.000000,4.000000,2.000000,2.000000,4.000000,4.000000,4.000000,4.000000,4.000000,4.000000,4.000000,4.000000,4.000000,4.000000,4.000000,4.000000,4.000000,4.000000,4.000000,4.000000,4.000000,4.000000,4.000000,4.000000,50.000000
1613957541.458436,81.000000,0.000000,-19.022522,0.694934,22.436405,23.147341,19.480192,15.881843,-1.414603,-0.623455,13.276881,9.506505,-5.716013,9.571619,-15.161401,0.549736,-22.775072,-14.132369,-17.959421,-28.425575,-19.633434,-19.089846,-18.344477,-28.189119,-9.799640,-6.408858,9.924697,-5.161450,-14.506044,2.255595,0.330306,-4.023255,9.628350,24.090401,0.000000,190.000000,4.000000,,,,0.000000,2.000000,4.000000,4.000000,4.000000,4.000000,4.000000,4.000000,4.000000,4.000000,4.000000,2.000000,2.000000,4.000000,4.000000,4.000000,4.000000,4.000000,4.000000,4.000000,4.000000,4.000000,4.000000,4.000000,4.000000,4.000000,4.000000,4.000000,4.000000,4.000000,4.000000,4.000000,4.000000,50.000000
1613957541.466185,82.000000,0.000000,-14.900935,1.207059,22.413969,26.201117,22.024815,13.301858,-2.438830,-0.622831,8.648220,10.009819,-4.684656,13.151792,-18.223162,-3.553378,-29.931786,-26.938749,-19.479923,-33.012535,-19.613802,-18.045115,-17.813313,-25.084007,-9.277020,-6.915270,11.453234,-2.592186,-14.491538,1.227699,-2.234127,-6.583334,9.618722,23.040668,0.000000,177.000000,4.000000,,,,0.000000,2.000000,4.000000,4.000000,4.000000,4.000000,4.000000,4.000000,4.000000,4.000000,4.000000,2.000000,2.000000,4.000000,4.000000,4.000000,4.000000,4.000000,4.000000,4.000000,4.000000,4.000000,4.000000,4.000000,4.000000,4.000000,4.000000,4.000000,4.000000,4.000000,4.000000,4.000000,4.000000,50.000000
1613957541.473835,83.000000,0.000000,-7.706547,2.231493,16.750530,22.585173,17.900227,12.775736,-5.000494,-0.622208,8.126751,11.025450,-4.679971,-1.220335,-17.692120,-13.293415,-26.312109,-37.168221,-17.409163,-31.953880,-18.055725,-17.514250,-18.308319,-18.905077,-10.293384,-6.908355,9.903318,-2.076773,-13.964227,1.739291,-4.283175,-7.089571,7.557821,19.940706,0.000000,185.000000,4.000000,,,,0.000000,2.000000,4.000000,4.000000,4.000000,4.000000,4.000000,4.000000,4.000000,4.000000,4.000000,2.000000,2.000000,4.000000,4.000000,4.000000,4.000000,4.000000,4.000000,4.000000,4.000000,4.000000,4.000000,4.000000,4.000000,4.000000,4.000000,4.000000,4.000000,4.000000,4.000000,4.000000,4.000000,50.000000
1613957541.481584,84.000000,0.000000,-10.262943,-0.334841,8.528651,11.793357,4.548993,9.686037,-6.021134,-0.621586,3.503240,6.911860,-5.188112,-8.398602,-17.674427,-17.382685,-28.849899,-41.746437,-19.443035,-31.409105,-18.550491,-20.573658,-17.777191,-19.911814,-17.462578,-5.362985,8.354954,-2.587517,-14.463082,2.250373,-3.766071,-6.569662,4.473340,15.818201,0.000000,205.000000,4.000000,,,,0.000000,2.000000,4.000000,4.000000,4.000000,4.000000,4.000000,4.000000,4.000000,4.000000,4.000000,2.000000,2.000000,4.000000,4.000000,4.000000,4.000000,4.000000,4.000000,4.000000,4.000000,4.000000,4.000000,4.000000,4.000000,4.000000,4.000000,4.000000,4.000000,4.000000,4.000000,4.000000,4.000000,50.000000
1613957541.489233,85.000000,0.000000,-11.278321,-1.872968,9.545763,8.191820,-1.096582,5.060966,-5.502293,-0.620964,-2.141289,-3.351462,-5.695745,-3.261998,-18.682394,-16.339661,-27.282589,-32.473923,-12.756926,-21.121286,-19.044762,-20.553085,-18.272234,-18.866261,-21.034859,-0.229417,5.782496,-5.661853,-13.935799,-0.828801,-5.813587,-6.050271,2.417584,15.802382,0.000000,191.000000,4.000000,,,,0.000000,2.000000,4.000000,4.000000,4.000000,4.000000,4.000000,4.000000,4.000000,4.000000,4.000000,2.000000,2.000000,4.000000,4.000000,4.000000,4.000000,4.000000,4.000000,4.000000,4.000000,4.000000,4.000000,4.000000,4.000000,4.000000,4.000000,4.000000,4.000000,4.000000,4.000000,4.000000,4.000000,50.000000
1613957541.497082,86.000000,0.000000,-10.241402,-2.383915,9.023397,9.722090,3.007079,5.568726,-6.009611,-0.620343,-3.164789,-4.373751,-4.664408,8.536136,-13.022685,-16.323322,-6.742486,-10.902987,2.127627,-5.202730,-12.359050,-7.712019,-18.253962,-11.667907,-10.244593,-0.229187,0.648509,-9.245934,-14.434684,-2.366434,-10.423159,-11.172426,-2.200218,17.837862,0.000000,200.000000,4.000000,,,,0.000000,2.000000,4.000000,4.000000,4.000000,4.000000,4.000000,4.000000,4.000000,4.000000,4.000000,2.000000,2.000000,4.000000,4.000000,4.000000,4.000000,4.000000,4.000000,4.000000,4.000000,4.000000,4.000000,4.000000,4.000000,4.000000,4.000000,4.000000,4.000000,4.000000,4.000000,4.000000,4.000000,50.000000
1613957541.504831,87.000000,0.000000,-15.359365,-7.509737,-5.857421,5.096983,-6.739518,2.999055,-6.003601,-0.619723,-4.187265,0.758828,-5.685384,21.348112,-3.778893,-16.306999,8.136052,5.005353,10.330627,0.956319,-5.680024,9.731590,-16.697247,-3.451110,1.560523,-2.793061,-2.941883,-10.262329,-14.420249,-1.851247,-12.464017,-20.904844,-8.864684,13.717461,0.000000,184.000000,4.000000,,,,0.000000,2.000000,4.000000,4.000000,4.000000,4.000000,4.000000,4.000000,4.000000,4.000000,4.000000,2.000000,2.000000,4.000000,4.000000,4.000000,4.000000,4.000000,4.000000,4.000000,4.000000,4.000000,4.000000,4.000000,4.000000,4.000000,4.000000,4.000000,4.000000,4.000000,4.000000,4.000000,4.000000,50.000000
1613957541.512681,88.000000,0.000000,-14.831186,-13.656073,-17.646435,-4.651704,-20.578932,-4.696252,-4.971956,-0.619103,-8.798463,-3.857316,-10.295083,13.634457,-1.211012,-15.777871,0.435608,9.102912,9.807476,-0.070278,-14.392292,4.593654,-21.295933,-3.447659,3.097425,-1.251806,-7.554326,-13.328990,-13.380188,-4.413498,-11.425912,-22.422400,-11.419922,4.985794,0.000000,205.000000,4.000000,,,,0.000000,2.000000,4.000000,4.000000,4.000000,4.000000,4.000000,4.000000,4.000000,4.000000,4.000000,2.000000,2.000000,4.000000,4.000000,4.000000,4.000000,4.000000,4.000000,4.000000,4.000000,4.000000,4.000000,4.000000,4.000000,4.000000,4.000000,4.000000,4.000000,4.000000,4.000000,4.000000,4.000000,50.000000
1613957541.520430,89.000000,0.000000,-1.483021,-14.668057,-11.474943,-6.698334,-9.789123,-6.742838,-5.992625,-0.618484,-10.840946,-8.981664,-13.361712,-17.661228,-4.799545,-15.762094,-8.282776,2.939963,6.207925,-8.788157,-32.839439,-20.026325,-33.069508,-12.162160,-0.495417,-7.917221,-19.854464,-17.931046,-16.443731,-9.024469,-11.414486,-20.861517,-9.357220,0.365424,0.000000,186.000000,4.000000,,,,0.000000,2.000000,4.000000,4.000000,4.000000,4.000000,4.000000,4.000000,4.000000,4.000000,4.000000,2.000000,2.000000,4.000000,4.000000,4.000000,4.000000,4.000000,4.000000,4.000000,4.000000,4.000000,4.000000,4.000000,4.000000,4.000000,4.000000,4.000000,4.000000,4.000000,4.000000,4.000000,4.000000,50.000000
1613957541.528279,90.000000,0.000000,6.210769,-13.627748,-3.771160,-2.589072,8.169385,-2.633531,-5.473812,0.920596,-9.804464,-0.767554,-12.835529,-34.566647,-6.333207,-11.643767,-8.274493,-5.780926,4.150435,-21.087061,-42.550190,-35.390915,-41.754387,-22.919230,-7.674408,-25.858021,-28.552559,-18.938755,-23.093954,-10.041085,-11.915893,-25.456039,-10.373504,0.877879,0.000000,178.000000,4.000000,,,,0.000000,2.000000,4.000000,4.000000,4.000000,4.000000,4.000000,4.000000,4.000000,4.000000,4.000000,2.000000,2.000000,4.000000,4.000000,4.000000,4.000000,4.000000,4.000000,4.000000,4.000000,4.000000,4.000000,4.000000,4.000000,4.000000,4.000000,4.000000,4.000000,4.000000,4.000000,4.000000,4.000000,50.000000
1613957541.536028,91.000000,0.000000,0.563533,-14.126942,-1.203287,-2.073662,5.084292,-2.118077,-0.340133,2.970957,-10.307480,7.438342,-12.822694,-16.070539,-8.378156,-7.016738,-15.958527,-8.339248,-0.469100,-23.630075,-41.994820,-36.893986,-40.686993,-29.050156,-17.923143,-35.062931,-23.395802,-17.381355,-26.147783,-9.518224,-11.391156,-23.892122,-10.875951,1.389822,0.000000,204.000000,4.000000,,,,0.000000,2.000000,4.000000,4.000000,4.000000,4.000000,4.000000,4.000000,4.000000,4.000000,4.000000,2.000000,2.000000,4.000000,4.000000,4.000000,4.000000,4.000000,4.000000,4.000000,4.000000,4.000000,4.000000,4.000000,4.000000,4.000000,4.000000,4.000000,4.000000,4.000000,4.000000,4.000000,4.000000,50.000000
1613957541.543877,92.000000,0.000000,-3.539595,-14.112815,5.977404,-1.558768,-0.561818,-3.141600,2.737130,2.967986,-10.297173,5.892442,-13.322692,-0.669854,-16.062084,-8.548183,-32.865646,-15.510396,-14.314785,-27.709011,-40.414360,-39.934013,-41.671947,-36.200592,-21.494965,-32.463768,-18.757021,-17.363974,-25.608814,-9.508706,-11.379765,-13.611819,-2.659947,6.516637,0.000000,208.000000,4.000000,,,,0.000000,2.000000,4.000000,4.000000,4.000000,4.000000,4.000000,4.000000,4.000000,4.000000,4.000000,2.000000,2.000000,4.000000,4.000000,4.000000,4.000000,4.000000,4.000000,4.000000,4.000000,4.000000,4.000000,4.000000,4.000000,4.000000,4.000000,4.000000,4.000000,4.000000,4.000000,4.000000,4.000000,50.000000
1613957541.551626,93.000000,0.000000,-3.023235,-13.585881,13.150913,6.135098,9.182334,0.451285,-3.419453,2.965018,-6.697132,5.886549,-12.796548,-11.951235,-24.763971,-14.180661,-47.704575,-43.187195,-33.274830,-44.604378,-43.963692,-47.586388,-42.143097,-40.779778,-19.935009,-33.456944,-21.302366,-18.885073,-26.096025,-9.499197,-11.368385,-9.495644,7.599123,12.663966,0.000000,179.000000,4.000000,,,,0.000000,2.000000,4.000000,4.000000,4.000000,4.000000,4.000000,4.000000,4.000000,4.000000,4.000000,2.000000,2.000000,4.000000,4.000000,4.000000,4.000000,4.000000,4.000000,4.000000,4.000000,4.000000,4.000000,4.000000,4.000000,4.000000,4.000000,4.000000,4.000000,4.000000,4.000000,4.000000,4.000000,50.000000
1613957541.559475,94.000000,0.000000,-3.020211,-13.572295,13.650583,13.308451,17.378279,4.553398,-10.595521,2.962053,-3.100691,9.470407,-13.296573,-19.118771,-30.380234,-18.269045,-51.246613,-61.605545,-39.908222,-44.559772,-41.868446,-43.436237,-29.793261,-28.944126,-21.453535,-32.910667,-13.588756,-17.327724,-24.018648,-10.002519,-11.357017,-9.998968,9.642806,12.138482,0.000000,173.000000,4.000000,,,,0.000000,2.000000,4.000000,4.000000,4.000000,4.000000,4.000000,4.000000,4.000000,4.000000,4.000000,2.000000,2.000000,4.000000,4.000000,4.000000,4.000000,4.000000,4.000000,4.000000,4.000000,4.000000,4.000000,4.000000,4.000000,4.000000,4.000000,4.000000,4.000000,4.000000,4.000000,4.000000,4.000000,50.000000
1613957541.567225,95.000000,0.000000,-4.042832,-13.558722,12.611292,13.295142,15.822440,5.061666,-7.508003,2.959091,-2.584770,9.460937,-13.283276,-15.509909,-29.324211,-18.250774,-46.067162,-48.210606,-28.586262,-21.438292,-20.288115,-19.290236,-10.789108,-5.325438,-20.406441,-18.005962,4.373551,-9.618090,-16.815142,-8.966875,-11.345659,-4.347944,8.607523,13.664804,0.000000,194.000000,4.000000,,,,0.000000,2.000000,4.000000,4.000000,4.000000,4.000000,4.000000,4.000000,4.000000,4.000000,4.000000,2.000000,2.000000,4.000000,4.000000,4.000000,4.000000,4.000000,4.000000,4.000000,4.000000,4.000000,4.000000,4.000000,4.000000,4.000000,4.000000,4.000000,4.000000,4.000000,4.000000,4.000000,4.000000,50.000000
1613957541.575074,96.000000,0.000000,-4.038789,-13.545164,13.111501,12.769027,14.780976,5.569424,-0.833828,2.956132,-2.582185,6.374552,-12.244351,-23.186707,-27.243607,-20.796627,-39.867249,-32.777779,-17.275623,-7.570699,1.270634,1.754695,-0.009088,4.936298,-16.796289,-2.090520,15.138409,-4.480267,-9.618840,-6.906626,-11.334314,-1.779493,9.111735,18.779345,8064.000000,0.000000,4.000000,,,,0.000000,2.000000,4.000000,4.000000,4.000000,4.000000,4.000000,4.000000,4.000000,4.000000,4.000000,2.000000,2.000000,4.000000,4.000000,4.000000,4.000000,4.000000,4.000000,4.000000,4.000000,4.000000,4.000000,4.000000,4.000000,4.000000,4.000000,4.000000,4.000000,4.000000,4.000000,4.000000,4.000000,50.000000
1613957541.582823,97.000000,0.000000,-3.521930,-13.531619,13.098390,13.269077,15.791837,5.051034,-4.935558,2.953176,-2.066783,4.829716,-13.770569,-27.266085,-26.703541,-27.955318,-30.596611,-27.616796,-12.130143,-7.563128,-0.269098,1.752941,0.503742,1.854439,-17.292315,2.526955,14.610449,-7.552710,-4.993836,-5.874078,-11.322980,-6.905919,7.051342,20.299026,8064.000000,0.000000,4.000000,,,,0.000000,2.000000,4.000000,4.000000,4.000000,4.000000,4.000000,4.000000,4.000000,4.000000,4.000000,2.000000,2.000000,4.000000,4.000000,4.000000,4.000000,4.000000,4.000000,4.000000,4.000000,4.000000,4.000000,4.000000,4.000000,4.000000,4.000000,4.000000,4.000000,4.000000,4.000000,4.000000,4.000000,50.000000
1613957541.590672,98.000000,0.000000,-4.031229,-13.518087,12.572471,13.255809,15.776045,4.533163,-9.546007,2.437402,-2.577536,6.363348,-12.218336,-7.751638,-18.984529,-22.799158,-5.437810,-7.076359,-2.374423,0.136743,2.808095,4.315290,0.503238,4.416687,-14.710919,0.473146,14.595839,-4.981054,-2.937561,-4.842563,-11.311657,-6.386192,4.993008,20.791550,8064.000000,0.000000,4.000000,,,,0.000000,2.000000,4.000000,4.000000,4.000000,4.000000,4.000000,4.000000,4.000000,4.000000,4.000000,2.000000,2.000000,4.000000,4.000000,4.000000,4.000000,4.000000,4.000000,4.000000,4.000000,4.000000,4.000000,4.000000,4.000000,4.000000,4.000000,4.000000,4.000000,4.000000,4.000000,4.000000,4.000000,50.000000
1613957541.598421,99.000000,0.000000,-0.950274,-13.504569,12.559898,15.293835,15.247448,9.656835,-1.331333,3.973426,-0.010856,8.408267,-3.488169,6.615088,-3.068110,-2.263538,18.670193,18.058922,11.986926,15.521221,20.754004,22.772514,7.682222,13.643040,-3.414157,0.985494,16.632524,6.818799,-0.370520,-2.786438,-11.300345,0.799681,8.064939,23.847681,8064.000000,0.000000,4.000000,,,,0.000000,2.000000,4.000000,4.000000,4.000000,4.000000,4.000000,4.000000,4.000000,4.000000,4.000000,2.000000,2.000000,4.000000,4.000000,4.000000,4.000000,4.000000,4.000000,4.000000,4.000000,4.000000,4.000000,4.000000,4.000000,4.000000,4.000000,4.000000,4.000000,4.000000,4.000000,4.000000,4.000000,50.000000
1613957541.606270,100.000000,0.000000,4.178881,-13.491065,13.572979,16.817003,16.257841,16.826666,6.875126,6.533556,5.630180,10.451140,3.181985,-8.263322,7.191369,11.072060,22.754086,23.169069,17.615965,23.198008,18.681969,28.390766,11.777103,14.655037,1.717462,8.676816,10.974867,5.786339,1.168312,-1.758011,-11.289044,-0.226760,9.595335,21.772551,8064.000000,0.000000,4.000000,,,,0.000000,2.000000,4.000000,4.000000,4.000000,4.000000,4.000000,4.000000,4.000000,4.000000,4.000000,2.000000,2.000000,4.000000,4.000000,4.000000,4.000000,4.000000,4.000000,4.000000,4.000000,4.000000,4.000000,4.000000,4.000000,4.000000,4.000000,4.000000,4.000000,4.000000,4.000000,4.000000,4.000000,50.000000
1613957541.614019,101.000000,0.000000,7.251625,-13.477573,11.508124,11.671981,15.728764,14.245736,6.355431,7.552663,5.111730,10.953510,1.640342,-27.229418,6.158536,11.573808,15.039024,17.504873,16.059887,13.944040,-5.439278,15.029042,-0.029545,9.512177,-3.412461,14.821985,4.297225,-9.604063,0.654323,-2.269073,-11.277756,-8.944482,5.483176,17.648214,8064.000000,0.000000,4.000000,,,,0.000000,2.000000,4.000000,4.000000,4.000000,4.000000,4.000000,4.000000,4.000000,4.000000,4.000000,2.000000,2.000000,4.000000,4.000000,4.000000,4.000000,4.000000,4.000000,4.000000,4.000000,4.000000,4.000000,4.000000,4.000000,4.000000,4.000000,4.000000,4.000000,4.000000,4.000000,4.000000,4.000000,50.000000
1613957541.621668,102.000000,0.000000,7.757194,-13.464096,7.394052,6.019283,13.661753,8.590465,5.836255,7.032290,-2.585690,9.404095,-0.925401,-21.048342,1.024172,12.075054,7.844498,9.795061,17.069468,-5.044262,-17.228710,2.706321,-15.414131,6.938562,-5.973151,12.755881,3.780107,-15.235484,1.166489,-2.266804,-11.266478,-11.499640,1.887949,17.117744,8064.000000,0.000000,4.000000,,,,0.000000,2.000000,4.000000,4.000000,4.000000,4.000000,4.000000,4.000000,4.000000,4.000000,4.000000,2.000000,2.000000,4.000000,4.000000,4.000000,4.000000,4.000000,4.000000,4.000000,4.000000,4.000000,4.000000,4.000000,4.000000,4.000000,4.000000,4.000000,4.000000,4.000000,4.000000,4.000000,4.000000,50.000000
1613957541.629417,103.000000,0.000000,7.749437,-12.937812,5.335376,5.500443,12.109629,9.607515,4.291957,7.025258,-6.172848,10.420332,-1.437296,-4.104217,-4.617877,7.447595,-4.471039,-4.573708,13.462655,-13.757167,-14.647379,-7.039975,-24.116665,1.803419,-4.428716,10.691843,-1.864698,-12.143326,1.165323,-1.751717,-10.742391,-8.924038,0.860420,11.972423,8064.000000,0.000000,4.000000,,,,0.000000,2.000000,4.000000,4.000000,4.000000,4.000000,4.000000,4.000000,4.000000,4.000000,4.000000,2.000000,2.000000,4.000000,4.000000,4.000000,4.000000,4.000000,4.000000,4.000000,4.000000,4.000000,4.000000,4.000000,4.000000,4.000000,4.000000,4.000000,4.000000,4.000000,4.000000,4.000000,4.000000,50.000000
1613957541.637066,104.000000,0.000000,2.100662,-12.924873,3.791579,4.469302,7.482135,7.546626,-4.430284,7.531053,-5.653854,10.409911,-1.435859,2.053733,-8.203003,-1.790622,-14.722978,-13.287084,-0.396962,-12.204948,-14.632731,-16.776525,-32.810497,-7.429154,-4.937108,3.501664,-15.708987,-16.746567,-8.579432,-1.749965,-10.731648,-11.992037,-2.730184,3.755322,8064.000000,0.000000,4.000000,,,,0.000000,2.000000,4.000000,4.000000,4.000000,4.000000,4.000000,4.000000,4.000000,4.000000,4.000000,2.000000,2.000000,4.000000,4.000000,4.000000,4.000000,4.000000,4.000000,4.000000,4.000000,4.000000,4.000000,4.000000,4.000000,4.000000,4.000000,4.000000,4.000000,4.000000,4.000000,4.000000,4.000000,50.000000
1613957541.644815,105.000000,0.000000,-3.542464,-14.963231,-1.340418,1.900730,-1.243296,-2.204511,-10.066879,4.446599,-9.237945,-0.369729,-5.024167,0.513218,-7.681980,-5.378575,-16.246717,-14.299438,-10.652975,-15.269667,-16.156561,-17.785389,-37.393070,-13.575571,-4.932171,-18.553120,-21.334305,-21.858027,-18.827263,-3.799498,-11.233737,-17.621071,-5.804377,0.674643,8064.000000,0.000000,4.000000,,,,0.000000,2.000000,4.000000,4.000000,4.000000,4.000000,4.000000,4.000000,4.000000,4.000000,4.000000,2.000000,2.000000,4.000000,4.000000,4.000000,4.000000,4.000000,4.000000,4.000000,4.000000,4.000000,4.000000,4.000000,4.000000,4.000000,4.000000,4.000000,4.000000,4.000000,4.000000,4.000000,4.000000,50.000000
1613957541.652464,106.000000,0.000000,-2.000460,-16.999550,-5.954462,1.386009,-8.421540,-7.330512,-8.518351,-4.788617,-13.844090,-17.292437,-17.326834,-9.230885,-13.828144,-16.655247,-23.922777,-29.669754,-11.155143,-19.869781,-16.653225,-14.177860,-33.765934,-12.536354,-7.491341,-28.790977,-18.236046,-21.323347,-18.295616,-5.846980,-10.709683,-18.116270,-5.285752,-0.864493,8064.000000,0.000000,4.000000,,,,0.000000,2.000000,4.000000,4.000000,4.000000,4.000000,4.000000,4.000000,4.000000,4.000000,4.000000,2.000000,2.000000,4.000000,4.000000,4.000000,4.000000,4.000000,4.000000,4.000000,4.000000,4.000000,4.000000,4.000000,4.000000,4.000000,4.000000,4.000000,4.000000,4.000000,4.000000,4.000000,4.000000,50.000000
1613957541.660214,107.000000,0.000000,3.642566,-16.982550,-5.948508,0.358981,-10.464400,-6.297540,-9.022653,-11.450495,-13.830247,-24.967451,-30.642841,-34.862679,-27.147650,-35.100132,-41.847572,-50.665726,-10.118346,-21.901194,-18.175034,-15.702144,-33.219349,-12.010998,-14.663337,-15.428852,-20.269093,-21.814844,-13.661936,-5.841133,-11.211794,-17.585333,-9.383031,-4.966192,7936.000000,0.000000,4.000000,,,,0.000000,2.000000,4.000000,4.000000,4.000000,4.000000,4.000000,4.000000,4.000000,4.000000,4.000000,2.000000,2.000000,4.000000,4.000000,4.000000,4.000000,4.000000,4.000000,4.000000,4.000000,4.000000,4.000000,4.000000,4.000000,4.000000,4.000000,4.000000,4.000000,4.000000,4.000000,4.000000,4.000000,50.000000
1613957541.667863,108.000000,0.000000,5.177384,-16.965569,-5.429739,-1.692659,-10.453936,-5.778422,-10.039271,-11.951865,-13.303596,-24.429665,-32.663479,-41.494484,-33.274349,-43.270161,-46.933929,-54.204803,-11.133869,-23.930574,-18.669678,-11.071057,-32.673309,-14.050268,-17.212776,-8.746757,-22.812925,-24.357132,-14.673915,-5.835292,-15.303146,-19.619030,-19.117237,-6.499688,8064.000000,0.000000,4.000000,,,,0.000000,2.000000,4.000000,4.000000,4.000000,4.000000,4.000000,4.000000,4.000000,4.000000,4.000000,2.000000,2.000000,4.000000,4.000000,4.000000,4.000000,4.000000,4.000000,4.000000,4.000000,4.000000,4.000000,4.000000,4.000000,4.000000,4.000000,4.000000,4.000000,4.000000,4.000000,4.000000,4.000000,50.000000
1613957541.675612,109.000000,0.000000,0.556823,-17.974243,-5.937129,-2.203787,-11.469123,-6.798285,-8.490770,-11.427093,-14.315933,-23.892414,-30.066715,-10.683759,-32.728252,-42.714069,-33.040844,-48.509571,-10.609915,-20.829721,-18.651009,1.760527,-24.948328,-9.933654,-14.118640,-11.814933,-18.174728,-24.845596,-14.659241,-5.829457,-18.364767,-21.650692,-21.662222,-8.031650,7936.000000,0.000000,4.000000,,,,0.000000,2.000000,4.000000,4.000000,4.000000,4.000000,4.000000,4.000000,4.000000,4.000000,4.000000,2.000000,2.000000,4.000000,4.000000,4.000000,4.000000,4.000000,4.000000,4.000000,4.000000,4.000000,4.000000,4.000000,4.000000,4.000000,4.000000,4.000000,4.000000,4.000000,4.000000,4.000000,4.000000,50.000000
1613957541.683261,110.000000,0.000000,-5.597580,-16.417807,-5.931192,-1.688763,-10.432013,-5.765845,-13.097664,-11.928486,-13.788797,-23.868521,-32.600750,5.737182,-32.182705,-41.132893,-21.725750,-40.255936,-10.086484,-13.629404,-18.632357,5.861331,-21.846457,-2.744233,-12.053240,-7.700554,-14.566811,-23.795109,-13.106120,-5.310807,-18.859222,-21.629042,-18.050817,-9.049259,8064.000000,0.000000,4.000000,,,,0.000000,2.000000,4.000000,4.000000,4.000000,4.000000,4.000000,4.000000,4.000000,4.000000,4.000000,2.000000,2.000000,4.000000,4.000000,4.000000,4.000000,4.000000,4.000000,4.000000,4.000000,4.000000,4.000000,4.000000,4.000000,4.000000,4.000000,4.000000,4.000000,4.000000,4.000000,4.000000,4.000000,50.000000
1613957541.691010,111.000000,0.000000,-8.156085,-16.914209,-4.899620,-1.174254,-9.908760,-6.272900,-22.828156,-11.916557,-12.749367,-25.383114,-29.491226,-14.781376,-30.612061,-31.348169,-22.216845,-24.318243,-10.076398,-13.615774,-18.613726,0.214443,-24.388712,-1.715848,-13.066828,-6.154392,-15.065063,-24.796955,-16.169937,-6.843957,-18.840363,-21.094593,-16.494305,-6.476107,8064.000000,0.000000,4.000000,,,,0.000000,2.000000,4.000000,4.000000,4.000000,4.000000,4.000000,4.000000,4.000000,4.000000,4.000000,2.000000,2.000000,4.000000,4.000000,4.000000,4.000000,4.000000,4.000000,4.000000,4.000000,4.000000,4.000000,4.000000,4.000000,4.000000,4.000000,4.000000,4.000000,4.000000,4.000000,4.000000,4.000000,50.000000
1613957541.698659,112.000000,0.000000,-7.635109,-22.538321,-5.407541,-3.224362,-11.437313,-5.753807,-23.830969,-11.391821,-14.787900,-21.255167,-19.718145,-25.535826,-26.478884,-20.547590,-23.220270,-8.909308,-10.066321,-15.653440,-18.595112,-2.862694,-25.389965,-4.791055,-12.540940,-12.302084,-14.537178,-24.259336,-20.769152,-8.888395,-17.283060,-19.022215,-16.990631,-5.443990,8064.000000,0.000000,4.000000,,,,0.000000,2.000000,4.000000,4.000000,4.000000,4.000000,4.000000,4.000000,4.000000,4.000000,4.000000,2.000000,2.000000,4.000000,4.000000,4.000000,4.000000,4.000000,4.000000,4.000000,4.000000,4.000000,4.000000,4.000000,4.000000,4.000000,4.000000,4.000000,4.000000,4.000000,4.000000,4.000000,4.000000,50.000000
1613957541.706408,113.000000,0.000000,-7.114653,-20.977322,-5.914954,-4.759599,-8.348953,-3.696771,-12.525086,-11.380429,-11.696189,-4.823656,-14.570222,-18.843622,-23.888302,-17.962940,-21.658588,-7.361938,-10.056255,-12.560864,-18.576517,-3.372652,-24.851755,-4.786264,-12.528399,-14.341063,-10.932898,-21.670975,-20.748383,-9.905149,-12.137572,-14.900629,-16.460819,-4.412905,8064.000000,0.000000,4.000000,,,,0.000000,2.000000,4.000000,4.000000,4.000000,4.000000,4.000000,4.000000,4.000000,4.000000,4.000000,2.000000,2.000000,4.000000,4.000000,4.000000,4.000000,4.000000,4.000000,4.000000,4.000000,4.000000,4.000000,4.000000,4.000000,4.000000,4.000000,4.000000,4.000000,4.000000,4.000000,4.000000,4.000000,50.000000
1613957541.714057,114.000000,0.000000,-4.543436,-12.238396,-2.832116,-3.216378,2.428627,-1.641792,-4.820254,-11.881869,0.110379,7.488861,-15.581293,-21.388882,-21.300312,-13.842414,-21.636929,-8.893038,-10.046199,-12.548304,-18.045120,-5.420561,-24.314081,-3.755837,-12.515871,-11.249800,-10.409144,-20.110844,-17.650711,-9.382422,-10.074153,-12.834447,-15.931539,0.719713,8064.000000,0.000000,4.000000,,,,0.000000,2.000000,4.000000,4.000000,4.000000,4.000000,4.000000,4.000000,4.000000,4.000000,4.000000,2.000000,2.000000,4.000000,4.000000,4.000000,4.000000,4.000000,4.000000,4.000000,4.000000,4.000000,4.000000,4.000000,4.000000,4.000000,4.000000,4.000000,4.000000,4.000000,4.000000,4.000000,4.000000,50.000000
1613957541.721807,115.000000,0.000000,-4.026072,-8.123593,-1.290822,-0.649059,7.554403,-1.640150,-6.353895,-11.357166,6.776936,7.481372,-15.565712,-11.623903,-17.689268,-8.700366,-22.128113,-6.832862,-10.036153,-15.099857,-19.052715,-6.440782,-24.289768,-4.264902,-12.503355,-9.700089,-11.424376,-20.090733,-17.633060,-9.373040,-10.576900,-13.334433,-16.428427,2.257455,8064.000000,0.000000,4.000000,,,,0.000000,2.000000,4.000000,4.000000,4.000000,4.000000,4.000000,4.000000,4.000000,4.000000,4.000000,2.000000,2.000000,4.000000,4.000000,4.000000,4.000000,4.000000,4.000000,4.000000,4.000000,4.000000,4.000000,4.000000,4.000000,4.000000,4.000000,4.000000,4.000000,4.000000,4.000000,4.000000,4.000000,50.000000
1613957541.729456,116.000000,0.000000,-3.509225,-9.653931,-6.930557,-1.674051,2.418644,-2.151330,-8.398824,-8.781707,4.718876,6.448249,-15.550146,15.567208,-14.594655,-11.255769,-22.105984,-9.390132,-10.026116,-14.571938,-20.572124,-6.434341,-29.393682,-4.260637,-12.490851,-10.203209,-9.874490,-16.993719,-17.615427,-9.363667,-9.540682,-13.321098,-15.386357,-4.411469,8064.000000,0.000000,4.000000,,,,0.000000,2.000000,4.000000,4.000000,4.000000,4.000000,4.000000,4.000000,4.000000,4.000000,4.000000,2.000000,2.000000,4.000000,4.000000,4.000000,4.000000,4.000000,4.000000,4.000000,4.000000,4.000000,4.000000,4.000000,4.000000,4.000000,4.000000,4.000000,4.000000,4.000000,4.000000,4.000000,4.000000,50.000000
1613957541.737205,117.000000,0.000000,3.160950,-9.131456,-12.051831,-1.159556,4.467507,-1.636359,-7.877604,-7.234464,6.252619,7.467442,-15.021775,14.526000,-11.503138,-9.706051,-22.596699,-17.585871,-10.016090,-19.172750,-22.090014,-5.915086,-35.518135,-4.769197,-12.478360,-9.167364,-9.351795,-15.951083,-17.084991,-9.354303,-10.556782,-12.794956,-13.319689,-9.022443,8064.000000,0.000000,4.000000,,,,0.000000,2.000000,4.000000,4.000000,4.000000,4.000000,4.000000,4.000000,4.000000,4.000000,4.000000,2.000000,2.000000,4.000000,4.000000,4.000000,4.000000,4.000000,4.000000,4.000000,4.000000,4.000000,4.000000,4.000000,4.000000,4.000000,4.000000,4.000000,4.000000,4.000000,4.000000,4.000000,4.000000,50.000000
1613957541.744854,118.000000,0.000000,8.798815,-9.122325,-13.065421,-1.158397,10.616886,-1.121902,-8.382547,-7.740050,6.246367,6.947154,-11.929831,-12.155193,-8.414711,-3.542499,-23.086924,-22.696489,-10.006074,-27.358706,-22.067923,-5.396351,-36.508259,-3.738786,-12.465882,-9.158197,-15.496289,-21.576159,-18.093548,-9.344949,-14.135968,-13.294982,-12.793549,-10.039061,8064.000000,0.000000,4.000000,,,,0.000000,2.000000,4.000000,4.000000,4.000000,4.000000,4.000000,4.000000,4.000000,4.000000,4.000000,2.000000,2.000000,4.000000,4.000000,4.000000,4.000000,4.000000,4.000000,4.000000,4.000000,4.000000,4.000000,4.000000,4.000000,4.000000,4.000000,4.000000,4.000000,4.000000,4.000000,4.000000,4.000000,50.000000
1613957541.752603,119.000000,0.000000,6.738734,-9.113203,-14.590816,-6.798264,-0.675782,-3.684882,-9.399805,-7.732310,-6.067572,7.453028,-13.969183,-12.143038,-8.919117,-12.769726,-23.063835,-20.622511,-10.508888,-24.767244,-21.533035,-10.519159,-38.010212,-4.247868,-12.453417,-10.687500,-21.634640,-24.631504,-16.024172,-9.335604,-13.096191,-17.384251,-12.780755,-10.541842,8064.000000,0.000000,4.000000,,,,0.000000,2.000000,4.000000,4.000000,4.000000,4.000000,4.000000,4.000000,4.000000,4.000000,4.000000,2.000000,2.000000,4.000000,4.000000,4.000000,4.000000,4.000000,4.000000,4.000000,4.000000,4.000000,4.000000,4.000000,4.000000,4.000000,4.000000,4.000000,4.000000,4.000000,4.000000,4.000000,4.000000,50.000000
1613957541.760252,120.000000,0.000000,4.167893,-9.104090,-14.063406,-10.381209,-14.008440,-8.809402,-7.851944,-7.211757,-14.266633,3.855831,-21.134701,9.407567,-14.551224,-30.705673,-23.040771,-19.576246,-10.498380,-25.255297,-26.126886,-17.175306,-40.023483,-11.423107,-12.440963,-9.651172,-22.125826,-25.119694,-13.956865,-9.326268,-18.211300,-23.007893,-13.280795,-13.608224,8064.000000,0.000000,4.000000,,,,0.000000,2.000000,4.000000,4.000000,4.000000,4.000000,4.000000,4.000000,4.000000,4.000000,4.000000,2.000000,2.000000,4.000000,4.000000,4.000000,4.000000,4.000000,4.000000,4.000000,4.000000,4.000000,4.000000,4.000000,4.000000,4.000000,4.000000,4.000000,4.000000,4.000000,4.000000,4.000000,4.000000,50.000000
1613957541.768102,121.000000,0.000000,2.112443,-14.736012,-20.203188,-12.934931,-17.071354,-12.903157,-13.997938,-7.717366,-13.226726,-5.378794,-23.677668,11.962262,-20.690517,-40.418556,-26.607475,-31.351543,-9.975060,-43.691582,-35.844349,-18.183773,-41.009102,-19.616812,-12.428522,-11.179982,-33.898571,-33.812523,-18.558292,-9.316942,-34.603344,-32.728474,-21.472643,-27.440769,8064.000000,0.000000,4.000000,,,,0.000000,2.000000,4.000000,4.000000,4.000000,4.000000,4.000000,4.000000,4.000000,4.000000,4.000000,2.000000,2.000000,4.000000,4.000000,4.000000,4.000000,4.000000,4.000000,4.000000,4.000000,4.000000,4.000000,4.000000,4.000000,4.000000,4.000000,4.000000,4.000000,4.000000,4.000000,4.000000,4.000000,50.000000
1613957541.775851,122.000000,0.000000,-3.017874,-20.875122,-35.567600,-22.152765,-29.874796,-18.018459,-24.753172,-7.709648,-18.341703,-11.014441,-23.141171,2.206710,-20.669828,-38.839680,-27.606508,-39.012501,-10.477906,-54.929939,-42.475170,-18.165588,-40.455273,-20.622837,-12.416094,-25.527777,-50.787750,-40.445377,-24.180761,-9.820446,-40.722588,-41.926514,-31.194759,-37.669739,7936.000000,0.000000,4.000000,,,,0.000000,2.000000,4.000000,4.000000,4.000000,4.000000,4.000000,4.000000,4.000000,4.000000,4.000000,2.000000,2.000000,4.000000,4.000000,4.000000,4.000000,4.000000,4.000000,4.000000,4.000000,4.000000,4.000000,4.000000,4.000000,4.000000,4.000000,4.000000,4.000000,4.000000,4.000000,4.000000,4.000000,50.000000
1613957541.783700,123.000000,0.000000,-3.527677,-20.341425,-27.839725,-22.643433,-38.050049,-21.077364,-22.164316,-7.701939,-24.990028,-12.029068,-23.118029,2.717324,-18.597876,-24.441864,-18.348133,-17.947845,-8.928967,-33.849369,-36.791672,-15.583321,-33.748150,-17.525291,-12.403677,-37.809940,-40.993374,-26.558779,-19.028374,-8.272163,-26.835712,-33.679462,-24.496899,-18.144890,8064.000000,0.000000,4.000000,,,,0.000000,2.000000,4.000000,4.000000,4.000000,4.000000,4.000000,4.000000,4.000000,4.000000,4.000000,2.000000,2.000000,4.000000,4.000000,4.000000,4.000000,4.000000,4.000000,4.000000,4.000000,4.000000,4.000000,4.000000,4.000000,4.000000,4.000000,4.000000,4.000000,4.000000,4.000000,4.000000,4.000000,50.000000
1613957541.791449,124.000000,0.000000,1.604056,-17.244162,0.393243,-7.748994,-16.986359,-14.902440,-9.321638,-7.181416,-21.375296,-13.555500,-20.530809,-0.362317,-16.527996,-5.443063,-6.534913,9.762410,-3.279012,-0.995007,-18.293341,-5.824148,-17.816965,-13.405202,-12.391273,-27.515720,-14.798532,-10.634783,-9.265757,-6.212610,-14.501184,-11.594500,-10.626247,9.052743,8064.000000,0.000000,4.000000,,,,0.000000,2.000000,4.000000,4.000000,4.000000,4.000000,4.000000,4.000000,4.000000,4.000000,4.000000,2.000000,2.000000,4.000000,4.000000,4.000000,4.000000,4.000000,4.000000,4.000000,4.000000,4.000000,4.000000,4.000000,4.000000,4.000000,4.000000,4.000000,4.000000,4.000000,4.000000,4.000000,4.000000,50.000000
1613957541.799298,125.000000,0.000000,4.679375,-16.201277,-1.145612,-6.202784,-7.738603,-8.733692,-4.184112,-8.199876,-17.251356,-11.490663,-16.407713,-6.515801,-11.896083,0.716226,0.138289,15.906494,2.878113,16.954706,3.776235,3.412446,-3.440175,-11.340514,-12.378882,-9.539487,-3.501683,-8.572866,-4.641106,-5.180756,-14.999503,-1.326494,-9.589980,3.402664,8064.000000,0.000000,4.000000,,,,0.000000,2.000000,4.000000,4.000000,4.000000,4.000000,4.000000,4.000000,4.000000,4.000000,4.000000,2.000000,2.000000,4.000000,4.000000,4.000000,4.000000,4.000000,4.000000,4.000000,4.000000,4.000000,4.000000,4.000000,4.000000,4.000000,4.000000,4.000000,4.000000,4.000000,4.000000,4.000000,4.000000,50.000000
1613957541.807047,126.000000,0.000000,2.110593,-14.133793,-20.118826,-15.427350,-19.012915,-9.750599,-5.718389,-7.678855,-14.157181,-0.709941,-14.852844,7.336869,-8.294444,4.305254,5.779176,20.505972,6.464979,20.014675,13.003227,5.973136,2.204291,-11.329174,-12.366504,-1.324820,2.142845,-8.564294,-2.585183,-5.688396,-14.984504,-1.325168,-12.657313,-7.882790,8064.000000,0.000000,4.000000,,,,0.000000,2.000000,4.000000,4.000000,4.000000,4.000000,4.000000,4.000000,4.000000,4.000000,4.000000,2.000000,2.000000,4.000000,4.000000,4.000000,4.000000,4.000000,4.000000,4.000000,4.000000,4.000000,4.000000,4.000000,4.000000,4.000000,4.000000,4.000000,4.000000,4.000000,4.000000,4.000000,4.000000,50.000000
1613957541.814896,127.000000,0.000000,0.057200,-12.581197,-6.252553,-4.642692,-3.096467,-5.638284,-4.174209,-3.055792,-3.373793,9.034359,-15.863632,19.124403,-9.311790,15.070179,9.875961,30.741877,4.920052,20.507481,12.477404,5.967163,2.714908,-10.805024,-12.866958,3.804710,14.961215,-2.914704,-2.069777,-5.682707,-7.790032,1.240260,-7.003631,5.458426,8064.000000,0.000000,4.000000,,,,0.000000,2.000000,4.000000,4.000000,4.000000,4.000000,4.000000,4.000000,4.000000,4.000000,4.000000,2.000000,2.000000,4.000000,4.000000,4.000000,4.000000,4.000000,4.000000,4.000000,4.000000,4.000000,4.000000,4.000000,4.000000,4.000000,4.000000,4.000000,4.000000,4.000000,4.000000,4.000000,4.000000,50.000000
1613957541.822645,0.000000,0.000000,0.057143,-12.568616,12.728059,13.823489,18.445091,1.034021,-5.708497,0.024187,5.347529,10.563786,-15.847769,-0.381900,-9.302479,16.080750,2.173778,20.454723,-5.341279,14.845947,6.823901,-1.218292,0.148090,-12.845501,-12.341270,4.826547,11.869330,0.677955,-4.118989,-5.164204,-2.654037,2.264661,-3.406883,15.196558,0.000000,166.000000,4.000000,,,,0.000000,2.000000,4.000000,4.000000,4.000000,4.000000,4.000000,4.000000,4.000000,4.000000,4.000000,2.000000,2.000000,4.000000,4.000000,4.000000,4.000000,4.000000,4.000000,4.000000,4.000000,4.000000,4.000000,4.000000,4.000000,4.000000,4.000000,4.000000,4.000000,4.000000,4.000000,4.000000,4.000000,50.000000
1613957541.830494,1.000000,0.000000,0.057086,-13.068868,4.510202,11.758384,8.683057,1.032987,-8.779711,0.024163,6.367823,10.553222,-15.319100,-23.458441,-8.780355,8.372361,-18.854038,-8.796500,-16.105167,-10.297104,-14.721385,-18.652971,-14.211032,-19.499323,-11.816109,-0.819305,-6.091257,-2.912467,-5.653332,-5.159040,-2.138562,2.775217,-4.941938,11.078797,0.000000,201.000000,4.000000,,,,0.000000,2.000000,4.000000,4.000000,4.000000,4.000000,4.000000,4.000000,4.000000,4.000000,4.000000,2.000000,2.000000,4.000000,4.000000,4.000000,4.000000,4.000000,4.000000,4.000000,4.000000,4.000000,4.000000,4.000000,4.000000,4.000000,4.000000,4.000000,4.000000,4.000000,4.000000,4.000000,4.000000,50.000000
1613957541.838243,2.000000,0.000000,0.057029,-12.542978,-1.135333,3.541497,-2.094857,-1.019328,-3.642726,-0.488682,2.258891,13.106771,-15.303782,-24.460625,-13.899780,2.210143,-39.860825,-32.890266,-18.653166,-41.568859,-45.475895,-31.967651,-41.889130,-25.633669,-13.855575,-4.921050,-14.803115,-12.140324,-6.160499,-5.153881,-3.674885,2.772441,-3.911355,10.554897,0.000000,194.000000,4.000000,,,,0.000000,2.000000,4.000000,4.000000,4.000000,4.000000,4.000000,4.000000,4.000000,4.000000,4.000000,2.000000,2.000000,4.000000,4.000000,4.000000,4.000000,4.000000,4.000000,4.000000,4.000000,4.000000,4.000000,4.000000,4.000000,4.000000,4.000000,4.000000,4.000000,4.000000,4.000000,4.000000,4.000000,50.000000
1613957541.846092,3.000000,0.000000,0.056972,-13.043256,-2.672659,0.973853,-7.220967,-2.043950,-1.587801,0.024627,-10.051061,6.426998,-16.826939,-24.436163,-20.039726,-14.715144,-53.154297,-48.241993,-17.096050,-53.322163,-55.686829,-36.551067,-63.898521,-27.146498,-15.380180,-10.044334,-18.890875,-20.333311,-8.718441,-5.661548,-8.799416,-13.640588,-9.035648,-1.250529,0.000000,196.000000,4.000000,,,,0.000000,2.000000,4.000000,4.000000,4.000000,4.000000,4.000000,4.000000,4.000000,4.000000,4.000000,2.000000,2.000000,4.000000,4.000000,4.000000,4.000000,4.000000,4.000000,4.000000,4.000000,4.000000,4.000000,4.000000,4.000000,4.000000,4.000000,4.000000,4.000000,4.000000,4.000000,4.000000,4.000000,50.000000
1613957541.853841,4.000000,0.000000,0.056915,-13.030212,-19.593063,-8.257890,-24.649645,-8.708573,-11.329803,-0.488218,-20.810240,-5.374301,-19.374214,-22.873266,-22.070969,-37.264530,-54.126785,-56.398880,-18.617416,-46.602173,-45.887550,-35.488876,-67.937187,-25.068068,-12.800697,-20.803520,-30.154036,-21.338619,-10.248184,-5.143065,-19.047026,-35.165409,-22.359947,-23.813381,0.000000,199.000000,4.000000,,,,0.000000,2.000000,4.000000,4.000000,4.000000,4.000000,4.000000,4.000000,4.000000,4.000000,4.000000,2.000000,2.000000,4.000000,4.000000,4.000000,4.000000,4.000000,4.000000,4.000000,4.000000,4.000000,4.000000,4.000000,4.000000,4.000000,4.000000,4.000000,4.000000,4.000000,4.000000,4.000000,4.000000,50.000000
1613957541.861690,5.000000,0.000000,0.056858,-13.017182,-24.188856,-16.967581,-29.240379,-13.828070,-16.959499,-0.487730,-16.174046,-8.445849,-19.354841,-6.952956,-19.997616,-43.381115,-45.354710,-52.752735,-18.598799,-39.376083,-40.200638,-25.709797,-63.253864,-23.504539,-8.172512,-26.423742,-36.277729,-20.291639,-10.237936,-5.137922,-23.130543,-34.617424,-28.491432,-26.866491,0.000000,203.000000,4.000000,,,,0.000000,2.000000,4.000000,4.000000,4.000000,4.000000,4.000000,4.000000,4.000000,4.000000,4.000000,2.000000,2.000000,4.000000,4.000000,4.000000,4.000000,4.000000,4.000000,4.000000,4.000000,4.000000,4.000000,4.000000,4.000000,4.000000,4.000000,4.000000,4.000000,4.000000,4.000000,4.000000,4.000000,50.000000
1613957541.869439,6.000000,0.000000,0.056801,-13.004166,-14.421077,-16.437794,-23.570112,-12.788600,-12.839975,-1.000062,-13.593768,-13.565609,-18.822666,-3.869080,-17.926336,-41.286449,-37.617046,-51.161522,-16.016098,-40.362347,-41.698898,-11.837934,-58.575226,-22.968214,-7.138699,-25.371677,-35.215809,-24.373913,-12.791800,-8.722528,-21.568951,-28.428959,-26.924480,-20.685778,0.000000,188.000000,4.000000,,,,0.000000,2.000000,4.000000,4.000000,4.000000,4.000000,4.000000,4.000000,4.000000,4.000000,4.000000,2.000000,2.000000,4.000000,4.000000,4.000000,4.000000,4.000000,4.000000,4.000000,4.000000,4.000000,4.000000,4.000000,4.000000,4.000000,4.000000,4.000000,4.000000,4.000000,4.000000,4.000000,4.000000,50.000000
1613957541.877088,7.000000,0.000000,0.056744,-12.991161,-26.714348,-21.036739,-38.418339,-16.878376,-11.801495,-3.563165,-28.964790,-34.064865,-20.855125,-26.429314,-16.882769,-42.783627,-36.040966,-50.084721,-16.512901,-41.347626,-41.144379,-9.774814,-50.824345,-22.432425,-12.259765,-25.346306,-37.744698,-31.016205,-17.394394,-13.329190,-26.675587,-38.656940,-30.487299,-27.844580,0.000000,183.000000,4.000000,,,,0.000000,2.000000,4.000000,4.000000,4.000000,4.000000,4.000000,4.000000,4.000000,4.000000,4.000000,2.000000,2.000000,4.000000,4.000000,4.000000,4.000000,4.000000,4.000000,4.000000,4.000000,4.000000,4.000000,4.000000,4.000000,4.000000,4.000000,4.000000,4.000000,4.000000,4.000000,4.000000,4.000000,50.000000
1613957541.884837,8.000000,0.000000,0.056687,-12.978170,-38.995327,-27.169550,-43.508125,-20.451241,-12.815334,-4.585243,-37.653774,-45.312851,-22.885551,-36.146473,-15.327425,-34.535713,-27.286978,-32.085918,-18.034851,-26.947304,-30.846825,-13.867603,-36.414547,-22.409992,-19.426992,-24.808140,-37.706951,-33.036472,-17.889820,-13.315861,-30.751476,-42.720848,-31.482452,-27.303915,0.000000,198.000000,4.000000,,,,0.000000,2.000000,4.000000,4.000000,4.000000,4.000000,4.000000,4.000000,4.000000,4.000000,4.000000,2.000000,2.000000,4.000000,4.000000,4.000000,4.000000,4.000000,4.000000,4.000000,4.000000,4.000000,4.000000,4.000000,4.000000,4.000000,4.000000,4.000000,4.000000,4.000000,4.000000,4.000000,4.000000,50.000000
1613957541.892487,9.000000,0.000000,0.056631,-12.452372,-19.981972,-21.501354,-22.951796,-9.661559,-7.674314,-2.529375,-26.334068,-30.908564,-23.375486,-10.469302,-12.235174,-16.552460,-6.746870,-7.951267,-7.247585,-2.304973,-8.251876,-7.187069,-15.865311,-22.387583,-19.920385,-23.757690,-25.874372,-25.311127,-13.769366,-10.225622,-20.464314,-27.293510,-21.194559,-12.404816,0.000000,140.000000,4.000000,,,,0.000000,2.000000,4.000000,4.000000,4.000000,4.000000,4.000000,4.000000,4.000000,4.000000,4.000000,2.000000,2.000000,4.000000,4.000000,4.000000,4.000000,4.000000,4.000000,4.000000,4.000000,4.000000,4.000000,4.000000,4.000000,4.000000,4.000000,4.000000,4.000000,4.000000,4.000000,4.000000,4.000000,50.000000
1613957541.900236,10.000000,0.000000,0.056574,-12.952740,-4.064554,-13.787545,-12.672434,2.142974,-4.076896,-0.475564,-14.512863,-16.005859,-20.788008,8.002706,-8.633195,-7.305138,6.080390,-0.763828,6.092996,2.825537,6.628170,-0.513215,2.099273,-18.262630,-13.746619,-20.144190,-6.874139,-12.465302,-9.140212,-9.189755,-7.623337,-14.445704,-11.942595,-7.264205,0.000000,219.000000,4.000000,,,,0.000000,2.000000,4.000000,4.000000,4.000000,4.000000,4.000000,4.000000,4.000000,4.000000,4.000000,2.000000,2.000000,4.000000,4.000000,4.000000,4.000000,4.000000,4.000000,4.000000,4.000000,4.000000,4.000000,4.000000,4.000000,4.000000,4.000000,4.000000,4.000000,4.000000,4.000000,4.000000,4.000000,50.000000
1613957541.907885,11.000000,0.000000,0.056517,-12.939787,-7.650233,-9.671193,-9.070018,2.653652,-8.175383,-0.475088,-8.857325,-14.964212,-19.228760,-9.954015,-8.624562,-6.785012,-2.130819,-8.455372,-3.143866,-11.536263,-2.609227,-7.179368,7.225379,-12.090522,-14.245693,-8.329173,4.927607,-5.786170,-6.054149,-9.180566,-5.564432,-12.892797,-11.417832,-8.282582,0.000000,223.000000,4.000000,,,,0.000000,2.000000,4.000000,4.000000,4.000000,4.000000,4.000000,4.000000,4.000000,4.000000,4.000000,2.000000,2.000000,4.000000,4.000000,4.000000,4.000000,4.000000,4.000000,4.000000,4.000000,4.000000,4.000000,4.000000,4.000000,4.000000,4.000000,4.000000,4.000000,4.000000,4.000000,4.000000,4.000000,50.000000
1613957541.915634,12.000000,0.000000,0.056461,-12.414026,-4.565660,-1.456394,6.836488,2.138178,-12.782592,-0.474613,-5.771544,-15.974890,-18.696711,-31.482523,-13.744143,-6.265407,-17.000483,-16.652044,-24.679184,-17.165752,-13.375849,-16.915779,5.679692,-11.052791,-22.436575,1.935566,3.384218,-6.293205,-6.048094,-9.171385,-7.097329,-13.392725,-12.432056,-5.710197,0.000000,167.000000,4.000000,,,,0.000000,2.000000,4.000000,4.000000,4.000000,4.000000,4.000000,4.000000,4.000000,4.000000,4.000000,2.000000,2.000000,4.000000,4.000000,4.000000,4.000000,4.000000,4.000000,4.000000,4.000000,4.000000,4.000000,4.000000,4.000000,4.000000,4.000000,4.000000,4.000000,4.000000,4.000000,4.000000,4.000000,50.000000
1613957541.923283,13.000000,0.000000,-0.456416,-13.940074,-1.996991,2.647627,4.778369,1.110398,-12.256989,0.038682,-7.817055,-14.933273,-19.190834,-35.040783,-21.422707,-6.771962,-21.598867,-19.199495,-29.782709,-13.558843,-13.362473,-17.924503,7.212473,-11.554558,-28.055164,-0.117651,-2.260192,-8.851014,-6.554867,-8.649393,-6.064590,-12.353692,-11.393983,-4.166026,0.000000,193.000000,4.000000,,,,0.000000,2.000000,4.000000,4.000000,4.000000,4.000000,4.000000,4.000000,4.000000,4.000000,4.000000,2.000000,2.000000,4.000000,4.000000,4.000000,4.000000,4.000000,4.000000,4.000000,4.000000,4.000000,4.000000,4.000000,4.000000,4.000000,4.000000,4.000000,4.000000,4.000000,4.000000,4.000000,4.000000,50.000000
1613957541.931032,14.000000,0.000000,-0.455960,-15.977416,-7.636020,-2.483226,-7.534101,-4.018917,-11.731912,-0.474177,-12.424623,-13.379879,-19.171642,-35.005741,-24.478207,-6.765190,-21.577269,-19.180296,-23.086260,-16.622208,-16.938854,-15.855298,-0.487047,-11.030183,-25.975828,-1.655995,-0.719471,-8.842163,-6.035491,-8.640744,-6.058526,-10.290056,-11.382589,-0.572116,0.000000,151.000000,4.000000,,,,0.000000,2.000000,4.000000,4.000000,4.000000,4.000000,4.000000,4.000000,4.000000,4.000000,4.000000,2.000000,2.000000,4.000000,4.000000,4.000000,4.000000,4.000000,4.000000,4.000000,4.000000,4.000000,4.000000,4.000000,4.000000,4.000000,4.000000,4.000000,4.000000,4.000000,4.000000,4.000000,4.000000,50.000000
1613957541.938681,15.000000,0.000000,0.570137,-16.474258,-2.500179,-3.506384,3.755484,-5.040539,-12.233000,0.039117,-9.848095,-7.212653,-19.152472,-24.714327,-21.889626,-6.245604,-23.094152,-20.186756,-21.011892,-20.708149,-24.614222,-17.377903,-19.460918,-11.531974,-22.360107,1.422584,1.332531,-8.320500,-6.029456,-8.632103,-6.052467,-7.715663,-11.371206,3.018200,0.000000,152.000000,4.000000,,,,0.000000,2.000000,4.000000,4.000000,4.000000,4.000000,4.000000,4.000000,4.000000,4.000000,4.000000,2.000000,2.000000,4.000000,4.000000,4.000000,4.000000,4.000000,4.000000,4.000000,4.000000,4.000000,4.000000,4.000000,4.000000,4.000000,4.000000,4.000000,4.000000,4.000000,4.000000,4.000000,4.000000,50.000000
1613957541.946430,16.000000,0.000000,-0.456074,-15.944964,-1.984858,-5.554160,7.341473,-4.522678,-11.707947,0.551899,-4.710042,-3.102876,-18.107677,-0.074228,-20.329275,-9.316281,-20.506956,-18.115288,-17.401136,-20.687441,-26.640890,-17.360525,-30.723509,-11.007621,-16.183903,-0.630121,-6.873930,-9.337821,-6.023427,-9.136292,-6.046415,-12.836153,-11.872656,-5.702767,0.000000,191.000000,4.000000,,,,0.000000,2.000000,4.000000,4.000000,4.000000,4.000000,4.000000,4.000000,4.000000,4.000000,4.000000,2.000000,2.000000,4.000000,4.000000,4.000000,4.000000,4.000000,4.000000,4.000000,4.000000,4.000000,4.000000,4.000000,4.000000,4.000000,4.000000,4.000000,4.000000,4.000000,4.000000,4.000000,4.000000,50.000000
1613957541.954080,17.000000,0.000000,-0.455618,-16.954660,-19.418770,-12.215272,-15.229972,-9.646360,-11.183418,-3.038397,-7.269434,-8.740799,-19.628031,4.028410,-20.821766,-18.537735,-13.306961,-13.481788,-6.614504,-21.179573,-25.075788,-12.214960,-28.128683,-8.432510,-10.013872,-6.270516,-15.585005,-9.328484,-6.530223,-8.614335,-8.604471,-19.489983,-12.373604,-19.030397,0.000000,191.000000,4.000000,,,,0.000000,2.000000,4.000000,4.000000,4.000000,4.000000,4.000000,4.000000,4.000000,4.000000,4.000000,2.000000,2.000000,4.000000,4.000000,4.000000,4.000000,4.000000,4.000000,4.000000,4.000000,4.000000,4.000000,4.000000,4.000000,4.000000,4.000000,4.000000,4.000000,4.000000,4.000000,4.000000,4.000000,50.000000
1613957541.961929,18.000000,0.000000,6.211504,-16.424885,-19.399351,-11.690236,-19.317307,-12.713637,-13.223516,-8.163564,-9.826267,-12.321801,-20.121223,-20.078182,-18.749662,-21.083300,-10.216731,-12.955485,4.161341,-17.055830,-25.050713,-6.561720,-26.049273,-7.398438,-7.952576,-6.777066,-16.082239,-8.806334,-6.523694,-8.092899,-10.134328,-18.444853,-10.822768,-20.549829,0.000000,213.000000,4.000000,,,,0.000000,2.000000,4.000000,4.000000,4.000000,4.000000,4.000000,4.000000,4.000000,4.000000,4.000000,2.000000,2.000000,4.000000,4.000000,4.000000,4.000000,4.000000,4.000000,4.000000,4.000000,4.000000,4.000000,4.000000,4.000000,4.000000,4.000000,4.000000,4.000000,4.000000,4.000000,4.000000,4.000000,50.000000
1613957541.969678,19.000000,0.000000,12.359139,-15.895639,-5.533799,-13.729828,-6.477476,-12.188103,-12.184652,-8.155400,-8.277980,-10.771018,-14.460077,-36.981182,-13.602707,-14.395550,-11.744976,-11.916889,9.798205,-10.884928,-25.538483,-5.016696,-26.023222,-7.391039,-7.944623,-5.744648,-15.040517,-9.310349,-6.004349,-11.161730,-10.124194,-15.862305,-13.888868,-18.477997,0.000000,209.000000,4.000000,,,,0.000000,2.000000,4.000000,4.000000,4.000000,4.000000,4.000000,4.000000,4.000000,4.000000,4.000000,2.000000,2.000000,4.000000,4.000000,4.000000,4.000000,4.000000,4.000000,4.000000,4.000000,4.000000,4.000000,4.000000,4.000000,4.000000,4.000000,4.000000,4.000000,4.000000,4.000000,4.000000,4.000000,50.000000
1613957541.977527,20.000000,0.000000,6.705754,-21.007950,-17.835957,-31.151997,-21.855614,-20.381042,-10.634007,-7.121603,-17.500471,-15.375632,-12.394335,-29.251892,-13.589105,-20.535000,-11.733232,-13.956254,6.711484,-19.079172,-28.589867,-6.037321,-24.971560,-7.896468,-7.423858,-5.738904,-15.538297,-11.865141,-7.023986,-15.765953,-15.755095,-20.974648,-26.695492,-23.074903,0.000000,186.000000,4.000000,,,,0.000000,2.000000,4.000000,4.000000,4.000000,4.000000,4.000000,4.000000,4.000000,4.000000,4.000000,2.000000,2.000000,4.000000,4.000000,4.000000,4.000000,4.000000,4.000000,4.000000,4.000000,4.000000,4.000000,4.000000,4.000000,4.000000,4.000000,4.000000,4.000000,4.000000,4.000000,4.000000,4.000000,50.000000
1613957541.985277,21.000000,0.000000,0.032382,-24.063864,-37.305302,-39.325974,-44.397861,-31.642714,-20.879782,-13.268328,-30.816303,-23.565384,-20.587069,-13.838025,-19.216541,-38.976002,-15.311242,-28.814093,1.576567,-33.931889,-28.048456,-5.518463,-26.485048,-9.939854,-7.929255,-9.835729,-15.522758,-13.391737,-9.581064,-16.775827,-23.944468,-27.620340,-35.899567,-27.667213,0.000000,192.000000,4.000000,,,,0.000000,2.000000,4.000000,4.000000,4.000000,4.000000,4.000000,4.000000,4.000000,4.000000,4.000000,2.000000,2.000000,4.000000,4.000000,4.000000,4.000000,4.000000,4.000000,4.000000,4.000000,4.000000,4.000000,4.000000,4.000000,4.000000,4.000000,4.000000,4.000000,4.000000,4.000000,4.000000,4.000000,50.000000
1613957541.993126,22.000000,0.000000,0.032350,-19.424416,-33.165432,-25.440493,-39.225258,-29.046968,-31.628134,-14.280701,-27.195744,-21.490538,-22.104942,-7.670341,-17.658863,-34.834465,-19.398495,-34.426304,1.574991,-38.000519,-23.917843,-5.512944,-22.868820,-11.468375,-8.434146,-13.928457,-14.481595,-13.378345,-10.597124,-16.246231,-25.971806,-26.567078,-32.273922,-27.126726,0.000000,198.000000,4.000000,,,,0.000000,2.000000,4.000000,4.000000,4.000000,4.000000,4.000000,4.000000,4.000000,4.000000,4.000000,2.000000,2.000000,4.000000,4.000000,4.000000,4.000000,4.000000,4.000000,4.000000,4.000000,4.000000,4.000000,4.000000,4.000000,4.000000,4.000000,4.000000,4.000000,4.000000,4.000000,4.000000,4.000000,50.000000
1613957542.000875,23.000000,0.000000,0.545138,-16.840889,-25.952778,-14.645821,-25.852699,-19.274332,-23.391376,-5.035651,-14.348036,-12.751098,-11.313607,-8.175490,-8.923256,-5.568860,-14.250891,-14.391878,1.060595,-31.808672,-21.842644,-6.020252,-8.486977,-11.456907,-7.912891,-13.914529,-7.800447,-12.339326,-10.073707,-16.742805,-22.868912,-22.437946,-26.087803,-25.048317,0.000000,177.000000,4.000000,,,,0.000000,2.000000,4.000000,4.000000,4.000000,4.000000,4.000000,4.000000,4.000000,4.000000,4.000000,2.000000,2.000000,4.000000,4.000000,4.000000,4.000000,4.000000,4.000000,4.000000,4.000000,4.000000,4.000000,4.000000,4.000000,4.000000,4.000000,4.000000,4.000000,4.000000,4.000000,4.000000,4.000000,50.000000
1613957542.008724,24.000000,0.000000,0.031772,-16.311228,-24.388365,-16.169636,-19.160179,-14.126852,-8.496191,1.123231,-12.282405,-6.584500,-6.174089,-6.628854,-4.298948,10.846966,-2.954589,2.032770,-4.068671,-15.879428,-12.077211,-6.014232,3.316382,-11.445450,-8.930619,-11.849332,4.515047,-10.275704,-10.063633,-12.623499,-18.743479,-20.364227,-22.471972,-22.971987,0.000000,193.000000,4.000000,,,,0.000000,2.000000,4.000000,4.000000,4.000000,4.000000,4.000000,4.000000,4.000000,4.000000,4.000000,2.000000,2.000000,4.000000,4.000000,4.000000,4.000000,4.000000,4.000000,4.000000,4.000000,4.000000,4.000000,4.000000,4.000000,4.000000,4.000000,4.000000,4.000000,4.000000,4.000000,4.000000,4.000000,50.000000
1613957542.016473,25.000000,0.000000,3.621484,-10.141070,-13.594746,-14.102185,-9.910250,-10.010161,-7.462053,0.096467,-13.295764,-1.449711,-7.706376,-10.724789,-5.320290,12.374580,1.663751,5.620481,-7.141525,7.726195,8.447686,-6.008217,3.313066,-11.434005,-13.024253,-9.786201,12.715659,-8.726967,-10.053570,-7.995491,-14.622170,-13.677197,-17.834116,-20.384912,0.000000,206.000000,4.000000,,,,0.000000,2.000000,4.000000,4.000000,4.000000,4.000000,4.000000,4.000000,4.000000,4.000000,4.000000,2.000000,2.000000,4.000000,4.000000,4.000000,4.000000,4.000000,4.000000,4.000000,4.000000,4.000000,4.000000,4.000000,4.000000,4.000000,4.000000,4.000000,4.000000,4.000000,4.000000,4.000000,4.000000,50.000000
1613957542.024322,26.000000,0.000000,2.079401,-3.977083,-7.940125,-10.498339,-3.233673,-7.948869,-8.993052,-0.929271,-9.692724,3.167124,-7.698670,-13.278167,-5.314970,15.439129,-0.389195,12.281528,-6.621563,21.051802,16.644367,-6.002209,1.258471,-11.422571,-16.088152,-1.058466,12.190124,-8.718241,-10.043516,-10.551598,-13.581907,-4.432750,-14.739358,-18.826065,0.000000,181.000000,4.000000,,,,0.000000,2.000000,4.000000,4.000000,4.000000,4.000000,4.000000,4.000000,4.000000,4.000000,4.000000,2.000000,2.000000,4.000000,4.000000,4.000000,4.000000,4.000000,4.000000,4.000000,4.000000,4.000000,4.000000,4.000000,4.000000,4.000000,4.000000,4.000000,4.000000,4.000000,4.000000,4.000000,4.000000,50.000000
1613957542.032071,27.000000,0.000000,-7.666268,-4.998747,-13.573211,-12.026302,-5.281722,-8.453740,-7.445598,0.610120,-8.144570,3.163956,-8.716612,8.786393,-5.309654,11.321125,0.124014,12.782066,-6.102121,11.287161,8.422594,-5.996207,0.744392,-11.411148,-15.046423,9.711823,9.101010,-8.709522,-10.033472,-12.079508,-14.081146,-6.992420,-15.237439,-19.320061,0.000000,226.000000,4.000000,,,,0.000000,2.000000,4.000000,4.000000,4.000000,4.000000,4.000000,4.000000,4.000000,4.000000,4.000000,2.000000,2.000000,4.000000,4.000000,4.000000,4.000000,4.000000,4.000000,4.000000,4.000000,4.000000,4.000000,4.000000,4.000000,4.000000,4.000000,4.000000,4.000000,4.000000,4.000000,4.000000,4.000000,50.000000
1613957542.039920,28.000000,0.000000,-11.248345,-5.506569,-14.585279,-11.501455,-4.250799,-8.958107,-15.130461,0.609510,-9.162066,4.186433,-10.759178,25.700684,-5.304345,2.591856,-0.388930,-3.640972,-6.096019,-9.236947,-0.303777,-5.990211,-5.923019,-10.886916,-12.467274,7.138009,3.963704,-10.239274,-10.023438,-8.990505,-13.554244,-15.703376,-15.222201,-18.787920,0.000000,165.000000,4.000000,,,,0.000000,2.000000,4.000000,4.000000,4.000000,4.000000,4.000000,4.000000,4.000000,4.000000,4.000000,2.000000,2.000000,4.000000,4.000000,4.000000,4.000000,4.000000,4.000000,4.000000,4.000000,4.000000,4.000000,4.000000,4.000000,4.000000,4.000000,4.000000,4.000000,4.000000,4.000000,4.000000,4.000000,50.000000
1613957542.047669,29.000000,0.000000,-8.160174,-5.501062,-18.160437,-8.413031,-5.785009,-8.436329,-26.910202,-1.955202,-8.640084,1.105324,-12.286880,2.598060,-5.299040,-0.487659,-7.568028,-13.893742,-6.602743,-21.535402,-7.995781,-5.984221,-22.840174,-11.388850,-11.941986,-5.689642,-11.937696,-12.793138,-10.013415,-11.545617,-14.053511,-19.277416,-15.719800,-19.794773,0.000000,157.000000,4.000000,,,,0.000000,2.000000,4.000000,4.000000,4.000000,4.000000,4.000000,4.000000,4.000000,4.000000,4.000000,2.000000,2.000000,4.000000,4.000000,4.000000,4.000000,4.000000,4.000000,4.000000,4.000000,4.000000,4.000000,4.000000,4.000000,4.000000,4.000000,4.000000,4.000000,4.000000,4.000000,4.000000,4.000000,50.000000
1613957542.055518,30.000000,0.000000,-7.126373,-9.598125,-28.911507,-14.045644,-20.138199,-10.991995,-25.857651,-6.568632,-13.759649,-14.280396,-16.889978,-18.430180,-10.421947,-12.282043,-13.714307,-13.367027,-6.083320,-20.488226,-16.705734,-5.978237,-40.766052,-13.428743,-13.981326,-13.376260,-28.848835,-13.293165,-10.516222,-16.149456,-17.116381,-22.335062,-22.370747,-25.928823,0.000000,173.000000,4.000000,,,,0.000000,2.000000,4.000000,4.000000,4.000000,4.000000,4.000000,4.000000,4.000000,4.000000,4.000000,2.000000,2.000000,4.000000,4.000000,4.000000,4.000000,4.000000,4.000000,4.000000,4.000000,4.000000,4.000000,4.000000,4.000000,4.000000,4.000000,4.000000,4.000000,4.000000,4.000000,4.000000,4.000000,50.000000
1613957542.063268,31.000000,0.000000,-6.093606,-12.152630,-26.831314,-21.211084,-31.912933,-14.057926,-17.626665,-8.100525,-24.002300,-28.112270,-19.950010,-7.642518,-17.078192,-32.782581,-16.264694,-20.533148,-3.513134,-20.467737,-19.253130,-5.972258,-43.802208,-14.953776,-16.018627,-13.875704,-27.281525,-12.767051,-9.480065,-14.082025,-17.612083,-25.389650,-26.963760,-27.441357,0.000000,191.000000,4.000000,,,,0.000000,2.000000,4.000000,4.000000,4.000000,4.000000,4.000000,4.000000,4.000000,4.000000,4.000000,2.000000,2.000000,4.000000,4.000000,4.000000,4.000000,4.000000,4.000000,4.000000,4.000000,4.000000,4.000000,4.000000,4.000000,4.000000,4.000000,4.000000,4.000000,4.000000,4.000000,4.000000,4.000000,50.000000
1613957542.071116,32.000000,0.000000,-3.010589,-10.089195,-12.445508,-14.010386,-25.214354,-10.454124,-15.044935,-8.092424,-21.414194,-20.904671,-18.904419,-0.968209,-16.035473,-39.929287,-16.761251,-24.102358,-1.971159,-24.037014,-18.208237,-5.966286,-39.143021,-14.938823,-15.489788,-13.349008,-16.485012,-13.267104,-7.419303,-12.529481,-18.620113,-22.800158,-23.347054,-22.285709,8064.000000,0.000000,4.000000,,,,0.000000,2.000000,4.000000,4.000000,4.000000,4.000000,4.000000,4.000000,4.000000,4.000000,4.000000,2.000000,2.000000,4.000000,4.000000,4.000000,4.000000,4.000000,4.000000,4.000000,4.000000,4.000000,4.000000,4.000000,4.000000,4.000000,4.000000,4.000000,4.000000,4.000000,4.000000,4.000000,4.000000,50.000000
1613957542.078866,33.000000,0.000000,-4.033219,-8.540645,-6.279216,-2.201505,-13.394267,-3.264183,-16.568352,-7.571511,-5.495345,-3.447869,-19.398336,2.622503,-9.865590,-30.145767,-8.026541,-8.180820,-2.482009,-13.756566,-18.190027,-5.960320,-35.514133,-15.436704,-10.346093,-14.874121,-16.468527,-13.766658,-5.873422,-12.004131,-17.575851,-22.264538,-16.657040,-20.212143,8064.000000,0.000000,4.000000,,,,0.000000,2.000000,4.000000,4.000000,4.000000,4.000000,4.000000,4.000000,4.000000,4.000000,4.000000,2.000000,2.000000,4.000000,4.000000,4.000000,4.000000,4.000000,4.000000,4.000000,4.000000,4.000000,4.000000,4.000000,4.000000,4.000000,4.000000,4.000000,4.000000,4.000000,4.000000,4.000000,4.000000,50.000000
1613957542.086615,34.000000,0.000000,-3.003545,-9.557745,-9.862680,-1.173662,-13.380873,-1.722458,-15.526143,-3.974196,3.228099,3.222246,-19.378937,21.081419,-6.778802,-14.218186,4.801999,10.801720,-2.479527,0.103344,-18.684658,-6.467180,-23.683748,-15.421268,-5.207541,-13.833606,-12.862315,-11.701610,-6.380369,-5.325460,-10.891609,-19.678169,-8.948075,-17.115007,8064.000000,0.000000,4.000000,,,,0.000000,2.000000,4.000000,4.000000,4.000000,4.000000,4.000000,4.000000,4.000000,4.000000,4.000000,2.000000,2.000000,4.000000,4.000000,4.000000,4.000000,4.000000,4.000000,4.000000,4.000000,4.000000,4.000000,4.000000,4.000000,4.000000,4.000000,4.000000,4.000000,4.000000,4.000000,4.000000,4.000000,50.000000
1613957542.094364,35.000000,0.000000,4.178946,-9.035366,-8.314356,-0.659668,-14.905953,-2.233556,-14.997796,0.132342,1.686410,1.680562,-13.718533,17.983416,-6.772023,1.693468,7.361300,13.867842,-2.989868,-3.999323,-16.101871,-6.973533,-5.711347,-12.328923,-4.176693,-10.742848,5.099265,-6.048882,-6.886809,-0.191930,-3.701231,-7.863620,0.291642,-6.328661,8064.000000,0.000000,4.000000,,,,0.000000,2.000000,4.000000,4.000000,4.000000,4.000000,4.000000,4.000000,4.000000,4.000000,4.000000,2.000000,2.000000,4.000000,4.000000,4.000000,4.000000,4.000000,4.000000,4.000000,4.000000,4.000000,4.000000,4.000000,4.000000,4.000000,4.000000,4.000000,4.000000,4.000000,4.000000,4.000000,4.000000,50.000000
1613957542.102013,36.000000,0.000000,8.790152,-8.513511,-2.665016,5.494838,-4.634637,2.384063,-16.008440,0.132210,4.248826,3.730164,-7.550968,-11.778158,-5.739610,8.358441,6.328297,11.289871,-4.012519,-9.123529,-11.470385,-6.966560,1.473851,-10.778132,-4.685337,-8.168003,16.889038,-2.453089,-5.854282,-2.755841,-2.159068,2.400654,3.881094,0.857154,8064.000000,0.000000,4.000000,,,,0.000000,2.000000,4.000000,4.000000,4.000000,4.000000,4.000000,4.000000,4.000000,4.000000,4.000000,2.000000,2.000000,4.000000,4.000000,4.000000,4.000000,4.000000,4.000000,4.000000,4.000000,4.000000,4.000000,4.000000,4.000000,4.000000,4.000000,4.000000,4.000000,4.000000,4.000000,4.000000,4.000000,50.000000
1613957542.109762,37.000000,0.000000,5.704438,-9.530638,-0.098249,5.489343,8.190511,6.997063,-11.377047,-0.380743,7.321500,6.803357,-7.030597,-18.433046,-5.221050,7.837262,7.347610,14.355504,-5.546968,-0.909277,-10.433273,-6.959593,3.010839,-13.331457,-7.244754,-3.031630,15.333687,-2.450636,-2.771504,-5.317187,-3.182550,2.911074,2.851572,-0.682164,8064.000000,0.000000,4.000000,,,,0.000000,2.000000,4.000000,4.000000,4.000000,4.000000,4.000000,4.000000,4.000000,4.000000,4.000000,2.000000,2.000000,4.000000,4.000000,4.000000,4.000000,4.000000,4.000000,4.000000,4.000000,4.000000,4.000000,4.000000,4.000000,4.000000,4.000000,4.000000,4.000000,4.000000,4.000000,4.000000,4.000000,50.000000
1613957542.117411,38.000000,0.000000,3.134631,-7.982646,-1.636612,-1.182813,10.233602,5.451604,-4.699003,-0.380362,3.211614,6.283732,-8.049208,-3.542819,-7.267111,6.803784,-2.916148,10.751405,-9.131165,-2.959650,-12.986943,-3.362890,6.597572,-9.728382,-8.263150,4.150889,14.292712,0.628737,0.821011,-4.799049,-2.666547,0.856881,2.848721,-1.194303,8064.000000,0.000000,4.000000,,,,0.000000,2.000000,4.000000,4.000000,4.000000,4.000000,4.000000,4.000000,4.000000,4.000000,4.000000,2.000000,2.000000,4.000000,4.000000,4.000000,4.000000,4.000000,4.000000,4.000000,4.000000,4.000000,4.000000,4.000000,4.000000,4.000000,4.000000,4.000000,4.000000,4.000000,4.000000,4.000000,4.000000,50.000000
1613957542.125160,39.000000,0.000000,4.157137,-3.359278,-0.609334,-1.694451,7.146445,4.933332,-4.181483,-0.379982,2.182762,8.328731,-8.041158,-0.462353,-3.157279,6.796980,-8.041437,3.048346,-3.993828,-6.033614,-2.204725,7.409704,10.180717,3.101859,-4.665143,7.223661,15.304061,5.243493,1.333010,-4.794250,-2.663880,2.394485,3.358692,-0.680288,8064.000000,0.000000,4.000000,,,,0.000000,2.000000,4.000000,4.000000,4.000000,4.000000,4.000000,4.000000,4.000000,4.000000,4.000000,2.000000,2.000000,4.000000,4.000000,4.000000,4.000000,4.000000,4.000000,4.000000,4.000000,4.000000,4.000000,4.000000,4.000000,4.000000,4.000000,4.000000,4.000000,4.000000,4.000000,4.000000,4.000000,50.000000
1613957542.132809,40.000000,0.000000,4.152980,-1.304637,2.468198,2.409808,12.267504,6.979681,-7.767045,-0.379602,7.821605,13.448607,-7.520297,-5.077275,9.666390,12.431209,10.428143,12.788887,11.907601,16.536522,19.848763,22.274090,19.914127,11.303885,-0.557914,10.293361,14.775936,6.263891,0.818857,-5.302277,-3.174037,1.879270,2.329693,-0.679607,8064.000000,0.000000,4.000000,,,,0.000000,2.000000,4.000000,4.000000,4.000000,4.000000,4.000000,4.000000,4.000000,4.000000,4.000000,2.000000,2.000000,4.000000,4.000000,4.000000,4.000000,4.000000,4.000000,4.000000,4.000000,4.000000,4.000000,4.000000,4.000000,4.000000,4.000000,4.000000,4.000000,4.000000,4.000000,4.000000,4.000000,50.000000
1613957542.140559,41.000000,0.000000,3.123186,-4.380256,-0.611193,1.381757,13.280877,2.357317,-8.272099,-0.892043,7.813783,14.460800,-8.025597,-1.995275,17.349031,18.572624,28.879253,32.263279,19.588001,33.955883,27.008400,30.969763,28.612162,11.292582,-1.070177,18.488195,13.735519,5.231986,1.330858,-5.809795,-1.119581,1.364571,2.327363,-1.191748,8064.000000,0.000000,4.000000,,,,0.000000,2.000000,4.000000,4.000000,4.000000,4.000000,4.000000,4.000000,4.000000,4.000000,4.000000,2.000000,2.000000,4.000000,4.000000,4.000000,4.000000,4.000000,4.000000,4.000000,4.000000,4.000000,4.000000,4.000000,4.000000,4.000000,4.000000,4.000000,4.000000,4.000000,4.000000,4.000000,4.000000,50.000000
1613957542.148208,42.000000,0.000000,2.607243,-5.914337,-5.225966,-1.183727,5.575289,-1.747604,-7.751006,0.134491,2.677764,11.369416,-8.530392,-2.506100,16.306042,16.502769,28.850374,35.820759,15.978670,26.229620,18.776264,31.451614,19.865601,10.768469,-1.069107,24.110733,13.721784,5.226754,0.816707,-5.291165,0.420000,0.850386,1.812215,-3.241839,8192.000000,0.000000,4.000000,,,,0.000000,2.000000,4.000000,4.000000,4.000000,4.000000,4.000000,4.000000,4.000000,4.000000,4.000000,2.000000,2.000000,4.000000,4.000000,4.000000,4.000000,4.000000,4.000000,4.000000,4.000000,4.000000,4.000000,4.000000,4.000000,4.000000,4.000000,4.000000,4.000000,4.000000,4.000000,4.000000,4.000000,50.000000
1613957542.155957,43.000000,0.000000,3.630276,-4.882782,-2.656638,-1.695364,8.646637,4.920810,-8.256076,2.185638,5.239189,11.870867,-6.983399,-9.170260,16.289736,19.050369,29.847164,33.733654,21.090897,26.203390,19.783129,31.420162,9.589325,10.757700,0.983244,23.060982,14.220882,5.734347,0.815890,-4.773053,0.419580,0.849535,2.323223,-4.777058,8192.000000,0.000000,4.000000,,,,0.000000,2.000000,4.000000,4.000000,4.000000,4.000000,4.000000,4.000000,4.000000,4.000000,4.000000,2.000000,2.000000,4.000000,4.000000,4.000000,4.000000,4.000000,4.000000,4.000000,4.000000,4.000000,4.000000,4.000000,4.000000,4.000000,4.000000,4.000000,4.000000,4.000000,4.000000,4.000000,4.000000,50.000000
1613957542.163606,44.000000,0.000000,3.113826,-5.390719,2.474224,-1.180848,18.894400,13.121017,-8.760640,3.721914,12.413437,15.448740,-2.361032,-7.109808,17.299088,32.364651,38.022446,45.494793,32.351856,38.484879,27.455652,34.978485,15.220761,12.798224,-1.069021,23.037920,13.693841,4.702972,3.379177,-5.793921,0.419161,1.361506,2.320900,-2.208179,8064.000000,0.000000,4.000000,,,,0.000000,2.000000,4.000000,4.000000,4.000000,4.000000,4.000000,4.000000,4.000000,4.000000,4.000000,2.000000,2.000000,4.000000,4.000000,4.000000,4.000000,4.000000,4.000000,4.000000,4.000000,4.000000,4.000000,4.000000,4.000000,4.000000,4.000000,4.000000,4.000000,4.000000,4.000000,4.000000,4.000000,50.000000
1613957542.171355,45.000000,0.000000,2.597891,-5.385329,2.471750,-1.179667,15.285763,13.107896,-8.239058,3.205372,12.401024,16.971752,-0.307389,10.333199,15.743326,35.922031,41.574165,58.782631,35.396427,43.061779,29.992300,42.635815,17.769642,16.887991,-1.067952,23.527702,13.680147,5.723910,4.914259,-4.249665,-0.094079,0.847324,1.805759,-0.667509,8192.000000,0.000000,4.000000,,,,0.000000,2.000000,4.000000,4.000000,4.000000,4.000000,4.000000,4.000000,4.000000,4.000000,4.000000,2.000000,2.000000,4.000000,4.000000,4.000000,4.000000,4.000000,4.000000,4.000000,4.000000,4.000000,4.000000,4.000000,4.000000,4.000000,4.000000,4.000000,4.000000,4.000000,4.000000,4.000000,4.000000,50.000000
1613957542.179004,46.000000,0.000000,8.749140,-5.379943,1.956457,0.359974,7.578169,11.556327,-8.743640,3.202166,11.875802,16.441959,-0.819902,16.989532,16.753223,27.168159,39.994129,56.159748,35.873852,42.505898,29.962307,42.593178,11.085206,16.358282,6.112603,22.478533,16.230570,8.282289,4.396524,0.882789,0.931656,-0.179164,2.829594,-1.179662,8064.000000,0.000000,4.000000,,,,0.000000,2.000000,4.000000,4.000000,4.000000,4.000000,4.000000,4.000000,4.000000,4.000000,4.000000,2.000000,2.000000,4.000000,4.000000,4.000000,4.000000,4.000000,4.000000,4.000000,4.000000,4.000000,4.000000,4.000000,4.000000,4.000000,4.000000,4.000000,4.000000,4.000000,4.000000,4.000000,4.000000,50.000000
1613957542.186753,47.000000,0.000000,17.458340,-5.374563,2.467321,2.410896,12.185975,13.083232,-7.709256,3.198964,12.376746,16.425518,-0.819082,-4.053098,15.710830,23.551249,33.800289,41.744614,28.658491,31.181339,24.291319,23.063406,11.074121,9.162436,4.055209,23.481697,18.265621,9.299647,4.392128,1.394727,7.084570,3.923579,7.442149,-1.178482,8064.000000,0.000000,4.000000,,,,0.000000,2.000000,4.000000,4.000000,4.000000,4.000000,4.000000,4.000000,4.000000,4.000000,4.000000,2.000000,2.000000,4.000000,4.000000,4.000000,4.000000,4.000000,4.000000,4.000000,4.000000,4.000000,4.000000,4.000000,4.000000,4.000000,4.000000,4.000000,4.000000,4.000000,4.000000,4.000000,4.000000,50.000000
1613957542.194403,48.000000,0.000000,18.979342,-5.369189,2.464854,2.408485,15.763533,13.070148,-4.111803,2.682945,11.851549,16.921913,-1.331083,-23.023405,5.438709,24.553339,18.894695,26.831074,10.168294,11.662979,9.908053,-2.087862,7.986124,-0.590316,-14.410385,22.432573,17.221714,8.777528,4.387736,-3.222052,11.692870,10.586322,10.511630,-1.177304,8064.000000,0.000000,4.000000,,,,0.000000,2.000000,4.000000,4.000000,4.000000,4.000000,4.000000,4.000000,4.000000,4.000000,4.000000,2.000000,2.000000,4.000000,4.000000,4.000000,4.000000,4.000000,4.000000,4.000000,4.000000,4.000000,4.000000,4.000000,4.000000,4.000000,4.000000,4.000000,4.000000,4.000000,4.000000,4.000000,4.000000,50.000000
1613957542.202252,49.000000,0.000000,15.883440,-5.363820,2.462389,2.406077,16.260590,12.544258,-1.030768,2.680262,14.916621,16.904991,-0.304111,-18.384996,-4.310319,22.990324,6.055288,21.676037,-1.123926,9.087214,3.744300,-9.265261,0.285830,-11.871777,-25.678026,16.256294,17.717314,8.768750,4.383348,-5.782933,10.142716,11.601377,8.449837,-1.176127,8064.000000,0.000000,4.000000,,,,0.000000,2.000000,4.000000,4.000000,4.000000,4.000000,4.000000,4.000000,4.000000,4.000000,4.000000,2.000000,2.000000,4.000000,4.000000,4.000000,4.000000,4.000000,4.000000,4.000000,4.000000,4.000000,4.000000,4.000000,4.000000,4.000000,4.000000,4.000000,4.000000,4.000000,4.000000,4.000000,4.000000,50.000000
1613957542.210001,50.000000,0.000000,14.329095,-5.358456,2.459927,2.403671,20.859715,12.531713,-0.516917,2.677581,21.055550,21.503471,2.260296,-13.751226,-3.793189,23.480154,3.997951,22.167181,-0.609981,19.334536,11.945683,-7.204714,7.465032,-14.936828,-22.575424,10.599012,20.263699,8.759981,4.378965,-4.751509,7.568471,12.102596,5.877284,-1.174950,8064.000000,0.000000,4.000000,,,,0.000000,2.000000,4.000000,4.000000,4.000000,4.000000,4.000000,4.000000,4.000000,4.000000,4.000000,2.000000,2.000000,4.000000,4.000000,4.000000,4.000000,4.000000,4.000000,4.000000,4.000000,4.000000,4.000000,4.000000,4.000000,4.000000,4.000000,4.000000,4.000000,4.000000,4.000000,4.000000,4.000000,50.000000
1613957542.217850,51.000000,0.000000,7.648099,-5.353097,2.457467,2.401267,22.890137,12.519182,-3.593323,2.674904,23.598597,28.661455,0.719574,-12.199014,-2.250934,23.456673,3.993953,16.503988,-5.737576,18.289560,17.061943,-10.787252,20.790899,-7.742404,-21.014387,10.588414,21.781897,8.751222,4.374586,-5.259578,8.073723,18.757160,5.871407,-1.173775,8064.000000,0.000000,4.000000,,,,0.000000,2.000000,4.000000,4.000000,4.000000,4.000000,4.000000,4.000000,4.000000,4.000000,4.000000,2.000000,2.000000,4.000000,4.000000,4.000000,4.000000,4.000000,4.000000,4.000000,4.000000,4.000000,4.000000,4.000000,4.000000,4.000000,4.000000,4.000000,4.000000,4.000000,4.000000,4.000000,4.000000,50.000000
1613957542.225599,52.000000,0.000000,4.050707,-5.347744,2.455009,2.398865,23.380066,12.506663,-8.205114,2.159408,23.062178,31.196896,-0.306787,-5.007328,-5.325606,21.894754,-0.625426,6.743895,-12.911325,12.630245,16.019239,-5.135440,23.334211,-5.683380,-19.454912,12.116287,21.247293,8.742470,4.370211,-5.767139,7.552829,24.379429,5.865535,-1.172602,8064.000000,0.000000,4.000000,,,,0.000000,2.000000,4.000000,4.000000,4.000000,4.000000,4.000000,4.000000,4.000000,4.000000,4.000000,2.000000,2.000000,4.000000,4.000000,4.000000,4.000000,4.000000,4.000000,4.000000,4.000000,4.000000,4.000000,4.000000,4.000000,4.000000,4.000000,4.000000,4.000000,4.000000,4.000000,4.000000,4.000000,50.000000
1613957542.233448,53.000000,0.000000,11.738965,-5.342396,2.965375,2.396467,30.536175,12.494156,-7.171268,6.259813,22.526295,32.191341,5.847366,-14.745910,-0.192075,30.590809,2.452123,5.198689,-7.257389,12.617615,22.669888,10.254312,26.387800,-4.139235,-12.255970,10.565709,20.713226,8.220907,4.365841,-5.248551,7.545276,23.329409,5.859670,-0.658609,8064.000000,0.000000,4.000000,,,,0.000000,2.000000,4.000000,4.000000,4.000000,4.000000,4.000000,4.000000,4.000000,4.000000,4.000000,2.000000,2.000000,4.000000,4.000000,4.000000,4.000000,4.000000,4.000000,4.000000,4.000000,4.000000,4.000000,4.000000,4.000000,4.000000,4.000000,4.000000,4.000000,4.000000,4.000000,4.000000,4.000000,50.000000
1613957542.241197,54.000000,0.000000,18.906713,-5.337054,2.962409,2.394070,37.685123,12.481662,0.528211,13.433041,23.529411,37.800175,10.969724,-35.756805,17.244015,50.047398,19.885569,20.065287,9.672945,22.348587,32.390808,18.449184,35.079361,4.582853,-9.166791,10.042323,21.205334,8.212687,4.361475,-5.243303,10.101833,22.280437,5.853810,-0.145129,8064.000000,0.000000,4.000000,,,,0.000000,2.000000,4.000000,4.000000,4.000000,4.000000,4.000000,4.000000,4.000000,4.000000,4.000000,2.000000,2.000000,4.000000,4.000000,4.000000,4.000000,4.000000,4.000000,4.000000,4.000000,4.000000,4.000000,4.000000,4.000000,4.000000,4.000000,4.000000,4.000000,4.000000,4.000000,4.000000,4.000000,50.000000
1613957542.249046,55.000000,0.000000,18.374985,-5.331717,1.933806,2.391676,38.160259,12.469180,6.681529,19.573454,25.044342,42.890579,10.445933,-26.490280,26.970360,61.792221,42.942604,49.275990,29.150452,45.915981,37.999443,28.174326,38.121204,8.680835,-5.567881,14.647665,23.235411,11.281397,3.844293,-5.238060,10.604552,23.796619,6.360777,-1.170625,8064.000000,0.000000,4.000000,,,,0.000000,2.000000,4.000000,4.000000,4.000000,4.000000,4.000000,4.000000,4.000000,4.000000,4.000000,2.000000,2.000000,4.000000,4.000000,4.000000,4.000000,4.000000,4.000000,4.000000,4.000000,4.000000,4.000000,4.000000,4.000000,4.000000,4.000000,4.000000,4.000000,4.000000,4.000000,4.000000,4.000000,50.000000
1613957542.256795,56.000000,0.000000,15.792508,-5.326385,3.470334,2.389284,37.096458,12.456711,5.649207,21.605162,26.557760,42.334869,9.409846,2.254160,26.430569,61.217609,59.822739,73.842102,42.454636,68.434166,47.192211,48.146152,37.570263,13.287539,6.232559,21.299685,24.750637,11.782935,4.866090,-5.232821,6.491383,21.721540,5.841596,-0.143814,8192.000000,0.000000,4.000000,,,,0.000000,2.000000,4.000000,4.000000,4.000000,4.000000,4.000000,4.000000,4.000000,4.000000,4.000000,2.000000,2.000000,4.000000,4.000000,4.000000,4.000000,4.000000,4.000000,4.000000,4.000000,4.000000,4.000000,4.000000,4.000000,4.000000,4.000000,4.000000,4.000000,4.000000,4.000000,4.000000,4.000000,50.000000
1613957542.264644,57.000000,0.000000,15.263895,-5.321059,2.954043,2.899716,37.572182,12.444255,-1.023109,21.583557,26.531202,41.266891,10.426078,10.457034,34.609268,60.130753,67.455223,79.409279,45.489101,71.442657,54.837326,65.021080,37.019871,27.120405,15.457096,23.842487,24.725885,12.796794,6.912506,-5.227589,3.407969,16.058792,6.348574,-0.143670,8064.000000,0.000000,4.000000,,,,0.000000,2.000000,4.000000,4.000000,4.000000,4.000000,4.000000,4.000000,4.000000,4.000000,4.000000,2.000000,2.000000,4.000000,4.000000,4.000000,4.000000,4.000000,4.000000,4.000000,4.000000,4.000000,4.000000,4.000000,4.000000,4.000000,4.000000,4.000000,4.000000,4.000000,4.000000,4.000000,4.000000,50.000000
1613957542.272393,58.000000,0.000000,14.222990,-5.315738,-4.741219,2.383996,38.560253,12.944631,-7.688753,21.561974,26.504671,41.738445,9.902831,8.908115,47.907990,61.096260,70.464691,78.817055,45.956436,65.217369,54.269669,64.956062,35.957211,38.375336,15.441639,21.767363,24.701160,16.886560,8.444055,-5.222361,3.917381,15.017093,6.855046,-7.835834,8192.000000,0.000000,4.000000,,,,0.000000,2.000000,4.000000,4.000000,4.000000,4.000000,4.000000,4.000000,4.000000,4.000000,4.000000,2.000000,2.000000,4.000000,4.000000,4.000000,4.000000,4.000000,4.000000,4.000000,4.000000,4.000000,4.000000,4.000000,4.000000,4.000000,4.000000,4.000000,4.000000,4.000000,4.000000,4.000000,4.000000,50.000000
1613957542.280242,59.000000,0.000000,14.208767,-6.848884,-12.428785,-0.695312,35.444767,10.367583,-8.706705,22.053232,26.990986,42.209526,9.892928,8.899207,47.860081,61.547985,67.317307,79.763878,45.910477,66.690613,54.728222,51.044952,36.434074,35.260036,10.810813,22.258415,24.676458,19.946598,7.922791,-5.217138,3.913464,18.078999,2.232807,-18.084408,8192.000000,0.000000,4.000000,,,,0.000000,2.000000,4.000000,4.000000,4.000000,4.000000,4.000000,4.000000,4.000000,4.000000,4.000000,2.000000,2.000000,4.000000,4.000000,4.000000,4.000000,4.000000,4.000000,4.000000,4.000000,4.000000,4.000000,4.000000,4.000000,4.000000,4.000000,4.000000,4.000000,4.000000,4.000000,4.000000,4.000000,50.000000
1613957542.287991,60.000000,0.000000,14.707378,-9.918958,-12.929177,-4.284360,29.768297,8.305934,-6.646717,19.979897,24.912714,39.603214,9.883036,-5.468667,37.042992,57.896694,53.403835,65.325134,33.556877,67.136742,49.545288,32.019547,33.833538,25.994007,5.671797,26.851542,23.626141,17.875368,7.914868,-5.211921,3.396730,18.573740,-6.487375,-20.630426,8064.000000,0.000000,4.000000,,,,0.000000,2.000000,4.000000,4.000000,4.000000,4.000000,4.000000,4.000000,4.000000,4.000000,4.000000,2.000000,2.000000,4.000000,4.000000,4.000000,4.000000,4.000000,4.000000,4.000000,4.000000,4.000000,4.000000,4.000000,4.000000,4.000000,4.000000,4.000000,4.000000,4.000000,4.000000,4.000000,4.000000,50.000000
1613957542.295840,61.000000,0.000000,11.615748,-8.370577,-10.864965,-4.280076,30.251350,9.323269,-5.614429,17.395815,23.349339,37.512329,9.873153,-13.155505,26.236717,50.146488,34.376072,41.670071,14.548960,55.274734,30.008562,19.167015,23.030474,17.250065,2.076381,29.901613,24.115335,14.780570,7.906953,-5.206709,3.906154,19.067987,-9.044991,-17.532873,8064.000000,0.000000,4.000000,,,,0.000000,2.000000,4.000000,4.000000,4.000000,4.000000,4.000000,4.000000,4.000000,4.000000,4.000000,2.000000,2.000000,4.000000,4.000000,4.000000,4.000000,4.000000,4.000000,4.000000,4.000000,4.000000,4.000000,4.000000,4.000000,4.000000,4.000000,4.000000,4.000000,4.000000,4.000000,4.000000,4.000000,50.000000
1613957542.303589,62.000000,0.000000,7.501568,-3.234002,-10.854100,-4.788616,29.708279,8.801126,-4.583173,16.865599,23.325991,37.474819,9.863279,5.319189,19.030994,44.455318,23.572464,32.397629,8.893385,39.322025,21.260605,15.558105,15.827956,10.053328,2.074305,26.281969,24.091221,16.817072,7.899046,-5.201503,4.927888,19.561739,-6.984663,-18.540981,8064.000000,0.000000,4.000000,,,,0.000000,2.000000,4.000000,4.000000,4.000000,4.000000,4.000000,4.000000,4.000000,4.000000,4.000000,2.000000,2.000000,4.000000,4.000000,4.000000,4.000000,4.000000,4.000000,4.000000,4.000000,4.000000,4.000000,4.000000,4.000000,4.000000,4.000000,4.000000,4.000000,4.000000,4.000000,4.000000,4.000000,50.000000
1613957542.311338,63.000000,0.000000,6.468426,-1.179486,-11.868888,-8.886392,21.473442,4.176939,-5.091411,17.361553,20.738562,36.924522,9.340595,16.083099,18.499142,43.898041,20.984789,34.416515,10.935774,35.692959,38.162422,18.619469,24.530077,9.017633,2.072231,21.640301,23.554308,20.902819,7.891147,-3.145019,3.897320,18.003717,-9.541781,-22.625004,8064.000000,0.000000,4.000000,,,,0.000000,2.000000,4.000000,4.000000,4.000000,4.000000,4.000000,4.000000,2.000000,4.000000,4.000000,2.000000,2.000000,4.000000,4.000000,4.000000,4.000000,4.000000,4.000000,4.000000,4.000000,4.000000,4.000000,4.000000,4.000000,4.000000,4.000000,4.000000,4.000000,4.000000,4.000000,4.000000,4.000000,50.000000
1613957542.319088,64.000000,0.000000,7.487598,-1.178306,-11.344198,-6.826223,28.118635,8.788147,-8.676063,17.344191,20.717823,37.913239,10.356896,-0.343239,21.044746,45.905426,25.066368,37.459023,8.360735,42.323933,57.611439,29.882900,45.018368,16.188103,1.557338,24.182764,27.633318,23.958839,7.883255,-1.090592,4.406243,22.601097,-11.583521,-21.576738,0.000000,146.000000,4.000000,,,,0.000000,2.000000,4.000000,4.000000,4.000000,4.000000,4.000000,4.000000,2.000000,4.000000,4.000000,2.000000,2.000000,4.000000,4.000000,4.000000,4.000000,4.000000,4.000000,4.000000,4.000000,4.000000,4.000000,4.000000,4.000000,4.000000,4.000000,4.000000,4.000000,4.000000,4.000000,4.000000,4.000000,50.000000
1613957542.326737,65.000000,0.000000,5.428829,-0.151487,-8.768751,-3.742474,44.500774,16.984488,-7.641746,16.814026,23.774029,43.003532,12.910642,-10.599306,22.049343,48.936443,36.836174,50.754894,12.967759,55.102119,64.733315,44.724812,63.947708,25.915504,1.555780,32.363708,36.836452,23.422060,7.362552,-1.602322,5.427478,29.757984,-10.033476,-19.503880,0.000000,226.000000,4.000000,,,,0.000000,2.000000,4.000000,4.000000,4.000000,4.000000,4.000000,4.000000,2.000000,4.000000,4.000000,2.000000,2.000000,4.000000,4.000000,4.000000,4.000000,4.000000,4.000000,4.000000,4.000000,4.000000,4.000000,4.000000,4.000000,4.000000,4.000000,4.000000,4.000000,4.000000,4.000000,4.000000,4.000000,50.000000
1613957542.334486,66.000000,0.000000,6.961862,-4.766720,-16.965111,-13.995141,34.199863,11.326477,0.058204,17.310034,19.134869,46.037449,13.923372,-1.357938,22.027292,51.964428,51.671131,74.806702,28.339407,76.072662,70.822426,57.500603,71.063248,28.966513,2.067045,38.998013,43.466286,19.808895,8.380831,-1.600720,-1.244617,24.600021,-17.715750,-29.740786,0.000000,203.000000,4.000000,,,,0.000000,2.000000,4.000000,4.000000,4.000000,4.000000,4.000000,4.000000,2.000000,4.000000,4.000000,2.000000,2.000000,4.000000,4.000000,4.000000,4.000000,4.000000,4.000000,4.000000,4.000000,4.000000,4.000000,4.000000,4.000000,4.000000,4.000000,4.000000,4.000000,4.000000,4.000000,4.000000,4.000000,50.000000
1613957542.342135,67.000000,0.000000,10.544643,-11.428619,-37.460968,-25.776018,9.037457,-3.043824,1.083787,16.779903,10.397786,43.940132,13.396628,7.361369,22.518085,52.425285,61.363052,92.680618,40.105938,93.432487,77.418274,64.622589,62.274235,27.399084,4.116260,41.010296,44.448460,16.199341,11.449372,-1.086298,-9.961321,15.857471,-33.595470,-42.531559,0.000000,192.000000,4.000000,,,,0.000000,2.000000,4.000000,4.000000,4.000000,4.000000,4.000000,4.000000,2.000000,4.000000,4.000000,2.000000,2.000000,4.000000,4.000000,4.000000,4.000000,4.000000,4.000000,4.000000,4.000000,4.000000,4.000000,4.000000,4.000000,4.000000,4.000000,4.000000,4.000000,4.000000,4.000000,4.000000,4.000000,50.000000
1613957542.349884,68.000000,0.000000,5.918714,-12.955653,-48.705555,-26.263063,5.951497,-7.143344,-4.558323,17.275944,14.489952,44.409012,13.383231,12.482212,22.495567,52.372860,67.455536,97.716141,40.578655,93.339050,76.315208,67.122070,48.878628,28.910147,9.240349,38.918003,39.275806,15.157501,10.925102,-3.136494,-11.489820,14.815973,-38.690079,-46.078770,0.000000,199.000000,4.000000,,,,0.000000,2.000000,4.000000,4.000000,4.000000,4.000000,4.000000,4.000000,2.000000,4.000000,4.000000,2.000000,2.000000,4.000000,4.000000,4.000000,4.000000,4.000000,4.000000,4.000000,4.000000,4.000000,4.000000,4.000000,4.000000,4.000000,4.000000,4.000000,4.000000,4.000000,4.000000,4.000000,4.000000,50.000000
1613957542.357533,69.000000,0.000000,3.348693,-13.455518,-48.656853,-28.288082,12.612211,-5.084918,-4.553764,17.258667,23.706232,45.390244,13.369848,19.136396,22.473072,52.320488,72.003464,90.951759,39.512436,81.963661,68.033768,67.054947,42.675903,29.394056,18.461878,36.827805,28.980120,15.655165,8.862896,-5.184640,-9.939870,10.185773,-37.112930,-58.340382,0.000000,212.000000,4.000000,,,,0.000000,2.000000,4.000000,4.000000,4.000000,4.000000,4.000000,4.000000,2.000000,4.000000,4.000000,2.000000,2.000000,4.000000,4.000000,4.000000,4.000000,4.000000,4.000000,4.000000,4.000000,4.000000,4.000000,4.000000,4.000000,4.000000,4.000000,4.000000,4.000000,4.000000,4.000000,4.000000,4.000000,50.000000
1613957542.365282,70.000000,0.000000,13.601754,-17.031805,-53.736401,-33.900818,11.061138,-6.105475,-5.062031,16.728588,21.631243,35.088444,12.843657,17.578798,22.450600,53.293808,72.444283,81.630035,41.011383,74.189392,62.837528,65.962250,43.658867,27.313381,24.597261,36.790977,22.797293,15.126689,9.879674,-5.179455,-10.442750,3.508920,-41.691200,-74.179482,0.000000,194.000000,4.000000,,,,0.000000,2.000000,4.000000,4.000000,4.000000,4.000000,4.000000,4.000000,2.000000,4.000000,4.000000,2.000000,2.000000,4.000000,4.000000,4.000000,4.000000,4.000000,4.000000,4.000000,4.000000,4.000000,4.000000,4.000000,4.000000,4.000000,4.000000,4.000000,4.000000,4.000000,4.000000,4.000000,4.000000,50.000000
1613957542.372932,71.000000,0.000000,22.306101,-20.091698,-58.810867,-33.354099,12.588538,-6.612190,-8.133892,18.250320,18.532688,25.822586,13.343635,3.202246,22.428148,54.778976,72.371834,77.445839,44.047295,73.089561,61.236229,59.742439,43.102390,28.824530,24.572664,35.728542,23.800137,15.624382,11.921076,-5.174276,-10.432307,7.095155,-45.239254,-71.028374,0.000000,182.000000,4.000000,,,,0.000000,2.000000,4.000000,4.000000,4.000000,4.000000,4.000000,4.000000,2.000000,4.000000,4.000000,2.000000,2.000000,4.000000,4.000000,4.000000,4.000000,4.000000,4.000000,4.000000,4.000000,4.000000,4.000000,4.000000,4.000000,4.000000,4.000000,4.000000,4.000000,4.000000,4.000000,4.000000,4.000000,50.000000
1613957542.380681,72.000000,0.000000,21.770975,-19.558784,-57.726418,-34.346386,14.627232,-5.579937,-0.946271,20.796173,19.026978,37.591633,15.381573,-7.570187,22.405720,56.775478,70.248184,74.291473,44.516068,67.888268,53.995506,48.400646,34.854160,28.282885,20.958349,32.615894,24.289158,15.608758,12.421975,-4.656281,-12.473157,12.216265,-43.142731,-69.931709,0.000000,217.000000,4.000000,,,,0.000000,2.000000,4.000000,4.000000,4.000000,4.000000,4.000000,4.000000,2.000000,4.000000,4.000000,2.000000,2.000000,4.000000,4.000000,4.000000,4.000000,4.000000,4.000000,4.000000,4.000000,4.000000,4.000000,4.000000,4.000000,4.000000,4.000000,4.000000,4.000000,4.000000,4.000000,4.000000,4.000000,50.000000
1613957542.388330,73.000000,0.000000,20.723562,-19.539227,-60.745613,-42.004345,12.048502,-5.574357,6.746983,20.775377,18.495129,51.400196,16.904654,6.796358,21.870495,54.154602,59.921524,57.806927,40.881809,50.897301,39.582539,36.044556,24.562895,17.485371,20.424570,31.557636,22.726406,15.080329,10.871092,-5.164445,-18.101709,11.691228,-45.150871,-87.810493,0.000000,157.000000,4.000000,,,,0.000000,4.000000,4.000000,4.000000,4.000000,4.000000,4.000000,4.000000,2.000000,4.000000,4.000000,2.000000,2.000000,4.000000,4.000000,4.000000,4.000000,4.000000,4.000000,4.000000,4.000000,4.000000,4.000000,4.000000,4.000000,4.000000,4.000000,4.000000,4.000000,4.000000,4.000000,4.000000,4.000000,50.000000
1613957542.396079,74.000000,0.000000,19.677198,-19.519688,-62.736149,-44.526443,13.062095,-5.568782,1.099210,20.754602,22.066378,51.348797,16.887749,31.404945,20.822983,44.869678,43.964165,30.569632,39.302464,35.461788,31.850647,25.752100,19.922947,7.724295,21.429787,34.090179,23.216501,15.578069,4.706375,-5.159281,-21.160530,10.653895,-47.669823,-94.902168,0.000000,218.000000,4.000000,,,,0.000000,4.000000,4.000000,4.000000,4.000000,4.000000,4.000000,4.000000,2.000000,4.000000,4.000000,2.000000,2.000000,4.000000,4.000000,4.000000,4.000000,4.000000,4.000000,4.000000,4.000000,4.000000,4.000000,4.000000,4.000000,4.000000,4.000000,4.000000,4.000000,4.000000,4.000000,4.000000,4.000000,50.000000
1613957542.403728,75.000000,0.000000,18.119059,-18.987347,-64.724693,-42.430637,15.613135,-5.563213,-5.568556,21.246668,28.710978,51.810268,16.358040,28.296618,21.827801,36.106857,28.022766,9.000600,37.211880,29.272480,33.357258,20.085321,18.877382,8.742212,17.818613,28.415064,24.218925,15.049670,0.086284,-4.128480,-21.139370,11.156062,-46.083691,-92.243164,0.000000,206.000000,4.000000,,,,0.000000,4.000000,4.000000,4.000000,4.000000,4.000000,4.000000,4.000000,2.000000,4.000000,4.000000,2.000000,2.000000,4.000000,4.000000,4.000000,4.000000,4.000000,4.000000,4.000000,4.000000,4.000000,4.000000,4.000000,4.000000,4.000000,4.000000,4.000000,4.000000,4.000000,4.000000,4.000000,4.000000,50.000000
1613957542.411477,76.000000,0.000000,19.126581,-19.481180,-80.557404,-48.029232,14.571880,-4.532009,-4.537346,19.686960,27.656626,50.219997,14.290401,3.140116,21.293152,28.891264,14.148589,7.453138,26.405437,27.191925,31.785439,18.013954,20.396967,8.220649,10.108486,16.078957,23.169065,11.957698,0.086197,-5.662813,-21.118231,12.170547,-51.165813,-107.535538,0.000000,172.000000,4.000000,,,,0.000000,4.000000,4.000000,4.000000,4.000000,4.000000,4.000000,4.000000,2.000000,4.000000,4.000000,2.000000,2.000000,4.000000,4.000000,4.000000,4.000000,4.000000,4.000000,4.000000,4.000000,4.000000,4.000000,4.000000,4.000000,4.000000,4.000000,4.000000,4.000000,4.000000,4.000000,4.000000,4.000000,50.000000
1613957542.419126,77.000000,0.000000,20.645916,-22.025801,-96.374283,-58.750431,12.506027,-6.578759,-3.507168,17.615990,22.500765,37.862083,12.224828,-6.093793,20.246218,27.323912,14.134441,27.445684,18.686726,34.857040,35.343399,24.662607,27.556057,7.186788,3.944532,14.011597,23.658716,7.843176,-0.939530,-10.785356,-21.097113,11.645556,-63.422340,-125.889542,0.000000,194.000000,4.000000,,,,0.000000,4.000000,4.000000,4.000000,4.000000,4.000000,4.000000,4.000000,2.000000,4.000000,4.000000,2.000000,2.000000,4.000000,4.000000,4.000000,4.000000,4.000000,4.000000,4.000000,4.000000,4.000000,4.000000,4.000000,4.000000,4.000000,4.000000,4.000000,4.000000,4.000000,4.000000,4.000000,4.000000,50.000000
1613957542.426976,78.000000,0.000000,21.138090,-23.029417,-96.790733,-64.332710,10.955059,-8.623463,-5.042122,19.136835,21.965443,35.772942,14.263885,1.091788,29.456741,43.194023,36.171589,57.674648,30.462910,60.463211,57.872158,45.663586,39.836193,22.051395,7.530331,17.587328,30.301725,6.809692,1.625512,-12.825852,-21.076015,10.095449,-68.999939,-129.353394,0.000000,156.000000,4.000000,,,,0.000000,4.000000,4.000000,4.000000,4.000000,4.000000,4.000000,4.000000,2.000000,4.000000,4.000000,2.000000,4.000000,4.000000,4.000000,4.000000,4.000000,4.000000,4.000000,4.000000,4.000000,4.000000,4.000000,4.000000,4.000000,4.000000,4.000000,4.000000,4.000000,4.000000,4.000000,4.000000,4.000000,66.666664
1613957542.434725,79.000000,0.000000,20.604132,-23.006388,-98.745224,-66.832474,11.969746,-8.102018,-5.037080,20.656160,22.969118,49.070499,18.865005,7.244542,49.427284,68.279037,67.417465,88.899025,49.919628,89.633514,82.942490,68.694847,53.129692,39.978062,16.240749,21.672304,35.399628,11.931087,13.418758,-12.300206,-21.054939,14.700738,-68.418121,-130.249680,0.000000,140.000000,4.000000,,,,0.000000,4.000000,4.000000,4.000000,4.000000,4.000000,4.000000,4.000000,2.000000,4.000000,4.000000,2.000000,4.000000,4.000000,4.000000,4.000000,4.000000,4.000000,4.000000,4.000000,4.000000,4.000000,4.000000,4.000000,4.000000,4.000000,4.000000,4.000000,4.000000,4.000000,4.000000,4.000000,4.000000,66.666664
1613957542.442574,80.000000,0.000000,18.019426,-22.983381,-109.415710,-66.765648,13.496237,-11.170839,-5.032043,20.635504,22.433329,57.226559,20.897423,18.006529,62.711189,79.492805,89.401337,115.989616,62.177399,105.441315,94.654419,78.369743,62.307331,45.066288,20.839893,34.471146,35.364227,20.637104,22.636108,-12.800726,-20.521065,21.865524,-67.836884,-137.811737,0.000000,193.000000,4.000000,,,,0.000000,4.000000,4.000000,4.000000,4.000000,4.000000,4.000000,4.000000,2.000000,4.000000,4.000000,2.000000,4.000000,4.000000,4.000000,4.000000,4.000000,4.000000,4.000000,4.000000,4.000000,4.000000,4.000000,4.000000,4.000000,4.000000,4.000000,4.000000,4.000000,4.000000,4.000000,4.000000,4.000000,66.666664
1613957542.450323,81.000000,0.000000,17.488586,-22.960398,-115.972961,-68.750160,6.816074,-17.826336,-6.565473,21.127689,21.898075,54.605228,20.876526,22.603907,63.674122,78.387672,94.440140,119.463371,66.217789,107.387161,96.098228,77.778549,63.783485,45.534042,20.306232,50.334110,35.841686,23.693390,23.639114,-12.275105,-19.987722,22.869301,-67.256226,-154.084183,0.000000,192.000000,4.000000,,,,0.000000,4.000000,4.000000,4.000000,4.000000,4.000000,4.000000,4.000000,2.000000,4.000000,4.000000,2.000000,4.000000,4.000000,4.000000,4.000000,4.000000,4.000000,4.000000,4.000000,4.000000,4.000000,4.000000,4.000000,4.000000,4.000000,4.000000,4.000000,4.000000,4.000000,4.000000,4.000000,4.000000,66.666664
1613957542.458173,82.000000,0.000000,22.086481,-22.424616,-125.600578,-80.476280,-5.498434,-19.859791,-8.610189,21.106562,18.799253,47.371136,18.804367,3.094123,60.533524,78.309288,90.243134,100.369545,66.151566,102.664383,84.720078,75.136665,62.181240,47.539791,20.798748,53.873520,36.318665,18.541492,23.615475,-9.698728,-21.506197,19.256687,-73.855637,-174.955734,0.000000,199.000000,4.000000,,,,0.000000,4.000000,4.000000,4.000000,4.000000,4.000000,4.000000,4.000000,2.000000,4.000000,4.000000,2.000000,4.000000,4.000000,4.000000,4.000000,4.000000,4.000000,4.000000,4.000000,4.000000,4.000000,4.000000,4.000000,4.000000,4.000000,4.000000,4.000000,4.000000,4.000000,4.000000,4.000000,4.000000,66.666664
1613957542.465922,83.000000,0.000000,24.628498,-22.402191,-139.321136,-94.754784,-12.159602,-20.352753,-8.088758,20.059814,15.703531,41.169918,17.759922,-8.703843,55.857605,77.205338,88.101608,87.961487,66.085419,98.971977,68.225098,69.420509,62.631878,46.979431,21.290770,51.255543,35.256702,15.446028,22.566219,-8.663387,-23.535973,19.750252,-88.140755,-183.498734,0.000000,184.000000,4.000000,,,,0.000000,4.000000,4.000000,4.000000,4.000000,4.000000,4.000000,4.000000,2.000000,4.000000,4.000000,2.000000,4.000000,4.000000,4.000000,4.000000,4.000000,4.000000,4.000000,4.000000,4.000000,4.000000,4.000000,4.000000,4.000000,4.000000,4.000000,4.000000,4.000000,4.000000,4.000000,4.000000,4.000000,66.666664
1613957542.473771,84.000000,0.000000,24.603868,-22.892611,-143.797195,-98.249771,-10.096161,-22.896502,-3.465285,23.116678,14.662187,42.667210,20.306265,11.817681,55.288929,75.076851,86.475044,88.386345,70.121895,97.334549,63.541489,63.197239,61.543606,47.445271,20.756659,51.204288,36.759911,16.969044,23.569294,-6.603442,-24.025257,20.243322,-95.232101,-179.725494,0.000000,181.000000,4.000000,,,,0.000000,4.000000,4.000000,4.000000,4.000000,4.000000,4.000000,4.000000,2.000000,4.000000,4.000000,2.000000,4.000000,4.000000,4.000000,4.000000,4.000000,4.000000,4.000000,4.000000,4.000000,4.000000,4.000000,4.000000,4.000000,4.000000,4.000000,4.000000,4.000000,4.000000,4.000000,4.000000,4.000000,66.666664
1613957542.481520,85.000000,0.000000,24.579266,-22.356897,-147.243134,-96.100235,-9.573244,-23.386425,-0.384897,25.657663,15.160345,44.675827,21.311598,22.575094,56.772099,67.309464,69.465492,73.938980,66.462029,80.314133,55.272820,52.877632,49.174370,42.269623,21.761541,53.717186,34.159046,12.849510,24.058544,-4.032736,-27.078156,10.992309,-93.085587,-190.315002,0.000000,190.000000,4.000000,,,,0.000000,4.000000,4.000000,4.000000,4.000000,4.000000,4.000000,4.000000,2.000000,4.000000,4.000000,2.000000,4.000000,4.000000,4.000000,4.000000,4.000000,4.000000,4.000000,4.000000,4.000000,4.000000,4.000000,4.000000,4.000000,4.000000,4.000000,4.000000,4.000000,4.000000,4.000000,4.000000,4.000000,66.666664
1613957542.489369,86.000000,0.000000,20.452122,-22.847361,-161.454865,-100.106705,-12.640594,-24.388680,-4.487076,16.401236,15.145185,33.349098,15.649261,11.783289,42.356354,46.216515,37.088333,41.557350,44.857105,47.926128,32.653446,33.850395,26.048271,24.278635,19.688498,46.996803,16.688990,0.016148,10.701153,-9.156909,-32.692101,-6.967402,-92.992500,-209.611862,0.000000,187.000000,4.000000,,,,0.000000,4.000000,4.000000,4.000000,4.000000,4.000000,4.000000,4.000000,2.000000,4.000000,4.000000,2.000000,4.000000,4.000000,4.000000,4.000000,4.000000,4.000000,4.000000,4.000000,4.000000,4.000000,4.000000,4.000000,4.000000,4.000000,4.000000,4.000000,4.000000,4.000000,4.000000,4.000000,4.000000,66.666664
1613957542.497119,87.000000,0.000000,16.841927,-24.875795,-172.062653,-104.621979,-16.730518,-31.030958,-8.072332,5.615604,14.104399,21.520878,9.479766,8.181762,18.211433,25.144655,9.358938,9.720922,26.350710,20.185894,19.287458,20.483212,5.509403,8.869740,10.950861,24.385704,-3.327699,-11.778740,-7.771087,-15.814419,-35.223511,-20.293768,-93.925148,-216.581741,0.000000,187.000000,4.000000,,,,0.000000,4.000000,4.000000,4.000000,4.000000,4.000000,4.000000,4.000000,2.000000,4.000000,4.000000,2.000000,4.000000,4.000000,4.000000,4.000000,4.000000,4.000000,4.000000,4.000000,4.000000,4.000000,4.000000,4.000000,4.000000,4.000000,4.000000,4.000000,4.000000,4.000000,4.000000,4.000000,4.000000,66.666664
1613957542.504967,88.000000,0.000000,20.927649,-26.389381,-168.300842,-104.004539,-18.252249,-34.589672,-6.012978,7.148450,11.526192,20.986536,7.419004,-3.621292,7.423991,17.940023,-2.445292,-7.724697,23.247437,12.986220,19.780991,19.437088,-2.701234,7.322409,5.298885,0.258753,-9.991038,-15.356705,-12.891521,-13.747322,-36.213932,-22.837576,-93.318405,-213.801056,0.000000,174.000000,4.000000,,,,0.000000,4.000000,4.000000,4.000000,4.000000,4.000000,4.000000,4.000000,2.000000,4.000000,4.000000,2.000000,4.000000,4.000000,4.000000,4.000000,4.000000,4.000000,4.000000,4.000000,4.000000,4.000000,4.000000,4.000000,4.000000,4.000000,4.000000,4.000000,4.000000,4.000000,4.000000,4.000000,4.000000,66.666664
1613957542.512717,89.000000,0.000000,25.009285,-26.362991,-161.465866,-102.874893,-17.208355,-31.478159,-3.955683,10.218225,11.001845,23.016832,5.873124,-30.797157,9.980669,17.922083,-1.930027,-3.101587,20.660088,21.691183,21.299671,18.392010,-4.236995,8.853548,4.267945,-6.920992,-8.955406,-13.802887,-10.827348,-13.733575,-38.229000,-21.276278,-92.199448,-211.535965,0.000000,187.000000,4.000000,,,,0.000000,4.000000,4.000000,4.000000,4.000000,4.000000,4.000000,4.000000,2.000000,4.000000,4.000000,2.000000,4.000000,4.000000,4.000000,4.000000,4.000000,4.000000,4.000000,4.000000,4.000000,4.000000,4.000000,4.000000,4.000000,4.000000,4.000000,4.000000,4.000000,4.000000,4.000000,4.000000,4.000000,66.666664
1613957542.520566,90.000000,0.000000,21.394531,-26.336628,-159.765945,-103.284836,-17.703968,-29.908218,-4.464548,9.182365,11.503664,21.968174,5.354430,-27.689438,9.970689,16.365700,11.405237,23.568182,15.511222,41.669491,29.483500,19.399258,-2.181476,6.280592,-1.890169,-5.375610,-9.459271,-13.789084,-11.329341,-19.360867,-39.216412,-21.767820,-92.620064,-209.785965,0.000000,186.000000,4.000000,,,,0.000000,4.000000,4.000000,4.000000,4.000000,4.000000,4.000000,4.000000,2.000000,4.000000,4.000000,2.000000,4.000000,4.000000,4.000000,4.000000,4.000000,4.000000,4.000000,4.000000,4.000000,4.000000,4.000000,4.000000,4.000000,4.000000,4.000000,4.000000,4.000000,4.000000,4.000000,4.000000,4.000000,66.666664
1613957542.528315,91.000000,0.000000,16.244932,-26.310291,-157.554901,-103.694374,-16.660622,-30.391130,-4.460083,10.711645,11.492160,21.946205,5.349076,3.620303,10.986359,17.887796,32.419472,47.134357,18.572634,55.986797,41.761707,32.713192,9.102757,8.838414,-7.529305,-0.242029,-9.962632,-15.313756,-9.266729,-19.854326,-38.151554,-22.258873,-93.040268,-210.089005,0.000000,171.000000,4.000000,,,,0.000000,4.000000,4.000000,4.000000,4.000000,4.000000,4.000000,4.000000,2.000000,4.000000,4.000000,2.000000,4.000000,4.000000,4.000000,4.000000,4.000000,4.000000,4.000000,4.000000,4.000000,4.000000,4.000000,4.000000,4.000000,4.000000,4.000000,4.000000,4.000000,4.000000,4.000000,4.000000,4.000000,66.666664
1613957542.536164,92.000000,0.000000,17.254328,-26.283981,-155.346054,-101.539398,-11.515757,-27.796637,-3.942803,13.777856,10.967848,21.924259,5.343727,9.257709,19.693321,26.587856,47.771667,51.702606,22.143805,56.956451,47.360973,46.013813,24.478270,20.624447,-0.342288,6.937700,-8.927029,-12.221519,-7.206181,-15.731908,-38.626221,-19.159693,-90.383125,-203.725067,0.000000,178.000000,4.000000,,,,0.000000,4.000000,4.000000,4.000000,4.000000,4.000000,4.000000,4.000000,2.000000,4.000000,4.000000,2.000000,4.000000,4.000000,4.000000,4.000000,4.000000,4.000000,4.000000,4.000000,4.000000,4.000000,4.000000,4.000000,4.000000,4.000000,4.000000,4.000000,4.000000,4.000000,4.000000,4.000000,4.000000,66.666664
1613957542.543913,93.000000,0.000000,22.365280,-26.257698,-154.165070,-99.386574,-8.427318,-25.717558,-3.938860,13.764078,11.469700,23.440798,6.364024,-7.161806,29.930038,37.330498,57.467487,58.830391,24.685762,67.155907,60.134125,47.506260,40.351227,31.373055,8.888824,13.597429,-8.405281,-4.516990,-5.660513,-15.203356,-38.587597,-12.986686,-85.164536,-188.136734,0.000000,163.000000,4.000000,,,,0.000000,4.000000,4.000000,4.000000,4.000000,4.000000,4.000000,4.000000,2.000000,4.000000,4.000000,2.000000,4.000000,4.000000,4.000000,4.000000,4.000000,4.000000,4.000000,4.000000,4.000000,4.000000,4.000000,4.000000,4.000000,4.000000,4.000000,4.000000,4.000000,4.000000,4.000000,4.000000,4.000000,66.666664
1613957542.551762,94.000000,0.000000,23.881376,-26.231440,-152.985260,-98.774368,-8.931711,-25.691841,-3.934921,13.750315,11.971051,22.391716,8.921762,-9.718746,34.002674,42.421375,62.538223,69.540794,38.507233,84.524643,75.458603,45.407471,50.567287,34.931423,10.418396,20.763319,-7.884056,-0.922730,-1.039468,-16.213793,-35.984905,-8.871136,-84.053726,-179.743469,0.000000,157.000000,4.000000,,,,0.000000,4.000000,4.000000,4.000000,4.000000,4.000000,4.000000,4.000000,2.000000,4.000000,4.000000,2.000000,4.000000,4.000000,4.000000,4.000000,4.000000,4.000000,4.000000,4.000000,4.000000,4.000000,4.000000,4.000000,4.000000,4.000000,4.000000,4.000000,4.000000,4.000000,4.000000,4.000000,4.000000,66.666664
1613957542.559511,95.000000,0.000000,23.857494,-26.205208,-150.781006,-99.188416,-9.948421,-27.204611,-4.956627,13.223743,10.420618,16.215477,9.938481,-8.170567,32.430206,40.840492,61.450047,60.240482,51.289238,77.260635,67.178017,47.413345,45.901333,35.409313,8.869516,26.383581,-8.388992,-1.947448,1.012854,-15.684759,-34.410458,-9.887905,-86.533775,-183.666290,0.000000,197.000000,4.000000,,,,0.000000,4.000000,4.000000,4.000000,4.000000,4.000000,4.000000,4.000000,2.000000,4.000000,4.000000,2.000000,4.000000,4.000000,4.000000,4.000000,4.000000,4.000000,4.000000,4.000000,4.000000,4.000000,4.000000,4.000000,4.000000,4.000000,4.000000,4.000000,4.000000,4.000000,4.000000,4.000000,4.000000,66.666664
1613957542.567160,96.000000,0.000000,24.859278,-25.666183,-150.630219,-98.576408,-12.502575,-28.715868,-9.054235,13.723340,8.358915,11.583878,9.928543,-9.700857,32.910599,40.286831,59.337315,44.795628,47.648205,58.209015,46.598022,45.827473,31.496458,32.809803,9.886288,25.331556,-8.380603,-1.945501,1.011841,-15.669074,-34.376049,-13.980581,-88.498528,-185.533905,8064.000000,0.000000,4.000000,,,,0.000000,4.000000,4.000000,4.000000,4.000000,4.000000,4.000000,4.000000,2.000000,4.000000,4.000000,2.000000,4.000000,4.000000,4.000000,4.000000,4.000000,4.000000,4.000000,4.000000,4.000000,4.000000,4.000000,4.000000,4.000000,4.000000,4.000000,4.000000,4.000000,4.000000,4.000000,4.000000,4.000000,66.666664
1613957542.574909,97.000000,0.000000,21.244675,-25.127695,-152.018051,-97.452187,-19.669559,-29.199972,-14.686206,13.709617,7.837736,11.059473,9.405794,6.206280,33.903328,43.323467,55.175411,42.699547,41.959530,53.535419,39.371937,40.653439,23.772655,25.597504,9.876401,22.229301,-7.859402,-2.969196,1.010829,-15.653405,-34.341671,-17.556345,-88.410027,-184.835541,8064.000000,0.000000,4.000000,,,,0.000000,4.000000,4.000000,4.000000,4.000000,4.000000,4.000000,4.000000,2.000000,4.000000,4.000000,2.000000,4.000000,4.000000,4.000000,4.000000,4.000000,4.000000,4.000000,4.000000,4.000000,4.000000,4.000000,4.000000,4.000000,4.000000,4.000000,4.000000,4.000000,4.000000,4.000000,4.000000,4.000000,66.666664
