title:21, start timestamp:1613958804.752386, stop timestamp:1613958850.659880, headset type:EPOCFLEX, headset serial:F00001ED, headset firmware:f12, subject name:s04, channels:75, sampling rate:128, samples:5924      , version:2.0
Timestamp,EEG.Counter,EEG.Interpolated,EEG.Cz,EEG.Fz,EEG.Fp1,EEG.AF3,EEG.F7,EEG.F3,EEG.FC1,EEG.C3,EEG.FC5,EEG.T7,EEG.CP5,EEG.CP1,EEG.P3,EEG.P7,EEG.PO3,EEG.O1,EEG.Pz,EEG.Oz,EEG.O2,EEG.PO4,EEG.P8,EEG.P4,EEG.CP2,EEG.CP6,EEG.T8,EEG.FC6,EEG.C4,EEG.FC2,EEG.F4,EEG.F8,EEG.AF4,EEG.Fp2,EEG.HighBitFlex,EEG.RawCq,EEG.Battery,MarkerIndex,MarkerType,MarkerValueInt,EEG.MarkerHardware,CQ.Cz,CQ.Fz,CQ.Fp1,CQ.AF3,CQ.F7,CQ.F3,CQ.FC1,CQ.C3,CQ.FC5,CQ.T7,CQ.CP5,CQ.CP1,CQ.P3,CQ.P7,CQ.PO3,CQ.O1,CQ.Pz,CQ.Oz,CQ.O2,CQ.PO4,CQ.P8,CQ.P4,CQ.CP2,CQ.CP6,CQ.T8,CQ.FC6,CQ.C4,CQ.FC2,CQ.F4,CQ.F8,CQ.AF4,CQ.Fp2,CQ.Overall
1613958804.752386,38.000000,0.000000,28.938671,23.822584,-5.663213,-10.329391,10.196881,6.833129,21.987473,18.842575,27.860527,30.346424,17.053930,8.957758,29.053595,25.851700,31.862162,23.453484,30.109648,16.624943,28.878792,26.065243,22.631571,16.554623,26.816504,28.525835,41.036991,28.705204,18.023233,9.152875,12.248278,25.134232,7.341214,-18.330402,8064.000000,0.000000,4.000000,,,,0.000000,2.000000,4.000000,4.000000,4.000000,4.000000,2.000000,2.000000,4.000000,2.000000,4.000000,4.000000,2.000000,4.000000,2.000000,4.000000,4.000000,4.000000,4.000000,4.000000,4.000000,4.000000,4.000000,4.000000,2.000000,2.000000,4.000000,4.000000,4.000000,4.000000,4.000000,4.000000,4.000000,50.000000
1613958804.760235,39.000000,0.000000,24.294348,16.619274,-8.221652,-10.831882,3.520018,4.775014,21.965485,12.157064,27.832666,20.059668,16.524055,6.384697,28.511721,20.697641,29.779016,21.378748,25.976974,17.121140,27.824272,20.398151,20.557657,14.486787,27.815329,28.497311,31.252365,24.573936,11.338544,8.118081,8.646286,22.544996,-5.486640,-21.388994,8064.000000,0.000000,4.000000,,,,0.000000,2.000000,4.000000,4.000000,4.000000,4.000000,2.000000,2.000000,4.000000,2.000000,4.000000,4.000000,2.000000,4.000000,2.000000,4.000000,4.000000,4.000000,4.000000,4.000000,4.000000,4.000000,4.000000,4.000000,2.000000,2.000000,4.000000,4.000000,4.000000,4.000000,4.000000,4.000000,4.000000,50.000000
1613958804.767984,40.000000,0.000000,24.270054,11.987271,-10.777533,-7.231307,-0.586066,-0.357966,21.943520,3.939780,27.804834,15.424224,16.507532,1.762928,28.483210,17.087200,24.108213,19.306087,28.515099,16.591198,28.309269,15.249548,25.152485,12.933839,27.787514,28.468813,34.810856,21.985260,17.993872,8.622784,9.150460,23.035271,-3.942692,-18.290684,8192.000000,0.000000,4.000000,,,,0.000000,2.000000,4.000000,4.000000,4.000000,4.000000,2.000000,2.000000,4.000000,2.000000,4.000000,4.000000,2.000000,4.000000,2.000000,4.000000,4.000000,4.000000,4.000000,4.000000,4.000000,4.000000,4.000000,4.000000,2.000000,2.000000,4.000000,4.000000,4.000000,4.000000,4.000000,4.000000,4.000000,50.000000
1613958804.775833,41.000000,0.000000,24.758604,18.641951,-5.125730,3.032335,6.081187,6.821879,21.921576,1.884558,27.777029,24.639568,16.491024,5.350909,28.454727,18.608576,23.571283,19.799603,30.537867,16.574606,28.280960,15.747119,34.870922,12.408084,27.246904,27.927523,50.160660,24.014555,29.770750,8.614161,13.756694,29.166082,12.984327,-9.041623,8192.000000,0.000000,4.000000,,,,0.000000,2.000000,4.000000,4.000000,4.000000,4.000000,2.000000,2.000000,4.000000,2.000000,4.000000,4.000000,2.000000,4.000000,2.000000,4.000000,4.000000,4.000000,4.000000,4.000000,4.000000,4.000000,4.000000,4.000000,2.000000,2.000000,4.000000,4.000000,4.000000,4.000000,4.000000,4.000000,4.000000,50.000000
1613958804.783582,42.000000,0.000000,23.708204,24.777155,1.033242,10.208790,11.716131,15.020185,21.899654,3.421135,28.262072,32.307236,18.525816,12.525045,30.477554,28.333557,25.598995,22.343904,31.020149,18.609314,27.739859,16.244192,33.810410,12.395676,27.219658,29.950878,52.161781,26.554644,30.766621,8.605547,17.332682,32.726658,20.150829,-3.904376,8064.000000,0.000000,4.000000,,,,0.000000,2.000000,4.000000,4.000000,4.000000,4.000000,2.000000,2.000000,4.000000,2.000000,4.000000,4.000000,2.000000,4.000000,2.000000,4.000000,4.000000,4.000000,4.000000,4.000000,4.000000,4.000000,4.000000,4.000000,2.000000,2.000000,4.000000,4.000000,4.000000,4.000000,4.000000,4.000000,4.000000,50.000000
1613958804.791431,43.000000,0.000000,23.171675,23.726736,1.032209,9.172940,9.653133,14.492345,21.877754,4.956175,26.695349,30.736467,20.558573,13.538161,32.498360,39.587273,27.624678,22.321562,33.040409,20.641987,27.199297,15.202308,20.443266,11.870460,27.192438,32.485031,39.801929,26.015268,26.633289,8.084121,16.802528,30.642651,17.566576,-6.977395,8064.000000,0.000000,4.000000,,,,0.000000,2.000000,4.000000,4.000000,4.000000,4.000000,2.000000,2.000000,4.000000,2.000000,4.000000,4.000000,2.000000,4.000000,2.000000,4.000000,4.000000,4.000000,4.000000,4.000000,4.000000,4.000000,4.000000,4.000000,2.000000,2.000000,4.000000,4.000000,4.000000,4.000000,4.000000,4.000000,4.000000,50.000000
1613958804.799180,44.000000,0.000000,24.174145,23.190189,2.056818,8.650947,10.156301,13.452211,21.855877,6.489681,24.104551,31.731373,21.050835,12.498981,32.465858,40.573326,31.186796,21.786419,34.033012,20.621344,27.684919,15.699925,16.320259,12.884231,27.165245,31.426903,36.172382,25.476433,27.119476,8.588857,16.785725,29.073547,18.574652,-5.944777,8192.000000,0.000000,4.000000,,,,0.000000,2.000000,4.000000,4.000000,4.000000,4.000000,2.000000,2.000000,4.000000,2.000000,4.000000,4.000000,2.000000,4.000000,2.000000,4.000000,4.000000,4.000000,4.000000,4.000000,4.000000,4.000000,4.000000,4.000000,2.000000,2.000000,4.000000,4.000000,4.000000,4.000000,4.000000,4.000000,4.000000,50.000000
1613958804.807029,45.000000,0.000000,24.662790,23.167000,4.106043,10.180758,11.171785,14.464400,22.346842,6.996011,24.080446,33.238102,20.516962,13.512124,31.920574,33.866089,34.745354,22.277452,33.998978,20.600723,28.170053,15.684226,19.380861,11.845705,27.650902,28.318554,40.751595,26.476597,27.092358,11.144371,18.820221,30.582935,19.068897,3.291937,8192.000000,0.000000,4.000000,,,,0.000000,2.000000,4.000000,4.000000,4.000000,4.000000,2.000000,2.000000,4.000000,2.000000,4.000000,4.000000,2.000000,4.000000,2.000000,4.000000,4.000000,4.000000,4.000000,4.000000,4.000000,4.000000,4.000000,4.000000,2.000000,2.000000,4.000000,4.000000,4.000000,4.000000,4.000000,4.000000,4.000000,50.000000
1613958804.814778,46.000000,0.000000,22.586847,20.579729,-0.513448,8.632115,6.032408,14.449936,21.811674,6.989016,24.056366,23.461275,20.496445,11.447330,32.401474,27.678375,35.223427,21.742355,32.939339,20.580122,26.603422,15.155721,9.617891,8.244116,26.597609,28.290236,35.069817,25.937300,23.988342,12.671688,14.698837,29.526711,15.972905,3.288646,8064.000000,0.000000,4.000000,,,,0.000000,2.000000,4.000000,4.000000,4.000000,4.000000,2.000000,2.000000,4.000000,2.000000,4.000000,4.000000,2.000000,4.000000,2.000000,4.000000,4.000000,4.000000,4.000000,4.000000,4.000000,4.000000,4.000000,4.000000,2.000000,2.000000,4.000000,4.000000,4.000000,4.000000,4.000000,4.000000,4.000000,50.000000
1613958804.822627,47.000000,0.000000,27.692465,19.533508,-4.615499,5.546560,-0.640291,13.922666,21.277042,6.982027,19.929745,17.283968,20.475948,8.871780,31.856251,22.522491,34.162563,21.207792,33.932041,20.046722,29.140923,18.217487,1.403145,10.799974,27.083832,27.749125,27.342440,23.347261,22.425892,11.120555,8.530293,28.471542,13.392830,-5.945413,8064.000000,0.000000,4.000000,,,,0.000000,2.000000,4.000000,4.000000,4.000000,4.000000,2.000000,2.000000,4.000000,2.000000,4.000000,4.000000,2.000000,4.000000,2.000000,4.000000,4.000000,4.000000,4.000000,4.000000,4.000000,4.000000,4.000000,4.000000,2.000000,2.000000,4.000000,4.000000,4.000000,4.000000,4.000000,4.000000,4.000000,50.000000
1613958804.830376,48.000000,0.000000,39.972466,20.026796,-1.021139,4.515372,-1.665292,13.908743,22.281406,6.975044,15.807252,24.446171,20.968294,8.862908,31.824394,21.474329,34.641224,23.750687,41.077595,22.590778,36.291267,23.840296,12.683793,20.019943,31.672132,24.644451,35.007404,21.785452,23.429108,12.647896,11.085865,30.494354,14.917898,-4.401006,8064.000000,0.000000,4.000000,,,,0.000000,2.000000,4.000000,4.000000,4.000000,4.000000,2.000000,2.000000,4.000000,2.000000,4.000000,4.000000,2.000000,4.000000,2.000000,4.000000,4.000000,4.000000,4.000000,4.000000,4.000000,4.000000,4.000000,4.000000,2.000000,2.000000,4.000000,4.000000,4.000000,4.000000,4.000000,4.000000,4.000000,50.000000
1613958804.838225,49.000000,0.000000,43.009415,20.006769,4.108087,5.023677,-0.637985,12.356372,21.233484,6.968069,16.304264,27.498648,18.896044,9.879686,32.305389,22.991316,35.632221,26.803860,45.139080,27.183571,40.357540,26.893379,25.491623,26.153770,36.255844,24.106987,45.228809,22.276487,23.918499,16.224991,12.613240,27.386936,14.390160,2.782883,8192.000000,0.000000,4.000000,,,,0.000000,2.000000,4.000000,4.000000,4.000000,4.000000,2.000000,2.000000,4.000000,2.000000,4.000000,4.000000,2.000000,4.000000,2.000000,4.000000,4.000000,4.000000,4.000000,4.000000,4.000000,4.000000,4.000000,4.000000,2.000000,2.000000,4.000000,4.000000,4.000000,4.000000,4.000000,4.000000,4.000000,50.000000
1613958804.845974,50.000000,0.000000,37.325378,19.473942,4.616799,5.018654,-1.150168,9.779913,14.032763,6.448281,16.287960,19.266022,16.825865,8.844166,31.760265,21.429863,33.545307,25.238594,39.452915,28.182030,38.778721,27.379307,25.466131,24.076334,34.681129,25.108521,41.593834,22.254210,19.792017,12.619022,1.831396,19.667242,8.221924,0.728818,8064.000000,0.000000,4.000000,,,,0.000000,2.000000,4.000000,4.000000,4.000000,4.000000,2.000000,2.000000,4.000000,2.000000,4.000000,4.000000,2.000000,4.000000,2.000000,4.000000,4.000000,4.000000,4.000000,4.000000,4.000000,4.000000,4.000000,4.000000,2.000000,2.000000,4.000000,4.000000,4.000000,4.000000,4.000000,4.000000,4.000000,50.000000
1613958804.853823,51.000000,0.000000,34.211132,19.967289,3.586541,4.500814,-1.661838,9.770133,10.428987,6.441833,16.271673,15.144191,16.296219,8.322501,32.241325,22.434074,34.537403,27.264637,38.900642,27.641026,38.739944,26.839106,23.902203,23.026617,33.620808,24.057772,38.475319,22.231956,15.669660,8.503839,-0.734538,19.647573,6.162420,1.240909,8064.000000,0.000000,4.000000,,,,0.000000,2.000000,4.000000,4.000000,4.000000,4.000000,2.000000,2.000000,4.000000,2.000000,4.000000,4.000000,2.000000,4.000000,2.000000,4.000000,4.000000,4.000000,4.000000,4.000000,4.000000,4.000000,4.000000,4.000000,2.000000,2.000000,4.000000,4.000000,4.000000,4.000000,4.000000,4.000000,4.000000,50.000000
1613958804.861572,52.000000,0.000000,35.715382,19.434500,5.634237,6.547596,0.391106,12.837286,14.521122,8.486672,20.870785,17.693150,17.305563,12.416742,34.773186,28.052666,40.143890,36.468143,45.015591,28.639027,39.726845,27.325089,25.416763,26.593334,38.202568,24.546534,43.565048,24.261005,20.782196,13.623541,14.137992,27.320234,13.335745,12.521720,8064.000000,0.000000,4.000000,,,,0.000000,2.000000,4.000000,4.000000,4.000000,4.000000,2.000000,2.000000,4.000000,2.000000,4.000000,4.000000,2.000000,4.000000,2.000000,4.000000,4.000000,4.000000,4.000000,4.000000,4.000000,4.000000,4.000000,4.000000,2.000000,2.000000,4.000000,4.000000,4.000000,4.000000,4.000000,4.000000,4.000000,50.000000
1613958804.869421,53.000000,0.000000,35.679668,19.927887,8.192705,8.592330,2.954817,13.337270,18.609165,10.529468,23.926838,17.162636,15.749797,11.378685,35.251236,28.537434,39.590927,35.918854,43.944931,25.020643,37.123016,27.297762,25.391346,21.951355,37.651546,28.111731,38.393280,26.288027,27.428080,15.661200,22.841803,28.831375,18.963434,14.047660,8064.000000,0.000000,4.000000,,,,0.000000,2.000000,4.000000,4.000000,4.000000,4.000000,2.000000,2.000000,4.000000,2.000000,4.000000,4.000000,2.000000,4.000000,2.000000,4.000000,4.000000,4.000000,4.000000,4.000000,4.000000,4.000000,4.000000,4.000000,2.000000,2.000000,4.000000,4.000000,4.000000,4.000000,4.000000,4.000000,4.000000,50.000000
1613958804.877270,54.000000,0.000000,32.567062,19.907959,5.620410,7.558097,2.951862,9.221368,17.564915,10.518939,21.338808,16.632652,13.169944,4.187819,31.626240,19.278128,29.807747,22.549601,38.259960,17.816135,31.957687,23.167900,24.853134,5.519148,25.819023,26.032337,23.483089,25.236097,24.323729,5.389128,18.716396,24.699980,17.406010,1.213099,8064.000000,0.000000,4.000000,,,,0.000000,2.000000,4.000000,4.000000,4.000000,4.000000,2.000000,2.000000,4.000000,2.000000,4.000000,4.000000,2.000000,4.000000,2.000000,4.000000,4.000000,4.000000,4.000000,4.000000,4.000000,4.000000,4.000000,4.000000,2.000000,2.000000,4.000000,4.000000,4.000000,4.000000,4.000000,4.000000,4.000000,50.000000
1613958804.885019,55.000000,0.000000,28.431932,19.375231,3.050687,3.960795,2.436090,6.135224,17.547350,10.508420,19.779009,16.616020,12.643953,2.132349,28.517691,14.643464,26.188196,17.398846,36.170422,15.747038,30.387268,19.042170,25.341101,-2.691500,18.100897,19.339638,18.844223,22.646759,19.171200,-0.770107,16.133577,25.188101,17.388603,-4.941960,8064.000000,0.000000,4.000000,,,,0.000000,2.000000,4.000000,4.000000,4.000000,4.000000,2.000000,2.000000,4.000000,2.000000,4.000000,4.000000,2.000000,4.000000,2.000000,4.000000,4.000000,4.000000,4.000000,4.000000,4.000000,4.000000,4.000000,4.000000,2.000000,2.000000,4.000000,4.000000,4.000000,4.000000,4.000000,4.000000,4.000000,50.000000
1613958804.892868,56.000000,0.000000,26.865040,19.868675,5.611739,4.982475,4.997756,6.641909,18.555443,10.497911,20.784870,17.112225,13.144131,8.284062,27.976353,18.731384,30.264570,24.048115,37.159889,16.756931,31.895342,19.023127,25.828581,2.952218,20.646898,16.243376,22.927942,22.111292,19.152029,3.333227,17.655905,26.701374,20.960958,3.780931,8064.000000,0.000000,4.000000,,,,0.000000,2.000000,4.000000,4.000000,4.000000,4.000000,2.000000,2.000000,4.000000,2.000000,4.000000,4.000000,2.000000,4.000000,2.000000,4.000000,4.000000,4.000000,4.000000,4.000000,4.000000,4.000000,4.000000,4.000000,2.000000,2.000000,4.000000,4.000000,4.000000,4.000000,4.000000,4.000000,4.000000,50.000000
1613958804.900617,57.000000,0.000000,27.863815,21.900089,9.708692,11.644159,7.044041,6.635267,18.024067,10.487413,20.251265,17.095112,13.130986,10.327061,27.948376,18.712654,31.259947,23.511246,37.122730,16.227354,29.812164,19.516924,24.777111,6.539009,23.190353,17.252773,24.956297,22.089182,20.158518,5.381176,17.125429,25.136211,21.965639,14.033560,8064.000000,0.000000,4.000000,,,,0.000000,2.000000,4.000000,4.000000,4.000000,4.000000,2.000000,2.000000,4.000000,2.000000,4.000000,4.000000,2.000000,4.000000,2.000000,4.000000,4.000000,4.000000,4.000000,4.000000,4.000000,4.000000,4.000000,4.000000,2.000000,2.000000,4.000000,4.000000,4.000000,4.000000,4.000000,4.000000,4.000000,50.000000
1613958804.908466,58.000000,0.000000,27.323132,23.416651,14.827188,16.247900,6.524176,6.115811,17.493223,10.476926,19.718193,16.565197,12.605035,8.265451,27.407606,14.078556,29.690226,17.333889,36.059967,15.698306,24.141327,18.471766,24.752335,3.968367,22.141523,17.235521,25.956982,21.554272,18.599897,4.350153,16.595484,25.111074,21.430853,17.609270,8064.000000,0.000000,4.000000,,,,0.000000,2.000000,4.000000,4.000000,4.000000,4.000000,2.000000,2.000000,4.000000,2.000000,4.000000,4.000000,2.000000,4.000000,2.000000,4.000000,4.000000,4.000000,4.000000,4.000000,4.000000,4.000000,4.000000,4.000000,2.000000,2.000000,4.000000,4.000000,4.000000,4.000000,4.000000,4.000000,4.000000,50.000000
1613958804.916215,59.000000,0.000000,27.295807,23.393234,20.966208,15.718832,6.517652,5.596875,19.527012,9.953629,19.698475,16.548632,12.592429,8.770007,27.893019,14.064478,30.686176,17.316555,36.536728,16.195429,23.091543,18.966114,25.753223,4.477220,23.145021,16.192644,27.982306,22.045538,19.094118,4.345803,16.578888,26.111605,20.896601,18.617302,8064.000000,0.000000,4.000000,,,,0.000000,2.000000,4.000000,4.000000,4.000000,4.000000,2.000000,2.000000,4.000000,2.000000,4.000000,4.000000,2.000000,4.000000,2.000000,4.000000,4.000000,4.000000,4.000000,4.000000,4.000000,4.000000,4.000000,4.000000,2.000000,2.000000,4.000000,4.000000,4.000000,4.000000,4.000000,4.000000,4.000000,50.000000
1613958804.924064,60.000000,0.000000,27.268513,23.369841,21.458061,15.190292,6.511134,6.616919,21.558767,9.943675,20.191597,16.532082,13.092658,9.786878,27.865126,15.588875,29.629850,18.324879,37.013012,16.692053,26.658195,19.459969,19.060802,5.498384,22.609056,16.689272,28.467144,22.023493,19.587845,4.854278,16.049488,22.495750,21.388525,19.624325,8064.000000,0.000000,4.000000,,,,0.000000,2.000000,4.000000,4.000000,4.000000,4.000000,2.000000,2.000000,4.000000,2.000000,4.000000,4.000000,2.000000,4.000000,2.000000,4.000000,4.000000,4.000000,4.000000,4.000000,4.000000,4.000000,4.000000,4.000000,2.000000,2.000000,4.000000,4.000000,4.000000,4.000000,4.000000,4.000000,4.000000,50.000000
1613958804.931813,61.000000,0.000000,27.241243,23.346470,19.385321,15.687922,5.991803,6.097482,21.537209,10.446551,20.171406,16.515551,13.079565,8.238629,27.837261,13.522003,27.036118,15.229630,36.463177,16.162540,27.144358,17.902048,4.682767,4.980064,23.099268,17.185404,27.925858,18.924545,16.491333,4.849424,13.982157,15.806587,20.854317,19.091881,8064.000000,0.000000,4.000000,,,,0.000000,2.000000,4.000000,4.000000,4.000000,4.000000,2.000000,2.000000,4.000000,2.000000,4.000000,4.000000,2.000000,4.000000,2.000000,4.000000,4.000000,4.000000,4.000000,4.000000,4.000000,4.000000,4.000000,4.000000,2.000000,2.000000,4.000000,4.000000,4.000000,4.000000,4.000000,4.000000,4.000000,50.000000
1613958804.939662,62.000000,0.000000,27.214003,23.323124,24.494141,15.159414,7.011452,5.065743,21.515671,9.923285,19.638412,16.499035,12.553665,9.768852,29.860706,16.585405,26.496262,13.675940,36.939533,16.146379,27.117214,19.935429,0.062700,5.487905,29.742836,16.142576,28.410751,20.444082,16.987663,4.844574,12.429713,16.816422,20.833462,19.585609,8192.000000,0.000000,4.000000,,,,0.000000,2.000000,4.000000,4.000000,4.000000,4.000000,2.000000,2.000000,4.000000,2.000000,4.000000,4.000000,2.000000,4.000000,2.000000,4.000000,4.000000,4.000000,4.000000,4.000000,4.000000,4.000000,4.000000,4.000000,2.000000,2.000000,4.000000,4.000000,4.000000,4.000000,4.000000,4.000000,4.000000,50.000000
1613958804.947411,63.000000,0.000000,27.186789,23.299801,30.110672,17.195538,9.568543,11.727345,21.494154,9.913362,21.157236,18.020998,14.079573,14.374468,34.446232,25.799589,26.982584,14.687904,39.979519,22.284079,29.654200,25.043697,9.293406,7.020878,37.918221,17.664896,31.972084,25.551844,23.637342,4.839730,12.930104,23.979092,22.863911,23.668589,8064.000000,0.000000,4.000000,,,,0.000000,2.000000,4.000000,4.000000,4.000000,4.000000,2.000000,2.000000,4.000000,2.000000,4.000000,4.000000,2.000000,4.000000,2.000000,4.000000,4.000000,4.000000,4.000000,4.000000,4.000000,4.000000,4.000000,4.000000,2.000000,2.000000,4.000000,4.000000,4.000000,4.000000,4.000000,4.000000,4.000000,50.000000
1613958804.955260,64.000000,0.000000,27.159601,23.276501,29.567741,24.357828,10.584616,22.484848,22.498302,11.954730,25.238644,21.079899,16.116776,16.924196,36.463066,29.363533,26.955603,14.673217,40.452358,27.902821,31.163006,27.069937,18.514883,10.090780,38.905945,24.826717,37.068317,25.013472,27.716269,4.834890,12.917174,28.570498,24.892328,26.721842,0.000000,131.000000,4.000000,,,,0.000000,2.000000,4.000000,4.000000,4.000000,4.000000,2.000000,2.000000,2.000000,2.000000,2.000000,4.000000,2.000000,4.000000,2.000000,4.000000,4.000000,4.000000,4.000000,4.000000,4.000000,4.000000,4.000000,4.000000,2.000000,2.000000,4.000000,4.000000,4.000000,4.000000,4.000000,4.000000,4.000000,50.000000
1613958804.963009,65.000000,0.000000,27.132442,23.253225,28.512533,29.461676,10.061211,26.052107,24.527086,13.994058,27.777508,23.622923,17.126299,16.394451,33.862499,26.257246,26.415827,14.145723,40.411907,24.797995,31.131844,26.017225,21.060471,14.183254,37.328575,28.904455,39.595352,22.424355,26.662910,4.317235,12.904257,28.541927,24.354616,26.182301,0.000000,151.000000,4.000000,,,,0.000000,2.000000,4.000000,4.000000,4.000000,4.000000,2.000000,2.000000,2.000000,2.000000,2.000000,4.000000,2.000000,4.000000,2.000000,4.000000,4.000000,4.000000,4.000000,4.000000,4.000000,4.000000,4.000000,4.000000,2.000000,2.000000,4.000000,4.000000,4.000000,4.000000,4.000000,4.000000,4.000000,50.000000
1613958804.970858,66.000000,0.000000,27.105309,23.229971,28.484020,30.457855,10.051149,24.487593,25.528200,14.492884,27.236910,24.624941,16.596354,16.378057,31.777355,25.718168,26.902231,14.131577,40.884315,23.234735,33.151993,30.093771,23.603512,17.245995,38.316887,27.849911,39.042934,25.991674,26.123428,4.312917,12.891353,29.026205,24.330261,25.643297,0.000000,135.000000,4.000000,,,,0.000000,2.000000,4.000000,4.000000,4.000000,4.000000,2.000000,2.000000,2.000000,2.000000,2.000000,4.000000,2.000000,4.000000,2.000000,4.000000,4.000000,4.000000,4.000000,4.000000,4.000000,4.000000,4.000000,4.000000,2.000000,2.000000,4.000000,4.000000,4.000000,4.000000,4.000000,4.000000,4.000000,50.000000
1613958804.978607,67.000000,0.000000,27.078203,23.206741,28.968357,30.427397,10.041098,24.463104,23.451389,13.965570,27.209673,22.549034,16.579756,16.874500,31.745579,26.205271,26.875328,14.630266,38.792149,24.749962,35.170124,34.679062,24.092730,16.715927,38.278572,27.822060,39.516712,30.068247,27.122946,4.821425,12.878461,29.510000,27.382854,26.130474,0.000000,144.000000,4.000000,,,,0.000000,2.000000,4.000000,4.000000,4.000000,4.000000,2.000000,2.000000,2.000000,2.000000,2.000000,4.000000,2.000000,4.000000,2.000000,4.000000,4.000000,4.000000,4.000000,4.000000,4.000000,4.000000,4.000000,4.000000,2.000000,2.000000,4.000000,4.000000,4.000000,4.000000,4.000000,4.000000,4.000000,50.000000
1613958804.986456,68.000000,0.000000,27.051126,23.183535,28.939388,29.884150,10.031057,24.951462,21.376656,13.951605,27.695284,19.962381,17.075996,16.344805,31.713833,23.102142,26.848454,14.102816,34.137974,18.571365,33.596493,32.593102,22.530174,14.647929,36.189011,28.307058,38.964375,29.012537,26.583002,4.303783,12.865582,29.480490,28.381111,26.104343,0.000000,163.000000,4.000000,,,,0.000000,2.000000,4.000000,4.000000,4.000000,4.000000,2.000000,2.000000,2.000000,2.000000,2.000000,4.000000,2.000000,4.000000,2.000000,4.000000,4.000000,4.000000,4.000000,4.000000,4.000000,4.000000,4.000000,4.000000,2.000000,2.000000,4.000000,4.000000,4.000000,4.000000,4.000000,4.000000,4.000000,50.000000
1613958804.994206,69.000000,0.000000,27.024075,22.647530,26.859167,29.854265,10.021026,24.413691,21.355280,13.937654,27.154768,20.968060,16.546101,16.328459,31.682119,21.540579,26.821606,14.601533,32.052551,12.911768,30.998793,29.996407,21.482004,13.094820,33.588718,27.765930,38.925411,28.983524,26.556419,4.812300,12.852717,28.938189,28.352730,28.129522,0.000000,129.000000,4.000000,,,,0.000000,2.000000,4.000000,4.000000,4.000000,4.000000,2.000000,2.000000,2.000000,2.000000,2.000000,4.000000,2.000000,4.000000,2.000000,4.000000,4.000000,4.000000,4.000000,4.000000,4.000000,4.000000,4.000000,4.000000,2.000000,2.000000,4.000000,4.000000,4.000000,4.000000,4.000000,4.000000,4.000000,50.000000
1613958805.002055,70.000000,0.000000,26.997051,22.624884,31.960512,32.901333,10.011004,24.389277,21.333923,14.436536,27.127613,22.998375,16.529554,16.312132,32.163258,22.031858,26.794783,17.663855,32.533321,17.001421,30.454973,29.966410,24.024624,12.568905,33.555130,27.738165,39.399307,28.954542,26.529863,9.422873,12.839865,28.909250,32.426941,31.691135,0.000000,122.000000,4.000000,,,,0.000000,2.000000,4.000000,2.000000,4.000000,2.000000,2.000000,2.000000,2.000000,2.000000,2.000000,4.000000,2.000000,4.000000,2.000000,4.000000,4.000000,4.000000,4.000000,4.000000,4.000000,4.000000,4.000000,4.000000,2.000000,2.000000,4.000000,4.000000,4.000000,4.000000,4.000000,4.000000,4.000000,50.000000
1613958805.009804,71.000000,0.000000,26.970053,23.115078,43.210602,32.355614,10.000994,24.364887,20.799768,13.396459,27.613306,24.513838,17.025845,14.244537,29.054171,21.497005,26.767988,21.235935,32.500786,20.574163,30.937340,29.936443,26.051882,12.556335,34.034397,27.710426,36.795807,28.925587,26.503332,12.490373,12.827024,28.880342,35.984257,33.710728,0.000000,150.000000,4.000000,,,,0.000000,2.000000,4.000000,2.000000,4.000000,2.000000,2.000000,2.000000,2.000000,2.000000,2.000000,4.000000,2.000000,4.000000,2.000000,4.000000,4.000000,4.000000,4.000000,4.000000,4.000000,4.000000,4.000000,4.000000,2.000000,2.000000,4.000000,4.000000,4.000000,4.000000,4.000000,4.000000,4.000000,50.000000
1613958805.017653,72.000000,0.000000,26.943083,22.066322,48.295597,26.682230,9.990993,24.340523,21.291790,10.818959,23.483128,24.489323,15.983179,12.179010,24.922552,22.501150,26.741220,22.240339,32.468285,19.527948,30.393581,29.393686,21.410446,12.543779,33.487541,27.682716,32.143623,29.409481,26.476830,11.965061,12.814198,28.851461,35.435455,33.164196,0.000000,165.000000,4.000000,,,,0.000000,2.000000,4.000000,2.000000,4.000000,2.000000,2.000000,2.000000,2.000000,2.000000,2.000000,4.000000,2.000000,4.000000,2.000000,4.000000,4.000000,4.000000,4.000000,4.000000,4.000000,4.000000,4.000000,4.000000,2.000000,2.000000,4.000000,4.000000,4.000000,4.000000,4.000000,4.000000,4.000000,50.000000
1613958805.025402,73.000000,0.000000,27.428961,23.582718,46.708839,25.629908,9.981002,24.316181,20.757677,9.782499,17.305799,20.875092,13.403093,12.166831,23.359169,20.940187,26.714479,21.705278,32.435818,21.559702,30.363188,29.364292,12.671086,12.531236,33.454052,27.655033,31.085840,27.841610,26.450352,11.953096,12.288563,27.284149,34.887199,33.131031,0.000000,131.000000,4.000000,,,,0.000000,2.000000,4.000000,2.000000,4.000000,2.000000,2.000000,2.000000,2.000000,2.000000,2.000000,4.000000,2.000000,4.000000,2.000000,4.000000,4.000000,4.000000,4.000000,4.000000,4.000000,4.000000,4.000000,4.000000,2.000000,2.000000,4.000000,4.000000,4.000000,4.000000,4.000000,4.000000,4.000000,50.000000
1613958805.033251,74.000000,0.000000,26.888712,29.712980,46.662132,29.194021,9.971021,23.779045,20.736919,10.285538,15.237211,16.751652,12.364049,12.667485,23.848629,14.765401,26.687765,21.683573,31.890562,24.102245,30.332825,29.847748,8.043031,12.518704,33.420601,27.627378,31.054754,25.762487,26.423903,14.505246,12.276274,24.692762,35.365131,33.097900,0.000000,164.000000,4.000000,,,,0.000000,2.000000,4.000000,2.000000,4.000000,2.000000,2.000000,2.000000,2.000000,2.000000,2.000000,4.000000,2.000000,4.000000,2.000000,4.000000,4.000000,4.000000,4.000000,4.000000,4.000000,4.000000,4.000000,4.000000,2.000000,2.000000,4.000000,4.000000,4.000000,4.000000,4.000000,4.000000,4.000000,50.000000
1613958805.041000,75.000000,0.000000,27.374643,34.298653,47.641109,30.190468,9.961050,23.755266,22.767466,10.275252,16.247614,16.222080,12.864505,12.141997,23.824781,10.648071,26.661077,21.661890,34.422775,22.026861,30.302492,29.817902,9.573449,11.993365,33.387180,27.086931,29.998058,26.762365,26.397478,15.516381,14.315280,25.180889,35.329765,33.064800,0.000000,172.000000,4.000000,,,,0.000000,2.000000,4.000000,2.000000,4.000000,2.000000,2.000000,2.000000,2.000000,2.000000,2.000000,4.000000,2.000000,4.000000,2.000000,4.000000,4.000000,4.000000,4.000000,4.000000,4.000000,4.000000,4.000000,4.000000,2.000000,2.000000,4.000000,4.000000,4.000000,4.000000,4.000000,4.000000,4.000000,50.000000
1613958805.048849,76.000000,0.000000,29.398550,33.751534,46.567829,29.134636,9.438269,24.244331,24.795980,9.752156,15.718547,16.718678,12.851641,12.129855,23.800957,12.175885,26.634417,21.640228,39.003735,19.440731,30.785009,29.788082,12.127978,12.494192,33.353790,27.572664,30.993702,29.299706,26.371080,16.013685,15.839426,28.232632,35.294437,33.031738,0.000000,168.000000,4.000000,,,,0.000000,2.000000,4.000000,2.000000,4.000000,2.000000,2.000000,2.000000,2.000000,2.000000,2.000000,4.000000,2.000000,4.000000,2.000000,4.000000,4.000000,4.000000,4.000000,4.000000,4.000000,4.000000,4.000000,4.000000,2.000000,2.000000,4.000000,4.000000,4.000000,4.000000,4.000000,4.000000,4.000000,50.000000
1613958805.056598,77.000000,0.000000,30.907614,33.204960,46.008442,29.105501,9.428830,23.707266,24.771183,9.229584,15.190007,15.676318,12.325969,12.630546,23.777155,14.214992,26.607782,21.618587,40.503193,19.421289,30.241404,29.758295,12.628671,12.481698,33.320438,27.545092,30.962708,28.244764,26.344709,14.972031,16.849228,28.717220,35.259140,32.485886,0.000000,147.000000,4.000000,,,,0.000000,2.000000,4.000000,2.000000,4.000000,2.000000,2.000000,2.000000,2.000000,2.000000,2.000000,4.000000,2.000000,4.000000,2.000000,4.000000,4.000000,4.000000,4.000000,4.000000,4.000000,4.000000,4.000000,4.000000,2.000000,2.000000,4.000000,4.000000,4.000000,4.000000,4.000000,4.000000,4.000000,50.000000
1613958805.064447,78.000000,0.000000,30.876707,33.684578,45.962433,29.589216,11.470683,23.683559,24.746412,9.733174,15.174818,16.173462,12.826463,12.617915,23.240559,16.252058,26.581173,21.084148,39.437050,19.914690,30.211163,29.728537,13.128862,11.443575,33.799938,27.004726,26.316360,28.216520,26.318365,15.469879,20.422123,28.175682,34.711063,31.940578,0.000000,139.000000,4.000000,,,,0.000000,2.000000,4.000000,2.000000,4.000000,2.000000,2.000000,2.000000,2.000000,2.000000,2.000000,2.000000,2.000000,4.000000,2.000000,4.000000,4.000000,4.000000,4.000000,4.000000,4.000000,4.000000,4.000000,4.000000,2.000000,2.000000,4.000000,4.000000,4.000000,4.000000,4.000000,4.000000,4.000000,50.000000
1613958805.072196,79.000000,0.000000,30.333010,33.650894,45.916470,29.559628,12.997674,25.711159,24.721666,10.236261,15.672463,16.157290,12.300817,12.605297,26.807060,17.774267,26.554592,21.575886,39.910431,19.381954,32.232235,29.698809,18.243938,13.483414,33.766140,28.003363,31.931070,32.803688,26.292048,19.044153,24.504265,29.685968,34.163532,31.908638,0.000000,128.000000,4.000000,,,,0.000000,2.000000,4.000000,2.000000,4.000000,2.000000,2.000000,2.000000,2.000000,2.000000,2.000000,2.000000,2.000000,4.000000,2.000000,4.000000,4.000000,4.000000,4.000000,4.000000,4.000000,4.000000,4.000000,4.000000,2.000000,2.000000,4.000000,4.000000,4.000000,4.000000,4.000000,4.000000,4.000000,50.000000
1613958805.080045,80.000000,0.000000,30.815496,33.104420,45.870552,29.017248,12.984676,27.736729,24.696945,8.687564,15.656791,15.628311,12.801336,12.592692,30.882818,17.243673,26.528038,21.554310,39.870522,19.362572,34.764103,29.669109,23.866720,18.598135,33.219551,31.565104,47.283752,36.360630,26.265755,22.614853,23.966940,32.220383,33.616547,32.389549,0.000000,198.000000,4.000000,,,,0.000000,2.000000,4.000000,2.000000,4.000000,2.000000,2.000000,2.000000,2.000000,2.000000,2.000000,2.000000,2.000000,4.000000,2.000000,4.000000,4.000000,4.000000,4.000000,4.000000,4.000000,4.000000,4.000000,4.000000,2.000000,4.000000,4.000000,4.000000,4.000000,4.000000,4.000000,4.000000,4.000000,50.000000
1613958805.087794,81.000000,0.000000,30.784681,33.071316,45.311863,28.988230,17.074255,27.708992,26.210709,13.294261,17.179596,19.715246,14.839816,12.580099,31.364756,22.867455,26.501511,20.507114,39.830650,21.394491,34.216518,29.639441,24.868494,20.117998,33.699154,34.610462,54.415958,35.811447,26.239489,20.028135,22.917332,32.188164,32.557289,31.331520,0.000000,168.000000,4.000000,,,,0.000000,2.000000,4.000000,2.000000,4.000000,2.000000,2.000000,2.000000,2.000000,2.000000,2.000000,2.000000,2.000000,4.000000,2.000000,4.000000,4.000000,4.000000,4.000000,4.000000,4.000000,4.000000,4.000000,4.000000,2.000000,4.000000,4.000000,4.000000,4.000000,4.000000,4.000000,4.000000,4.000000,50.000000
1613958805.095643,82.000000,0.000000,30.753897,33.038246,47.317833,32.548985,22.698208,29.219746,28.235781,24.563019,24.854723,27.387838,16.363438,12.567519,34.410313,35.665100,26.475008,22.537889,39.790821,23.424379,34.182304,29.609800,24.330805,19.585060,33.665455,34.575851,50.258976,35.775635,26.213249,18.469646,24.432875,32.155975,28.934988,34.889931,0.000000,177.000000,4.000000,,,,0.000000,2.000000,4.000000,2.000000,4.000000,2.000000,2.000000,2.000000,2.000000,2.000000,2.000000,2.000000,2.000000,4.000000,2.000000,4.000000,4.000000,4.000000,4.000000,4.000000,4.000000,4.000000,4.000000,4.000000,2.000000,4.000000,4.000000,4.000000,4.000000,4.000000,4.000000,4.000000,4.000000,50.000000
1613958805.103392,83.000000,0.000000,30.723143,33.005207,51.373077,36.106182,25.239611,31.241808,28.207544,29.666660,33.547817,30.950195,16.859896,12.554952,38.478466,41.270462,26.961353,29.694838,39.751030,23.913774,34.660942,29.580191,24.819296,20.078297,32.093327,34.541275,48.670258,35.739861,25.674215,19.989637,23.895622,32.636639,34.034260,48.188374,0.000000,184.000000,4.000000,,,,0.000000,2.000000,4.000000,2.000000,4.000000,2.000000,2.000000,2.000000,2.000000,2.000000,2.000000,2.000000,2.000000,4.000000,2.000000,4.000000,4.000000,4.000000,4.000000,4.000000,4.000000,4.000000,4.000000,4.000000,2.000000,4.000000,4.000000,4.000000,4.000000,4.000000,4.000000,4.000000,4.000000,50.000000
1613958805.111241,84.000000,0.000000,30.692419,32.972202,53.885807,37.095715,24.188730,31.210566,27.666517,24.508789,34.539909,31.432066,16.843035,12.542397,35.875885,40.716370,26.934393,33.767708,39.198460,23.889862,32.062180,30.063431,25.820118,18.519756,30.009951,35.019554,49.647228,33.652840,23.597260,13.815802,19.256342,31.065542,47.846378,60.960701,0.000000,176.000000,4.000000,,,,0.000000,2.000000,4.000000,2.000000,4.000000,2.000000,2.000000,2.000000,2.000000,2.000000,2.000000,2.000000,2.000000,4.000000,2.000000,4.000000,4.000000,4.000000,4.000000,4.000000,4.000000,4.000000,4.000000,4.000000,2.000000,4.000000,4.000000,4.000000,4.000000,4.000000,4.000000,4.000000,4.000000,50.000000
1613958805.118990,85.000000,0.000000,30.661726,32.939228,53.319099,36.032978,24.164541,30.666534,28.151670,18.330433,31.428448,31.400633,15.287731,12.529854,31.224627,40.162834,25.881817,29.631376,39.672081,23.353151,27.414732,28.494905,24.768656,13.885852,29.467121,34.984535,50.110401,31.567904,22.035200,7.648140,15.647342,28.470373,52.926735,62.438202,0.000000,185.000000,4.000000,,,,0.000000,2.000000,4.000000,2.000000,4.000000,2.000000,2.000000,2.000000,2.000000,2.000000,2.000000,2.000000,2.000000,4.000000,2.000000,4.000000,4.000000,4.000000,4.000000,4.000000,4.000000,4.000000,4.000000,4.000000,2.000000,4.000000,4.000000,4.000000,4.000000,4.000000,4.000000,4.000000,4.000000,50.000000
1613958805.126839,86.000000,0.000000,30.631065,32.906292,52.752960,35.996944,24.653198,31.148687,28.123520,14.722360,30.371378,28.292309,12.708341,12.517324,30.167761,34.481644,26.881577,28.063282,39.632408,23.329798,25.848854,26.927950,24.231068,11.820683,29.950474,33.923908,49.547470,31.536335,22.525986,13.281517,15.631695,28.441904,44.668682,60.837299,0.000000,182.000000,4.000000,,,,0.000000,2.000000,4.000000,2.000000,4.000000,2.000000,2.000000,2.000000,2.000000,2.000000,2.000000,2.000000,2.000000,4.000000,2.000000,4.000000,4.000000,4.000000,4.000000,4.000000,4.000000,4.000000,4.000000,4.000000,2.000000,4.000000,4.000000,4.000000,4.000000,4.000000,4.000000,4.000000,4.000000,50.000000
1613958805.134688,87.000000,0.000000,30.600433,32.873383,52.700211,39.037872,23.602903,31.117540,28.095396,13.169175,30.853828,23.648632,12.695632,12.504807,27.060669,21.626650,26.341875,31.112143,35.490211,24.332109,27.874289,25.362560,26.258118,12.321684,29.407703,35.428448,44.882538,32.017620,22.503460,19.422081,16.128883,27.387821,40.008629,61.289284,0.000000,168.000000,4.000000,,,,0.000000,2.000000,4.000000,2.000000,4.000000,2.000000,2.000000,2.000000,2.000000,2.000000,2.000000,2.000000,2.000000,4.000000,2.000000,4.000000,4.000000,4.000000,4.000000,4.000000,4.000000,4.000000,4.000000,4.000000,2.000000,4.000000,4.000000,4.000000,4.000000,4.000000,4.000000,4.000000,4.000000,50.000000
1613958805.142437,88.000000,0.000000,30.569834,32.840511,55.211613,43.101398,21.015198,31.086422,28.067301,13.668827,30.822973,23.112164,12.170116,12.492302,23.443865,13.912716,17.084763,25.440004,31.864979,19.692392,26.307953,22.260275,21.103655,12.822183,29.378296,34.367378,41.760731,31.985601,21.968136,18.889839,15.599935,24.796329,43.558365,61.740814,0.000000,169.000000,4.000000,,,,0.000000,2.000000,4.000000,2.000000,4.000000,2.000000,2.000000,2.000000,2.000000,2.000000,2.000000,2.000000,2.000000,4.000000,2.000000,4.000000,4.000000,4.000000,4.000000,4.000000,4.000000,4.000000,4.000000,4.000000,2.000000,4.000000,4.000000,4.000000,4.000000,4.000000,4.000000,4.000000,4.000000,50.000000
1613958805.150286,89.000000,0.000000,30.539263,32.807671,56.694862,44.083939,19.968542,31.055336,28.039232,12.629517,29.253689,23.601871,9.593843,12.479810,23.420422,13.385983,7.324089,11.055591,31.833113,9.416290,23.717541,19.673912,6.210756,12.296539,29.861738,25.615061,42.744614,31.953617,22.458988,18.358130,15.584334,24.258713,41.463524,60.653435,0.000000,181.000000,4.000000,,,,0.000000,2.000000,4.000000,2.000000,4.000000,2.000000,2.000000,2.000000,2.000000,2.000000,2.000000,2.000000,2.000000,4.000000,2.000000,4.000000,4.000000,4.000000,4.000000,4.000000,4.000000,4.000000,4.000000,4.000000,2.000000,4.000000,4.000000,4.000000,4.000000,4.000000,4.000000,4.000000,4.000000,50.000000
1613958805.158035,90.000000,0.000000,30.508724,32.774864,55.612526,42.501392,20.461393,31.024281,28.011194,10.052785,27.173153,23.065449,8.558609,12.467330,23.397001,14.398237,8.855227,4.377868,32.314102,3.765848,23.693825,18.115776,-2.513403,9.207320,29.831875,19.435598,36.035202,31.921663,22.436529,19.365412,16.081570,24.234455,40.909241,59.567139,0.000000,173.000000,4.000000,,,,0.000000,2.000000,4.000000,2.000000,4.000000,2.000000,2.000000,2.000000,2.000000,2.000000,2.000000,2.000000,2.000000,4.000000,2.000000,4.000000,4.000000,4.000000,4.000000,4.000000,4.000000,4.000000,4.000000,4.000000,2.000000,4.000000,4.000000,4.000000,4.000000,4.000000,4.000000,4.000000,4.000000,50.000000
1613958805.165884,91.000000,0.000000,30.478216,32.742088,58.121014,43.997353,20.440933,30.993256,27.983183,9.529912,26.120338,23.042383,9.062870,12.454863,23.886425,13.871018,14.487396,8.988874,31.768967,5.300544,21.618849,14.507917,-1.485249,5.608369,29.289223,19.416164,29.332499,31.889742,22.414093,18.833225,15.552669,25.235861,48.560638,65.148598,0.000000,163.000000,4.000000,,,,0.000000,2.000000,4.000000,2.000000,4.000000,2.000000,2.000000,2.000000,2.000000,2.000000,2.000000,2.000000,2.000000,4.000000,2.000000,4.000000,4.000000,4.000000,4.000000,4.000000,4.000000,4.000000,4.000000,4.000000,2.000000,4.000000,4.000000,4.000000,4.000000,4.000000,4.000000,4.000000,4.000000,50.000000
1613958805.173633,92.000000,0.000000,30.447737,32.709347,65.755203,46.517456,19.907671,30.962263,27.955198,10.033202,26.607040,23.532162,9.053807,12.442408,23.862537,11.293045,15.498550,10.005527,32.250019,5.808064,13.904922,11.416486,-2.509405,4.577120,29.772755,18.883926,35.457012,32.370670,22.391678,18.814392,16.049936,27.774729,52.614639,74.314217,0.000000,170.000000,4.000000,,,,0.000000,2.000000,4.000000,2.000000,4.000000,2.000000,2.000000,2.000000,2.000000,2.000000,2.000000,2.000000,2.000000,4.000000,2.000000,4.000000,4.000000,4.000000,4.000000,4.000000,4.000000,4.000000,4.000000,4.000000,2.000000,4.000000,4.000000,4.000000,4.000000,4.000000,4.000000,4.000000,4.000000,50.000000
1613958805.181482,93.000000,0.000000,30.417290,32.676636,67.227905,45.958118,20.400583,30.931301,27.927244,9.510348,25.554790,23.508631,9.044754,12.429966,20.248932,8.204829,14.970231,6.405778,31.704947,0.161230,5.685889,11.405069,-5.583818,1.495620,30.255802,19.377863,34.908737,29.774199,22.369287,18.795578,18.085169,27.234133,45.895359,76.291183,0.000000,179.000000,4.000000,,,,0.000000,2.000000,4.000000,2.000000,4.000000,2.000000,2.000000,2.000000,2.000000,2.000000,2.000000,2.000000,2.000000,4.000000,2.000000,4.000000,4.000000,4.000000,4.000000,4.000000,4.000000,4.000000,4.000000,4.000000,2.000000,4.000000,4.000000,4.000000,4.000000,4.000000,4.000000,4.000000,4.000000,50.000000
1613958805.189231,94.000000,0.000000,30.386873,33.156780,64.083755,43.348061,20.380184,30.900370,27.899317,9.500838,22.965134,23.485121,9.035709,12.417536,16.126120,6.658163,14.442440,6.912192,29.621960,-4.967136,1.577639,8.316741,-5.578235,-2.608440,26.635803,19.871305,17.437929,25.641861,20.808456,18.776783,20.118364,24.642796,40.208439,73.137970,0.000000,175.000000,4.000000,,,,0.000000,2.000000,4.000000,2.000000,4.000000,2.000000,2.000000,2.000000,2.000000,2.000000,2.000000,2.000000,2.000000,4.000000,2.000000,4.000000,4.000000,4.000000,4.000000,4.000000,4.000000,4.000000,4.000000,4.000000,2.000000,4.000000,4.000000,4.000000,4.000000,4.000000,4.000000,4.000000,4.000000,50.000000
1613958805.197080,95.000000,0.000000,30.356485,33.123623,62.994034,42.791889,20.359804,30.869469,27.871418,11.542620,22.429348,23.461636,9.026673,12.405118,16.109993,6.138684,12.889537,5.879639,28.566698,-6.500631,1.063240,4.205861,-5.572656,-2.605832,22.506603,14.210409,10.241004,23.564936,18.223545,18.758005,19.585426,24.618153,41.706692,71.526375,0.000000,159.000000,4.000000,,,,0.000000,2.000000,4.000000,2.000000,4.000000,2.000000,2.000000,2.000000,2.000000,2.000000,2.000000,2.000000,2.000000,4.000000,2.000000,4.000000,4.000000,4.000000,4.000000,4.000000,4.000000,4.000000,4.000000,4.000000,4.000000,4.000000,4.000000,4.000000,4.000000,4.000000,4.000000,4.000000,4.000000,50.000000
1613958805.204829,96.000000,0.000000,29.813309,32.577679,63.443859,43.261917,20.339443,31.351419,27.330725,13.582358,23.432560,23.438175,9.017647,12.392713,16.606703,7.158186,11.851006,0.232734,27.512489,-5.468489,1.062177,3.688834,-1.977340,-1.577585,21.971275,12.657738,23.051275,24.567013,18.205322,18.739248,19.053020,24.080715,41.664986,71.454842,8064.000000,0.000000,4.000000,,,,0.000000,2.000000,4.000000,2.000000,4.000000,2.000000,2.000000,2.000000,2.000000,2.000000,2.000000,2.000000,2.000000,4.000000,2.000000,4.000000,4.000000,4.000000,4.000000,4.000000,4.000000,4.000000,4.000000,4.000000,4.000000,4.000000,4.000000,4.000000,4.000000,4.000000,4.000000,4.000000,4.000000,50.000000
1613958805.212678,97.000000,0.000000,27.219393,33.057922,63.893234,42.705837,20.319103,30.294428,25.252113,14.081597,22.896307,23.414736,9.521449,12.380321,16.590097,11.766413,12.351975,-4.382883,25.946516,-4.950200,1.573936,5.223607,5.204124,-1.576007,23.487766,24.952772,32.258995,25.055265,19.725578,18.720509,19.546787,21.492531,40.597679,70.870567,8064.000000,0.000000,4.000000,,,,0.000000,2.000000,4.000000,2.000000,4.000000,2.000000,2.000000,2.000000,2.000000,2.000000,2.000000,2.000000,2.000000,4.000000,2.000000,4.000000,4.000000,4.000000,4.000000,4.000000,4.000000,4.000000,4.000000,4.000000,4.000000,4.000000,4.000000,4.000000,4.000000,4.000000,4.000000,4.000000,4.000000,50.000000
1613958805.220427,98.000000,0.000000,24.628071,33.537685,62.290882,42.663132,21.324427,28.212851,23.175579,13.554695,22.873411,24.416962,9.511928,12.367940,17.086327,15.344390,11.826803,-3.865680,24.382107,-5.458070,1.059541,3.679922,7.250202,-1.574431,21.925817,33.132946,28.636992,22.978930,17.654570,18.701788,20.040062,20.958218,41.069901,70.799698,8064.000000,0.000000,4.000000,,,,0.000000,2.000000,4.000000,2.000000,4.000000,2.000000,2.000000,2.000000,2.000000,2.000000,2.000000,2.000000,2.000000,4.000000,2.000000,4.000000,4.000000,4.000000,4.000000,4.000000,4.000000,4.000000,4.000000,4.000000,4.000000,4.000000,4.000000,4.000000,4.000000,4.000000,4.000000,4.000000,4.000000,50.000000
1613958805.228276,99.000000,0.000000,23.064981,30.427223,57.613205,42.620468,18.226179,26.646177,21.101120,13.541141,23.363358,23.366905,8.989595,12.355572,15.530780,14.816225,12.327797,-3.861814,24.870546,-5.965433,-0.992800,1.624960,6.217311,-2.085677,17.801327,25.920328,26.044252,20.904667,12.508711,18.683086,17.968739,19.911619,41.028831,70.216080,8064.000000,0.000000,4.000000,,,,0.000000,2.000000,4.000000,2.000000,4.000000,2.000000,2.000000,2.000000,2.000000,2.000000,2.000000,2.000000,2.000000,4.000000,2.000000,4.000000,4.000000,4.000000,4.000000,4.000000,4.000000,4.000000,4.000000,4.000000,4.000000,4.000000,4.000000,4.000000,4.000000,4.000000,4.000000,4.000000,4.000000,50.000000
1613958805.236025,100.000000,0.000000,22.529097,25.781412,53.965847,42.577847,15.131029,25.081068,20.567200,14.553240,22.314354,23.343538,9.493426,12.343216,13.976787,15.314229,11.289827,-4.370773,25.871317,-4.933826,-2.530269,1.110514,7.236735,-1.057951,15.219423,15.125176,28.069490,20.370943,10.957741,18.664404,15.899488,17.327604,40.987804,70.145866,8192.000000,0.000000,4.000000,,,,0.000000,2.000000,4.000000,2.000000,4.000000,2.000000,2.000000,2.000000,2.000000,2.000000,2.000000,2.000000,2.000000,4.000000,2.000000,4.000000,4.000000,4.000000,4.000000,4.000000,4.000000,4.000000,4.000000,4.000000,4.000000,4.000000,4.000000,4.000000,4.000000,4.000000,4.000000,4.000000,4.000000,50.000000
1613958805.243874,101.000000,0.000000,22.506567,24.729990,55.450344,43.048088,17.680000,23.004705,20.033812,13.513045,18.189474,25.884296,8.458292,12.843694,12.424349,13.247633,3.586230,-3.340761,21.230061,-5.954534,-2.014918,-2.993160,5.178216,-3.108175,13.665742,12.033128,25.477318,20.350571,11.459603,18.645739,14.857948,16.797457,39.921173,72.126999,8064.000000,0.000000,4.000000,,,,0.000000,2.000000,4.000000,2.000000,4.000000,2.000000,2.000000,2.000000,2.000000,2.000000,2.000000,2.000000,2.000000,4.000000,2.000000,4.000000,4.000000,4.000000,4.000000,4.000000,4.000000,4.000000,4.000000,4.000000,4.000000,4.000000,4.000000,4.000000,4.000000,4.000000,4.000000,4.000000,4.000000,50.000000
1613958805.251623,102.000000,0.000000,22.484060,25.730900,58.984638,42.492222,15.098218,22.981701,17.449675,7.858507,11.504619,18.678925,3.834449,11.805209,9.335001,5.029257,-4.622484,-5.388702,13.003702,-13.640887,-4.064186,-12.220937,0.044833,-14.899939,10.062333,12.533916,20.323635,18.278938,9.909682,18.627092,15.355910,15.755018,40.394073,74.106155,8064.000000,0.000000,4.000000,,,,0.000000,2.000000,4.000000,2.000000,4.000000,2.000000,2.000000,2.000000,2.000000,2.000000,2.000000,2.000000,2.000000,4.000000,2.000000,4.000000,4.000000,4.000000,4.000000,4.000000,4.000000,4.000000,4.000000,4.000000,4.000000,4.000000,4.000000,4.000000,4.000000,4.000000,4.000000,4.000000,4.000000,50.000000
1613958805.259472,103.000000,0.000000,22.461576,25.192348,58.412834,41.936909,3.801069,22.958719,13.842482,2.209623,7.903370,2.762810,-0.784770,6.665199,5.223102,-0.616798,-7.181964,-7.434596,9.400955,-17.216990,-8.162685,-18.362562,-2.519315,-23.602987,6.975348,12.008561,18.764851,17.235020,7.335670,18.608465,15.853375,10.611058,41.379322,73.006409,8192.000000,0.000000,4.000000,,,,0.000000,2.000000,4.000000,2.000000,4.000000,2.000000,2.000000,2.000000,2.000000,2.000000,2.000000,2.000000,2.000000,4.000000,2.000000,4.000000,4.000000,4.000000,4.000000,4.000000,4.000000,4.000000,4.000000,4.000000,4.000000,4.000000,4.000000,4.000000,4.000000,4.000000,4.000000,4.000000,4.000000,50.000000
1613958805.267221,104.000000,0.000000,22.951935,25.167156,56.815956,44.971893,4.310088,22.935760,12.802999,1.694593,7.895467,-4.419439,-2.322447,2.043149,5.217879,-0.616181,-7.687603,-4.350238,9.391554,-13.610029,-11.744267,-18.344198,-2.003975,-21.528103,6.455552,9.945271,19.771727,16.192142,6.815514,18.589857,15.324701,8.549165,39.799480,76.010323,8064.000000,0.000000,4.000000,,,,0.000000,2.000000,4.000000,2.000000,4.000000,2.000000,2.000000,2.000000,2.000000,2.000000,2.000000,2.000000,2.000000,4.000000,2.000000,4.000000,4.000000,4.000000,4.000000,4.000000,4.000000,4.000000,4.000000,4.000000,4.000000,4.000000,4.000000,4.000000,4.000000,4.000000,4.000000,4.000000,4.000000,50.000000
1613958805.275070,105.000000,0.000000,22.928984,27.706093,65.989914,49.029488,19.177572,24.964108,13.303016,2.718539,10.451674,-1.850918,-1.807304,1.015465,5.725482,-0.615565,-6.141454,0.269497,8.869342,-10.519496,-8.142778,-14.223290,-0.976330,-16.891190,7.987557,7.371222,18.726313,16.688772,7.834339,18.571268,15.822197,14.694462,43.862244,88.242004,8192.000000,0.000000,4.000000,,,,0.000000,2.000000,4.000000,2.000000,4.000000,2.000000,2.000000,2.000000,2.000000,2.000000,2.000000,2.000000,2.000000,4.000000,2.000000,4.000000,4.000000,4.000000,4.000000,4.000000,4.000000,4.000000,4.000000,4.000000,4.000000,4.000000,4.000000,4.000000,4.000000,4.000000,4.000000,4.000000,4.000000,50.000000
1613958805.282820,106.000000,0.000000,22.906054,29.216848,83.359818,50.006100,25.825062,26.477604,13.289713,1.690180,11.466864,-2.361887,-2.831137,1.014449,5.206936,-0.614949,1.556996,0.269227,12.963037,-5.893592,2.121774,-3.439837,-2.513815,-14.823016,10.543673,7.876672,19.220407,22.313108,10.390607,18.552696,22.473042,23.910538,58.177357,100.974274,8064.000000,0.000000,4.000000,,,,0.000000,2.000000,4.000000,2.000000,4.000000,2.000000,2.000000,2.000000,2.000000,2.000000,2.000000,2.000000,2.000000,4.000000,2.000000,4.000000,4.000000,4.000000,4.000000,4.000000,4.000000,4.000000,4.000000,4.000000,4.000000,4.000000,4.000000,4.000000,4.000000,4.000000,4.000000,4.000000,4.000000,50.000000
1613958805.290669,107.000000,0.000000,22.883148,29.187632,92.507225,50.981731,22.722315,26.963947,12.763602,2.714131,10.942576,-3.385166,-2.315486,1.526255,5.201729,1.436948,8.734925,-0.756683,17.052637,2.317430,8.273499,8.358475,-1.998481,-9.679988,10.533129,15.561103,23.816572,27.931820,13.457140,18.534143,28.091595,29.014832,67.862770,103.950226,8064.000000,0.000000,4.000000,,,,0.000000,2.000000,4.000000,2.000000,4.000000,2.000000,2.000000,2.000000,2.000000,2.000000,2.000000,2.000000,2.000000,4.000000,2.000000,4.000000,4.000000,4.000000,4.000000,4.000000,4.000000,4.000000,4.000000,4.000000,4.000000,4.000000,4.000000,4.000000,4.000000,4.000000,4.000000,4.000000,4.000000,50.000000
1613958805.298418,108.000000,0.000000,23.373085,28.645622,91.389076,53.494854,23.725233,28.988266,13.263659,5.275519,11.444454,0.720783,-1.800350,3.576011,5.709348,3.999614,12.828754,0.269715,17.548405,4.879215,9.290867,14.503963,8.772749,-4.029283,14.112339,23.237850,26.869678,26.365427,14.982144,18.515610,23.448118,25.396072,64.205162,101.794991,8064.000000,0.000000,4.000000,,,,0.000000,2.000000,4.000000,2.000000,4.000000,2.000000,2.000000,2.000000,2.000000,2.000000,2.000000,2.000000,2.000000,4.000000,2.000000,4.000000,4.000000,4.000000,4.000000,4.000000,4.000000,4.000000,4.000000,4.000000,4.000000,4.000000,4.000000,4.000000,4.000000,4.000000,4.000000,4.000000,4.000000,50.000000
1613958805.306267,109.000000,0.000000,22.836891,29.129797,90.784874,53.441360,24.727148,30.497738,13.250396,6.808705,12.971472,1.745703,-2.824190,5.623717,5.703638,6.559716,18.969772,0.269445,23.171883,8.976900,14.409781,20.130484,22.097309,1.102952,22.816175,23.727432,27.355629,23.774960,15.992803,18.497093,15.219542,20.242472,59.012753,102.718842,8064.000000,0.000000,4.000000,,,,0.000000,2.000000,4.000000,2.000000,4.000000,2.000000,2.000000,2.000000,2.000000,2.000000,2.000000,2.000000,2.000000,4.000000,2.000000,4.000000,4.000000,4.000000,4.000000,4.000000,4.000000,4.000000,4.000000,4.000000,4.000000,4.000000,4.000000,4.000000,4.000000,4.000000,4.000000,4.000000,4.000000,50.000000
1613958805.314016,110.000000,0.000000,21.788414,29.100668,92.232544,52.362278,23.676781,30.467241,13.237145,6.289076,10.907218,1.231137,-1.282905,5.105273,5.697935,10.142900,24.079008,-0.243645,31.353840,19.224333,20.549217,26.264200,27.716238,7.255695,27.921564,22.678064,30.405197,24.264006,17.515272,18.478598,15.717143,25.350435,58.953739,105.180222,8064.000000,0.000000,4.000000,,,,0.000000,2.000000,4.000000,2.000000,4.000000,2.000000,2.000000,2.000000,2.000000,2.000000,2.000000,2.000000,2.000000,4.000000,2.000000,4.000000,4.000000,4.000000,4.000000,4.000000,4.000000,4.000000,4.000000,4.000000,4.000000,4.000000,4.000000,4.000000,4.000000,4.000000,4.000000,4.000000,4.000000,50.000000
1613958805.321865,111.000000,0.000000,23.305086,29.071568,93.678780,55.899658,25.704386,29.923952,13.223908,6.282787,11.921951,5.845291,5.385045,5.100168,5.692237,15.260962,24.567749,-0.243401,34.399406,19.717930,20.528667,28.802038,30.252625,11.351004,26.868002,23.681026,36.015816,24.239740,19.549038,18.972939,21.342451,31.991751,58.894787,107.639145,8064.000000,0.000000,4.000000,,,,0.000000,2.000000,4.000000,2.000000,4.000000,2.000000,2.000000,2.000000,2.000000,2.000000,2.000000,2.000000,2.000000,4.000000,2.000000,4.000000,4.000000,4.000000,4.000000,4.000000,4.000000,4.000000,4.000000,4.000000,4.000000,4.000000,4.000000,4.000000,4.000000,4.000000,4.000000,4.000000,4.000000,50.000000
1613958805.329614,112.000000,0.000000,22.768961,29.042496,94.610741,59.946323,27.217142,30.406849,13.210685,6.276504,20.627979,8.916368,9.995045,5.095068,5.686544,19.348267,23.004721,0.269663,32.826546,8.928981,21.020960,24.670671,28.683910,8.775550,23.251390,23.657345,39.056725,24.728321,19.529490,17.415504,23.372391,30.934118,58.323071,109.582787,8064.000000,0.000000,4.000000,,,,0.000000,2.000000,4.000000,2.000000,4.000000,2.000000,2.000000,2.000000,2.000000,2.000000,2.000000,2.000000,2.000000,4.000000,2.000000,4.000000,4.000000,4.000000,4.000000,4.000000,4.000000,4.000000,4.000000,4.000000,4.000000,4.000000,4.000000,4.000000,4.000000,4.000000,4.000000,4.000000,4.000000,50.000000
1613958805.337463,113.000000,0.000000,13.002603,29.013453,94.003304,60.912018,25.138643,30.376442,13.197474,6.270227,20.607351,1.727965,9.472229,5.089972,5.680858,18.303276,17.853510,-2.294710,25.101414,5.330308,20.487118,17.466515,13.783431,0.561646,17.074293,23.120867,38.504848,26.754875,15.920217,13.808345,22.836199,27.826262,58.264748,107.934746,8192.000000,0.000000,4.000000,,,,0.000000,2.000000,4.000000,2.000000,4.000000,2.000000,2.000000,2.000000,2.000000,2.000000,2.000000,2.000000,2.000000,4.000000,2.000000,4.000000,4.000000,4.000000,4.000000,4.000000,4.000000,4.000000,4.000000,4.000000,4.000000,4.000000,4.000000,4.000000,4.000000,4.000000,4.000000,4.000000,4.000000,50.000000
1613958805.345212,114.000000,0.000000,8.374215,28.984440,93.909302,59.825462,23.575043,30.346066,13.184277,6.263957,10.843153,-2.376327,8.949936,5.597703,5.675177,15.720871,13.733092,-6.907800,15.845543,3.273696,6.620477,6.166996,0.949135,-7.131223,13.980295,23.097746,36.927879,28.266582,11.288912,10.717614,22.813362,27.798435,57.693661,105.262703,8064.000000,0.000000,4.000000,,,,0.000000,2.000000,4.000000,2.000000,4.000000,2.000000,2.000000,2.000000,2.000000,2.000000,2.000000,2.000000,2.000000,4.000000,2.000000,4.000000,4.000000,4.000000,4.000000,4.000000,4.000000,4.000000,4.000000,4.000000,4.000000,4.000000,4.000000,4.000000,4.000000,4.000000,4.000000,4.000000,4.000000,50.000000
1613958805.353061,115.000000,0.000000,18.109430,28.955456,93.815392,60.278458,24.064289,30.315720,13.683912,6.770514,10.832310,1.728613,9.453807,4.566464,5.669502,16.217970,11.668077,-7.926533,11.727133,-5.447526,-8.770759,-6.659683,2.999467,-9.175374,15.504777,23.074650,37.916595,28.238316,11.790443,11.219717,23.303370,28.283457,59.687252,105.670265,8064.000000,0.000000,4.000000,,,,0.000000,2.000000,4.000000,2.000000,4.000000,2.000000,2.000000,2.000000,2.000000,2.000000,2.000000,2.000000,2.000000,4.000000,2.000000,4.000000,4.000000,4.000000,4.000000,4.000000,4.000000,4.000000,4.000000,4.000000,4.000000,4.000000,4.000000,4.000000,4.000000,4.000000,4.000000,4.000000,4.000000,50.000000
1613958805.360910,116.000000,0.000000,23.219526,28.926500,93.208755,60.218182,23.014584,29.772583,13.157408,6.250923,19.026606,2.239705,9.444353,1.997795,6.176653,11.073547,4.476922,-7.405786,9.664124,-10.570284,-10.813270,-14.345331,-0.593276,-9.166199,13.437990,23.051575,38.391499,26.158794,11.265832,11.208497,23.280066,28.255173,61.678844,107.615875,8192.000000,0.000000,4.000000,,,,0.000000,2.000000,4.000000,2.000000,4.000000,2.000000,2.000000,2.000000,2.000000,2.000000,2.000000,2.000000,2.000000,4.000000,2.000000,4.000000,4.000000,4.000000,4.000000,4.000000,4.000000,4.000000,4.000000,4.000000,4.000000,4.000000,4.000000,4.000000,4.000000,4.000000,4.000000,4.000000,4.000000,50.000000
1613958805.368659,117.000000,0.000000,19.093742,28.897573,93.115547,59.645142,23.504389,30.768452,12.118609,6.244672,20.546041,0.186183,8.922088,0.970156,5.657656,1.831704,-5.271145,-7.398380,5.551896,-9.534073,-9.263995,-15.869448,-16.490118,-10.182673,8.296347,23.028522,25.019773,24.081354,4.075079,9.658827,21.718325,25.662815,59.565884,108.021080,8064.000000,0.000000,4.000000,,,,0.000000,2.000000,4.000000,2.000000,4.000000,2.000000,2.000000,2.000000,2.000000,2.000000,2.000000,2.000000,2.000000,4.000000,2.000000,4.000000,4.000000,4.000000,4.000000,4.000000,4.000000,4.000000,4.000000,4.000000,4.000000,4.000000,4.000000,4.000000,4.000000,4.000000,4.000000,4.000000,4.000000,50.000000
1613958805.376508,118.000000,0.000000,19.074650,28.868675,93.535255,59.585499,23.993706,28.686401,13.644953,6.751247,17.961391,2.750100,8.913166,1.482007,3.087895,-0.734230,-8.342796,-7.903802,5.546343,-9.011718,-10.280373,-14.315117,-21.601833,-9.659670,6.749589,22.492674,8.584496,23.544453,-0.031560,7.597886,19.132504,22.047409,57.967857,108.425880,8064.000000,0.000000,4.000000,,,,0.000000,2.000000,4.000000,2.000000,4.000000,2.000000,2.000000,2.000000,2.000000,2.000000,2.000000,2.000000,2.000000,4.000000,2.000000,4.000000,4.000000,4.000000,4.000000,4.000000,4.000000,4.000000,4.000000,4.000000,4.000000,4.000000,4.000000,4.000000,4.000000,4.000000,4.000000,4.000000,4.000000,50.000000
1613958805.384257,119.000000,0.000000,17.517113,28.839808,92.416077,59.525913,15.251763,24.555151,13.118487,4.693214,14.353687,-1.355215,9.417073,1.480525,1.546346,-1.246316,-5.770351,-7.383078,7.079259,-9.515527,-10.270092,-10.711058,-15.426385,-9.137190,7.768480,23.495823,11.652835,23.520908,3.558215,7.077468,18.600550,19.974079,58.422710,106.266174,8320.000000,0.000000,4.000000,,,,0.000000,2.000000,4.000000,2.000000,4.000000,2.000000,2.000000,2.000000,2.000000,2.000000,2.000000,2.000000,2.000000,4.000000,2.000000,4.000000,4.000000,4.000000,4.000000,4.000000,4.000000,4.000000,4.000000,4.000000,4.000000,4.000000,4.000000,4.000000,4.000000,4.000000,4.000000,4.000000,4.000000,50.000000
1613958805.392106,120.000000,0.000000,9.807288,28.810966,92.323662,59.466385,7.544204,21.966494,4.900240,0.073136,9.723949,-12.123090,7.869195,1.479044,2.057620,-7.911736,-4.226120,-7.375695,4.508077,-9.506011,-9.234180,-6.597783,-13.872498,-9.640873,7.760712,23.472326,21.897593,20.420464,4.580298,7.583211,19.094770,18.928465,56.825825,108.724007,8064.000000,0.000000,4.000000,,,,0.000000,2.000000,4.000000,2.000000,4.000000,2.000000,2.000000,2.000000,2.000000,2.000000,2.000000,2.000000,2.000000,4.000000,2.000000,4.000000,4.000000,4.000000,4.000000,4.000000,4.000000,4.000000,4.000000,4.000000,4.000000,4.000000,4.000000,4.000000,4.000000,4.000000,4.000000,4.000000,4.000000,50.000000
1613958805.399855,121.000000,0.000000,7.233378,28.782156,98.898003,58.894100,12.152044,21.944527,2.331238,-1.978219,8.688584,-10.059685,5.810043,0.964745,2.055562,-13.032030,-3.196252,-7.368319,3.477928,-8.983685,-9.224946,-6.078364,-7.191958,-8.092771,6.727310,19.346291,22.388515,18.861582,3.037256,7.575627,18.562855,20.960817,59.845924,120.922974,8192.000000,0.000000,4.000000,,,,0.000000,2.000000,4.000000,2.000000,4.000000,2.000000,2.000000,2.000000,2.000000,2.000000,2.000000,2.000000,2.000000,4.000000,2.000000,4.000000,4.000000,4.000000,4.000000,4.000000,4.000000,4.000000,4.000000,4.000000,4.000000,4.000000,4.000000,4.000000,4.000000,4.000000,4.000000,4.000000,4.000000,50.000000
1613958805.407704,122.000000,0.000000,10.815888,28.753374,107.517059,59.348026,19.319380,23.973866,14.123778,-0.950599,10.731177,2.770888,7.342695,1.989421,2.053507,-11.480536,-2.167415,-7.360950,6.038552,-7.436240,-7.677260,-6.072286,12.302413,-5.007755,8.259045,15.224380,24.417410,22.432465,6.111142,7.568052,19.569933,28.632164,70.042488,130.032822,8064.000000,0.000000,4.000000,,,,0.000000,2.000000,4.000000,2.000000,4.000000,2.000000,2.000000,2.000000,2.000000,2.000000,2.000000,2.000000,2.000000,4.000000,2.000000,4.000000,4.000000,4.000000,4.000000,4.000000,4.000000,4.000000,4.000000,4.000000,4.000000,4.000000,4.000000,4.000000,4.000000,4.000000,4.000000,4.000000,4.000000,50.000000
1613958805.415453,123.000000,0.000000,12.343534,28.724621,107.922356,58.775856,19.812880,26.513994,21.289141,-0.949649,11.746087,6.870681,9.386634,5.064354,3.077095,-7.879313,-1.652427,-6.840769,8.083796,-8.967265,-5.105480,-4.527752,18.956778,-3.977106,7.737965,16.747616,26.444273,27.538237,6.617851,7.560484,22.627287,34.757378,72.536545,127.338684,8064.000000,0.000000,4.000000,,,,0.000000,2.000000,4.000000,2.000000,4.000000,2.000000,2.000000,2.000000,2.000000,2.000000,2.000000,2.000000,2.000000,4.000000,2.000000,4.000000,4.000000,4.000000,4.000000,4.000000,4.000000,4.000000,4.000000,4.000000,4.000000,4.000000,4.000000,4.000000,4.000000,4.000000,4.000000,4.000000,4.000000,50.000000
1613958805.423302,124.000000,0.000000,11.305550,28.695896,106.788795,58.204262,21.331530,24.949018,17.165289,-1.461520,11.221520,4.812528,8.864428,5.572111,2.561197,-3.768869,-3.189236,-6.833929,6.024430,-13.060862,-4.587554,-6.061686,10.219872,-5.511590,4.140483,15.705228,21.289625,27.510698,1.483028,7.552923,22.604658,35.235443,65.797340,125.160065,8064.000000,0.000000,4.000000,,,,0.000000,2.000000,4.000000,2.000000,4.000000,2.000000,2.000000,2.000000,2.000000,2.000000,2.000000,2.000000,2.000000,4.000000,2.000000,4.000000,4.000000,4.000000,4.000000,4.000000,4.000000,4.000000,4.000000,4.000000,4.000000,4.000000,4.000000,4.000000,4.000000,4.000000,4.000000,4.000000,4.000000,50.000000
1613958805.431051,125.000000,0.000000,11.294244,28.667200,109.758934,63.274261,24.387121,26.462530,15.609661,-0.434417,11.723120,6.346177,8.855563,5.566538,2.045815,3.927208,-0.621944,-6.827095,7.556867,-8.432416,-4.582967,-5.542804,10.722473,-3.967618,6.187625,11.586959,23.832438,27.483189,0.455904,7.545371,22.582054,35.200207,64.193085,128.624649,8064.000000,0.000000,4.000000,,,,0.000000,2.000000,4.000000,2.000000,4.000000,2.000000,2.000000,2.000000,2.000000,2.000000,2.000000,2.000000,2.000000,4.000000,2.000000,4.000000,4.000000,4.000000,4.000000,4.000000,4.000000,4.000000,4.000000,4.000000,4.000000,4.000000,4.000000,4.000000,4.000000,4.000000,4.000000,4.000000,4.000000,50.000000
1613958805.438900,126.000000,0.000000,12.308591,28.638533,111.187630,68.852013,24.875553,35.666836,17.645334,-0.433983,12.224217,6.339831,9.872348,6.073792,4.095051,8.538665,3.481242,-6.307447,7.549310,-4.834240,-5.604025,-3.998799,9.686110,-3.963650,10.284001,18.242039,34.065014,31.045448,3.019551,7.537825,24.610754,35.165005,67.718636,129.008850,8064.000000,0.000000,4.000000,,,,0.000000,2.000000,4.000000,2.000000,4.000000,2.000000,2.000000,2.000000,2.000000,2.000000,2.000000,2.000000,2.000000,4.000000,2.000000,4.000000,4.000000,4.000000,4.000000,4.000000,4.000000,4.000000,4.000000,4.000000,4.000000,4.000000,4.000000,4.000000,4.000000,4.000000,4.000000,4.000000,4.000000,50.000000
1613958805.446649,127.000000,0.000000,12.296283,28.609894,111.076447,69.808800,22.286575,41.785015,17.114868,-0.946369,11.186352,1.718106,5.759912,-0.086127,-0.011608,6.991665,-3.701727,-8.865242,-4.253111,-17.137098,-15.342010,-15.789672,-5.195372,-13.190455,8.222435,24.377642,30.441206,28.963121,4.554993,7.530287,26.637424,35.129841,68.676559,131.956757,8064.000000,0.000000,4.000000,,,,0.000000,2.000000,4.000000,2.000000,4.000000,2.000000,2.000000,2.000000,2.000000,2.000000,2.000000,2.000000,2.000000,4.000000,2.000000,4.000000,4.000000,4.000000,4.000000,4.000000,4.000000,4.000000,4.000000,4.000000,4.000000,4.000000,4.000000,4.000000,4.000000,4.000000,4.000000,4.000000,4.000000,50.000000
1613958805.454498,0.000000,0.000000,10.745524,28.581285,114.042290,73.328735,24.315571,41.743233,16.072113,-0.432602,13.739268,2.229209,2.164408,-8.291169,-11.806468,4.933391,-14.467256,-14.497402,-15.530909,-29.940474,-29.172823,-35.773884,-14.933766,-21.382393,4.624469,8.455829,18.615894,21.754671,4.037618,7.522757,26.097967,35.094711,67.582237,137.465836,0.000000,120.000000,4.000000,,,,0.000000,2.000000,4.000000,2.000000,4.000000,2.000000,2.000000,2.000000,2.000000,2.000000,4.000000,2.000000,2.000000,4.000000,2.000000,4.000000,4.000000,4.000000,4.000000,4.000000,4.000000,4.000000,4.000000,4.000000,4.000000,4.000000,4.000000,4.000000,4.000000,4.000000,4.000000,4.000000,4.000000,50.000000
1613958805.462247,1.000000,0.000000,8.170676,28.552704,117.005173,77.870789,24.291256,40.675846,16.568861,-0.432170,15.776811,2.739800,1.649423,-10.334161,-17.435686,4.415637,-17.529711,-20.123930,-16.541019,-33.500278,-37.348778,-44.456059,-22.098320,-25.463575,1.542922,-9.501345,15.007534,18.655993,0.443836,7.515234,26.071869,31.469873,68.027481,139.892471,0.000000,170.000000,4.000000,,,,0.000000,2.000000,4.000000,2.000000,4.000000,2.000000,2.000000,2.000000,2.000000,2.000000,4.000000,2.000000,2.000000,4.000000,2.000000,4.000000,4.000000,4.000000,4.000000,4.000000,4.000000,4.000000,4.000000,4.000000,4.000000,4.000000,4.000000,4.000000,4.000000,4.000000,4.000000,4.000000,4.000000,50.000000
1613958805.470096,2.000000,0.000000,7.649685,28.524151,117.400986,72.664719,11.446452,35.506966,15.526650,-6.072763,11.145650,-7.006529,-1.941970,-9.298185,-16.392611,-0.716983,-20.589106,-26.257652,-15.498837,-37.569340,-40.901173,-45.437241,-38.486477,-34.668880,-6.150929,-9.491843,16.018167,20.175798,-5.710454,7.507719,25.020157,25.284557,67.959450,138.726929,0.000000,153.000000,4.000000,,,,0.000000,2.000000,4.000000,2.000000,4.000000,2.000000,2.000000,4.000000,2.000000,2.000000,4.000000,2.000000,2.000000,4.000000,2.000000,4.000000,4.000000,4.000000,4.000000,4.000000,4.000000,4.000000,4.000000,4.000000,4.000000,4.000000,4.000000,4.000000,4.000000,4.000000,4.000000,4.000000,4.000000,50.000000
1613958805.477845,3.000000,0.000000,8.154856,28.495626,117.283585,66.438202,1.178595,29.830433,13.459842,-11.707716,4.467837,-16.230291,-5.016951,-9.801707,-16.376217,-6.870113,-19.030054,-25.718575,-15.996159,-37.018951,-37.270527,-42.827702,-38.960812,-38.736774,-11.272984,-13.072095,15.489329,20.155622,-8.781667,7.500211,22.943855,23.207991,67.891495,139.101028,0.000000,150.000000,4.000000,,,,0.000000,2.000000,4.000000,2.000000,4.000000,2.000000,2.000000,4.000000,2.000000,2.000000,4.000000,2.000000,2.000000,4.000000,2.000000,4.000000,4.000000,4.000000,4.000000,4.000000,4.000000,4.000000,4.000000,4.000000,4.000000,4.000000,4.000000,4.000000,4.000000,4.000000,4.000000,4.000000,4.000000,50.000000
1613958805.485694,4.000000,0.000000,8.146701,28.467131,116.653481,69.961510,5.279981,28.774961,12.420741,-12.208829,3.950549,-12.111498,-0.909370,-9.791905,-11.231636,-7.888884,-4.139229,-10.821061,-9.313496,-27.238342,-22.874283,-27.400259,-14.306466,-27.928808,-8.697608,-16.135946,17.012300,19.622646,-5.183141,7.492711,21.895269,23.184782,67.823601,138.449112,0.000000,136.000000,4.000000,,,,0.000000,2.000000,4.000000,2.000000,2.000000,2.000000,2.000000,4.000000,2.000000,2.000000,4.000000,2.000000,2.000000,4.000000,2.000000,4.000000,4.000000,4.000000,4.000000,4.000000,4.000000,4.000000,4.000000,4.000000,4.000000,4.000000,4.000000,4.000000,4.000000,4.000000,4.000000,4.000000,4.000000,50.000000
1613958805.493443,5.000000,0.000000,7.625734,28.438663,116.536827,72.968475,8.864444,29.259008,12.921141,-11.170979,4.459419,-10.048104,2.168463,-9.269294,-5.579379,-8.393815,5.608500,0.984632,-3.663157,-21.570078,-12.082178,-16.603628,1.092456,-18.157290,-6.637628,0.290446,20.072212,20.115845,0.975888,7.485219,22.386194,23.674417,67.755775,138.823471,0.000000,151.000000,4.000000,,,,0.000000,2.000000,4.000000,2.000000,2.000000,2.000000,2.000000,4.000000,2.000000,2.000000,4.000000,2.000000,2.000000,4.000000,2.000000,4.000000,4.000000,4.000000,4.000000,4.000000,4.000000,4.000000,4.000000,4.000000,4.000000,4.000000,4.000000,4.000000,4.000000,4.000000,4.000000,4.000000,4.000000,50.000000
1613958805.501292,6.000000,0.000000,8.130929,28.410225,118.471573,73.408325,8.342759,29.229748,12.908219,-12.185450,3.942139,-13.627800,-1.423449,-9.260024,-8.650723,-10.949524,2.525968,-2.606097,-4.172314,-23.086969,-11.557275,-16.587025,-0.447098,-19.164774,-7.143811,10.546566,18.000858,20.095728,4.564656,7.477733,22.363808,24.163565,67.688019,140.735931,0.000000,128.000000,4.000000,,,,0.000000,2.000000,4.000000,2.000000,2.000000,2.000000,2.000000,4.000000,2.000000,2.000000,4.000000,2.000000,2.000000,4.000000,2.000000,4.000000,4.000000,4.000000,4.000000,4.000000,4.000000,4.000000,4.000000,4.000000,4.000000,4.000000,4.000000,4.000000,4.000000,4.000000,4.000000,4.000000,4.000000,50.000000
1613958805.509041,7.000000,0.000000,8.122798,28.381815,120.404388,75.899017,15.513904,33.815903,12.382491,-12.173264,3.938197,-5.921864,-2.447667,-9.250764,-11.718995,-11.451395,0.984980,-7.218875,-2.629680,-21.525421,-6.930333,-6.826848,0.578990,-20.171249,-6.623847,0.279609,12.854651,20.075632,4.560091,7.470255,21.828625,21.062477,67.620331,142.133667,0.000000,116.000000,4.000000,,,,0.000000,2.000000,4.000000,2.000000,2.000000,2.000000,2.000000,4.000000,2.000000,2.000000,4.000000,2.000000,2.000000,4.000000,2.000000,4.000000,4.000000,4.000000,4.000000,4.000000,4.000000,4.000000,4.000000,4.000000,4.000000,4.000000,4.000000,4.000000,4.000000,4.000000,4.000000,4.000000,4.000000,50.000000
1613958805.516890,8.000000,0.000000,8.114675,28.353434,120.283981,74.797478,23.190697,37.371830,12.882929,-11.648270,3.934258,-1.300558,-1.932399,-9.241513,-9.143173,-10.927123,0.983995,-5.673195,3.013975,-18.939793,-2.820839,1.897927,-1.472871,-18.612617,-6.617223,-0.746312,11.303335,20.055557,4.555531,7.462785,22.319616,16.938850,67.552711,141.478699,0.000000,162.000000,4.000000,,,,0.000000,4.000000,4.000000,2.000000,2.000000,2.000000,2.000000,4.000000,2.000000,2.000000,4.000000,2.000000,2.000000,4.000000,2.000000,4.000000,4.000000,4.000000,4.000000,4.000000,4.000000,4.000000,4.000000,4.000000,4.000000,4.000000,4.000000,4.000000,4.000000,4.000000,4.000000,4.000000,4.000000,50.000000
1613958805.524639,9.000000,0.000000,8.106561,28.325079,119.650879,74.209862,24.193148,36.821640,12.870047,-11.636621,4.443145,-11.555668,-4.494569,-9.232272,-8.621210,-11.429016,-1.581091,-7.718803,4.036602,-18.408033,-10.510325,-10.924483,-6.599604,-18.594004,-6.097785,9.510845,12.830494,20.035501,3.525335,7.455322,22.297297,16.409092,67.485161,141.337234,0.000000,157.000000,4.000000,,,,0.000000,4.000000,4.000000,2.000000,2.000000,2.000000,2.000000,4.000000,2.000000,2.000000,4.000000,2.000000,2.000000,4.000000,2.000000,4.000000,4.000000,4.000000,4.000000,4.000000,4.000000,4.000000,4.000000,4.000000,4.000000,4.000000,4.000000,4.000000,4.000000,4.000000,4.000000,4.000000,4.000000,50.000000
1613958805.532488,10.000000,0.000000,8.611275,28.296755,120.044044,80.802315,24.168955,37.810459,12.857176,-11.624985,6.489984,-13.595394,-6.028536,-9.223040,-7.586947,-9.879126,-2.092330,-10.788008,3.519745,-18.389626,-18.192123,-21.169970,-7.105824,-19.601051,-4.040405,7.962873,10.766381,18.477005,0.957707,7.447867,22.787819,15.879862,67.417671,141.195892,0.000000,139.000000,4.000000,,,,0.000000,4.000000,4.000000,2.000000,2.000000,2.000000,2.000000,4.000000,2.000000,2.000000,4.000000,2.000000,2.000000,4.000000,2.000000,4.000000,2.000000,4.000000,4.000000,4.000000,4.000000,4.000000,4.000000,4.000000,4.000000,4.000000,4.000000,4.000000,4.000000,4.000000,4.000000,4.000000,4.000000,50.000000
1613958805.540237,11.000000,0.000000,9.628304,28.268457,119.924004,81.234337,19.529402,36.234188,13.357140,-11.613360,8.534776,-9.479235,-5.509687,-8.700996,-7.579360,-12.433350,-4.654341,-10.777220,4.029046,-20.935339,-21.250854,-20.635979,-11.201283,-19.581450,-2.497903,1.801064,8.191512,16.407246,0.443928,7.440419,22.252211,12.787059,67.350258,141.054688,0.000000,169.000000,4.000000,,,,0.000000,4.000000,4.000000,2.000000,2.000000,2.000000,2.000000,4.000000,2.000000,2.000000,4.000000,2.000000,2.000000,4.000000,2.000000,4.000000,2.000000,4.000000,4.000000,4.000000,4.000000,4.000000,4.000000,4.000000,4.000000,4.000000,4.000000,4.000000,4.000000,4.000000,4.000000,4.000000,4.000000,50.000000
1613958805.548086,12.000000,0.000000,6.541753,28.240189,119.804077,72.947975,12.843204,31.069746,12.318141,-11.601747,8.013420,-19.213345,-5.504177,-9.205115,-15.776910,-17.549122,-11.829173,-15.381827,0.435273,-28.093889,-28.921911,-27.282009,-21.446491,-19.561869,-3.008226,-2.303302,8.183321,14.339556,-0.069336,7.432979,21.717138,12.261452,67.282906,140.913635,0.000000,165.000000,4.000000,,,,0.000000,4.000000,4.000000,2.000000,2.000000,2.000000,2.000000,4.000000,2.000000,2.000000,4.000000,2.000000,2.000000,4.000000,4.000000,4.000000,2.000000,4.000000,4.000000,4.000000,4.000000,4.000000,4.000000,4.000000,4.000000,4.000000,4.000000,4.000000,4.000000,4.000000,4.000000,4.000000,4.000000,50.000000
1613958805.555836,13.000000,0.000000,4.996749,28.211948,119.684273,71.336563,13.343183,31.038677,13.331464,-9.538863,8.005407,-21.245413,-5.498673,-9.195910,-17.812414,-13.429008,-14.894267,-22.033112,-3.667726,-31.655540,-36.072475,-31.357292,-23.989147,-19.542307,-3.005218,-7.429204,5.611035,12.786755,-2.633369,7.425546,22.721062,11.736370,67.215622,140.772720,0.000000,167.000000,4.000000,,,,0.000000,4.000000,4.000000,2.000000,2.000000,2.000000,2.000000,4.000000,2.000000,2.000000,4.000000,2.000000,2.000000,4.000000,4.000000,4.000000,2.000000,4.000000,4.000000,4.000000,4.000000,4.000000,4.000000,4.000000,4.000000,4.000000,4.000000,4.000000,4.000000,4.000000,4.000000,4.000000,4.000000,50.000000
1613958805.563685,14.000000,0.000000,6.017394,28.183737,119.051765,75.367790,16.406761,32.546101,13.830954,-7.478042,8.510222,-10.454937,-4.980354,-8.673894,-7.538192,-3.671989,-13.340912,-18.934156,-4.689700,-30.085423,-35.010761,-23.120806,-22.939518,-19.009945,-3.002212,-9.473056,-0.548422,12.261147,-3.656377,7.930941,21.159880,8.134890,67.148407,140.631958,0.000000,156.000000,4.000000,,,,0.000000,4.000000,4.000000,2.000000,2.000000,2.000000,2.000000,4.000000,2.000000,2.000000,4.000000,2.000000,4.000000,4.000000,4.000000,4.000000,2.000000,4.000000,4.000000,4.000000,4.000000,4.000000,4.000000,4.000000,4.000000,4.000000,4.000000,4.000000,4.000000,4.000000,4.000000,4.000000,4.000000,50.000000
1613958805.571434,15.000000,0.000000,-3.219393,28.155554,118.932716,76.318062,13.826253,28.410990,8.688917,-8.496205,6.450430,-15.572687,-7.539476,-10.203682,-7.530654,-2.642676,-13.327571,-14.299837,-8.274754,-27.491234,-34.462933,-22.072044,-23.429399,-19.503756,-2.999210,-6.386660,-3.624797,12.248886,-3.139900,5.871728,13.446412,4.537011,67.081261,140.491318,0.000000,151.000000,4.000000,,,,0.000000,4.000000,4.000000,2.000000,2.000000,2.000000,2.000000,4.000000,2.000000,2.000000,4.000000,2.000000,4.000000,4.000000,4.000000,4.000000,2.000000,4.000000,4.000000,4.000000,4.000000,4.000000,4.000000,4.000000,4.000000,4.000000,4.000000,4.000000,4.000000,4.000000,4.000000,4.000000,4.000000,50.000000
1613958805.579283,16.000000,0.000000,-15.523866,28.127398,119.326607,75.216103,11.761145,24.280014,2.013561,-11.564631,4.392697,-23.249422,-9.583219,-13.783221,-18.292355,-6.742598,-14.339884,-14.798358,-12.881864,-26.950922,-34.941288,-24.614075,-17.252123,-19.997072,-3.509031,-5.867453,-2.082711,12.236637,-3.649580,3.814574,9.843223,4.532474,67.014175,139.325195,0.000000,171.000000,4.000000,,,,0.000000,4.000000,4.000000,2.000000,2.000000,2.000000,2.000000,4.000000,2.000000,2.000000,4.000000,2.000000,4.000000,4.000000,4.000000,4.000000,2.000000,4.000000,4.000000,4.000000,4.000000,4.000000,4.000000,4.000000,4.000000,4.000000,4.000000,4.000000,4.000000,4.000000,4.000000,4.000000,4.000000,50.000000
1613958805.587032,17.000000,0.000000,-10.380136,28.099270,118.694458,75.140892,11.236563,25.281376,0.985907,-12.065887,4.388305,-13.995404,-7.522353,-16.846361,-21.350985,-7.761496,-13.812724,-12.732277,-8.766418,-26.411152,-28.239681,-15.871511,-6.978461,-16.900152,-3.505522,-6.887227,2.534757,12.737222,-3.645931,3.297939,14.448764,8.630506,66.947166,139.698685,0.000000,165.000000,4.000000,,,,0.000000,4.000000,4.000000,2.000000,2.000000,2.000000,2.000000,4.000000,2.000000,2.000000,4.000000,2.000000,4.000000,4.000000,4.000000,4.000000,2.000000,4.000000,4.000000,4.000000,4.000000,4.000000,4.000000,4.000000,4.000000,4.000000,4.000000,4.000000,4.000000,4.000000,4.000000,4.000000,4.000000,50.000000
1613958805.594881,18.000000,0.000000,-2.164629,28.071171,118.062943,75.578568,11.738147,25.768915,2.010562,-10.002540,3.871096,-7.314742,-5.463549,-17.342335,-17.739891,-6.728094,-11.234809,-8.104160,-4.142266,-23.820637,-21.031954,-9.188973,-3.381739,-11.755046,-2.989196,-4.316236,6.634786,12.724484,-3.129465,3.807462,18.536879,13.237260,66.880219,140.584625,0.000000,177.000000,4.000000,,,,0.000000,4.000000,4.000000,2.000000,2.000000,2.000000,2.000000,4.000000,2.000000,2.000000,4.000000,2.000000,4.000000,4.000000,4.000000,4.000000,2.000000,4.000000,4.000000,4.000000,4.000000,4.000000,4.000000,4.000000,4.000000,4.000000,4.000000,4.000000,4.000000,4.000000,4.000000,4.000000,4.000000,50.000000
1613958805.602630,19.000000,0.000000,-6.777849,28.043100,119.483345,75.502991,18.393076,25.230326,1.495731,-8.454076,3.867225,-7.820248,-5.458086,-15.786531,-13.106766,-5.182904,-7.633830,-7.070415,-5.676586,-17.642971,-17.933998,-10.718246,-4.916819,-12.768932,-4.011848,-1.747818,7.653792,11.686119,-4.151976,3.803654,18.005522,11.685561,66.813339,138.392761,0.000000,176.000000,4.000000,,,,0.000000,4.000000,4.000000,2.000000,2.000000,2.000000,2.000000,4.000000,2.000000,2.000000,4.000000,2.000000,4.000000,4.000000,4.000000,4.000000,2.000000,4.000000,4.000000,4.000000,4.000000,4.000000,4.000000,4.000000,4.000000,4.000000,4.000000,4.000000,4.000000,4.000000,4.000000,4.000000,4.000000,50.000000
1613958805.610479,20.000000,0.000000,-5.745430,28.015057,121.927963,74.401848,22.990067,25.205095,0.981415,-7.932801,5.914639,-3.709863,-5.965448,-11.155360,-2.837249,-4.152080,-7.113376,-4.499242,-1.568345,-10.445841,-14.839142,-5.066502,-4.911901,-13.781804,-0.930913,-2.771711,8.671780,14.751356,-1.583722,3.287030,17.474695,12.186696,66.233704,140.818466,0.000000,193.000000,4.000000,,,,0.000000,4.000000,4.000000,2.000000,2.000000,2.000000,2.000000,4.000000,2.000000,2.000000,4.000000,2.000000,4.000000,4.000000,4.000000,4.000000,2.000000,4.000000,4.000000,4.000000,4.000000,4.000000,4.000000,4.000000,4.000000,4.000000,4.000000,4.000000,4.000000,4.000000,4.000000,4.000000,4.000000,50.000000
1613958805.618328,21.000000,0.000000,5.029547,27.987041,121.293213,75.865906,17.838871,24.667070,3.031715,-7.924868,7.447186,-0.629230,-5.446662,-9.092923,3.319435,-3.635107,-4.542160,0.120642,7.151172,-7.871292,-11.747379,4.682154,-1.830067,-6.588535,8.300787,-1.230478,13.791313,21.403271,6.110170,3.283743,21.046965,20.892458,66.167473,151.446884,0.000000,174.000000,4.000000,,,,0.000000,4.000000,4.000000,2.000000,2.000000,2.000000,2.000000,4.000000,2.000000,2.000000,4.000000,2.000000,4.000000,4.000000,4.000000,4.000000,2.000000,4.000000,4.000000,4.000000,4.000000,4.000000,4.000000,4.000000,4.000000,4.000000,4.000000,4.000000,4.000000,4.000000,4.000000,4.000000,4.000000,50.000000
1613958805.626077,22.000000,0.000000,9.639901,27.959055,122.710381,80.918243,17.308212,26.693684,5.592786,-8.429764,8.978201,-0.628601,-5.441215,-9.596651,2.290474,-3.631472,-0.947874,0.120521,10.220944,-8.889062,-11.222812,5.703113,2.787148,1.623182,15.984794,6.463060,15.315983,24.458790,11.232265,3.793280,26.666943,28.051052,67.639763,158.987747,0.000000,198.000000,4.000000,,,,0.000000,4.000000,4.000000,2.000000,2.000000,2.000000,2.000000,4.000000,2.000000,2.000000,4.000000,2.000000,4.000000,4.000000,4.000000,4.000000,2.000000,4.000000,4.000000,4.000000,4.000000,4.000000,4.000000,4.000000,4.000000,4.000000,4.000000,4.000000,4.000000,4.000000,4.000000,4.000000,4.000000,50.000000
1613958805.633926,23.000000,0.000000,8.091800,27.931095,129.767151,83.401428,23.444750,28.718273,7.638475,-7.395693,11.020505,2.448951,-5.435774,-4.458849,3.313825,-3.115020,1.104356,0.120400,13.287646,-2.213506,-4.544922,8.774333,8.938207,3.160020,15.455989,12.610443,14.275026,22.383049,11.221032,3.276666,29.717199,27.510181,69.110588,157.803116,0.000000,217.000000,4.000000,,,,0.000000,4.000000,4.000000,2.000000,2.000000,2.000000,2.000000,4.000000,2.000000,2.000000,4.000000,2.000000,4.000000,4.000000,4.000000,4.000000,2.000000,4.000000,4.000000,4.000000,4.000000,4.000000,4.000000,4.000000,4.000000,4.000000,4.000000,4.000000,4.000000,4.000000,4.000000,4.000000,4.000000,50.000000
1613958805.641675,24.000000,0.000000,8.083709,27.903164,132.714310,82.292389,22.908485,28.176735,9.169298,-5.337016,12.035126,1.933681,-2.866236,3.750738,5.361793,3.041941,8.282739,7.299767,21.479486,11.122041,15.972444,23.124533,14.570294,5.720963,14.927712,12.085012,20.927418,24.924770,11.722632,3.273389,29.174662,26.969851,70.579933,156.619675,0.000000,153.000000,4.000000,,,,0.000000,4.000000,4.000000,2.000000,2.000000,2.000000,2.000000,4.000000,2.000000,2.000000,4.000000,2.000000,4.000000,4.000000,4.000000,4.000000,2.000000,4.000000,4.000000,4.000000,4.000000,4.000000,4.000000,4.000000,4.000000,4.000000,4.000000,4.000000,4.000000,4.000000,4.000000,4.000000,4.000000,50.000000
1613958805.649524,25.000000,0.000000,8.588445,27.875261,133.607239,84.261375,23.398397,30.199839,9.672950,-3.793217,11.510270,-1.657996,0.726374,6.311090,7.407713,11.756847,20.582148,18.574518,25.047750,18.290405,34.930828,39.511665,18.658289,13.920370,19.528170,13.611389,31.675720,32.079330,14.787832,6.347039,29.145487,31.045444,75.124741,158.001511,0.000000,196.000000,4.000000,,,,0.000000,4.000000,4.000000,2.000000,2.000000,2.000000,2.000000,4.000000,2.000000,2.000000,4.000000,2.000000,4.000000,4.000000,4.000000,4.000000,2.000000,4.000000,4.000000,4.000000,4.000000,4.000000,4.000000,4.000000,4.000000,4.000000,4.000000,4.000000,4.000000,4.000000,4.000000,4.000000,4.000000,50.000000
1613958805.657273,26.000000,0.000000,10.631139,27.847385,138.089020,86.741219,29.528845,36.836308,9.150456,-4.302244,11.498759,-0.117877,2.264109,5.279138,12.015690,15.847655,28.253874,29.325174,28.099627,20.836218,34.895901,44.087536,18.126810,18.009014,22.072742,21.802906,35.233788,35.636997,18.362789,10.443255,29.629162,32.040039,78.126541,157.843506,0.000000,185.000000,4.000000,,,,0.000000,4.000000,4.000000,2.000000,2.000000,2.000000,2.000000,4.000000,2.000000,2.000000,4.000000,2.000000,4.000000,4.000000,4.000000,4.000000,2.000000,4.000000,4.000000,4.000000,4.000000,4.000000,4.000000,4.000000,4.000000,4.000000,4.000000,4.000000,4.000000,4.000000,4.000000,4.000000,4.000000,50.000000
1613958805.665122,27.000000,0.000000,12.671790,27.819538,136.925293,83.064735,23.858290,40.902035,9.141306,-4.297942,11.487261,-3.194682,2.261845,5.786679,12.516495,14.806167,28.225620,27.757389,32.174091,23.379484,27.168695,36.351143,18.108683,17.478184,22.563492,26.909307,33.147274,33.550076,18.857246,11.458453,29.086712,29.956718,74.971489,156.147202,0.000000,163.000000,4.000000,,,,0.000000,4.000000,4.000000,2.000000,2.000000,2.000000,2.000000,4.000000,2.000000,2.000000,4.000000,2.000000,4.000000,4.000000,4.000000,4.000000,2.000000,4.000000,4.000000,4.000000,4.000000,4.000000,4.000000,4.000000,4.000000,4.000000,4.000000,4.000000,4.000000,4.000000,4.000000,4.000000,4.000000,50.000000
1613958805.672871,28.000000,0.000000,10.095016,27.791719,128.070419,78.366287,9.475457,39.835491,9.132165,-4.293644,11.475774,-13.960718,2.259583,4.755251,7.375773,15.304181,19.992266,12.345016,29.577814,13.612514,22.526142,26.058380,19.116215,15.922244,22.540928,28.420860,29.011562,30.952425,18.325567,11.446995,29.057625,31.465223,74.383698,155.991058,0.000000,169.000000,4.000000,,,,0.000000,4.000000,4.000000,2.000000,2.000000,2.000000,2.000000,4.000000,2.000000,2.000000,4.000000,2.000000,4.000000,4.000000,4.000000,4.000000,2.000000,4.000000,4.000000,4.000000,4.000000,4.000000,4.000000,4.000000,4.000000,4.000000,4.000000,4.000000,4.000000,4.000000,4.000000,4.000000,4.000000,50.000000
1613958805.680720,29.000000,0.000000,8.546459,27.251106,123.839775,78.287918,7.414700,39.282833,9.123033,-4.289351,11.464297,-15.485219,1.744503,2.186394,4.804295,14.776056,7.664581,0.024978,24.932852,-7.426739,7.631821,17.827194,9.353509,10.265296,19.954285,25.828337,26.418447,28.870190,19.332884,11.435548,29.541388,29.382475,77.386238,157.886353,0.000000,198.000000,4.000000,,,,0.000000,4.000000,4.000000,2.000000,2.000000,2.000000,2.000000,4.000000,2.000000,2.000000,4.000000,2.000000,4.000000,4.000000,4.000000,4.000000,2.000000,4.000000,4.000000,4.000000,4.000000,4.000000,4.000000,4.000000,4.000000,4.000000,4.000000,4.000000,4.000000,4.000000,4.000000,4.000000,4.000000,50.000000
1613958805.688469,30.000000,0.000000,8.025092,27.736677,123.715942,76.671165,14.073952,40.269192,9.113910,-4.797882,11.452833,-6.751785,1.742759,1.158566,6.337953,15.274100,0.477430,-1.000688,24.395098,-17.675722,-13.401452,6.014495,-7.066101,2.562723,15.831766,16.058918,25.366388,26.790037,16.236628,9.372830,27.460566,17.045401,73.206284,151.061798,0.000000,163.000000,4.000000,,,,0.000000,4.000000,4.000000,2.000000,2.000000,2.000000,2.000000,4.000000,2.000000,2.000000,4.000000,2.000000,4.000000,4.000000,4.000000,4.000000,2.000000,4.000000,4.000000,4.000000,4.000000,4.000000,4.000000,4.000000,4.000000,4.000000,4.000000,4.000000,4.000000,4.000000,4.000000,4.000000,4.000000,50.000000
1613958805.696318,31.000000,0.000000,2.888862,27.708941,121.028122,74.030396,16.111160,39.716103,9.104795,-4.793084,11.441381,-7.257854,2.253837,1.670228,5.818794,14.746006,0.476952,1.051595,19.755318,-16.119585,-19.029076,-5.273571,-14.238522,-2.568044,14.277472,7.837731,25.853842,26.250427,8.015263,7.824996,21.279259,6.771945,66.466415,139.115860,0.000000,146.000000,4.000000,,,,0.000000,4.000000,4.000000,2.000000,2.000000,2.000000,2.000000,4.000000,2.000000,2.000000,4.000000,2.000000,4.000000,4.000000,4.000000,4.000000,2.000000,4.000000,4.000000,4.000000,4.000000,4.000000,4.000000,4.000000,2.000000,4.000000,4.000000,4.000000,4.000000,4.000000,4.000000,4.000000,4.000000,50.000000
1613958805.704067,32.000000,0.000000,-2.755053,26.655590,119.881454,73.956360,15.582229,40.189209,9.095691,-3.249829,11.942760,-12.378800,0.200301,1.668558,5.300155,8.577414,0.476475,-0.487918,11.017614,-16.103466,-16.445944,-8.858041,-12.685822,-5.129579,13.237554,7.317073,25.827988,26.736998,2.879042,7.304351,17.668236,9.842096,65.887123,138.976746,8064.000000,0.000000,4.000000,,,,0.000000,4.000000,4.000000,2.000000,2.000000,2.000000,2.000000,4.000000,2.000000,2.000000,4.000000,2.000000,4.000000,4.000000,4.000000,4.000000,2.000000,4.000000,4.000000,4.000000,4.000000,4.000000,4.000000,4.000000,2.000000,4.000000,4.000000,4.000000,4.000000,4.000000,4.000000,4.000000,4.000000,50.000000
1613958805.711916,33.000000,0.000000,-3.777939,24.064831,119.761574,74.395226,13.515364,39.123379,9.086595,-4.785041,10.905176,-13.392063,-2.364002,1.666889,5.807675,0.363708,-0.036822,-4.589994,8.442494,-17.625824,-18.480780,-7.310721,-7.544931,-5.637270,10.660213,8.335398,24.263699,26.197439,3.388984,2.681662,17.650568,15.473280,65.308418,147.042892,8064.000000,0.000000,4.000000,,,,0.000000,4.000000,4.000000,2.000000,2.000000,2.000000,2.000000,4.000000,2.000000,2.000000,4.000000,2.000000,4.000000,4.000000,4.000000,4.000000,2.000000,4.000000,4.000000,4.000000,4.000000,4.000000,4.000000,4.000000,2.000000,4.000000,4.000000,4.000000,4.000000,4.000000,4.000000,4.000000,4.000000,50.000000
1613958805.719665,34.000000,0.000000,-2.748520,23.527946,120.154633,73.808014,16.578772,39.084255,9.077508,-5.805897,11.407091,-13.378671,-1.848818,1.665223,5.289047,-1.175117,-0.036785,-4.585404,8.946873,-17.095377,-12.308454,-4.739307,-2.409181,-3.580351,10.136733,7.301421,22.188152,26.684063,3.898416,0.114877,18.145737,15.970628,63.191830,148.434311,8064.000000,0.000000,4.000000,,,,0.000000,4.000000,4.000000,2.000000,2.000000,2.000000,2.000000,4.000000,2.000000,2.000000,4.000000,2.000000,4.000000,4.000000,4.000000,4.000000,2.000000,4.000000,4.000000,4.000000,4.000000,4.000000,4.000000,4.000000,2.000000,4.000000,4.000000,4.000000,4.000000,4.000000,4.000000,4.000000,4.000000,50.000000
1613958805.727514,35.000000,0.000000,-3.258592,24.017239,122.085754,74.759842,27.844244,41.096451,9.068431,0.866576,13.446966,-6.698626,3.281236,1.663557,6.309399,1.390160,0.988893,0.547386,9.450746,-15.026999,0.524368,-0.119184,-0.355490,-1.012668,11.152237,7.806940,22.165964,27.170198,3.381696,3.704506,17.614771,15.441836,65.179916,148.285889,8064.000000,0.000000,4.000000,,,,0.000000,4.000000,4.000000,2.000000,2.000000,2.000000,2.000000,4.000000,2.000000,2.000000,4.000000,2.000000,4.000000,4.000000,4.000000,4.000000,2.000000,4.000000,4.000000,4.000000,4.000000,4.000000,4.000000,4.000000,2.000000,4.000000,4.000000,4.000000,4.000000,4.000000,4.000000,4.000000,4.000000,50.000000
1613958805.735263,36.000000,0.000000,-3.255333,23.993221,123.502129,74.172264,24.739477,35.927151,9.059362,2.404171,11.895058,-2.076542,1.226673,1.661894,5.790269,-1.688153,1.500725,-5.607008,9.441296,-15.524793,0.523843,0.906577,-0.355134,-1.011655,10.628264,8.311954,22.143799,25.604567,3.891135,2.675161,18.109976,16.452036,64.601921,148.137604,8192.000000,0.000000,4.000000,,,,0.000000,4.000000,4.000000,2.000000,2.000000,2.000000,2.000000,4.000000,2.000000,2.000000,4.000000,2.000000,4.000000,4.000000,4.000000,4.000000,2.000000,4.000000,4.000000,4.000000,4.000000,4.000000,4.000000,4.000000,2.000000,4.000000,4.000000,4.000000,4.000000,4.000000,4.000000,4.000000,4.000000,50.000000
1613958805.743112,37.000000,0.000000,-3.252078,23.456408,123.378632,71.021172,11.894225,28.711737,8.537482,-7.854643,7.267778,-13.356517,-9.543784,1.660232,3.220376,-10.917233,0.473583,-16.370632,8.919033,-16.534910,-6.143347,-0.119971,-0.867600,-4.087566,11.130457,8.303641,17.506271,24.040501,3.887244,0.108383,18.091867,15.922763,59.409111,144.399719,8192.000000,0.000000,4.000000,,,,0.000000,4.000000,4.000000,2.000000,2.000000,2.000000,2.000000,4.000000,2.000000,2.000000,4.000000,2.000000,4.000000,4.000000,4.000000,4.000000,2.000000,4.000000,4.000000,4.000000,4.000000,4.000000,4.000000,4.000000,2.000000,4.000000,4.000000,4.000000,4.000000,4.000000,4.000000,4.000000,4.000000,50.000000
1613958805.750861,38.000000,0.000000,-2.223185,23.945772,125.819351,71.462967,20.600279,32.272766,9.554586,-7.846789,9.311792,-18.984186,-6.970138,1.658572,3.217156,-16.547342,0.985930,-8.149133,10.961396,-6.774785,-4.085922,4.495533,0.671730,-5.109120,15.734711,8.295338,14.924662,21.452358,3.883357,4.723659,18.073774,16.419661,57.811241,145.793777,8064.000000,0.000000,4.000000,,,,0.000000,4.000000,4.000000,2.000000,2.000000,2.000000,2.000000,4.000000,2.000000,2.000000,4.000000,2.000000,4.000000,4.000000,4.000000,4.000000,2.000000,4.000000,4.000000,4.000000,4.000000,4.000000,4.000000,4.000000,2.000000,4.000000,4.000000,4.000000,4.000000,4.000000,4.000000,4.000000,4.000000,50.000000
1613958805.758710,39.000000,0.000000,0.343141,23.921825,127.744820,74.468430,29.810448,37.881519,12.621955,4.468750,15.969147,-6.144689,9.447088,1.656913,5.778041,-13.966692,6.625969,10.320555,19.668385,8.616606,1.046369,10.644884,5.286442,-2.539908,19.308720,8.287043,15.422558,17.328342,4.392294,5.744576,18.568521,16.403240,58.779072,150.776184,8320.000000,0.000000,4.000000,,,,0.000000,4.000000,4.000000,2.000000,2.000000,2.000000,2.000000,4.000000,2.000000,2.000000,4.000000,2.000000,4.000000,4.000000,4.000000,4.000000,2.000000,4.000000,4.000000,4.000000,4.000000,4.000000,4.000000,4.000000,2.000000,4.000000,4.000000,4.000000,4.000000,4.000000,4.000000,4.000000,4.000000,50.000000
1613958805.766459,40.000000,0.000000,1.368439,22.872263,125.052971,72.342682,11.831920,32.202614,12.096512,4.464282,12.363435,-4.087263,9.950461,1.655256,6.797904,-8.824520,7.644985,12.874337,25.289742,7.069527,2.583784,12.685521,6.306797,-2.024548,17.750950,8.278755,11.304571,15.259731,3.362261,-3.491937,16.498671,13.309915,58.207470,143.958740,8192.000000,0.000000,4.000000,,,,0.000000,4.000000,4.000000,2.000000,2.000000,2.000000,2.000000,4.000000,2.000000,2.000000,4.000000,2.000000,4.000000,4.000000,4.000000,4.000000,2.000000,4.000000,4.000000,4.000000,4.000000,4.000000,4.000000,4.000000,2.000000,4.000000,4.000000,4.000000,4.000000,4.000000,4.000000,4.000000,4.000000,50.000000
1613958805.774308,41.000000,0.000000,0.854250,20.285288,123.902275,67.142128,8.230345,27.042206,9.007492,-0.668388,4.658763,-13.313945,-3.392822,1.653601,2.688542,-7.277235,-0.054968,-0.984691,21.161888,-5.758055,2.581201,11.134375,-0.366176,-5.099446,14.656276,8.270476,4.113779,15.757292,0.794796,-8.616651,11.866788,9.194040,58.149261,133.045563,8064.000000,0.000000,4.000000,,,,0.000000,4.000000,4.000000,2.000000,2.000000,2.000000,2.000000,4.000000,2.000000,2.000000,4.000000,2.000000,4.000000,4.000000,4.000000,4.000000,2.000000,4.000000,4.000000,4.000000,4.000000,4.000000,4.000000,4.000000,2.000000,4.000000,4.000000,4.000000,4.000000,4.000000,4.000000,4.000000,4.000000,50.000000
1613958805.782057,42.000000,0.000000,0.853396,19.752182,126.342476,66.049347,29.247755,30.604908,8.998485,-0.154899,8.243848,-9.198067,-5.953532,1.651947,-1.416711,-7.782778,-4.157477,-13.291399,16.012520,-10.367682,-0.498304,10.610419,-6.006836,-5.607167,14.128798,8.262206,3.084024,15.228714,-0.231640,-7.069572,9.803638,7.646385,58.091114,133.938156,8064.000000,0.000000,4.000000,,,,0.000000,4.000000,4.000000,2.000000,2.000000,2.000000,2.000000,4.000000,2.000000,2.000000,4.000000,2.000000,4.000000,4.000000,4.000000,4.000000,2.000000,4.000000,4.000000,4.000000,4.000000,4.000000,4.000000,4.000000,2.000000,4.000000,4.000000,4.000000,4.000000,4.000000,4.000000,4.000000,4.000000,50.000000
1613958805.789906,43.000000,0.000000,0.852542,19.732431,124.677673,66.496117,23.064661,32.625584,8.989487,-8.359873,14.902271,-6.111945,-0.819373,1.137475,-1.415294,-6.749354,-3.127679,-15.842210,16.509329,-8.306032,-5.113190,9.574168,-4.975188,-4.575919,14.114670,8.253944,3.593761,14.700665,-0.231408,-7.575323,10.306656,8.151559,53.930458,135.342682,8064.000000,0.000000,4.000000,,,,0.000000,4.000000,4.000000,2.000000,2.000000,2.000000,2.000000,4.000000,2.000000,2.000000,4.000000,2.000000,4.000000,4.000000,4.000000,4.000000,2.000000,4.000000,4.000000,4.000000,4.000000,4.000000,4.000000,4.000000,2.000000,4.000000,4.000000,4.000000,4.000000,4.000000,4.000000,4.000000,4.000000,50.000000
1613958805.797655,44.000000,0.000000,0.851690,19.712698,118.911972,65.916801,4.580058,31.054497,6.929215,-17.582281,12.323266,-16.875065,-1.331374,1.136337,-2.439520,-7.768246,-3.124551,-14.287906,17.518459,-7.784905,-5.620897,6.487671,-2.406110,-5.596984,14.613376,5.681588,3.590167,16.224426,-0.743997,-7.567748,10.809170,9.169048,50.799606,132.643234,8064.000000,0.000000,4.000000,,,,0.000000,4.000000,4.000000,2.000000,2.000000,2.000000,2.000000,4.000000,2.000000,2.000000,4.000000,2.000000,4.000000,4.000000,4.000000,4.000000,2.000000,4.000000,4.000000,4.000000,4.000000,4.000000,4.000000,4.000000,2.000000,4.000000,4.000000,4.000000,4.000000,4.000000,4.000000,4.000000,4.000000,50.000000
1613958805.805504,45.000000,0.000000,0.850838,20.205807,118.280235,66.363708,14.319068,31.536263,5.383824,-8.846751,10.259661,-15.319728,-2.868504,2.160842,-4.488362,-10.324580,-2.608606,-16.837721,15.449659,-9.315582,-3.563994,8.019645,-1.890884,-4.565746,14.085942,4.650265,6.663500,12.105638,0.282388,-7.560180,10.285540,7.621418,49.723164,131.997772,8064.000000,0.000000,4.000000,,,,0.000000,4.000000,4.000000,2.000000,2.000000,2.000000,2.000000,4.000000,2.000000,2.000000,4.000000,2.000000,4.000000,4.000000,4.000000,4.000000,2.000000,4.000000,4.000000,4.000000,4.000000,4.000000,4.000000,4.000000,2.000000,4.000000,4.000000,4.000000,4.000000,4.000000,4.000000,4.000000,4.000000,50.000000
1613958805.813253,46.000000,0.000000,0.849987,19.672779,119.187599,65.784523,22.509876,32.017548,4.352799,0.905686,11.787863,-3.509536,-1.839995,1.133040,-1.406951,-10.827076,0.983746,-13.231139,16.972672,-10.331907,-1.509148,17.755215,-0.350531,0.567025,13.046215,4.132794,7.682477,7.990968,-0.230715,-8.578261,9.249614,3.511232,50.699081,130.840134,8064.000000,0.000000,4.000000,,,,0.000000,4.000000,4.000000,2.000000,2.000000,2.000000,2.000000,4.000000,2.000000,2.000000,4.000000,2.000000,4.000000,4.000000,4.000000,4.000000,2.000000,4.000000,4.000000,4.000000,4.000000,4.000000,4.000000,4.000000,2.000000,4.000000,4.000000,4.000000,4.000000,4.000000,4.000000,4.000000,4.000000,50.000000
1613958805.821102,47.000000,0.000000,0.849137,19.653107,117.529945,66.231560,12.743777,30.959888,4.861267,-0.633681,9.211972,-2.993206,-1.838155,2.670369,2.697020,-9.790607,9.187891,6.269271,25.673647,-0.577986,6.697489,25.942587,3.752383,5.181842,17.135733,2.590200,6.649154,13.111182,-1.256125,-1.903016,12.317286,9.148746,54.750946,135.324677,8064.000000,0.000000,4.000000,,,,0.000000,4.000000,4.000000,2.000000,2.000000,2.000000,2.000000,4.000000,2.000000,2.000000,4.000000,2.000000,4.000000,4.000000,4.000000,4.000000,2.000000,4.000000,4.000000,4.000000,4.000000,4.000000,4.000000,4.000000,2.000000,4.000000,4.000000,4.000000,4.000000,4.000000,4.000000,4.000000,4.000000,50.000000
1613958805.828951,48.000000,0.000000,0.335467,23.223198,118.950882,70.267891,20.936161,32.980209,8.958970,0.392593,8.177119,-6.067136,-1.836317,11.385647,2.694323,-6.191073,20.973574,26.263002,32.827461,18.909771,17.460022,27.967928,8.364016,6.202302,26.862186,9.767097,14.847633,22.328840,6.950259,10.919400,19.484457,21.447290,58.285938,151.599609,8064.000000,0.000000,4.000000,,,,0.000000,4.000000,4.000000,2.000000,2.000000,2.000000,2.000000,4.000000,2.000000,2.000000,4.000000,2.000000,4.000000,4.000000,4.000000,4.000000,2.000000,4.000000,4.000000,4.000000,4.000000,4.000000,4.000000,4.000000,2.000000,4.000000,4.000000,4.000000,4.000000,4.000000,4.000000,4.000000,4.000000,50.000000
1613958805.836700,49.000000,0.000000,1.360773,27.302538,124.472954,73.787369,35.274200,37.562614,12.539755,3.981944,13.297147,-1.445684,-1.834480,19.066568,2.691629,0.994605,26.080807,29.826483,33.307453,24.019068,17.955383,26.914318,10.406934,6.708920,31.963530,26.167585,23.550734,24.357794,20.276642,16.036686,22.541895,22.451485,57.714832,156.063385,8064.000000,0.000000,4.000000,,,,0.000000,4.000000,4.000000,2.000000,2.000000,2.000000,2.000000,4.000000,2.000000,2.000000,4.000000,2.000000,4.000000,4.000000,4.000000,4.000000,2.000000,4.000000,4.000000,4.000000,4.000000,4.000000,4.000000,4.000000,2.000000,4.000000,4.000000,4.000000,4.000000,4.000000,4.000000,4.000000,4.000000,50.000000
1613958805.844549,50.000000,0.000000,3.410694,27.788055,125.886940,73.713577,24.982515,39.576336,13.040035,1.413860,15.847953,-1.444238,-1.832646,14.432117,3.201758,3.557713,16.311136,20.565887,31.222864,12.200176,9.732299,22.784840,10.396526,6.189390,28.341824,31.782444,17.886158,21.256512,23.333288,14.995008,21.493713,16.275187,57.657120,145.138092,8064.000000,0.000000,4.000000,,,,0.000000,4.000000,4.000000,2.000000,2.000000,2.000000,2.000000,4.000000,2.000000,2.000000,4.000000,2.000000,4.000000,4.000000,4.000000,4.000000,2.000000,4.000000,4.000000,4.000000,4.000000,4.000000,4.000000,4.000000,2.000000,4.000000,4.000000,4.000000,4.000000,4.000000,4.000000,4.000000,4.000000,50.000000
1613958805.852299,51.000000,0.000000,4.945745,26.734627,125.248238,73.127045,13.675482,39.023937,14.565456,-1.151657,14.293643,-5.032537,-1.830813,5.699737,2.172915,0.477232,9.115337,12.853013,31.704462,7.059771,6.645644,19.172312,9.360489,5.670380,25.749378,25.083996,10.688785,19.696795,19.720211,14.980013,21.472219,15.233271,60.163563,142.941681,8064.000000,0.000000,4.000000,,,,0.000000,4.000000,4.000000,2.000000,2.000000,2.000000,2.000000,4.000000,2.000000,2.000000,4.000000,2.000000,4.000000,4.000000,4.000000,4.000000,2.000000,4.000000,4.000000,4.000000,4.000000,4.000000,4.000000,4.000000,2.000000,4.000000,4.000000,4.000000,4.000000,4.000000,4.000000,4.000000,4.000000,50.000000
1613958805.860148,52.000000,0.000000,4.940799,27.220713,128.199905,73.566734,17.764370,39.497734,16.602173,-0.637685,15.817811,-4.001864,-1.316162,5.694037,3.196383,1.502396,10.644684,7.711955,33.211220,6.027070,6.126178,19.153139,7.299847,6.177530,27.262091,23.007629,12.729378,19.677097,18.674850,15.477854,21.963568,16.756498,61.641861,144.850021,8192.000000,0.000000,4.000000,,,,0.000000,4.000000,4.000000,2.000000,2.000000,2.000000,2.000000,4.000000,2.000000,2.000000,4.000000,2.000000,4.000000,4.000000,4.000000,4.000000,2.000000,4.000000,4.000000,4.000000,4.000000,4.000000,4.000000,4.000000,2.000000,4.000000,4.000000,4.000000,4.000000,4.000000,4.000000,4.000000,4.000000,50.000000
1613958805.867897,53.000000,0.000000,2.884577,27.193493,128.584534,72.980347,18.259426,38.945415,16.585571,0.388594,13.750711,-5.023503,-1.314846,6.201164,1.654725,-0.550389,-0.135192,-9.731654,22.921598,-7.312290,-4.649179,10.928858,0.113060,0.530327,19.029699,22.471802,5.537161,19.144600,14.040791,14.949555,21.428783,16.226921,61.067398,137.525681,8064.000000,0.000000,4.000000,,,,0.000000,4.000000,4.000000,2.000000,2.000000,2.000000,2.000000,4.000000,2.000000,2.000000,4.000000,2.000000,4.000000,4.000000,4.000000,4.000000,2.000000,4.000000,4.000000,4.000000,4.000000,4.000000,4.000000,4.000000,2.000000,4.000000,4.000000,4.000000,4.000000,4.000000,4.000000,4.000000,4.000000,50.000000
1613958805.875746,54.000000,0.000000,0.830410,26.653479,123.327744,72.907372,12.087320,35.829548,16.056166,-0.637435,6.044653,-12.197967,-3.364813,-0.471704,-7.577699,-16.447275,-20.647877,-32.798847,-0.178247,-22.689594,-16.952223,-3.953866,-10.143464,-12.290716,0.549132,15.782662,-7.288889,17.074173,5.308801,14.421784,21.407354,15.697874,61.006332,133.285583,8064.000000,0.000000,4.000000,,,,0.000000,4.000000,4.000000,2.000000,2.000000,2.000000,2.000000,4.000000,2.000000,2.000000,4.000000,2.000000,4.000000,4.000000,4.000000,4.000000,2.000000,4.000000,4.000000,4.000000,4.000000,4.000000,4.000000,4.000000,2.000000,4.000000,4.000000,4.000000,4.000000,4.000000,4.000000,4.000000,4.000000,50.000000
1613958805.883495,55.000000,0.000000,0.829580,27.139645,120.127487,72.834465,10.023952,34.768078,16.040110,-3.713721,2.961685,-17.313974,-6.438371,-6.625079,-16.288069,-26.174417,-27.806717,-36.355789,-9.921659,-22.154083,-14.883988,-8.052476,-7.056397,-17.406630,-5.605263,10.638675,-5.230318,15.005817,2.739390,12.356081,21.385946,14.656535,60.945328,139.306152,8320.000000,0.000000,4.000000,,,,0.000000,4.000000,4.000000,2.000000,2.000000,2.000000,2.000000,4.000000,2.000000,2.000000,4.000000,2.000000,4.000000,4.000000,4.000000,4.000000,2.000000,4.000000,4.000000,4.000000,4.000000,4.000000,4.000000,4.000000,2.000000,4.000000,4.000000,4.000000,4.000000,4.000000,4.000000,4.000000,4.000000,50.000000
1613958805.891344,56.000000,0.000000,1.341570,27.112505,121.545822,72.761627,11.552389,35.758949,16.536890,-4.222828,6.548467,-15.245378,-4.893471,-6.618454,-16.784601,-19.994396,-24.701986,-24.011742,1.370314,-15.978083,-5.638335,-3.429039,6.283993,-9.696916,3.118291,11.140857,6.056963,14.990811,6.839215,10.805264,21.364561,16.693161,60.884380,142.243759,8064.000000,0.000000,4.000000,,,,0.000000,4.000000,4.000000,2.000000,2.000000,2.000000,2.000000,4.000000,2.000000,2.000000,4.000000,2.000000,4.000000,4.000000,4.000000,4.000000,2.000000,4.000000,4.000000,4.000000,4.000000,4.000000,4.000000,4.000000,2.000000,4.000000,4.000000,4.000000,4.000000,4.000000,4.000000,4.000000,4.000000,50.000000
1613958805.899093,57.000000,0.000000,-0.198233,25.034111,121.424278,72.688866,11.540836,32.646267,15.494712,-3.705785,7.567559,-15.230133,-4.888578,-5.073373,-15.742176,-18.948761,-24.677284,-26.039013,9.061252,-18.013388,-5.119876,-2.912790,7.303349,-4.559014,6.704916,11.642536,8.615009,15.488641,8.370837,10.794458,21.343197,16.163647,60.823498,141.075882,8192.000000,0.000000,4.000000,,,,0.000000,4.000000,4.000000,2.000000,2.000000,2.000000,2.000000,4.000000,2.000000,2.000000,4.000000,2.000000,4.000000,4.000000,4.000000,4.000000,2.000000,4.000000,4.000000,4.000000,4.000000,4.000000,4.000000,4.000000,2.000000,4.000000,4.000000,4.000000,4.000000,4.000000,4.000000,4.000000,4.000000,50.000000
1613958805.906942,58.000000,0.000000,-2.762137,22.957794,120.790031,72.616180,11.016475,26.972597,11.889473,-7.291822,3.457428,-20.343107,-11.550356,-6.093941,-16.752075,-28.160582,-26.191069,-34.730923,4.949626,-22.610758,-8.704500,-3.935518,-6.037287,-6.605737,2.595647,11.118073,6.555112,15.473152,4.772723,9.245202,21.321854,4.865432,60.762672,140.934799,8064.000000,0.000000,4.000000,,,,0.000000,4.000000,4.000000,2.000000,2.000000,2.000000,2.000000,4.000000,2.000000,2.000000,4.000000,2.000000,4.000000,4.000000,4.000000,4.000000,2.000000,4.000000,4.000000,4.000000,4.000000,4.000000,4.000000,4.000000,2.000000,4.000000,4.000000,4.000000,4.000000,4.000000,4.000000,4.000000,4.000000,50.000000
1613958805.914691,59.000000,0.000000,-3.272195,22.934837,121.182060,72.543564,11.518279,27.458445,8.287840,-11.899915,-1.161414,-23.399687,-15.128550,-6.087847,-16.222504,-28.132421,-24.626417,-28.029524,1.354933,-23.100967,-8.695795,-2.905941,-12.697916,-9.163234,2.593051,11.619776,7.574198,14.432038,0.665386,7.184675,21.300531,-1.806100,61.214729,142.332336,8064.000000,0.000000,4.000000,,,,0.000000,4.000000,4.000000,2.000000,2.000000,2.000000,2.000000,4.000000,2.000000,2.000000,4.000000,2.000000,4.000000,4.000000,4.000000,4.000000,2.000000,4.000000,4.000000,4.000000,4.000000,4.000000,4.000000,4.000000,2.000000,4.000000,4.000000,4.000000,4.000000,4.000000,4.000000,4.000000,4.000000,50.000000
1613958805.922540,60.000000,0.000000,-2.756103,23.424723,120.548058,72.471016,11.506761,31.020729,8.279552,-11.888015,1.403850,-23.376287,-10.498036,-5.568939,-15.180639,-22.976084,-18.447945,-16.206623,2.892040,-20.000944,-7.661458,-2.390215,-10.633937,-8.128429,6.693022,11.608156,8.079445,12.366324,-0.360921,6.664670,21.279230,6.913655,61.153515,141.677185,8064.000000,0.000000,4.000000,,,,0.000000,4.000000,4.000000,2.000000,2.000000,2.000000,2.000000,4.000000,2.000000,2.000000,4.000000,2.000000,4.000000,4.000000,4.000000,4.000000,2.000000,4.000000,4.000000,4.000000,4.000000,4.000000,4.000000,4.000000,2.000000,4.000000,4.000000,4.000000,4.000000,4.000000,4.000000,4.000000,4.000000,50.000000
1613958805.930289,61.000000,0.000000,-2.753347,22.888477,120.427513,72.398544,11.495255,29.964067,8.784093,-11.363307,8.581933,-22.840092,-7.923435,-5.563370,-15.678279,-18.850542,-10.737188,-10.549391,3.914789,-12.288635,-7.653797,-2.387825,-11.136123,-7.607481,7.711970,11.596548,7.558545,11.328317,0.152261,7.170825,21.257952,13.573408,60.066723,140.509857,8064.000000,0.000000,4.000000,,,,0.000000,4.000000,4.000000,2.000000,2.000000,2.000000,2.000000,4.000000,2.000000,2.000000,4.000000,2.000000,4.000000,4.000000,4.000000,4.000000,2.000000,4.000000,4.000000,4.000000,4.000000,4.000000,4.000000,4.000000,2.000000,4.000000,4.000000,4.000000,4.000000,4.000000,4.000000,4.000000,4.000000,50.000000
1613958805.938138,62.000000,0.000000,-2.750593,22.865589,121.332726,72.838966,11.996579,27.370001,8.262488,-11.351943,11.650274,-21.278790,-9.453974,-5.557806,-15.662601,-10.626564,-9.187989,-3.359354,3.910874,-3.045577,-6.620502,-2.898257,-12.150628,-8.625514,7.191438,11.584951,7.550986,11.829809,0.152108,7.163655,21.236694,12.021373,60.519474,142.420639,8064.000000,0.000000,4.000000,,,,0.000000,4.000000,4.000000,2.000000,2.000000,2.000000,2.000000,4.000000,2.000000,2.000000,4.000000,2.000000,4.000000,4.000000,4.000000,4.000000,2.000000,4.000000,4.000000,4.000000,4.000000,4.000000,4.000000,4.000000,2.000000,4.000000,4.000000,4.000000,4.000000,4.000000,4.000000,4.000000,4.000000,50.000000
1613958805.945887,63.000000,0.000000,-2.747843,23.355545,119.672935,72.253311,11.984583,27.855452,8.254226,-11.340591,11.125803,-19.206228,-9.444519,-5.552248,-12.570015,-2.923630,-8.665981,0.746569,6.471066,0.034391,-4.562600,0.181564,-11.625657,-8.616889,7.184247,11.573366,7.543435,11.817979,-0.360864,7.156491,21.728277,12.009352,61.484596,141.252563,8064.000000,0.000000,4.000000,,,,0.000000,4.000000,4.000000,2.000000,2.000000,2.000000,2.000000,4.000000,2.000000,2.000000,4.000000,2.000000,4.000000,4.000000,4.000000,4.000000,2.000000,4.000000,4.000000,4.000000,4.000000,4.000000,4.000000,4.000000,2.000000,4.000000,4.000000,4.000000,4.000000,4.000000,4.000000,4.000000,4.000000,50.000000
1613958805.953736,64.000000,0.000000,-2.745095,23.332188,116.989159,68.591316,10.946958,27.314775,8.758793,-11.329251,11.114677,-18.674202,-8.409434,-5.546696,-11.531804,-0.869424,-8.657315,-7.459306,6.977415,-5.093848,-4.558037,1.719844,-13.665313,-8.095451,7.689883,11.561792,7.535892,11.806161,0.152317,7.149334,20.168087,9.946060,56.807728,130.854904,0.000000,124.000000,4.000000,,,,0.000000,4.000000,4.000000,2.000000,2.000000,2.000000,2.000000,4.000000,2.000000,2.000000,4.000000,2.000000,4.000000,4.000000,4.000000,4.000000,2.000000,4.000000,4.000000,4.000000,4.000000,4.000000,4.000000,4.000000,2.000000,4.000000,4.000000,4.000000,4.000000,4.000000,4.000000,4.000000,4.000000,50.000000
1613958805.961485,65.000000,0.000000,-2.742350,23.308857,117.384987,65.445801,12.474472,27.800282,8.750033,-11.317922,10.590742,-19.168348,-8.913845,-5.028329,-14.084374,-3.432657,-13.776863,-19.246717,0.303771,-16.370806,-12.758607,-5.461363,-19.292673,-10.138638,7.169373,11.550231,7.528356,11.794355,0.152165,7.142185,17.583817,5.320730,49.571434,126.108665,0.000000,153.000000,4.000000,,,,0.000000,4.000000,4.000000,2.000000,2.000000,2.000000,2.000000,4.000000,2.000000,2.000000,4.000000,2.000000,4.000000,4.000000,4.000000,4.000000,2.000000,4.000000,4.000000,4.000000,4.000000,4.000000,4.000000,4.000000,2.000000,4.000000,4.000000,4.000000,4.000000,4.000000,4.000000,4.000000,4.000000,50.000000
1613958805.969334,66.000000,0.000000,-2.739607,23.285547,116.241959,64.867531,12.461997,29.823763,8.741283,-11.306603,8.016049,-18.636360,-8.904931,-7.074583,-16.121572,-12.147174,-19.916933,-27.432600,-8.414481,-27.123665,-25.566360,-13.148210,-22.863125,-13.718243,7.162203,11.538681,7.520827,11.782560,0.152013,7.135043,17.053413,4.802588,50.547501,131.623581,0.000000,148.000000,4.000000,,,,0.000000,4.000000,4.000000,2.000000,2.000000,2.000000,2.000000,2.000000,2.000000,4.000000,4.000000,2.000000,4.000000,4.000000,4.000000,4.000000,2.000000,4.000000,4.000000,4.000000,4.000000,4.000000,4.000000,4.000000,2.000000,4.000000,4.000000,4.000000,4.000000,4.000000,4.000000,4.000000,4.000000,50.000000
1613958805.977083,67.000000,0.000000,-2.736868,23.262262,110.997513,64.802666,4.244407,28.255478,8.732542,-11.295297,6.469572,-19.130543,-8.896027,-9.118791,-15.592630,-20.340155,-20.922657,-27.917988,-6.867605,-29.660645,-30.669001,-12.622241,-22.840261,-15.755807,8.180682,11.527143,7.513307,11.770778,0.151861,7.127908,17.549179,4.797786,56.137981,128.415039,0.000000,163.000000,4.000000,,,,0.000000,4.000000,4.000000,2.000000,2.000000,2.000000,2.000000,2.000000,2.000000,4.000000,4.000000,2.000000,4.000000,4.000000,4.000000,4.000000,2.000000,4.000000,4.000000,4.000000,4.000000,4.000000,4.000000,4.000000,2.000000,4.000000,4.000000,4.000000,4.000000,4.000000,4.000000,4.000000,4.000000,50.000000
1613958805.984932,68.000000,0.000000,-2.221310,23.239000,108.835236,65.250679,0.137599,24.124659,8.723810,-11.284001,4.411820,-19.111414,-8.887130,-9.622492,-15.577038,-19.806993,-19.876093,-19.684942,-1.732533,-25.528419,-23.971664,-9.532696,-20.253319,-15.740051,5.095578,12.028436,7.505793,11.759007,0.151709,7.120780,17.531630,4.280168,57.107483,118.543037,0.000000,154.000000,4.000000,,,,0.000000,4.000000,4.000000,2.000000,4.000000,2.000000,4.000000,2.000000,2.000000,4.000000,4.000000,2.000000,4.000000,4.000000,4.000000,4.000000,2.000000,4.000000,4.000000,4.000000,4.000000,4.000000,4.000000,4.000000,2.000000,4.000000,4.000000,4.000000,4.000000,4.000000,4.000000,4.000000,4.000000,50.000000
1613958805.992681,69.000000,0.000000,-3.757550,23.215761,109.239220,64.159790,5.265666,23.587713,8.715086,-11.272717,3.381767,-19.092302,-8.878243,-9.100049,-16.074282,-17.223083,-20.881857,-13.511411,-1.217980,-22.938789,-16.768206,-10.035983,-16.643322,-15.724311,0.475098,12.016407,7.498287,11.747249,0.151557,7.113659,17.001278,5.301528,56.024734,117.398849,0.000000,153.000000,4.000000,,,,0.000000,4.000000,4.000000,2.000000,4.000000,2.000000,4.000000,2.000000,2.000000,4.000000,4.000000,2.000000,4.000000,4.000000,4.000000,4.000000,2.000000,4.000000,4.000000,4.000000,4.000000,4.000000,4.000000,4.000000,2.000000,4.000000,4.000000,4.000000,4.000000,4.000000,4.000000,4.000000,4.000000,50.000000
1613958806.000530,70.000000,0.000000,-5.805075,23.192545,104.514595,59.993065,0.645016,22.538485,8.706371,-11.261445,3.891206,-19.586029,-8.869365,-9.090949,-15.545386,-18.744322,-20.860975,-16.062002,-2.242403,-22.915850,-16.751438,-10.538768,-15.088217,-15.708587,-0.551018,11.491570,8.003610,11.735501,0.151406,7.106545,17.497097,2.732124,56.994350,118.819916,0.000000,171.000000,4.000000,,,,0.000000,4.000000,4.000000,2.000000,4.000000,4.000000,4.000000,2.000000,2.000000,4.000000,4.000000,2.000000,4.000000,4.000000,4.000000,4.000000,2.000000,4.000000,4.000000,4.000000,4.000000,4.000000,4.000000,4.000000,2.000000,4.000000,4.000000,4.000000,4.000000,4.000000,4.000000,4.000000,4.000000,50.000000
1613958806.008279,71.000000,0.000000,-6.312090,23.169352,101.845978,57.368973,-7.560757,20.464664,8.697664,-11.250184,3.887315,-19.053623,-8.860496,-9.081858,-15.529841,-18.212757,-20.327293,-18.097221,-1.214519,-22.380114,-18.785969,-10.015409,-15.073129,-15.692878,-1.063288,11.992899,6.969965,11.723765,0.151254,7.612260,17.479601,-2.398813,57.450176,116.136993,0.000000,139.000000,4.000000,,,,0.000000,4.000000,4.000000,2.000000,4.000000,4.000000,4.000000,2.000000,2.000000,4.000000,4.000000,2.000000,4.000000,4.000000,4.000000,4.000000,2.000000,4.000000,4.000000,4.000000,4.000000,4.000000,4.000000,4.000000,2.000000,4.000000,4.000000,4.000000,4.000000,4.000000,4.000000,4.000000,4.000000,50.000000
1613958806.016128,72.000000,0.000000,-6.818599,23.146183,104.308235,56.798782,4.754496,21.982660,8.688967,-11.238934,3.883427,-16.983288,-8.851635,-9.585597,-15.514311,-17.681725,-20.306967,-17.053484,-1.213305,-22.357733,-19.280003,-10.005393,-15.058055,-15.677185,-3.626327,11.980906,4.911713,11.712042,0.151103,7.091827,17.462120,-1.370773,56.879906,114.482391,0.000000,177.000000,4.000000,,,,0.000000,4.000000,4.000000,2.000000,4.000000,4.000000,4.000000,2.000000,2.000000,4.000000,4.000000,2.000000,4.000000,4.000000,4.000000,4.000000,2.000000,4.000000,4.000000,4.000000,4.000000,4.000000,4.000000,4.000000,2.000000,4.000000,4.000000,4.000000,4.000000,4.000000,4.000000,4.000000,4.000000,50.000000
1613958806.023877,73.000000,0.000000,-9.888703,23.123037,101.127007,57.254803,15.006151,24.011961,8.680278,-11.227695,3.879544,-15.940663,-8.842783,-8.550370,-15.498797,-18.176863,-20.286659,-17.036430,-1.724912,-22.335377,-18.747902,-9.995388,-15.042997,-15.661508,-4.648342,7.866361,3.368340,11.700330,-0.361869,5.033453,17.957479,3.758803,56.310207,112.316628,0.000000,164.000000,4.000000,,,,0.000000,4.000000,4.000000,2.000000,4.000000,4.000000,4.000000,2.000000,2.000000,4.000000,4.000000,2.000000,4.000000,4.000000,4.000000,4.000000,2.000000,4.000000,4.000000,4.000000,4.000000,4.000000,4.000000,4.000000,2.000000,4.000000,4.000000,4.000000,4.000000,4.000000,4.000000,4.000000,4.000000,50.000000
1613958806.031626,74.000000,0.000000,-10.904456,23.099915,93.846390,57.197548,0.632171,23.987947,8.671597,-11.216467,3.875664,-14.899081,-8.833941,-6.490538,-13.432016,-13.543302,-16.676630,-17.532213,0.328095,-19.748938,-17.190693,-9.985393,-12.976672,-15.645846,-3.618052,1.191828,3.877792,11.688629,1.176955,2.977138,17.426701,5.806326,57.279537,108.614571,0.000000,154.000000,4.000000,,,,0.000000,4.000000,4.000000,2.000000,4.000000,4.000000,4.000000,2.000000,2.000000,4.000000,4.000000,2.000000,4.000000,4.000000,4.000000,4.000000,4.000000,4.000000,4.000000,4.000000,4.000000,4.000000,4.000000,4.000000,2.000000,4.000000,4.000000,4.000000,4.000000,4.000000,4.000000,4.000000,4.000000,50.000000
1613958806.039375,75.000000,0.000000,-9.867910,23.076815,93.239723,57.653172,-3.471025,23.963961,9.175747,-11.205251,4.384609,-11.807260,-8.825107,-4.945586,-11.367302,-7.375913,-13.070210,-17.514683,2.891870,-15.626625,-15.635040,-9.975407,-8.348311,-15.117380,-3.614434,0.164995,3.873914,11.676941,0.150137,3.486981,12.793890,3.236417,54.658154,106.967491,0.000000,178.000000,4.000000,,,,0.000000,4.000000,4.000000,2.000000,4.000000,4.000000,4.000000,2.000000,2.000000,4.000000,4.000000,2.000000,4.000000,4.000000,4.000000,4.000000,4.000000,4.000000,4.000000,4.000000,4.000000,4.000000,4.000000,4.000000,2.000000,4.000000,4.000000,4.000000,4.000000,4.000000,4.000000,4.000000,4.000000,50.000000
1613958806.047025,76.000000,0.000000,-10.370863,22.540916,94.172127,57.082699,10.378599,23.939997,7.115289,-11.194045,3.867404,-12.821094,-8.816281,-5.453461,-11.355935,-6.855716,-12.544319,-17.497168,2.376157,-14.072536,-15.106585,-9.965431,-6.801501,-15.102262,-3.610820,3.754574,3.870040,11.665264,-3.952578,3.483494,7.652891,0.669078,47.936829,105.322060,0.000000,188.000000,4.000000,,,,0.000000,4.000000,4.000000,2.000000,4.000000,4.000000,4.000000,2.000000,2.000000,4.000000,4.000000,2.000000,4.000000,4.000000,4.000000,4.000000,4.000000,4.000000,4.000000,4.000000,4.000000,4.000000,4.000000,4.000000,2.000000,4.000000,4.000000,4.000000,4.000000,4.000000,4.000000,4.000000,4.000000,50.000000
1613958806.054774,77.000000,0.000000,-10.360492,23.031197,94.077950,57.025616,8.829760,23.916056,4.544071,-11.182851,3.350716,-13.833913,-8.294644,-5.448007,-11.857399,-9.412963,-13.044595,-17.479670,2.373781,-15.596926,-15.604299,-9.955466,-7.307520,-16.625622,-1.555927,3.750819,3.866170,11.653599,-1.384522,3.480010,6.106777,1.694050,44.811970,104.703918,0.000000,160.000000,4.000000,,,,0.000000,4.000000,4.000000,2.000000,4.000000,4.000000,4.000000,2.000000,2.000000,4.000000,4.000000,2.000000,4.000000,4.000000,4.000000,4.000000,4.000000,4.000000,4.000000,4.000000,4.000000,4.000000,4.000000,4.000000,2.000000,4.000000,4.000000,4.000000,4.000000,4.000000,4.000000,4.000000,4.000000,50.000000
1613958806.062423,78.000000,0.000000,-5.734747,23.008165,95.009514,57.994232,0.102981,24.404961,6.077988,-9.120386,4.373006,-7.153412,-6.235068,-5.442559,-11.332722,-7.352268,-12.518730,-17.462191,4.935510,-14.555688,-15.075874,-9.945511,-6.787392,-13.019253,0.496911,0.670145,3.862304,11.641945,4.257888,3.476530,6.613490,4.769279,45.792801,104.086395,0.000000,158.000000,4.000000,,,,0.000000,4.000000,4.000000,2.000000,4.000000,4.000000,4.000000,2.000000,2.000000,4.000000,4.000000,4.000000,4.000000,4.000000,4.000000,4.000000,4.000000,4.000000,4.000000,4.000000,4.000000,4.000000,4.000000,4.000000,2.000000,4.000000,4.000000,4.000000,4.000000,4.000000,4.000000,4.000000,4.000000,50.000000
1613958806.070172,79.000000,0.000000,-2.139269,20.933874,91.324760,55.884953,0.102878,22.329273,8.123193,-7.059984,3.855813,-4.582157,-4.177551,-5.437117,-11.321388,-5.806454,-12.506211,-16.931908,6.981856,-11.977030,-15.060798,-9.935565,-9.857528,-8.390849,0.496414,0.156655,3.858442,11.630303,0.663886,3.473054,6.094056,3.738869,45.234184,96.290001,0.000000,170.000000,4.000000,,,,0.000000,4.000000,4.000000,2.000000,4.000000,4.000000,4.000000,2.000000,2.000000,4.000000,4.000000,4.000000,4.000000,4.000000,4.000000,4.000000,4.000000,4.000000,4.000000,4.000000,4.000000,4.000000,4.000000,4.000000,2.000000,4.000000,4.000000,4.000000,4.000000,4.000000,4.000000,4.000000,4.000000,50.000000
1613958806.077821,80.000000,0.000000,-2.137129,18.861658,84.566772,49.162403,-6.563891,17.691561,6.063787,-8.078565,-1.789069,-11.757062,-6.224656,-4.918859,-10.797247,-6.313468,-12.493705,-16.402155,6.462054,-10.426591,-15.558558,-9.925630,-16.001516,-11.459381,-2.068185,1.182139,3.854583,11.618672,-6.516265,3.469581,6.087962,1.171027,45.701771,88.501404,0.000000,169.000000,4.000000,,,,0.000000,4.000000,4.000000,2.000000,4.000000,4.000000,4.000000,2.000000,2.000000,4.000000,4.000000,4.000000,4.000000,4.000000,4.000000,4.000000,4.000000,4.000000,4.000000,4.000000,4.000000,4.000000,4.000000,4.000000,2.000000,4.000000,4.000000,4.000000,4.000000,4.000000,4.000000,4.000000,4.000000,50.000000
