title:27, start timestamp:1613959266.715827, stop timestamp:1613959312.645899, headset type:EPOCFLEX, headset serial:F00001ED, headset firmware:f12, subject name:s04, channels:75, sampling rate:128, samples:5924      , version:2.0
Timestamp,EEG.Counter,EEG.Interpolated,EEG.Cz,EEG.Fz,EEG.Fp1,EEG.AF3,EEG.F7,EEG.F3,EEG.FC1,EEG.C3,EEG.FC5,EEG.T7,EEG.CP5,EEG.CP1,EEG.P3,EEG.P7,EEG.PO3,EEG.O1,EEG.Pz,EEG.Oz,EEG.O2,EEG.PO4,EEG.P8,EEG.P4,EEG.CP2,EEG.CP6,EEG.T8,EEG.FC6,EEG.C4,EEG.FC2,EEG.F4,EEG.F8,EEG.AF4,EEG.Fp2,EEG.HighBitFlex,EEG.RawCq,EEG.Battery,MarkerIndex,MarkerType,MarkerValueInt,EEG.MarkerHardware,CQ.Cz,CQ.Fz,CQ.Fp1,CQ.AF3,CQ.F7,CQ.F3,CQ.FC1,CQ.C3,CQ.FC5,CQ.T7,CQ.CP5,CQ.CP1,CQ.P3,CQ.P7,CQ.PO3,CQ.O1,CQ.Pz,CQ.Oz,CQ.O2,CQ.PO4,CQ.P8,CQ.P4,CQ.CP2,CQ.CP6,CQ.T8,CQ.FC6,CQ.C4,CQ.FC2,CQ.F4,CQ.F8,CQ.AF4,CQ.Fp2,CQ.Overall
1613959266.715827,5.000000,0.000000,-12.463398,-6.701904,27.310610,25.977312,-1.027024,16.631998,-5.337291,-8.199761,-13.131405,-11.573715,-6.901862,0.295774,-8.960798,-10.870218,16.318325,4.824495,2.829694,5.440587,10.865977,22.391460,21.011271,10.133707,-22.403704,5.991187,-4.063020,2.561340,1.976486,-5.277992,12.096741,-2.942473,15.953016,31.041513,0.000000,108.000000,4.000000,,,,0.000000,2.000000,2.000000,2.000000,2.000000,2.000000,2.000000,2.000000,2.000000,2.000000,2.000000,2.000000,2.000000,2.000000,2.000000,2.000000,2.000000,2.000000,2.000000,4.000000,2.000000,2.000000,2.000000,2.000000,2.000000,2.000000,2.000000,2.000000,2.000000,2.000000,2.000000,2.000000,2.000000,50.000000
1613959266.723476,6.000000,0.000000,-12.450934,-7.208023,22.667915,17.746206,-3.590100,16.102545,-4.819133,-9.730022,-10.554171,-11.562141,-6.894960,-4.319907,-9.977478,-8.295245,15.789186,4.819670,6.929429,4.409505,10.342291,22.881889,18.426157,10.636394,-23.406940,1.882631,-6.110239,-2.056606,1.974510,-5.272715,11.571823,-5.503633,7.219115,26.907907,0.000000,110.000000,4.000000,,,,0.000000,2.000000,2.000000,2.000000,2.000000,2.000000,2.000000,2.000000,2.000000,2.000000,2.000000,2.000000,2.000000,2.000000,2.000000,2.000000,2.000000,2.000000,2.000000,4.000000,2.000000,2.000000,2.000000,2.000000,2.000000,2.000000,2.000000,2.000000,2.000000,2.000000,2.000000,2.000000,2.000000,50.000000
1613959266.731225,7.000000,0.000000,-12.438483,-6.687994,28.799093,25.933588,7.182721,20.189007,-2.250212,-6.643370,2.789717,-3.858272,-7.400886,-1.751484,-4.839295,-1.107463,21.414423,12.507158,8.460960,8.507660,11.357590,28.500032,20.971832,13.189860,-21.845072,0.342287,-6.616949,-3.593010,1.972535,-5.267442,11.560251,-4.472488,10.801640,26.881001,0.000000,84.000000,4.000000,,,,0.000000,2.000000,2.000000,2.000000,2.000000,2.000000,2.000000,2.000000,2.000000,2.000000,2.000000,2.000000,2.000000,2.000000,2.000000,2.000000,2.000000,2.000000,2.000000,4.000000,2.000000,2.000000,2.000000,2.000000,2.000000,2.000000,2.000000,2.000000,2.000000,2.000000,2.000000,2.000000,2.000000,50.000000
1613959266.738874,8.000000,0.000000,-12.426044,-4.630024,37.488243,37.702526,20.508871,23.758562,-2.760782,0.542761,14.581799,3.325073,-5.342203,2.865652,3.883492,5.560311,30.110958,27.879267,10.503782,21.319666,16.474438,31.548456,22.489323,14.202312,-22.848867,-0.170876,-4.559050,-0.512494,1.970563,-5.262174,11.548691,-4.468016,15.919043,27.366940,0.000000,119.000000,4.000000,,,,0.000000,2.000000,2.000000,2.000000,2.000000,2.000000,2.000000,2.000000,2.000000,2.000000,2.000000,2.000000,2.000000,2.000000,2.000000,2.000000,2.000000,2.000000,2.000000,4.000000,2.000000,2.000000,2.000000,2.000000,2.000000,2.000000,2.000000,2.000000,2.000000,2.000000,2.000000,2.000000,2.000000,50.000000
1613959266.746624,9.000000,0.000000,-10.362337,-2.574112,39.502037,37.152004,19.975542,24.247623,-3.270842,7.208885,13.541576,2.808928,-1.747117,3.375607,6.956532,6.580392,33.157768,34.518055,17.159945,28.990654,20.047707,31.004086,22.979654,14.188109,-22.313198,2.393398,3.137816,1.539300,2.481413,-5.256912,14.101245,-4.463548,15.390304,27.339573,0.000000,136.000000,4.000000,,,,0.000000,2.000000,2.000000,2.000000,2.000000,2.000000,2.000000,2.000000,2.000000,2.000000,2.000000,2.000000,2.000000,2.000000,2.000000,2.000000,2.000000,2.000000,2.000000,4.000000,2.000000,2.000000,2.000000,2.000000,2.000000,2.000000,2.000000,2.000000,2.000000,2.000000,2.000000,2.000000,2.000000,50.000000
1613959266.754273,10.000000,0.000000,-8.300693,-4.110000,36.898430,29.422544,8.673515,24.223375,-2.754750,7.201676,8.399829,-2.322086,-7.386395,4.397872,5.923934,-1.631316,28.509228,19.611740,20.732529,18.705252,15.412274,29.947441,20.905392,15.199562,-17.162680,11.108953,4.160320,1.024940,1.966111,-5.251655,16.138426,-3.946264,15.374913,25.773771,0.000000,109.000000,4.000000,,,,0.000000,2.000000,2.000000,2.000000,2.000000,2.000000,2.000000,2.000000,2.000000,2.000000,2.000000,2.000000,2.000000,2.000000,2.000000,2.000000,2.000000,2.000000,2.000000,4.000000,2.000000,2.000000,2.000000,2.000000,2.000000,2.000000,2.000000,2.000000,2.000000,2.000000,2.000000,2.000000,2.000000,50.000000
1613959266.762022,11.000000,0.000000,-8.805212,-6.157171,32.246147,25.803377,0.972534,23.686333,-2.751996,5.656013,6.852968,-4.371046,-15.071317,6.957577,5.918011,-15.475839,22.839693,2.669052,19.173334,3.301932,9.243015,30.430315,11.653718,10.568977,-16.119877,11.610664,-7.125892,0.511095,-0.599958,-5.246404,13.558185,-7.019240,15.872358,23.696714,0.000000,95.000000,4.000000,,,,0.000000,2.000000,2.000000,2.000000,2.000000,2.000000,2.000000,2.000000,2.000000,2.000000,2.000000,2.000000,2.000000,2.000000,2.000000,2.000000,2.000000,2.000000,2.000000,4.000000,2.000000,2.000000,2.000000,2.000000,2.000000,2.000000,2.000000,2.000000,2.000000,2.000000,2.000000,2.000000,2.000000,50.000000
1613959266.769671,12.000000,0.000000,-8.796407,-4.612553,30.675440,27.828856,1.997203,24.175467,-2.749244,8.214459,6.846115,-2.828214,-10.953681,6.950619,4.886452,-23.152670,20.765572,0.615101,19.154161,0.221707,5.644029,30.399883,2.924115,3.378922,-19.180679,-0.195818,-14.298253,1.536225,-1.624999,-5.241157,12.006166,-9.063503,16.369307,23.673019,0.000000,132.000000,4.000000,,,,0.000000,2.000000,2.000000,2.000000,2.000000,2.000000,2.000000,2.000000,2.000000,2.000000,2.000000,2.000000,2.000000,2.000000,2.000000,2.000000,2.000000,2.000000,2.000000,4.000000,2.000000,2.000000,2.000000,2.000000,2.000000,2.000000,2.000000,2.000000,2.000000,2.000000,2.000000,2.000000,2.000000,50.000000
1613959266.777420,13.000000,0.000000,-8.274790,-2.043838,31.157585,27.801027,1.995206,24.664110,-2.746495,4.616501,7.352089,-5.389488,-6.840164,6.943669,1.291822,-21.078236,15.103780,-5.026540,19.647827,-2.855438,-3.079564,25.241280,-0.668552,2.349902,-18.135859,-4.298186,-13.771134,1.534689,-1.623374,-5.235916,11.994159,-7.003158,15.840117,21.598064,0.000000,115.000000,4.000000,,,,0.000000,2.000000,2.000000,2.000000,2.000000,2.000000,2.000000,2.000000,2.000000,2.000000,2.000000,2.000000,2.000000,2.000000,2.000000,2.000000,2.000000,2.000000,2.000000,4.000000,2.000000,2.000000,2.000000,2.000000,2.000000,2.000000,2.000000,2.000000,2.000000,2.000000,2.000000,2.000000,2.000000,50.000000
1613959266.785069,14.000000,0.000000,-8.779336,-3.580255,27.023865,20.593739,-6.211918,16.947140,-2.743748,-6.670166,2.729352,-11.025125,-15.038451,5.398263,-3.837675,-21.569979,0.729701,-22.970230,11.935872,-17.211557,-14.358536,16.498089,-6.308909,1.321911,-19.143364,1.347138,-16.321466,-2.056590,-4.185853,-5.230680,5.828319,-11.611539,15.824277,16.448259,0.000000,106.000000,4.000000,,,,0.000000,2.000000,2.000000,2.000000,2.000000,2.000000,2.000000,2.000000,2.000000,2.000000,2.000000,2.000000,2.000000,2.000000,2.000000,2.000000,2.000000,2.000000,2.000000,4.000000,2.000000,2.000000,2.000000,2.000000,2.000000,2.000000,2.000000,2.000000,2.000000,2.000000,2.000000,2.000000,2.000000,50.000000
1613959266.792818,15.000000,0.000000,-8.770556,-6.140778,20.842995,12.368017,-17.487757,5.648141,-2.741004,-14.355804,-5.991325,-11.526919,-18.100336,2.828763,-6.910761,-23.086870,-6.450516,-21.921619,7.308551,-23.861012,-14.856997,14.430309,-10.405165,-1.756334,-22.713964,-2.756774,-17.330786,-6.157097,-5.720129,-5.225450,0.694285,-18.779415,15.808453,15.918991,0.000000,105.000000,4.000000,,,,0.000000,2.000000,2.000000,2.000000,2.000000,2.000000,2.000000,2.000000,2.000000,2.000000,2.000000,2.000000,2.000000,2.000000,2.000000,2.000000,2.000000,2.000000,2.000000,4.000000,2.000000,2.000000,2.000000,2.000000,2.000000,2.000000,2.000000,2.000000,2.000000,2.000000,2.000000,2.000000,2.000000,50.000000
1613959266.800468,16.000000,0.000000,-6.710504,-6.647458,18.770868,10.817187,-17.983089,4.104031,-2.738263,-9.726064,-8.549437,-10.489752,-8.338646,2.313113,-3.314106,-15.371475,7.914909,6.305430,18.583294,-5.375613,-3.047269,22.621006,0.887292,6.963371,-16.024584,-7.882222,-15.262173,-7.176581,-5.201588,-5.220224,4.283335,-12.093968,15.792645,18.979996,0.000000,136.000000,4.000000,,,,0.000000,2.000000,2.000000,2.000000,2.000000,2.000000,2.000000,2.000000,2.000000,2.000000,2.000000,2.000000,2.000000,2.000000,2.000000,2.000000,2.000000,2.000000,2.000000,4.000000,2.000000,2.000000,2.000000,2.000000,2.000000,2.000000,2.000000,2.000000,2.000000,2.000000,2.000000,2.000000,2.000000,50.000000
1613959266.808217,17.000000,0.000000,-4.652511,-6.640810,19.264919,12.344831,-5.144594,10.253774,-3.248345,-3.562491,-3.925503,-7.402339,-2.689282,4.362082,3.868695,-4.586873,24.317251,28.863228,32.410866,19.757969,14.391676,34.906078,19.347942,19.776920,-5.239328,2.894891,-12.682808,-6.656584,-5.709207,-5.215004,8.381616,1.764279,15.776852,19.986656,0.000000,137.000000,4.000000,,,,0.000000,2.000000,2.000000,2.000000,2.000000,2.000000,2.000000,2.000000,2.000000,2.000000,2.000000,2.000000,2.000000,2.000000,2.000000,2.000000,2.000000,2.000000,2.000000,4.000000,2.000000,2.000000,2.000000,2.000000,2.000000,2.000000,2.000000,2.000000,2.000000,2.000000,2.000000,2.000000,2.000000,50.000000
1613959266.815866,18.000000,0.000000,-4.647859,-7.146990,19.245653,14.383769,6.655422,12.807622,-2.732277,-2.020467,-0.331834,2.348653,-4.225054,6.409002,8.480210,-0.479722,27.369856,36.013851,33.916916,29.994621,33.864464,47.178864,27.020903,22.321245,-2.669986,14.686868,-0.362433,-4.598645,-4.677857,-5.209789,7.860413,3.300976,15.761075,19.453850,0.000000,123.000000,4.000000,,,,0.000000,2.000000,2.000000,2.000000,2.000000,2.000000,2.000000,2.000000,2.000000,2.000000,2.000000,2.000000,2.000000,2.000000,2.000000,2.000000,2.000000,2.000000,2.000000,4.000000,2.000000,2.000000,2.000000,2.000000,2.000000,2.000000,2.000000,2.000000,2.000000,2.000000,2.000000,2.000000,2.000000,50.000000
1613959266.823615,19.000000,0.000000,-5.156031,-7.139843,22.816153,16.420668,8.187228,11.256353,-2.729544,-0.479985,-1.357143,11.064254,-4.220829,6.402594,9.497372,0.546399,25.291204,37.516300,33.370178,30.990267,44.087009,55.336815,25.455420,20.247643,-4.718598,16.210642,16.561007,-2.542765,-0.570615,-5.204579,6.826912,1.759214,15.232493,19.434395,0.000000,116.000000,4.000000,,,,0.000000,2.000000,2.000000,2.000000,2.000000,2.000000,2.000000,2.000000,2.000000,2.000000,2.000000,2.000000,2.000000,2.000000,2.000000,2.000000,2.000000,2.000000,2.000000,4.000000,2.000000,2.000000,2.000000,2.000000,2.000000,2.000000,2.000000,2.000000,2.000000,2.000000,2.000000,2.000000,2.000000,50.000000
1613959266.831264,20.000000,0.000000,-4.638055,-6.619882,26.895899,18.968349,7.666221,11.757917,-4.265276,2.597418,-2.381427,10.540369,-4.216608,6.396191,8.975054,2.597134,26.804375,31.837757,35.388088,31.472097,42.504459,56.307117,25.429964,21.253036,-3.688238,19.271355,22.185471,-3.565863,1.994058,-5.199374,8.358546,6.885660,14.704440,18.902142,0.000000,127.000000,4.000000,,,,0.000000,2.000000,2.000000,2.000000,2.000000,2.000000,2.000000,2.000000,2.000000,2.000000,2.000000,2.000000,2.000000,2.000000,2.000000,2.000000,2.000000,2.000000,2.000000,4.000000,2.000000,2.000000,2.000000,2.000000,2.000000,2.000000,2.000000,2.000000,2.000000,2.000000,2.000000,2.000000,2.000000,50.000000
1613959266.838913,21.000000,0.000000,-5.146237,-7.126083,27.381824,21.513483,14.838041,15.848723,0.867194,3.107641,3.774801,12.068290,-1.135469,6.902615,9.991719,7.209922,30.880135,27.703356,31.250137,30.414984,39.897854,56.250813,26.430176,21.744604,-3.171730,23.354649,19.599184,-2.023836,2.504885,-5.194175,10.401470,10.981339,16.228197,21.447342,0.000000,134.000000,4.000000,,,,0.000000,2.000000,2.000000,2.000000,2.000000,2.000000,2.000000,2.000000,2.000000,2.000000,2.000000,2.000000,2.000000,2.000000,2.000000,2.000000,2.000000,2.000000,2.000000,4.000000,2.000000,2.000000,2.000000,2.000000,2.000000,2.000000,2.000000,2.000000,2.000000,2.000000,2.000000,2.000000,2.000000,50.000000
1613959266.846662,22.000000,0.000000,-5.141091,-4.554854,26.328802,22.517611,20.977049,18.909798,10.097096,3.617354,14.027436,21.799810,7.583616,6.895712,13.571471,20.023224,37.003101,38.444881,32.244530,35.512775,43.960522,56.194561,25.378105,22.748499,-4.194199,22.818472,20.092405,5.157675,4.040841,-3.137699,11.929530,10.970357,16.211969,25.015636,0.000000,122.000000,4.000000,,,,0.000000,2.000000,2.000000,2.000000,2.000000,2.000000,2.000000,2.000000,2.000000,2.000000,2.000000,2.000000,2.000000,2.000000,2.000000,2.000000,2.000000,2.000000,2.000000,4.000000,2.000000,2.000000,2.000000,2.000000,2.000000,2.000000,2.000000,2.000000,2.000000,2.000000,2.000000,2.000000,2.000000,50.000000
1613959266.854312,23.000000,0.000000,-5.135950,1.090726,26.815292,22.495094,19.417612,20.429350,13.163922,9.254762,18.628794,25.880575,12.191417,5.863176,19.711746,37.951920,46.709686,54.303875,40.417412,44.708031,47.506302,55.112724,24.839907,24.777033,-4.190005,27.923859,20.585133,9.255082,6.088082,-1.083279,11.404779,12.497848,14.144475,25.503443,0.000000,136.000000,4.000000,,,,0.000000,2.000000,2.000000,2.000000,2.000000,2.000000,2.000000,2.000000,2.000000,2.000000,2.000000,2.000000,2.000000,2.000000,2.000000,2.000000,2.000000,2.000000,2.000000,4.000000,2.000000,2.000000,2.000000,2.000000,2.000000,2.000000,2.000000,2.000000,2.000000,2.000000,2.000000,2.000000,2.000000,50.000000
1613959266.862061,24.000000,0.000000,-5.130814,4.679379,26.788477,28.113625,22.987938,26.562767,11.612297,13.348071,17.584524,25.341875,10.640763,6.882954,22.256138,47.144737,49.739902,58.352135,35.248791,41.586399,45.920334,56.083252,25.840708,24.752256,-3.672994,35.075424,20.564547,8.733006,6.081995,-1.082196,11.393375,15.049453,20.284176,30.093323,0.000000,137.000000,4.000000,,,,0.000000,2.000000,2.000000,2.000000,2.000000,2.000000,2.000000,2.000000,2.000000,2.000000,2.000000,2.000000,2.000000,2.000000,2.000000,2.000000,2.000000,2.000000,2.000000,4.000000,2.000000,2.000000,2.000000,2.000000,2.000000,2.000000,2.000000,2.000000,2.000000,2.000000,2.000000,2.000000,2.000000,50.000000
1613959266.869710,25.000000,0.000000,-5.125683,4.674700,26.761690,36.803459,30.657257,32.690048,12.113504,11.283442,18.079760,26.342175,10.630123,7.901711,16.080034,36.841183,39.946571,44.447628,18.290464,31.288403,42.284672,55.514347,25.814867,25.240324,-5.207783,32.989063,20.031162,9.749914,5.563092,-1.593934,11.894802,12.470301,30.007483,40.319641,0.000000,133.000000,4.000000,,,,0.000000,2.000000,2.000000,2.000000,2.000000,2.000000,2.000000,2.000000,2.000000,2.000000,2.000000,2.000000,2.000000,2.000000,2.000000,2.000000,2.000000,2.000000,2.000000,2.000000,2.000000,2.000000,2.000000,2.000000,2.000000,2.000000,2.000000,2.000000,2.000000,2.000000,2.000000,2.000000,2.000000,50.000000
1613959266.877459,26.000000,0.000000,-5.120557,4.670025,26.734928,37.792297,29.088139,29.580437,12.614212,9.220876,18.574501,22.213268,11.132314,4.304066,6.833186,18.855623,24.522009,21.839077,12.631147,29.718653,37.114182,45.202423,23.737770,24.702263,-7.253857,27.315050,14.370106,7.688882,6.070349,-1.592340,11.370087,8.355267,25.874910,37.202396,0.000000,151.000000,4.000000,,,,0.000000,2.000000,2.000000,2.000000,2.000000,2.000000,2.000000,2.000000,2.000000,2.000000,2.000000,2.000000,2.000000,2.000000,2.000000,2.000000,2.000000,2.000000,2.000000,2.000000,2.000000,2.000000,2.000000,2.000000,2.000000,2.000000,2.000000,2.000000,2.000000,2.000000,2.000000,2.000000,2.000000,50.000000
1613959266.885108,27.000000,0.000000,-5.115437,4.665355,26.708193,33.651939,23.930845,26.473932,11.575956,10.750116,15.991823,12.447464,10.608360,3.786942,4.775070,8.580357,17.318001,8.483905,16.208260,26.099190,30.923222,36.439274,22.688391,24.677561,-8.272244,24.210812,8.714710,4.604270,5.551458,-1.590748,11.871537,6.808449,16.105446,26.395964,0.000000,128.000000,4.000000,,,,0.000000,2.000000,2.000000,2.000000,2.000000,2.000000,2.000000,2.000000,2.000000,2.000000,2.000000,2.000000,2.000000,2.000000,2.000000,2.000000,2.000000,2.000000,2.000000,2.000000,2.000000,2.000000,2.000000,2.000000,2.000000,2.000000,2.000000,2.000000,2.000000,2.000000,2.000000,2.000000,2.000000,50.000000
1613959266.892857,28.000000,0.000000,-5.110322,4.147869,27.194305,33.618290,22.881273,27.985920,12.077201,10.739367,18.539934,9.358094,10.597752,10.449821,6.308757,2.417930,18.326323,6.424139,15.166411,14.278220,26.789734,38.966938,20.614420,25.678524,-7.751152,22.135319,2.552149,6.138128,6.058728,-1.076337,11.346846,4.237538,15.576520,27.908030,0.000000,94.000000,4.000000,,,,0.000000,2.000000,2.000000,2.000000,2.000000,2.000000,2.000000,2.000000,2.000000,2.000000,2.000000,2.000000,2.000000,2.000000,2.000000,2.000000,2.000000,2.000000,2.000000,2.000000,2.000000,2.000000,2.000000,2.000000,2.000000,2.000000,2.000000,2.000000,2.000000,2.000000,2.000000,2.000000,2.000000,50.000000
1613959266.900506,29.000000,0.000000,-5.105211,5.169362,26.141470,34.610310,19.268648,23.342550,12.065124,5.600422,16.470112,9.348736,10.587154,6.849628,-0.877039,-9.379359,18.307997,2.827971,13.612783,9.648557,27.275764,34.825405,10.850216,21.550282,-7.743400,16.472158,-6.681172,1.003784,5.027028,-2.613722,8.771396,0.130737,13.509662,29.931404,0.000000,154.000000,4.000000,,,,0.000000,2.000000,2.000000,2.000000,2.000000,2.000000,2.000000,2.000000,2.000000,2.000000,2.000000,2.000000,2.000000,2.000000,2.000000,2.000000,2.000000,2.000000,2.000000,2.000000,2.000000,4.000000,2.000000,4.000000,2.000000,2.000000,2.000000,2.000000,2.000000,2.000000,2.000000,2.000000,2.000000,50.000000
1613959266.908255,30.000000,0.000000,-5.100106,3.112911,24.064047,29.960316,11.044251,14.088438,8.463315,-1.071845,1.069027,3.698361,10.576567,-5.464914,-9.594110,-17.062288,15.725586,-0.251780,15.137631,11.690190,27.761311,22.995708,2.121417,11.785142,-7.735657,8.763379,-14.366798,-11.817732,2.457898,-4.662390,7.224163,-2.946317,5.291024,15.542499,0.000000,173.000000,4.000000,,,,0.000000,2.000000,2.000000,2.000000,2.000000,2.000000,2.000000,2.000000,2.000000,2.000000,2.000000,2.000000,2.000000,2.000000,2.000000,2.000000,2.000000,2.000000,2.000000,2.000000,2.000000,4.000000,2.000000,4.000000,2.000000,2.000000,2.000000,2.000000,2.000000,2.000000,2.000000,2.000000,2.000000,50.000000
1613959266.915905,31.000000,0.000000,-5.095006,-1.505587,22.501520,25.827791,7.443463,12.023067,4.352288,-2.609235,-6.624350,2.156201,10.565990,-4.433808,-10.097338,-13.455482,13.658579,-1.789989,15.122494,11.165680,26.707907,20.921431,2.119296,8.183614,-7.727921,6.190513,-16.403713,-14.370017,1.429799,-5.683369,7.729759,-4.994653,2.721630,5.783366,0.000000,106.000000,4.000000,,,,0.000000,2.000000,2.000000,2.000000,2.000000,2.000000,2.000000,2.000000,2.000000,2.000000,2.000000,2.000000,2.000000,2.000000,2.000000,2.000000,2.000000,2.000000,2.000000,2.000000,2.000000,4.000000,2.000000,4.000000,2.000000,2.000000,2.000000,2.000000,2.000000,2.000000,2.000000,2.000000,2.000000,50.000000
1613959266.923654,32.000000,0.000000,-5.089911,-3.555363,22.479019,25.801964,7.948841,15.600788,3.835115,0.470297,5.689967,9.846353,10.555425,3.262934,-5.984676,-5.749719,16.721844,-1.275379,14.594551,11.667335,27.706841,24.490253,2.117177,9.713891,-7.720193,7.722784,-11.771926,-8.201801,1.941190,-5.164865,7.209209,-6.015299,4.257370,18.085276,8064.000000,0.000000,4.000000,,,,0.000000,2.000000,2.000000,2.000000,2.000000,2.000000,2.000000,2.000000,2.000000,2.000000,2.000000,2.000000,2.000000,2.000000,2.000000,2.000000,2.000000,2.000000,2.000000,2.000000,2.000000,4.000000,2.000000,4.000000,2.000000,2.000000,2.000000,2.000000,2.000000,2.000000,2.000000,2.000000,2.000000,50.000000
1613959266.931303,33.000000,0.000000,-5.084821,-2.526167,22.456541,26.288982,7.940892,16.098007,4.344100,4.572391,14.402225,14.451891,10.544869,3.259671,-1.363307,2.461159,23.884609,12.059230,16.631239,15.758231,27.679134,25.491404,1.602239,8.678536,-7.712473,6.689420,-4.067846,-7.680779,1.939249,-5.159700,7.714820,0.657383,4.253113,33.451805,8064.000000,0.000000,4.000000,,,,0.000000,2.000000,2.000000,2.000000,2.000000,2.000000,2.000000,2.000000,2.000000,2.000000,2.000000,2.000000,2.000000,2.000000,2.000000,2.000000,2.000000,2.000000,2.000000,2.000000,2.000000,4.000000,2.000000,4.000000,2.000000,2.000000,2.000000,2.000000,2.000000,2.000000,2.000000,2.000000,2.000000,50.000000
1613959266.939052,34.000000,0.000000,-5.079736,-3.549282,22.946903,25.749872,7.932950,15.569090,3.826936,6.619101,7.721157,13.924619,10.534325,4.282052,1.714980,14.253570,29.501749,30.508709,21.229992,18.819397,27.138634,32.645401,11.857047,10.721140,-7.704761,7.708372,1.577247,0.019210,1.937310,-5.154540,12.322490,9.374674,7.838603,33.931175,8064.000000,0.000000,4.000000,,,,0.000000,2.000000,2.000000,2.000000,2.000000,2.000000,2.000000,2.000000,2.000000,2.000000,2.000000,2.000000,2.000000,2.000000,2.000000,2.000000,2.000000,2.000000,2.000000,2.000000,2.000000,4.000000,2.000000,4.000000,2.000000,2.000000,2.000000,2.000000,2.000000,2.000000,2.000000,2.000000,2.000000,50.000000
1613959266.946701,35.000000,0.000000,-5.074656,-3.545732,21.898315,25.724123,7.925018,16.066341,3.823109,6.099661,5.662153,13.910694,10.523790,6.329052,2.226085,19.367521,31.010710,36.119225,22.747223,19.313396,29.675598,42.869164,25.691343,17.889906,-7.697056,17.444252,2.601311,15.403806,1.935372,-5.149386,15.899911,10.903761,14.497431,27.743397,8064.000000,0.000000,4.000000,,,,0.000000,2.000000,2.000000,2.000000,2.000000,2.000000,2.000000,2.000000,2.000000,2.000000,2.000000,2.000000,2.000000,2.000000,2.000000,2.000000,2.000000,2.000000,2.000000,2.000000,2.000000,4.000000,2.000000,4.000000,2.000000,2.000000,2.000000,2.000000,2.000000,2.000000,2.000000,2.000000,2.000000,50.000000
1613959266.954450,36.000000,0.000000,-5.069582,-2.003725,22.902060,26.211220,8.429914,16.050274,4.332106,6.606382,9.759055,13.896784,10.513267,2.220159,1.711039,18.835333,29.954058,34.031826,22.211657,19.294085,34.774128,42.826294,29.768217,21.974581,-7.689359,23.580654,4.649992,13.337120,1.933437,-5.144237,13.319909,9.867216,16.534216,26.177191,8064.000000,0.000000,4.000000,,,,0.000000,2.000000,2.000000,2.000000,2.000000,2.000000,2.000000,2.000000,2.000000,2.000000,2.000000,2.000000,2.000000,2.000000,2.000000,2.000000,2.000000,2.000000,2.000000,2.000000,2.000000,4.000000,2.000000,4.000000,2.000000,2.000000,2.000000,2.000000,2.000000,2.000000,2.000000,2.000000,2.000000,50.000000
1613959266.962099,37.000000,0.000000,-5.064512,-6.617106,27.494541,26.185009,8.421483,16.034224,4.327774,6.599776,9.749296,14.908527,10.502753,-0.346164,2.222148,24.970345,29.411283,33.997791,22.189444,19.274790,35.252174,39.193726,30.251268,20.414145,-7.681669,20.480150,5.670983,-1.035191,1.931503,-5.139092,10.742486,10.370170,15.492041,27.176655,8064.000000,0.000000,4.000000,,,,0.000000,2.000000,2.000000,2.000000,2.000000,2.000000,2.000000,2.000000,2.000000,2.000000,2.000000,2.000000,2.000000,2.000000,2.000000,2.000000,2.000000,2.000000,2.000000,2.000000,2.000000,4.000000,2.000000,4.000000,2.000000,2.000000,2.000000,2.000000,2.000000,2.000000,2.000000,2.000000,2.000000,50.000000
1613959266.969848,38.000000,0.000000,-5.059448,-9.687412,31.056791,26.158823,8.413062,16.018190,4.323446,4.029073,12.303650,18.483362,11.005071,2.731105,2.219926,34.688965,35.535717,33.963795,22.680075,18.229874,34.704102,40.180172,32.785118,20.393730,-7.673988,18.408388,5.152492,-4.111079,1.929572,-5.133953,11.244564,10.872620,15.989369,27.149479,8064.000000,0.000000,4.000000,,,,0.000000,2.000000,2.000000,2.000000,2.000000,2.000000,2.000000,2.000000,2.000000,2.000000,2.000000,2.000000,2.000000,2.000000,2.000000,2.000000,2.000000,2.000000,2.000000,2.000000,2.000000,4.000000,2.000000,4.000000,2.000000,2.000000,2.000000,2.000000,2.000000,2.000000,2.000000,2.000000,2.000000,50.000000
1613959266.977498,39.000000,0.000000,-5.054388,-3.011058,30.000093,26.132664,8.404649,16.002172,4.319123,2.999403,16.393909,21.541803,9.968425,3.241195,1.704886,31.577351,39.089924,34.955471,22.144575,18.724464,35.695038,40.652813,31.726694,21.398977,-7.666314,18.902802,7.198621,1.021237,1.927642,-5.128819,11.746140,9.836106,15.973379,26.096687,8064.000000,0.000000,4.000000,,,,0.000000,2.000000,2.000000,2.000000,2.000000,2.000000,2.000000,2.000000,2.000000,2.000000,2.000000,2.000000,2.000000,2.000000,2.000000,2.000000,2.000000,2.000000,2.000000,2.000000,2.000000,4.000000,2.000000,4.000000,2.000000,2.000000,2.000000,2.000000,2.000000,2.000000,2.000000,2.000000,2.000000,50.000000
1613959266.985247,40.000000,0.000000,-5.049334,0.068876,29.970093,26.106531,7.883424,15.986170,4.314804,0.432301,12.274952,21.007441,6.881533,2.212313,1.703181,18.212440,25.717503,27.228209,22.635250,19.731380,28.992676,40.099339,28.618044,19.326296,-7.658648,18.883898,7.704243,1.020216,1.925715,-5.123690,11.221574,10.339090,14.418944,26.070591,8064.000000,0.000000,4.000000,,,,0.000000,2.000000,2.000000,2.000000,2.000000,2.000000,2.000000,2.000000,2.000000,2.000000,2.000000,2.000000,2.000000,2.000000,2.000000,2.000000,2.000000,2.000000,2.000000,2.000000,2.000000,4.000000,2.000000,4.000000,2.000000,2.000000,2.000000,2.000000,2.000000,2.000000,2.000000,2.000000,2.000000,50.000000
1613959266.992896,41.000000,0.000000,-5.044284,-3.008116,30.452944,26.080425,7.362720,15.970183,4.310489,-4.183516,5.083190,20.986433,3.797729,2.722921,1.701478,6.912177,11.332810,7.713801,22.099794,14.070624,19.220095,39.033600,28.076605,16.742867,-7.650989,18.865015,5.132436,-0.006445,1.923789,-5.118567,11.210352,8.277470,15.430167,26.557341,8064.000000,0.000000,4.000000,,,,0.000000,2.000000,2.000000,2.000000,2.000000,2.000000,2.000000,2.000000,2.000000,2.000000,2.000000,2.000000,2.000000,2.000000,2.000000,2.000000,2.000000,2.000000,2.000000,2.000000,2.000000,4.000000,2.000000,4.000000,2.000000,2.000000,2.000000,2.000000,2.000000,2.000000,2.000000,2.000000,2.000000,50.000000
1613959267.000645,42.000000,0.000000,-5.039240,-3.517928,29.396849,26.054344,8.893819,15.954213,4.306179,-5.717794,7.129389,21.478268,2.768290,2.720198,1.699776,-1.299863,13.885580,3.603523,22.077696,11.492451,22.277798,42.071487,28.048529,16.213305,-7.643338,15.769226,4.101663,1.019202,1.921865,-5.113448,11.199142,5.192269,15.927557,25.505142,8064.000000,0.000000,4.000000,,,,0.000000,2.000000,2.000000,2.000000,2.000000,2.000000,2.000000,2.000000,2.000000,2.000000,2.000000,2.000000,2.000000,2.000000,2.000000,2.000000,2.000000,2.000000,2.000000,2.000000,2.000000,4.000000,2.000000,4.000000,2.000000,2.000000,2.000000,2.000000,2.000000,2.000000,2.000000,2.000000,2.000000,50.000000
1613959267.008294,43.000000,0.000000,-5.034201,-3.514410,26.803350,26.028290,7.346463,15.938259,4.301872,-4.686435,11.224823,22.482430,3.278342,2.717478,1.698076,-6.939589,20.025541,17.446074,25.132540,20.711727,30.973469,45.106339,28.020481,16.709911,-7.635695,11.138072,5.123202,1.018183,1.919943,-5.621155,11.187943,2.622974,12.321886,23.428356,8064.000000,0.000000,4.000000,,,,0.000000,2.000000,2.000000,2.000000,2.000000,2.000000,2.000000,2.000000,2.000000,2.000000,2.000000,2.000000,2.000000,2.000000,2.000000,2.000000,2.000000,2.000000,2.000000,2.000000,2.000000,4.000000,2.000000,4.000000,2.000000,2.000000,2.000000,2.000000,2.000000,2.000000,2.000000,2.000000,2.000000,50.000000
1613959267.016043,44.000000,0.000000,-5.029167,-2.485255,25.750906,26.002262,3.749373,15.922320,4.297571,-5.194569,8.649496,20.921486,3.275064,2.714760,1.696378,-8.471111,17.954233,24.095295,25.107409,26.844862,25.301470,38.907387,27.992460,16.693201,-7.628059,11.639755,4.605258,1.017165,1.918023,-4.589893,11.176755,1.594710,12.309564,22.379286,8064.000000,0.000000,4.000000,,,,0.000000,2.000000,2.000000,2.000000,2.000000,2.000000,2.000000,2.000000,2.000000,2.000000,2.000000,2.000000,2.000000,2.000000,2.000000,2.000000,2.000000,2.000000,2.000000,2.000000,2.000000,4.000000,2.000000,4.000000,2.000000,2.000000,2.000000,2.000000,2.000000,2.000000,2.000000,2.000000,2.000000,50.000000
1613959267.023692,45.000000,0.000000,-5.024137,4.183897,26.237974,25.976259,10.412291,15.906399,4.293273,-4.676554,9.666488,20.387743,3.271789,2.712045,1.694682,-8.462640,16.910639,20.481455,20.466915,20.151350,16.045399,32.714634,27.451647,16.163687,-7.620430,14.192218,4.087832,1.016147,1.403285,-2.534021,11.165578,3.131577,23.066484,22.869728,8064.000000,0.000000,4.000000,,,,0.000000,2.000000,2.000000,2.000000,2.000000,2.000000,2.000000,2.000000,2.000000,2.000000,2.000000,2.000000,2.000000,2.000000,2.000000,2.000000,2.000000,2.000000,2.000000,2.000000,2.000000,4.000000,2.000000,4.000000,2.000000,2.000000,2.000000,2.000000,2.000000,2.000000,2.000000,2.000000,2.000000,50.000000
1613959267.031441,46.000000,0.000000,-5.019114,8.795098,26.211737,25.950283,22.709570,15.890492,6.340261,0.456328,17.349129,22.418638,2.755696,2.709333,1.692987,-7.428536,18.945009,21.486616,18.907988,18.592737,19.106276,38.322945,28.449837,17.173164,-7.612810,14.690845,4.596565,1.015131,3.965984,-0.993025,11.154412,5.179728,29.710085,22.334038,8064.000000,0.000000,4.000000,,,,0.000000,2.000000,2.000000,2.000000,2.000000,2.000000,2.000000,2.000000,2.000000,2.000000,2.000000,2.000000,2.000000,2.000000,2.000000,2.000000,2.000000,2.000000,2.000000,2.000000,2.000000,4.000000,2.000000,4.000000,2.000000,2.000000,2.000000,2.000000,2.000000,2.000000,2.000000,2.000000,2.000000,50.000000
1613959267.039091,47.000000,0.000000,-5.014094,8.273482,25.672705,25.411512,23.712502,15.361781,8.385203,3.019974,15.793318,17.780834,3.265761,2.706624,1.691294,-7.421108,18.413244,23.003590,21.453182,22.163889,24.728195,42.900005,30.985489,19.720095,-7.605197,17.240257,4.591969,0.501296,8.577403,-1.504853,11.143258,6.200189,25.064991,21.798883,8064.000000,0.000000,4.000000,,,,0.000000,2.000000,2.000000,2.000000,2.000000,2.000000,2.000000,2.000000,2.000000,2.000000,2.000000,2.000000,2.000000,2.000000,2.000000,2.000000,2.000000,2.000000,2.000000,2.000000,2.000000,4.000000,2.000000,4.000000,2.000000,2.000000,2.000000,2.000000,2.000000,2.000000,2.000000,2.000000,2.000000,50.000000
1613959267.046840,48.000000,0.000000,-5.009080,8.265209,26.159853,25.386101,15.483661,15.859240,8.376819,2.504133,4.495473,1.865618,3.262495,2.703918,1.176782,-8.439327,18.394831,21.954945,22.457371,17.526340,23.677826,39.780182,31.980145,20.726015,-7.597592,22.351223,3.561736,-0.012026,8.056005,-1.503348,11.132114,6.193988,21.963003,22.802725,8064.000000,0.000000,4.000000,,,,0.000000,2.000000,2.000000,2.000000,2.000000,2.000000,2.000000,2.000000,2.000000,2.000000,2.000000,2.000000,2.000000,2.000000,2.000000,2.000000,2.000000,2.000000,2.000000,2.000000,2.000000,4.000000,2.000000,4.000000,2.000000,2.000000,2.000000,2.000000,2.000000,2.000000,2.000000,2.000000,2.000000,50.000000
1613959267.054489,49.000000,0.000000,-5.004071,5.180021,26.133692,25.873535,11.878434,15.843381,5.804339,2.501629,1.926875,-5.315735,2.746412,2.701214,1.688426,-3.815504,19.914898,23.984272,21.409271,16.995993,23.654148,40.766045,31.435345,20.192469,-7.589994,21.816051,6.635097,3.064909,5.996667,-0.989024,11.120982,6.700615,22.453859,22.779922,8064.000000,0.000000,4.000000,,,,0.000000,2.000000,2.000000,2.000000,2.000000,2.000000,2.000000,2.000000,2.000000,2.000000,2.000000,2.000000,2.000000,2.000000,2.000000,2.000000,2.000000,2.000000,2.000000,2.000000,2.000000,4.000000,2.000000,4.000000,2.000000,2.000000,2.000000,2.000000,2.000000,2.000000,2.000000,2.000000,2.000000,50.000000
1613959267.062138,50.000000,0.000000,-4.999067,-2.004647,26.107559,25.334841,11.866555,15.314716,4.260073,2.499128,6.540333,4.433171,4.282127,2.185692,1.686738,7.983183,21.433445,28.062853,21.900682,28.261049,24.143314,43.289379,31.916729,20.172276,-7.582405,19.230133,11.243847,4.600306,5.477849,-1.500856,10.597041,5.668273,21.918587,21.218681,8064.000000,0.000000,4.000000,,,,0.000000,2.000000,2.000000,2.000000,2.000000,2.000000,2.000000,2.000000,2.000000,2.000000,2.000000,2.000000,2.000000,2.000000,2.000000,2.000000,2.000000,2.000000,2.000000,2.000000,2.000000,4.000000,2.000000,4.000000,2.000000,2.000000,2.000000,2.000000,2.000000,2.000000,2.000000,2.000000,2.000000,50.000000
1613959267.069887,51.000000,0.000000,-5.506888,-3.541104,25.568630,25.822327,11.854689,17.863504,4.255813,2.496629,4.995331,10.582583,7.867589,2.696327,0.659410,15.667508,23.463293,30.086071,22.391602,34.386635,22.580709,42.220451,31.371992,20.152103,-6.036361,18.185261,11.232602,3.057244,4.959551,-1.499355,11.099264,8.226707,25.999231,25.300026,8064.000000,0.000000,4.000000,,,,0.000000,2.000000,2.000000,2.000000,2.000000,2.000000,2.000000,2.000000,2.000000,2.000000,2.000000,2.000000,2.000000,2.000000,2.000000,2.000000,2.000000,2.000000,2.000000,2.000000,2.000000,4.000000,2.000000,4.000000,2.000000,2.000000,2.000000,2.000000,2.000000,2.000000,2.000000,2.000000,2.000000,50.000000
1613959267.077536,52.000000,0.000000,-4.475740,-0.460639,26.055883,29.386250,11.330013,21.948206,3.738737,4.545414,6.528798,9.546360,10.423824,6.796195,4.248494,15.651840,26.003931,30.568806,21.856390,32.813786,28.199154,45.255154,31.340620,22.183233,-3.466222,18.167076,13.272652,9.720853,7.518694,0.040606,13.139447,13.346686,32.639900,32.967033,8064.000000,0.000000,4.000000,,,,0.000000,2.000000,2.000000,2.000000,2.000000,2.000000,2.000000,2.000000,2.000000,2.000000,2.000000,2.000000,2.000000,2.000000,2.000000,2.000000,2.000000,2.000000,2.000000,2.000000,2.000000,4.000000,2.000000,4.000000,2.000000,2.000000,2.000000,2.000000,2.000000,2.000000,2.000000,2.000000,2.000000,50.000000
1613959267.085285,53.000000,0.000000,-1.394342,1.078283,26.029827,32.433784,10.805863,23.464718,4.247818,6.592151,12.163294,12.100916,10.926221,10.379142,8.859631,14.610548,24.952288,24.897211,21.834534,32.780972,31.760698,45.209896,31.822100,24.212334,-1.411474,21.738651,17.874763,16.377800,12.126560,2.091848,14.664769,12.820518,32.607258,32.421246,8064.000000,0.000000,4.000000,,,,0.000000,2.000000,2.000000,2.000000,2.000000,2.000000,2.000000,2.000000,2.000000,2.000000,2.000000,2.000000,2.000000,2.000000,2.000000,2.000000,2.000000,2.000000,2.000000,2.000000,2.000000,4.000000,2.000000,4.000000,2.000000,2.000000,2.000000,2.000000,2.000000,2.000000,2.000000,2.000000,2.000000,50.000000
1613959267.092935,54.000000,0.000000,-0.880127,0.051564,24.978155,30.862890,11.307878,22.415613,4.243571,6.072738,9.587029,12.088816,10.915295,9.855942,9.363591,13.057476,18.773489,12.564622,21.812700,23.517422,19.421246,36.446739,30.251816,23.675301,0.128399,25.819477,12.215863,6.105011,10.063151,2.089756,14.650105,5.115391,28.984907,26.747799,8064.000000,0.000000,4.000000,,,,0.000000,2.000000,2.000000,2.000000,2.000000,2.000000,2.000000,2.000000,2.000000,2.000000,2.000000,2.000000,2.000000,2.000000,2.000000,2.000000,2.000000,2.000000,2.000000,2.000000,2.000000,4.000000,2.000000,4.000000,2.000000,2.000000,2.000000,2.000000,2.000000,2.000000,2.000000,2.000000,2.000000,50.000000
1613959267.100684,55.000000,0.000000,-2.417708,-1.999770,26.491640,30.319206,16.424774,22.906017,2.700866,6.066665,5.474877,7.461342,9.878738,11.384548,9.354227,11.505957,18.241894,4.346929,21.790886,14.263135,9.658235,38.461575,28.170282,23.651625,0.128271,23.229555,3.998519,-3.131863,6.463345,1.574845,14.122634,1.520532,29.468744,25.695412,8064.000000,0.000000,4.000000,,,,0.000000,2.000000,2.000000,2.000000,2.000000,2.000000,2.000000,2.000000,2.000000,2.000000,2.000000,2.000000,2.000000,2.000000,2.000000,2.000000,2.000000,2.000000,2.000000,2.000000,2.000000,4.000000,2.000000,4.000000,2.000000,2.000000,2.000000,2.000000,2.000000,2.000000,2.000000,2.000000,2.000000,50.000000
1613959267.108333,56.000000,0.000000,0.661632,-1.484950,28.516430,33.878632,20.510914,24.421574,6.287908,6.573419,10.597608,8.479522,7.304757,13.937265,12.421797,12.007271,23.864677,6.393865,21.256275,23.992462,20.417809,53.294907,31.731855,26.192076,-0.384678,18.078121,9.635547,4.563576,9.533805,2.086091,15.134152,2.031832,30.464916,26.695356,8064.000000,0.000000,4.000000,,,,0.000000,2.000000,2.000000,2.000000,2.000000,2.000000,2.000000,2.000000,2.000000,2.000000,2.000000,2.000000,2.000000,2.000000,2.000000,2.000000,2.000000,2.000000,2.000000,2.000000,2.000000,4.000000,2.000000,4.000000,2.000000,2.000000,2.000000,2.000000,2.000000,2.000000,2.000000,2.000000,2.000000,50.000000
1613959267.116082,57.000000,0.000000,5.276355,1.080638,24.898170,32.306290,17.926300,21.833050,13.461107,6.566846,14.689574,10.522325,6.784631,10.333585,13.435016,9.943982,26.404917,11.002855,22.260660,38.327442,32.705082,58.369820,35.289867,27.704346,0.128527,18.060043,15.779757,9.174397,13.626835,2.084005,14.093377,3.055441,29.921631,25.643021,8064.000000,0.000000,4.000000,,,,0.000000,2.000000,2.000000,2.000000,2.000000,2.000000,2.000000,2.000000,2.000000,2.000000,2.000000,2.000000,2.000000,2.000000,2.000000,2.000000,2.000000,2.000000,2.000000,2.000000,2.000000,4.000000,2.000000,4.000000,2.000000,2.000000,2.000000,2.000000,2.000000,2.000000,2.000000,2.000000,2.000000,50.000000
1613959267.123731,58.000000,0.000000,-0.369947,0.053916,22.309170,32.786804,20.472477,22.836857,13.960467,6.047458,12.623603,9.486160,6.777847,5.707867,12.395940,6.857115,25.352871,12.017493,22.238400,37.776295,31.646736,54.208885,34.228935,27.676641,0.128399,18.554804,12.174233,7.113941,13.613208,1.569100,15.104925,5.616488,28.866068,26.130198,8064.000000,0.000000,4.000000,,,,0.000000,2.000000,2.000000,2.000000,2.000000,2.000000,2.000000,2.000000,2.000000,2.000000,2.000000,2.000000,2.000000,2.000000,2.000000,2.000000,2.000000,2.000000,2.000000,2.000000,2.000000,4.000000,2.000000,4.000000,2.000000,2.000000,2.000000,2.000000,2.000000,2.000000,2.000000,2.000000,2.000000,50.000000
1613959267.131480,59.000000,0.000000,-4.984961,1.592324,27.415066,40.959148,29.169954,32.557610,12.408045,6.041411,15.175081,13.579239,6.771069,9.291903,13.922005,9.927180,27.891621,18.672142,21.190519,34.661594,29.563807,52.616215,38.297272,27.648964,-0.384550,18.023428,12.162060,18.388878,12.061133,3.105993,19.705204,9.200615,30.888483,29.693811,8064.000000,0.000000,4.000000,,,,0.000000,2.000000,2.000000,2.000000,2.000000,2.000000,2.000000,2.000000,2.000000,2.000000,2.000000,2.000000,2.000000,2.000000,2.000000,2.000000,2.000000,2.000000,2.000000,2.000000,2.000000,4.000000,2.000000,4.000000,2.000000,2.000000,2.000000,2.000000,2.000000,2.000000,2.000000,2.000000,2.000000,50.000000
1613959267.139129,60.000000,0.000000,1.686690,8.770219,28.926111,40.405369,27.089502,32.012230,14.959740,6.548190,15.672727,17.155403,6.764298,13.385175,15.446545,9.917253,33.504753,34.038086,26.297535,40.780781,32.098347,54.614880,45.438461,27.108494,-0.384165,19.543865,18.303743,27.088438,13.074713,6.179810,22.762423,10.217055,29.831955,29.664118,8064.000000,0.000000,4.000000,,,,0.000000,2.000000,2.000000,2.000000,2.000000,2.000000,2.000000,2.000000,2.000000,2.000000,2.000000,2.000000,2.000000,2.000000,2.000000,2.000000,2.000000,2.000000,2.000000,2.000000,2.000000,4.000000,2.000000,4.000000,2.000000,2.000000,2.000000,2.000000,2.000000,2.000000,2.000000,2.000000,2.000000,50.000000
1613959267.146879,61.000000,0.000000,5.787568,2.094782,25.307442,26.518808,14.754720,16.082783,12.380677,4.490360,6.939106,12.010042,5.731893,12.346148,13.892636,3.240670,34.496891,39.645073,32.937904,38.175896,32.579067,54.560265,44.880203,27.594206,0.641860,21.575603,19.311081,13.215196,14.087279,5.660810,21.201199,10.206839,20.058533,25.531889,8064.000000,0.000000,4.000000,,,,0.000000,2.000000,2.000000,2.000000,2.000000,2.000000,2.000000,2.000000,2.000000,2.000000,2.000000,2.000000,2.000000,2.000000,2.000000,2.000000,2.000000,2.000000,2.000000,2.000000,2.000000,4.000000,2.000000,4.000000,2.000000,2.000000,2.000000,2.000000,2.000000,2.000000,2.000000,2.000000,2.000000,50.000000
1613959267.154528,62.000000,0.000000,-1.910527,-12.779108,26.307775,20.851263,10.124580,11.451316,5.188809,-0.129515,1.291141,5.844186,3.162058,9.769700,11.314641,-0.352315,28.308548,32.425941,26.238298,20.701824,25.879822,50.403141,42.784039,27.566612,-1.410064,22.066849,16.214848,0.381468,9.970628,2.578226,19.128716,9.170991,13.884628,21.916613,8064.000000,0.000000,4.000000,,,,0.000000,2.000000,2.000000,2.000000,2.000000,2.000000,2.000000,2.000000,2.000000,2.000000,2.000000,2.000000,2.000000,2.000000,2.000000,2.000000,2.000000,2.000000,2.000000,2.000000,2.000000,4.000000,2.000000,4.000000,2.000000,2.000000,2.000000,2.000000,2.000000,2.000000,2.000000,2.000000,2.000000,50.000000
1613959267.162277,63.000000,0.000000,-6.524002,-13.791970,24.743006,21.343233,12.165738,18.106531,3.132338,-1.667847,2.315490,5.838342,2.646075,8.221469,7.713583,-0.864783,22.126392,29.316591,14.417189,8.886250,17.135994,43.686069,40.177155,24.462122,-6.536859,21.531961,14.660171,0.381086,0.729888,2.062827,13.468561,6.597717,15.409204,21.894697,8064.000000,0.000000,4.000000,,,,0.000000,2.000000,2.000000,2.000000,2.000000,2.000000,2.000000,2.000000,2.000000,2.000000,2.000000,2.000000,2.000000,2.000000,2.000000,2.000000,2.000000,2.000000,2.000000,2.000000,2.000000,4.000000,2.000000,4.000000,2.000000,2.000000,2.000000,2.000000,2.000000,2.000000,2.000000,2.000000,2.000000,50.000000
1613959267.169926,64.000000,0.000000,-4.466196,-4.547409,16.000315,16.193684,11.640752,15.011502,4.154847,-0.640538,2.825995,6.858145,3.669070,6.674786,5.141767,0.674543,21.591446,27.748814,15.941234,10.415826,15.067575,40.052643,35.008770,19.822275,-8.581604,19.459148,13.107049,-2.183397,-3.373406,2.573585,5.249964,6.078299,9.239949,22.385622,0.000000,103.000000,4.000000,,,,0.000000,2.000000,2.000000,2.000000,2.000000,2.000000,2.000000,2.000000,2.000000,2.000000,2.000000,2.000000,2.000000,2.000000,2.000000,2.000000,2.000000,2.000000,2.000000,2.000000,2.000000,4.000000,2.000000,4.000000,2.000000,2.000000,2.000000,2.000000,2.000000,2.000000,2.000000,2.000000,2.000000,50.000000
1613959267.177675,65.000000,0.000000,-4.461730,-1.978759,14.445852,14.639029,10.603470,12.432388,4.150692,-1.152718,1.797529,6.338466,3.665401,6.155290,5.136625,7.853356,22.082674,17.977476,20.027857,11.943871,16.078150,39.499767,31.896839,19.289633,-6.521741,18.414047,11.555480,-7.309419,-1.831571,0.519729,2.167791,6.585041,-0.000060,22.363237,0.000000,93.000000,4.000000,,,,0.000000,2.000000,2.000000,2.000000,2.000000,2.000000,2.000000,2.000000,2.000000,2.000000,2.000000,2.000000,2.000000,2.000000,2.000000,2.000000,2.000000,2.000000,2.000000,2.000000,2.000000,4.000000,2.000000,4.000000,2.000000,2.000000,2.000000,2.000000,2.000000,2.000000,2.000000,2.000000,2.000000,50.000000
1613959267.185324,66.000000,0.000000,-5.482909,-4.028062,20.585253,20.778236,11.618507,20.112263,3.633721,-2.177207,2.308552,5.819307,2.636095,6.149135,5.131489,10.922426,21.547771,12.831293,11.289880,8.855004,16.062071,37.921806,30.326481,19.783165,-8.053680,18.395634,11.543924,-7.302110,-1.829739,-1.532073,3.704085,6.065636,4.102504,21.828053,0.000000,64.000000,4.000000,,,,0.000000,2.000000,2.000000,2.000000,2.000000,2.000000,2.000000,2.000000,2.000000,2.000000,2.000000,2.000000,2.000000,2.000000,2.000000,2.000000,2.000000,2.000000,2.000000,2.000000,2.000000,4.000000,2.000000,4.000000,2.000000,2.000000,2.000000,2.000000,2.000000,2.000000,2.000000,2.000000,2.000000,50.000000
1613959267.193073,67.000000,0.000000,-4.964605,-2.998393,18.513386,21.783098,11.606889,22.656254,4.142908,-1.149388,2.306243,6.326308,3.146279,5.630165,4.613537,2.706375,21.013403,13.844103,10.765769,12.948713,15.533189,37.371063,29.270514,19.250561,-8.045627,17.864418,11.532381,-6.781987,-2.340730,-2.043361,2.674740,5.546749,11.790709,21.806225,0.000000,70.000000,4.000000,,,,0.000000,2.000000,2.000000,2.000000,2.000000,2.000000,2.000000,2.000000,2.000000,2.000000,2.000000,2.000000,2.000000,2.000000,2.000000,2.000000,2.000000,2.000000,2.000000,2.000000,2.000000,4.000000,2.000000,4.000000,2.000000,2.000000,2.000000,2.000000,2.000000,2.000000,2.000000,2.000000,2.000000,50.000000
1613959267.200723,68.000000,0.000000,-4.959641,-2.482574,14.905128,20.735674,11.595282,18.531033,4.138765,-1.148239,1.791116,6.832803,3.655954,5.624535,6.147385,-0.373254,19.453928,12.291797,23.575516,22.166534,12.440732,37.846512,32.318165,19.744131,-1.883735,17.333733,12.033669,-7.288025,-1.825569,-1.528497,3.184886,6.054023,11.266098,22.297239,0.000000,139.000000,4.000000,,,,0.000000,2.000000,2.000000,2.000000,2.000000,2.000000,2.000000,2.000000,2.000000,2.000000,2.000000,2.000000,2.000000,2.000000,2.000000,2.000000,2.000000,2.000000,2.000000,2.000000,2.000000,4.000000,2.000000,4.000000,2.000000,2.000000,2.000000,2.000000,2.000000,2.000000,2.000000,2.000000,2.000000,50.000000
1613959267.208472,69.000000,0.000000,-4.954681,-2.992912,19.505608,21.740580,11.583687,18.512503,4.134626,-7.300937,2.302145,1.697765,0.575375,6.644552,3.064314,0.139940,15.844730,10.228223,22.526300,19.067444,9.351369,36.270206,26.132002,19.211565,-1.369031,18.342039,9.970353,-6.255096,-2.336564,-1.526969,6.258624,5.022328,10.229191,21.249302,0.000000,94.000000,4.000000,,,,0.000000,2.000000,2.000000,2.000000,2.000000,2.000000,2.000000,2.000000,2.000000,2.000000,2.000000,2.000000,2.000000,2.000000,2.000000,2.000000,2.000000,2.000000,2.000000,2.000000,2.000000,4.000000,2.000000,4.000000,2.000000,2.000000,2.000000,2.000000,2.000000,2.000000,2.000000,2.000000,2.000000,50.000000
1613959267.216121,70.000000,0.000000,-4.949726,-2.989919,22.563025,20.693199,11.572103,19.519630,4.130491,-9.344918,2.299843,-1.380856,-4.553406,3.560984,-3.605417,-10.629431,11.213501,3.551328,6.606338,4.689403,7.803555,29.054449,4.567408,14.064149,-10.085610,12.682673,4.319357,-7.274482,-2.334227,-2.038262,7.278006,0.401921,11.244603,17.638308,0.000000,101.000000,4.000000,,,,0.000000,2.000000,2.000000,2.000000,2.000000,2.000000,2.000000,2.000000,2.000000,2.000000,2.000000,2.000000,2.000000,2.000000,2.000000,2.000000,2.000000,2.000000,2.000000,2.000000,2.000000,4.000000,2.000000,4.000000,2.000000,2.000000,2.000000,2.000000,2.000000,2.000000,2.000000,2.000000,2.000000,50.000000
1613959267.223870,71.000000,0.000000,-4.944777,-2.986929,22.027641,22.723787,11.560531,19.500111,4.126361,-1.643265,0.759082,2.210268,-4.548852,2.531782,-4.627452,-12.670084,8.638186,-2.093249,8.651013,4.684713,6.257290,23.897188,0.973097,14.050085,-11.613986,2.926400,0.212474,-6.754387,-1.819072,-1.523404,6.757907,-1.136942,11.233358,18.646311,0.000000,109.000000,4.000000,,,,0.000000,2.000000,2.000000,2.000000,2.000000,2.000000,2.000000,2.000000,2.000000,2.000000,2.000000,2.000000,2.000000,2.000000,2.000000,2.000000,2.000000,2.000000,2.000000,2.000000,2.000000,4.000000,2.000000,4.000000,2.000000,2.000000,2.000000,2.000000,2.000000,2.000000,2.000000,2.000000,2.000000,50.000000
1613959267.231519,72.000000,0.000000,-4.939832,-3.496763,26.108179,29.880550,11.548970,21.531893,3.609414,6.563506,5.373708,4.772161,0.583902,10.221558,-2.058722,5.291304,16.834675,12.780640,22.488516,23.654387,17.020264,36.180984,27.125971,22.241163,-5.448526,6.000396,-1.326200,1.970316,-2.330074,-1.521880,10.340893,2.966759,11.734945,25.294331,0.000000,104.000000,4.000000,,,,0.000000,2.000000,2.000000,2.000000,2.000000,2.000000,2.000000,2.000000,2.000000,2.000000,2.000000,2.000000,2.000000,2.000000,2.000000,2.000000,2.000000,2.000000,2.000000,2.000000,2.000000,4.000000,2.000000,4.000000,2.000000,2.000000,2.000000,2.000000,2.000000,2.000000,2.000000,2.000000,2.000000,50.000000
1613959267.239268,73.000000,0.000000,-4.934892,-3.493266,29.158993,33.440414,11.537421,23.048822,4.118625,6.556942,14.086283,8.357132,3.147420,17.390823,-1.543843,19.132166,32.715275,37.896065,26.055771,36.451244,38.028885,53.580700,43.509102,27.859947,-3.904616,18.302088,2.777690,11.711935,-2.840564,-2.033179,14.433116,6.553535,13.774493,29.371601,0.000000,131.000000,4.000000,,,,0.000000,2.000000,2.000000,2.000000,2.000000,2.000000,2.000000,2.000000,2.000000,2.000000,2.000000,2.000000,2.000000,2.000000,2.000000,2.000000,2.000000,2.000000,2.000000,2.000000,2.000000,4.000000,2.000000,4.000000,2.000000,2.000000,2.000000,2.000000,2.000000,2.000000,2.000000,2.000000,2.000000,50.000000
1613959267.246917,74.000000,0.000000,-4.929957,-1.438491,30.155476,32.381332,11.525884,22.512953,6.678609,5.524745,18.174761,17.066723,3.144273,17.373432,-2.567940,18.600214,41.400509,47.088936,26.029715,36.414795,48.760086,58.655323,40.901489,27.319267,-2.875071,21.873529,13.031322,13.238685,3.316123,0.020137,14.418683,6.034162,15.299180,29.342230,0.000000,114.000000,4.000000,,,,0.000000,2.000000,2.000000,2.000000,2.000000,2.000000,2.000000,2.000000,2.000000,2.000000,2.000000,2.000000,2.000000,2.000000,2.000000,2.000000,2.000000,2.000000,2.000000,2.000000,2.000000,4.000000,2.000000,4.000000,2.000000,2.000000,2.000000,2.000000,2.000000,2.000000,2.000000,2.000000,2.000000,50.000000
1613959267.254666,75.000000,0.000000,-2.873745,0.101409,32.689423,32.861771,11.514358,22.490440,7.697572,6.544861,17.130945,21.665041,5.705231,16.330418,-2.052552,18.581614,39.820648,42.939285,31.644711,36.891201,43.583122,55.519745,43.424690,26.779127,1.743189,22.364477,19.684958,11.686984,12.030755,2.071398,15.429906,8.079410,17.847982,31.364170,0.000000,94.000000,4.000000,,,,0.000000,2.000000,2.000000,2.000000,2.000000,2.000000,2.000000,2.000000,2.000000,2.000000,2.000000,2.000000,2.000000,2.000000,2.000000,2.000000,2.000000,2.000000,2.000000,2.000000,2.000000,4.000000,2.000000,4.000000,2.000000,2.000000,2.000000,2.000000,2.000000,2.000000,2.000000,2.000000,2.000000,50.000000
1613959267.262316,76.000000,0.000000,-0.819589,1.126949,32.143913,32.828911,11.502844,22.467951,7.689874,6.538316,16.600994,20.617735,7.750808,17.339729,-1.537679,19.075853,40.293648,44.434807,33.664349,37.367130,42.001076,57.002689,50.047932,27.777988,4.305549,29.008780,19.152452,12.188118,13.557186,2.582148,18.491398,10.122612,20.907059,33.384087,0.000000,112.000000,4.000000,,,,0.000000,2.000000,2.000000,2.000000,2.000000,2.000000,2.000000,2.000000,2.000000,2.000000,2.000000,2.000000,2.000000,2.000000,2.000000,2.000000,2.000000,2.000000,2.000000,2.000000,2.000000,4.000000,2.000000,4.000000,2.000000,2.000000,2.000000,2.000000,2.000000,2.000000,2.000000,2.000000,2.000000,50.000000
1613959267.270065,77.000000,0.000000,-1.331590,3.177104,33.137409,32.283260,10.978520,22.445482,9.220646,6.018957,17.610033,24.699682,6.717416,17.322390,-2.048962,18.031136,40.766174,45.416012,32.605042,36.304123,43.497536,57.971325,49.997883,27.750212,3.275602,34.107975,20.671762,12.688750,12.517987,2.066745,18.472908,10.112490,22.424612,32.837883,0.000000,134.000000,4.000000,,,,0.000000,2.000000,2.000000,2.000000,2.000000,2.000000,2.000000,2.000000,2.000000,2.000000,2.000000,2.000000,2.000000,2.000000,2.000000,2.000000,2.000000,2.000000,2.000000,2.000000,2.000000,4.000000,2.000000,4.000000,2.000000,2.000000,2.000000,2.000000,2.000000,2.000000,2.000000,2.000000,2.000000,50.000000
1613959267.277714,78.000000,0.000000,-1.330258,4.712389,39.258118,33.276619,11.480362,22.935858,11.262707,6.012938,17.592422,27.751905,6.710699,15.253784,-2.559733,19.038746,35.084381,35.627007,32.572437,37.293457,31.659168,53.810791,49.947887,25.671179,3.272326,32.535404,23.728012,12.163241,13.018291,2.064678,17.941614,9.589557,21.889368,32.805046,0.000000,92.000000,4.000000,,,,0.000000,2.000000,2.000000,2.000000,2.000000,2.000000,2.000000,2.000000,2.000000,2.000000,2.000000,2.000000,2.000000,2.000000,2.000000,2.000000,2.000000,2.000000,2.000000,2.000000,2.000000,4.000000,2.000000,4.000000,2.000000,2.000000,2.000000,2.000000,2.000000,2.000000,2.000000,2.000000,2.000000,50.000000
1613959267.285463,79.000000,0.000000,-1.328928,4.194856,35.116295,30.166418,11.468882,21.374460,11.764265,6.006925,14.497908,23.108768,7.216808,13.187249,-1.531532,15.942784,27.869812,21.232405,29.975763,33.666420,12.140329,49.141594,47.846657,23.594225,3.781874,31.990049,21.653004,10.099796,13.518092,2.062613,18.949314,9.579967,21.867477,32.772240,0.000000,105.000000,4.000000,,,,0.000000,2.000000,2.000000,2.000000,2.000000,2.000000,2.000000,2.000000,2.000000,2.000000,2.000000,2.000000,2.000000,2.000000,2.000000,2.000000,2.000000,2.000000,2.000000,2.000000,2.000000,4.000000,2.000000,4.000000,2.000000,2.000000,2.000000,2.000000,2.000000,2.000000,2.000000,2.000000,2.000000,50.000000
1613959267.293112,80.000000,0.000000,-1.327599,4.190661,25.337589,22.443945,10.944592,18.788982,11.239680,6.000918,9.868025,20.008738,5.158309,12.661241,-2.042821,7.208892,23.739378,13.006044,25.330402,22.350704,6.487163,48.066814,37.029579,23.057812,3.265272,33.496521,18.554426,8.038414,12.478933,2.060551,15.853441,9.570387,21.845612,29.662544,0.000000,118.000000,4.000000,,,,0.000000,2.000000,2.000000,2.000000,2.000000,2.000000,2.000000,2.000000,2.000000,2.000000,2.000000,2.000000,2.000000,2.000000,2.000000,2.000000,2.000000,2.000000,2.000000,2.000000,2.000000,4.000000,2.000000,4.000000,2.000000,2.000000,2.000000,2.000000,2.000000,2.000000,2.000000,2.000000,2.000000,50.000000
1613959267.300761,81.000000,0.000000,-1.326272,4.186470,28.901997,20.883039,13.497750,19.283014,11.228440,5.994917,8.319695,21.014370,3.101869,13.161400,-3.066420,7.201684,24.228458,12.993038,24.279432,15.661686,14.172984,48.531567,26.223318,23.034754,3.262007,30.898922,19.048693,8.030375,12.466455,2.058490,11.222203,9.560817,21.823765,29.632881,0.000000,118.000000,4.000000,,,,0.000000,2.000000,2.000000,2.000000,2.000000,2.000000,2.000000,2.000000,2.000000,2.000000,2.000000,2.000000,2.000000,2.000000,2.000000,2.000000,2.000000,2.000000,2.000000,2.000000,2.000000,4.000000,2.000000,4.000000,2.000000,2.000000,2.000000,2.000000,2.000000,2.000000,2.000000,2.000000,2.000000,50.000000
1613959267.308510,82.000000,0.000000,-1.324945,4.182283,30.924376,24.451899,18.099638,21.827833,11.217212,5.988923,9.337017,19.454893,3.098767,13.148239,3.090493,17.963713,27.793974,16.056969,25.280792,19.748589,18.261375,48.483036,25.684275,23.011719,3.258745,25.739819,19.029644,8.022346,12.966808,2.056432,10.185340,9.551255,21.801941,30.116070,0.000000,111.000000,4.000000,,,,0.000000,2.000000,2.000000,2.000000,2.000000,2.000000,2.000000,2.000000,2.000000,2.000000,2.000000,2.000000,2.000000,2.000000,2.000000,2.000000,2.000000,2.000000,2.000000,2.000000,2.000000,4.000000,2.000000,4.000000,2.000000,2.000000,2.000000,2.000000,2.000000,2.000000,2.000000,2.000000,2.000000,50.000000
1613959267.316160,83.000000,0.000000,-1.323621,4.178102,20.124222,25.453089,19.107180,22.831646,11.205995,5.982934,9.327680,16.871336,3.095669,13.135091,12.318172,22.561134,30.843103,19.117834,24.229872,24.344225,17.730293,47.921730,26.684231,22.988707,3.255486,24.175617,18.497793,8.014323,11.415380,2.054375,10.687975,9.541704,21.780140,23.932108,0.000000,111.000000,4.000000,,,,0.000000,2.000000,2.000000,2.000000,2.000000,2.000000,2.000000,2.000000,2.000000,2.000000,2.000000,2.000000,2.000000,2.000000,2.000000,2.000000,2.000000,2.000000,2.000000,2.000000,2.000000,4.000000,2.000000,4.000000,2.000000,2.000000,2.000000,2.000000,2.000000,2.000000,2.000000,2.000000,2.000000,50.000000
1613959267.323909,84.000000,0.000000,-1.322297,4.173923,21.129738,23.889174,17.036789,21.783175,11.194789,5.976951,8.292711,16.341644,2.579752,13.121956,12.818674,16.384726,31.837900,20.637178,24.205641,24.319880,19.251024,48.386631,24.093445,22.965717,3.252231,23.638620,18.992117,8.519129,9.352683,2.052321,10.677287,9.532163,21.245539,22.369713,0.000000,126.000000,4.000000,,,,0.000000,2.000000,2.000000,2.000000,2.000000,2.000000,2.000000,2.000000,2.000000,2.000000,2.000000,2.000000,2.000000,2.000000,2.000000,2.000000,2.000000,2.000000,2.000000,2.000000,2.000000,4.000000,2.000000,4.000000,2.000000,2.000000,2.000000,2.000000,2.000000,2.000000,2.000000,2.000000,2.000000,50.000000
1613959267.331558,85.000000,0.000000,-1.320975,4.169749,32.390659,24.890926,19.071035,21.761391,11.183594,5.970973,9.310060,16.838123,3.089993,13.108833,8.703291,13.291418,30.780422,20.616541,24.694256,24.295561,18.206133,48.338245,23.043711,22.942753,3.248978,21.050880,17.434664,7.484969,8.317689,2.050269,10.153790,10.035451,21.737114,30.552471,0.000000,131.000000,4.000000,,,,0.000000,2.000000,2.000000,2.000000,2.000000,2.000000,2.000000,2.000000,2.000000,2.000000,2.000000,2.000000,2.000000,2.000000,2.000000,2.000000,2.000000,2.000000,2.000000,2.000000,2.000000,4.000000,2.000000,4.000000,2.000000,2.000000,2.000000,2.000000,2.000000,2.000000,2.000000,2.000000,2.000000,50.000000
1613959267.339307,86.000000,0.000000,-1.832474,3.652759,29.794167,24.866035,20.077604,23.278091,11.172410,5.965003,9.300750,16.821285,3.086903,13.095725,9.207409,15.329410,32.288101,20.083105,24.669561,24.784086,15.111003,48.289906,21.995026,22.919809,3.245729,20.517008,11.263382,4.913382,8.822192,2.048218,10.656456,8.999775,21.715376,22.316792,0.000000,132.000000,4.000000,,,,0.000000,2.000000,2.000000,2.000000,2.000000,2.000000,2.000000,2.000000,2.000000,2.000000,2.000000,2.000000,2.000000,2.000000,2.000000,2.000000,2.000000,2.000000,2.000000,2.000000,2.000000,4.000000,2.000000,4.000000,2.000000,2.000000,2.000000,2.000000,2.000000,2.000000,2.000000,2.000000,2.000000,50.000000
1613959267.346956,87.000000,0.000000,-0.805001,4.161927,20.533602,24.328348,13.903681,22.229172,11.161238,5.446217,8.778628,16.804462,2.570996,13.082629,9.198201,13.775619,32.255814,24.165585,24.644892,26.297764,19.711277,48.241615,21.973030,22.896889,2.729663,21.522133,6.636734,3.882827,8.813370,2.046170,10.645800,6.939493,21.180841,7.422680,0.000000,116.000000,4.000000,,,,0.000000,2.000000,2.000000,2.000000,2.000000,2.000000,2.000000,2.000000,2.000000,2.000000,2.000000,2.000000,2.000000,2.000000,2.000000,2.000000,2.000000,2.000000,2.000000,2.000000,2.000000,4.000000,2.000000,4.000000,2.000000,2.000000,2.000000,2.000000,2.000000,2.000000,2.000000,2.000000,2.000000,50.000000
1613959267.354705,88.000000,0.000000,1.247086,6.721868,20.513069,25.329660,17.479521,21.181301,11.150077,6.466412,11.333952,17.300480,3.594066,13.069547,8.676183,14.274663,30.685097,32.859367,26.671530,29.861208,30.973616,48.193375,29.130545,22.873993,3.752574,19.962149,8.168559,4.391765,8.804556,2.044124,10.122333,5.394092,22.698122,19.210129,0.000000,130.000000,4.000000,,,,0.000000,2.000000,2.000000,2.000000,2.000000,2.000000,2.000000,2.000000,2.000000,2.000000,2.000000,2.000000,2.000000,2.000000,2.000000,2.000000,2.000000,2.000000,2.000000,2.000000,2.000000,4.000000,2.000000,4.000000,2.000000,2.000000,2.000000,2.000000,2.000000,2.000000,2.000000,2.000000,2.000000,50.000000
1613959267.362354,89.000000,0.000000,2.784301,8.253607,25.107941,27.868433,36.436401,27.826788,11.138927,8.511228,16.963644,17.283178,6.154574,13.056477,11.744430,25.029619,36.808258,40.518818,28.696140,32.395451,35.045208,48.145180,38.845005,24.389580,5.800104,21.993469,10.724493,4.387373,8.795752,2.042080,11.650672,5.901518,25.239527,36.113995,0.000000,137.000000,4.000000,,,,0.000000,2.000000,2.000000,2.000000,2.000000,2.000000,2.000000,2.000000,2.000000,2.000000,2.000000,2.000000,2.000000,2.000000,2.000000,2.000000,2.000000,2.000000,2.000000,2.000000,2.000000,4.000000,2.000000,4.000000,2.000000,2.000000,2.000000,2.000000,2.000000,2.000000,2.000000,2.000000,2.000000,50.000000
1613959267.370103,90.000000,0.000000,2.268696,7.732533,25.595654,28.866207,39.476887,34.465626,11.127788,10.041178,22.074884,16.240255,7.174061,13.043421,16.348070,34.235359,48.566322,44.580860,28.154623,32.363056,33.471699,48.097034,41.883083,26.416473,7.332766,26.586859,11.226589,4.382986,8.786956,2.040038,13.690304,6.408437,25.727106,28.385574,0.000000,109.000000,4.000000,,,,0.000000,2.000000,2.000000,2.000000,2.000000,2.000000,2.000000,2.000000,2.000000,2.000000,2.000000,2.000000,2.000000,2.000000,2.000000,2.000000,2.000000,2.000000,2.000000,2.000000,2.000000,4.000000,2.000000,4.000000,2.000000,2.000000,2.000000,2.000000,2.000000,2.000000,2.000000,2.000000,2.000000,50.000000
1613959267.377753,91.000000,0.000000,2.266427,8.237621,21.467493,28.324520,20.463051,26.226032,11.116660,9.518316,21.027170,17.762476,6.654066,13.030377,16.844542,29.585739,50.056217,44.023460,28.126469,32.330692,33.438229,48.048939,40.815559,26.902876,6.812612,24.508991,11.215363,4.378603,8.778169,2.037998,14.702254,5.889208,25.188559,20.152060,0.000000,133.000000,4.000000,,,,0.000000,2.000000,2.000000,2.000000,2.000000,2.000000,2.000000,2.000000,2.000000,2.000000,2.000000,2.000000,2.000000,2.000000,2.000000,2.000000,2.000000,2.000000,2.000000,2.000000,2.000000,4.000000,2.000000,4.000000,2.000000,2.000000,2.000000,2.000000,2.000000,2.000000,2.000000,2.000000,2.000000,50.000000
1613959267.385502,92.000000,0.000000,2.264161,7.716563,17.856283,28.296196,13.263101,14.917756,11.105543,9.508798,11.262552,17.231894,6.647412,13.017346,14.263595,21.351025,41.288212,33.210205,28.098343,30.759899,34.430431,48.000889,41.800385,26.363153,6.805799,20.894737,11.204147,2.322942,8.769391,2.035960,14.174731,5.883319,26.189013,22.696011,0.000000,104.000000,4.000000,,,,0.000000,2.000000,2.000000,2.000000,2.000000,2.000000,2.000000,2.000000,2.000000,2.000000,2.000000,2.000000,2.000000,2.000000,2.000000,2.000000,2.000000,2.000000,2.000000,2.000000,2.000000,4.000000,2.000000,4.000000,2.000000,2.000000,2.000000,2.000000,2.000000,2.000000,2.000000,2.000000,2.000000,50.000000
1613959267.393151,93.000000,0.000000,2.261897,1.555000,17.838427,29.293539,16.326761,13.877197,11.094438,9.499290,2.020521,10.547995,6.640765,13.517150,12.710870,17.227110,35.605900,20.869305,28.070244,28.165037,33.883179,47.952888,42.271404,26.336790,6.798994,23.437946,11.705764,0.782157,9.273442,2.033924,14.160557,6.903077,23.085899,13.442546,0.000000,123.000000,4.000000,,,,0.000000,2.000000,2.000000,2.000000,2.000000,2.000000,2.000000,2.000000,2.000000,2.000000,2.000000,2.000000,2.000000,2.000000,2.000000,2.000000,2.000000,2.000000,2.000000,2.000000,2.000000,2.000000,2.000000,2.000000,2.000000,2.000000,2.000000,2.000000,2.000000,2.000000,2.000000,2.000000,2.000000,50.000000
1613959267.400900,94.000000,0.000000,2.259635,-3.574760,17.820587,27.725784,5.028383,15.914602,11.083344,9.489790,0.992859,4.896421,6.634124,12.990812,12.185338,14.132959,35.057472,19.822794,28.042173,28.136871,33.849297,48.417755,40.690670,26.823275,6.792195,23.414509,11.181237,0.781375,8.751348,2.031890,14.146397,4.844892,16.908968,1.634231,0.000000,147.000000,4.000000,,,,0.000000,2.000000,2.000000,2.000000,2.000000,2.000000,2.000000,2.000000,2.000000,2.000000,2.000000,2.000000,2.000000,2.000000,2.000000,2.000000,2.000000,2.000000,2.000000,2.000000,2.000000,2.000000,2.000000,2.000000,2.000000,2.000000,2.000000,2.000000,2.000000,2.000000,2.000000,2.000000,2.000000,50.000000
1613959267.408549,95.000000,0.000000,2.257375,-3.058365,17.802767,24.108316,-1.130492,14.360226,11.072260,9.480300,2.530328,6.429986,6.627490,10.413719,12.173153,11.041903,35.535236,21.341433,28.526953,28.621555,33.302628,47.856518,41.162800,26.283630,6.785403,21.339811,12.195697,0.780594,9.255417,2.542679,14.132250,2.788764,14.327956,7.786443,0.000000,93.000000,4.000000,,,,0.000000,2.000000,2.000000,2.000000,2.000000,2.000000,2.000000,2.000000,2.000000,2.000000,2.000000,2.000000,2.000000,2.000000,2.000000,2.000000,2.000000,2.000000,2.000000,2.000000,2.000000,2.000000,2.000000,2.000000,2.000000,2.000000,2.000000,2.000000,2.000000,2.000000,2.000000,2.000000,2.000000,50.000000
1613959267.416298,96.000000,0.000000,2.255118,-4.080947,18.297785,25.109848,10.665511,13.833045,11.061188,9.470819,1.502156,3.346633,7.133683,8.864843,12.160979,10.005220,34.474060,19.781630,27.985605,28.592934,33.782146,47.808662,41.634457,26.257347,6.778617,24.395395,12.696321,0.779813,9.758982,2.540136,14.118117,3.811617,14.313628,15.470964,8064.000000,0.000000,4.000000,,,,0.000000,2.000000,2.000000,2.000000,2.000000,2.000000,2.000000,2.000000,2.000000,2.000000,2.000000,2.000000,2.000000,2.000000,2.000000,2.000000,2.000000,2.000000,2.000000,2.000000,2.000000,2.000000,2.000000,2.000000,2.000000,2.000000,2.000000,2.000000,2.000000,2.000000,2.000000,2.000000,2.000000,50.000000
1613959267.423947,97.000000,0.000000,2.252863,-6.640969,13.664103,26.623199,12.706127,14.844853,11.050126,9.461349,1.500654,-2.297740,6.613729,9.368799,12.148819,9.995215,34.439583,22.838770,27.444799,29.077162,33.748363,48.273674,35.438976,26.743910,6.771839,23.345358,8.068241,1.291854,6.672300,1.511955,14.103999,-0.807579,12.248033,10.840109,8064.000000,0.000000,4.000000,,,,0.000000,2.000000,2.000000,2.000000,2.000000,2.000000,2.000000,2.000000,2.000000,2.000000,2.000000,2.000000,2.000000,2.000000,2.000000,2.000000,2.000000,2.000000,2.000000,2.000000,2.000000,2.000000,2.000000,2.000000,2.000000,2.000000,2.000000,2.000000,2.000000,2.000000,2.000000,2.000000,2.000000,50.000000
1613959267.431696,98.000000,0.000000,2.250610,-5.608687,6.983772,17.365807,1.411370,14.830009,11.039077,9.451887,2.011974,3.345584,6.607115,9.359430,12.136670,9.985220,35.430786,27.431316,29.468636,32.125008,30.124870,47.199757,27.711231,26.717165,6.765067,15.116884,4.470429,-0.247899,2.050243,2.536084,14.089895,-10.550362,10.184503,6.213884,8064.000000,0.000000,4.000000,,,,0.000000,2.000000,2.000000,2.000000,2.000000,2.000000,2.000000,2.000000,2.000000,2.000000,2.000000,2.000000,2.000000,2.000000,2.000000,2.000000,2.000000,2.000000,2.000000,2.000000,2.000000,2.000000,2.000000,2.000000,2.000000,2.000000,2.000000,2.000000,2.000000,2.000000,2.000000,2.000000,2.000000,50.000000
1613959267.439346,99.000000,0.000000,2.761180,-3.038976,5.951147,9.656134,1.409958,14.815178,11.028037,9.442435,2.009962,12.573008,7.626149,9.350071,12.124534,9.975235,34.369713,28.429525,30.977629,32.605701,23.940901,45.101276,25.119417,24.639166,6.758302,12.537665,3.953138,-2.811754,1.022552,2.533548,14.075806,-11.565453,10.174318,7.233311,8064.000000,0.000000,4.000000,,,,0.000000,2.000000,2.000000,2.000000,2.000000,2.000000,2.000000,2.000000,2.000000,2.000000,2.000000,2.000000,2.000000,2.000000,2.000000,2.000000,2.000000,2.000000,2.000000,2.000000,2.000000,2.000000,2.000000,2.000000,2.000000,2.000000,2.000000,2.000000,2.000000,2.000000,2.000000,2.000000,2.000000,50.000000
1613959267.447095,100.000000,0.000000,1.219957,-3.035937,6.458016,14.774683,8.588036,14.800363,11.017010,9.432993,2.007952,14.098896,5.054420,9.340721,12.112409,10.990901,30.232780,26.349815,28.895369,24.880789,21.352858,43.517715,25.607119,22.050425,7.264364,14.063589,-4.768764,-3.321763,-0.004112,-4.135653,14.061729,-8.989784,10.164144,7.226078,8064.000000,0.000000,4.000000,,,,0.000000,2.000000,2.000000,2.000000,2.000000,2.000000,2.000000,2.000000,2.000000,2.000000,2.000000,2.000000,2.000000,2.000000,2.000000,2.000000,2.000000,2.000000,2.000000,2.000000,2.000000,2.000000,2.000000,2.000000,2.000000,2.000000,2.000000,2.000000,2.000000,2.000000,2.000000,2.000000,2.000000,50.000000
1613959267.454744,101.000000,0.000000,-0.832545,-4.058542,6.451558,15.272729,8.066628,14.785563,11.005992,9.423560,2.005944,12.546335,0.433981,9.331380,12.613117,10.467090,27.638445,24.272182,27.328012,17.163601,21.844324,43.987015,25.581511,22.541195,5.718638,9.946961,-13.994764,-2.805621,-2.568210,-9.259722,14.047668,-12.570538,10.153979,4.141929,8064.000000,0.000000,4.000000,,,,0.000000,2.000000,2.000000,2.000000,2.000000,2.000000,2.000000,2.000000,2.000000,2.000000,2.000000,2.000000,2.000000,2.000000,2.000000,2.000000,2.000000,2.000000,2.000000,2.000000,2.000000,2.000000,2.000000,2.000000,2.000000,2.000000,2.000000,2.000000,2.000000,2.000000,2.000000,2.000000,2.000000,50.000000
1613959267.462493,102.000000,0.000000,-1.344533,-2.516022,6.445107,4.488225,6.520099,14.770777,10.994987,9.414137,2.003938,13.559430,-1.104915,9.322049,12.087684,9.430982,27.610807,24.247911,28.326324,19.197720,22.848122,44.455849,25.555929,23.031475,3.661637,6.347271,-9.878205,-3.315635,-2.565642,-3.609437,14.033621,-13.070788,10.656646,3.112146,8064.000000,0.000000,4.000000,,,,0.000000,2.000000,2.000000,2.000000,2.000000,2.000000,2.000000,2.000000,2.000000,2.000000,2.000000,2.000000,2.000000,2.000000,2.000000,2.000000,2.000000,2.000000,2.000000,2.000000,2.000000,2.000000,2.000000,2.000000,2.000000,2.000000,2.000000,2.000000,2.000000,2.000000,2.000000,2.000000,2.000000,50.000000
1613959267.470142,103.000000,0.000000,-1.856009,-3.539147,5.413021,0.381173,8.052040,14.756006,10.983992,9.404722,1.489114,13.545871,-0.590989,9.312727,12.075596,15.062576,30.147299,27.300587,27.785179,21.229803,21.799631,42.872932,25.017553,21.469982,2.632334,8.905026,-4.227302,-3.312320,-2.050256,-3.605827,14.019587,-6.903871,10.133169,3.621854,8064.000000,0.000000,4.000000,,,,0.000000,2.000000,2.000000,2.000000,2.000000,2.000000,2.000000,2.000000,2.000000,2.000000,2.000000,2.000000,2.000000,2.000000,2.000000,2.000000,2.000000,2.000000,2.000000,2.000000,2.000000,2.000000,2.000000,2.000000,2.000000,2.000000,2.000000,2.000000,2.000000,2.000000,2.000000,2.000000,2.000000,50.000000
1613959267.477891,104.000000,0.000000,-0.828512,-3.535608,8.997351,5.508997,7.531168,14.741250,10.973007,9.395318,2.513266,13.532325,-0.590398,9.303414,14.627623,22.227001,33.194073,31.375849,27.244574,20.695753,21.777832,44.368523,28.069458,23.499794,3.142523,9.921762,-2.684613,-0.744905,-2.561026,-8.730427,14.005568,-4.332865,10.635856,3.618232,8064.000000,0.000000,4.000000,,,,0.000000,2.000000,2.000000,2.000000,2.000000,2.000000,2.000000,2.000000,2.000000,2.000000,2.000000,2.000000,2.000000,2.000000,2.000000,2.000000,2.000000,2.000000,2.000000,2.000000,2.000000,2.000000,2.000000,2.000000,2.000000,2.000000,2.000000,2.000000,2.000000,2.000000,2.000000,2.000000,2.000000,50.000000
1613959267.485540,105.000000,0.000000,3.787701,1.596133,18.731943,7.041949,8.036457,14.726509,10.962034,9.385922,4.562035,13.518793,-1.102628,9.294110,16.151457,20.153492,34.699341,32.370113,30.294250,25.803263,28.422722,48.939537,34.708057,28.604498,2.626560,9.399020,3.984739,2.332763,2.569740,-1.029388,14.504382,-4.841352,15.240605,3.614614,8064.000000,0.000000,4.000000,,,,0.000000,2.000000,2.000000,2.000000,2.000000,2.000000,2.000000,2.000000,2.000000,2.000000,2.000000,2.000000,2.000000,2.000000,2.000000,2.000000,2.000000,2.000000,2.000000,2.000000,2.000000,2.000000,2.000000,2.000000,2.000000,2.000000,2.000000,2.000000,2.000000,2.000000,2.000000,2.000000,2.000000,50.000000
1613959267.493290,106.000000,0.000000,6.860837,8.261204,22.815775,6.009266,11.105344,14.711782,11.463893,9.376536,6.095934,11.453992,-0.588705,9.284817,13.058382,14.492312,31.587719,28.235180,30.263956,27.315922,32.496864,49.916241,38.263092,29.088715,3.136754,13.492185,8.083318,4.381712,9.233837,10.766513,16.541161,-2.785229,18.302288,3.610999,8064.000000,0.000000,4.000000,,,,0.000000,2.000000,2.000000,2.000000,2.000000,2.000000,2.000000,2.000000,2.000000,2.000000,2.000000,2.000000,2.000000,2.000000,2.000000,2.000000,2.000000,2.000000,2.000000,2.000000,2.000000,2.000000,2.000000,2.000000,2.000000,2.000000,2.000000,2.000000,2.000000,2.000000,2.000000,2.000000,2.000000,50.000000
1613959267.500939,107.000000,0.000000,6.341155,8.765763,19.716036,6.516078,10.581418,14.697071,10.426787,9.367160,5.577018,8.878435,-0.588116,9.275532,8.942760,13.964999,27.966389,22.053099,25.618309,16.519375,24.772058,47.302219,37.712009,26.495523,3.133617,18.094078,4.998312,4.377331,6.147680,9.730105,18.575901,-1.243982,18.283985,3.607388,8064.000000,0.000000,4.000000,,,,0.000000,2.000000,2.000000,2.000000,2.000000,2.000000,2.000000,2.000000,2.000000,2.000000,2.000000,2.000000,2.000000,2.000000,2.000000,2.000000,2.000000,2.000000,2.000000,2.000000,2.000000,2.000000,2.000000,2.000000,2.000000,2.000000,2.000000,2.000000,2.000000,2.000000,2.000000,2.000000,2.000000,50.000000
1613959267.508588,108.000000,0.000000,5.821994,6.192894,17.645039,6.509562,8.006734,14.682374,7.852259,9.357793,5.571441,9.382378,-0.587528,9.779077,8.420996,13.438214,27.425602,19.979763,23.028587,8.297727,18.593439,47.254917,37.674297,25.956207,2.104842,17.563164,6.018954,4.372953,1.526148,5.617811,17.531683,-3.806841,17.752880,3.603781,8064.000000,0.000000,4.000000,,,,0.000000,2.000000,2.000000,2.000000,2.000000,2.000000,2.000000,2.000000,2.000000,2.000000,2.000000,2.000000,2.000000,2.000000,2.000000,2.000000,2.000000,2.000000,2.000000,2.000000,2.000000,2.000000,2.000000,2.000000,2.000000,2.000000,2.000000,2.000000,2.000000,2.000000,2.000000,2.000000,2.000000,50.000000
1613959267.516337,109.000000,0.000000,6.328992,5.161061,18.140215,6.503052,6.973086,14.667691,7.331586,9.348435,5.565869,9.372995,-0.586941,7.718016,8.412575,10.347853,27.910995,20.985426,24.544020,9.315070,19.087667,48.233303,36.610981,26.443071,5.179660,16.519958,11.653961,4.368580,1.524622,6.125014,13.411588,-5.341496,17.735128,3.087357,8064.000000,0.000000,4.000000,,,,0.000000,2.000000,2.000000,2.000000,2.000000,2.000000,2.000000,2.000000,2.000000,2.000000,2.000000,2.000000,2.000000,2.000000,2.000000,2.000000,2.000000,2.000000,2.000000,2.000000,2.000000,2.000000,2.000000,2.000000,2.000000,2.000000,2.000000,2.000000,2.000000,2.000000,2.000000,2.000000,2.000000,50.000000
1613959267.523986,110.000000,0.000000,6.322663,4.130259,17.609253,5.983728,6.453292,14.653024,7.324254,9.339087,5.047483,3.722596,-1.099174,5.659015,7.891342,9.824684,26.344624,19.425978,24.006657,9.305756,14.966015,45.620968,37.087189,25.903809,9.789865,19.067541,11.642307,4.364212,2.035918,6.631709,10.321254,-4.823333,18.230213,3.084269,8064.000000,0.000000,4.000000,,,,0.000000,2.000000,2.000000,2.000000,2.000000,2.000000,2.000000,2.000000,2.000000,2.000000,2.000000,2.000000,2.000000,2.000000,2.000000,2.000000,2.000000,2.000000,2.000000,2.000000,2.000000,2.000000,2.000000,2.000000,2.000000,2.000000,2.000000,2.000000,2.000000,2.000000,2.000000,2.000000,2.000000,50.000000
1613959267.531735,111.000000,0.000000,4.265059,4.126128,17.591644,6.490565,6.959660,14.638371,7.316930,8.816927,5.042435,1.667592,-1.098075,5.653357,7.883451,10.327681,27.343920,18.893732,22.957008,7.757988,15.463870,47.113808,34.486000,25.877905,9.780076,20.074114,10.092203,3.847027,1.008241,6.112257,9.798112,-5.844151,17.699162,3.594006,8064.000000,0.000000,4.000000,,,,0.000000,2.000000,2.000000,2.000000,2.000000,2.000000,2.000000,2.000000,2.000000,2.000000,2.000000,2.000000,2.000000,2.000000,2.000000,2.000000,2.000000,2.000000,2.000000,2.000000,2.000000,2.000000,2.000000,2.000000,2.000000,2.000000,2.000000,2.000000,2.000000,2.000000,2.000000,2.000000,2.000000,50.000000
1613959267.539384,112.000000,0.000000,2.209511,4.634823,17.061232,6.484075,7.465521,14.623733,7.309613,9.320930,6.063034,7.306950,-0.071336,5.647703,8.388388,10.317352,31.931961,20.926121,23.446871,9.801512,23.653534,47.579514,19.579720,24.313564,9.770295,16.977118,11.620572,4.356000,0.494412,3.029222,8.762672,-4.812666,14.091720,3.590412,8064.000000,0.000000,4.000000,,,,0.000000,2.000000,2.000000,2.000000,2.000000,2.000000,2.000000,2.000000,2.000000,2.000000,2.000000,2.000000,2.000000,2.000000,2.000000,2.000000,2.000000,2.000000,2.000000,2.000000,2.000000,2.000000,2.000000,2.000000,2.000000,2.000000,2.000000,2.000000,2.000000,2.000000,2.000000,2.000000,2.000000,50.000000
1613959267.547133,113.000000,0.000000,1.694481,3.091726,18.069811,5.964770,5.919594,14.609109,6.789483,10.850071,5.544150,10.376566,-1.096906,5.642056,7.867179,10.307035,28.823105,18.341091,24.449066,8.253249,15.937572,38.301167,4.688344,19.673866,12.837448,16.447319,6.993567,4.351645,2.032379,-3.127654,6.189807,-4.807853,9.975063,3.074001,8064.000000,0.000000,4.000000,,,,0.000000,2.000000,2.000000,2.000000,2.000000,2.000000,2.000000,2.000000,2.000000,2.000000,2.000000,2.000000,2.000000,2.000000,2.000000,2.000000,2.000000,2.000000,2.000000,2.000000,2.000000,2.000000,2.000000,2.000000,2.000000,2.000000,2.000000,2.000000,2.000000,2.000000,2.000000,2.000000,2.000000,50.000000
1613959267.554783,114.000000,0.000000,1.692787,0.524532,19.077383,7.497267,9.503418,14.594500,4.731411,7.249477,4.000144,8.314907,-1.608629,5.636413,7.859312,10.296728,22.640436,15.245827,22.373335,8.757816,5.665225,36.211582,7.760580,16.577271,13.337431,17.969334,2.884010,3.321652,1.004706,-6.714270,6.183618,-6.854327,10.477909,9.737594,8064.000000,0.000000,4.000000,,,,0.000000,2.000000,2.000000,2.000000,2.000000,2.000000,2.000000,2.000000,2.000000,2.000000,2.000000,2.000000,2.000000,2.000000,2.000000,2.000000,2.000000,2.000000,2.000000,2.000000,2.000000,2.000000,2.000000,2.000000,2.000000,2.000000,2.000000,2.000000,2.000000,2.000000,2.000000,2.000000,2.000000,50.000000
1613959267.562532,115.000000,0.000000,1.691094,0.011187,19.571127,11.079514,25.904171,16.118366,3.188218,3.652484,10.149991,13.434797,6.085287,5.117956,10.928375,9.260790,29.797283,25.486992,23.376602,26.184956,23.095457,52.072807,27.239998,19.124796,13.836914,13.848801,11.599074,4.856791,-0.021940,-4.656273,6.177434,-1.719268,13.544354,19.984266,8064.000000,0.000000,4.000000,,,,0.000000,2.000000,2.000000,2.000000,2.000000,2.000000,2.000000,2.000000,2.000000,2.000000,2.000000,2.000000,2.000000,2.000000,2.000000,2.000000,2.000000,2.000000,2.000000,2.000000,2.000000,2.000000,2.000000,2.000000,2.000000,2.000000,2.000000,2.000000,2.000000,2.000000,2.000000,2.000000,2.000000,50.000000
1613959267.570181,116.000000,0.000000,4.766326,0.523996,24.166939,13.632536,39.724419,18.153530,3.697851,10.828320,17.832148,22.139311,13.771509,5.112838,15.020011,9.764350,43.613640,43.410221,34.635277,48.722874,46.662106,66.379707,44.648655,28.336439,23.053846,18.450336,24.920809,8.954499,9.208851,-0.549053,8.735359,10.590143,14.043631,20.989923,8064.000000,0.000000,4.000000,,,,0.000000,2.000000,2.000000,2.000000,2.000000,2.000000,2.000000,2.000000,2.000000,2.000000,2.000000,2.000000,2.000000,2.000000,2.000000,2.000000,2.000000,2.000000,2.000000,2.000000,2.000000,2.000000,2.000000,2.000000,2.000000,2.000000,2.000000,2.000000,2.000000,2.000000,2.000000,2.000000,2.000000,50.000000
1613959267.577930,117.000000,0.000000,6.300021,0.010652,23.117132,13.618904,33.530849,17.622557,3.694153,11.843132,10.634830,16.988968,10.167994,6.133367,16.030632,10.780227,47.672588,46.956554,42.805771,48.674152,47.641083,63.749226,49.219391,34.974770,28.671818,38.944706,26.947170,12.535288,19.456053,2.015599,11.290726,13.143656,14.029587,14.302266,8064.000000,0.000000,4.000000,,,,0.000000,2.000000,2.000000,2.000000,2.000000,2.000000,2.000000,2.000000,2.000000,2.000000,2.000000,2.000000,2.000000,2.000000,2.000000,2.000000,2.000000,2.000000,2.000000,2.000000,2.000000,2.000000,2.000000,2.000000,2.000000,2.000000,2.000000,2.000000,2.000000,2.000000,2.000000,2.000000,2.000000,50.000000
1613959267.585579,118.000000,0.000000,4.755260,0.523462,12.324783,13.605285,19.138344,14.528010,3.177638,-2.014865,2.419066,5.177106,7.080903,5.101592,14.988960,8.718164,44.035175,44.345497,40.198860,38.881886,43.490879,60.608555,46.093250,32.888512,24.027761,45.572430,23.843300,11.497112,16.872494,2.013583,8.715333,5.951025,14.015557,9.159759,8064.000000,0.000000,4.000000,,,,0.000000,2.000000,2.000000,2.000000,2.000000,2.000000,2.000000,2.000000,2.000000,2.000000,2.000000,2.000000,2.000000,2.000000,2.000000,2.000000,2.000000,2.000000,2.000000,2.000000,2.000000,2.000000,2.000000,2.000000,2.000000,2.000000,2.000000,2.000000,2.000000,2.000000,2.000000,2.000000,2.000000,50.000000
1613959267.593328,119.000000,0.000000,6.801786,3.087041,13.850921,13.591680,19.632027,12.975021,3.687281,-2.525671,11.647416,10.300135,13.227669,6.122132,17.538074,10.760728,46.555241,54.044743,39.645844,48.073772,49.088413,66.188972,53.226643,33.368446,27.080658,32.193523,28.947662,9.947153,17.881262,2.011569,6.142515,7.483536,13.488721,10.689060,8064.000000,0.000000,4.000000,,,,0.000000,2.000000,2.000000,2.000000,2.000000,2.000000,2.000000,2.000000,2.000000,2.000000,2.000000,2.000000,2.000000,2.000000,2.000000,2.000000,2.000000,2.000000,2.000000,2.000000,2.000000,2.000000,2.000000,2.000000,2.000000,2.000000,2.000000,2.000000,2.000000,2.000000,2.000000,2.000000,2.000000,50.000000
1613959267.600977,120.000000,0.000000,13.974472,4.622416,28.196043,16.142191,31.407267,18.603071,3.683594,17.476854,23.943460,25.161629,18.855467,16.372419,27.264126,22.544840,56.765095,70.913773,46.272861,64.948776,56.731632,71.763809,71.122131,46.668411,40.899731,35.751072,40.713585,16.091053,30.683893,2.522378,13.315860,20.809385,17.064976,16.832218,8192.000000,0.000000,4.000000,,,,0.000000,2.000000,2.000000,2.000000,2.000000,2.000000,2.000000,2.000000,2.000000,2.000000,2.000000,2.000000,2.000000,2.000000,2.000000,2.000000,2.000000,2.000000,2.000000,2.000000,2.000000,2.000000,2.000000,2.000000,2.000000,2.000000,2.000000,2.000000,2.000000,2.000000,2.000000,2.000000,2.000000,50.000000
1613959267.608727,121.000000,0.000000,17.037420,4.104972,30.731951,19.715792,31.375858,27.815237,3.679910,24.126045,24.432339,28.213390,18.323790,24.048355,34.416348,33.291527,60.298077,73.406960,47.252232,61.806904,55.136440,74.256149,70.538193,53.288406,41.884472,53.664040,43.749794,25.305731,31.678850,2.007035,20.994852,24.891140,21.663296,21.943590,8064.000000,0.000000,4.000000,,,,0.000000,2.000000,2.000000,2.000000,2.000000,2.000000,2.000000,2.000000,2.000000,2.000000,2.000000,2.000000,2.000000,2.000000,2.000000,2.000000,2.000000,2.000000,2.000000,2.000000,2.000000,2.000000,2.000000,2.000000,2.000000,2.000000,2.000000,2.000000,2.000000,2.000000,2.000000,2.000000,2.000000,50.000000
1613959267.616376,122.000000,0.000000,12.404999,4.100867,23.521730,20.208897,22.113714,28.300243,3.676230,14.358329,22.356625,21.518511,13.690083,18.896101,29.766548,32.232594,47.930084,56.923298,38.999851,44.309200,39.696690,69.566505,46.365089,40.414608,28.509254,48.994991,36.013737,25.280424,20.877941,2.517849,20.461037,14.097018,19.077530,20.383186,8064.000000,0.000000,4.000000,,,,0.000000,2.000000,2.000000,2.000000,2.000000,2.000000,2.000000,2.000000,2.000000,2.000000,2.000000,2.000000,2.000000,2.000000,2.000000,2.000000,2.000000,2.000000,2.000000,2.000000,2.000000,2.000000,2.000000,2.000000,2.000000,2.000000,2.000000,2.000000,2.000000,2.000000,2.000000,2.000000,2.000000,50.000000
1613959267.624125,123.000000,0.000000,8.802850,4.096766,23.498209,17.624584,22.091600,24.682199,3.672554,11.267048,23.872728,19.445709,8.035366,12.210539,21.018833,28.610617,33.523178,40.968941,31.268543,35.034122,20.169811,57.702068,30.421289,23.963936,22.326899,30.484457,29.311058,19.614119,17.780140,0.976870,17.363651,5.364973,13.930247,17.285879,8064.000000,0.000000,4.000000,,,,0.000000,2.000000,2.000000,2.000000,2.000000,2.000000,2.000000,2.000000,2.000000,2.000000,2.000000,2.000000,2.000000,2.000000,2.000000,2.000000,2.000000,2.000000,2.000000,2.000000,2.000000,2.000000,2.000000,2.000000,2.000000,2.000000,2.000000,2.000000,2.000000,2.000000,2.000000,2.000000,2.000000,50.000000
1613959267.631774,124.000000,0.000000,9.306868,4.092670,25.525993,16.581320,26.172073,25.170338,3.668881,14.332704,23.848856,20.451904,6.488870,12.711148,18.433712,28.582006,33.489658,36.825405,30.211634,34.486267,16.047077,48.926418,32.442150,19.837408,25.381495,25.838589,27.743284,18.056044,20.326464,-1.588210,17.346289,5.359608,13.403497,17.781414,8064.000000,0.000000,4.000000,,,,0.000000,2.000000,2.000000,2.000000,2.000000,2.000000,2.000000,2.000000,2.000000,2.000000,2.000000,2.000000,2.000000,2.000000,2.000000,2.000000,2.000000,2.000000,2.000000,2.000000,2.000000,2.000000,2.000000,2.000000,2.000000,2.000000,2.000000,2.000000,2.000000,2.000000,2.000000,2.000000,2.000000,50.000000
1613959267.639523,125.000000,0.000000,9.810381,4.088577,24.474827,17.077559,24.607439,25.657988,3.665213,12.779909,23.312187,19.918633,6.482380,13.724078,19.440918,28.553425,40.122833,39.865505,30.694242,33.938961,23.723339,48.877491,31.896887,22.894493,24.330473,27.351212,29.254004,19.576448,19.280495,-2.099442,17.841763,5.867069,14.415734,18.276453,8064.000000,0.000000,4.000000,,,,0.000000,2.000000,2.000000,2.000000,2.000000,2.000000,2.000000,2.000000,2.000000,2.000000,2.000000,2.000000,2.000000,2.000000,2.000000,2.000000,2.000000,2.000000,2.000000,2.000000,2.000000,2.000000,2.000000,2.000000,2.000000,2.000000,2.000000,2.000000,2.000000,2.000000,2.000000,2.000000,2.000000,50.000000
1613959267.647172,126.000000,0.000000,8.774930,4.084488,23.937531,17.060482,26.634113,25.119509,3.661547,13.279950,23.288874,19.385893,5.450257,12.171893,18.908657,28.012051,41.108353,40.338459,30.150728,32.879379,27.802179,49.854256,29.813707,26.461342,22.767681,27.323860,33.327312,18.531231,18.235575,-1.584522,17.311100,8.425304,13.888497,17.745356,8064.000000,0.000000,4.000000,,,,0.000000,2.000000,2.000000,2.000000,2.000000,2.000000,2.000000,2.000000,2.000000,2.000000,2.000000,2.000000,2.000000,2.000000,2.000000,2.000000,2.000000,2.000000,2.000000,2.000000,2.000000,2.000000,2.000000,2.000000,2.000000,2.000000,2.000000,2.000000,2.000000,2.000000,2.000000,2.000000,2.000000,50.000000
1613959267.654921,127.000000,0.000000,9.278975,4.080404,24.426414,16.530600,31.735685,25.094389,3.657886,16.343594,23.265585,19.366508,9.034551,11.646900,18.376928,27.984037,40.041603,39.272480,30.120577,33.872143,27.774378,48.265938,37.476200,28.486164,27.873117,36.527306,36.370907,17.999880,19.242979,-1.582938,16.780968,12.519443,13.361789,17.727610,8064.000000,0.000000,4.000000,,,,0.000000,2.000000,2.000000,2.000000,2.000000,2.000000,2.000000,2.000000,2.000000,2.000000,2.000000,2.000000,2.000000,2.000000,2.000000,2.000000,2.000000,2.000000,2.000000,2.000000,2.000000,2.000000,2.000000,2.000000,2.000000,2.000000,2.000000,2.000000,2.000000,2.000000,2.000000,2.000000,2.000000,50.000000
1613959267.662571,0.000000,0.000000,9.269696,4.076324,24.401987,17.026890,30.678308,24.556475,3.654228,14.275968,23.242319,19.859962,9.025516,12.660894,18.358551,27.443233,40.514381,40.771667,29.577637,33.325451,28.259422,48.217674,46.156673,28.457678,30.409348,47.260010,34.283257,18.494699,18.710917,-1.581355,17.277008,13.019744,13.861247,17.709883,0.000000,90.000000,4.000000,,,,0.000000,2.000000,2.000000,2.000000,2.000000,2.000000,2.000000,2.000000,2.000000,2.000000,2.000000,2.000000,2.000000,2.000000,2.000000,2.000000,2.000000,2.000000,2.000000,2.000000,2.000000,2.000000,2.000000,2.000000,2.000000,2.000000,2.000000,2.000000,2.000000,2.000000,2.000000,2.000000,2.000000,50.000000
1613959267.670320,1.000000,0.000000,8.747606,4.072248,24.377586,17.009863,25.519424,22.480637,3.650574,12.210409,23.219078,19.327282,0.298542,12.648233,18.340193,25.364508,39.961048,39.705257,29.548058,34.317764,29.256805,48.682274,46.110519,28.429220,25.250732,43.110184,31.684870,16.424923,18.692205,-1.579773,17.259731,12.493904,13.847386,17.692173,0.000000,86.000000,4.000000,,,,0.000000,2.000000,2.000000,2.000000,2.000000,2.000000,2.000000,2.000000,2.000000,2.000000,2.000000,2.000000,2.000000,2.000000,2.000000,2.000000,2.000000,2.000000,2.000000,2.000000,2.000000,2.000000,2.000000,2.000000,2.000000,2.000000,2.000000,2.000000,2.000000,2.000000,2.000000,2.000000,2.000000,50.000000
1613959267.677969,2.000000,0.000000,9.251679,4.068175,24.353209,16.992853,24.468264,20.919695,3.646923,12.711020,23.195858,19.307955,1.836705,12.122765,18.834673,23.800682,40.946728,41.716831,30.544151,41.462936,30.766010,49.146416,47.090050,28.913610,23.687021,34.349125,32.166004,12.305934,19.186333,-1.578194,17.242472,13.507051,13.833539,17.674480,0.000000,84.000000,4.000000,,,,0.000000,2.000000,2.000000,2.000000,2.000000,2.000000,2.000000,2.000000,2.000000,2.000000,2.000000,2.000000,2.000000,2.000000,2.000000,2.000000,2.000000,2.000000,2.000000,2.000000,2.000000,2.000000,2.000000,2.000000,2.000000,2.000000,2.000000,2.000000,2.000000,2.000000,2.000000,2.000000,2.000000,50.000000
1613959267.685718,3.000000,0.000000,8.729607,4.064107,24.328856,16.975861,25.469437,21.411594,3.643276,12.185488,23.172663,19.801466,11.578458,13.136283,17.790197,22.751240,40.905781,52.444347,28.975145,48.088139,31.760885,49.097267,54.222446,28.371876,24.176153,33.801956,32.133839,9.216705,18.141506,-1.576615,17.225229,12.980723,13.819705,17.656807,0.000000,109.000000,4.000000,,,,0.000000,2.000000,2.000000,2.000000,2.000000,2.000000,2.000000,2.000000,2.000000,2.000000,2.000000,2.000000,2.000000,2.000000,2.000000,2.000000,2.000000,2.000000,2.000000,2.000000,2.000000,2.000000,2.000000,2.000000,2.000000,2.000000,2.000000,2.000000,2.000000,2.000000,2.000000,2.000000,2.000000,50.000000
1613959267.693367,4.000000,0.000000,9.233698,4.060043,24.304525,16.958885,24.931147,21.390182,3.639633,12.686123,23.149490,18.756023,11.566879,17.738531,18.285227,25.292591,40.352055,60.597031,30.484632,49.578510,32.241943,53.150734,54.168224,31.420427,23.126337,34.793797,32.101707,11.771591,19.661825,-1.575039,17.208004,12.967743,13.293065,17.639149,0.000000,126.000000,4.000000,,,,0.000000,2.000000,2.000000,2.000000,2.000000,2.000000,2.000000,2.000000,2.000000,2.000000,2.000000,2.000000,2.000000,2.000000,2.000000,2.000000,2.000000,2.000000,2.000000,2.000000,2.000000,2.000000,2.000000,2.000000,2.000000,2.000000,2.000000,2.000000,2.000000,2.000000,2.000000,2.000000,2.000000,50.000000
1613959267.701116,5.000000,0.000000,12.301387,4.568803,24.280222,16.941925,24.393394,21.368793,3.635993,19.340103,23.126341,20.788549,14.632236,20.797716,23.395147,33.985249,45.952728,58.997971,41.223377,51.580215,32.209702,67.456558,54.114056,40.619778,28.744236,33.220539,32.582424,18.426485,25.796011,-1.573464,17.190796,15.518877,13.792593,17.621510,0.000000,98.000000,4.000000,,,,0.000000,2.000000,2.000000,2.000000,2.000000,2.000000,2.000000,2.000000,2.000000,2.000000,2.000000,2.000000,2.000000,2.000000,2.000000,2.000000,2.000000,2.000000,2.000000,2.000000,2.000000,2.000000,2.000000,2.000000,2.000000,2.000000,2.000000,2.000000,2.000000,2.000000,2.000000,2.000000,2.000000,50.000000
1613959267.708765,6.000000,0.000000,16.391649,4.564234,24.255941,16.924984,24.881823,21.347424,3.632357,24.448969,23.103214,27.434427,26.925295,19.751278,30.551239,43.182034,62.829853,62.015896,51.951385,56.144020,34.741596,83.286537,62.265068,47.245823,37.946262,37.802704,32.549843,22.510624,30.385599,-1.571890,17.173605,20.118744,16.342903,17.603889,0.000000,88.000000,4.000000,,,,0.000000,2.000000,2.000000,2.000000,2.000000,2.000000,2.000000,2.000000,2.000000,2.000000,2.000000,2.000000,2.000000,2.000000,2.000000,2.000000,2.000000,2.000000,2.000000,2.000000,2.000000,2.000000,2.000000,2.000000,2.000000,2.000000,2.000000,2.000000,2.000000,2.000000,2.000000,2.000000,2.000000,50.000000
1613959267.716514,7.000000,0.000000,16.888079,3.534029,24.231686,17.420879,24.856941,21.326077,3.628725,23.911699,23.080111,31.509558,24.334269,20.244347,34.623253,46.215775,71.997787,67.082085,52.925076,56.087875,48.553009,86.792992,61.177162,47.198578,34.831390,46.995670,30.466011,21.975292,29.329573,-2.083139,17.156431,21.124266,17.865021,17.586285,0.000000,91.000000,4.000000,,,,0.000000,2.000000,2.000000,2.000000,2.000000,2.000000,2.000000,2.000000,2.000000,2.000000,2.000000,2.000000,2.000000,2.000000,2.000000,2.000000,2.000000,2.000000,2.000000,2.000000,2.000000,2.000000,2.000000,2.000000,2.000000,2.000000,2.000000,2.000000,2.000000,2.000000,2.000000,2.000000,2.000000,50.000000
1613959267.724164,8.000000,0.000000,16.358370,4.556136,24.207453,15.864997,24.832085,21.817572,3.625096,24.400608,23.057032,30.452408,18.156088,23.301025,36.639912,45.656738,61.156563,57.271416,50.820869,51.416405,65.940353,83.629280,44.705730,46.125736,26.591433,46.435856,31.974007,21.440496,29.300243,-1.568235,15.087993,17.513397,17.334335,15.517417,0.000000,106.000000,4.000000,,,,0.000000,2.000000,2.000000,2.000000,2.000000,2.000000,2.000000,2.000000,2.000000,2.000000,2.000000,2.000000,2.000000,2.000000,2.000000,2.000000,2.000000,2.000000,2.000000,2.000000,2.000000,2.000000,2.000000,2.000000,2.000000,2.000000,2.000000,2.000000,2.000000,2.000000,2.000000,2.000000,2.000000,50.000000
1613959267.731913,9.000000,0.000000,14.803550,4.551580,24.183247,11.746568,25.320072,20.257292,4.134292,22.324924,23.033974,30.421955,21.214855,22.764904,36.090450,46.636723,47.249252,39.778244,52.821331,46.236782,59.207745,83.032829,36.968716,47.105255,27.590483,40.748394,32.454853,22.444696,31.322224,-1.566667,13.534443,13.393320,17.317001,13.450617,0.000000,93.000000,4.000000,,,,0.000000,2.000000,2.000000,2.000000,2.000000,2.000000,2.000000,2.000000,2.000000,2.000000,2.000000,2.000000,2.000000,2.000000,2.000000,2.000000,2.000000,2.000000,2.000000,2.000000,2.000000,2.000000,2.000000,2.000000,2.000000,2.000000,2.000000,2.000000,2.000000,2.000000,2.000000,2.000000,2.000000,50.000000
1613959267.739562,10.000000,0.000000,10.686183,0.444464,24.159063,9.683539,23.756290,17.672932,3.617337,13.071831,22.498119,30.904354,15.039793,19.665216,33.490257,45.564442,42.586617,33.071800,49.178764,41.062340,35.045975,79.872871,36.931747,46.032509,25.511610,41.220467,21.653166,21.909431,26.162697,-2.590741,13.008088,12.354285,17.299685,13.437166,0.000000,131.000000,4.000000,,,,0.000000,2.000000,2.000000,2.000000,2.000000,2.000000,2.000000,2.000000,2.000000,2.000000,2.000000,2.000000,2.000000,2.000000,2.000000,2.000000,2.000000,2.000000,2.000000,2.000000,2.000000,2.000000,2.000000,2.000000,2.000000,2.000000,2.000000,2.000000,2.000000,2.000000,2.000000,2.000000,2.000000,50.000000
1613959267.747311,11.000000,0.000000,8.624214,-3.658544,22.596443,9.673856,21.168432,17.655260,3.613719,7.417734,23.501263,30.360628,7.845266,19.132730,32.431126,41.416313,43.056850,44.320782,46.052662,46.149483,33.985287,76.716080,39.458920,46.499294,19.332251,40.666424,18.041769,21.887522,21.008329,-0.536869,12.995080,12.341931,17.282385,13.423730,0.000000,118.000000,4.000000,,,,0.000000,2.000000,2.000000,2.000000,2.000000,2.000000,2.000000,2.000000,2.000000,2.000000,2.000000,2.000000,2.000000,2.000000,2.000000,2.000000,2.000000,2.000000,2.000000,2.000000,2.000000,2.000000,2.000000,2.000000,2.000000,2.000000,2.000000,2.000000,2.000000,2.000000,2.000000,2.000000,2.000000,50.000000
1613959267.754960,12.000000,0.000000,11.179692,-2.116424,20.522564,9.664182,20.634443,17.637604,4.122926,8.435957,22.964941,31.355909,16.555370,19.626417,33.424335,41.887718,51.731743,67.866203,54.724560,66.103333,56.515404,83.818848,56.855354,51.068180,25.979586,39.600117,34.946804,23.916918,30.218090,6.643156,15.546187,15.406512,17.265102,14.435946,0.000000,80.000000,4.000000,,,,0.000000,2.000000,2.000000,2.000000,2.000000,2.000000,2.000000,2.000000,2.000000,2.000000,2.000000,2.000000,2.000000,2.000000,2.000000,2.000000,2.000000,2.000000,2.000000,2.000000,2.000000,2.000000,2.000000,2.000000,2.000000,2.000000,2.000000,2.000000,2.000000,2.000000,2.000000,2.000000,2.000000,50.000000
1613959267.762609,13.000000,0.000000,13.219795,0.449795,19.989222,9.654517,21.126629,17.619967,1.041880,8.940342,18.326591,30.298912,18.077276,19.606792,32.878090,46.461216,67.577446,84.721413,65.951889,77.319283,65.689659,91.940155,74.747215,54.094036,37.748478,51.355389,46.706730,25.431461,40.957104,10.226256,19.633205,21.032131,16.735016,18.524075,0.000000,121.000000,4.000000,,,,0.000000,2.000000,2.000000,2.000000,2.000000,2.000000,2.000000,2.000000,2.000000,2.000000,2.000000,2.000000,2.000000,2.000000,2.000000,2.000000,2.000000,2.000000,2.000000,2.000000,2.000000,2.000000,2.000000,2.000000,2.000000,2.000000,2.000000,2.000000,2.000000,2.000000,2.000000,2.000000,2.000000,50.000000
1613959267.770358,14.000000,0.000000,12.180934,0.449345,19.969231,9.644863,20.592682,17.602346,-3.574546,7.905760,15.231341,28.217331,7.289968,21.125647,32.332394,43.337830,75.714996,83.098228,64.347473,65.959908,63.059864,88.771294,72.108368,54.039940,37.197910,63.611725,41.018997,25.406031,38.352043,9.190389,21.664854,23.062382,17.231102,22.095295,0.000000,85.000000,4.000000,,,,0.000000,2.000000,2.000000,2.000000,2.000000,2.000000,2.000000,2.000000,2.000000,2.000000,2.000000,2.000000,2.000000,2.000000,2.000000,2.000000,2.000000,2.000000,2.000000,2.000000,2.000000,2.000000,2.000000,2.000000,2.000000,2.000000,2.000000,2.000000,2.000000,2.000000,2.000000,2.000000,2.000000,50.000000
1613959267.778008,15.000000,0.000000,12.681574,0.448896,19.949263,7.583936,21.084909,16.046282,-4.083792,8.923495,15.216110,27.163473,7.282678,23.155802,32.812881,35.602184,72.049538,75.322823,57.616459,64.868309,69.150650,84.067139,66.908058,53.473080,33.570969,56.881447,37.388233,24.354982,32.159843,9.181198,20.104729,19.449575,17.213871,21.047558,0.000000,72.000000,4.000000,,,,0.000000,2.000000,2.000000,2.000000,2.000000,2.000000,2.000000,2.000000,2.000000,2.000000,2.000000,2.000000,2.000000,2.000000,2.000000,2.000000,2.000000,2.000000,2.000000,2.000000,2.000000,2.000000,2.000000,2.000000,2.000000,2.000000,2.000000,2.000000,2.000000,2.000000,2.000000,2.000000,2.000000,50.000000
1613959267.785757,16.000000,0.000000,15.745815,-0.064374,19.929314,5.525070,20.551004,13.466134,-3.566888,8.914572,13.149611,23.546566,14.454883,23.132647,33.292889,34.028122,70.439026,73.709038,59.610123,79.162415,75.748169,87.059998,71.969353,53.419609,35.588680,52.209183,39.914948,25.869089,33.153328,9.684837,20.597445,20.455767,16.171017,17.949587,0.000000,122.000000,4.000000,,,,0.000000,2.000000,2.000000,2.000000,2.000000,2.000000,2.000000,2.000000,2.000000,2.000000,2.000000,2.000000,2.000000,2.000000,2.000000,2.000000,2.000000,2.000000,2.000000,2.000000,2.000000,2.000000,2.000000,2.000000,2.000000,2.000000,2.000000,2.000000,2.000000,2.000000,2.000000,2.000000,2.000000,50.000000
1613959267.793406,17.000000,0.000000,16.242889,0.961332,19.909384,5.519545,17.966351,14.991129,-4.588962,8.905658,11.085180,16.343533,13.927607,23.109514,29.669851,33.994095,69.855766,74.660973,58.524872,76.519150,75.672417,86.972931,76.512772,53.879009,34.527451,62.926201,39.362213,30.458605,34.145813,9.162333,25.192230,26.076338,18.718948,19.470098,0.000000,117.000000,4.000000,,,,0.000000,2.000000,2.000000,2.000000,2.000000,2.000000,2.000000,2.000000,2.000000,2.000000,2.000000,2.000000,2.000000,2.000000,2.000000,2.000000,2.000000,2.000000,2.000000,2.000000,2.000000,2.000000,2.000000,2.000000,2.000000,2.000000,2.000000,2.000000,2.000000,2.000000,2.000000,2.000000,2.000000,50.000000
1613959267.801155,18.000000,0.000000,16.226646,3.524473,21.940756,6.026846,16.922743,17.540241,0.543832,8.383931,12.099736,14.275907,12.375217,23.086405,26.050438,25.754972,58.503860,67.406822,48.209938,63.109299,71.494179,79.706474,74.897797,53.825130,28.851896,64.914558,38.297211,32.479427,33.086025,9.665991,27.731142,28.101543,23.828434,24.066013,0.000000,98.000000,4.000000,,,,0.000000,2.000000,2.000000,2.000000,2.000000,2.000000,2.000000,2.000000,2.000000,2.000000,2.000000,2.000000,2.000000,2.000000,2.000000,2.000000,2.000000,2.000000,2.000000,2.000000,2.000000,2.000000,2.000000,2.000000,2.000000,2.000000,2.000000,2.000000,2.000000,2.000000,2.000000,2.000000,2.000000,50.000000
1613959267.808804,19.000000,0.000000,17.236061,3.520948,26.021379,5.507999,19.469923,17.522701,7.209955,8.888368,11.574816,17.851374,13.388484,23.063318,24.485926,18.549730,41.009460,44.262493,42.520702,53.302601,56.038074,73.472923,67.130585,47.617458,26.771763,53.054771,38.258915,29.882847,32.540119,8.630683,25.139307,24.483698,23.804605,25.067589,0.000000,123.000000,4.000000,,,,0.000000,2.000000,2.000000,2.000000,2.000000,2.000000,2.000000,2.000000,2.000000,2.000000,2.000000,2.000000,2.000000,2.000000,2.000000,2.000000,2.000000,2.000000,2.000000,2.000000,2.000000,2.000000,2.000000,2.000000,2.000000,2.000000,2.000000,2.000000,2.000000,2.000000,2.000000,2.000000,2.000000,50.000000
1613959267.816553,20.000000,0.000000,13.116261,0.440504,28.046640,6.528132,20.988914,16.992357,6.689924,8.879479,12.076061,19.371984,13.375095,23.040255,24.461441,20.069641,33.788963,18.064386,42.478180,34.274937,38.546139,71.348167,59.883968,41.415997,26.744989,49.411972,38.733475,27.801682,30.456299,6.057950,23.575706,22.920752,22.242340,24.016880,0.000000,130.000000,4.000000,,,,0.000000,2.000000,2.000000,2.000000,2.000000,2.000000,2.000000,2.000000,2.000000,2.000000,2.000000,2.000000,2.000000,2.000000,2.000000,2.000000,2.000000,2.000000,2.000000,2.000000,2.000000,2.000000,2.000000,2.000000,2.000000,2.000000,2.000000,2.000000,2.000000,2.000000,2.000000,2.000000,2.000000,50.000000
1613959267.824202,21.000000,0.000000,9.513401,-0.072757,27.505774,9.598527,20.967926,17.488186,3.606311,7.844959,14.628088,18.326971,14.900182,23.017214,28.026722,23.126495,34.267998,14.456577,42.435703,24.497074,42.610157,76.917847,61.875370,44.451500,26.718245,51.926662,38.694740,29.312342,28.887381,5.026251,24.577772,23.410652,24.271379,24.505684,0.000000,133.000000,4.000000,,,,0.000000,2.000000,2.000000,2.000000,2.000000,2.000000,2.000000,2.000000,2.000000,2.000000,2.000000,2.000000,2.000000,2.000000,2.000000,2.000000,2.000000,2.000000,2.000000,2.000000,2.000000,2.000000,2.000000,2.000000,2.000000,2.000000,2.000000,2.000000,2.000000,2.000000,2.000000,2.000000,2.000000,50.000000
1613959267.831951,22.000000,0.000000,15.144914,0.952957,27.478268,10.101748,20.434137,17.470697,3.602705,10.401217,16.151922,19.334286,16.936563,22.994198,34.152542,23.103369,34.233727,29.826736,51.111217,43.446934,54.875237,85.558876,66.428879,49.535255,30.794090,51.361916,38.656048,29.283030,29.884134,5.534045,23.014732,23.387241,22.195826,24.481178,0.000000,112.000000,4.000000,,,,0.000000,2.000000,2.000000,2.000000,2.000000,2.000000,2.000000,2.000000,2.000000,2.000000,2.000000,2.000000,2.000000,2.000000,2.000000,2.000000,2.000000,2.000000,2.000000,2.000000,2.000000,2.000000,2.000000,2.000000,2.000000,2.000000,2.000000,2.000000,2.000000,2.000000,2.000000,2.000000,2.000000,50.000000
1613959267.839601,23.000000,0.000000,19.745153,-0.586457,27.450788,9.578826,20.926523,17.453226,4.111923,14.493380,15.622949,21.879053,17.432447,22.971203,36.169670,25.131546,45.481544,46.719986,64.393440,57.249641,55.333183,88.550240,66.875267,49.485722,34.865860,51.310555,39.130211,25.664003,28.828609,5.528512,20.427616,23.363853,17.045425,24.456697,0.000000,108.000000,4.000000,,,,0.000000,2.000000,2.000000,2.000000,2.000000,2.000000,2.000000,2.000000,2.000000,2.000000,2.000000,2.000000,2.000000,2.000000,2.000000,2.000000,2.000000,2.000000,2.000000,2.000000,2.000000,2.000000,2.000000,2.000000,2.000000,2.000000,2.000000,2.000000,2.000000,2.000000,2.000000,2.000000,2.000000,50.000000
1613959267.847350,24.000000,0.000000,15.110023,-3.149973,27.423338,10.082068,21.418417,17.435774,3.594990,16.017347,15.607326,23.395636,17.415014,22.948233,38.697605,33.824364,70.051445,70.775833,65.867508,60.269314,60.406055,87.436050,67.321213,48.923412,34.318176,51.772064,38.065441,21.535774,26.235678,5.522983,18.355906,23.340490,17.028379,24.945061,0.000000,127.000000,4.000000,,,,0.000000,2.000000,2.000000,2.000000,2.000000,2.000000,2.000000,2.000000,2.000000,2.000000,2.000000,2.000000,2.000000,2.000000,2.000000,2.000000,2.000000,2.000000,2.000000,2.000000,2.000000,2.000000,2.000000,2.000000,2.000000,2.000000,2.000000,2.000000,2.000000,2.000000,2.000000,2.000000,2.000000,50.000000
1613959267.854999,25.000000,0.000000,11.505170,-3.659644,26.883095,9.046345,20.371359,17.418337,3.591395,17.026972,15.591719,25.936342,16.884779,23.438105,44.812752,44.046951,88.442932,98.397362,67.340103,82.260330,76.755905,89.399895,65.202614,49.900131,31.206934,48.643372,39.053017,21.514238,25.696621,5.517460,15.773447,23.317150,14.447248,21.330372,0.000000,145.000000,4.000000,,,,0.000000,2.000000,2.000000,2.000000,2.000000,2.000000,2.000000,2.000000,2.000000,2.000000,2.000000,2.000000,2.000000,2.000000,2.000000,2.000000,2.000000,2.000000,2.000000,2.000000,2.000000,2.000000,2.000000,2.000000,2.000000,2.000000,2.000000,2.000000,2.000000,2.000000,2.000000,2.000000,2.000000,50.000000
1613959267.862748,26.000000,0.000000,13.032126,-3.143164,26.856211,6.473196,20.350986,17.400919,3.587804,19.574047,15.576127,30.012970,17.380714,23.414667,48.357685,46.567005,87.328850,106.504097,75.990707,97.562683,80.781715,89.310493,58.470741,50.875874,30.662907,48.081905,40.039604,21.492725,24.645285,5.511942,13.193571,23.806654,10.330236,20.796221,0.000000,127.000000,4.000000,,,,0.000000,2.000000,2.000000,2.000000,2.000000,2.000000,2.000000,2.000000,2.000000,2.000000,2.000000,2.000000,2.000000,2.000000,2.000000,2.000000,2.000000,2.000000,2.000000,2.000000,2.000000,2.000000,2.000000,2.000000,2.000000,2.000000,2.000000,2.000000,2.000000,2.000000,2.000000,2.000000,2.000000,50.000000
1613959267.870397,27.000000,0.000000,13.019094,-3.140021,28.367817,5.441082,22.381918,17.383518,3.584216,20.580114,15.560551,31.521420,17.876156,22.878431,48.822147,43.956337,80.062035,97.679642,76.427536,82.593323,71.470161,85.631439,55.335346,49.799355,31.657885,49.059464,34.871361,17.881489,22.056536,5.506431,12.667558,22.757206,14.422471,23.852348,0.000000,132.000000,4.000000,,,,0.000000,2.000000,2.000000,2.000000,2.000000,2.000000,2.000000,2.000000,2.000000,2.000000,2.000000,2.000000,2.000000,2.000000,2.000000,2.000000,2.000000,2.000000,2.000000,2.000000,2.000000,2.000000,2.000000,2.000000,2.000000,2.000000,2.000000,2.000000,2.000000,2.000000,2.000000,2.000000,2.000000,50.000000
1613959267.878146,28.000000,0.000000,11.980434,-3.649701,26.800987,5.948462,19.282614,17.366135,3.580632,19.533892,15.544991,27.900154,14.781356,23.368374,47.747684,44.425201,79.469154,93.992218,71.735725,71.228683,67.296127,86.571449,56.305653,49.236736,31.113405,39.779636,27.657000,17.350786,21.521660,5.500924,13.167710,20.170345,21.074715,21.777214,0.000000,132.000000,4.000000,,,,0.000000,2.000000,2.000000,2.000000,2.000000,2.000000,2.000000,2.000000,2.000000,2.000000,2.000000,2.000000,2.000000,2.000000,2.000000,2.000000,2.000000,2.000000,2.000000,2.000000,2.000000,2.000000,2.000000,2.000000,2.000000,2.000000,2.000000,2.000000,2.000000,2.000000,2.000000,2.000000,2.000000,50.000000
1613959267.885795,29.000000,0.000000,12.994095,-3.133231,23.697264,5.942513,14.135125,17.348768,3.577051,20.027180,16.555086,26.846613,10.664010,23.345005,40.007629,43.355133,73.235840,88.770020,68.074249,69.106171,63.639088,79.818214,52.146786,51.238781,24.415627,29.483446,28.654984,18.359076,20.987316,6.008244,13.154543,20.150175,21.053640,22.268257,0.000000,131.000000,4.000000,,,,0.000000,2.000000,2.000000,2.000000,2.000000,2.000000,2.000000,2.000000,2.000000,2.000000,2.000000,2.000000,2.000000,2.000000,2.000000,2.000000,2.000000,2.000000,2.000000,2.000000,2.000000,2.000000,2.000000,2.000000,2.000000,2.000000,2.000000,2.000000,2.000000,2.000000,2.000000,2.000000,2.000000,50.000000
1613959267.893544,30.000000,0.000000,11.442639,-2.617277,29.314592,5.423750,18.736374,17.331419,4.086295,21.545614,16.538530,28.871048,10.653346,18.193455,24.070185,33.055370,49.060040,65.091507,51.595917,53.139629,48.703655,57.174290,44.915150,45.546516,16.186081,28.941143,25.549406,15.263794,17.889406,4.976594,13.141388,20.130026,20.006945,31.989578,0.000000,143.000000,4.000000,,,,0.000000,2.000000,2.000000,2.000000,2.000000,2.000000,2.000000,2.000000,2.000000,2.000000,2.000000,2.000000,2.000000,2.000000,2.000000,2.000000,2.000000,2.000000,2.000000,2.000000,2.000000,2.000000,2.000000,2.000000,2.000000,2.000000,2.000000,2.000000,2.000000,2.000000,2.000000,2.000000,2.000000,50.000000
1613959267.901194,31.000000,0.000000,6.815812,-3.640301,34.926304,5.931147,23.333023,17.314089,3.569388,17.421503,13.957891,22.688332,7.565770,12.534236,10.712781,22.765903,21.318670,32.718723,28.980217,34.624950,35.834438,40.706860,38.203568,31.141996,11.041691,26.860920,15.780267,10.633146,15.307414,2.407515,13.128246,13.956049,21.012579,35.034512,0.000000,103.000000,4.000000,,,,0.000000,2.000000,2.000000,2.000000,2.000000,2.000000,2.000000,2.000000,2.000000,2.000000,2.000000,2.000000,2.000000,2.000000,2.000000,2.000000,2.000000,2.000000,2.000000,2.000000,2.000000,2.000000,2.000000,2.000000,2.000000,2.000000,2.000000,2.000000,2.000000,2.000000,2.000000,2.000000,2.000000,50.000000
1613959267.908943,32.000000,0.000000,4.244894,-2.611020,26.686249,5.925215,15.617382,17.296774,3.565819,10.737415,13.431111,9.845130,1.404358,11.496060,2.496940,6.845701,0.784531,2.942414,21.771749,21.256992,29.644758,42.717434,34.062801,22.392904,8.979367,18.628931,20.379871,10.109693,14.266466,1.379467,12.602298,7.788247,20.478746,29.358452,8064.000000,0.000000,4.000000,,,,0.000000,2.000000,2.000000,2.000000,2.000000,2.000000,2.000000,2.000000,2.000000,2.000000,2.000000,2.000000,2.000000,2.000000,2.000000,2.000000,2.000000,2.000000,2.000000,2.000000,2.000000,2.000000,2.000000,2.000000,2.000000,2.000000,2.000000,2.000000,2.000000,2.000000,2.000000,2.000000,2.000000,50.000000
1613959267.916592,33.000000,0.000000,5.266290,-0.044306,19.992895,5.406470,10.473559,16.766657,4.075073,6.624114,10.853578,3.681439,-1.161149,10.458923,-4.685044,-20.340631,-18.190613,-26.804117,22.262798,1.235735,15.768959,42.161896,33.003098,23.396152,7.944746,17.071840,31.128723,10.612403,14.765020,2.403728,13.102516,9.318920,20.458267,28.303453,8064.000000,0.000000,4.000000,,,,0.000000,2.000000,2.000000,2.000000,2.000000,2.000000,2.000000,2.000000,2.000000,2.000000,2.000000,2.000000,2.000000,2.000000,2.000000,2.000000,2.000000,2.000000,2.000000,2.000000,2.000000,2.000000,2.000000,2.000000,2.000000,2.000000,2.000000,2.000000,2.000000,2.000000,2.000000,2.000000,2.000000,50.000000
1613959267.924341,34.000000,0.000000,5.261024,0.468559,22.537004,5.401063,7.898983,17.262711,1.506896,-0.049177,0.586314,-7.604294,-9.365116,8.397182,-13.398308,-40.320290,-30.992935,-53.956802,16.086691,-19.791142,-2.195528,34.427425,32.457272,23.372757,8.449622,21.670153,17.764261,8.037688,14.750255,0.350042,13.089414,7.771140,20.950630,20.582842,8064.000000,0.000000,4.000000,,,,0.000000,2.000000,2.000000,2.000000,2.000000,2.000000,2.000000,2.000000,2.000000,2.000000,2.000000,2.000000,2.000000,2.000000,2.000000,2.000000,2.000000,2.000000,2.000000,2.000000,2.000000,2.000000,2.000000,2.000000,2.000000,2.000000,2.000000,2.000000,2.000000,2.000000,2.000000,2.000000,2.000000,50.000000
1613959267.931990,35.000000,0.000000,4.742942,-2.608833,18.924725,6.421303,-5.442249,16.732628,-3.622816,-11.331179,-11.209144,-25.032587,-20.124981,7.363144,-13.897730,-43.356895,-26.859377,-52.877205,15.044963,-20.796991,0.370770,37.982742,33.450459,23.349384,8.441173,22.161303,0.823419,6.491189,14.735505,-2.214410,10.512221,-3.005862,17.852757,4.664823,8064.000000,0.000000,4.000000,,,,0.000000,2.000000,2.000000,2.000000,2.000000,2.000000,2.000000,2.000000,2.000000,2.000000,2.000000,2.000000,2.000000,2.000000,2.000000,2.000000,2.000000,2.000000,2.000000,2.000000,2.000000,2.000000,2.000000,2.000000,2.000000,2.000000,2.000000,2.000000,2.000000,2.000000,2.000000,2.000000,2.000000,50.000000
1613959267.939739,36.000000,0.000000,5.251019,-3.631865,16.341698,5.389241,-8.513730,13.638972,-4.132014,-8.755745,-12.736397,-18.853708,-15.489472,7.868601,0.475142,-33.569946,-1.704313,-20.003813,28.363251,1.787908,17.293476,47.688351,38.545212,26.402958,8.432732,21.113501,11.079006,6.484698,14.720769,-2.212196,8.450427,-6.079780,13.219519,2.608876,8064.000000,0.000000,4.000000,,,,0.000000,2.000000,2.000000,2.000000,2.000000,2.000000,2.000000,2.000000,2.000000,2.000000,2.000000,2.000000,2.000000,2.000000,2.000000,2.000000,2.000000,2.000000,2.000000,2.000000,2.000000,2.000000,2.000000,2.000000,2.000000,2.000000,2.000000,2.000000,2.000000,2.000000,2.000000,2.000000,2.000000,50.000000
1613959267.947388,37.000000,0.000000,5.245769,-2.602592,23.504843,3.845390,6.366579,12.599692,-1.050959,7.663267,-1.441609,6.806171,-1.115008,10.424835,19.449026,-5.844069,31.117905,12.836703,41.668221,30.504068,28.045414,54.307327,47.737434,27.915016,8.937119,24.682131,27.991003,6.478213,14.706049,-2.209984,11.006080,1.105787,11.667838,11.837036,8064.000000,0.000000,4.000000,,,,0.000000,2.000000,2.000000,2.000000,2.000000,2.000000,2.000000,2.000000,2.000000,2.000000,2.000000,2.000000,2.000000,2.000000,2.000000,2.000000,2.000000,2.000000,2.000000,2.000000,2.000000,2.000000,2.000000,2.000000,2.000000,2.000000,2.000000,2.000000,2.000000,2.000000,2.000000,2.000000,2.000000,50.000000
1613959267.955237,38.000000,0.000000,5.240522,-3.625631,27.071081,12.559493,15.078161,17.715298,-0.537087,17.399193,12.918807,20.645519,6.065594,16.055437,32.250092,24.931005,53.650890,34.875149,44.190655,43.806896,34.684036,61.432507,55.894825,27.374281,11.492285,30.811295,28.475834,6.984555,14.691342,-2.207773,13.559175,5.207246,13.707452,12.850840,8064.000000,0.000000,4.000000,,,,0.000000,2.000000,2.000000,2.000000,2.000000,2.000000,2.000000,2.000000,2.000000,2.000000,2.000000,2.000000,2.000000,2.000000,2.000000,2.000000,2.000000,2.000000,2.000000,2.000000,2.000000,2.000000,2.000000,2.000000,2.000000,2.000000,2.000000,2.000000,2.000000,2.000000,2.000000,2.000000,2.000000,50.000000
1613959267.962987,39.000000,0.000000,5.235282,-3.109185,28.582472,21.264883,16.601545,21.287325,-0.536550,15.843333,20.085375,24.727438,8.623631,19.116304,37.346046,31.572741,56.674160,46.122326,43.120823,45.301552,45.931400,67.012100,57.377392,27.346907,13.019254,33.857407,26.396076,6.977571,14.676651,-0.667104,11.494335,4.176397,13.180924,11.812348,8064.000000,0.000000,4.000000,,,,0.000000,2.000000,2.000000,2.000000,2.000000,2.000000,2.000000,2.000000,2.000000,2.000000,2.000000,2.000000,2.000000,2.000000,2.000000,2.000000,2.000000,2.000000,2.000000,2.000000,2.000000,2.000000,2.000000,2.000000,2.000000,2.000000,2.000000,2.000000,2.000000,2.000000,2.000000,2.000000,2.000000,50.000000
1613959267.970736,40.000000,0.000000,5.230047,-0.541973,34.194916,14.576951,22.225969,20.753218,-0.023193,15.314669,19.552469,30.343735,10.666289,19.097187,36.795879,34.105270,54.566204,52.230049,43.590523,50.897278,51.526497,65.406631,51.678989,27.319559,12.493414,33.310730,28.933783,5.944952,14.661975,1.384845,14.046943,7.249144,11.629282,16.928741,8064.000000,0.000000,4.000000,,,,0.000000,2.000000,2.000000,2.000000,2.000000,2.000000,2.000000,2.000000,2.000000,2.000000,2.000000,2.000000,2.000000,2.000000,2.000000,2.000000,2.000000,2.000000,2.000000,2.000000,2.000000,2.000000,2.000000,2.000000,2.000000,2.000000,2.000000,2.000000,2.000000,2.000000,2.000000,2.000000,2.000000,50.000000
1613959267.978385,41.000000,0.000000,5.224817,0.484210,38.263283,10.459810,26.306307,21.245285,-1.048811,16.837816,19.020098,31.851852,10.655623,21.129372,37.271904,50.994244,57.588562,51.152176,43.546932,52.384842,49.423687,65.854042,49.576031,27.292240,12.480921,33.277416,27.879208,10.554392,14.647312,1.896281,24.289307,15.447023,17.258678,24.091299,8064.000000,0.000000,4.000000,,,,0.000000,2.000000,2.000000,2.000000,2.000000,2.000000,2.000000,2.000000,2.000000,2.000000,2.000000,2.000000,2.000000,2.000000,2.000000,2.000000,2.000000,2.000000,2.000000,2.000000,2.000000,2.000000,2.000000,2.000000,2.000000,2.000000,2.000000,2.000000,2.000000,2.000000,2.000000,2.000000,2.000000,50.000000
1613959267.986234,42.000000,0.000000,5.219592,0.483726,40.789124,22.244223,27.818462,24.813784,1.516340,16.308157,22.077999,35.922565,10.644967,23.159525,41.337196,55.558632,58.043793,51.613846,45.041847,48.229893,50.912724,66.813828,49.013634,27.264948,12.981260,33.756962,29.389790,19.774607,14.632666,5.484128,29.906042,20.559782,27.497829,31.759516,8192.000000,0.000000,4.000000,,,,0.000000,2.000000,2.000000,2.000000,2.000000,2.000000,2.000000,2.000000,2.000000,2.000000,2.000000,2.000000,2.000000,2.000000,2.000000,2.000000,2.000000,2.000000,2.000000,2.000000,2.000000,2.000000,2.000000,2.000000,2.000000,2.000000,2.000000,2.000000,2.000000,2.000000,2.000000,2.000000,2.000000,50.000000
1613959267.993983,43.000000,0.000000,7.778475,3.047345,44.850899,25.298901,28.816284,25.301790,8.694311,16.291849,22.568743,38.963566,10.121502,23.136366,35.142014,41.144100,43.626774,47.459667,47.048088,48.181664,46.246429,56.490604,36.656925,27.237682,12.455459,33.210384,30.386042,21.293293,14.618032,10.094028,25.773573,20.539221,24.906229,34.804680,8064.000000,0.000000,4.000000,,,,0.000000,2.000000,2.000000,2.000000,2.000000,2.000000,2.000000,2.000000,2.000000,2.000000,2.000000,2.000000,2.000000,2.000000,2.000000,2.000000,2.000000,2.000000,2.000000,2.000000,2.000000,2.000000,2.000000,2.000000,2.000000,2.000000,2.000000,2.000000,2.000000,2.000000,2.000000,2.000000,2.000000,50.000000
1613959268.001832,44.000000,0.000000,9.821979,4.582759,44.293228,12.965910,28.274649,23.738028,11.762540,15.762737,22.546173,29.693832,8.060099,22.600409,22.799177,33.923470,23.070328,26.899387,43.924118,43.005276,29.789925,43.100780,23.286936,26.697624,12.443003,33.177174,19.586424,18.195078,14.603415,8.032652,24.209337,18.980221,16.676195,33.231415,8064.000000,0.000000,4.000000,,,,0.000000,2.000000,2.000000,2.000000,2.000000,2.000000,2.000000,2.000000,2.000000,2.000000,2.000000,2.000000,2.000000,2.000000,2.000000,2.000000,2.000000,2.000000,2.000000,2.000000,2.000000,2.000000,2.000000,2.000000,2.000000,2.000000,2.000000,2.000000,2.000000,2.000000,2.000000,2.000000,2.000000,50.000000
1613959268.009581,45.000000,0.000000,7.760874,4.578176,42.197651,9.363200,30.297655,21.663006,10.725137,15.234154,24.574909,22.997473,7.026397,23.090630,20.725096,29.786982,14.329309,7.385309,39.264809,30.141758,20.016546,39.980759,21.212368,26.670927,12.943380,31.092714,5.207863,18.176882,14.588811,5.460517,25.723589,12.807394,17.685160,30.121258,8064.000000,0.000000,4.000000,,,,0.000000,2.000000,2.000000,2.000000,2.000000,2.000000,2.000000,2.000000,2.000000,2.000000,2.000000,2.000000,2.000000,2.000000,2.000000,2.000000,2.000000,2.000000,2.000000,2.000000,2.000000,2.000000,2.000000,2.000000,2.000000,2.000000,2.000000,2.000000,2.000000,2.000000,2.000000,2.000000,2.000000,50.000000
1613959268.017230,46.000000,0.000000,5.189011,5.599239,39.591351,9.866657,25.651974,16.000319,11.740052,16.757381,19.934950,21.948833,3.942448,19.477795,18.140268,13.859758,16.366262,5.839462,38.199902,26.009050,22.047812,42.504879,19.139874,27.157076,12.417617,24.394955,3.664194,12.517679,14.574223,5.967877,15.954276,-0.025926,14.590551,22.911650,8064.000000,0.000000,4.000000,,,,0.000000,2.000000,2.000000,2.000000,2.000000,2.000000,2.000000,2.000000,2.000000,2.000000,2.000000,2.000000,2.000000,2.000000,2.000000,2.000000,2.000000,2.000000,2.000000,2.000000,2.000000,2.000000,2.000000,2.000000,2.000000,2.000000,2.000000,2.000000,2.000000,2.000000,2.000000,2.000000,2.000000,50.000000
1613959268.024979,47.000000,0.000000,5.183822,1.491076,29.295349,-4.502183,5.626321,7.266369,8.651389,13.150880,6.581682,7.055090,-3.240982,14.330112,4.275975,-3.589999,13.272972,6.859264,38.674522,28.034325,21.512943,41.436733,18.095093,25.591457,9.328276,18.729534,6.224632,-1.853812,14.046827,4.423448,1.579348,-7.718207,0.729807,14.683610,8064.000000,0.000000,4.000000,,,,0.000000,2.000000,2.000000,2.000000,2.000000,2.000000,2.000000,2.000000,2.000000,2.000000,2.000000,2.000000,2.000000,2.000000,2.000000,2.000000,2.000000,2.000000,2.000000,2.000000,2.000000,2.000000,2.000000,2.000000,2.000000,2.000000,2.000000,2.000000,2.000000,2.000000,2.000000,2.000000,2.000000,50.000000
1613959268.032628,48.000000,0.000000,4.665818,-8.766826,19.522465,-13.728451,-9.251101,2.130898,0.950430,3.394140,-1.117208,-9.362221,-6.314664,15.341423,2.733237,-9.227435,16.849443,6.339584,39.148670,26.467829,22.517071,44.472218,30.384689,28.642790,8.293306,16.659523,3.141484,-7.492984,14.545601,1.854922,-0.473514,-1.556643,-3.373487,11.592004,8064.000000,0.000000,4.000000,,,,0.000000,2.000000,2.000000,2.000000,2.000000,2.000000,2.000000,2.000000,2.000000,2.000000,2.000000,2.000000,2.000000,2.000000,2.000000,2.000000,2.000000,2.000000,2.000000,2.000000,2.000000,2.000000,2.000000,2.000000,2.000000,2.000000,2.000000,2.000000,2.000000,2.000000,2.000000,2.000000,2.000000,50.000000
