title:08, start timestamp:1614735714.431399, stop timestamp:1614735760.281251, headset type:EPOCFLEX, headset serial:F00001ED, headset firmware:f12, subject name:s16, channels:75, sampling rate:128, samples:5924      , version:2.0
Timestamp,EEG.Counter,EEG.Interpolated,EEG.Cz,EEG.Fz,EEG.Fp1,EEG.F7,EEG.F3,EEG.FC1,EEG.C3,EEG.FC5,EEG.FT9,EEG.T7,EEG.TP9,EEG.CP5,EEG.CP1,EEG.P3,EEG.P7,EEG.O1,EEG.Pz,EEG.Oz,EEG.O2,EEG.P8,EEG.P4,EEG.CP2,EEG.CP6,EEG.TP10,EEG.T8,EEG.FT10,EEG.FC6,EEG.C4,EEG.FC2,EEG.F4,EEG.F8,EEG.Fp2,EEG.HighBitFlex,EEG.RawCq,EEG.Battery,MarkerIndex,MarkerType,MarkerValueInt,EEG.MarkerHardware,CQ.Cz,CQ.Fz,CQ.Fp1,CQ.F7,CQ.F3,CQ.FC1,CQ.C3,CQ.FC5,CQ.FT9,CQ.T7,CQ.TP9,CQ.CP5,CQ.CP1,CQ.P3,CQ.P7,CQ.O1,CQ.Pz,CQ.Oz,CQ.O2,CQ.P8,CQ.P4,CQ.CP2,CQ.CP6,CQ.TP10,CQ.T8,CQ.FT10,CQ.FC6,CQ.C4,CQ.FC2,CQ.F4,CQ.F8,CQ.Fp2,CQ.Overall
1614735714.431399,77.000000,0.000000,3.164047,1.600984,-77.291626,-54.489914,-19.106075,-5.672424,-3.514268,-26.678434,-20.359325,-45.192669,9.095109,-2.279889,2.340281,7.725182,-26.920225,-96.648834,13.415303,18.571836,-26.510824,-42.892822,16.865753,25.252729,26.582327,17.649500,10.673333,21.472609,-12.724926,24.501343,7.953104,36.226707,28.290106,-0.379076,0.000000,175.000000,4.000000,,,,0.000000,4.000000,4.000000,4.000000,4.000000,4.000000,4.000000,4.000000,4.000000,4.000000,4.000000,4.000000,4.000000,4.000000,4.000000,4.000000,4.000000,4.000000,4.000000,4.000000,4.000000,4.000000,4.000000,4.000000,4.000000,4.000000,4.000000,4.000000,4.000000,4.000000,4.000000,4.000000,4.000000,100.000000
1614735714.439048,78.000000,0.000000,3.160883,0.573742,-54.650230,-46.230297,-19.086969,-6.692393,-11.715882,-31.267141,-8.031274,-42.583374,-0.144756,-8.431455,-6.892829,-5.103056,-26.893305,-117.065002,1.607016,7.784034,-44.433033,-58.234547,4.028375,18.047991,25.017282,-1.342508,8.098557,23.502419,-38.353226,16.271713,6.919509,35.677662,28.774637,4.236688,0.000000,195.000000,4.000000,,,,0.000000,4.000000,4.000000,4.000000,4.000000,4.000000,4.000000,4.000000,4.000000,4.000000,4.000000,4.000000,4.000000,4.000000,4.000000,4.000000,4.000000,4.000000,4.000000,4.000000,4.000000,4.000000,4.000000,4.000000,4.000000,4.000000,4.000000,4.000000,4.000000,4.000000,4.000000,4.000000,4.000000,100.000000
1614735714.446798,79.000000,0.000000,3.157722,1.085989,-52.031475,-40.030220,-19.067883,-6.172880,-6.575961,-32.261513,-3.407858,-37.925407,-6.298457,-10.474305,-4.834654,-6.123594,-27.379232,-118.486397,0.579768,7.776250,-51.055267,-67.919899,1.973065,18.029942,22.428164,-2.879627,15.782766,26.043018,-24.981541,16.768263,7.425411,36.154804,29.258682,25.770912,0.000000,193.000000,4.000000,,,,0.000000,4.000000,4.000000,4.000000,4.000000,4.000000,4.000000,4.000000,4.000000,4.000000,4.000000,4.000000,4.000000,4.000000,4.000000,4.000000,4.000000,4.000000,4.000000,4.000000,4.000000,4.000000,4.000000,4.000000,4.000000,4.000000,4.000000,4.000000,4.000000,4.000000,4.000000,4.000000,4.000000,100.000000
1614735714.454447,80.000000,0.000000,3.154565,1.084903,-73.005089,-41.015831,-19.048815,-6.166707,3.687025,-27.613869,-11.096758,-38.400303,-8.343441,-10.463831,2.349668,2.087658,-27.864674,-118.880737,1.092009,5.717192,-45.876007,-66.826340,6.073656,19.037554,21.892914,-1.851106,1.920829,26.016975,-5.982199,23.418161,8.443626,36.631470,28.716604,17.540014,0.000000,175.000000,4.000000,,,,0.000000,4.000000,4.000000,4.000000,4.000000,4.000000,4.000000,4.000000,4.000000,4.000000,4.000000,4.000000,4.000000,4.000000,4.000000,4.000000,4.000000,4.000000,4.000000,4.000000,4.000000,4.000000,4.000000,4.000000,4.000000,4.000000,4.000000,4.000000,4.000000,4.000000,4.000000,4.000000,4.000000,100.000000
1614735714.462196,81.000000,0.000000,3.151410,1.083818,-78.060287,-39.436352,-19.029766,-6.160541,4.196158,-25.022152,-15.701046,-44.002926,-10.386379,-10.453367,2.860139,4.649673,-26.811167,-138.249039,-1.986006,-8.134679,-51.471153,-65.733871,-0.086264,17.992874,22.383842,-12.105665,-10.388783,25.478138,-17.771090,22.881922,2.794157,36.082016,28.175066,-5.041629,0.000000,201.000000,4.000000,,,,0.000000,4.000000,4.000000,4.000000,4.000000,4.000000,4.000000,4.000000,4.000000,4.000000,4.000000,4.000000,4.000000,4.000000,4.000000,4.000000,4.000000,4.000000,4.000000,4.000000,4.000000,4.000000,4.000000,4.000000,4.000000,4.000000,4.000000,4.000000,4.000000,4.000000,4.000000,4.000000,4.000000,100.000000
1614735714.469846,82.000000,0.000000,3.148259,1.082734,-67.725815,-36.319992,-19.010736,-6.154380,5.730424,-23.971489,-14.146883,-52.676872,-12.940095,-5.827529,4.395740,3.619382,-27.809998,-150.931290,-3.522482,-16.844494,-57.060711,-68.745064,-4.188742,17.974882,21.335817,-20.298687,-7.814292,25.965481,-24.932806,18.756477,-3.362483,36.045937,29.172533,-5.036587,0.000000,198.000000,4.000000,,,,0.000000,4.000000,4.000000,4.000000,4.000000,4.000000,4.000000,4.000000,4.000000,4.000000,4.000000,4.000000,4.000000,4.000000,4.000000,4.000000,4.000000,4.000000,4.000000,4.000000,4.000000,4.000000,4.000000,4.000000,4.000000,4.000000,4.000000,4.000000,4.000000,4.000000,4.000000,4.000000,4.000000,100.000000
1614735714.477595,83.000000,0.000000,3.145110,1.081651,-69.709373,-37.309315,-18.991726,-6.148225,13.929822,-21.383415,-14.132736,-51.598553,-9.850232,1.870606,12.596473,7.718327,-26.756546,-135.908569,-3.006139,-9.135341,-41.619034,-61.496830,5.046216,18.469727,18.237558,-7.970697,-1.139811,25.939516,-15.164283,18.224899,0.230623,36.009892,29.143360,-0.928987,0.000000,200.000000,4.000000,,,,0.000000,4.000000,4.000000,4.000000,4.000000,4.000000,4.000000,4.000000,4.000000,4.000000,4.000000,4.000000,4.000000,4.000000,4.000000,4.000000,4.000000,4.000000,4.000000,4.000000,4.000000,4.000000,4.000000,4.000000,4.000000,4.000000,4.000000,4.000000,4.000000,4.000000,4.000000,4.000000,4.000000,100.000000
1614735714.485245,84.000000,0.000000,3.141965,1.080570,-75.793510,-37.784824,-18.972734,-6.142077,12.890251,-21.362032,-15.144245,-28.982853,-0.096792,4.945658,16.173620,12.325994,-14.422097,-112.695740,2.125072,3.181487,-22.603056,-40.922512,15.810400,18.964079,18.219320,15.114197,18.348507,25.913576,-19.251682,18.719496,4.845777,35.973881,28.088575,-5.543442,0.000000,200.000000,4.000000,,,,0.000000,4.000000,4.000000,4.000000,4.000000,4.000000,4.000000,4.000000,4.000000,4.000000,4.000000,4.000000,4.000000,4.000000,4.000000,4.000000,4.000000,4.000000,4.000000,4.000000,4.000000,4.000000,4.000000,4.000000,4.000000,4.000000,4.000000,4.000000,4.000000,4.000000,4.000000,4.000000,4.000000,100.000000
1614735714.492994,85.000000,0.000000,3.138823,1.079489,-69.563866,-37.234219,-18.953762,-6.135935,5.185053,-21.340670,-14.616281,-9.466691,7.082792,5.453533,15.131805,12.826488,-1.587163,-100.275352,8.789614,9.844972,-15.913786,-27.035437,20.922794,18.945114,20.765203,27.406775,31.150673,25.887663,-26.924738,18.700775,3.815290,35.937904,35.239975,-5.537899,0.000000,201.000000,4.000000,,,,0.000000,4.000000,4.000000,4.000000,4.000000,4.000000,4.000000,4.000000,4.000000,4.000000,4.000000,4.000000,4.000000,4.000000,4.000000,4.000000,4.000000,4.000000,4.000000,4.000000,4.000000,4.000000,4.000000,4.000000,4.000000,4.000000,4.000000,4.000000,4.000000,4.000000,4.000000,4.000000,4.000000,100.000000
1614735714.500643,86.000000,0.000000,3.135684,0.565589,-62.827641,-37.196987,-18.934807,-6.129799,4.154227,-21.319328,-14.601664,-18.175173,11.691093,4.935259,14.603852,14.864944,0.465707,-91.969948,9.806465,17.014614,-15.897872,-27.521221,20.901873,18.413349,22.795721,24.815266,23.427214,25.861774,-21.769608,18.682076,3.298654,35.389149,46.999607,-5.019540,0.000000,198.000000,4.000000,,,,0.000000,4.000000,4.000000,4.000000,4.000000,4.000000,4.000000,4.000000,4.000000,4.000000,4.000000,4.000000,4.000000,4.000000,4.000000,4.000000,4.000000,4.000000,4.000000,4.000000,4.000000,4.000000,4.000000,4.000000,4.000000,4.000000,4.000000,4.000000,4.000000,4.000000,4.000000,4.000000,4.000000,100.000000
1614735714.508393,87.000000,0.000000,3.132549,1.077844,-63.277630,-37.672611,-18.915873,-6.123670,2.098791,-22.836472,-14.587062,-30.977510,18.346069,5.955965,14.589249,19.978283,0.465241,-82.647209,8.771018,25.202728,-13.317871,-29.544983,21.906612,18.907755,23.285746,25.303270,19.814043,25.323092,-20.722198,18.663393,4.320996,35.353760,45.926964,-6.040162,0.000000,190.000000,4.000000,,,,0.000000,4.000000,4.000000,4.000000,4.000000,4.000000,4.000000,4.000000,4.000000,4.000000,4.000000,4.000000,4.000000,4.000000,4.000000,4.000000,4.000000,4.000000,4.000000,4.000000,4.000000,4.000000,4.000000,4.000000,4.000000,4.000000,4.000000,4.000000,4.000000,4.000000,4.000000,4.000000,4.000000,100.000000
1614735714.516042,88.000000,0.000000,3.642237,3.640869,-64.239998,-37.634937,-18.896957,-6.117546,-3.031513,-25.377737,-14.572475,-26.843969,17.302082,4.924368,14.061839,19.445484,-1.073686,-85.128662,10.813529,21.074961,-12.791733,-36.694923,23.935987,18.888847,22.236818,28.354891,15.691665,25.810591,-24.291220,19.670370,3.803855,36.344048,35.624626,-1.418737,0.000000,170.000000,4.000000,,,,0.000000,4.000000,4.000000,4.000000,4.000000,4.000000,4.000000,4.000000,4.000000,4.000000,4.000000,4.000000,4.000000,4.000000,4.000000,4.000000,4.000000,4.000000,4.000000,4.000000,4.000000,4.000000,4.000000,4.000000,4.000000,4.000000,4.000000,4.000000,4.000000,4.000000,4.000000,4.000000,4.000000,100.000000
1614735714.523791,89.000000,0.000000,3.125774,5.175689,-63.150112,-37.597301,-18.878059,-6.111428,-4.054123,-25.865179,-14.045082,-38.099178,3.438626,-3.285685,9.432393,8.143988,-19.534151,-102.479431,6.187331,9.771834,-25.599455,-59.222332,14.681282,13.741754,22.214582,15.506023,-4.324027,25.784779,-31.446415,18.112238,3.800051,32.717957,34.050541,-4.494241,0.000000,202.000000,4.000000,,,,0.000000,4.000000,4.000000,4.000000,4.000000,4.000000,4.000000,4.000000,4.000000,4.000000,4.000000,4.000000,4.000000,4.000000,4.000000,4.000000,4.000000,4.000000,4.000000,4.000000,4.000000,4.000000,4.000000,4.000000,4.000000,4.000000,4.000000,4.000000,4.000000,4.000000,4.000000,4.000000,4.000000,100.000000
1614735714.531441,90.000000,0.000000,1.071366,4.144873,-63.599785,-37.046883,-18.859182,-6.105317,-3.024428,-25.326494,-15.056678,-69.855949,-14.513531,-12.000348,-3.397552,-4.684669,-42.591541,-124.941055,-6.126549,3.095396,-55.317444,-83.778496,-3.794938,7.574166,23.730829,-7.586406,-19.704319,24.220533,-40.645737,12.965921,3.796251,27.044214,25.811363,-20.900003,0.000000,200.000000,4.000000,,,,0.000000,4.000000,4.000000,4.000000,4.000000,4.000000,4.000000,4.000000,4.000000,4.000000,4.000000,4.000000,4.000000,4.000000,4.000000,4.000000,4.000000,4.000000,4.000000,4.000000,4.000000,4.000000,4.000000,4.000000,4.000000,4.000000,4.000000,4.000000,4.000000,4.000000,4.000000,4.000000,4.000000,100.000000
1614735714.539290,91.000000,0.000000,-0.468167,5.166369,-63.023365,-38.035477,-18.840322,-6.099212,-5.072685,-25.813988,-17.605724,-73.888657,-26.806709,-14.552450,-12.112103,-13.397933,-50.241257,-143.790466,-11.248628,-6.138469,-74.749306,-101.130615,-10.970631,7.053771,16.014790,-18.860870,-27.889742,22.145031,-23.682014,11.414494,3.792455,31.632555,7.836833,-28.058590,0.000000,211.000000,4.000000,,,,0.000000,4.000000,4.000000,4.000000,4.000000,4.000000,4.000000,4.000000,4.000000,4.000000,4.000000,4.000000,4.000000,4.000000,4.000000,4.000000,4.000000,4.000000,4.000000,4.000000,4.000000,4.000000,4.000000,4.000000,4.000000,4.000000,4.000000,4.000000,4.000000,4.000000,4.000000,4.000000,4.000000,100.000000
1614735714.547039,92.000000,0.000000,-0.980519,7.725305,-62.447521,-36.458981,-16.770201,-6.093112,-7.631715,-25.275354,-18.613760,-48.686562,-30.882467,-14.025077,-12.099992,-17.487099,-50.191013,-152.364624,-9.186097,-19.465664,-75.700195,-104.619225,-7.882737,8.072359,1.126980,-16.277908,-27.861853,21.610065,-1.607051,10.890259,3.788662,39.806049,10.393100,-18.799763,0.000000,195.000000,4.000000,,,,0.000000,4.000000,4.000000,4.000000,4.000000,4.000000,4.000000,4.000000,4.000000,4.000000,4.000000,4.000000,4.000000,4.000000,4.000000,4.000000,4.000000,4.000000,4.000000,4.000000,4.000000,4.000000,4.000000,4.000000,4.000000,4.000000,4.000000,4.000000,4.000000,4.000000,4.000000,4.000000,4.000000,100.000000
1614735714.554889,93.000000,0.000000,-0.466718,8.743220,-64.949173,-31.807138,-14.702147,-6.087019,-6.598443,-23.198795,-18.082325,-37.868645,-30.338764,-14.011052,-11.062251,-18.495253,-47.576721,-153.237915,-9.689732,-23.035942,-75.624496,-86.565887,-8.900495,5.500184,-4.515172,-15.748809,-0.141683,22.614096,-24.682367,5.751163,3.784874,36.689320,29.357065,-9.550194,0.000000,200.000000,4.000000,,,,0.000000,4.000000,4.000000,4.000000,4.000000,4.000000,4.000000,4.000000,4.000000,4.000000,4.000000,4.000000,4.000000,4.000000,4.000000,4.000000,4.000000,4.000000,4.000000,4.000000,4.000000,4.000000,4.000000,4.000000,4.000000,4.000000,4.000000,4.000000,4.000000,4.000000,4.000000,4.000000,4.000000,100.000000
1614735714.562638,94.000000,0.000000,-0.466251,8.734477,-66.935509,-29.211227,-15.200266,-6.080932,-3.514921,-21.124315,-18.064243,-39.369240,-31.334066,-10.920117,-12.076829,-17.963938,-39.836838,-153.084671,-9.680041,-21.987265,-71.446312,-62.376759,-8.891594,3.443402,1.643189,-17.784342,23.448202,22.078661,-44.144863,4.206951,3.781089,27.934683,29.327707,-12.104746,0.000000,212.000000,4.000000,,,,0.000000,4.000000,4.000000,4.000000,4.000000,4.000000,4.000000,4.000000,4.000000,4.000000,4.000000,4.000000,4.000000,4.000000,4.000000,4.000000,4.000000,4.000000,4.000000,4.000000,4.000000,4.000000,4.000000,4.000000,4.000000,4.000000,4.000000,4.000000,4.000000,4.000000,4.000000,4.000000,4.000000,100.000000
1614735714.570487,95.000000,0.000000,-0.465785,9.238564,-66.355751,-29.694838,-15.185066,-6.587672,-2.485765,-21.103191,-18.046179,-33.688843,-30.789911,-6.806633,-9.500650,-17.433153,-33.643154,-151.905945,-6.593438,-19.913996,-54.964607,-53.083614,-1.190395,3.439958,8.308212,-14.176814,10.604241,17.954018,-21.536617,9.843769,3.777308,28.932390,16.990688,-25.425976,0.000000,166.000000,4.000000,,,,0.000000,4.000000,4.000000,4.000000,4.000000,4.000000,4.000000,4.000000,4.000000,4.000000,4.000000,4.000000,4.000000,4.000000,4.000000,4.000000,4.000000,4.000000,4.000000,4.000000,4.000000,4.000000,4.000000,4.000000,4.000000,4.000000,4.000000,4.000000,4.000000,4.000000,4.000000,4.000000,4.000000,100.000000
1614735714.578236,96.000000,0.000000,-0.465319,4.101120,-69.366318,-29.665142,-15.169881,-5.555443,-2.996100,-23.133369,-18.028131,-32.629513,-23.579634,-5.261365,-6.927047,-13.825976,-32.583870,-139.959167,-5.048383,-9.124850,-40.037846,-44.312580,3.939000,3.949339,13.428109,-5.444689,1.875689,12.807859,-23.053541,10.859567,3.773530,29.416277,17.999338,-37.708241,8064.000000,0.000000,4.000000,,,,0.000000,4.000000,4.000000,4.000000,4.000000,4.000000,4.000000,4.000000,4.000000,4.000000,4.000000,4.000000,4.000000,4.000000,4.000000,4.000000,4.000000,4.000000,4.000000,4.000000,4.000000,4.000000,4.000000,4.000000,4.000000,4.000000,4.000000,4.000000,4.000000,4.000000,4.000000,4.000000,4.000000,100.000000
1614735714.586086,97.000000,0.000000,-0.464854,-4.620930,-75.450798,-32.199581,-15.154711,-6.062708,-2.480283,-25.161518,-18.010103,-35.160988,-14.325285,-6.794566,-6.920120,-7.658304,-29.474361,-123.408951,-5.043335,1.653505,-31.792681,-31.960575,4.447882,4.458210,15.978784,1.227422,6.489197,11.256590,-50.209976,5.720502,3.769757,22.207375,21.058262,-35.619251,8064.000000,0.000000,4.000000,,,,0.000000,4.000000,4.000000,4.000000,4.000000,4.000000,4.000000,4.000000,4.000000,4.000000,4.000000,4.000000,4.000000,4.000000,4.000000,4.000000,4.000000,4.000000,4.000000,4.000000,4.000000,4.000000,4.000000,4.000000,4.000000,4.000000,4.000000,4.000000,4.000000,4.000000,4.000000,4.000000,4.000000,100.000000
1614735714.593835,98.000000,0.000000,-0.464389,-6.667591,-77.939453,-36.782764,-15.139556,-8.620748,-4.016264,-25.136356,-17.992094,-38.202751,-12.772498,-10.377515,-7.426020,-5.086543,-26.880785,-117.644516,-5.038291,-0.912251,-30.222427,-40.646564,3.417793,3.940931,14.937164,1.226195,-10.440369,11.758154,-39.903355,3.663499,4.278808,21.159527,12.319255,-30.968246,8064.000000,0.000000,4.000000,,,,0.000000,4.000000,4.000000,4.000000,4.000000,4.000000,4.000000,4.000000,4.000000,4.000000,4.000000,4.000000,4.000000,4.000000,4.000000,4.000000,4.000000,4.000000,4.000000,4.000000,4.000000,4.000000,4.000000,4.000000,4.000000,4.000000,4.000000,4.000000,4.000000,4.000000,4.000000,4.000000,4.000000,100.000000
1614735714.601684,99.000000,0.000000,-0.463925,-3.071180,-77.861511,-37.771622,-15.124416,-8.612127,-9.653274,-25.111221,-17.974102,-54.061981,-13.785367,-13.444060,-7.418594,-5.081457,-32.494930,-127.270462,-5.546074,-10.654928,-43.012718,-63.170021,3.414375,3.936990,13.896586,0.199328,-30.429928,10.720755,-31.145504,4.172657,3.761708,24.728109,5.640269,-38.629585,8064.000000,0.000000,4.000000,,,,0.000000,4.000000,4.000000,4.000000,4.000000,4.000000,4.000000,4.000000,4.000000,4.000000,4.000000,4.000000,4.000000,4.000000,4.000000,4.000000,4.000000,4.000000,4.000000,4.000000,4.000000,4.000000,4.000000,4.000000,4.000000,4.000000,4.000000,4.000000,4.000000,4.000000,4.000000,4.000000,4.000000,100.000000
1614735714.609433,100.000000,0.000000,-0.463461,-2.555288,-77.783653,-37.221031,-15.109292,-6.552233,-14.259006,-25.086109,-17.956127,-58.623306,-13.258761,-12.917795,-7.411176,-4.563555,-37.077820,-134.322678,-4.514887,-13.721196,-53.738934,-68.235054,4.949422,4.958694,10.805766,1.224769,-28.348217,11.222855,-57.781025,4.168484,1.706665,16.498253,8.198731,-45.257622,8064.000000,0.000000,4.000000,,,,0.000000,4.000000,4.000000,4.000000,4.000000,4.000000,4.000000,4.000000,4.000000,4.000000,4.000000,4.000000,4.000000,4.000000,4.000000,4.000000,4.000000,4.000000,4.000000,4.000000,4.000000,4.000000,4.000000,4.000000,4.000000,4.000000,4.000000,4.000000,4.000000,4.000000,4.000000,4.000000,4.000000,100.000000
1614735714.617283,101.000000,0.000000,-0.462997,-3.065553,-76.680222,-37.183811,-15.094183,-6.032860,-14.244746,-25.061024,-17.425350,-43.692886,-14.783964,-13.417698,-6.890944,-7.123094,-34.989460,-132.137070,-5.023192,-11.143373,-50.095451,-66.628357,0.841909,3.415274,4.641114,-2.366199,-21.653202,11.724452,-58.748886,4.164315,0.166496,6.225345,1.523866,-43.161083,8064.000000,0.000000,4.000000,,,,0.000000,4.000000,4.000000,4.000000,4.000000,4.000000,4.000000,4.000000,4.000000,4.000000,4.000000,4.000000,4.000000,4.000000,4.000000,4.000000,4.000000,4.000000,4.000000,4.000000,4.000000,4.000000,4.000000,4.000000,4.000000,4.000000,4.000000,4.000000,4.000000,4.000000,4.000000,4.000000,4.000000,100.000000
1614735714.625032,102.000000,0.000000,-0.462534,-2.036847,-80.706108,-37.146626,-15.591909,-5.514007,-13.717681,-25.548782,-17.920746,-54.418427,-24.512770,-15.455563,-8.422515,-15.321099,-44.185242,-142.774170,-11.172015,-18.824537,-61.840229,-87.074554,-13.005087,-2.229167,1.046730,-19.799730,-20.605907,5.558881,-34.587570,2.108869,-0.346491,5.193479,-15.400735,-51.323051,8064.000000,0.000000,4.000000,,,,0.000000,4.000000,4.000000,4.000000,4.000000,4.000000,4.000000,4.000000,4.000000,4.000000,4.000000,4.000000,4.000000,4.000000,4.000000,4.000000,4.000000,4.000000,4.000000,4.000000,4.000000,4.000000,4.000000,4.000000,4.000000,4.000000,4.000000,4.000000,4.000000,4.000000,4.000000,4.000000,4.000000,100.000000
1614735714.632881,103.000000,0.000000,-0.462072,-2.547631,-87.804893,-38.135120,-14.550676,-2.944390,-14.216784,-25.010414,-18.415646,-78.979393,-41.924156,-16.978569,-10.978194,-25.562187,-68.756439,-172.374985,-17.314690,-38.805714,-91.009155,-114.679787,-23.761312,-8.893604,-3.056881,-43.882496,-28.277609,-2.651806,-42.245293,0.568298,0.166676,6.213926,-21.539181,-68.707626,8064.000000,0.000000,4.000000,,,,0.000000,4.000000,4.000000,4.000000,4.000000,4.000000,4.000000,4.000000,4.000000,4.000000,4.000000,4.000000,4.000000,4.000000,4.000000,4.000000,4.000000,4.000000,4.000000,4.000000,4.000000,4.000000,4.000000,4.000000,4.000000,4.000000,4.000000,4.000000,4.000000,4.000000,4.000000,4.000000,4.000000,100.000000
1614735714.640631,104.000000,0.000000,-0.461610,-2.032263,-85.152985,-34.507240,-11.972023,-1.915805,-13.689746,-24.985403,-14.807487,-65.054260,-55.728386,-20.038513,-11.992857,-32.716114,-84.072296,-189.638504,-17.297375,-51.074600,-106.302765,-123.283051,-23.737551,-10.935993,-14.335876,-57.171944,-40.557022,-1.623513,-54.510738,0.054910,0.166510,7.233354,-13.825333,-69.664558,8064.000000,0.000000,4.000000,,,,0.000000,4.000000,4.000000,4.000000,4.000000,4.000000,4.000000,4.000000,4.000000,4.000000,4.000000,4.000000,4.000000,4.000000,4.000000,4.000000,4.000000,4.000000,4.000000,4.000000,4.000000,4.000000,4.000000,4.000000,4.000000,4.000000,4.000000,4.000000,4.000000,4.000000,4.000000,4.000000,4.000000,100.000000
1614735714.648480,105.000000,0.000000,-0.461148,0.533872,-77.888344,-27.806068,-10.934410,-1.913889,-13.676057,-25.986059,-15.305500,-40.886639,-60.800861,-24.121038,-10.442403,-37.298782,-81.424126,-187.910400,-16.254436,-52.049164,-104.657997,-115.980286,-23.713814,-10.925056,-22.013847,-57.627594,-29.234415,0.942213,-37.020329,0.567675,0.166343,13.892787,-5.093559,-57.287201,8064.000000,0.000000,4.000000,,,,0.000000,4.000000,4.000000,4.000000,4.000000,4.000000,4.000000,4.000000,4.000000,4.000000,4.000000,4.000000,4.000000,4.000000,4.000000,4.000000,4.000000,4.000000,4.000000,4.000000,4.000000,4.000000,4.000000,4.000000,4.000000,4.000000,4.000000,4.000000,4.000000,4.000000,4.000000,4.000000,4.000000,100.000000
1614735714.656229,106.000000,0.000000,-0.460687,-2.030764,-77.297630,-24.701340,-11.436296,-2.937616,-13.662380,-23.908791,-22.469681,-38.281651,-60.227238,-23.071278,-11.970422,-36.235840,-67.496544,-189.260956,-18.289465,-50.458656,-97.373856,-99.454048,-21.125998,-11.939773,-20.966192,-47.313557,-12.282104,-2.648473,-24.675617,0.567108,0.166177,19.007099,-3.037184,-53.640171,7936.000000,0.000000,4.000000,,,,0.000000,4.000000,4.000000,4.000000,4.000000,4.000000,4.000000,4.000000,4.000000,4.000000,4.000000,4.000000,4.000000,4.000000,4.000000,4.000000,4.000000,4.000000,4.000000,4.000000,4.000000,4.000000,4.000000,4.000000,4.000000,4.000000,4.000000,4.000000,4.000000,4.000000,4.000000,4.000000,4.000000,100.000000
1614735714.663878,107.000000,0.000000,-0.460226,-7.669759,-75.681877,-26.727921,-10.912040,-6.524422,-10.571795,-18.756678,-23.985674,-24.910036,-44.782398,-14.330256,-11.445631,-20.302170,-40.762383,-175.738358,-15.194251,-35.536400,-73.686737,-70.636642,-6.233077,-8.338090,-12.227278,-20.599575,-18.423668,-7.261209,-34.907352,0.566540,0.166011,15.911169,-5.598249,-55.637814,8064.000000,0.000000,4.000000,,,,0.000000,4.000000,4.000000,4.000000,4.000000,4.000000,4.000000,4.000000,4.000000,4.000000,4.000000,4.000000,4.000000,4.000000,4.000000,4.000000,4.000000,4.000000,4.000000,4.000000,4.000000,4.000000,4.000000,4.000000,4.000000,4.000000,4.000000,4.000000,4.000000,4.000000,4.000000,4.000000,4.000000,100.000000
1614735714.671628,108.000000,0.000000,-0.459766,-10.226192,-76.119011,-25.675550,-10.901128,-9.594821,-6.458659,-17.199459,-21.910406,-7.962049,-11.917102,-0.469773,-4.254698,7.923260,-9.952389,-142.742111,-6.461109,-3.705993,-40.792538,-37.745495,13.260336,1.926659,6.759309,8.651793,-12.251398,-7.766768,-42.564754,0.053153,0.165845,14.356796,-0.977266,-54.556534,8064.000000,0.000000,4.000000,,,,0.000000,4.000000,4.000000,4.000000,4.000000,4.000000,4.000000,4.000000,4.000000,4.000000,4.000000,4.000000,4.000000,4.000000,4.000000,4.000000,4.000000,4.000000,4.000000,4.000000,4.000000,4.000000,4.000000,4.000000,4.000000,4.000000,4.000000,4.000000,4.000000,4.000000,4.000000,4.000000,4.000000,100.000000
1614735714.679277,109.000000,0.000000,-0.459306,-9.703145,-82.709564,-21.034491,-12.941508,-10.098046,-5.939380,-17.695080,-25.991060,-13.595112,15.274302,9.274287,3.441864,26.376875,3.903717,-109.778854,1.237660,18.861816,-16.649181,-21.810312,21.965025,8.591399,24.188446,19.925192,15.453161,-6.220540,-43.035007,1.078741,0.165679,16.906542,14.408327,-54.501976,8192.000000,0.000000,4.000000,,,,0.000000,4.000000,4.000000,4.000000,4.000000,4.000000,4.000000,4.000000,4.000000,4.000000,4.000000,4.000000,4.000000,4.000000,4.000000,4.000000,4.000000,4.000000,4.000000,4.000000,4.000000,4.000000,4.000000,4.000000,4.000000,4.000000,4.000000,4.000000,4.000000,4.000000,4.000000,4.000000,4.000000,100.000000
1614735714.687027,110.000000,0.000000,-0.458847,-9.693442,-73.908905,-18.449354,-15.492669,-9.575128,-6.446261,-13.574821,-22.375324,-19.222542,18.335951,9.265013,4.464063,22.760756,5.438275,-106.079330,4.826166,21.919876,-13.555609,-23.839785,18.353315,8.069987,27.754002,21.443729,14.924887,-4.163037,-36.325306,3.641765,0.165513,18.428097,19.009302,-57.011578,8064.000000,0.000000,4.000000,,,,0.000000,4.000000,4.000000,4.000000,4.000000,4.000000,4.000000,4.000000,4.000000,4.000000,4.000000,4.000000,4.000000,4.000000,4.000000,4.000000,4.000000,4.000000,4.000000,4.000000,4.000000,4.000000,4.000000,4.000000,4.000000,4.000000,4.000000,4.000000,4.000000,4.000000,4.000000,4.000000,4.000000,100.000000
1614735714.694676,111.000000,0.000000,-0.458388,-10.196569,-58.450378,-18.430904,-14.964356,-9.565553,-6.439815,-9.458681,-13.122180,-26.895628,13.189410,5.666004,3.433958,17.609789,6.458478,-109.050179,6.359802,21.385136,-19.183079,-29.456970,13.206758,7.549097,28.239069,18.345362,-5.602858,-2.620413,-21.930008,4.150944,0.165348,17.384027,9.246704,-57.467388,8064.000000,0.000000,4.000000,,,,0.000000,4.000000,4.000000,4.000000,4.000000,4.000000,4.000000,4.000000,4.000000,4.000000,4.000000,4.000000,4.000000,4.000000,4.000000,4.000000,4.000000,4.000000,4.000000,4.000000,4.000000,4.000000,4.000000,4.000000,4.000000,4.000000,4.000000,4.000000,4.000000,4.000000,4.000000,4.000000,4.000000,100.000000
1614735714.702425,112.000000,0.000000,-0.457930,-9.673552,-74.289368,-18.925293,-14.949391,-10.068808,-5.920555,-10.987684,-19.775724,-48.407192,14.201862,6.685979,3.943345,18.105000,5.939199,-104.325745,6.353442,22.389393,-20.702358,-40.196743,9.603807,8.054368,24.621086,5.506504,-8.161358,-3.130613,-19.343975,1.582690,-1.886100,17.366644,4.622073,-58.435562,8064.000000,0.000000,4.000000,,,,0.000000,4.000000,4.000000,4.000000,4.000000,4.000000,4.000000,4.000000,4.000000,4.000000,4.000000,4.000000,4.000000,4.000000,4.000000,4.000000,4.000000,4.000000,4.000000,4.000000,4.000000,4.000000,4.000000,4.000000,4.000000,4.000000,4.000000,4.000000,4.000000,4.000000,4.000000,4.000000,4.000000,100.000000
1614735714.710075,113.000000,0.000000,-0.457472,-9.663878,-95.240715,-18.906368,-15.960083,-10.058739,-6.427454,-14.053619,-22.832872,-43.230579,10.597917,4.628011,3.939401,11.420228,4.907619,-107.298340,5.321447,20.828541,-23.758577,-54.515522,4.978819,8.046313,10.237491,-4.242592,-8.153196,-3.127482,-30.606682,0.042646,-3.422675,17.862097,7.694374,-56.838665,8064.000000,0.000000,4.000000,,,,0.000000,4.000000,4.000000,4.000000,4.000000,4.000000,4.000000,4.000000,4.000000,4.000000,4.000000,4.000000,4.000000,4.000000,4.000000,4.000000,4.000000,4.000000,4.000000,4.000000,4.000000,4.000000,4.000000,4.000000,4.000000,4.000000,4.000000,4.000000,4.000000,4.000000,4.000000,4.000000,4.000000,100.000000
1614735714.717824,114.000000,0.000000,-0.457014,-9.654215,-78.222397,-17.349001,-12.354380,-9.023039,-6.933847,-14.039566,-8.451065,-13.443761,-0.694733,-2.043284,3.422642,2.178039,4.389891,-117.960274,6.341767,16.705149,-37.580975,-61.127674,-0.154365,8.038267,3.560586,-4.238350,-11.221967,-2.611534,-30.576075,0.555424,-3.419253,16.818594,8.199500,-56.269005,8064.000000,0.000000,4.000000,,,,0.000000,4.000000,4.000000,4.000000,4.000000,4.000000,4.000000,4.000000,4.000000,4.000000,4.000000,4.000000,4.000000,4.000000,4.000000,4.000000,4.000000,4.000000,4.000000,4.000000,4.000000,4.000000,4.000000,4.000000,4.000000,4.000000,4.000000,4.000000,4.000000,4.000000,4.000000,4.000000,4.000000,100.000000
1614735714.725473,115.000000,0.000000,0.056263,-9.644560,-64.810844,-15.793190,-8.752282,-9.526836,-6.414093,-13.512706,-4.852870,-16.507240,-9.411986,-6.143805,3.419219,-0.901062,-8.435012,-131.688461,5.309784,2.842290,-59.594673,-74.399879,-4.256775,5.978947,7.146769,-12.952060,-5.569719,-3.121743,-24.904474,1.067689,-3.415833,14.237674,8.191300,-66.981964,8064.000000,0.000000,4.000000,,,,0.000000,4.000000,4.000000,4.000000,4.000000,4.000000,4.000000,4.000000,4.000000,4.000000,4.000000,4.000000,4.000000,4.000000,4.000000,4.000000,4.000000,4.000000,4.000000,4.000000,4.000000,4.000000,4.000000,4.000000,4.000000,4.000000,4.000000,4.000000,4.000000,4.000000,4.000000,4.000000,4.000000,100.000000
1614735714.733223,116.000000,0.000000,-1.482255,-9.634915,-88.848595,-16.803038,-10.794811,-10.542951,-6.407679,-14.012013,-18.694172,-42.644581,-23.248728,-9.727405,3.415800,-11.156571,-35.606064,-155.146515,-0.849372,-23.827219,-79.535080,-98.428040,-10.919185,3.921686,3.549879,-32.939110,-16.846201,-5.682724,-43.853928,0.040980,-3.412417,11.659333,4.593365,-75.632935,8064.000000,0.000000,4.000000,,,,0.000000,4.000000,4.000000,4.000000,4.000000,4.000000,4.000000,4.000000,4.000000,4.000000,4.000000,4.000000,4.000000,4.000000,4.000000,4.000000,4.000000,4.000000,4.000000,4.000000,4.000000,4.000000,4.000000,4.000000,4.000000,4.000000,4.000000,4.000000,4.000000,4.000000,4.000000,4.000000,4.000000,100.000000
1614735714.740872,117.000000,0.000000,-4.044875,-9.625280,-101.067436,-18.837517,-10.784017,-5.917023,-7.426912,-14.510822,-23.803682,-48.755779,-39.635735,-15.871523,3.412384,-21.914646,-56.596100,-180.119583,-5.976727,-43.803391,-94.840157,-110.124489,-15.523650,3.404944,-3.120338,-44.188221,-40.419098,-6.702682,-60.733150,0.553760,-3.409005,10.109212,-5.667638,-68.377815,8064.000000,0.000000,4.000000,,,,0.000000,4.000000,4.000000,4.000000,4.000000,4.000000,4.000000,4.000000,4.000000,4.000000,4.000000,4.000000,4.000000,4.000000,4.000000,4.000000,4.000000,4.000000,4.000000,4.000000,4.000000,4.000000,4.000000,4.000000,4.000000,4.000000,4.000000,4.000000,4.000000,4.000000,4.000000,4.000000,4.000000,100.000000
1614735714.748622,118.000000,0.000000,-4.553650,-9.615656,-88.658676,-19.331499,-5.132207,1.268381,-4.855383,-12.445029,-19.677315,-45.630100,-38.570461,-14.830010,3.921792,-15.226065,-61.154888,-187.118942,-5.970751,-45.298050,-100.899170,-109.501541,-16.020947,4.427180,-4.142859,-39.015827,-35.250473,-6.183159,-43.236519,1.066027,-3.405596,10.099103,-14.892740,-65.232513,8064.000000,0.000000,4.000000,,,,0.000000,4.000000,4.000000,4.000000,4.000000,4.000000,4.000000,4.000000,4.000000,4.000000,4.000000,4.000000,4.000000,4.000000,4.000000,4.000000,4.000000,4.000000,4.000000,4.000000,4.000000,4.000000,4.000000,4.000000,4.000000,4.000000,4.000000,4.000000,4.000000,4.000000,4.000000,4.000000,4.000000,100.000000
1614735714.756271,119.000000,0.000000,-4.036276,-9.606040,-86.005920,-16.235245,-3.075793,0.754292,2.328959,-10.894123,-20.683277,-44.558830,-20.070351,-5.584411,3.405050,-1.364684,-53.914246,-172.060028,-4.939139,-30.893778,-89.003395,-104.776657,-15.492105,4.422752,-7.728459,-25.130657,-23.933172,-7.715437,-27.295849,-0.473501,-3.402190,10.089004,-15.390668,-76.449333,8064.000000,0.000000,4.000000,,,,0.000000,4.000000,4.000000,4.000000,4.000000,4.000000,4.000000,4.000000,4.000000,4.000000,4.000000,4.000000,4.000000,4.000000,4.000000,4.000000,4.000000,4.000000,4.000000,4.000000,4.000000,4.000000,4.000000,4.000000,4.000000,4.000000,4.000000,4.000000,4.000000,4.000000,4.000000,4.000000,4.000000,100.000000
1614735714.764120,120.000000,0.000000,-4.032240,-9.596434,-84.381454,-10.065164,-3.072717,-2.836206,5.403553,-9.857588,-21.688236,-33.232220,-4.665665,-1.476263,3.914465,3.252065,-39.501358,-145.734131,-5.447021,-8.298781,-59.170803,-80.056496,-5.733024,3.905509,-9.772013,-7.156809,-38.781033,-10.271825,-41.627525,-3.037130,-3.398788,10.078915,-13.323995,-83.552368,8064.000000,0.000000,4.000000,,,,0.000000,4.000000,4.000000,4.000000,4.000000,4.000000,4.000000,4.000000,4.000000,4.000000,4.000000,4.000000,4.000000,4.000000,4.000000,4.000000,4.000000,4.000000,4.000000,4.000000,4.000000,4.000000,4.000000,4.000000,4.000000,4.000000,4.000000,4.000000,4.000000,4.000000,4.000000,4.000000,4.000000,100.000000
1614735714.771869,121.000000,0.000000,-4.028208,-9.586838,-76.091942,-4.414073,-1.018362,-1.807729,4.885330,-9.847730,-21.666548,-20.378475,0.980027,-1.474786,4.423371,5.300095,-28.692625,-122.511467,-3.390291,8.632594,-28.855221,-49.720028,9.144504,3.901604,-1.044292,9.773425,-36.690971,-10.261553,-52.355129,-3.034093,-3.395390,10.581656,-15.874773,-83.981636,8064.000000,0.000000,4.000000,,,,0.000000,4.000000,4.000000,4.000000,4.000000,4.000000,4.000000,4.000000,4.000000,4.000000,4.000000,4.000000,4.000000,4.000000,4.000000,4.000000,4.000000,4.000000,4.000000,4.000000,4.000000,4.000000,4.000000,4.000000,4.000000,4.000000,4.000000,4.000000,4.000000,4.000000,4.000000,4.000000,4.000000,100.000000
1614735714.779719,122.000000,0.000000,-4.024180,-9.577250,-85.246620,-4.922480,-1.530164,-2.318742,4.880445,-11.889165,-21.132061,-19.845276,1.491867,-3.524594,0.829204,6.320436,-28.151112,-118.286392,-0.309978,5.034218,-26.262262,-51.208767,10.673821,4.923343,4.597778,11.302114,-5.372228,-11.276932,-48.713032,-2.518238,-3.391994,10.058254,-19.961462,-81.846375,8064.000000,0.000000,4.000000,,,,0.000000,4.000000,4.000000,4.000000,4.000000,4.000000,4.000000,4.000000,4.000000,4.000000,4.000000,4.000000,4.000000,4.000000,4.000000,4.000000,4.000000,4.000000,4.000000,4.000000,4.000000,4.000000,4.000000,4.000000,4.000000,4.000000,4.000000,4.000000,4.000000,4.000000,4.000000,4.000000,4.000000,100.000000
1614735714.787468,123.000000,0.000000,-4.020155,-9.567674,-92.853676,-7.481659,-3.579916,-5.393346,3.849923,-16.492661,-20.085287,-23.415174,-0.048086,-8.136454,-3.274189,3.237192,-28.635782,-126.886055,-2.873771,-4.201585,-44.697540,-65.003716,0.406737,1.841497,2.541898,-4.093804,-4.341215,-13.829758,-51.228420,-4.054182,-3.388602,5.945632,-21.992783,-77.149139,8064.000000,0.000000,4.000000,,,,0.000000,4.000000,4.000000,4.000000,4.000000,4.000000,4.000000,4.000000,4.000000,4.000000,4.000000,4.000000,4.000000,4.000000,4.000000,4.000000,4.000000,4.000000,4.000000,4.000000,4.000000,4.000000,4.000000,4.000000,4.000000,4.000000,4.000000,4.000000,4.000000,4.000000,4.000000,4.000000,4.000000,100.000000
1614735714.795317,124.000000,0.000000,-4.016135,-9.558105,-80.965958,-7.986999,-5.627618,-6.413594,1.281970,-18.014629,-23.142124,-23.904581,-2.099320,-8.641138,-4.296556,2.208314,-23.478941,-128.297638,-10.050384,-2.658922,-53.883610,-67.502815,-8.824439,-5.339832,0.488074,-17.423044,-33.567642,-14.328749,-56.818218,-6.101409,-3.385213,2.862763,-21.457970,-86.302765,8064.000000,0.000000,4.000000,,,,0.000000,4.000000,4.000000,4.000000,4.000000,4.000000,4.000000,4.000000,4.000000,4.000000,4.000000,4.000000,4.000000,4.000000,4.000000,4.000000,4.000000,4.000000,4.000000,4.000000,4.000000,4.000000,4.000000,4.000000,4.000000,4.000000,4.000000,4.000000,4.000000,4.000000,4.000000,4.000000,4.000000,100.000000
1614735714.803067,125.000000,0.000000,-4.012119,-10.061368,-86.013191,-7.466191,-10.750196,-5.894360,1.280688,-16.970974,-28.247189,-23.367855,-10.302349,-9.658137,-3.779439,2.718926,-25.506744,-130.733444,-13.117257,-7.784469,-59.470753,-79.743004,-18.559204,-7.898595,-7.204721,-18.944082,-39.687920,-13.801600,-55.222939,-7.120949,-3.381828,2.859900,-21.436512,-98.524155,8064.000000,0.000000,4.000000,,,,0.000000,4.000000,4.000000,4.000000,4.000000,4.000000,4.000000,4.000000,4.000000,4.000000,4.000000,4.000000,4.000000,4.000000,4.000000,4.000000,4.000000,4.000000,4.000000,4.000000,4.000000,4.000000,4.000000,4.000000,4.000000,4.000000,4.000000,4.000000,4.000000,4.000000,4.000000,4.000000,4.000000,100.000000
1614735714.810916,126.000000,0.000000,-4.008107,-9.025665,-103.875900,-7.971545,-11.252266,-5.888465,-1.284695,-17.466824,-26.680479,-24.370129,-26.189484,-19.392069,-6.339762,-8.053023,-40.865852,-150.602707,-13.104139,-27.263863,-80.436920,-101.201721,-28.797056,-6.865055,-18.992388,-17.899498,-29.391823,-13.787798,-50.039509,-6.601007,-3.891267,2.857041,-21.927896,-86.117935,8064.000000,0.000000,4.000000,,,,0.000000,4.000000,4.000000,4.000000,4.000000,4.000000,4.000000,4.000000,4.000000,4.000000,4.000000,4.000000,4.000000,4.000000,4.000000,4.000000,4.000000,4.000000,4.000000,4.000000,4.000000,4.000000,4.000000,4.000000,4.000000,4.000000,4.000000,4.000000,4.000000,4.000000,4.000000,4.000000,4.000000,100.000000
1614735714.818665,127.000000,0.000000,-4.004099,-6.452538,-93.002792,-7.963574,-5.599988,-5.882576,-6.411615,-17.962177,-21.525595,-30.499605,-39.496628,-27.064985,-9.410345,-26.506510,-55.696781,-171.477737,-13.603856,-39.031471,-96.766747,-106.741547,-30.306721,-6.858190,-22.563139,-19.932880,-28.849611,-13.261189,-49.989471,-6.594407,-2.861735,2.854184,-20.367506,-69.108742,8064.000000,0.000000,4.000000,,,,0.000000,4.000000,4.000000,4.000000,4.000000,4.000000,4.000000,4.000000,4.000000,4.000000,4.000000,4.000000,4.000000,4.000000,4.000000,4.000000,4.000000,4.000000,4.000000,4.000000,4.000000,4.000000,4.000000,4.000000,4.000000,4.000000,4.000000,4.000000,4.000000,4.000000,4.000000,4.000000,4.000000,100.000000
1614735714.826514,0.000000,0.000000,-4.000095,-5.420444,-79.576454,-7.442790,-4.568748,-5.876694,-7.430845,-16.918573,-20.478428,-41.238335,-42.534054,-25.499458,-10.426576,-33.659489,-57.692368,-173.870361,-13.077432,-36.941158,-95.644333,-103.557877,-27.712311,-7.364152,-22.540577,-20.425768,-25.743837,-13.760749,-57.118969,-7.100633,-0.294770,3.364150,-21.885601,-78.783218,0.000000,186.000000,4.000000,,,,0.000000,4.000000,4.000000,4.000000,4.000000,4.000000,4.000000,4.000000,4.000000,4.000000,4.000000,4.000000,4.000000,4.000000,4.000000,4.000000,4.000000,4.000000,4.000000,4.000000,4.000000,4.000000,4.000000,4.000000,4.000000,4.000000,4.000000,4.000000,4.000000,4.000000,4.000000,4.000000,4.000000,100.000000
1614735714.834264,1.000000,0.000000,-3.996095,-5.927844,-92.830215,-8.460988,-7.128281,-5.870817,-6.397773,-17.927296,-21.483589,-45.812481,-41.978699,-24.448318,-11.441791,-32.087368,-54.044930,-172.158035,-12.551534,-36.391396,-94.523048,-104.992783,-26.658957,-7.356788,-21.492395,-18.866880,-14.948864,-13.234167,-55.010567,-6.580711,-0.807296,2.335145,-21.350895,-92.037773,0.000000,200.000000,4.000000,,,,0.000000,4.000000,4.000000,4.000000,4.000000,4.000000,4.000000,4.000000,4.000000,4.000000,4.000000,4.000000,4.000000,4.000000,4.000000,4.000000,4.000000,4.000000,4.000000,4.000000,4.000000,4.000000,4.000000,4.000000,4.000000,4.000000,4.000000,4.000000,4.000000,4.000000,4.000000,4.000000,4.000000,100.000000
1614735714.842113,2.000000,0.000000,-3.992099,-5.409096,-102.480972,-11.016629,-7.633974,-5.864946,-6.904196,-20.473471,-20.436464,-39.612823,-36.808514,-24.936689,-11.943170,-34.106564,-56.554989,-174.037155,-14.077443,-36.355003,-91.351601,-96.682663,-22.016914,-6.836611,-15.317057,-18.848013,-12.882633,-12.708113,-36.494019,-6.574131,-2.857771,3.358451,-15.175697,-85.279068,0.000000,170.000000,4.000000,,,,0.000000,4.000000,4.000000,4.000000,4.000000,4.000000,4.000000,4.000000,4.000000,4.000000,4.000000,4.000000,4.000000,4.000000,4.000000,4.000000,4.000000,4.000000,4.000000,4.000000,4.000000,4.000000,4.000000,4.000000,4.000000,4.000000,4.000000,4.000000,4.000000,4.000000,4.000000,4.000000,4.000000,100.000000
1614735714.849862,3.000000,0.000000,-3.988107,-6.942148,-97.250282,-12.031254,-8.651980,-5.859082,-6.897291,-20.965818,-20.416029,-30.855261,-20.361450,-14.142523,-7.828662,-23.816046,-54.959972,-160.529785,-9.447982,-27.087881,-74.337173,-78.637260,-10.200025,-6.316954,-11.199176,-19.341986,-17.485134,-17.310789,-36.457523,-6.567557,-3.367733,3.867913,-16.698984,-79.552765,0.000000,192.000000,4.000000,,,,0.000000,4.000000,4.000000,4.000000,4.000000,4.000000,4.000000,4.000000,4.000000,4.000000,4.000000,4.000000,4.000000,4.000000,4.000000,4.000000,4.000000,4.000000,4.000000,4.000000,4.000000,4.000000,4.000000,4.000000,4.000000,4.000000,4.000000,4.000000,4.000000,4.000000,4.000000,4.000000,4.000000,100.000000
1614735714.857711,4.000000,0.000000,-3.984118,-8.986488,-95.101753,-11.506402,-10.694611,-5.853222,-4.326292,-18.380749,-20.395613,-28.773125,0.684553,6.384440,0.384295,3.387257,-33.879372,-135.241058,1.843518,-11.163357,-56.826939,-62.661190,-0.446235,-7.849098,-9.136694,-11.630336,-16.442009,-26.011427,-58.985168,-6.048169,-4.902827,-3.315442,-26.938694,-90.242439,0.000000,197.000000,4.000000,,,,0.000000,4.000000,4.000000,4.000000,4.000000,4.000000,4.000000,4.000000,4.000000,4.000000,4.000000,4.000000,4.000000,4.000000,4.000000,4.000000,4.000000,4.000000,4.000000,4.000000,4.000000,4.000000,4.000000,4.000000,4.000000,4.000000,4.000000,4.000000,4.000000,4.000000,4.000000,4.000000,4.000000,100.000000
1614735714.865461,5.000000,0.000000,-3.980134,-9.490322,-94.493828,-11.494896,-11.196736,-5.847369,-2.270683,-16.823908,-20.888037,-21.052044,16.068483,19.711390,4.486475,21.845407,-4.614722,-117.669914,6.969880,5.258063,-46.513702,-49.265194,3.656775,-5.789967,-2.460891,6.330012,-11.810182,-29.575159,-61.490288,-3.990838,-6.949207,-8.440332,-28.963037,-97.844505,0.000000,200.000000,4.000000,,,,0.000000,4.000000,4.000000,4.000000,4.000000,4.000000,4.000000,4.000000,4.000000,4.000000,4.000000,4.000000,4.000000,4.000000,4.000000,4.000000,4.000000,4.000000,4.000000,4.000000,4.000000,4.000000,4.000000,4.000000,4.000000,4.000000,4.000000,4.000000,4.000000,4.000000,4.000000,4.000000,4.000000,100.000000
1614735714.873310,6.000000,0.000000,-3.976154,-9.480831,-89.271133,-11.483400,-11.698360,-5.841522,-2.781233,-17.319904,-20.354328,-12.313043,21.693441,20.204498,3.969168,22.336384,8.210405,-110.885582,5.424448,14.483574,-35.697960,-41.523621,4.678760,-0.655972,4.208237,16.580093,-15.388115,-27.494303,-45.018539,-2.961206,-7.455078,-3.303687,-22.267408,-88.003075,0.000000,172.000000,4.000000,,,,0.000000,4.000000,4.000000,4.000000,4.000000,4.000000,4.000000,4.000000,4.000000,4.000000,4.000000,4.000000,4.000000,4.000000,4.000000,4.000000,4.000000,4.000000,4.000000,4.000000,4.000000,4.000000,4.000000,4.000000,4.000000,4.000000,4.000000,4.000000,4.000000,4.000000,4.000000,4.000000,4.000000,100.000000
1614735714.881059,7.000000,0.000000,-3.972178,-9.471351,-88.156219,-11.471917,-10.661021,-5.835680,-2.778452,-17.302584,-20.333975,-25.121243,15.517901,14.030448,3.965199,16.673021,2.048349,-110.774696,5.419024,13.443450,-31.046877,-48.148766,2.109978,-1.168137,5.742490,10.922486,-23.065035,-25.415525,-47.537624,-3.471066,-6.934803,-2.274742,-21.219500,-79.709938,0.000000,175.000000,4.000000,,,,0.000000,4.000000,4.000000,4.000000,4.000000,4.000000,4.000000,4.000000,4.000000,4.000000,4.000000,4.000000,4.000000,4.000000,4.000000,4.000000,4.000000,4.000000,4.000000,4.000000,4.000000,4.000000,4.000000,4.000000,4.000000,4.000000,4.000000,4.000000,4.000000,4.000000,4.000000,4.000000,4.000000,100.000000
1614735714.888709,8.000000,0.000000,-3.968206,-9.461880,-89.093704,-11.460445,-10.650360,-5.829844,-2.775673,-16.772461,-22.364923,-38.942276,5.758793,5.811289,4.474054,9.476861,-11.287033,-117.843407,6.439246,9.840262,-39.220959,-59.382668,-3.020337,-6.295174,4.711106,3.219257,-14.324021,-24.364470,-63.387524,-2.441954,-6.927867,-8.426313,-20.685459,-86.809715,0.000000,176.000000,4.000000,,,,0.000000,4.000000,4.000000,4.000000,4.000000,4.000000,4.000000,4.000000,4.000000,4.000000,4.000000,4.000000,4.000000,4.000000,4.000000,4.000000,4.000000,4.000000,4.000000,4.000000,4.000000,4.000000,4.000000,4.000000,4.000000,4.000000,4.000000,4.000000,4.000000,4.000000,4.000000,4.000000,4.000000,100.000000
1614735714.896458,9.000000,0.000000,-3.964238,-9.452417,-86.953331,-11.448985,-17.306376,-5.824015,-2.772898,-17.268509,-24.393841,-28.646923,0.112009,-1.886830,2.931118,4.851999,-24.609079,-123.366585,5.919986,5.727858,-45.335583,-61.374565,-4.555778,-5.263237,0.091011,0.651935,6.203124,-23.827284,-63.836956,-2.952332,-6.920939,-6.366605,-16.562210,-92.363930,0.000000,177.000000,4.000000,,,,0.000000,4.000000,4.000000,4.000000,4.000000,4.000000,4.000000,4.000000,4.000000,4.000000,4.000000,4.000000,4.000000,4.000000,4.000000,4.000000,4.000000,4.000000,4.000000,4.000000,4.000000,4.000000,4.000000,4.000000,4.000000,4.000000,4.000000,4.000000,4.000000,4.000000,4.000000,4.000000,4.000000,100.000000
1614735714.904107,10.000000,0.000000,-3.960274,-9.442966,-91.481758,-11.437536,-20.878813,-5.818191,-3.282945,-17.764061,-24.369446,-32.720840,-7.067590,-6.500328,3.953828,0.231763,-31.763958,-129.397064,5.401245,-1.457357,-43.751785,-61.313190,-4.038402,-2.181051,-2.986003,-2.425640,3.632818,-24.316277,-39.670555,-2.949380,-6.914019,2.357710,-17.058468,-88.681824,0.000000,204.000000,4.000000,,,,0.000000,4.000000,4.000000,4.000000,4.000000,4.000000,4.000000,4.000000,4.000000,4.000000,4.000000,4.000000,4.000000,4.000000,4.000000,4.000000,4.000000,4.000000,4.000000,4.000000,4.000000,4.000000,4.000000,4.000000,4.000000,4.000000,4.000000,4.000000,4.000000,4.000000,4.000000,4.000000,4.000000,100.000000
1614735714.911857,11.000000,0.000000,-3.956313,-9.433522,-99.595406,-11.938919,-13.165627,-5.812373,-2.766842,-17.746296,-24.857897,-57.816322,-18.342573,-9.057930,3.949874,-12.076161,-35.321938,-142.600998,4.883024,-6.584105,-48.836239,-63.303162,-5.060005,-3.204511,3.170829,-3.961676,-12.781072,-23.266319,-16.553961,4.233057,-6.907104,3.893814,-16.015770,-87.567505,0.000000,188.000000,4.000000,,,,0.000000,4.000000,4.000000,4.000000,4.000000,4.000000,4.000000,4.000000,4.000000,4.000000,4.000000,4.000000,4.000000,4.000000,4.000000,4.000000,4.000000,4.000000,4.000000,4.000000,4.000000,4.000000,4.000000,4.000000,4.000000,4.000000,4.000000,4.000000,4.000000,4.000000,4.000000,4.000000,4.000000,100.000000
1614735714.919506,12.000000,0.000000,-3.952357,-9.424088,-93.341965,-11.926980,-6.998615,-4.268099,-2.764075,-17.215731,-24.320219,-46.476456,-26.016539,-10.587334,-1.695101,-22.320496,-38.876358,-149.125076,5.903781,-7.090341,-57.505352,-67.855240,-4.029304,-3.714127,7.783042,-4.470535,-4.050342,-20.678951,-23.204073,11.408311,-4.848916,2.864279,-7.281805,-86.454292,0.000000,193.000000,4.000000,,,,0.000000,4.000000,4.000000,4.000000,4.000000,4.000000,4.000000,4.000000,4.000000,4.000000,4.000000,4.000000,4.000000,4.000000,4.000000,4.000000,4.000000,4.000000,4.000000,4.000000,4.000000,4.000000,4.000000,4.000000,4.000000,4.000000,4.000000,4.000000,4.000000,4.000000,4.000000,4.000000,4.000000,100.000000
1614735714.927255,13.000000,0.000000,-3.948405,-9.414664,-81.453751,-11.402232,-7.504437,-2.212548,-3.274132,-17.711334,-19.680513,-17.712030,-33.682831,-10.576746,-3.744688,-21.785355,-42.427227,-150.514404,5.385057,-6.057610,-61.037590,-77.530975,-3.512454,-2.684772,5.211157,-17.286577,9.287042,-19.632631,-41.642406,9.345620,-2.792785,3.374236,-6.761703,-84.316559,0.000000,206.000000,4.000000,,,,0.000000,4.000000,4.000000,4.000000,4.000000,4.000000,4.000000,4.000000,4.000000,4.000000,4.000000,4.000000,4.000000,4.000000,4.000000,4.000000,4.000000,4.000000,4.000000,4.000000,4.000000,4.000000,4.000000,4.000000,4.000000,4.000000,4.000000,4.000000,4.000000,4.000000,4.000000,4.000000,4.000000,100.000000
1614735714.934905,14.000000,0.000000,-3.944456,-9.405250,-83.936401,-11.390830,-7.496933,-2.210336,-1.219575,-17.693623,-17.096731,-29.489191,-39.802994,-10.053349,1.900082,-21.763569,-45.461723,-158.569016,2.302749,-7.077193,-60.463730,-84.120110,-5.560223,-3.194908,4.693125,-26.500059,-5.081220,-23.202742,-39.036663,4.208070,-3.302812,1.832400,-21.626736,-90.898911,0.000000,201.000000,4.000000,,,,0.000000,4.000000,4.000000,4.000000,4.000000,4.000000,4.000000,4.000000,4.000000,4.000000,4.000000,4.000000,4.000000,4.000000,4.000000,4.000000,4.000000,4.000000,4.000000,4.000000,4.000000,4.000000,4.000000,4.000000,4.000000,4.000000,4.000000,4.000000,4.000000,4.000000,4.000000,4.000000,4.000000,100.000000
1614735714.942654,15.000000,0.000000,-3.940512,-9.395844,-92.057594,-11.379439,-8.002256,-2.208126,3.397029,-12.547725,-20.156557,-45.357140,-28.481138,-6.966372,3.436644,-17.126421,-41.826515,-155.846344,2.813267,-6.044475,-56.813526,-79.420609,-0.426458,-2.678892,4.688432,-11.601765,-18.922293,-27.794924,-40.023266,3.691041,-3.299510,-0.733535,-32.374340,-101.064423,0.000000,196.000000,4.000000,,,,0.000000,4.000000,4.000000,4.000000,4.000000,4.000000,4.000000,4.000000,4.000000,4.000000,4.000000,4.000000,4.000000,4.000000,4.000000,4.000000,4.000000,4.000000,4.000000,4.000000,4.000000,4.000000,4.000000,4.000000,4.000000,4.000000,4.000000,4.000000,4.000000,4.000000,4.000000,4.000000,4.000000,100.000000
1614735714.950304,16.000000,0.000000,-3.936571,-9.386449,-91.452713,-5.214214,-5.942972,-2.205918,4.932094,-6.381331,-20.649221,-18.645113,-6.914196,1.245722,4.458848,0.326603,-28.451357,-134.152039,7.938659,-3.474328,-50.602863,-72.674522,9.317558,-0.624931,3.658103,4.307272,-11.211062,-28.279949,-58.957603,5.225811,-3.296210,-1.245622,-32.854786,-103.014641,0.000000,203.000000,4.000000,,,,0.000000,4.000000,4.000000,4.000000,4.000000,4.000000,4.000000,4.000000,4.000000,4.000000,4.000000,4.000000,4.000000,4.000000,4.000000,4.000000,4.000000,4.000000,4.000000,4.000000,4.000000,4.000000,4.000000,4.000000,4.000000,4.000000,4.000000,4.000000,4.000000,4.000000,4.000000,4.000000,4.000000,100.000000
1614735714.958053,17.000000,0.000000,-3.932635,-9.377063,-87.258698,2.483308,1.242458,-2.203712,4.414341,-5.349308,-17.551649,3.937634,2.323487,8.936784,12.659517,13.659610,-16.115213,-122.735840,9.469182,-1.932392,-47.475338,-72.089027,8.795421,1.426976,9.808290,2.251683,-8.635749,-27.226028,-58.385826,4.707765,-3.292914,-0.731556,-31.283470,-100.860344,0.000000,191.000000,4.000000,,,,0.000000,4.000000,4.000000,4.000000,4.000000,4.000000,4.000000,4.000000,4.000000,4.000000,4.000000,4.000000,4.000000,4.000000,4.000000,4.000000,4.000000,4.000000,4.000000,4.000000,4.000000,4.000000,4.000000,4.000000,4.000000,4.000000,4.000000,4.000000,4.000000,4.000000,4.000000,4.000000,4.000000,100.000000
1614735714.965702,18.000000,0.000000,-3.928702,-9.367685,-86.658615,2.480825,2.779677,-2.201508,5.948388,-7.395241,-16.508455,-12.989381,0.269881,7.389386,13.159678,12.620309,-13.022175,-125.177200,6.382789,-2.443280,-47.427864,-72.529755,-0.956965,-0.112913,8.772841,-1.340312,-20.934805,-28.224443,-46.532566,1.113314,-2.776800,-0.218004,-31.765007,-101.785118,0.000000,219.000000,4.000000,,,,0.000000,4.000000,4.000000,4.000000,4.000000,4.000000,4.000000,4.000000,4.000000,4.000000,4.000000,4.000000,4.000000,4.000000,4.000000,4.000000,4.000000,4.000000,4.000000,4.000000,4.000000,4.000000,4.000000,4.000000,4.000000,4.000000,4.000000,4.000000,4.000000,4.000000,4.000000,4.000000,4.000000,100.000000
1614735714.973452,19.000000,0.000000,-3.924773,-9.358317,-88.623238,-1.624220,-4.915410,-2.199306,2.352696,-9.951948,-17.004768,-34.514854,2.320894,1.228150,3.402929,10.043587,-14.034793,-121.462280,5.350766,-1.928016,-47.893257,-71.431587,-5.058572,-4.728185,-7.133367,1.225131,-23.990793,-28.196218,-62.896290,-2.990364,-3.799664,-1.756247,-32.758881,-102.196159,0.000000,224.000000,4.000000,,,,0.000000,4.000000,4.000000,4.000000,4.000000,4.000000,4.000000,4.000000,4.000000,4.000000,4.000000,4.000000,4.000000,4.000000,4.000000,4.000000,4.000000,4.000000,4.000000,4.000000,4.000000,4.000000,4.000000,4.000000,4.000000,4.000000,4.000000,4.000000,4.000000,4.000000,4.000000,4.000000,4.000000,100.000000
1614735714.981101,20.000000,0.000000,-3.920849,-9.348959,-90.073082,-3.673878,-8.500238,-2.197107,-6.367605,-12.506099,-16.474943,-34.480339,1.292932,-2.362822,-1.215859,9.007902,-17.097681,-119.802361,5.345415,-1.926088,-47.845364,-71.360153,-3.515052,-7.287559,-15.331362,-0.314556,-14.736033,-25.091101,-74.115448,-3.500194,-3.283044,-0.216030,-29.649200,-101.068321,0.000000,187.000000,4.000000,,,,0.000000,4.000000,4.000000,4.000000,4.000000,4.000000,4.000000,4.000000,4.000000,4.000000,4.000000,4.000000,4.000000,4.000000,4.000000,4.000000,4.000000,4.000000,4.000000,4.000000,4.000000,4.000000,4.000000,4.000000,4.000000,4.000000,4.000000,4.000000,4.000000,4.000000,4.000000,4.000000,4.000000,100.000000
1614735714.988850,21.000000,0.000000,-3.916928,-8.826790,-91.008644,-3.670204,-6.953276,-2.194910,-10.976623,-14.032055,-16.458467,-28.804832,-7.939130,-1.847638,0.323819,3.870689,-26.311354,-130.964615,5.852890,-1.924162,-46.259056,-71.288795,-4.024357,-6.767451,-8.649364,-3.391164,-9.593092,-20.963446,-52.502869,-2.983873,-0.715659,4.912392,-18.850321,-100.967255,0.000000,201.000000,4.000000,,,,0.000000,4.000000,4.000000,4.000000,4.000000,4.000000,4.000000,4.000000,4.000000,4.000000,4.000000,4.000000,4.000000,4.000000,4.000000,4.000000,4.000000,4.000000,4.000000,4.000000,4.000000,4.000000,4.000000,4.000000,4.000000,4.000000,4.000000,4.000000,4.000000,4.000000,4.000000,4.000000,4.000000,100.000000
1614735714.996500,22.000000,0.000000,-3.400190,-8.817963,-90.404816,-3.666534,-6.946323,-1.679895,-9.940004,-12.992381,-16.954830,-34.929874,-15.110679,-2.358611,-1.727787,-4.851130,-32.951710,-134.936203,5.847037,-1.409418,-49.289719,-72.243149,-4.533154,-6.760684,-5.563792,-3.900594,-11.634781,-19.916840,-35.014469,-2.980889,-0.202123,5.420300,-16.267368,-100.866287,0.000000,221.000000,4.000000,,,,0.000000,4.000000,4.000000,4.000000,4.000000,4.000000,4.000000,4.000000,4.000000,4.000000,4.000000,4.000000,4.000000,4.000000,4.000000,4.000000,4.000000,4.000000,4.000000,4.000000,4.000000,4.000000,4.000000,4.000000,4.000000,4.000000,4.000000,4.000000,4.000000,4.000000,4.000000,4.000000,4.000000,100.000000
1614735715.004349,23.000000,0.000000,-4.935252,-9.321965,-89.801590,-3.662868,-7.452197,-3.729497,-11.468526,-13.492209,-16.425055,-50.279560,-19.710953,-7.484457,-4.802982,-12.538588,-36.508499,-134.801270,1.738626,-4.997752,-60.009663,-74.735008,-4.528620,-7.779564,-7.609510,-7.999257,-16.238531,-19.896923,-39.082020,-3.490729,-2.766023,0.799495,-31.122894,-100.765419,0.000000,196.000000,4.000000,,,,0.000000,4.000000,4.000000,4.000000,4.000000,4.000000,4.000000,4.000000,4.000000,4.000000,4.000000,4.000000,4.000000,4.000000,4.000000,4.000000,4.000000,4.000000,4.000000,4.000000,4.000000,4.000000,4.000000,4.000000,4.000000,4.000000,4.000000,4.000000,4.000000,4.000000,4.000000,4.000000,4.000000,100.000000
1614735715.012098,24.000000,0.000000,-6.981598,-8.799823,-93.301537,-7.248948,-8.470387,-5.777050,-14.021160,-17.068460,-18.459911,-57.408768,-26.870729,-15.169281,-5.823820,-14.064510,-44.164299,-148.512619,-2.365677,-13.197882,-67.641960,-77.737190,-4.524092,-5.720502,-7.089080,-14.145104,-18.273575,-19.877026,-46.735245,-2.974417,-3.788898,-1.252587,-40.835361,-100.664650,0.000000,191.000000,4.000000,,,,0.000000,4.000000,4.000000,4.000000,4.000000,4.000000,4.000000,4.000000,4.000000,4.000000,4.000000,4.000000,4.000000,4.000000,4.000000,4.000000,4.000000,4.000000,4.000000,4.000000,4.000000,4.000000,4.000000,4.000000,4.000000,4.000000,4.000000,4.000000,4.000000,4.000000,4.000000,4.000000,4.000000,100.000000
1614735715.019948,25.000000,0.000000,-8.000257,-8.278203,-99.874901,-12.882725,-11.026018,-6.284093,-14.007139,-20.641136,-22.544016,-55.812897,-32.484882,-17.718214,-7.869278,-14.050446,-54.376545,-166.312836,-2.363311,-20.876991,-69.112778,-79.710739,-4.006747,-3.150679,-6.569170,-15.156600,-17.229660,-21.908432,-49.252609,-2.971443,-2.759468,-2.276975,-36.179142,-103.128090,0.000000,202.000000,4.000000,,,,0.000000,4.000000,4.000000,4.000000,4.000000,4.000000,4.000000,4.000000,4.000000,4.000000,4.000000,4.000000,4.000000,4.000000,4.000000,4.000000,4.000000,4.000000,4.000000,4.000000,4.000000,4.000000,4.000000,4.000000,4.000000,4.000000,4.000000,4.000000,4.000000,4.000000,4.000000,4.000000,4.000000,100.000000
1614735715.027697,26.000000,0.000000,-7.479437,-11.346848,-101.826309,-15.433945,-11.527813,-5.764988,-14.505953,-21.133316,-24.572754,-53.705803,-33.990860,-15.649214,-7.861409,-16.087677,-57.399094,-172.300369,-2.360948,-26.497141,-71.094948,-79.631027,-4.515561,-3.660349,-6.562601,-16.167084,-18.238071,-23.937805,-44.587975,-2.968472,-3.269529,-4.325980,-34.604500,-106.101883,0.000000,220.000000,4.000000,,,,0.000000,4.000000,4.000000,4.000000,4.000000,4.000000,4.000000,4.000000,4.000000,4.000000,4.000000,4.000000,4.000000,4.000000,4.000000,4.000000,4.000000,4.000000,4.000000,4.000000,4.000000,4.000000,4.000000,4.000000,4.000000,4.000000,4.000000,4.000000,4.000000,4.000000,4.000000,4.000000,4.000000,100.000000
1614735715.035546,27.000000,0.000000,-7.471958,-15.950886,-101.211662,-15.418510,-11.003465,-5.759223,-11.414523,-20.086542,-24.035360,-42.882866,-30.367126,-9.992539,-3.238163,-7.866461,-47.598103,-168.538315,-2.871408,-22.880899,-67.434113,-75.448830,-4.511045,-2.118227,-6.556038,-14.612455,-19.245474,-25.965149,-50.697231,-2.965503,-3.266260,-4.321654,-41.749386,-107.534248,0.000000,199.000000,4.000000,,,,0.000000,4.000000,4.000000,4.000000,4.000000,4.000000,4.000000,4.000000,4.000000,4.000000,4.000000,4.000000,4.000000,4.000000,4.000000,4.000000,4.000000,4.000000,4.000000,4.000000,4.000000,4.000000,4.000000,4.000000,4.000000,4.000000,4.000000,4.000000,4.000000,4.000000,4.000000,4.000000,4.000000,100.000000
1614735715.043295,28.000000,0.000000,-7.464486,-17.473396,-103.674553,-15.403092,-10.992461,-5.753464,-2.685160,-20.579275,-24.011326,-24.891264,-14.439322,-0.751777,1.893280,10.090123,-32.165890,-152.472351,5.849412,-11.063148,-56.597443,-68.706718,-0.403970,2.499276,-7.062303,-2.290151,-9.995460,-28.503286,-69.620895,-3.475358,-3.775814,-6.881435,-37.092251,-111.529274,0.000000,189.000000,4.000000,,,,0.000000,4.000000,4.000000,4.000000,4.000000,4.000000,4.000000,4.000000,4.000000,4.000000,4.000000,4.000000,4.000000,4.000000,4.000000,4.000000,4.000000,4.000000,4.000000,4.000000,4.000000,4.000000,4.000000,4.000000,4.000000,4.000000,4.000000,4.000000,4.000000,4.000000,4.000000,4.000000,4.000000,100.000000
1614735715.051145,29.000000,0.000000,-7.457021,-16.430281,-97.417030,-11.797946,-11.494289,-5.747711,2.445730,-21.071516,-24.500134,-15.122783,6.600758,7.454103,5.481130,17.259520,-27.518339,-126.166023,16.099974,-2.334135,-48.335720,-59.407242,5.750280,5.060879,-3.465497,10.532652,3.860690,-26.936321,-58.782043,-2.446242,-3.259218,-8.413015,-17.055159,-104.238258,0.000000,200.000000,4.000000,,,,0.000000,4.000000,4.000000,4.000000,4.000000,4.000000,4.000000,4.000000,4.000000,4.000000,4.000000,4.000000,4.000000,4.000000,4.000000,4.000000,4.000000,4.000000,4.000000,4.000000,4.000000,4.000000,4.000000,4.000000,4.000000,4.000000,4.000000,4.000000,4.000000,4.000000,4.000000,4.000000,4.000000,100.000000
1614735715.058894,30.000000,0.000000,-7.449564,-16.413851,-80.396538,-5.632301,-10.969975,-5.741963,1.417643,-20.537624,-23.962814,-13.569199,14.799285,9.497931,7.014111,17.242260,-28.516462,-108.091141,16.596695,3.309224,-42.133537,-53.193989,7.795812,4.030177,2.691815,12.573401,3.344009,-22.294001,-34.620697,0.120307,-2.743138,-2.250756,-4.217590,-82.595558,0.000000,203.000000,4.000000,,,,0.000000,4.000000,4.000000,4.000000,4.000000,4.000000,4.000000,4.000000,4.000000,4.000000,4.000000,4.000000,4.000000,4.000000,4.000000,4.000000,4.000000,4.000000,4.000000,4.000000,4.000000,4.000000,4.000000,4.000000,4.000000,4.000000,4.000000,4.000000,4.000000,4.000000,4.000000,4.000000,4.000000,100.000000
1614735715.066743,31.000000,0.000000,-7.442114,-16.910257,-78.777679,-3.062567,-7.882081,-5.736221,1.929046,-19.491446,-23.938850,-18.171015,12.733204,10.001253,8.032738,22.866043,-18.231535,-100.290741,13.503174,10.998223,-32.347813,-51.089512,7.788016,4.538968,5.253225,11.535187,-7.941387,-19.707605,-47.919407,1.145828,-5.304497,-1.222864,-5.239013,-78.410400,0.000000,196.000000,4.000000,,,,0.000000,4.000000,4.000000,4.000000,4.000000,4.000000,4.000000,4.000000,4.000000,4.000000,4.000000,4.000000,4.000000,4.000000,4.000000,4.000000,4.000000,4.000000,4.000000,4.000000,4.000000,4.000000,4.000000,4.000000,4.000000,4.000000,4.000000,4.000000,4.000000,4.000000,4.000000,4.000000,4.000000,100.000000
1614735715.074493,32.000000,0.000000,-7.434672,-16.893347,-91.006592,-3.572325,-6.848558,-5.730484,1.927117,-20.497595,-23.402092,-26.870792,13.233291,9.478432,7.511884,21.817537,-5.392791,-94.549423,12.976851,15.089788,-27.187260,-47.961498,7.780228,4.534429,4.222331,12.036472,-0.753958,-18.662256,-54.025337,0.631861,-6.324834,-3.785744,-5.233774,-88.588402,8064.000000,0.000000,4.000000,,,,0.000000,4.000000,4.000000,4.000000,4.000000,4.000000,4.000000,4.000000,4.000000,4.000000,4.000000,4.000000,4.000000,4.000000,4.000000,4.000000,4.000000,4.000000,4.000000,4.000000,4.000000,4.000000,4.000000,4.000000,4.000000,4.000000,4.000000,4.000000,4.000000,4.000000,4.000000,4.000000,4.000000,100.000000
1614735715.082342,33.000000,0.000000,-7.427238,-14.825172,-79.120712,-3.568752,-7.867351,-5.724754,1.412369,-19.964277,-20.814587,-25.818279,13.732878,8.956133,6.991552,14.616232,-3.848936,-93.942055,12.963874,14.049058,-27.672894,-43.298153,6.746807,4.017074,4.730929,12.537256,21.298079,-16.592312,-22.176437,0.631230,-4.267227,3.397529,-0.100335,-73.628014,8064.000000,0.000000,4.000000,,,,0.000000,4.000000,4.000000,4.000000,4.000000,4.000000,4.000000,4.000000,4.000000,4.000000,4.000000,4.000000,4.000000,4.000000,4.000000,4.000000,4.000000,4.000000,4.000000,4.000000,4.000000,4.000000,4.000000,4.000000,4.000000,4.000000,4.000000,4.000000,4.000000,4.000000,4.000000,4.000000,4.000000,100.000000
1614735715.090091,34.000000,0.000000,-7.419810,-12.759065,-58.528774,-2.539542,-4.269740,-5.719029,1.923778,-13.790467,-19.255310,-15.536052,8.590940,9.972817,8.010201,13.063154,-4.357908,-95.899399,13.976551,14.035009,-26.106760,-45.818958,8.278522,5.038698,5.239019,10.986258,20.763960,-15.550078,-21.128620,1.143419,-2.724498,10.060798,-0.613055,-56.631310,8064.000000,0.000000,4.000000,,,,0.000000,4.000000,4.000000,4.000000,4.000000,4.000000,4.000000,4.000000,4.000000,4.000000,4.000000,4.000000,4.000000,4.000000,4.000000,4.000000,4.000000,4.000000,4.000000,4.000000,4.000000,4.000000,4.000000,4.000000,4.000000,4.000000,4.000000,4.000000,4.000000,4.000000,4.000000,4.000000,4.000000,100.000000
1614735715.097840,35.000000,0.000000,-7.412391,-12.746306,-71.803581,-5.101106,-3.239829,-5.713310,-2.180710,-13.776676,-20.261696,-21.161541,-8.340728,5.860281,6.976550,3.819322,-11.020217,-101.444519,10.372830,9.405589,-34.798603,-54.491089,6.731781,2.982377,4.208139,2.770143,-3.359369,-16.047348,-49.312622,1.142275,-3.234594,3.384070,-5.227827,-72.984932,8064.000000,0.000000,4.000000,,,,0.000000,4.000000,4.000000,4.000000,4.000000,4.000000,4.000000,4.000000,4.000000,4.000000,4.000000,4.000000,4.000000,4.000000,4.000000,4.000000,4.000000,4.000000,4.000000,4.000000,4.000000,4.000000,4.000000,4.000000,4.000000,4.000000,4.000000,4.000000,4.000000,4.000000,4.000000,4.000000,4.000000,100.000000
1614735715.105590,36.000000,0.000000,-7.404978,-13.246380,-95.834335,-12.275492,-13.492999,-5.707597,-10.896479,-26.583412,-23.318357,-37.037815,-29.870848,-7.478913,0.815728,-15.671677,-34.086121,-123.907181,0.106048,-7.014073,-64.507393,-71.359673,-7.121104,-1.635990,4.716751,-12.617243,-19.766266,-16.544123,-40.545361,0.628313,-3.231359,-1.747519,-7.786702,-86.245285,8064.000000,0.000000,4.000000,,,,0.000000,4.000000,4.000000,4.000000,4.000000,4.000000,4.000000,4.000000,4.000000,4.000000,4.000000,4.000000,4.000000,4.000000,4.000000,4.000000,4.000000,4.000000,4.000000,4.000000,4.000000,4.000000,4.000000,4.000000,4.000000,4.000000,4.000000,4.000000,4.000000,4.000000,4.000000,4.000000,4.000000,100.000000
1614735715.113239,37.000000,0.000000,-7.397573,-11.181851,-93.687225,-17.904242,-18.607712,-5.701890,-16.013786,-36.300419,-23.807859,-43.667442,-41.635849,-17.727844,-4.313293,-22.835493,-55.590496,-156.090973,-7.073545,-29.571161,-92.648010,-96.416519,-20.447317,-4.198457,5.224855,-26.450779,-21.284962,-15.501937,-23.068916,0.627684,-3.228128,0.305511,-12.907120,-83.594933,8064.000000,0.000000,4.000000,,,,0.000000,4.000000,4.000000,4.000000,4.000000,4.000000,4.000000,4.000000,4.000000,4.000000,4.000000,4.000000,4.000000,4.000000,4.000000,4.000000,4.000000,4.000000,4.000000,4.000000,4.000000,4.000000,4.000000,4.000000,4.000000,4.000000,4.000000,4.000000,4.000000,4.000000,4.000000,4.000000,4.000000,100.000000
1614735715.120988,38.000000,0.000000,-7.902996,-8.606567,-89.490974,-18.911978,-14.486540,-5.696187,-12.920850,-33.700016,-23.271233,-42.598137,-41.594215,-18.735758,-4.308980,-23.325478,-60.150288,-179.011795,-6.553651,-44.926205,-98.709213,-111.191895,-20.426868,-3.681438,-1.447037,-33.090996,-21.776497,-16.512075,-44.584309,1.139877,-3.224900,-1.233256,-26.227547,-97.357498,8064.000000,0.000000,4.000000,,,,0.000000,4.000000,4.000000,4.000000,4.000000,4.000000,4.000000,4.000000,4.000000,4.000000,4.000000,4.000000,4.000000,4.000000,4.000000,4.000000,4.000000,4.000000,4.000000,4.000000,4.000000,4.000000,4.000000,4.000000,4.000000,4.000000,4.000000,4.000000,4.000000,4.000000,4.000000,4.000000,4.000000,100.000000
1614735715.128638,39.000000,0.000000,-7.382273,-8.597960,-106.324554,-24.021271,-17.036156,-5.690491,-6.241262,-31.102213,-26.324884,-38.965794,-41.039799,-18.204201,-4.304671,-21.763691,-58.551678,-183.960999,-6.034277,-47.958202,-95.533577,-104.926857,-15.278237,-3.677756,-10.676359,-29.980980,-22.780361,-21.110949,-68.642288,-0.912545,-3.221675,-4.308946,-33.893627,-108.029366,8064.000000,0.000000,4.000000,,,,0.000000,4.000000,4.000000,4.000000,4.000000,4.000000,4.000000,4.000000,4.000000,4.000000,4.000000,4.000000,4.000000,4.000000,4.000000,4.000000,4.000000,4.000000,4.000000,4.000000,4.000000,4.000000,4.000000,4.000000,4.000000,4.000000,4.000000,4.000000,4.000000,4.000000,4.000000,4.000000,4.000000,100.000000
1614735715.136387,40.000000,0.000000,-4.810788,-9.102183,-119.038742,-31.689558,-22.147324,-5.684801,-2.132457,-33.122395,-30.913942,-39.439648,-38.434658,-15.621895,-4.300366,-9.434235,-53.877743,-177.110367,-6.541064,-43.807678,-92.361122,-96.616806,-16.288601,-3.674078,-11.691323,-24.822794,-22.757582,-24.166761,-67.548004,-4.501376,-4.244094,-4.817458,-30.269989,-95.613647,8064.000000,0.000000,4.000000,,,,0.000000,4.000000,4.000000,4.000000,4.000000,4.000000,4.000000,4.000000,4.000000,4.000000,4.000000,4.000000,4.000000,4.000000,4.000000,4.000000,4.000000,4.000000,4.000000,4.000000,4.000000,4.000000,4.000000,4.000000,4.000000,4.000000,4.000000,4.000000,4.000000,4.000000,4.000000,4.000000,4.000000,100.000000
1614735715.144037,41.000000,0.000000,-3.780336,-9.093081,-107.637657,-28.068125,-20.586716,-5.679116,-3.155966,-31.037989,-31.395849,-42.477131,-24.037247,-11.503709,-0.193502,3.395713,-37.926426,-155.394791,-6.021702,-31.456181,-78.422607,-89.853523,-17.297953,-3.670404,-10.653991,-20.695408,-22.734823,-23.629774,-62.352253,-6.548157,-2.188568,-5.838281,-28.188437,-87.312904,8064.000000,0.000000,4.000000,,,,0.000000,4.000000,4.000000,4.000000,4.000000,4.000000,4.000000,4.000000,4.000000,4.000000,4.000000,4.000000,4.000000,4.000000,4.000000,4.000000,4.000000,4.000000,4.000000,4.000000,4.000000,4.000000,4.000000,4.000000,4.000000,4.000000,4.000000,4.000000,4.000000,4.000000,4.000000,4.000000,4.000000,100.000000
1614735715.151786,42.000000,0.000000,-3.263735,-8.571168,-88.555656,-14.193903,-19.540487,-6.186257,-3.152810,-26.904387,-28.800352,-32.691067,0.089354,-6.364000,3.909256,8.520522,-16.350039,-122.418884,-2.938757,-6.296519,-52.190338,-68.738029,-5.485783,-2.128273,-11.156157,-9.392661,-18.609524,-24.118963,-63.315540,-7.567249,-2.699200,-7.370904,-28.160250,-87.738411,8064.000000,0.000000,4.000000,,,,0.000000,4.000000,4.000000,4.000000,4.000000,4.000000,4.000000,4.000000,4.000000,4.000000,4.000000,4.000000,4.000000,4.000000,4.000000,4.000000,4.000000,4.000000,4.000000,4.000000,4.000000,4.000000,4.000000,4.000000,4.000000,4.000000,4.000000,4.000000,4.000000,4.000000,4.000000,4.000000,4.000000,100.000000
1614735715.159435,43.000000,0.000000,-1.209190,-9.075417,-80.774796,-6.487401,-16.444025,-5.667251,2.491369,-22.262098,-27.233089,-12.145554,18.550802,7.488518,3.905346,20.306873,0.076567,-94.604156,4.756489,17.299520,-28.548405,-39.951340,11.442780,4.027702,-2.939873,13.180834,-11.411427,-22.556383,-67.867607,-6.021221,-7.824706,-8.389174,-18.901320,-83.035286,8192.000000,0.000000,4.000000,,,,0.000000,4.000000,4.000000,4.000000,4.000000,4.000000,4.000000,4.000000,4.000000,4.000000,4.000000,4.000000,4.000000,4.000000,4.000000,4.000000,4.000000,4.000000,4.000000,4.000000,4.000000,4.000000,4.000000,4.000000,4.000000,4.000000,4.000000,4.000000,4.000000,4.000000,4.000000,4.000000,4.000000,100.000000
1614735715.167185,44.000000,0.000000,0.330481,-9.579162,-81.719658,-6.993734,-4.119888,-3.610301,8.129903,-11.470605,-27.205856,-5.979562,25.198919,21.327183,3.388621,31.568617,6.230337,-84.765961,11.418400,24.974529,-16.212164,-29.654978,19.636465,10.690341,11.422041,30.090731,-9.348734,-17.918442,-57.543331,0.651467,-1.663035,-7.867965,-9.651649,-77.311226,8192.000000,0.000000,4.000000,,,,0.000000,4.000000,4.000000,4.000000,4.000000,4.000000,4.000000,4.000000,4.000000,4.000000,4.000000,4.000000,4.000000,4.000000,4.000000,4.000000,4.000000,4.000000,4.000000,4.000000,4.000000,4.000000,4.000000,4.000000,4.000000,4.000000,4.000000,4.000000,4.000000,4.000000,4.000000,4.000000,4.000000,100.000000
1614735715.174834,45.000000,0.000000,-0.182670,-8.543941,-83.176407,-7.499561,5.627821,-0.016948,9.147414,-0.177083,-27.178650,-8.024864,25.686541,22.331497,3.898052,29.998589,7.762568,-84.681198,14.996724,27.513659,-17.734413,-37.830452,20.129650,12.730932,20.128567,23.906794,-8.826565,-15.336421,-24.665276,5.266201,10.133499,-2.219071,-8.103536,-68.003151,8192.000000,0.000000,4.000000,,,,0.000000,4.000000,4.000000,4.000000,4.000000,4.000000,4.000000,4.000000,4.000000,4.000000,4.000000,4.000000,4.000000,4.000000,4.000000,4.000000,4.000000,4.000000,4.000000,4.000000,4.000000,4.000000,4.000000,4.000000,4.000000,4.000000,4.000000,4.000000,4.000000,4.000000,4.000000,4.000000,4.000000,100.000000
1614735715.182583,46.000000,0.000000,-0.182487,-5.971295,-84.118866,-5.953600,4.596553,2.034352,7.599805,-1.715367,-26.638651,-4.939917,16.942905,17.180962,3.381334,21.250641,5.703523,-91.776001,12.417625,22.870760,-27.973089,-49.587494,12.417212,8.102818,21.134081,4.908527,-5.740815,-16.346725,-15.922662,3.722473,6.020802,-0.165570,-9.121073,-65.371040,8064.000000,0.000000,4.000000,,,,0.000000,4.000000,4.000000,4.000000,4.000000,4.000000,4.000000,4.000000,4.000000,4.000000,4.000000,4.000000,4.000000,4.000000,4.000000,4.000000,4.000000,4.000000,4.000000,4.000000,4.000000,4.000000,4.000000,4.000000,4.000000,4.000000,4.000000,4.000000,4.000000,4.000000,4.000000,4.000000,4.000000,100.000000
1614735715.190233,47.000000,0.000000,-0.182305,-5.452504,-84.034752,-6.973288,3.566315,1.519497,9.130667,-7.867498,-26.612013,-14.678566,-3.074038,14.086857,3.377953,5.844774,-9.173975,-108.094482,1.123156,4.899171,-40.252808,-63.896877,-1.954180,1.428048,15.471920,-10.993817,-5.735075,-16.330379,-48.214432,1.154648,-6.805732,-8.370533,-10.650414,-82.741570,8064.000000,0.000000,4.000000,,,,0.000000,4.000000,4.000000,4.000000,4.000000,4.000000,4.000000,4.000000,4.000000,4.000000,4.000000,4.000000,4.000000,4.000000,4.000000,4.000000,4.000000,4.000000,4.000000,4.000000,4.000000,4.000000,4.000000,4.000000,4.000000,4.000000,4.000000,4.000000,4.000000,4.000000,4.000000,4.000000,4.000000,100.000000
1614735715.197982,48.000000,0.000000,-0.694943,-4.934230,-84.463531,-6.966314,5.101211,1.517977,8.608716,-8.885272,-27.098221,-29.022861,-21.019682,6.893282,2.861754,-9.032866,-31.728905,-130.550491,-10.160018,-9.464703,-55.597172,-79.217598,-8.618892,-0.624663,5.712859,-22.264874,-9.831903,-15.801229,-60.473911,0.127852,-8.337388,-12.977547,-12.178225,-93.940880,8064.000000,0.000000,4.000000,,,,0.000000,4.000000,4.000000,4.000000,4.000000,4.000000,4.000000,4.000000,4.000000,4.000000,4.000000,4.000000,4.000000,4.000000,4.000000,4.000000,4.000000,4.000000,4.000000,4.000000,4.000000,4.000000,4.000000,4.000000,4.000000,4.000000,4.000000,4.000000,4.000000,4.000000,4.000000,4.000000,4.000000,100.000000
1614735715.205632,49.000000,0.000000,-0.181427,-1.852373,-88.481636,-7.472168,3.044827,2.029280,1.933440,-10.414847,-27.071123,-25.916916,-31.255072,0.219723,1.320431,-13.639217,-41.953587,-154.522507,-10.662679,-14.070622,-74.515930,-90.420433,-8.610273,0.401603,0.066120,-29.934917,-13.924636,-16.298248,-37.336514,-2.949199,-5.252127,-8.862005,-13.191688,-85.128990,8064.000000,0.000000,4.000000,,,,0.000000,4.000000,4.000000,4.000000,4.000000,4.000000,4.000000,4.000000,4.000000,4.000000,4.000000,4.000000,4.000000,4.000000,4.000000,4.000000,4.000000,4.000000,4.000000,4.000000,4.000000,4.000000,4.000000,4.000000,4.000000,4.000000,4.000000,4.000000,4.000000,4.000000,4.000000,4.000000,4.000000,100.000000
1614735715.213381,50.000000,0.000000,-0.694066,-1.850521,-94.034180,-9.003158,-0.547961,1.514430,-4.222339,-15.532639,-27.044052,-28.967922,-44.044331,0.219503,-0.732172,-20.292244,-39.347530,-174.880798,-9.113554,-27.902706,-84.697830,-95.971039,-14.242688,-0.624439,-0.959587,-32.981907,-18.526096,-16.281950,-45.504303,-3.459070,-7.298157,-7.827502,-15.742599,-81.454117,8064.000000,0.000000,4.000000,,,,0.000000,4.000000,4.000000,4.000000,4.000000,4.000000,4.000000,4.000000,4.000000,4.000000,4.000000,4.000000,4.000000,4.000000,4.000000,4.000000,4.000000,4.000000,4.000000,4.000000,4.000000,4.000000,4.000000,4.000000,4.000000,4.000000,4.000000,4.000000,4.000000,4.000000,4.000000,4.000000,4.000000,100.000000
1614735715.221030,51.000000,0.000000,-1.206193,-5.438414,-96.504250,-11.045437,-0.547413,1.512915,-3.192476,-18.594028,-27.017008,-46.887672,-45.025928,0.219283,-1.244260,-25.912977,-40.846642,-178.295670,-11.668543,-40.695316,-79.484924,-87.157120,-15.254086,-0.110995,-5.061192,-28.846359,-21.071672,-16.265667,-65.971619,-2.942791,-7.290859,-7.306854,-17.265318,-85.475227,8064.000000,0.000000,4.000000,,,,0.000000,4.000000,4.000000,4.000000,4.000000,4.000000,4.000000,4.000000,4.000000,4.000000,4.000000,4.000000,4.000000,4.000000,4.000000,4.000000,4.000000,4.000000,4.000000,4.000000,4.000000,4.000000,4.000000,4.000000,4.000000,4.000000,4.000000,4.000000,4.000000,4.000000,4.000000,4.000000,4.000000,100.000000
1614735715.228780,52.000000,0.000000,3.410398,-5.945796,-95.382103,-11.547212,0.991596,1.511402,-2.676463,-15.498511,-26.989990,-43.251041,-22.416798,1.244705,3.885189,-9.989629,-38.241695,-155.040451,-3.964567,-25.270006,-58.892620,-60.916115,-3.443961,4.504501,-9.158694,-10.868795,-22.076241,-16.249401,-52.572315,-3.965489,-6.770748,-5.248265,-16.735231,-85.389748,8064.000000,0.000000,4.000000,,,,0.000000,4.000000,4.000000,4.000000,4.000000,4.000000,4.000000,4.000000,4.000000,4.000000,4.000000,4.000000,4.000000,4.000000,4.000000,4.000000,4.000000,4.000000,4.000000,4.000000,4.000000,4.000000,4.000000,4.000000,4.000000,4.000000,4.000000,4.000000,4.000000,4.000000,4.000000,4.000000,4.000000,100.000000
1614735715.236429,53.000000,0.000000,10.073654,-4.914209,-93.748260,-11.535665,-3.624781,1.509891,-4.212248,-11.380449,-26.963001,-17.053944,2.733824,6.371665,13.112074,12.071643,-21.280375,-122.577713,11.424013,3.473213,-33.705521,-37.778275,4.764611,9.628201,-5.559792,15.808741,-22.054165,-16.745974,-40.724873,-1.910241,-6.763977,-6.268658,-18.769779,-86.330002,8064.000000,0.000000,4.000000,,,,0.000000,4.000000,4.000000,4.000000,4.000000,4.000000,4.000000,4.000000,4.000000,4.000000,4.000000,4.000000,4.000000,4.000000,4.000000,4.000000,4.000000,4.000000,4.000000,4.000000,4.000000,4.000000,4.000000,4.000000,4.000000,4.000000,4.000000,4.000000,4.000000,4.000000,4.000000,4.000000,4.000000,100.000000
1614735715.244178,54.000000,0.000000,11.602042,-5.934936,-89.551949,-8.447206,-7.210899,1.508381,-1.131113,-8.804966,-23.859116,-4.729198,14.013142,12.519140,18.739986,19.239058,-2.797556,-100.916672,18.079256,14.751791,-27.005150,-33.637932,3.734205,12.695497,3.676537,28.613445,-15.878264,-16.729227,-50.427734,4.245515,-6.757213,-4.723928,-15.161265,-75.987259,8064.000000,0.000000,4.000000,,,,0.000000,4.000000,4.000000,4.000000,4.000000,4.000000,4.000000,4.000000,4.000000,4.000000,4.000000,4.000000,4.000000,4.000000,4.000000,4.000000,4.000000,4.000000,4.000000,4.000000,4.000000,4.000000,4.000000,4.000000,4.000000,4.000000,4.000000,4.000000,4.000000,4.000000,4.000000,4.000000,4.000000,100.000000
1614735715.251828,55.000000,0.000000,10.564799,-4.903360,-84.847008,-3.823374,-3.101125,3.558155,6.562326,-8.283340,-20.245512,-8.827032,20.152975,16.096365,18.208427,19.219820,6.436010,-90.559349,17.035536,13.198578,-26.465322,-36.168396,3.730471,15.246903,9.313886,26.533548,-3.554694,-13.122754,-50.377308,8.856654,-6.750455,1.947463,-3.864052,-52.834351,8064.000000,0.000000,4.000000,,,,0.000000,4.000000,4.000000,4.000000,4.000000,4.000000,4.000000,4.000000,4.000000,4.000000,4.000000,4.000000,4.000000,4.000000,4.000000,4.000000,4.000000,4.000000,4.000000,4.000000,4.000000,4.000000,4.000000,4.000000,4.000000,4.000000,4.000000,4.000000,4.000000,4.000000,4.000000,4.000000,4.000000,100.000000
1614735715.259677,56.000000,0.000000,11.579875,-2.334354,-83.223701,-2.793910,-0.021100,5.605879,9.119866,-10.839160,-19.199625,-8.305385,25.773848,15.567448,18.703039,20.739061,9.506497,-81.750839,17.018499,21.390507,-11.567063,-31.516844,4.752382,14.206016,7.766110,28.558298,3.115527,-10.032708,-44.173084,8.847797,-6.743705,3.483977,1.268017,-48.678951,8192.000000,0.000000,4.000000,,,,0.000000,4.000000,4.000000,4.000000,4.000000,4.000000,4.000000,4.000000,4.000000,4.000000,4.000000,4.000000,4.000000,4.000000,4.000000,4.000000,4.000000,4.000000,4.000000,4.000000,4.000000,4.000000,4.000000,4.000000,4.000000,4.000000,4.000000,4.000000,4.000000,4.000000,4.000000,4.000000,4.000000,100.000000
1614735715.267426,57.000000,0.000000,7.978552,-1.306379,-83.653297,-3.816757,-3.098002,5.087452,8.597926,-14.418064,-19.693247,-4.194516,27.286535,17.603163,19.197157,21.743963,7.445709,-78.592163,17.001482,28.035784,-10.529855,-36.613533,4.747630,12.653348,9.296806,25.965637,-0.477332,-7.971394,-35.410965,7.300488,-6.736961,3.993313,-1.297354,-59.912327,8064.000000,0.000000,4.000000,,,,0.000000,4.000000,4.000000,4.000000,4.000000,4.000000,4.000000,4.000000,4.000000,4.000000,4.000000,4.000000,4.000000,4.000000,4.000000,4.000000,4.000000,4.000000,4.000000,4.000000,4.000000,4.000000,4.000000,4.000000,4.000000,4.000000,4.000000,4.000000,4.000000,4.000000,4.000000,4.000000,4.000000,100.000000
1614735715.275276,58.000000,0.000000,3.355189,-1.817893,-84.595284,-3.812940,-4.633366,5.082365,9.102149,-17.480570,-19.160732,-10.344167,21.105402,15.534277,12.511292,17.106834,-0.766865,-89.795624,13.394736,11.597491,-36.673172,-59.653843,2.691600,12.127874,14.928535,5.939671,-3.553778,-4.373679,-24.093500,8.831649,-6.730225,9.117525,2.293687,-60.365234,8064.000000,0.000000,4.000000,,,,0.000000,4.000000,4.000000,4.000000,4.000000,4.000000,4.000000,4.000000,4.000000,4.000000,4.000000,4.000000,4.000000,4.000000,4.000000,4.000000,4.000000,4.000000,4.000000,4.000000,4.000000,4.000000,4.000000,4.000000,4.000000,4.000000,4.000000,4.000000,4.000000,4.000000,4.000000,4.000000,4.000000,100.000000
1614735715.283025,59.000000,0.000000,2.839013,-1.816075,-83.997871,-4.321948,-3.603091,5.590103,3.964841,-17.463089,-19.654392,-24.692797,5.699681,4.236691,6.857755,3.243573,-12.560970,-113.295570,5.176213,-8.926927,-56.636497,-79.081367,-1.413656,5.449080,12.349504,-17.143192,1.577981,1.271721,-34.838638,8.822818,-4.672212,9.621228,5.881137,-55.176662,8064.000000,0.000000,4.000000,,,,0.000000,4.000000,4.000000,4.000000,4.000000,4.000000,4.000000,4.000000,4.000000,4.000000,4.000000,4.000000,4.000000,4.000000,4.000000,4.000000,4.000000,4.000000,4.000000,4.000000,4.000000,4.000000,4.000000,4.000000,4.000000,4.000000,4.000000,4.000000,4.000000,4.000000,4.000000,4.000000,4.000000,100.000000
1614735715.290874,60.000000,0.000000,1.297712,-1.814259,-83.401054,-3.804805,-3.599488,3.533231,-7.321175,-15.394343,-19.634739,-30.821951,-13.280377,-7.049596,6.338077,-10.093003,-31.009947,-140.361771,-5.085373,-18.148769,-68.374733,-89.771515,-10.130191,-3.787138,3.106385,-30.459381,-0.474879,2.808911,-48.649952,2.147328,-2.616258,6.534684,2.285512,-53.583023,8064.000000,0.000000,4.000000,,,,0.000000,4.000000,4.000000,4.000000,4.000000,4.000000,4.000000,4.000000,4.000000,4.000000,4.000000,4.000000,4.000000,4.000000,4.000000,4.000000,4.000000,4.000000,4.000000,4.000000,4.000000,4.000000,4.000000,4.000000,4.000000,4.000000,4.000000,4.000000,4.000000,4.000000,4.000000,4.000000,4.000000,100.000000
1614735715.298623,61.000000,0.000000,-1.267688,-1.812445,-88.445854,-6.877923,-3.083068,1.478416,-10.903597,-18.455872,-19.615103,-31.303949,-31.215815,-7.042547,2.229175,-11.621372,-55.594322,-167.913712,-10.208493,-30.951132,-92.921745,-110.707382,-23.453394,-4.808992,-5.614670,-40.685333,-23.551327,0.241999,-34.755150,-4.008666,-3.639283,7.040970,-1.819337,-56.606365,7936.000000,0.000000,4.000000,,,,0.000000,4.000000,4.000000,4.000000,4.000000,4.000000,4.000000,4.000000,4.000000,4.000000,4.000000,4.000000,4.000000,4.000000,4.000000,4.000000,4.000000,4.000000,4.000000,4.000000,4.000000,4.000000,4.000000,4.000000,4.000000,4.000000,4.000000,4.000000,4.000000,4.000000,4.000000,4.000000,4.000000,100.000000
1614735715.306473,62.000000,0.000000,2.836144,-1.810632,-90.921509,-15.076174,-4.105626,0.964117,-9.867053,-25.104082,-20.108309,-39.477772,-48.620499,-6.009863,-4.439721,-9.558469,-69.897705,-187.745804,-10.711105,-44.766335,-102.572411,-123.417191,-27.019684,-4.291363,-14.839825,-43.208752,-45.066238,-5.912089,-29.079369,-2.466195,-3.122823,5.495467,-10.022646,-70.395912,8064.000000,0.000000,4.000000,,,,0.000000,4.000000,4.000000,4.000000,4.000000,4.000000,4.000000,4.000000,4.000000,4.000000,4.000000,4.000000,4.000000,4.000000,4.000000,4.000000,4.000000,4.000000,4.000000,4.000000,4.000000,4.000000,4.000000,4.000000,4.000000,4.000000,4.000000,4.000000,4.000000,4.000000,4.000000,4.000000,4.000000,100.000000
1614735715.314222,63.000000,0.000000,7.448692,-1.808822,-79.035721,-10.445713,-3.075880,0.963153,-10.882827,-20.976414,-19.062559,-39.951115,-53.187260,-7.542315,-4.948102,-11.087372,-69.314987,-188.070877,-9.161932,-39.080544,-81.957016,-96.627106,-10.069588,-3.774251,-18.414728,-27.780926,-33.739120,-10.521562,-43.922085,0.613194,-0.042777,2.413049,-14.115188,-78.017822,8064.000000,0.000000,4.000000,,,,0.000000,4.000000,4.000000,4.000000,4.000000,4.000000,4.000000,4.000000,4.000000,4.000000,4.000000,4.000000,4.000000,4.000000,4.000000,4.000000,4.000000,4.000000,4.000000,4.000000,4.000000,4.000000,4.000000,4.000000,4.000000,4.000000,4.000000,4.000000,4.000000,4.000000,4.000000,4.000000,4.000000,100.000000
1614735715.322071,64.000000,0.000000,6.928423,-1.807013,-66.136169,4.436528,2.055402,1.987831,-6.769380,-8.134926,-16.992214,-25.552191,-41.852024,-5.483490,-0.840590,-10.563464,-58.476437,-165.831512,-5.563027,-23.656847,-60.336601,-63.709969,8.914841,5.460292,-6.088621,-3.650581,-0.884868,-6.408476,-37.724316,0.612581,-1.068375,7.026020,2.309184,-62.555191,0.000000,161.000000,4.000000,,,,0.000000,4.000000,4.000000,4.000000,4.000000,4.000000,4.000000,4.000000,4.000000,4.000000,4.000000,4.000000,4.000000,4.000000,4.000000,4.000000,4.000000,4.000000,4.000000,4.000000,4.000000,4.000000,4.000000,4.000000,4.000000,4.000000,4.000000,4.000000,4.000000,4.000000,4.000000,4.000000,4.000000,100.000000
1614735715.329820,65.000000,0.000000,7.434315,-1.805206,-64.531570,3.919271,3.591808,4.549945,1.955338,-5.049868,-15.436761,-17.321510,-27.964016,-2.401084,3.775636,-3.373413,-38.930782,-134.383636,-0.429259,-13.889601,-43.866009,-44.159077,12.495669,15.711243,11.866185,11.224865,16.551914,0.777420,-22.814796,2.663250,-2.605768,13.685661,14.614567,-44.031097,0.000000,217.000000,4.000000,,,,0.000000,4.000000,4.000000,4.000000,4.000000,4.000000,4.000000,4.000000,4.000000,4.000000,4.000000,4.000000,4.000000,4.000000,4.000000,4.000000,4.000000,4.000000,4.000000,4.000000,4.000000,4.000000,4.000000,4.000000,4.000000,4.000000,4.000000,4.000000,4.000000,4.000000,4.000000,4.000000,4.000000,100.000000
1614735715.337670,66.000000,0.000000,7.426881,-1.803401,-66.005501,-6.853879,-1.539989,5.571036,-0.097899,-9.660202,-15.934145,-18.842649,-16.141180,-2.911504,6.848783,4.322268,-18.891851,-114.249252,2.135273,-6.696224,-26.386244,-42.063637,10.944713,15.695531,19.546627,15.829024,11.919978,-0.761819,-26.894547,4.711869,-0.551881,12.646335,1.779440,-42.448605,0.000000,214.000000,4.000000,,,,0.000000,4.000000,4.000000,4.000000,4.000000,4.000000,4.000000,4.000000,4.000000,4.000000,4.000000,4.000000,4.000000,4.000000,4.000000,4.000000,4.000000,4.000000,4.000000,4.000000,4.000000,4.000000,4.000000,4.000000,4.000000,4.000000,4.000000,4.000000,4.000000,4.000000,4.000000,4.000000,4.000000,100.000000
1614735715.345419,67.000000,0.000000,0.752787,-2.314418,-64.401039,-6.334205,-4.615373,5.052645,-9.841391,-8.624901,-15.918211,-15.234064,-6.381450,-1.882951,7.354755,5.856407,-12.719113,-110.545258,2.133138,-2.074143,-22.770113,-42.534393,11.446589,14.141374,19.527081,15.813195,3.702930,-6.402083,-32.508678,4.707157,0.987133,9.556765,-4.376186,-46.508720,0.000000,167.000000,4.000000,,,,0.000000,4.000000,4.000000,4.000000,4.000000,4.000000,4.000000,4.000000,4.000000,4.000000,4.000000,4.000000,4.000000,4.000000,4.000000,4.000000,4.000000,4.000000,4.000000,4.000000,4.000000,4.000000,4.000000,4.000000,4.000000,4.000000,4.000000,4.000000,4.000000,4.000000,4.000000,4.000000,4.000000,100.000000
1614735715.353168,68.000000,0.000000,-4.376171,-1.799283,-64.336632,-2.225307,-3.072295,5.560412,-6.241806,-7.590635,-15.389472,-13.167548,0.804419,2.734317,6.834579,4.824910,-12.706394,-107.357788,3.669466,2.030495,-25.824266,-41.466217,11.947962,16.178514,19.507553,17.335844,12.417175,-2.293117,-34.014629,4.189630,0.473325,10.060028,11.012806,-41.334007,0.000000,198.000000,4.000000,,,,0.000000,4.000000,4.000000,4.000000,4.000000,4.000000,4.000000,4.000000,4.000000,4.000000,4.000000,4.000000,4.000000,4.000000,4.000000,4.000000,4.000000,4.000000,4.000000,4.000000,4.000000,4.000000,4.000000,4.000000,4.000000,4.000000,4.000000,4.000000,4.000000,4.000000,4.000000,4.000000,4.000000,100.000000
1614735715.360918,69.000000,0.000000,-1.807692,-1.797483,-64.785118,-3.248722,-3.582044,4.016391,4.533667,-9.634326,-15.374083,-15.205663,7.983102,5.808506,7.340566,5.845726,-1.924457,-93.404282,6.742720,12.797695,-18.618956,-40.911930,12.448834,15.136695,20.513687,16.292868,32.404758,7.452766,-29.878052,4.698260,0.472852,10.049969,21.258204,-31.549082,0.000000,215.000000,4.000000,,,,0.000000,4.000000,4.000000,4.000000,4.000000,4.000000,4.000000,4.000000,4.000000,4.000000,4.000000,4.000000,4.000000,4.000000,4.000000,4.000000,4.000000,4.000000,4.000000,4.000000,4.000000,4.000000,4.000000,4.000000,4.000000,4.000000,4.000000,4.000000,4.000000,4.000000,4.000000,4.000000,4.000000,100.000000
1614735715.368567,70.000000,0.000000,0.245398,-2.308506,-64.720337,-3.245474,-4.091282,1.448272,0.939390,-8.086230,-15.871529,-13.139174,9.513580,5.289876,6.820405,5.327060,6.795416,-89.208313,5.710336,16.887461,-24.241362,-51.640251,5.256899,7.942071,18.954712,4.994523,29.295431,10.009416,-8.822533,1.103819,0.472379,10.039919,19.185663,-29.979073,0.000000,197.000000,4.000000,,,,0.000000,4.000000,4.000000,4.000000,4.000000,4.000000,4.000000,4.000000,4.000000,4.000000,4.000000,4.000000,4.000000,4.000000,4.000000,4.000000,4.000000,4.000000,4.000000,4.000000,4.000000,4.000000,4.000000,4.000000,4.000000,4.000000,4.000000,4.000000,4.000000,4.000000,4.000000,4.000000,4.000000,100.000000
1614735715.376316,71.000000,0.000000,-0.780488,-0.254916,-65.168434,-4.780690,-3.574370,0.934003,-8.805140,-9.616606,-15.855658,-15.177318,-4.342087,5.284586,4.249481,0.706348,-3.980610,-107.067818,-0.449220,4.050061,-49.858147,-76.716812,-9.620153,2.805924,12.781911,-10.395087,1.061007,8.973765,-7.275249,-2.999849,0.471907,9.517058,18.653656,-32.513195,0.000000,200.000000,4.000000,,,,0.000000,4.000000,4.000000,4.000000,4.000000,4.000000,4.000000,4.000000,4.000000,4.000000,4.000000,4.000000,4.000000,4.000000,4.000000,4.000000,4.000000,4.000000,4.000000,4.000000,4.000000,4.000000,4.000000,4.000000,4.000000,4.000000,4.000000,4.000000,4.000000,4.000000,4.000000,4.000000,4.000000,100.000000
1614735715.383966,72.000000,0.000000,-0.779708,3.847903,-64.590446,-10.929755,-3.570796,1.445889,-10.847616,-18.837759,-15.326982,-29.521114,-18.183899,5.279302,2.706770,-2.371281,-16.284323,-121.319725,-6.089797,-8.774502,-65.705727,-97.152916,-16.790020,3.315939,6.102462,-21.153923,-14.324670,8.964791,-36.498741,-3.509670,0.471435,9.507541,20.173464,-28.890938,0.000000,177.000000,4.000000,,,,0.000000,4.000000,4.000000,4.000000,4.000000,4.000000,4.000000,4.000000,4.000000,4.000000,4.000000,4.000000,4.000000,4.000000,4.000000,4.000000,4.000000,4.000000,4.000000,4.000000,4.000000,4.000000,4.000000,4.000000,4.000000,4.000000,4.000000,4.000000,4.000000,4.000000,4.000000,4.000000,4.000000,100.000000
1614735715.391715,73.000000,0.000000,-0.266108,5.895337,-64.013031,-13.995749,-3.567225,1.444444,-9.298307,-24.459946,-16.337296,-38.722363,-17.652895,4.761202,3.216884,-2.881731,-20.883423,-121.711227,-6.083707,-10.304189,-66.665657,-102.183968,-15.747589,3.825443,-0.570307,-26.773794,-5.592396,9.468647,-39.026344,-4.018981,0.470963,12.574957,19.640471,-30.400509,0.000000,190.000000,4.000000,,,,0.000000,4.000000,4.000000,4.000000,4.000000,4.000000,4.000000,4.000000,4.000000,4.000000,4.000000,4.000000,4.000000,4.000000,4.000000,4.000000,4.000000,4.000000,4.000000,4.000000,4.000000,4.000000,4.000000,4.000000,4.000000,4.000000,4.000000,4.000000,4.000000,4.000000,4.000000,4.000000,4.000000,100.000000
1614735715.399365,74.000000,0.000000,-0.265842,5.376621,-69.077225,-16.033035,-3.563658,1.442999,-9.289009,-20.845743,-18.885061,-35.606716,-16.609600,5.269261,3.213667,-2.878849,-29.580488,-128.768997,-5.564803,-9.268244,-68.650276,-100.543327,-14.193380,3.308797,-4.672301,-26.747021,1.079863,8.946358,-14.371935,-2.989321,0.470492,16.664946,19.620831,-37.549595,0.000000,199.000000,4.000000,,,,0.000000,4.000000,4.000000,4.000000,4.000000,4.000000,4.000000,4.000000,4.000000,4.000000,4.000000,4.000000,4.000000,4.000000,4.000000,4.000000,4.000000,4.000000,4.000000,4.000000,4.000000,4.000000,4.000000,4.000000,4.000000,4.000000,4.000000,4.000000,4.000000,4.000000,4.000000,4.000000,4.000000,100.000000
1614735715.407114,75.000000,0.000000,-0.265576,5.371245,-75.161995,-23.709309,-3.560094,1.441556,-7.741259,-19.799255,-19.891817,-40.699314,-22.234016,3.212710,3.210454,-1.850329,-37.756035,-141.973572,-6.072059,-9.771795,-66.530342,-86.596626,-9.050982,3.818309,-1.077885,-19.540787,-0.459679,8.937412,-10.254999,3.167515,0.470022,17.673922,19.088388,-33.409481,0.000000,184.000000,4.000000,,,,0.000000,4.000000,4.000000,4.000000,4.000000,4.000000,4.000000,4.000000,4.000000,4.000000,4.000000,4.000000,4.000000,4.000000,4.000000,4.000000,4.000000,4.000000,4.000000,4.000000,4.000000,4.000000,4.000000,4.000000,4.000000,4.000000,4.000000,4.000000,4.000000,4.000000,4.000000,4.000000,4.000000,100.000000
1614735715.414763,76.000000,0.000000,-0.265310,5.878694,-74.574013,-29.839447,-3.556534,1.952935,-5.682235,-23.882021,-19.359104,-54.504772,-25.288706,-4.482810,3.207243,-4.925402,-41.820843,-145.421341,-6.065987,-12.838947,-61.335609,-64.458748,-4.426546,4.327312,6.102680,-15.931502,-0.459219,8.928474,-14.860128,8.805373,0.469552,17.143427,19.069300,-35.427357,0.000000,195.000000,4.000000,,,,0.000000,4.000000,4.000000,4.000000,4.000000,4.000000,4.000000,4.000000,4.000000,4.000000,4.000000,4.000000,4.000000,4.000000,4.000000,4.000000,4.000000,4.000000,4.000000,4.000000,4.000000,4.000000,4.000000,4.000000,4.000000,4.000000,4.000000,4.000000,4.000000,4.000000,4.000000,4.000000,4.000000,100.000000
1614735715.422513,77.000000,0.000000,-0.265045,5.359995,-78.089180,-29.809607,-3.552978,-0.100300,-6.189373,-23.858139,-19.339745,-52.911804,-26.289059,-10.632174,2.691215,-15.176887,-49.984150,-148.352844,-6.059920,-20.518415,-61.274273,-54.137882,-3.909299,3.810163,8.660680,-15.402750,-1.997221,8.919546,-16.896551,8.796567,0.469082,17.126284,19.563051,-52.827824,0.000000,214.000000,4.000000,,,,0.000000,4.000000,4.000000,4.000000,4.000000,4.000000,4.000000,4.000000,4.000000,4.000000,4.000000,4.000000,4.000000,4.000000,4.000000,4.000000,4.000000,4.000000,4.000000,4.000000,4.000000,4.000000,4.000000,4.000000,4.000000,4.000000,4.000000,4.000000,4.000000,4.000000,4.000000,4.000000,4.000000,100.000000
1614735715.430162,78.000000,0.000000,-0.264780,5.354635,-88.780327,-29.266977,-3.549425,-2.151482,-6.183184,-23.321461,-19.320406,-41.064022,-24.724308,-7.544619,3.201345,-16.700171,-46.344421,-147.691666,-5.028220,-19.472256,-52.495049,-53.058102,-3.392569,3.806353,7.113557,-6.156578,-0.456762,8.910626,-36.366833,7.249310,0.468613,17.621979,16.466566,-51.236534,0.000000,190.000000,4.000000,,,,0.000000,4.000000,4.000000,4.000000,4.000000,4.000000,4.000000,4.000000,4.000000,4.000000,4.000000,4.000000,4.000000,4.000000,4.000000,4.000000,4.000000,4.000000,4.000000,4.000000,4.000000,4.000000,4.000000,4.000000,4.000000,4.000000,4.000000,4.000000,4.000000,4.000000,4.000000,4.000000,4.000000,100.000000
1614735715.437911,79.000000,0.000000,-0.264515,5.349280,-84.076157,-26.673607,-3.545875,-2.662151,-6.177001,-23.298140,-19.301085,-39.997314,-17.007277,-3.434510,6.275066,-4.888599,-24.759617,-126.518333,-2.459089,-7.657912,-36.032299,-47.876839,-0.312253,4.828188,8.132085,6.670091,6.210361,8.901715,-51.715084,8.780521,0.468145,17.091536,11.834714,-29.134016,0.000000,193.000000,4.000000,,,,0.000000,4.000000,4.000000,4.000000,4.000000,4.000000,4.000000,4.000000,4.000000,4.000000,4.000000,4.000000,4.000000,4.000000,4.000000,4.000000,4.000000,4.000000,4.000000,4.000000,4.000000,4.000000,4.000000,4.000000,4.000000,4.000000,4.000000,4.000000,4.000000,4.000000,4.000000,4.000000,4.000000,100.000000
1614735715.445561,80.000000,0.000000,-0.264251,5.343931,-67.069008,-22.031549,-3.542330,-2.659488,-6.170824,-23.274841,-19.281784,-40.982960,-5.195396,-3.943896,6.268791,2.295777,-11.914345,-107.930275,-1.430989,-0.983588,-31.380880,-45.777679,0.200879,2.259257,8.636773,9.227524,5.178510,8.892814,-48.586445,8.771741,0.467676,17.074444,10.797238,-23.976677,0.000000,191.000000,4.000000,,,,0.000000,4.000000,4.000000,4.000000,4.000000,4.000000,4.000000,4.000000,4.000000,4.000000,4.000000,4.000000,4.000000,4.000000,4.000000,4.000000,4.000000,4.000000,4.000000,4.000000,4.000000,4.000000,4.000000,4.000000,4.000000,4.000000,4.000000,4.000000,4.000000,4.000000,4.000000,4.000000,4.000000,100.000000
1614735715.453310,81.000000,0.000000,-0.263986,5.338587,-62.899372,-22.009518,-3.538787,-2.144009,-6.164653,-23.764387,-19.262503,-29.147104,1.989286,0.162612,3.185600,1.267840,-10.363969,-105.771065,-2.455199,-2.008245,-33.913601,-48.296005,-0.312142,-3.384028,6.064034,8.192655,0.045126,8.883922,-43.922474,4.660405,0.467209,17.057369,11.812082,-37.286034,0.000000,217.000000,4.000000,,,,0.000000,4.000000,4.000000,4.000000,4.000000,4.000000,4.000000,4.000000,4.000000,4.000000,4.000000,4.000000,4.000000,4.000000,4.000000,4.000000,4.000000,4.000000,4.000000,4.000000,4.000000,4.000000,4.000000,4.000000,4.000000,4.000000,4.000000,4.000000,4.000000,4.000000,4.000000,4.000000,4.000000,100.000000
1614735715.460959,82.000000,0.000000,-0.776543,5.333249,-68.477501,-19.423405,-3.535248,-0.090582,-6.158488,-23.740622,-19.756060,-20.400009,4.038579,10.418859,3.695234,0.753751,-1.122835,-93.870422,-1.939923,2.096327,-32.341228,-51.324631,-0.311830,-3.380644,4.006688,8.184463,1.070722,8.875037,-32.596500,0.553181,0.466742,17.040312,11.287450,-41.864132,0.000000,199.000000,4.000000,,,,0.000000,4.000000,4.000000,4.000000,4.000000,4.000000,4.000000,4.000000,4.000000,4.000000,4.000000,4.000000,4.000000,4.000000,4.000000,4.000000,4.000000,4.000000,4.000000,4.000000,4.000000,4.000000,4.000000,4.000000,4.000000,4.000000,4.000000,4.000000,4.000000,4.000000,4.000000,4.000000,4.000000,100.000000
1614735715.468709,83.000000,0.000000,-0.262946,5.327915,-67.383377,-14.788597,-3.531713,1.960790,-6.152330,-21.152779,-17.172201,-22.430891,6.085822,13.998184,6.768462,2.291459,5.544954,-82.494499,0.626119,7.222436,-36.924271,-67.170746,-0.311518,0.212481,3.489861,3.560893,-0.981631,8.866162,-24.871595,0.039807,0.466275,16.510452,11.276162,-37.719704,0.000000,202.000000,4.000000,,,,0.000000,4.000000,4.000000,4.000000,4.000000,4.000000,4.000000,4.000000,4.000000,4.000000,4.000000,4.000000,4.000000,4.000000,4.000000,4.000000,4.000000,4.000000,4.000000,4.000000,4.000000,4.000000,4.000000,4.000000,4.000000,4.000000,4.000000,4.000000,4.000000,4.000000,4.000000,4.000000,4.000000,100.000000
1614735715.476358,84.000000,0.000000,-0.775503,5.322587,-67.828819,-15.286630,-3.528181,1.446009,-6.658998,-19.080343,-15.103747,-24.459742,6.592557,10.394443,7.274514,2.289168,-0.614437,-96.770981,2.163955,4.138290,-50.220680,-91.718956,-0.311206,-0.300552,3.999192,-2.083693,-6.108854,8.857296,-40.231339,0.552588,0.465809,17.006762,11.264886,-35.630703,0.000000,200.000000,4.000000,,,,0.000000,4.000000,4.000000,4.000000,4.000000,4.000000,4.000000,4.000000,4.000000,4.000000,4.000000,4.000000,4.000000,4.000000,4.000000,4.000000,4.000000,4.000000,4.000000,4.000000,4.000000,4.000000,4.000000,4.000000,4.000000,4.000000,4.000000,4.000000,4.000000,4.000000,4.000000,4.000000,4.000000,100.000000
1614735715.484207,85.000000,0.000000,-1.287548,5.317265,-71.350731,-16.296984,-3.524653,1.444563,-5.113878,-20.086905,-16.114285,-26.486565,1.457759,8.332767,6.754419,1.261238,-7.793310,-110.007545,1.648970,-1.506873,-58.888409,-103.422112,-0.823716,-0.813072,3.482372,-7.209815,-7.641207,8.848439,-38.652645,0.039215,-0.047478,19.041037,11.253621,-37.133533,0.000000,195.000000,4.000000,,,,0.000000,4.000000,4.000000,4.000000,4.000000,4.000000,4.000000,4.000000,4.000000,4.000000,4.000000,4.000000,4.000000,4.000000,4.000000,4.000000,4.000000,4.000000,4.000000,4.000000,4.000000,4.000000,4.000000,4.000000,4.000000,4.000000,4.000000,4.000000,4.000000,4.000000,4.000000,4.000000,4.000000,100.000000
1614735715.491957,86.000000,0.000000,2.303483,5.311947,-67.689636,-12.178123,-3.521129,1.443118,-2.544661,-18.015535,-15.072529,-25.434437,-5.210365,9.350075,7.260485,1.772797,-12.400901,-108.871895,1.647321,-2.018187,-59.855160,-104.857147,-0.310071,5.341587,3.478889,-15.407733,-11.223310,8.326770,-13.485788,0.551996,0.465390,21.073278,11.242368,-37.096401,0.000000,198.000000,4.000000,,,,0.000000,4.000000,4.000000,4.000000,4.000000,4.000000,4.000000,4.000000,4.000000,4.000000,4.000000,4.000000,4.000000,4.000000,4.000000,4.000000,4.000000,4.000000,4.000000,4.000000,4.000000,4.000000,4.000000,4.000000,4.000000,4.000000,4.000000,4.000000,4.000000,4.000000,4.000000,4.000000,4.000000,100.000000
1614735715.499806,87.000000,0.000000,6.916564,5.306635,-60.955280,-9.089022,-3.517607,1.954496,-1.516475,-13.382135,-12.493354,-20.280796,-5.717975,10.366365,7.766046,2.796665,-17.516705,-119.019432,2.671315,-0.477707,-59.282486,-101.162552,0.203059,12.002912,4.501051,-18.469248,-11.724907,9.344084,-17.574867,1.577085,0.977745,21.052204,11.743946,-30.392637,0.000000,203.000000,4.000000,,,,0.000000,4.000000,4.000000,4.000000,4.000000,4.000000,4.000000,4.000000,4.000000,4.000000,4.000000,4.000000,4.000000,4.000000,4.000000,4.000000,4.000000,4.000000,4.000000,4.000000,4.000000,4.000000,4.000000,4.000000,4.000000,4.000000,4.000000,4.000000,4.000000,4.000000,4.000000,4.000000,4.000000,100.000000
1614735715.507555,88.000000,0.000000,6.909647,5.301329,-59.868687,-10.618394,-3.514090,1.439721,-2.540600,-11.317472,-13.506502,-32.568207,-7.763539,6.253435,7.245459,-0.283055,-20.576111,-133.259384,2.155823,-3.554153,-60.248844,-85.676773,-0.309964,11.990909,4.496551,-14.861035,-4.533695,9.334740,-34.480370,0.549867,-0.561694,21.031153,12.245023,-24.721218,0.000000,192.000000,4.000000,,,,0.000000,4.000000,4.000000,4.000000,4.000000,4.000000,4.000000,4.000000,4.000000,4.000000,4.000000,4.000000,4.000000,4.000000,4.000000,4.000000,4.000000,4.000000,4.000000,4.000000,4.000000,4.000000,4.000000,4.000000,4.000000,4.000000,4.000000,4.000000,4.000000,4.000000,4.000000,4.000000,4.000000,100.000000
1614735715.515405,89.000000,0.000000,7.928379,5.296028,-60.834457,-10.607776,-3.510576,1.438281,-2.538059,-12.331795,-14.518637,-50.997177,-14.935263,-0.419485,7.238214,-3.872515,-19.017075,-137.228699,1.640847,-7.653162,-60.188595,-69.180840,0.203166,10.953277,3.979234,-14.846174,2.137506,7.786944,-22.138195,1.062137,1.490150,20.497301,12.745598,-26.234959,0.000000,202.000000,4.000000,,,,0.000000,4.000000,4.000000,4.000000,4.000000,4.000000,4.000000,4.000000,4.000000,4.000000,4.000000,4.000000,4.000000,4.000000,4.000000,4.000000,4.000000,4.000000,4.000000,4.000000,4.000000,4.000000,4.000000,4.000000,4.000000,4.000000,4.000000,4.000000,4.000000,4.000000,4.000000,4.000000,4.000000,100.000000
1614735715.523154,90.000000,0.000000,9.971732,5.803552,-60.260803,-10.084347,-3.507065,2.462484,-0.997060,-11.806643,-9.888733,-37.100029,-20.561354,-1.444707,7.230975,-6.945566,-17.972416,-141.194031,3.177668,-8.671150,-51.410458,-62.957809,3.792706,12.993606,7.564998,-11.241585,11.878958,10.856080,-13.398108,2.086716,7.129685,21.502445,20.425159,-28.772827,0.000000,202.000000,4.000000,,,,0.000000,4.000000,4.000000,4.000000,4.000000,4.000000,4.000000,4.000000,4.000000,4.000000,4.000000,4.000000,4.000000,4.000000,4.000000,4.000000,4.000000,4.000000,4.000000,4.000000,4.000000,4.000000,4.000000,4.000000,4.000000,4.000000,4.000000,4.000000,4.000000,4.000000,4.000000,4.000000,4.000000,100.000000
1614735715.531003,91.000000,0.000000,3.807914,5.797749,-59.687721,-10.587084,-3.503558,0.921560,-5.611447,-12.820477,-6.801921,-16.037287,-26.694637,-6.058646,-0.981384,-15.143748,-28.210854,-148.232315,-0.415254,-11.226582,-43.153919,-59.817928,2.250452,8.365228,13.198459,-3.538035,18.020926,16.486250,-26.718044,-4.582037,6.609735,21.480942,29.635504,-28.231234,0.000000,201.000000,4.000000,,,,0.000000,4.000000,4.000000,4.000000,4.000000,4.000000,4.000000,4.000000,4.000000,4.000000,4.000000,4.000000,4.000000,4.000000,4.000000,4.000000,4.000000,4.000000,4.000000,4.000000,4.000000,4.000000,4.000000,4.000000,4.000000,4.000000,4.000000,4.000000,4.000000,4.000000,4.000000,4.000000,4.000000,100.000000
1614735715.538752,92.000000,0.000000,-4.401021,4.766310,-59.628033,-10.576496,-3.500055,-3.694746,-15.862247,-15.884580,-7.820760,-27.816122,-36.924355,-18.360281,-15.852198,-25.385015,-44.592899,-152.699478,-10.671248,-17.882023,-50.803074,-62.835033,-9.033850,-4.463650,11.133978,-11.226805,2.618289,12.367199,-33.870811,-13.295403,-1.089182,15.818436,22.939201,-29.228643,0.000000,184.000000,4.000000,,,,0.000000,4.000000,4.000000,4.000000,4.000000,4.000000,4.000000,4.000000,4.000000,4.000000,4.000000,4.000000,4.000000,4.000000,4.000000,4.000000,4.000000,4.000000,4.000000,4.000000,4.000000,4.000000,4.000000,4.000000,4.000000,4.000000,4.000000,4.000000,4.000000,4.000000,4.000000,4.000000,4.000000,100.000000
1614735715.546602,93.000000,0.000000,-4.909441,6.300005,-60.594048,-10.565920,-3.496554,-6.767975,-21.487410,-15.868695,-8.325760,-45.224201,-40.989994,-25.521406,-23.528652,-28.949373,-53.266254,-157.162155,-16.814423,-20.941063,-62.547142,-72.515793,-18.768406,-12.151494,0.353613,-26.087374,-14.307406,5.175344,-33.836941,-14.820570,-4.165016,9.648771,7.018827,-31.763517,0.000000,217.000000,4.000000,,,,0.000000,4.000000,4.000000,4.000000,4.000000,4.000000,4.000000,4.000000,4.000000,4.000000,4.000000,4.000000,4.000000,4.000000,4.000000,4.000000,4.000000,4.000000,4.000000,4.000000,4.000000,4.000000,4.000000,4.000000,4.000000,4.000000,4.000000,4.000000,4.000000,4.000000,4.000000,4.000000,4.000000,100.000000
1614735715.554351,94.000000,0.000000,-3.366070,5.780884,-59.507813,-10.042533,-2.980237,-5.735566,-17.876179,-15.340006,-8.830255,-44.153336,-36.846439,-24.470245,-22.479483,-27.894783,-53.212990,-152.902435,-17.310429,-19.894482,-63.510235,-75.520195,-19.262457,-11.113702,-7.339048,-28.112568,-11.728996,5.170169,-34.828747,-13.267288,-2.622390,8.613482,5.473346,-33.270214,0.000000,202.000000,4.000000,,,,0.000000,4.000000,4.000000,4.000000,4.000000,4.000000,4.000000,4.000000,4.000000,4.000000,4.000000,4.000000,4.000000,4.000000,4.000000,4.000000,4.000000,4.000000,4.000000,4.000000,4.000000,4.000000,4.000000,4.000000,4.000000,4.000000,4.000000,4.000000,4.000000,4.000000,4.000000,4.000000,4.000000,100.000000
1614735715.562200,95.000000,0.000000,-4.388345,-0.378743,-56.884201,-10.545311,-3.490078,-5.729830,-16.832661,-16.863127,-11.898348,-41.545082,-31.168568,-23.932953,-20.918543,-25.302786,-48.544392,-140.441833,-16.780298,-19.874586,-60.882622,-76.470314,-18.217554,-11.102589,-7.331709,-24.494711,-15.307011,2.600897,-33.768276,-14.279661,-3.132588,7.579226,7.519155,-36.826687,0.000000,184.000000,4.000000,,,,0.000000,4.000000,4.000000,4.000000,4.000000,4.000000,4.000000,4.000000,4.000000,4.000000,4.000000,4.000000,4.000000,4.000000,4.000000,4.000000,4.000000,4.000000,4.000000,4.000000,4.000000,4.000000,4.000000,4.000000,4.000000,4.000000,4.000000,4.000000,4.000000,4.000000,4.000000,4.000000,4.000000,100.000000
1614735715.569949,96.000000,0.000000,-4.383957,-5.506569,-59.391418,-11.047586,-6.563511,-6.236921,-18.354290,-19.410366,-17.014654,-39.965076,-28.060476,-24.934662,-14.743777,-17.585175,-42.854820,-135.686005,-13.173775,-20.367533,-63.898663,-85.111794,-19.224977,-10.578665,-6.811557,-25.495857,-34.266064,-5.094012,-43.990917,-14.778202,-3.642276,5.520365,-7.872980,-40.379604,8064.000000,0.000000,4.000000,,,,0.000000,4.000000,4.000000,4.000000,4.000000,4.000000,4.000000,4.000000,4.000000,4.000000,4.000000,4.000000,4.000000,4.000000,4.000000,4.000000,4.000000,4.000000,4.000000,4.000000,4.000000,4.000000,4.000000,4.000000,4.000000,4.000000,4.000000,4.000000,4.000000,4.000000,4.000000,4.000000,4.000000,100.000000
1614735715.577799,97.000000,0.000000,-3.866752,-3.449780,-63.947411,-10.523719,-7.582588,-5.717864,-13.207731,-19.903776,-20.074562,-37.361008,-27.519594,-24.396906,-3.959803,-11.926564,-40.247864,-137.088791,-6.493934,-20.347164,-68.962967,-95.283096,-19.205753,-3.388599,-8.343206,-24.444721,-36.795898,-7.140200,-55.228981,-13.737783,-3.125813,5.514845,-15.044594,-39.313583,8064.000000,0.000000,4.000000,,,,0.000000,4.000000,4.000000,4.000000,4.000000,4.000000,4.000000,4.000000,4.000000,4.000000,4.000000,4.000000,4.000000,4.000000,4.000000,4.000000,4.000000,4.000000,4.000000,4.000000,4.000000,4.000000,4.000000,4.000000,4.000000,4.000000,4.000000,4.000000,4.000000,4.000000,4.000000,4.000000,4.000000,100.000000
1614735715.585548,98.000000,0.000000,-3.862885,-1.395049,-67.986031,-12.564477,-7.062185,-5.712146,-6.015036,-19.371052,-19.028847,-40.913391,-26.979254,-23.346869,1.685182,-12.427459,-41.233257,-135.926056,-4.436158,-19.813997,-70.432465,-95.700630,-18.160906,3.794276,-7.309223,-21.343353,-15.220642,-5.594598,-35.686569,-13.211225,-3.122687,6.022151,0.355066,-42.351196,8064.000000,0.000000,4.000000,,,,0.000000,4.000000,4.000000,4.000000,4.000000,4.000000,4.000000,4.000000,4.000000,4.000000,4.000000,4.000000,4.000000,4.000000,4.000000,4.000000,4.000000,4.000000,4.000000,4.000000,4.000000,4.000000,4.000000,4.000000,4.000000,4.000000,4.000000,4.000000,4.000000,4.000000,4.000000,4.000000,4.000000,100.000000
1614735715.593297,99.000000,0.000000,-3.859023,-2.419295,-69.969322,-17.167297,-9.106405,-5.706433,-6.521842,-20.377323,-20.548281,-46.000683,-26.952276,-24.349163,0.145036,-12.927852,-40.166382,-142.456802,-4.944542,-19.794184,-69.336395,-86.886986,-18.142744,2.764841,-4.737811,-21.322010,2.230476,-6.101824,-16.676525,-14.223655,-2.606744,5.503308,12.662403,-48.462688,8064.000000,0.000000,4.000000,,,,0.000000,4.000000,4.000000,4.000000,4.000000,4.000000,4.000000,4.000000,4.000000,4.000000,4.000000,4.000000,4.000000,4.000000,4.000000,4.000000,4.000000,4.000000,4.000000,4.000000,4.000000,4.000000,4.000000,4.000000,4.000000,4.000000,4.000000,4.000000,4.000000,4.000000,4.000000,4.000000,4.000000,100.000000
1614735715.601047,100.000000,0.000000,-3.855164,-2.416875,-62.719868,-15.611668,-4.994734,-5.700727,-10.105063,-18.305664,-20.014912,-49.031605,-27.438143,-24.324814,-1.906391,-12.402103,-40.126217,-154.622040,-4.939598,-20.287209,-70.805519,-76.543686,-19.150244,0.197974,-3.707432,-21.300688,-0.335857,-6.095722,-35.634209,-13.696610,-4.142599,4.984984,12.136921,-44.311661,8064.000000,0.000000,4.000000,,,,0.000000,4.000000,4.000000,4.000000,4.000000,4.000000,4.000000,4.000000,4.000000,4.000000,4.000000,4.000000,4.000000,4.000000,4.000000,4.000000,4.000000,4.000000,4.000000,4.000000,4.000000,4.000000,4.000000,4.000000,4.000000,4.000000,4.000000,4.000000,4.000000,4.000000,4.000000,4.000000,4.000000,100.000000
1614735715.608696,101.000000,0.000000,-3.851309,-1.901638,-46.759712,-5.339646,6.805132,-5.695026,-8.556497,-13.159152,-11.276947,-47.956932,-26.897884,-19.172283,-3.442947,-12.389701,-41.624550,-157.031509,-5.447479,-19.754101,-68.170609,-66.723549,-15.541349,0.710596,-2.165263,-20.253746,-11.104752,-3.012704,-58.675495,-10.093170,-6.702559,6.005640,11.099143,-30.421198,8064.000000,0.000000,4.000000,,,,0.000000,4.000000,4.000000,4.000000,4.000000,4.000000,4.000000,4.000000,4.000000,4.000000,4.000000,4.000000,4.000000,4.000000,4.000000,4.000000,4.000000,4.000000,4.000000,4.000000,4.000000,4.000000,4.000000,4.000000,4.000000,4.000000,4.000000,4.000000,4.000000,4.000000,4.000000,4.000000,4.000000,100.000000
1614735715.616445,102.000000,0.000000,-3.334637,-1.899736,-39.533466,4.922104,12.439353,-5.689332,-5.983838,-11.094711,-4.599004,-33.037178,-24.819704,-13.512086,-4.465145,-13.402952,-39.531647,-148.156540,-4.929211,-16.144604,-55.281929,-55.887596,-7.833500,-0.315755,2.452287,-17.669390,-8.529545,-1.984050,-49.898872,-12.134359,-7.208677,5.999634,8.011121,-23.724110,8064.000000,0.000000,4.000000,,,,0.000000,4.000000,4.000000,4.000000,4.000000,4.000000,4.000000,4.000000,4.000000,4.000000,4.000000,4.000000,4.000000,4.000000,4.000000,4.000000,4.000000,4.000000,4.000000,4.000000,4.000000,4.000000,4.000000,4.000000,4.000000,4.000000,4.000000,4.000000,4.000000,4.000000,4.000000,4.000000,4.000000,100.000000
1614735715.624095,103.000000,0.000000,-5.382584,-1.897837,-42.570854,7.994105,10.888452,-5.683642,-5.977854,-12.622078,-4.081584,-19.157988,-23.256424,-12.985753,-4.460680,-13.902369,-36.928009,-140.828888,-5.949923,-12.538716,-43.944595,-50.703503,-3.210282,-5.443645,5.013937,-13.036336,-0.315887,-1.982066,-37.028461,-17.250429,-6.688647,4.455173,4.926186,-24.726027,8192.000000,0.000000,4.000000,,,,0.000000,4.000000,4.000000,4.000000,4.000000,4.000000,4.000000,4.000000,4.000000,4.000000,4.000000,4.000000,4.000000,4.000000,4.000000,4.000000,4.000000,4.000000,4.000000,4.000000,4.000000,4.000000,4.000000,4.000000,4.000000,4.000000,4.000000,4.000000,4.000000,4.000000,4.000000,4.000000,4.000000,100.000000
1614735715.631844,104.000000,0.000000,-6.915663,-2.408759,-38.425720,7.986111,12.416025,-5.677958,-6.484696,-12.096636,0.537882,-19.651651,-24.771629,-13.485588,-4.456219,-12.862826,-38.942364,-141.713699,-11.584998,-13.551818,-43.900650,-55.781006,-3.719893,-8.002303,3.983282,-10.972017,-5.956596,1.096839,-38.017075,-15.181897,-7.194779,11.117385,7.998183,-23.675659,8064.000000,0.000000,4.000000,,,,0.000000,4.000000,4.000000,4.000000,4.000000,4.000000,4.000000,4.000000,4.000000,4.000000,4.000000,4.000000,4.000000,4.000000,4.000000,4.000000,4.000000,4.000000,4.000000,4.000000,4.000000,4.000000,4.000000,4.000000,4.000000,4.000000,4.000000,4.000000,4.000000,4.000000,4.000000,4.000000,4.000000,100.000000
1614735715.639494,105.000000,0.000000,-5.370286,-0.355068,-32.233448,8.490945,15.480532,-5.672280,-5.965391,-8.494795,4.127088,-13.478153,-23.721216,-9.882359,-3.938942,-13.362784,-34.288036,-140.033524,-10.547772,-11.999804,-42.831108,-57.776508,-3.716172,-7.481481,3.979299,-9.422584,-10.053204,5.711127,-36.953415,-10.551331,-6.161943,22.388319,12.092749,-23.651983,8064.000000,0.000000,4.000000,,,,0.000000,4.000000,4.000000,4.000000,4.000000,4.000000,4.000000,4.000000,4.000000,4.000000,4.000000,4.000000,4.000000,4.000000,4.000000,4.000000,4.000000,4.000000,4.000000,4.000000,4.000000,4.000000,4.000000,4.000000,4.000000,4.000000,4.000000,4.000000,4.000000,4.000000,4.000000,4.000000,4.000000,100.000000
1614735715.647243,106.000000,0.000000,-3.826454,1.696569,-35.790958,7.969634,14.952230,-6.179429,-4.933784,-7.973480,0.020396,-4.746726,-11.902623,-2.180169,-4.960644,-13.349422,-21.433237,-123.483238,-4.383379,-3.782677,-34.583149,-53.103348,-0.635533,-6.448358,3.975320,-1.208033,3.290183,6.218236,-30.249794,-11.053600,-4.104499,25.442854,12.593477,-23.628332,8064.000000,0.000000,4.000000,,,,0.000000,4.000000,4.000000,4.000000,4.000000,4.000000,4.000000,4.000000,4.000000,4.000000,4.000000,4.000000,4.000000,4.000000,4.000000,4.000000,4.000000,4.000000,4.000000,4.000000,4.000000,4.000000,4.000000,4.000000,4.000000,4.000000,4.000000,4.000000,4.000000,4.000000,4.000000,4.000000,4.000000,100.000000
1614735715.654892,107.000000,0.000000,-3.822628,1.182052,-38.319271,7.448843,14.424459,-5.660429,-1.339107,-7.965507,2.584479,-11.408646,1.955433,7.052781,-0.340299,-2.054021,-15.257957,-104.385391,-1.302072,6.477516,-30.958822,-53.563065,2.442025,-7.980371,4.996985,5.459841,10.979200,5.186377,-28.681084,-4.888700,-3.074754,21.827667,11.555243,-15.399575,8064.000000,0.000000,4.000000,,,,0.000000,4.000000,4.000000,4.000000,4.000000,4.000000,4.000000,4.000000,4.000000,4.000000,4.000000,4.000000,4.000000,4.000000,4.000000,4.000000,4.000000,4.000000,4.000000,4.000000,4.000000,4.000000,4.000000,4.000000,4.000000,4.000000,4.000000,4.000000,4.000000,4.000000,4.000000,4.000000,4.000000,100.000000
1614735715.662642,108.000000,0.000000,-1.767523,2.206511,-32.127106,7.954215,14.410033,-3.603486,4.816078,-4.367797,10.274201,-16.012623,8.107324,16.276497,10.942093,15.896751,-8.576033,-98.127159,2.288974,14.163346,-31.440683,-55.047962,6.542148,-4.895468,7.043271,2.890279,7.891298,6.206832,-33.780609,6.911060,-1.533218,20.780199,12.056508,-12.820073,8064.000000,0.000000,4.000000,,,,0.000000,4.000000,4.000000,4.000000,4.000000,4.000000,4.000000,4.000000,4.000000,4.000000,4.000000,4.000000,4.000000,4.000000,4.000000,4.000000,4.000000,4.000000,4.000000,4.000000,4.000000,4.000000,4.000000,4.000000,4.000000,4.000000,4.000000,4.000000,4.000000,4.000000,4.000000,4.000000,4.000000,100.000000
1614735715.670291,109.000000,0.000000,0.285527,5.281227,-38.248825,7.946261,15.421265,-1.548601,11.477928,-1.286506,6.161364,-21.124815,9.124858,21.388426,17.084997,22.547522,2.201774,-94.439293,8.440531,13.123542,-30.896423,-57.044197,8.586887,4.853017,8.061868,2.374568,5.319304,5.174984,-39.900673,9.981072,0.519598,20.246597,14.095734,-26.140587,8192.000000,0.000000,4.000000,,,,0.000000,4.000000,4.000000,4.000000,4.000000,4.000000,4.000000,4.000000,4.000000,4.000000,4.000000,4.000000,4.000000,4.000000,4.000000,4.000000,4.000000,4.000000,4.000000,4.000000,4.000000,4.000000,4.000000,4.000000,4.000000,4.000000,4.000000,4.000000,4.000000,4.000000,4.000000,4.000000,4.000000,100.000000
1614735715.678040,110.000000,0.000000,-0.227579,4.250305,-57.184933,3.322930,13.354561,-2.059873,6.851066,-4.874963,-4.101208,-39.565228,7.577271,17.777294,11.426886,14.319845,-0.364531,-94.857674,6.380808,3.366829,-37.532192,-72.371765,3.962916,9.463549,8.566627,-0.191909,-8.019349,0.554424,-41.912056,9.971091,1.031898,15.098145,6.902150,-37.909317,8064.000000,0.000000,4.000000,,,,0.000000,4.000000,4.000000,4.000000,4.000000,4.000000,4.000000,4.000000,4.000000,4.000000,4.000000,4.000000,4.000000,4.000000,4.000000,4.000000,4.000000,4.000000,4.000000,4.000000,4.000000,4.000000,4.000000,4.000000,4.000000,4.000000,4.000000,4.000000,4.000000,4.000000,4.000000,4.000000,4.000000,100.000000
1614735715.685690,111.000000,0.000000,-0.227352,1.681952,-53.025185,3.832428,10.264283,-2.057813,-8.540401,-12.562396,-6.148389,-35.935921,3.467130,10.580029,6.287254,6.613218,-12.159038,-107.070511,1.759043,-3.816025,-58.007481,-89.222473,-2.707714,1.761778,8.045239,-13.012230,-23.395945,-2.523053,-39.818859,6.884197,0.518046,9.954843,-6.950906,-41.973972,8064.000000,0.000000,4.000000,,,,0.000000,4.000000,4.000000,4.000000,4.000000,4.000000,4.000000,4.000000,4.000000,4.000000,4.000000,4.000000,4.000000,4.000000,4.000000,4.000000,4.000000,4.000000,4.000000,4.000000,4.000000,4.000000,4.000000,4.000000,4.000000,4.000000,4.000000,4.000000,4.000000,4.000000,4.000000,4.000000,4.000000,100.000000
1614735715.693539,112.000000,0.000000,-0.227124,4.757193,-35.023441,10.495262,11.792480,-2.055755,-12.634424,-17.165218,-4.090959,-13.335881,-2.177363,8.518167,7.819428,5.580964,-15.736622,-117.219849,1.757284,-9.453235,-71.795624,-90.671715,-3.730647,-4.393830,0.344887,-18.640244,-25.423830,-2.520530,-43.368786,-2.353456,0.517528,5.842324,-10.020878,-52.188408,8064.000000,0.000000,4.000000,,,,0.000000,4.000000,4.000000,4.000000,4.000000,4.000000,4.000000,4.000000,4.000000,4.000000,4.000000,4.000000,4.000000,4.000000,4.000000,4.000000,4.000000,4.000000,4.000000,4.000000,4.000000,4.000000,4.000000,4.000000,4.000000,4.000000,4.000000,4.000000,4.000000,4.000000,4.000000,4.000000,4.000000,100.000000
1614735715.701288,113.000000,0.000000,-0.226897,5.778077,-47.296112,6.382203,9.216586,-2.053699,-5.442303,-13.045489,-3.574047,-19.989212,-8.841852,7.996829,4.734686,3.524101,-20.849091,-119.153908,-1.321397,-19.700191,-72.236656,-89.555397,-6.803840,-1.825334,-7.860587,-17.595963,-38.218922,-2.005189,-53.581825,-5.940846,0.517010,2.246738,-12.062140,-58.290066,8064.000000,0.000000,4.000000,,,,0.000000,4.000000,4.000000,4.000000,4.000000,4.000000,4.000000,4.000000,4.000000,4.000000,4.000000,4.000000,4.000000,4.000000,4.000000,4.000000,4.000000,4.000000,4.000000,4.000000,4.000000,4.000000,4.000000,4.000000,4.000000,4.000000,4.000000,4.000000,4.000000,4.000000,4.000000,4.000000,4.000000,100.000000
1614735715.709137,114.000000,0.000000,-0.226670,-0.381547,-66.735992,-5.931872,-2.587502,-2.051646,-9.026604,-7.904239,-7.160217,-36.379478,-16.525318,-2.780399,-7.064920,-5.197372,-32.623112,-130.316803,-7.986742,-29.424082,-75.241341,-96.645332,-15.002164,-9.515817,-6.827085,-28.860416,-61.770443,-2.516004,-57.117989,-5.934906,0.516493,1.218850,-22.819307,-53.103569,8064.000000,0.000000,4.000000,,,,0.000000,4.000000,4.000000,4.000000,4.000000,4.000000,4.000000,4.000000,4.000000,4.000000,4.000000,4.000000,4.000000,4.000000,4.000000,4.000000,4.000000,4.000000,4.000000,4.000000,4.000000,4.000000,4.000000,4.000000,4.000000,4.000000,4.000000,4.000000,4.000000,4.000000,4.000000,4.000000,4.000000,100.000000
1614735715.716887,115.000000,0.000000,-0.739264,-2.432448,-52.310284,-5.413120,-5.661838,-2.049594,-13.120141,-9.947617,-8.691518,-31.214893,-19.072895,-12.008388,-14.750163,-8.269098,-35.667412,-138.391617,-11.055678,-29.394657,-78.243019,-97.061508,-20.115366,-19.249889,-9.384360,-36.523865,-51.452263,-2.000668,-53.471127,-18.749483,0.515977,2.243272,-19.719564,-50.999184,8064.000000,0.000000,4.000000,,,,0.000000,4.000000,4.000000,4.000000,4.000000,4.000000,4.000000,4.000000,4.000000,4.000000,4.000000,4.000000,4.000000,4.000000,4.000000,4.000000,4.000000,4.000000,4.000000,4.000000,4.000000,4.000000,4.000000,4.000000,4.000000,4.000000,4.000000,4.000000,4.000000,4.000000,4.000000,4.000000,4.000000,100.000000
1614735715.724736,116.000000,0.000000,0.799937,2.698190,-32.257973,4.848704,4.087413,-2.047544,-1.824970,-11.476130,-1.503339,-27.593935,-11.361515,2.362595,-7.555926,3.021223,-26.400976,-120.304512,-7.967700,-18.596031,-63.292984,-84.143929,-18.556789,-7.948589,-18.605745,-18.025803,-18.580299,-1.998667,-52.904835,-21.807657,0.002640,2.241029,-1.238307,-45.307159,8064.000000,0.000000,4.000000,,,,0.000000,4.000000,4.000000,4.000000,4.000000,4.000000,4.000000,4.000000,4.000000,4.000000,4.000000,4.000000,4.000000,4.000000,4.000000,4.000000,4.000000,4.000000,4.000000,4.000000,4.000000,4.000000,4.000000,4.000000,4.000000,4.000000,4.000000,4.000000,4.000000,4.000000,4.000000,4.000000,4.000000,100.000000
