title:23, start timestamp:1614737592.985063, stop timestamp:1614737638.673134, headset type:EPOCFLEX, headset serial:F00001ED, headset firmware:f12, subject name:s16, channels:75, sampling rate:128, samples:5899      , version:2.0
Timestamp,EEG.Counter,EEG.Interpolated,EEG.Cz,EEG.Fz,EEG.Fp1,EEG.F7,EEG.F3,EEG.FC1,EEG.C3,EEG.FC5,EEG.FT9,EEG.T7,EEG.TP9,EEG.CP5,EEG.CP1,EEG.P3,EEG.P7,EEG.O1,EEG.Pz,EEG.Oz,EEG.O2,EEG.P8,EEG.P4,EEG.CP2,EEG.CP6,EEG.TP10,EEG.T8,EEG.FT10,EEG.FC6,EEG.C4,EEG.FC2,EEG.F4,EEG.F8,EEG.Fp2,EEG.HighBitFlex,EEG.RawCq,EEG.Battery,MarkerIndex,MarkerType,MarkerValueInt,EEG.MarkerHardware,CQ.Cz,CQ.Fz,CQ.Fp1,CQ.F7,CQ.F3,CQ.FC1,CQ.C3,CQ.FC5,CQ.FT9,CQ.T7,CQ.TP9,CQ.CP5,CQ.CP1,CQ.P3,CQ.P7,CQ.O1,CQ.Pz,CQ.Oz,CQ.O2,CQ.P8,CQ.P4,CQ.CP2,CQ.CP6,CQ.TP10,CQ.T8,CQ.FT10,CQ.FC6,CQ.C4,CQ.FC2,CQ.F4,CQ.F8,CQ.Fp2,CQ.Overall
1614737592.985063,75.000000,0.000000,6.632868,0.009318,-54.203205,-19.912638,-17.813818,-11.362468,-5.773845,-2.249397,-22.696527,-4.461617,-18.292393,-7.930454,-6.849337,-3.912077,-14.914274,-58.302975,-0.960706,-12.446166,-42.987350,-87.480179,-6.466337,3.098018,-6.147556,-13.928972,5.814609,-0.090496,-44.659332,20.464598,-4.619874,6.918374,21.558531,-61.614094,0.000000,183.000000,4.000000,,,,0.000000,4.000000,4.000000,4.000000,4.000000,4.000000,4.000000,4.000000,4.000000,4.000000,4.000000,4.000000,4.000000,4.000000,4.000000,4.000000,4.000000,4.000000,4.000000,4.000000,4.000000,4.000000,4.000000,4.000000,4.000000,4.000000,4.000000,4.000000,4.000000,4.000000,4.000000,4.000000,4.000000,100.000000
1614737592.992712,76.000000,0.000000,6.626235,0.009309,-47.995155,-19.892725,-17.283182,-11.351106,-3.716789,-0.195865,-21.135370,6.824895,-17.761280,-7.409703,-6.842487,-3.908165,-14.899360,-57.219032,-0.959746,-11.920899,-42.944363,-86.879875,-2.870127,10.274407,-5.115767,-11.863761,14.013923,2.986518,-11.794161,29.162081,0.512952,9.988379,24.101076,-51.296070,0.000000,168.000000,4.000000,,,,0.000000,4.000000,4.000000,4.000000,4.000000,4.000000,4.000000,4.000000,4.000000,4.000000,4.000000,4.000000,4.000000,4.000000,4.000000,4.000000,4.000000,4.000000,4.000000,4.000000,4.000000,4.000000,4.000000,4.000000,4.000000,4.000000,4.000000,4.000000,4.000000,4.000000,4.000000,4.000000,4.000000,100.000000
1614737593.000460,77.000000,0.000000,6.619609,0.009300,-50.511265,-19.872831,-14.701797,-11.339754,-1.661790,-0.195669,-22.139875,-1.387058,-18.769159,-5.351011,-6.835645,-3.904257,-14.884460,-57.161812,-0.958786,-6.780774,-45.978344,-88.844276,-2.867257,13.853877,-4.085011,-13.390359,4.769140,4.009172,19.499685,10.671381,2.050900,8.952749,22.025692,-44.065289,0.000000,205.000000,4.000000,,,,0.000000,4.000000,4.000000,4.000000,4.000000,4.000000,4.000000,4.000000,4.000000,4.000000,4.000000,4.000000,4.000000,4.000000,4.000000,4.000000,4.000000,4.000000,4.000000,4.000000,4.000000,4.000000,4.000000,4.000000,4.000000,4.000000,4.000000,4.000000,4.000000,4.000000,4.000000,4.000000,4.000000,100.000000
1614737593.008109,78.000000,0.000000,6.612989,0.009290,-50.460754,-19.852959,-8.533249,-11.328414,0.391153,-0.195474,-22.117735,-13.180542,-17.724749,-3.294378,-6.828809,-3.387532,-11.279832,-57.104652,-0.957827,-8.825274,-39.265697,-75.422104,1.238174,12.814382,-6.132208,-9.274405,3.738729,5.543625,-8.212123,10.660709,1.536029,8.943796,23.029308,-44.021221,0.000000,195.000000,4.000000,,,,0.000000,4.000000,4.000000,4.000000,4.000000,4.000000,4.000000,4.000000,4.000000,4.000000,4.000000,4.000000,4.000000,4.000000,4.000000,4.000000,4.000000,4.000000,4.000000,4.000000,4.000000,4.000000,4.000000,4.000000,4.000000,4.000000,4.000000,4.000000,4.000000,4.000000,4.000000,4.000000,4.000000,100.000000
1614737593.015858,79.000000,0.000000,6.606377,0.009281,-49.384651,-20.345926,-4.934972,-11.829906,-0.122058,-0.195278,-21.582798,2.217253,-18.219845,-4.316725,-6.821980,-4.409786,-9.217270,-58.586006,-0.956869,-6.765167,-31.534124,-52.782578,9.954885,12.801568,-2.023511,1.504100,21.683708,6.050901,-28.716732,27.060305,2.047313,9.447673,23.006279,-44.490021,0.000000,174.000000,4.000000,,,,0.000000,4.000000,4.000000,4.000000,4.000000,4.000000,4.000000,4.000000,4.000000,4.000000,4.000000,4.000000,4.000000,4.000000,4.000000,4.000000,4.000000,4.000000,4.000000,4.000000,4.000000,4.000000,4.000000,4.000000,4.000000,4.000000,4.000000,4.000000,4.000000,4.000000,4.000000,4.000000,4.000000,100.000000
1614737593.023507,80.000000,0.000000,6.599770,0.009272,-49.335266,-18.787119,-5.955678,-10.792436,1.929346,-0.707903,-22.074036,30.420164,-19.227266,-3.286767,-6.815158,-2.354094,-2.541386,-48.271011,-0.955912,5.549290,-28.425667,-42.986206,14.047494,12.275946,12.337486,10.220545,28.841513,5.532030,-5.098271,16.264013,1.019625,9.438225,22.470451,-43.932713,0.000000,195.000000,4.000000,,,,0.000000,4.000000,4.000000,4.000000,4.000000,4.000000,4.000000,4.000000,4.000000,4.000000,4.000000,4.000000,4.000000,4.000000,4.000000,4.000000,4.000000,4.000000,4.000000,4.000000,4.000000,4.000000,4.000000,4.000000,4.000000,4.000000,4.000000,4.000000,4.000000,4.000000,4.000000,4.000000,4.000000,100.000000
1614737593.031256,81.000000,0.000000,6.593171,0.009262,-47.747471,-14.152947,-5.949723,-6.166258,10.132545,2.882548,-20.513500,21.158976,-8.438808,1.331905,-6.808343,5.340568,14.897053,-26.171459,-0.954957,17.338614,-19.166471,-44.481682,12.494985,9.699567,22.581558,10.723145,19.581902,5.526498,-2.016250,-3.239430,-1.545497,8.915967,22.960802,-43.888779,0.000000,207.000000,4.000000,,,,0.000000,4.000000,4.000000,4.000000,4.000000,4.000000,4.000000,4.000000,4.000000,4.000000,4.000000,4.000000,4.000000,4.000000,4.000000,4.000000,4.000000,4.000000,4.000000,4.000000,4.000000,4.000000,4.000000,4.000000,4.000000,4.000000,4.000000,4.000000,4.000000,4.000000,4.000000,4.000000,4.000000,100.000000
1614737593.038905,82.000000,0.000000,6.586577,0.009253,-47.699722,-11.574692,-5.430953,-3.595990,16.789080,6.469409,-15.877602,-3.477569,6.954246,4.407495,-6.801535,10.976253,27.702669,-13.324774,-0.954002,20.911018,-8.890895,-44.950020,12.482490,8.664227,18.969234,10.199601,15.459755,5.520972,-22.527054,-1.697729,-2.569593,8.907050,20.886559,-43.844891,0.000000,203.000000,4.000000,,,,0.000000,4.000000,4.000000,4.000000,4.000000,4.000000,4.000000,4.000000,4.000000,4.000000,4.000000,4.000000,4.000000,4.000000,4.000000,4.000000,4.000000,4.000000,4.000000,4.000000,4.000000,4.000000,4.000000,4.000000,4.000000,4.000000,4.000000,4.000000,4.000000,4.000000,4.000000,4.000000,4.000000,100.000000
1614737593.046654,83.000000,0.000000,7.092811,0.009244,-49.703304,-12.588758,-5.938342,-3.592394,15.233829,7.488581,-13.810442,10.372063,10.024215,3.890268,-6.794734,11.990917,28.187786,-14.337090,-0.953048,23.454208,-5.805081,-43.366608,13.495648,9.168383,14.334880,11.215043,13.905834,5.515450,-18.401962,1.893713,-2.054203,9.410964,18.814390,-45.339508,0.000000,174.000000,4.000000,,,,0.000000,4.000000,4.000000,4.000000,4.000000,4.000000,4.000000,4.000000,4.000000,4.000000,4.000000,4.000000,4.000000,4.000000,4.000000,4.000000,4.000000,4.000000,4.000000,4.000000,4.000000,4.000000,4.000000,4.000000,4.000000,4.000000,4.000000,4.000000,4.000000,4.000000,4.000000,4.000000,4.000000,100.000000
1614737593.054303,84.000000,0.000000,6.060077,0.009235,-50.166420,-12.576170,-5.932404,-4.101622,10.603209,6.968272,-14.822272,24.207844,8.475729,3.886377,-6.787939,11.978927,27.133957,-14.322753,-0.952095,24.456396,-6.824917,-42.297600,13.482153,9.159214,14.320545,8.639726,9.276544,5.509935,-9.665612,-2.210745,-2.052149,7.863091,18.795576,-47.858269,0.000000,176.000000,4.000000,,,,0.000000,4.000000,4.000000,4.000000,4.000000,4.000000,4.000000,4.000000,4.000000,4.000000,4.000000,4.000000,4.000000,4.000000,4.000000,4.000000,4.000000,4.000000,4.000000,4.000000,4.000000,4.000000,4.000000,4.000000,4.000000,4.000000,4.000000,4.000000,4.000000,4.000000,4.000000,4.000000,4.000000,100.000000
1614737593.062052,85.000000,0.000000,3.489915,0.009225,-49.603436,-12.050773,-5.926471,-3.584700,7.515684,6.448483,-14.807450,0.593893,8.980074,3.882491,-7.293971,10.428486,22.491438,-16.872534,-0.951142,16.739632,-12.971938,-48.409149,11.930209,9.150055,14.819045,1.451598,9.267267,4.991605,-21.963638,-3.234175,-2.050096,5.291126,17.238319,-48.323231,0.000000,201.000000,4.000000,,,,0.000000,4.000000,4.000000,4.000000,4.000000,4.000000,4.000000,4.000000,4.000000,4.000000,4.000000,4.000000,4.000000,4.000000,4.000000,4.000000,4.000000,4.000000,4.000000,4.000000,4.000000,4.000000,4.000000,4.000000,4.000000,4.000000,4.000000,4.000000,4.000000,4.000000,4.000000,4.000000,4.000000,100.000000
1614737593.069701,86.000000,0.000000,2.973604,0.009216,-49.041012,-12.038722,-5.920545,-3.581115,7.508168,8.493317,-13.254181,-12.227214,6.406991,3.878608,-6.261036,5.802673,12.212537,-24.035149,-0.950191,9.030584,-21.164095,-57.078690,12.943920,9.140905,13.265764,-1.626776,12.847743,6.012254,-29.633984,-2.718121,-2.048046,5.285835,15.169799,-47.762089,0.000000,184.000000,4.000000,,,,0.000000,4.000000,4.000000,4.000000,4.000000,4.000000,4.000000,4.000000,4.000000,4.000000,4.000000,4.000000,4.000000,4.000000,4.000000,4.000000,4.000000,4.000000,4.000000,4.000000,4.000000,4.000000,4.000000,4.000000,4.000000,4.000000,4.000000,4.000000,4.000000,4.000000,4.000000,4.000000,4.000000,100.000000
1614737593.077449,87.000000,0.000000,3.483451,-0.503613,-46.940689,-12.026684,-5.914624,-3.577534,7.500659,13.100207,-14.266568,8.297834,2.298020,3.874730,-3.690673,4.258409,9.636222,-25.036753,-0.436421,7.995913,-21.142931,-58.047249,13.443796,9.644585,13.252499,-0.599509,13.347716,6.519063,-28.578709,2.412802,-2.045998,5.280549,15.154629,-47.714325,0.000000,229.000000,4.000000,,,,0.000000,4.000000,4.000000,4.000000,4.000000,4.000000,4.000000,4.000000,4.000000,4.000000,4.000000,4.000000,4.000000,4.000000,4.000000,4.000000,4.000000,4.000000,4.000000,4.000000,4.000000,4.000000,4.000000,4.000000,4.000000,4.000000,4.000000,4.000000,4.000000,4.000000,4.000000,4.000000,4.000000,100.000000
1614737593.085098,88.000000,0.000000,1.428686,0.009711,-45.868107,-13.040298,-5.908710,-5.112418,6.980339,13.599928,-14.765121,22.135691,-1.806842,0.281112,-2.661341,2.202868,5.011201,-29.114281,-1.974446,7.475097,-25.737171,-64.143051,7.276506,9.122120,14.264888,-1.111730,11.795907,2.922800,-29.062950,6.512954,-2.043952,4.762448,15.139474,-47.666611,0.000000,178.000000,4.000000,,,,0.000000,4.000000,4.000000,4.000000,4.000000,4.000000,4.000000,4.000000,4.000000,4.000000,4.000000,4.000000,4.000000,4.000000,4.000000,4.000000,4.000000,4.000000,4.000000,4.000000,4.000000,4.000000,4.000000,4.000000,4.000000,4.000000,4.000000,4.000000,4.000000,4.000000,4.000000,4.000000,4.000000,100.000000
1614737593.092847,89.000000,0.000000,-1.136846,2.573803,-45.309418,-12.514437,-5.902801,-7.671408,6.973358,8.458123,-6.545228,8.780221,-10.010163,-4.334554,-3.171500,-3.953181,-9.352784,-43.444141,-4.536574,5.416339,-34.942204,-81.001984,-1.961539,7.574536,11.686520,-2.136259,12.809752,2.919877,-22.880041,0.352595,-2.041908,6.296147,15.124334,-47.618946,0.000000,213.000000,4.000000,,,,0.000000,4.000000,4.000000,4.000000,4.000000,4.000000,4.000000,4.000000,4.000000,4.000000,4.000000,4.000000,4.000000,4.000000,4.000000,4.000000,4.000000,4.000000,4.000000,4.000000,4.000000,4.000000,4.000000,4.000000,4.000000,4.000000,4.000000,4.000000,4.000000,4.000000,4.000000,4.000000,4.000000,100.000000
1614737593.100496,90.000000,0.000000,-1.135709,4.109691,-44.751289,-11.476281,-5.896898,-7.663736,7.479205,6.911203,1.153624,-12.254200,-14.615538,-4.843040,-2.655508,-8.051791,-14.984457,-54.169930,-5.044858,2.846820,-36.958546,-88.100471,-4.010859,6.028500,7.059449,-1.621302,12.284122,8.557982,-23.882801,-5.288784,-2.039866,8.853953,15.622031,-47.058506,0.000000,201.000000,4.000000,,,,0.000000,4.000000,4.000000,4.000000,4.000000,4.000000,4.000000,4.000000,4.000000,4.000000,4.000000,4.000000,4.000000,4.000000,4.000000,4.000000,4.000000,4.000000,4.000000,4.000000,4.000000,4.000000,4.000000,4.000000,4.000000,4.000000,4.000000,4.000000,4.000000,4.000000,4.000000,4.000000,4.000000,100.000000
1614737593.108245,91.000000,0.000000,-0.621753,3.592761,-49.834740,-14.541728,-5.378181,-8.168894,7.471726,8.442754,-5.001375,-14.806048,-14.600923,-3.299736,-4.191314,-7.530920,-12.405370,-59.756783,-4.526992,-8.950898,-47.177998,-85.961082,-1.955567,4.484010,5.001107,-3.158142,2.528248,5.985322,-44.884560,-0.155290,-2.037827,7.819458,11.503844,-48.037086,0.000000,208.000000,4.000000,,,,0.000000,4.000000,4.000000,4.000000,4.000000,4.000000,4.000000,4.000000,4.000000,4.000000,4.000000,4.000000,4.000000,4.000000,4.000000,4.000000,4.000000,4.000000,4.000000,4.000000,4.000000,4.000000,4.000000,4.000000,4.000000,4.000000,4.000000,4.000000,4.000000,4.000000,4.000000,4.000000,4.000000,100.000000
1614737593.115894,92.000000,0.000000,-1.133951,3.589168,-51.836189,-19.142570,-6.398444,-10.724827,7.464254,3.818926,-14.739964,-1.970729,-18.688885,-5.347718,-7.264046,-8.549029,-11.880144,-65.338051,-4.522465,-20.223999,-66.105179,-86.900764,-2.466432,1.915423,6.534568,-10.847292,-6.192229,-3.764253,-49.967880,-0.667955,-2.035789,5.247536,4.312854,-49.527512,0.000000,200.000000,4.000000,,,,0.000000,4.000000,4.000000,4.000000,4.000000,4.000000,4.000000,4.000000,4.000000,4.000000,4.000000,4.000000,4.000000,4.000000,4.000000,4.000000,4.000000,4.000000,4.000000,4.000000,4.000000,4.000000,4.000000,4.000000,4.000000,4.000000,4.000000,4.000000,4.000000,4.000000,4.000000,4.000000,4.000000,100.000000
1614737593.123743,93.000000,0.000000,-1.132817,3.585579,-46.656147,-17.072147,-6.392045,-12.252563,7.456790,-0.287457,-14.725224,2.133805,-17.131735,-4.829550,-7.256782,-7.514839,-4.175957,-58.606049,-4.517943,-10.973005,-55.782661,-75.018997,-3.489606,1.400687,6.528033,-13.400547,-0.545011,-6.837412,-29.405092,-9.898056,-2.546573,4.729468,4.308541,-51.016445,0.000000,178.000000,4.000000,,,,0.000000,4.000000,4.000000,4.000000,4.000000,4.000000,4.000000,4.000000,4.000000,4.000000,4.000000,4.000000,4.000000,4.000000,4.000000,4.000000,4.000000,4.000000,4.000000,4.000000,4.000000,4.000000,4.000000,4.000000,4.000000,4.000000,4.000000,4.000000,4.000000,4.000000,4.000000,4.000000,4.000000,100.000000
1614737593.131492,94.000000,0.000000,-0.618864,3.581994,-48.660774,-11.414049,-5.360012,-11.214670,7.449333,4.841036,-10.607934,-2.483713,-7.371014,0.303485,-6.223884,-2.379119,9.161552,-40.598724,-4.513425,11.089250,-23.419186,-46.738846,1.642089,1.912107,4.983044,-1.592275,5.096560,-4.266472,-24.247482,-8.862517,-2.031206,5.750380,3.791412,-55.580814,0.000000,217.000000,4.000000,,,,0.000000,4.000000,4.000000,4.000000,4.000000,4.000000,4.000000,4.000000,4.000000,4.000000,4.000000,4.000000,4.000000,4.000000,4.000000,4.000000,4.000000,4.000000,4.000000,4.000000,4.000000,4.000000,4.000000,4.000000,4.000000,4.000000,4.000000,4.000000,4.000000,4.000000,4.000000,4.000000,4.000000,100.000000
1614737593.139341,95.000000,0.000000,-0.618245,3.578412,-56.304420,-11.915455,-9.457216,-11.203456,7.441884,7.400297,-10.597326,2.134155,-2.748258,2.354464,-7.756122,0.187362,12.742135,-30.301714,-4.508912,20.308929,-11.088075,-28.743389,10.358396,0.884554,7.542163,10.717010,4.578642,-4.775026,-33.966824,1.915576,-2.029175,6.257450,2.249159,-58.089336,0.000000,192.000000,4.000000,,,,0.000000,4.000000,4.000000,4.000000,4.000000,4.000000,4.000000,4.000000,4.000000,4.000000,4.000000,4.000000,4.000000,4.000000,4.000000,4.000000,4.000000,4.000000,4.000000,4.000000,4.000000,4.000000,4.000000,4.000000,4.000000,4.000000,4.000000,4.000000,4.000000,4.000000,4.000000,4.000000,4.000000,100.000000
1614737593.147090,96.000000,0.000000,-1.130447,3.574833,-51.119911,-13.442001,-13.037502,-12.217893,7.434442,0.726230,-11.612370,12.388432,0.331413,1.326468,-6.722724,2.751277,16.831957,-22.579105,-4.504403,19.262980,-6.461602,-26.663364,13.937780,2.934952,14.714108,9.680652,16.368935,-5.795892,-18.035421,7.041866,-2.539966,4.712731,13.016140,-52.903042,8064.000000,0.000000,4.000000,,,,0.000000,4.000000,4.000000,4.000000,4.000000,4.000000,4.000000,4.000000,4.000000,4.000000,4.000000,4.000000,4.000000,4.000000,4.000000,4.000000,4.000000,4.000000,4.000000,4.000000,4.000000,4.000000,4.000000,4.000000,4.000000,4.000000,4.000000,4.000000,4.000000,4.000000,4.000000,4.000000,4.000000,100.000000
1614737593.154939,97.000000,0.000000,0.921965,3.571258,-41.325203,-7.274713,-6.870619,-8.103111,7.939828,9.956273,-10.575117,21.093992,9.561852,6.966167,-0.049335,9.928014,25.533073,-12.300116,-4.499898,19.756536,6.878193,-28.687983,12.898202,7.547401,18.801958,11.209433,30.711540,-1.687532,5.572358,5.496362,0.026676,5.733659,29.413380,-44.132191,8192.000000,0.000000,4.000000,,,,0.000000,4.000000,4.000000,4.000000,4.000000,4.000000,4.000000,4.000000,4.000000,4.000000,4.000000,4.000000,4.000000,4.000000,4.000000,4.000000,4.000000,4.000000,4.000000,4.000000,4.000000,4.000000,4.000000,4.000000,4.000000,4.000000,4.000000,4.000000,4.000000,4.000000,4.000000,4.000000,4.000000,100.000000
1614737593.162688,98.000000,0.000000,5.023607,3.567687,-41.283875,-0.087951,1.341380,-1.428341,7.419068,32.510418,-6.461977,27.739565,13.142033,14.651509,5.078919,15.559111,28.071644,-9.210893,-4.495399,19.736780,4.307212,-34.300320,12.372483,9.591136,17.757515,18.377710,26.578266,3.442361,-3.151163,5.490866,4.129213,9.830490,28.871147,-42.036777,8064.000000,0.000000,4.000000,,,,0.000000,4.000000,4.000000,4.000000,4.000000,4.000000,4.000000,4.000000,4.000000,4.000000,4.000000,4.000000,4.000000,4.000000,4.000000,4.000000,4.000000,4.000000,4.000000,4.000000,4.000000,4.000000,4.000000,4.000000,4.000000,4.000000,4.000000,4.000000,4.000000,4.000000,4.000000,4.000000,4.000000,100.000000
1614737593.170536,99.000000,0.000000,7.069866,3.564119,-40.729771,-2.139145,1.852859,0.624369,5.360367,32.477909,-2.865772,24.122082,13.641711,13.611217,4.561020,14.005091,25.992289,-10.740143,-4.490903,20.229864,-12.107351,-39.907047,13.385752,9.068724,18.765398,12.718307,21.423481,-0.663646,-30.327499,7.023837,5.663546,6.230916,18.073046,-47.122944,8192.000000,0.000000,4.000000,,,,0.000000,4.000000,4.000000,4.000000,4.000000,4.000000,4.000000,4.000000,4.000000,4.000000,4.000000,4.000000,4.000000,4.000000,4.000000,4.000000,4.000000,4.000000,4.000000,4.000000,4.000000,4.000000,4.000000,4.000000,4.000000,4.000000,4.000000,4.000000,4.000000,4.000000,4.000000,4.000000,4.000000,100.000000
1614737593.178285,100.000000,0.000000,6.549975,3.560555,-44.791607,-9.316493,1.338186,-0.401896,3.303724,14.496714,-2.862906,11.277446,11.576788,7.956580,4.043638,6.298778,18.273989,-16.370428,-4.486412,18.671173,-19.274731,-50.636368,11.833904,8.546835,16.182531,-0.114924,18.837955,-18.098879,-42.604866,4.965531,5.145062,-5.057366,11.901126,-57.845051,8064.000000,0.000000,4.000000,,,,0.000000,4.000000,4.000000,4.000000,4.000000,4.000000,4.000000,4.000000,4.000000,4.000000,4.000000,4.000000,4.000000,4.000000,4.000000,4.000000,4.000000,4.000000,4.000000,4.000000,4.000000,4.000000,4.000000,4.000000,4.000000,4.000000,4.000000,4.000000,4.000000,4.000000,4.000000,4.000000,4.000000,100.000000
1614737593.186134,101.000000,0.000000,6.543426,3.556995,-59.618610,-12.896920,1.849668,-0.401494,3.813241,8.841191,-3.372864,-0.015882,-5.870687,3.846059,4.039595,-2.938290,-2.769926,-38.918159,-4.481925,8.908912,-25.409304,-74.175476,7.206686,6.487006,8.986861,-2.678912,-0.668062,-25.773088,-35.382771,-1.193281,5.139917,-10.693335,5.222558,-65.479515,8064.000000,0.000000,4.000000,,,,0.000000,4.000000,4.000000,4.000000,4.000000,4.000000,4.000000,4.000000,4.000000,4.000000,4.000000,4.000000,4.000000,4.000000,4.000000,4.000000,4.000000,4.000000,4.000000,4.000000,4.000000,4.000000,4.000000,4.000000,4.000000,4.000000,4.000000,4.000000,4.000000,4.000000,4.000000,4.000000,4.000000,100.000000
1614737593.193883,102.000000,0.000000,7.049703,3.553438,-66.738480,-12.371203,-0.203464,0.111728,3.809428,11.909273,-4.395132,-4.118431,-24.839174,-1.285992,0.958632,-8.576378,-19.177412,-60.930523,-4.990264,0.694875,-36.153126,-88.460274,2.071274,4.942058,2.824028,-1.650592,-17.590471,-10.362700,-23.552517,-5.807472,5.134777,-6.067257,-2.987793,-65.926857,8064.000000,0.000000,4.000000,,,,0.000000,4.000000,4.000000,4.000000,4.000000,4.000000,4.000000,4.000000,4.000000,4.000000,4.000000,4.000000,4.000000,4.000000,4.000000,4.000000,4.000000,4.000000,4.000000,4.000000,4.000000,4.000000,4.000000,4.000000,4.000000,4.000000,4.000000,4.000000,4.000000,4.000000,4.000000,4.000000,4.000000,100.000000
1614737593.201731,103.000000,0.000000,6.529832,3.549884,-59.492252,-12.358832,-2.767363,-0.401205,3.805618,7.281979,-6.954839,3.065175,-22.763054,-4.361629,0.444853,-8.054981,-18.645414,-63.946518,-4.472454,1.719821,-39.706715,-83.243607,0.530741,6.475577,-3.332642,-5.751505,-15.008778,1.442535,-31.734093,-5.801665,5.642463,-4.009908,-5.036087,-65.348106,8064.000000,0.000000,4.000000,,,,0.000000,4.000000,4.000000,4.000000,4.000000,4.000000,4.000000,4.000000,4.000000,4.000000,4.000000,4.000000,4.000000,4.000000,4.000000,4.000000,4.000000,4.000000,4.000000,4.000000,4.000000,4.000000,4.000000,4.000000,4.000000,4.000000,4.000000,4.000000,4.000000,4.000000,4.000000,4.000000,4.000000,100.000000
1614737593.209480,104.000000,0.000000,6.523303,3.546334,-55.330196,-12.859294,-2.251775,-0.400803,3.801813,2.146492,-6.947885,11.780059,-14.535162,-2.305986,3.008511,-3.944362,-16.062666,-59.780006,-1.391058,2.743742,-39.154186,-79.057800,0.530210,9.033204,-8.970335,-4.720113,-16.532230,-8.815318,-50.163898,-6.308683,5.124000,-14.775128,-4.005410,-65.795578,8064.000000,0.000000,4.000000,,,,0.000000,4.000000,4.000000,4.000000,4.000000,4.000000,4.000000,4.000000,4.000000,4.000000,4.000000,4.000000,4.000000,4.000000,4.000000,4.000000,4.000000,4.000000,4.000000,4.000000,4.000000,4.000000,4.000000,4.000000,4.000000,4.000000,4.000000,4.000000,4.000000,4.000000,4.000000,4.000000,4.000000,100.000000
1614737593.217329,105.000000,0.000000,6.516779,3.542788,-56.300507,-12.333613,-1.736703,0.112418,3.798011,2.144346,-6.940937,9.204176,-14.007807,-0.252398,4.543964,1.700608,-11.431219,-53.566380,1.687256,4.279460,-36.038109,-73.850540,1.042500,9.024171,-9.987006,0.412812,-15.490057,-19.575733,-39.344501,-5.276734,2.554773,-26.042404,-3.488584,-64.191322,8064.000000,0.000000,4.000000,,,,0.000000,4.000000,4.000000,4.000000,4.000000,4.000000,4.000000,4.000000,4.000000,4.000000,4.000000,4.000000,4.000000,4.000000,4.000000,4.000000,4.000000,4.000000,4.000000,4.000000,4.000000,4.000000,4.000000,4.000000,4.000000,4.000000,4.000000,4.000000,4.000000,4.000000,4.000000,4.000000,4.000000,100.000000
1614737593.225078,106.000000,0.000000,6.510262,3.539245,-53.680103,-12.834101,-3.786248,-1.426156,3.794213,3.167842,-7.446816,7.656510,-9.378414,-0.764966,4.026599,4.263010,2.426366,-39.666660,3.224030,10.429027,-25.745663,-58.392075,2.579920,9.015146,-7.412916,2.976502,4.525433,-19.043337,-28.023108,-1.681714,2.039398,-27.554823,-3.485096,-65.152771,8064.000000,0.000000,4.000000,,,,0.000000,4.000000,4.000000,4.000000,4.000000,4.000000,4.000000,4.000000,4.000000,4.000000,4.000000,4.000000,4.000000,4.000000,4.000000,4.000000,4.000000,4.000000,4.000000,4.000000,4.000000,4.000000,4.000000,4.000000,4.000000,4.000000,4.000000,4.000000,4.000000,4.000000,4.000000,4.000000,4.000000,100.000000
1614737593.232927,107.000000,0.000000,6.503752,3.535706,-51.575142,-12.308446,-5.833744,-3.476012,3.790419,3.164674,-5.900908,17.905264,-3.728010,-0.764201,4.535393,3.233106,12.680350,-30.909044,3.220806,14.521162,-19.053249,-46.025990,5.141442,9.006131,-2.277298,1.947885,18.879883,-20.562756,-52.610470,1.396891,7.165564,-22.911884,-3.994431,-64.574799,8064.000000,0.000000,4.000000,,,,0.000000,4.000000,4.000000,4.000000,4.000000,4.000000,4.000000,4.000000,4.000000,4.000000,4.000000,4.000000,4.000000,4.000000,4.000000,4.000000,4.000000,4.000000,4.000000,4.000000,4.000000,4.000000,4.000000,4.000000,4.000000,4.000000,4.000000,4.000000,4.000000,4.000000,4.000000,4.000000,4.000000,100.000000
1614737593.240675,108.000000,0.000000,6.497248,3.532170,-52.036388,-8.706394,-5.827910,-4.498177,3.786628,2.648689,-3.330904,25.579666,-1.160180,-0.250616,4.530858,4.255514,13.180490,-27.288393,2.704765,17.583565,-12.880350,-37.262016,10.777327,9.509946,4.904466,5.022860,16.809721,-16.952450,-52.557858,3.959597,9.722501,-13.145383,-0.913513,-55.279457,8064.000000,0.000000,4.000000,,,,0.000000,4.000000,4.000000,4.000000,4.000000,4.000000,4.000000,4.000000,4.000000,4.000000,4.000000,4.000000,4.000000,4.000000,4.000000,4.000000,4.000000,4.000000,4.000000,4.000000,4.000000,4.000000,4.000000,4.000000,4.000000,4.000000,4.000000,4.000000,4.000000,4.000000,4.000000,4.000000,4.000000,100.000000
1614737593.248324,109.000000,0.000000,6.490751,3.528638,-51.471531,-5.107944,-6.847723,-3.980858,3.782842,3.158861,-3.840394,21.964342,4.482006,-0.250366,4.013506,7.328182,12.141668,-18.030334,2.702060,26.283930,2.004325,-23.891418,17.433216,8.987616,9.514946,13.735785,22.433935,-3.602163,-19.684788,8.571022,8.687137,3.790840,5.754066,-53.685715,8064.000000,0.000000,4.000000,,,,0.000000,4.000000,4.000000,4.000000,4.000000,4.000000,4.000000,4.000000,4.000000,4.000000,4.000000,4.000000,4.000000,4.000000,4.000000,4.000000,4.000000,4.000000,4.000000,4.000000,4.000000,4.000000,4.000000,4.000000,4.000000,4.000000,4.000000,4.000000,4.000000,4.000000,4.000000,4.000000,4.000000,100.000000
1614737593.256073,110.000000,0.000000,6.484260,3.525110,-51.932880,-4.590015,-9.917798,-3.976877,3.779059,3.155702,-6.400656,5.019302,9.092909,-0.250115,4.522314,7.833674,13.155168,-10.319997,5.263461,30.873030,8.668987,-18.739323,23.056808,8.978627,15.146457,21.414358,29.078169,-2.572920,-6.331769,9.588092,8.678450,10.966536,8.825235,-70.042282,8064.000000,0.000000,4.000000,,,,0.000000,4.000000,4.000000,4.000000,4.000000,4.000000,4.000000,4.000000,4.000000,4.000000,4.000000,4.000000,4.000000,4.000000,4.000000,4.000000,4.000000,4.000000,4.000000,4.000000,4.000000,4.000000,4.000000,4.000000,4.000000,4.000000,4.000000,4.000000,4.000000,4.000000,4.000000,4.000000,4.000000,100.000000
1614737593.263722,111.000000,0.000000,6.477776,3.521584,-51.368126,-5.098246,-9.907881,-3.972901,3.775280,3.152546,-7.419897,-6.267769,9.083816,-0.249865,4.004971,7.313020,13.142013,-8.771215,5.258197,30.329336,1.993652,-22.823147,24.059393,8.969649,22.310799,21.392942,17.767040,-12.826757,-38.633129,8.552863,8.669771,1.211980,7.790770,-73.561989,8064.000000,0.000000,4.000000,,,,0.000000,4.000000,4.000000,4.000000,4.000000,4.000000,4.000000,4.000000,4.000000,4.000000,4.000000,4.000000,4.000000,4.000000,4.000000,4.000000,4.000000,4.000000,4.000000,4.000000,4.000000,4.000000,4.000000,4.000000,4.000000,4.000000,4.000000,4.000000,4.000000,4.000000,4.000000,4.000000,4.000000,100.000000
1614737593.271471,112.000000,0.000000,6.471298,3.518063,-46.188553,-5.093148,-6.821050,-3.968928,3.771504,3.149394,-6.899656,12.200037,9.587552,-0.249615,-0.101599,7.818527,12.103230,-9.275265,0.637555,30.811827,-3.649368,-26.902887,19.932770,7.422218,20.750025,18.294628,3.903118,-8.711367,-44.748344,10.595592,9.173923,-1.866155,7.782979,-53.488426,8064.000000,0.000000,4.000000,,,,0.000000,4.000000,4.000000,4.000000,4.000000,4.000000,4.000000,4.000000,4.000000,4.000000,4.000000,4.000000,4.000000,4.000000,4.000000,4.000000,4.000000,4.000000,4.000000,4.000000,4.000000,4.000000,4.000000,4.000000,4.000000,4.000000,4.000000,4.000000,4.000000,4.000000,4.000000,4.000000,4.000000,100.000000
1614737593.279120,113.000000,0.000000,6.464827,3.514545,-45.116722,-4.575234,-6.814229,-3.964959,3.767733,3.146245,-6.892756,30.136555,2.911298,-0.249366,-3.691241,6.272247,6.450101,-19.009579,-1.414365,23.088707,-11.338026,-42.773422,14.784631,1.773770,10.985685,14.173769,4.412036,-0.497527,-17.011288,5.969612,8.651928,5.315198,7.775196,-47.281090,8064.000000,0.000000,4.000000,,,,0.000000,4.000000,4.000000,4.000000,4.000000,4.000000,4.000000,4.000000,4.000000,4.000000,4.000000,4.000000,4.000000,4.000000,4.000000,4.000000,4.000000,4.000000,4.000000,4.000000,4.000000,4.000000,4.000000,4.000000,4.000000,4.000000,4.000000,4.000000,4.000000,4.000000,4.000000,4.000000,4.000000,100.000000
1614737593.286869,114.000000,0.000000,6.458362,3.511030,-49.174171,-5.596300,-9.371517,-3.960994,3.251145,3.143098,-6.885864,14.208982,-10.424947,-0.249116,-3.174729,0.112129,-2.274298,-36.939289,-0.387310,9.219465,-22.608740,-66.833214,12.205744,-3.356209,5.333674,5.954466,6.458906,-9.727798,-19.045557,-6.856871,4.027891,1.720139,8.280241,-61.592785,8064.000000,0.000000,4.000000,,,,0.000000,4.000000,4.000000,4.000000,4.000000,4.000000,4.000000,4.000000,4.000000,4.000000,4.000000,4.000000,4.000000,4.000000,4.000000,4.000000,4.000000,4.000000,4.000000,4.000000,4.000000,4.000000,4.000000,4.000000,4.000000,4.000000,4.000000,4.000000,4.000000,4.000000,4.000000,4.000000,4.000000,100.000000
1614737593.294518,115.000000,0.000000,6.451904,3.507519,-52.714741,-5.077883,-10.387787,-3.957033,4.273535,3.139955,-7.391798,0.861441,-16.055548,-0.248867,-3.684375,-5.016189,-9.964332,-46.133118,-2.438204,4.594861,-28.227156,-77.022789,11.680717,-1.301571,5.841161,0.820307,2.349883,-15.871917,-51.334206,-10.439757,1.459761,-8.025170,8.271961,-66.146576,8064.000000,0.000000,4.000000,,,,0.000000,4.000000,4.000000,4.000000,4.000000,4.000000,4.000000,4.000000,4.000000,4.000000,4.000000,4.000000,4.000000,4.000000,4.000000,4.000000,4.000000,4.000000,4.000000,4.000000,4.000000,4.000000,4.000000,4.000000,4.000000,4.000000,4.000000,4.000000,4.000000,4.000000,4.000000,4.000000,4.000000,100.000000
1614737593.302267,116.000000,0.000000,6.445452,3.504012,-51.636383,-2.508703,-9.351758,-3.953076,6.320543,3.136815,-6.871586,3.937502,-14.501030,-0.248618,-2.655049,-3.985531,-16.621033,-46.599804,3.205260,7.667190,-27.686108,-74.381660,11.669037,7.417680,6.348141,5.434871,7.988559,-2.522712,-51.795692,0.852734,4.022403,-3.914581,6.212407,-58.900944,8064.000000,0.000000,4.000000,,,,0.000000,4.000000,4.000000,4.000000,4.000000,4.000000,4.000000,4.000000,4.000000,4.000000,4.000000,4.000000,4.000000,4.000000,4.000000,4.000000,4.000000,4.000000,4.000000,4.000000,4.000000,4.000000,4.000000,4.000000,4.000000,4.000000,4.000000,4.000000,4.000000,4.000000,4.000000,4.000000,4.000000,100.000000
1614737593.309916,117.000000,0.000000,6.439006,3.500508,-47.482182,-0.967732,-7.291124,-3.949123,7.852684,3.133678,-4.813433,1.369462,-13.973708,-0.248370,-0.088292,-2.955905,-18.655695,-48.604488,13.458465,6.633881,-25.607140,-72.768822,11.657368,13.564108,7.880254,8.506359,21.826723,8.249042,-19.949024,9.569830,5.556843,5.320102,12.360041,-55.765118,8064.000000,0.000000,4.000000,,,,0.000000,4.000000,4.000000,4.000000,4.000000,4.000000,4.000000,4.000000,4.000000,4.000000,4.000000,4.000000,4.000000,4.000000,4.000000,4.000000,4.000000,4.000000,4.000000,4.000000,4.000000,4.000000,4.000000,4.000000,4.000000,4.000000,4.000000,4.000000,4.000000,4.000000,4.000000,4.000000,4.000000,100.000000
1614737593.317664,118.000000,0.000000,6.945388,3.497007,-44.357777,-1.992406,-6.771012,-3.945174,7.332011,3.130545,-2.757337,8.547580,-14.472555,-0.248121,-0.088203,-6.542692,-16.585756,-53.171268,9.855263,2.011863,-26.094353,-75.260155,12.158531,13.550544,9.923656,1.831186,21.292076,6.189511,-21.467535,11.611542,4.525645,6.340423,21.578449,-53.658070,8064.000000,0.000000,4.000000,,,,0.000000,4.000000,4.000000,4.000000,4.000000,4.000000,4.000000,4.000000,4.000000,4.000000,4.000000,4.000000,4.000000,4.000000,4.000000,4.000000,4.000000,4.000000,4.000000,4.000000,4.000000,4.000000,4.000000,4.000000,4.000000,4.000000,4.000000,4.000000,4.000000,4.000000,4.000000,4.000000,4.000000,100.000000
1614737593.325313,119.000000,0.000000,6.425622,3.493510,-44.313419,-0.964772,-5.225780,-3.941228,6.811859,3.127414,-3.267400,27.513391,-14.458082,-0.760694,-3.677859,-6.023329,-7.338402,-52.605274,-0.923824,4.061133,-27.606720,-70.569511,12.146373,12.511353,10.426553,-2.786029,12.040015,5.157680,-47.599915,12.625571,5.033939,5.821262,17.454308,-54.630054,8064.000000,0.000000,4.000000,,,,0.000000,4.000000,4.000000,4.000000,4.000000,4.000000,4.000000,4.000000,4.000000,4.000000,4.000000,4.000000,4.000000,4.000000,4.000000,4.000000,4.000000,4.000000,4.000000,4.000000,4.000000,4.000000,4.000000,4.000000,4.000000,4.000000,4.000000,4.000000,4.000000,4.000000,4.000000,4.000000,4.000000,100.000000
1614737593.333062,120.000000,0.000000,5.906376,2.977196,-43.756287,1.600295,1.446113,-4.962928,7.830688,2.611466,-3.264133,22.357674,-7.264137,-0.759933,-3.674181,3.726284,10.617655,-38.193695,-1.948541,14.313482,-14.245781,-45.883556,12.647046,14.037303,10.928946,1.832141,17.669001,6.690984,-36.270264,13.638587,5.028906,3.764159,8.206083,-60.729271,8064.000000,0.000000,4.000000,,,,0.000000,4.000000,4.000000,4.000000,4.000000,4.000000,4.000000,4.000000,4.000000,4.000000,4.000000,4.000000,4.000000,4.000000,4.000000,4.000000,4.000000,4.000000,4.000000,4.000000,4.000000,4.000000,4.000000,4.000000,4.000000,4.000000,4.000000,4.000000,4.000000,4.000000,4.000000,4.000000,4.000000,100.000000
1614737593.340711,121.000000,0.000000,7.438931,3.487039,-44.225349,2.624336,6.060051,-3.419504,7.822857,3.121675,-3.260869,13.104546,7.102101,-0.246353,-2.132045,11.927686,23.940371,-16.104219,0.104690,23.529938,8.332567,-20.709467,15.711323,11.459163,13.482121,11.573899,24.317999,1.556088,-22.387838,14.137769,5.023877,-2.906272,7.685057,-64.771103,8064.000000,0.000000,4.000000,,,,0.000000,4.000000,4.000000,4.000000,4.000000,4.000000,4.000000,4.000000,4.000000,4.000000,4.000000,4.000000,4.000000,4.000000,4.000000,4.000000,4.000000,4.000000,4.000000,4.000000,4.000000,4.000000,4.000000,4.000000,4.000000,4.000000,4.000000,4.000000,4.000000,4.000000,4.000000,4.000000,4.000000,100.000000
1614737593.348560,122.000000,0.000000,4.867390,3.996373,-46.745228,2.108891,4.002709,-0.339161,5.250931,3.118554,-3.257608,21.809389,12.736025,-0.246106,-6.232477,10.377296,23.916430,-7.370167,-2.972338,22.480766,6.785774,-26.329782,16.208431,3.242575,15.519920,15.152068,13.011629,-8.701879,-54.673145,10.533887,5.531673,-6.493109,4.087628,-63.680691,8192.000000,0.000000,4.000000,,,,0.000000,4.000000,4.000000,4.000000,4.000000,4.000000,4.000000,4.000000,4.000000,4.000000,4.000000,4.000000,4.000000,4.000000,4.000000,4.000000,4.000000,4.000000,4.000000,4.000000,4.000000,4.000000,4.000000,4.000000,4.000000,4.000000,4.000000,4.000000,4.000000,4.000000,4.000000,4.000000,4.000000,100.000000
1614737593.356309,123.000000,0.000000,-0.265683,2.966735,-47.724125,2.106782,1.947424,-2.390104,3.194398,2.602614,-3.254350,13.069632,6.569442,-0.245860,-11.354449,7.289996,21.328411,-11.465361,-5.533468,20.407003,-13.733832,-46.303452,10.551198,-5.991436,10.376195,6.931788,0.690925,-13.308561,-75.644112,2.831046,3.987680,-5.460975,-3.095947,-63.104191,8064.000000,0.000000,4.000000,,,,0.000000,4.000000,4.000000,4.000000,4.000000,4.000000,4.000000,4.000000,4.000000,4.000000,4.000000,4.000000,4.000000,4.000000,4.000000,4.000000,4.000000,4.000000,4.000000,4.000000,4.000000,4.000000,4.000000,4.000000,4.000000,4.000000,4.000000,4.000000,4.000000,4.000000,4.000000,4.000000,4.000000,100.000000
1614737593.364158,124.000000,0.000000,0.760224,4.502230,-47.163578,2.617496,0.919836,-2.900534,8.319409,4.651294,-2.738275,-1.815233,8.614155,3.856950,-8.266172,8.821168,21.819902,-11.966716,-4.502294,21.925058,-15.258560,-48.308430,5.412441,-10.600829,-0.916232,0.771010,0.690234,-9.705509,-48.388981,-2.812811,1.932410,-5.968335,-0.015927,-62.528267,8064.000000,0.000000,4.000000,,,,0.000000,4.000000,4.000000,4.000000,4.000000,4.000000,4.000000,4.000000,4.000000,4.000000,4.000000,4.000000,4.000000,4.000000,4.000000,4.000000,4.000000,4.000000,4.000000,4.000000,4.000000,4.000000,4.000000,4.000000,4.000000,4.000000,4.000000,4.000000,4.000000,4.000000,4.000000,4.000000,4.000000,100.000000
1614737593.371907,125.000000,0.000000,5.887669,7.061831,-48.142056,2.102058,-1.645186,2.743392,12.926475,8.749207,-3.248358,13.571198,16.810669,7.955657,-0.052778,9.325167,20.772442,-8.877826,-1.420868,23.441595,-6.012533,-43.644737,4.894208,-8.538947,-5.530701,4.872804,3.253647,-9.695804,-26.802130,-5.886921,0.904837,-5.449545,4.086653,-63.491379,8064.000000,0.000000,4.000000,,,,0.000000,4.000000,4.000000,4.000000,4.000000,4.000000,4.000000,4.000000,4.000000,4.000000,4.000000,4.000000,4.000000,4.000000,4.000000,4.000000,4.000000,4.000000,4.000000,4.000000,4.000000,4.000000,4.000000,4.000000,4.000000,4.000000,4.000000,4.000000,4.000000,4.000000,4.000000,4.000000,4.000000,100.000000
1614737593.379756,126.000000,0.000000,6.907422,5.003487,-51.170837,2.099956,-2.156362,2.740649,5.734061,11.304560,-2.732289,27.916601,16.281038,7.434881,1.485736,6.238919,18.187567,-11.433051,-0.906627,23.418154,-8.570622,-50.780582,5.402135,-3.915023,-4.499529,5.380751,1.711932,-13.788671,-29.339430,-7.932316,1.416753,-2.879993,4.082566,-63.427887,8064.000000,0.000000,4.000000,,,,0.000000,4.000000,4.000000,4.000000,4.000000,4.000000,4.000000,4.000000,4.000000,4.000000,4.000000,4.000000,4.000000,4.000000,4.000000,4.000000,4.000000,4.000000,4.000000,4.000000,4.000000,4.000000,4.000000,4.000000,4.000000,4.000000,4.000000,4.000000,4.000000,4.000000,4.000000,4.000000,4.000000,100.000000
1614737593.387505,127.000000,0.000000,5.362053,0.383099,-51.119667,2.097856,-2.667026,-3.415938,-4.015263,10.267614,-2.216736,16.606634,7.546808,3.837703,-0.054211,3.668577,8.938610,-22.703669,-0.905720,19.292171,-15.228719,-57.396465,3.858271,-1.859826,-6.033491,2.298447,-1.879524,-8.646678,-33.412655,-2.283358,0.902515,-1.338652,8.181047,-60.800358,8064.000000,0.000000,4.000000,,,,0.000000,4.000000,4.000000,4.000000,4.000000,4.000000,4.000000,4.000000,4.000000,4.000000,4.000000,4.000000,4.000000,4.000000,4.000000,4.000000,4.000000,4.000000,4.000000,4.000000,4.000000,4.000000,4.000000,4.000000,4.000000,4.000000,4.000000,4.000000,4.000000,4.000000,4.000000,4.000000,4.000000,100.000000
1614737593.395354,0.000000,0.000000,6.382332,-0.642926,-51.068546,1.070117,-6.766923,-3.925343,-4.011248,3.077860,-6.829904,2.231052,-6.819713,-2.832802,1.484305,0.075165,-15.172893,-42.680965,-0.904815,2.862622,-25.469900,-62.467278,4.880054,-1.857966,-5.001817,0.757687,-0.852003,-8.125211,-37.481808,4.898412,1.414433,-1.850134,5.608764,-69.970329,0.000000,188.000000,4.000000,,,,0.000000,4.000000,4.000000,4.000000,4.000000,4.000000,4.000000,4.000000,4.000000,4.000000,4.000000,4.000000,4.000000,4.000000,4.000000,4.000000,4.000000,4.000000,4.000000,4.000000,4.000000,4.000000,4.000000,4.000000,4.000000,4.000000,4.000000,4.000000,4.000000,4.000000,4.000000,4.000000,4.000000,100.000000
1614737593.403102,1.000000,0.000000,6.375950,-2.180744,-54.607224,-2.007876,-9.837079,-4.947059,-3.494416,-5.643167,-15.028202,-8.027589,-30.402637,-13.599200,-2.106923,-15.822346,-47.465412,-73.407516,-1.929551,-26.371010,-54.162380,-84.968910,3.849533,-1.856108,-4.483994,-17.704609,-1.876792,-24.014523,-43.598171,-0.747512,1.413019,-1.848284,-13.371203,-90.925995,0.000000,202.000000,4.000000,,,,0.000000,4.000000,4.000000,4.000000,4.000000,4.000000,4.000000,4.000000,4.000000,4.000000,4.000000,4.000000,4.000000,4.000000,4.000000,4.000000,4.000000,4.000000,4.000000,4.000000,4.000000,4.000000,4.000000,4.000000,4.000000,4.000000,4.000000,4.000000,4.000000,4.000000,4.000000,4.000000,4.000000,100.000000
1614737593.410951,2.000000,0.000000,5.856753,-3.717025,-60.193642,-4.569971,-10.340062,-10.583138,-9.644768,-4.099062,-18.602917,-8.019562,-49.859413,-20.765087,-13.899688,-35.293701,-67.930771,-101.539238,-5.004544,-47.883099,-83.851807,-112.063431,-5.897907,-1.854252,-14.735921,-40.251007,-13.156967,-33.221275,-49.195599,-3.310867,0.898785,-1.846435,-25.665525,-96.476097,0.000000,170.000000,4.000000,,,,0.000000,4.000000,4.000000,4.000000,4.000000,4.000000,4.000000,4.000000,4.000000,4.000000,4.000000,4.000000,4.000000,4.000000,4.000000,4.000000,4.000000,4.000000,4.000000,4.000000,4.000000,4.000000,4.000000,4.000000,4.000000,4.000000,4.000000,4.000000,4.000000,4.000000,4.000000,4.000000,4.000000,100.000000
1614737593.418700,3.000000,0.000000,8.414999,-0.636385,-62.697548,-6.103863,-10.329722,-8.521272,-11.173585,3.597345,-18.071493,2.244868,-46.732632,-18.693041,-19.526814,-29.617384,-59.657707,-102.976158,-4.486719,-41.681370,-82.742317,-108.361626,-11.020214,0.198884,-19.336569,-30.979986,-16.220734,-20.880363,-47.607941,7.461675,2.949169,0.719514,-20.511654,-87.661674,0.000000,199.000000,4.000000,,,,0.000000,4.000000,4.000000,4.000000,4.000000,4.000000,4.000000,4.000000,4.000000,4.000000,4.000000,4.000000,4.000000,4.000000,4.000000,4.000000,4.000000,4.000000,4.000000,4.000000,4.000000,4.000000,4.000000,4.000000,4.000000,4.000000,4.000000,4.000000,4.000000,4.000000,4.000000,4.000000,4.000000,100.000000
1614737593.426549,4.000000,0.000000,12.509149,3.466816,-62.122032,-1.995195,-7.242470,-1.333264,-0.393180,5.132209,-17.027782,-1.347120,-30.275642,-10.982040,-12.840620,-11.639049,-32.931385,-77.232155,-2.430951,-20.614048,-55.480083,-77.996849,-1.265604,4.301250,-4.958258,-5.307981,-1.845538,-10.603072,-43.970589,13.608059,4.997501,2.770076,-13.824476,-83.984268,0.000000,197.000000,4.000000,,,,0.000000,4.000000,4.000000,4.000000,4.000000,4.000000,4.000000,4.000000,4.000000,4.000000,4.000000,4.000000,4.000000,4.000000,4.000000,4.000000,4.000000,4.000000,4.000000,4.000000,4.000000,4.000000,4.000000,4.000000,4.000000,4.000000,4.000000,4.000000,4.000000,4.000000,4.000000,4.000000,4.000000,100.000000
1614737593.434298,5.000000,0.000000,14.035101,3.463349,-56.418884,8.776031,-1.594202,0.719352,7.812341,10.255281,-11.369728,-5.961158,-11.783828,0.310993,-6.673934,-4.447922,-9.308709,-46.898514,-1.915699,0.945027,-25.681015,-57.406033,10.017713,5.835410,6.841572,5.979378,-2.356513,-12.130931,-58.798412,13.594451,5.505324,0.716024,-11.246549,-80.310539,0.000000,205.000000,4.000000,,,,0.000000,4.000000,4.000000,4.000000,4.000000,4.000000,4.000000,4.000000,4.000000,4.000000,4.000000,4.000000,4.000000,4.000000,4.000000,4.000000,4.000000,4.000000,4.000000,4.000000,4.000000,4.000000,4.000000,4.000000,4.000000,4.000000,4.000000,4.000000,4.000000,4.000000,4.000000,4.000000,4.000000,100.000000
1614737593.442146,6.000000,0.000000,13.508245,3.459886,-48.157337,19.023666,2.509957,-0.819829,8.317349,24.604000,-4.178871,13.531983,12.330520,13.131195,-7.180080,7.351398,11.726241,-16.082384,3.214422,27.097929,-0.014308,-53.246063,13.084619,5.316754,6.321910,15.716989,-12.610566,-13.144441,-59.765255,12.555216,5.499819,-0.823154,-11.235302,-73.050743,0.000000,197.000000,4.000000,,,,0.000000,4.000000,4.000000,4.000000,4.000000,4.000000,4.000000,4.000000,4.000000,4.000000,4.000000,4.000000,4.000000,4.000000,4.000000,4.000000,4.000000,4.000000,4.000000,4.000000,4.000000,4.000000,4.000000,4.000000,4.000000,4.000000,4.000000,4.000000,4.000000,4.000000,4.000000,4.000000,4.000000,100.000000
1614737593.449895,7.000000,0.000000,13.494737,3.456426,-46.057896,20.543104,6.610011,-0.306189,11.385955,29.707602,-2.123410,31.467169,37.959213,21.323193,-5.121618,29.395329,37.355541,16.754210,9.365053,51.173393,21.011347,-42.936405,14.609995,5.311437,7.341229,30.060246,2.273839,-10.567194,-26.884977,-3.354775,4.468678,1.228952,-15.326632,-75.028969,0.000000,197.000000,4.000000,,,,0.000000,4.000000,4.000000,4.000000,4.000000,4.000000,4.000000,4.000000,4.000000,4.000000,4.000000,4.000000,4.000000,4.000000,4.000000,4.000000,4.000000,4.000000,4.000000,4.000000,4.000000,4.000000,4.000000,4.000000,4.000000,4.000000,4.000000,4.000000,4.000000,4.000000,4.000000,4.000000,4.000000,100.000000
1614737593.457744,8.000000,0.000000,13.481242,3.452969,-49.088760,20.522560,11.731606,0.206938,14.964313,26.088150,-3.146928,32.974163,46.639206,23.353151,0.011709,37.058239,50.651520,29.557968,10.381330,51.122223,27.657003,-28.021675,18.185129,5.306126,11.436452,34.132751,17.656181,-11.582268,-24.293991,-16.684753,1.900107,-1.336380,-16.849766,-79.569328,0.000000,185.000000,4.000000,,,,0.000000,4.000000,4.000000,4.000000,4.000000,4.000000,4.000000,4.000000,4.000000,4.000000,4.000000,4.000000,4.000000,4.000000,4.000000,4.000000,4.000000,4.000000,4.000000,4.000000,4.000000,4.000000,4.000000,4.000000,4.000000,4.000000,4.000000,4.000000,4.000000,4.000000,4.000000,4.000000,4.000000,100.000000
1614737593.465493,9.000000,0.000000,13.467761,3.449516,-50.065315,23.578960,13.258336,2.258013,15.974990,30.164627,-2.630960,37.043755,40.951538,22.816977,1.550159,34.969902,45.985481,17.733540,11.396589,40.814690,23.013962,-22.865448,21.756687,8.890563,10.399374,34.611439,2.253909,-14.134788,-56.577389,-2.821915,0.872566,-6.976069,-17.345737,-79.489761,0.000000,178.000000,4.000000,,,,0.000000,4.000000,4.000000,4.000000,4.000000,4.000000,4.000000,4.000000,4.000000,4.000000,4.000000,4.000000,4.000000,4.000000,4.000000,4.000000,4.000000,4.000000,4.000000,4.000000,4.000000,4.000000,4.000000,4.000000,4.000000,4.000000,4.000000,4.000000,4.000000,4.000000,4.000000,4.000000,4.000000,100.000000
1614737593.473142,10.000000,0.000000,13.967113,3.446067,-50.015247,24.581022,13.245077,3.794216,14.933373,32.698566,-2.628330,37.006710,39.372128,22.281340,1.035788,34.422112,41.836933,11.561959,13.949295,39.748234,20.426846,-25.919506,21.222111,12.471416,11.927437,33.038364,-10.568858,-15.146294,-53.443890,4.873214,1.384514,-9.533195,-17.328392,-80.948730,0.000000,192.000000,4.000000,,,,0.000000,4.000000,4.000000,4.000000,4.000000,4.000000,4.000000,4.000000,4.000000,4.000000,4.000000,4.000000,4.000000,4.000000,4.000000,4.000000,4.000000,4.000000,4.000000,4.000000,4.000000,4.000000,4.000000,4.000000,4.000000,4.000000,4.000000,4.000000,4.000000,4.000000,4.000000,4.000000,4.000000,100.000000
1614737593.480891,11.000000,0.000000,13.440326,3.442621,-48.939594,24.043621,12.719012,3.277602,14.405620,22.922276,-2.625701,27.226112,29.589165,23.797520,1.034752,22.079996,39.230991,8.473475,9.319962,33.554638,12.201290,-35.637177,15.559862,11.433304,14.992432,18.646353,-2.865981,-15.131147,-23.646854,-4.875249,1.383129,-9.523663,-10.644396,-77.278038,0.000000,193.000000,4.000000,,,,0.000000,4.000000,4.000000,4.000000,4.000000,4.000000,4.000000,4.000000,4.000000,4.000000,4.000000,4.000000,4.000000,4.000000,4.000000,4.000000,4.000000,4.000000,4.000000,4.000000,4.000000,4.000000,4.000000,4.000000,4.000000,4.000000,4.000000,4.000000,4.000000,4.000000,4.000000,4.000000,4.000000,100.000000
1614737593.488540,12.000000,0.000000,13.426886,3.439178,-49.403473,23.506758,10.142190,3.274324,15.416855,15.207047,-3.135896,23.609144,3.405729,21.209620,0.520897,4.622018,20.217403,-13.073461,3.669616,16.598007,-7.298091,-52.524616,12.467380,8.857768,8.310773,6.832834,0.213808,-15.628838,-39.520645,4.360396,1.381746,-4.898754,-7.556828,-72.585373,0.000000,189.000000,4.000000,,,,0.000000,4.000000,4.000000,4.000000,4.000000,4.000000,4.000000,4.000000,4.000000,4.000000,4.000000,4.000000,4.000000,4.000000,4.000000,4.000000,4.000000,4.000000,4.000000,4.000000,4.000000,4.000000,4.000000,4.000000,4.000000,4.000000,4.000000,4.000000,4.000000,4.000000,4.000000,4.000000,4.000000,100.000000
1614737593.496288,13.000000,0.000000,13.926279,3.435739,-51.918171,21.431969,9.106407,3.271050,14.375797,17.243122,-3.132760,15.380406,-19.674599,8.367898,1.546017,-7.690296,-12.110507,-45.368080,2.127484,-0.854488,-31.906178,-69.395172,13.480553,9.361731,2.661437,2.210616,-2.863329,-14.587567,-41.019585,20.253471,1.893185,-1.816932,-15.241579,-82.256378,0.000000,178.000000,4.000000,,,,0.000000,4.000000,4.000000,4.000000,4.000000,4.000000,4.000000,4.000000,4.000000,4.000000,4.000000,4.000000,4.000000,4.000000,4.000000,4.000000,4.000000,4.000000,4.000000,4.000000,4.000000,4.000000,4.000000,4.000000,4.000000,4.000000,4.000000,4.000000,4.000000,4.000000,4.000000,4.000000,4.000000,100.000000
1614737593.503937,14.000000,0.000000,11.348250,3.945124,-53.404716,19.359255,8.071660,3.267779,4.617832,17.225878,-2.103986,-10.276000,-36.578003,-7.025086,-0.506811,-18.964657,-41.841988,-76.604759,-3.002848,-21.879274,-57.515297,-90.351418,-0.379081,8.839548,5.735698,-15.227491,-0.296363,-17.137083,-19.952925,5.874243,0.865651,-11.558705,-19.328901,-93.456177,0.000000,222.000000,4.000000,,,,0.000000,4.000000,4.000000,4.000000,4.000000,4.000000,4.000000,4.000000,4.000000,4.000000,4.000000,4.000000,4.000000,4.000000,4.000000,4.000000,4.000000,4.000000,4.000000,4.000000,4.000000,4.000000,4.000000,4.000000,4.000000,4.000000,4.000000,4.000000,4.000000,4.000000,4.000000,4.000000,4.000000,100.000000
1614737593.511686,15.000000,0.000000,6.721518,2.402717,-55.915413,19.852716,1.909742,3.264511,-4.104735,4.900960,-6.204446,-26.163160,-55.515781,-15.736010,-9.737074,-26.125179,-58.723221,-104.220467,-9.153691,-41.344574,-76.432144,-115.902092,-21.404343,3.189683,-0.936704,-36.750725,-9.526836,-26.350714,-46.599636,-14.131631,-1.699317,-23.854839,-23.924957,-94.901176,0.000000,209.000000,4.000000,,,,0.000000,4.000000,4.000000,4.000000,4.000000,4.000000,4.000000,4.000000,4.000000,4.000000,4.000000,4.000000,4.000000,4.000000,4.000000,4.000000,4.000000,4.000000,4.000000,4.000000,4.000000,4.000000,4.000000,4.000000,4.000000,4.000000,4.000000,4.000000,4.000000,4.000000,4.000000,4.000000,4.000000,100.000000
1614737593.519335,16.000000,0.000000,5.176334,-0.163788,-68.680008,17.268761,-3.220373,3.261246,-5.126271,-6.898813,-12.352088,-14.342125,-60.588470,-20.848478,-14.855541,-28.663157,-63.279881,-117.449577,-9.144538,-47.969898,-79.945450,-121.427216,-22.921400,-1.941712,-20.422947,-39.278076,-33.107052,-33.503849,-77.835091,-12.066217,-2.723259,-24.343805,-37.747185,-103.524231,0.000000,195.000000,4.000000,,,,0.000000,4.000000,4.000000,4.000000,4.000000,4.000000,4.000000,4.000000,4.000000,4.000000,4.000000,4.000000,4.000000,4.000000,4.000000,4.000000,4.000000,4.000000,4.000000,4.000000,4.000000,4.000000,4.000000,4.000000,4.000000,4.000000,4.000000,4.000000,4.000000,4.000000,4.000000,4.000000,4.000000,100.000000
1614737593.527084,17.000000,0.000000,6.196799,-0.163625,-81.944664,14.687389,-2.704332,3.257985,-4.095504,-1.763709,-14.903838,3.620935,-41.040703,-23.391733,-12.276584,-27.608852,-49.370449,-107.075722,-8.109753,-42.280903,-70.634735,-102.331429,-15.718992,-2.452590,-29.120472,-31.546492,-39.740612,-32.444706,-62.885460,-7.438766,-2.207715,-22.780998,-44.376106,-112.651474,0.000000,201.000000,4.000000,,,,0.000000,4.000000,4.000000,4.000000,4.000000,4.000000,4.000000,4.000000,4.000000,4.000000,4.000000,4.000000,4.000000,4.000000,4.000000,4.000000,4.000000,4.000000,4.000000,4.000000,4.000000,4.000000,4.000000,4.000000,4.000000,4.000000,4.000000,4.000000,4.000000,4.000000,4.000000,4.000000,4.000000,100.000000
1614737593.534733,18.000000,0.000000,6.190602,0.349360,-76.734512,21.339369,-2.188807,3.254727,-1.014485,14.648312,-14.376114,8.232698,-15.871458,-16.188854,-9.700204,-13.222270,-18.551847,-78.763512,-8.614463,-21.725800,-50.564102,-77.100891,-13.139171,-1.937317,-23.450327,-17.155972,-23.290615,-29.335339,-44.361034,-9.995430,-2.205508,-24.296680,-37.665062,-103.308052,0.000000,217.000000,4.000000,,,,0.000000,4.000000,4.000000,4.000000,4.000000,4.000000,4.000000,4.000000,4.000000,4.000000,4.000000,4.000000,4.000000,4.000000,4.000000,4.000000,4.000000,4.000000,4.000000,4.000000,4.000000,4.000000,4.000000,4.000000,4.000000,4.000000,4.000000,4.000000,4.000000,4.000000,4.000000,4.000000,4.000000,100.000000
1614737593.542482,19.000000,0.000000,5.671591,-3.240733,-61.273167,29.523157,-2.699439,3.764293,5.653196,21.813150,-13.336097,6.686005,5.682875,-2.839331,-6.100760,7.303773,13.261577,-45.864239,-6.554566,11.116439,-17.693026,-53.946865,-3.895262,-2.448201,-14.708927,7.476570,-11.985273,-29.818823,-37.137188,-10.498255,-2.203302,-23.759562,-34.037655,-98.076538,0.000000,199.000000,4.000000,,,,0.000000,4.000000,4.000000,4.000000,4.000000,4.000000,4.000000,4.000000,4.000000,4.000000,4.000000,4.000000,4.000000,4.000000,4.000000,4.000000,4.000000,4.000000,4.000000,4.000000,4.000000,4.000000,4.000000,4.000000,4.000000,4.000000,4.000000,4.000000,4.000000,4.000000,4.000000,4.000000,4.000000,100.000000
1614737593.550131,20.000000,0.000000,6.178740,-7.852877,-58.647789,30.006454,-2.183919,2.734888,8.724465,20.765696,-14.348402,15.397267,23.113089,6.907097,-2.504916,13.963136,32.222675,-13.510682,-3.983909,30.592501,4.375949,-40.046764,8.929146,-2.445752,-7.001911,22.340887,-12.486109,-32.353107,-40.176971,-8.949295,-2.201099,-23.222982,-35.542080,-106.696411,0.000000,198.000000,4.000000,,,,0.000000,4.000000,4.000000,4.000000,4.000000,4.000000,4.000000,4.000000,4.000000,4.000000,4.000000,4.000000,4.000000,4.000000,4.000000,4.000000,4.000000,4.000000,4.000000,4.000000,4.000000,4.000000,4.000000,4.000000,4.000000,4.000000,4.000000,4.000000,4.000000,4.000000,4.000000,4.000000,4.000000,100.000000
1614737593.557980,21.000000,0.000000,6.172561,-7.845024,-64.742989,26.899525,-3.207376,0.168050,7.177279,21.257751,-14.846874,23.586998,27.705360,9.464293,-1.989591,14.461993,35.780193,2.913085,-3.979925,32.100372,0.269009,-40.519539,11.484320,-1.930486,-3.917986,23.344189,-12.986444,-33.346394,-55.521412,-8.427526,-2.198898,-23.712580,-34.993717,-106.076897,0.000000,200.000000,4.000000,,,,0.000000,4.000000,4.000000,4.000000,4.000000,4.000000,4.000000,4.000000,4.000000,4.000000,4.000000,4.000000,4.000000,4.000000,4.000000,4.000000,4.000000,4.000000,4.000000,4.000000,4.000000,4.000000,4.000000,4.000000,4.000000,4.000000,4.000000,4.000000,4.000000,4.000000,4.000000,4.000000,4.000000,100.000000
1614737593.565729,22.000000,0.000000,6.166389,-6.811538,-63.652603,26.872625,-1.152887,-0.857759,9.221384,22.262135,-10.216642,13.307001,22.549450,7.403547,-3.013242,16.498814,36.770054,4.448634,-4.488766,33.606731,-3.833824,-40.991840,9.421554,-1.415735,-3.401248,23.833664,-10.922174,-33.313049,-42.645378,-5.854996,-2.196699,-18.560661,-33.420261,-97.765686,0.000000,209.000000,4.000000,,,,0.000000,4.000000,4.000000,4.000000,4.000000,4.000000,4.000000,4.000000,4.000000,4.000000,4.000000,4.000000,4.000000,4.000000,4.000000,4.000000,4.000000,4.000000,4.000000,4.000000,4.000000,4.000000,4.000000,4.000000,4.000000,4.000000,4.000000,4.000000,4.000000,4.000000,4.000000,4.000000,4.000000,100.000000
1614737593.573478,23.000000,0.000000,6.160223,-7.317547,-63.076130,27.358574,3.463651,-0.344081,12.801907,21.214231,-5.591042,4.575745,16.373055,8.421784,-1.984588,11.354110,36.733284,-1.709661,-4.484277,27.932098,-3.829990,-42.489307,8.899311,-1.927140,-0.320923,19.194447,-9.885612,-32.766914,-20.038630,-2.259397,-2.194502,-11.362615,-33.386841,-97.667923,0.000000,222.000000,4.000000,,,,0.000000,4.000000,4.000000,4.000000,4.000000,4.000000,4.000000,4.000000,4.000000,4.000000,4.000000,4.000000,4.000000,4.000000,4.000000,4.000000,4.000000,4.000000,4.000000,4.000000,4.000000,4.000000,4.000000,4.000000,4.000000,4.000000,4.000000,4.000000,4.000000,4.000000,4.000000,4.000000,4.000000,100.000000
1614737593.581127,24.000000,0.000000,6.666883,-7.310230,-72.756645,26.818394,2.434546,-0.343736,7.660900,20.680197,-11.739297,19.442965,1.484887,7.387722,-4.033885,0.573525,20.799116,-20.682310,-3.454152,7.904167,-22.800518,-59.369896,10.941694,-1.412392,1.217859,6.354739,-15.003931,-32.734150,-40.531410,-0.205855,-2.192307,-13.402534,-36.430378,-104.236923,0.000000,178.000000,4.000000,,,,0.000000,4.000000,4.000000,4.000000,4.000000,4.000000,4.000000,4.000000,4.000000,4.000000,4.000000,4.000000,4.000000,4.000000,4.000000,4.000000,4.000000,4.000000,4.000000,4.000000,4.000000,4.000000,4.000000,4.000000,4.000000,4.000000,4.000000,4.000000,4.000000,4.000000,4.000000,4.000000,4.000000,100.000000
1614737593.588976,25.000000,0.000000,5.121754,-7.302919,-74.735168,26.278755,-1.670452,-0.856213,-2.603172,19.121054,-13.266019,28.654291,-26.208906,-4.927359,-11.209338,-11.221921,-10.503735,-52.969318,-6.014801,-8.001173,-46.880283,-76.233604,7.341009,-1.410980,-2.373102,-5.446487,-23.706877,-34.239876,-67.157547,-2.256932,-2.190115,-19.030157,-37.419586,-110.286530,0.000000,202.000000,4.000000,,,,0.000000,4.000000,4.000000,4.000000,4.000000,4.000000,4.000000,4.000000,4.000000,4.000000,4.000000,4.000000,4.000000,4.000000,4.000000,4.000000,4.000000,4.000000,4.000000,4.000000,4.000000,4.000000,4.000000,4.000000,4.000000,4.000000,4.000000,4.000000,4.000000,4.000000,4.000000,4.000000,4.000000,100.000000
1614737593.596725,26.000000,0.000000,2.552530,-7.295617,-67.993767,26.252476,-0.643141,-0.342536,-5.164671,14.999370,-7.098907,2.471790,-48.746799,-24.409611,-17.351976,-25.056852,-33.057335,-83.685585,-12.675452,-19.275223,-57.602634,-83.849678,-10.615050,-4.999312,-5.960473,-18.261555,-23.170349,-37.795380,-79.910904,-6.870059,-2.187925,-19.523947,-37.382168,-114.278809,0.000000,200.000000,4.000000,,,,0.000000,4.000000,4.000000,4.000000,4.000000,4.000000,4.000000,4.000000,4.000000,4.000000,4.000000,4.000000,4.000000,4.000000,4.000000,4.000000,4.000000,4.000000,4.000000,4.000000,4.000000,4.000000,4.000000,4.000000,4.000000,4.000000,4.000000,4.000000,4.000000,4.000000,4.000000,4.000000,4.000000,100.000000
1614737593.604474,27.000000,0.000000,2.037157,-7.288321,-71.002693,26.226225,1.921605,-0.342194,-3.108224,9.343345,-12.732833,-21.120424,-56.903179,-34.128792,-18.873085,-33.236923,-44.306328,-101.550613,-15.739700,-36.691845,-71.904007,-96.586342,-24.963409,-12.686621,-9.544256,-33.115086,-18.531794,-35.706303,-93.677147,-7.888830,-2.185737,-18.991602,-46.575554,-115.190170,0.000000,204.000000,4.000000,,,,0.000000,4.000000,4.000000,4.000000,4.000000,4.000000,4.000000,4.000000,4.000000,4.000000,4.000000,4.000000,4.000000,4.000000,4.000000,4.000000,4.000000,4.000000,4.000000,4.000000,4.000000,4.000000,4.000000,4.000000,4.000000,4.000000,4.000000,4.000000,4.000000,4.000000,4.000000,4.000000,4.000000,100.000000
1614737593.612123,28.000000,0.000000,2.547940,-7.281033,-78.624001,25.687178,0.894042,-0.341852,-4.643578,4.718616,-20.925228,-4.176228,-55.307816,-25.376713,-16.802929,-34.229328,-51.954327,-105.551628,-13.672678,-41.270538,-86.703896,-109.310265,-24.938446,-17.289318,-17.739840,-37.184536,-26.718390,-31.568031,-65.378342,-13.521967,-2.183552,-19.998253,-56.785389,-115.587799,0.000000,198.000000,4.000000,,,,0.000000,4.000000,4.000000,4.000000,4.000000,4.000000,4.000000,4.000000,4.000000,4.000000,4.000000,4.000000,4.000000,4.000000,4.000000,4.000000,4.000000,4.000000,4.000000,4.000000,4.000000,4.000000,4.000000,4.000000,4.000000,4.000000,4.000000,4.000000,4.000000,4.000000,4.000000,4.000000,4.000000,100.000000
1614737593.619972,29.000000,0.000000,2.032572,-7.273752,-78.032555,26.174311,1.405969,-0.341510,-4.638934,7.790821,-12.699175,15.827949,-42.431995,-10.479542,-13.196383,-28.554073,-45.235706,-91.087105,-12.120543,-29.434395,-80.463348,-105.098396,-22.349405,-17.272030,-22.850306,-34.070427,-34.383980,-39.228771,-32.492447,-26.841778,-2.694188,-19.465433,-54.164501,-114.446571,0.000000,189.000000,4.000000,,,,0.000000,4.000000,4.000000,4.000000,4.000000,4.000000,4.000000,4.000000,4.000000,4.000000,4.000000,4.000000,4.000000,4.000000,4.000000,4.000000,4.000000,4.000000,4.000000,4.000000,4.000000,4.000000,4.000000,4.000000,4.000000,4.000000,4.000000,4.000000,4.000000,4.000000,4.000000,4.000000,4.000000,100.000000
1614737593.627720,30.000000,0.000000,2.543360,-7.266478,-78.980164,26.148136,3.455845,-0.341168,3.058013,15.988158,-7.558271,3.504428,-21.876743,-4.315216,-7.029341,-11.089622,-21.087908,-61.252426,-8.005859,-18.635731,-57.305958,-83.454834,-16.173210,-14.177835,-24.878736,-23.267128,-27.682928,-47.394672,-63.229187,-26.302116,-2.178674,-20.984430,-48.982132,-113.819305,0.000000,221.000000,4.000000,,,,0.000000,4.000000,4.000000,4.000000,4.000000,4.000000,4.000000,4.000000,4.000000,4.000000,4.000000,4.000000,4.000000,4.000000,4.000000,4.000000,4.000000,4.000000,4.000000,4.000000,4.000000,4.000000,4.000000,4.000000,4.000000,4.000000,4.000000,4.000000,4.000000,4.000000,4.000000,4.000000,4.000000,100.000000
1614737593.635569,31.000000,0.000000,2.540816,-7.259212,-77.875542,27.147629,4.990850,-0.340827,7.670339,20.587555,-13.191738,-2.140102,-3.393328,0.817304,-1.381286,8.921468,5.087027,-28.370659,-1.844007,-0.668377,-28.530704,-52.089329,2.304502,-7.496990,-22.289755,4.448447,-20.988579,-40.680611,-86.755699,-5.250173,-2.176495,-22.501907,-49.958790,-116.782410,0.000000,194.000000,4.000000,,,,0.000000,4.000000,4.000000,4.000000,4.000000,4.000000,4.000000,4.000000,4.000000,4.000000,4.000000,4.000000,4.000000,4.000000,4.000000,4.000000,4.000000,4.000000,4.000000,4.000000,4.000000,4.000000,4.000000,4.000000,4.000000,4.000000,4.000000,4.000000,4.000000,4.000000,4.000000,4.000000,4.000000,100.000000
1614737593.643318,32.000000,0.000000,1.512635,-7.251952,-64.464333,34.299969,7.037141,-0.340486,7.662669,20.054146,-9.075982,26.067167,8.917758,9.021615,1.697019,13.015111,27.133221,-7.316648,-0.303702,26.511778,-2.861148,-27.421854,16.661171,-3.386929,-7.908491,30.085024,-12.249641,-31.921980,-53.848434,7.575590,-3.199960,-18.376841,-43.754986,-109.486137,8064.000000,0.000000,4.000000,,,,0.000000,4.000000,4.000000,4.000000,4.000000,4.000000,4.000000,4.000000,4.000000,4.000000,4.000000,4.000000,4.000000,4.000000,4.000000,4.000000,4.000000,4.000000,4.000000,4.000000,4.000000,4.000000,4.000000,4.000000,4.000000,4.000000,4.000000,4.000000,4.000000,4.000000,4.000000,4.000000,4.000000,100.000000
1614737593.651167,33.000000,0.000000,3.562404,-7.757521,-60.810127,42.470798,8.568566,-0.340146,8.680647,22.598194,-2.913060,47.066742,16.601149,12.089517,1.182501,11.463634,41.977882,0.895797,0.209423,36.741676,6.372482,-23.804688,16.644510,-1.332260,11.073776,34.157505,5.711326,-32.915699,-40.461250,4.491091,-0.632657,-12.717438,-31.916359,-95.017677,8192.000000,0.000000,4.000000,,,,0.000000,4.000000,4.000000,4.000000,4.000000,4.000000,4.000000,4.000000,4.000000,4.000000,4.000000,4.000000,4.000000,4.000000,4.000000,4.000000,4.000000,4.000000,4.000000,4.000000,4.000000,4.000000,4.000000,4.000000,4.000000,4.000000,4.000000,4.000000,4.000000,4.000000,4.000000,4.000000,4.000000,100.000000
1614737593.658916,34.000000,0.000000,8.174226,-6.724122,-70.492905,44.992428,8.047176,-0.852626,11.236069,27.190981,-5.987070,44.968391,19.661470,12.077427,1.181319,17.093197,48.089752,3.459004,3.286136,35.166473,7.904572,-25.319344,16.627867,7.387021,15.165266,34.123344,7.244076,-32.369965,-59.395149,11.153267,6.034642,-11.679080,-29.833160,-96.461121,8064.000000,0.000000,4.000000,,,,0.000000,4.000000,4.000000,4.000000,4.000000,4.000000,4.000000,4.000000,4.000000,4.000000,4.000000,4.000000,4.000000,4.000000,4.000000,4.000000,4.000000,4.000000,4.000000,4.000000,4.000000,4.000000,4.000000,4.000000,4.000000,4.000000,4.000000,4.000000,4.000000,4.000000,4.000000,4.000000,4.000000,100.000000
1614737593.666764,35.000000,0.000000,10.217334,-4.153296,-62.730106,45.460258,11.116053,-0.338953,11.224833,28.702251,0.172763,46.974705,17.077705,15.142273,1.692958,12.973538,45.477558,-1.672660,3.795671,36.669769,8.409488,-26.319666,17.124060,12.507839,15.662922,33.063583,-6.096501,-28.235029,-42.925495,17.295959,9.618351,-11.667400,-32.880249,-105.082611,8192.000000,0.000000,4.000000,,,,0.000000,4.000000,4.000000,4.000000,4.000000,4.000000,4.000000,4.000000,4.000000,4.000000,4.000000,4.000000,4.000000,4.000000,4.000000,4.000000,4.000000,4.000000,4.000000,4.000000,4.000000,4.000000,4.000000,4.000000,4.000000,4.000000,4.000000,4.000000,4.000000,4.000000,4.000000,4.000000,4.000000,100.000000
1614737593.674513,36.000000,0.000000,9.694296,-3.123501,-46.257122,47.978901,17.771603,-0.338614,11.213609,27.647909,11.967462,46.414909,3.727295,11.537387,-0.360017,-1.911230,27.996183,-21.158167,2.766234,27.402330,-5.957897,-42.703602,9.927447,5.315844,15.647259,19.184364,1.089082,-28.719614,-40.831291,3.945330,9.095912,-12.681375,-28.744806,-99.336502,8064.000000,0.000000,4.000000,,,,0.000000,4.000000,4.000000,4.000000,4.000000,4.000000,4.000000,4.000000,4.000000,4.000000,4.000000,4.000000,4.000000,4.000000,4.000000,4.000000,4.000000,4.000000,4.000000,4.000000,4.000000,4.000000,4.000000,4.000000,4.000000,4.000000,4.000000,4.000000,4.000000,4.000000,4.000000,4.000000,4.000000,100.000000
1614737593.682362,37.000000,0.000000,9.684602,-3.633198,-52.364708,48.443741,18.779472,-0.851096,9.663933,26.594620,10.929853,24.317213,-9.609766,2.807901,-2.410939,-9.088806,3.352803,-41.649830,3.276288,10.964671,-26.977579,-63.173721,4.789315,2.233605,0.246996,7.370308,10.318763,-28.690895,-69.508408,-9.391949,8.573996,-16.258436,-25.639139,-94.621780,8064.000000,0.000000,4.000000,,,,0.000000,4.000000,4.000000,4.000000,4.000000,4.000000,4.000000,4.000000,4.000000,4.000000,4.000000,4.000000,4.000000,4.000000,4.000000,4.000000,4.000000,4.000000,4.000000,4.000000,4.000000,4.000000,4.000000,4.000000,4.000000,4.000000,4.000000,4.000000,4.000000,4.000000,4.000000,4.000000,4.000000,100.000000
1614737593.690111,38.000000,0.000000,10.187737,-4.142385,-64.107216,46.344013,14.658129,-0.850245,7.602987,27.080845,3.739436,1.215973,-13.702721,-0.271830,-2.921349,-7.028435,-9.471063,-54.428692,2.760191,1.210117,-34.642910,-74.905418,4.784526,5.308295,-12.573764,4.286015,-9.691556,-26.610922,-68.926079,-6.818454,9.591063,-13.165255,-27.151960,-97.604080,8192.000000,0.000000,4.000000,,,,0.000000,4.000000,4.000000,4.000000,4.000000,4.000000,4.000000,4.000000,4.000000,4.000000,4.000000,4.000000,4.000000,4.000000,4.000000,4.000000,4.000000,4.000000,4.000000,4.000000,4.000000,4.000000,4.000000,4.000000,4.000000,4.000000,4.000000,4.000000,4.000000,4.000000,4.000000,4.000000,4.000000,100.000000
1614737593.697959,39.000000,0.000000,9.664729,-4.138243,-60.966187,46.810490,15.156292,2.740349,7.082563,28.592226,3.735697,5.317321,-23.945427,-3.861302,-4.969709,-10.098330,-15.102617,-71.810158,-1.857953,-14.175709,-45.890320,-90.727951,0.677177,0.174781,-6.407344,-6.487502,-27.117762,-25.045849,-63.728947,-5.273174,8.555831,-9.562346,-29.176090,-95.968018,8064.000000,0.000000,4.000000,,,,0.000000,4.000000,4.000000,4.000000,4.000000,4.000000,4.000000,4.000000,4.000000,4.000000,4.000000,4.000000,4.000000,4.000000,4.000000,4.000000,4.000000,4.000000,4.000000,4.000000,4.000000,4.000000,4.000000,4.000000,4.000000,4.000000,4.000000,4.000000,4.000000,4.000000,4.000000,4.000000,4.000000,100.000000
1614737593.705708,40.000000,0.000000,9.655065,-3.108464,-58.341118,47.789322,16.679596,6.327352,3.998558,24.461069,5.270423,28.388927,-44.434303,-17.190775,-6.503201,-19.831821,-28.420847,-93.276810,-4.933019,-33.135891,-66.357246,-101.919273,-5.990167,-6.492060,-8.965039,-20.839989,-22.988081,-25.020803,-76.485733,-10.396106,6.495993,-15.706630,-35.813580,-98.436150,8064.000000,0.000000,4.000000,,,,0.000000,4.000000,4.000000,4.000000,4.000000,4.000000,4.000000,4.000000,4.000000,4.000000,4.000000,4.000000,4.000000,4.000000,4.000000,4.000000,4.000000,4.000000,4.000000,4.000000,4.000000,4.000000,4.000000,4.000000,4.000000,4.000000,4.000000,4.000000,4.000000,4.000000,4.000000,4.000000,4.000000,100.000000
1614737593.713357,41.000000,0.000000,9.645410,-4.130996,-63.923801,45.690250,14.611635,5.808204,-0.620825,20.846865,4.239511,30.924641,-47.466793,-20.763327,-7.009519,-22.376091,-36.597553,-99.337379,-4.928085,-36.692501,-67.829353,-88.484016,-7.522638,-5.972748,-27.930433,-22.870430,-19.888168,-25.508602,-62.563091,-14.488274,4.438215,-18.767847,-42.957256,-109.106949,8064.000000,0.000000,4.000000,,,,0.000000,4.000000,4.000000,4.000000,4.000000,4.000000,4.000000,4.000000,4.000000,4.000000,4.000000,4.000000,4.000000,4.000000,4.000000,4.000000,4.000000,4.000000,4.000000,4.000000,4.000000,4.000000,4.000000,4.000000,4.000000,4.000000,4.000000,4.000000,4.000000,4.000000,4.000000,4.000000,4.000000,100.000000
1614737593.721106,42.000000,0.000000,9.635764,-4.639686,-64.372696,47.695843,15.622664,8.366499,2.969539,30.056787,3.722451,7.303972,-31.009069,-4.332307,-7.515330,-18.251152,-19.125059,-87.955994,-4.410337,-30.501961,-49.299984,-65.831436,-7.002295,-5.453954,-28.415323,-17.206535,-17.304178,-25.483095,-49.680016,-12.935324,4.946597,-13.108053,-37.273273,-110.023483,7936.000000,0.000000,4.000000,,,,0.000000,4.000000,4.000000,4.000000,4.000000,4.000000,4.000000,4.000000,4.000000,4.000000,4.000000,4.000000,4.000000,4.000000,4.000000,4.000000,4.000000,4.000000,4.000000,4.000000,4.000000,4.000000,4.000000,4.000000,4.000000,4.000000,4.000000,4.000000,4.000000,4.000000,4.000000,4.000000,4.000000,100.000000
1614737593.728755,43.000000,0.000000,9.626128,1.518800,-59.692940,59.955837,24.324991,15.537620,9.633236,41.821602,4.231549,8.322309,-17.644726,10.543820,-4.943712,-10.027772,11.663296,-65.303932,-4.918747,-17.650946,-30.276325,-49.868164,-4.431190,-5.448500,-14.540754,-8.471379,-11.133028,-22.380688,-63.989311,-4.204440,4.941651,-12.069304,-28.005230,-101.195511,8064.000000,0.000000,4.000000,,,,0.000000,4.000000,4.000000,4.000000,4.000000,4.000000,4.000000,4.000000,4.000000,4.000000,4.000000,4.000000,4.000000,4.000000,4.000000,4.000000,4.000000,4.000000,4.000000,4.000000,4.000000,4.000000,4.000000,4.000000,4.000000,4.000000,4.000000,4.000000,4.000000,4.000000,4.000000,4.000000,4.000000,100.000000
1614737593.736504,44.000000,0.000000,9.616503,10.235229,-57.581966,70.152290,31.480152,19.111826,11.162065,40.754139,4.227318,36.006294,-4.293748,11.558917,2.240719,2.802768,31.651632,-34.469398,-4.913828,10.059012,-9.733229,-34.946503,5.316831,-2.878949,-8.372367,7.434528,-9.583433,-18.768564,-42.386860,5.030534,4.936709,-10.518773,-26.951584,-92.889183,8064.000000,0.000000,4.000000,,,,0.000000,4.000000,4.000000,4.000000,4.000000,4.000000,4.000000,4.000000,4.000000,4.000000,4.000000,4.000000,4.000000,4.000000,4.000000,4.000000,4.000000,4.000000,4.000000,4.000000,4.000000,4.000000,4.000000,4.000000,4.000000,4.000000,4.000000,4.000000,4.000000,4.000000,4.000000,4.000000,4.000000,100.000000
1614737593.744153,45.000000,0.000000,9.094066,10.224995,-53.421822,68.030861,28.884569,17.554253,10.125261,34.046719,4.223091,38.021568,14.172084,10.008897,5.315402,16.133299,35.209724,-5.204161,-4.396094,35.177158,9.250863,-23.116684,11.978181,-1.337609,1.379595,20.760426,3.759483,-17.724154,-9.523959,6.051144,4.931772,0.260977,-22.822067,-86.642448,8192.000000,0.000000,4.000000,,,,0.000000,4.000000,4.000000,4.000000,4.000000,4.000000,4.000000,4.000000,4.000000,4.000000,4.000000,4.000000,4.000000,4.000000,4.000000,4.000000,4.000000,4.000000,4.000000,4.000000,4.000000,4.000000,4.000000,4.000000,4.000000,4.000000,4.000000,4.000000,4.000000,4.000000,4.000000,4.000000,4.000000,100.000000
1614737593.751902,46.000000,0.000000,9.597792,7.650667,-42.086346,64.885902,26.291582,17.536697,10.627956,34.012672,4.218867,31.316881,22.363041,11.537350,4.284445,20.219730,33.636055,9.160017,-2.853236,40.270187,16.421099,-20.529465,14.017485,-1.849092,16.762831,26.893513,28.371109,-17.706430,-36.181103,6.557914,4.926840,3.337639,-12.030015,-82.966064,8064.000000,0.000000,4.000000,,,,0.000000,4.000000,4.000000,4.000000,4.000000,4.000000,4.000000,4.000000,4.000000,4.000000,4.000000,4.000000,4.000000,4.000000,4.000000,4.000000,4.000000,4.000000,4.000000,4.000000,4.000000,4.000000,4.000000,4.000000,4.000000,4.000000,4.000000,4.000000,4.000000,4.000000,4.000000,4.000000,4.000000,100.000000
1614737593.759551,47.000000,0.000000,10.101014,9.694299,-39.480160,66.359482,26.778112,18.031981,11.130150,36.029942,4.727469,49.234283,23.366318,12.038632,4.792981,19.686689,36.679340,9.663677,-0.799101,39.717094,15.379037,-25.124319,16.567570,-1.847243,20.335812,25.840979,27.317097,-18.714365,-68.452614,6.551356,4.921914,-4.358006,-12.530806,-83.395920,8064.000000,0.000000,4.000000,,,,0.000000,4.000000,4.000000,4.000000,4.000000,4.000000,4.000000,4.000000,4.000000,4.000000,4.000000,4.000000,4.000000,4.000000,4.000000,4.000000,4.000000,4.000000,4.000000,4.000000,4.000000,4.000000,4.000000,4.000000,4.000000,4.000000,4.000000,4.000000,4.000000,4.000000,4.000000,4.000000,4.000000,100.000000
1614737593.767299,48.000000,0.000000,7.526811,8.658963,-51.235550,64.754662,26.238514,17.501129,10.606198,32.404167,4.209921,50.210690,21.291670,11.000953,5.301009,20.179823,35.104198,-0.602396,-0.798302,35.061993,6.132889,-37.406887,13.986899,-1.845395,18.777014,18.635649,4.212856,-22.798214,-52.486725,-1.660324,4.916992,-8.969033,-22.774685,-87.415085,8064.000000,0.000000,4.000000,,,,0.000000,4.000000,4.000000,4.000000,4.000000,4.000000,4.000000,4.000000,4.000000,4.000000,4.000000,4.000000,4.000000,4.000000,4.000000,4.000000,4.000000,4.000000,4.000000,4.000000,4.000000,4.000000,4.000000,4.000000,4.000000,4.000000,4.000000,4.000000,4.000000,4.000000,4.000000,4.000000,4.000000,100.000000
1614737593.774948,49.000000,0.000000,4.955182,7.111843,-48.620213,61.100163,25.699453,16.970808,10.082772,26.730738,3.692891,35.801506,3.321660,8.938670,3.244426,16.569901,18.146019,-22.140255,-1.823145,16.052574,-14.898885,-56.856659,3.716502,-2.356370,12.091571,8.360603,-10.663152,-26.365160,-47.306034,-9.350971,4.399254,-9.472885,-26.854475,-93.481514,8064.000000,0.000000,4.000000,,,,0.000000,4.000000,4.000000,4.000000,4.000000,4.000000,4.000000,4.000000,4.000000,4.000000,4.000000,4.000000,4.000000,4.000000,4.000000,4.000000,4.000000,4.000000,4.000000,4.000000,4.000000,4.000000,4.000000,4.000000,4.000000,4.000000,4.000000,4.000000,4.000000,4.000000,4.000000,4.000000,4.000000,100.000000
1614737593.782697,50.000000,0.000000,8.027149,9.668834,-35.238258,61.039063,26.186575,16.953836,10.072689,27.729649,4.714839,42.432369,-22.322687,10.468193,4.266822,2.707176,-3.410589,-49.297604,-0.795681,0.139085,-38.986549,-81.928009,-2.953881,-2.354014,-5.356418,-1.904167,-18.857616,-25.313154,-67.771545,-9.341620,4.907676,-7.412130,-29.391722,-92.362396,8064.000000,0.000000,4.000000,,,,0.000000,4.000000,4.000000,4.000000,4.000000,4.000000,4.000000,4.000000,4.000000,4.000000,4.000000,4.000000,4.000000,4.000000,4.000000,4.000000,4.000000,4.000000,4.000000,4.000000,4.000000,4.000000,4.000000,4.000000,4.000000,4.000000,4.000000,4.000000,4.000000,4.000000,4.000000,4.000000,4.000000,100.000000
1614737593.790346,51.000000,0.000000,9.044764,9.659164,-48.023533,60.978024,23.596287,17.449703,10.575437,31.291662,2.658842,30.082245,-36.146519,9.432084,4.775376,-15.757070,-20.843077,-74.376511,-0.794885,-8.579003,-59.973206,-106.461464,-8.591952,-2.351660,-19.197216,-13.184315,-30.633631,-24.775021,-68.729416,-11.383560,4.902768,-7.917538,-36.028996,-90.218750,8064.000000,0.000000,4.000000,,,,0.000000,4.000000,4.000000,4.000000,4.000000,4.000000,4.000000,4.000000,4.000000,4.000000,4.000000,4.000000,4.000000,4.000000,4.000000,4.000000,4.000000,4.000000,4.000000,4.000000,4.000000,4.000000,4.000000,4.000000,4.000000,4.000000,4.000000,4.000000,4.000000,4.000000,4.000000,4.000000,4.000000,100.000000
1614737593.798095,52.000000,0.000000,5.445975,6.572582,-69.001152,58.352943,18.444485,16.919434,9.539221,27.157806,-2.984843,-2.255529,-46.879604,-2.885041,-0.870425,-25.484901,-39.283772,-94.814957,-2.332551,-24.980680,-73.759384,-113.021667,-15.250028,-2.862129,-21.742121,-21.889078,-34.192741,-27.314348,-63.532482,-10.346536,4.385045,-17.653210,-38.557072,-97.308022,8064.000000,0.000000,4.000000,,,,0.000000,4.000000,4.000000,4.000000,4.000000,4.000000,4.000000,4.000000,4.000000,4.000000,4.000000,4.000000,4.000000,4.000000,4.000000,4.000000,4.000000,4.000000,4.000000,4.000000,4.000000,4.000000,4.000000,4.000000,4.000000,4.000000,4.000000,4.000000,4.000000,4.000000,4.000000,4.000000,4.000000,100.000000
1614737593.805744,53.000000,0.000000,9.543093,8.104471,-59.188560,56.756126,17.400400,16.902514,10.555323,20.976803,-2.469037,1.336470,-47.345543,-9.036002,-2.408016,-21.356853,-44.372692,-97.797066,0.746704,-29.571085,-61.377934,-92.395828,-7.542470,2.268938,-20.694738,-14.687702,-18.773933,-23.184469,-56.802284,5.048426,4.893480,-17.635557,-35.441589,-94.646606,8064.000000,0.000000,4.000000,,,,0.000000,4.000000,4.000000,4.000000,4.000000,4.000000,4.000000,4.000000,4.000000,4.000000,4.000000,4.000000,4.000000,4.000000,4.000000,4.000000,4.000000,4.000000,4.000000,4.000000,4.000000,4.000000,4.000000,4.000000,4.000000,4.000000,4.000000,4.000000,4.000000,4.000000,4.000000,4.000000,4.000000,100.000000
1614737593.813493,54.000000,0.000000,19.789961,10.660469,-39.642193,57.212193,21.998383,19.962534,17.724255,27.109673,4.712919,30.565903,-23.708454,7.896111,7.850802,-7.489342,-19.200115,-75.135162,9.976727,-11.079975,-30.547325,-59.482922,14.516355,13.035900,-8.879171,5.839806,4.834585,-13.417695,-27.001890,17.351070,9.503971,0.330796,-28.226662,-79.167343,8064.000000,0.000000,4.000000,,,,0.000000,4.000000,4.000000,4.000000,4.000000,4.000000,4.000000,4.000000,4.000000,4.000000,4.000000,4.000000,4.000000,4.000000,4.000000,4.000000,4.000000,4.000000,4.000000,4.000000,4.000000,4.000000,4.000000,4.000000,4.000000,4.000000,4.000000,4.000000,4.000000,4.000000,4.000000,4.000000,4.000000,100.000000
1614737593.821142,55.000000,0.000000,21.308632,10.649809,-39.089729,57.154980,25.566128,24.045135,24.886017,41.954357,8.297950,40.278927,-2.146284,25.324112,16.048079,6.877121,11.075496,-47.880539,15.094955,5.341362,-15.132162,-29.167027,27.322351,20.715172,10.104067,17.628838,14.060519,-10.840175,-19.282581,17.846539,12.571390,5.971491,-21.018948,-78.575356,8064.000000,0.000000,4.000000,,,,0.000000,4.000000,4.000000,4.000000,4.000000,4.000000,4.000000,4.000000,4.000000,4.000000,4.000000,4.000000,4.000000,4.000000,4.000000,4.000000,4.000000,4.000000,4.000000,4.000000,4.000000,4.000000,4.000000,4.000000,4.000000,4.000000,4.000000,4.000000,4.000000,4.000000,4.000000,4.000000,4.000000,100.000000
1614737593.828991,56.000000,0.000000,17.184759,10.639159,-42.127563,57.097824,26.053383,25.046732,25.373951,46.014969,7.776831,56.136082,2.471247,25.811609,15.006391,18.152296,19.782368,-27.832659,14.054219,15.079610,-9.476005,-16.830168,27.807850,21.207277,18.811911,17.098389,9.431074,-14.419078,-45.417145,16.803051,12.045999,-5.316532,-24.074852,-88.240372,8064.000000,0.000000,4.000000,,,,0.000000,4.000000,4.000000,4.000000,4.000000,4.000000,4.000000,4.000000,4.000000,4.000000,4.000000,4.000000,4.000000,4.000000,4.000000,4.000000,4.000000,4.000000,4.000000,4.000000,4.000000,4.000000,4.000000,4.000000,4.000000,4.000000,4.000000,4.000000,4.000000,4.000000,4.000000,4.000000,4.000000,100.000000
1614737593.836740,57.000000,0.000000,16.654755,10.628520,-40.546974,57.040726,25.514509,23.996044,24.835756,39.815105,7.256234,70.951744,16.314930,24.247335,14.478563,25.826450,33.095921,-6.266365,13.527345,34.551708,11.559113,-17.326159,27.267221,20.160429,18.280279,17.081289,8.396002,-14.404659,-42.294804,17.299068,12.033953,-6.336856,-30.204624,-82.511108,8064.000000,0.000000,4.000000,,,,0.000000,4.000000,4.000000,4.000000,4.000000,4.000000,4.000000,4.000000,4.000000,4.000000,4.000000,4.000000,4.000000,4.000000,4.000000,4.000000,4.000000,4.000000,4.000000,4.000000,4.000000,4.000000,4.000000,4.000000,4.000000,4.000000,4.000000,4.000000,4.000000,4.000000,4.000000,4.000000,4.000000,100.000000
1614737593.844589,58.000000,0.000000,17.663740,10.617891,-42.557709,56.983685,26.001816,24.484869,25.323742,42.852215,7.761798,58.060276,35.272972,26.787191,15.489726,27.851906,56.139748,15.791183,14.539458,47.337669,28.470631,-16.283190,29.291237,20.653090,21.851742,19.628311,14.541452,-13.364614,-29.944817,17.794590,12.534739,-5.304878,-20.943649,-74.223465,8192.000000,0.000000,4.000000,,,,0.000000,4.000000,4.000000,4.000000,4.000000,4.000000,4.000000,4.000000,4.000000,4.000000,4.000000,4.000000,4.000000,4.000000,4.000000,4.000000,4.000000,4.000000,4.000000,4.000000,4.000000,4.000000,4.000000,4.000000,4.000000,4.000000,4.000000,4.000000,4.000000,4.000000,4.000000,4.000000,4.000000,100.000000
1614737593.852337,59.000000,0.000000,16.620436,10.607273,-43.540791,56.926701,25.975813,24.460382,25.298418,51.014492,8.779677,45.694527,38.827442,25.734762,15.474236,27.824055,60.698990,25.006161,14.524919,45.239052,23.826775,-17.805368,27.210663,20.119616,23.368353,18.583042,19.142296,-13.864069,-59.658463,17.263975,12.009384,-13.504702,-10.153475,-73.123604,8064.000000,0.000000,4.000000,,,,0.000000,4.000000,4.000000,4.000000,4.000000,4.000000,4.000000,4.000000,4.000000,4.000000,4.000000,4.000000,4.000000,4.000000,4.000000,4.000000,4.000000,4.000000,4.000000,4.000000,4.000000,4.000000,4.000000,4.000000,4.000000,4.000000,4.000000,4.000000,4.000000,4.000000,4.000000,4.000000,4.000000,100.000000
1614737593.860186,60.000000,0.000000,16.603815,10.596666,-44.010071,57.382595,25.949837,24.435923,24.247478,40.194244,11.335000,46.161652,36.737335,25.709028,15.458762,26.770590,47.817780,14.211925,13.997573,44.168171,16.110641,-34.197819,18.465504,13.432829,20.780882,17.538818,18.097513,-14.363026,-70.880852,8.015943,11.997375,-12.465556,-19.886911,-74.076118,8064.000000,0.000000,4.000000,,,,0.000000,4.000000,4.000000,4.000000,4.000000,4.000000,4.000000,4.000000,4.000000,4.000000,4.000000,4.000000,4.000000,4.000000,4.000000,4.000000,4.000000,4.000000,4.000000,4.000000,4.000000,4.000000,4.000000,4.000000,4.000000,4.000000,4.000000,4.000000,4.000000,4.000000,4.000000,4.000000,4.000000,100.000000
1614737593.867935,61.000000,0.000000,16.587212,10.586069,-44.478882,56.812393,25.923887,24.411488,25.248873,26.307898,11.836486,40.987286,31.059572,25.170498,14.417662,21.102793,42.128937,-9.392032,8.855371,35.406055,6.350940,-59.291828,8.190627,2.137345,18.708818,17.008459,3.207620,-14.348662,-40.553562,-4.299766,11.985377,-5.273603,-31.661896,-86.822556,8064.000000,0.000000,4.000000,,,,0.000000,4.000000,4.000000,4.000000,4.000000,4.000000,4.000000,4.000000,4.000000,4.000000,4.000000,4.000000,4.000000,4.000000,4.000000,4.000000,4.000000,4.000000,4.000000,4.000000,4.000000,4.000000,4.000000,4.000000,4.000000,4.000000,4.000000,4.000000,4.000000,4.000000,4.000000,4.000000,4.000000,100.000000
1614737593.875784,62.000000,0.000000,15.544983,10.575483,-42.383121,56.755581,25.385143,24.387075,24.710802,32.435436,11.311829,43.510399,7.438768,16.427380,14.403244,8.261178,30.804756,-35.536484,4.743951,9.216802,-17.757975,-80.258179,-1.561153,-4.018639,9.459340,7.247860,-18.846870,-14.334314,-44.615574,-7.372389,10.434930,-9.883714,-29.066132,-95.966499,8064.000000,0.000000,4.000000,,,,0.000000,4.000000,4.000000,4.000000,4.000000,4.000000,4.000000,4.000000,4.000000,4.000000,4.000000,4.000000,4.000000,4.000000,4.000000,4.000000,4.000000,4.000000,4.000000,4.000000,4.000000,4.000000,4.000000,4.000000,4.000000,4.000000,4.000000,4.000000,4.000000,4.000000,4.000000,4.000000,4.000000,100.000000
1614737593.883533,63.000000,0.000000,13.478156,10.564908,-46.956123,57.724464,25.872580,24.362688,20.583529,36.505566,11.300517,42.954067,-24.876362,5.128901,15.414482,-7.131699,-1.020920,-63.706078,2.175104,-14.894979,-50.047909,-100.177917,-14.380104,-2.476158,-3.883452,-15.836310,-33.186996,-13.807159,-68.673523,-4.800914,8.373213,-16.540497,-32.626808,-88.691048,8064.000000,0.000000,4.000000,,,,0.000000,4.000000,4.000000,4.000000,4.000000,4.000000,4.000000,4.000000,4.000000,4.000000,4.000000,4.000000,4.000000,4.000000,4.000000,4.000000,4.000000,4.000000,4.000000,4.000000,4.000000,4.000000,4.000000,4.000000,4.000000,4.000000,4.000000,4.000000,4.000000,4.000000,4.000000,4.000000,4.000000,100.000000
1614737593.891381,64.000000,0.000000,11.926216,10.554343,-57.165577,55.615459,26.359526,24.338326,16.973202,20.058802,11.802037,15.731627,-46.902767,-0.517254,11.296504,-20.457901,-30.250669,-93.898781,-8.596301,-30.777519,-80.254272,-120.590561,-29.237518,-2.473682,-9.007774,-37.871758,-36.230732,-15.331814,-65.015106,-3.257652,7.852019,-13.959854,-47.465977,-91.166458,0.000000,185.000000,4.000000,,,,0.000000,4.000000,4.000000,4.000000,4.000000,4.000000,4.000000,4.000000,4.000000,4.000000,4.000000,4.000000,4.000000,4.000000,4.000000,4.000000,4.000000,4.000000,4.000000,4.000000,4.000000,4.000000,4.000000,4.000000,4.000000,4.000000,4.000000,4.000000,4.000000,4.000000,4.000000,4.000000,4.000000,100.000000
1614737593.899130,65.000000,0.000000,12.939931,10.543789,-57.108410,50.431641,22.230602,24.313988,16.956228,7.731051,10.251774,6.997947,-53.522533,-5.644942,3.592899,-26.078468,-38.938366,-108.676674,-15.767192,-43.567257,-88.891968,-120.982788,-30.233923,-4.009670,-17.203894,-38.859524,-27.989374,-17.880585,-65.462914,-2.228753,8.356988,-11.894612,-49.982613,-99.793243,0.000000,211.000000,4.000000,,,,0.000000,4.000000,4.000000,4.000000,4.000000,4.000000,4.000000,4.000000,4.000000,4.000000,4.000000,4.000000,4.000000,4.000000,4.000000,4.000000,4.000000,4.000000,4.000000,4.000000,4.000000,4.000000,4.000000,4.000000,4.000000,4.000000,4.000000,4.000000,4.000000,4.000000,4.000000,4.000000,4.000000,100.000000
1614737593.906979,66.000000,0.000000,14.978273,10.533245,-51.410278,48.842747,18.105808,24.289673,16.939272,15.415627,7.677419,30.580692,-38.597214,-3.588015,4.102127,-20.411364,-30.181480,-95.747490,-3.956553,-37.882664,-69.315895,-90.092575,-9.690868,3.173827,-27.955921,-19.333487,-5.910103,-18.375525,-60.782063,-1.200883,8.348631,-10.344255,-39.163399,-88.411400,0.000000,193.000000,4.000000,,,,0.000000,4.000000,4.000000,4.000000,4.000000,4.000000,4.000000,4.000000,4.000000,4.000000,4.000000,4.000000,4.000000,4.000000,4.000000,4.000000,4.000000,4.000000,4.000000,4.000000,4.000000,4.000000,4.000000,4.000000,4.000000,4.000000,4.000000,4.000000,4.000000,4.000000,4.000000,4.000000,4.000000,100.000000
1614737593.914728,67.000000,0.000000,16.501757,10.522712,-53.410149,49.306725,20.138985,24.265385,19.486435,28.733545,7.156921,32.601395,-8.302208,12.825830,13.841615,-2.442235,-5.535913,-68.472252,8.867916,-12.203753,-36.938885,-57.181973,12.882925,11.888601,-14.594632,5.301231,8.454782,-17.844328,-27.900768,-1.712503,8.340282,-6.231348,-37.072956,-81.143501,0.000000,198.000000,4.000000,,,,0.000000,4.000000,4.000000,4.000000,4.000000,4.000000,4.000000,4.000000,4.000000,4.000000,4.000000,4.000000,4.000000,4.000000,4.000000,4.000000,4.000000,4.000000,4.000000,4.000000,4.000000,4.000000,4.000000,4.000000,4.000000,4.000000,4.000000,4.000000,4.000000,4.000000,4.000000,4.000000,4.000000,100.000000
1614737593.922576,68.000000,0.000000,16.485254,10.512189,-52.843918,48.744595,22.170128,24.241119,23.569513,35.884300,7.149764,19.748280,15.808659,25.120695,18.955978,18.073029,27.290134,-35.583267,10.397510,11.911014,-6.645537,-40.201714,20.049530,13.415174,13.625091,25.295931,3.830942,-18.339304,-28.898510,-2.223611,8.331942,-5.712296,-38.061523,-88.754662,0.000000,202.000000,4.000000,,,,0.000000,4.000000,4.000000,4.000000,4.000000,4.000000,4.000000,4.000000,4.000000,4.000000,4.000000,4.000000,4.000000,4.000000,4.000000,4.000000,4.000000,4.000000,4.000000,4.000000,4.000000,4.000000,4.000000,4.000000,4.000000,4.000000,4.000000,4.000000,4.000000,4.000000,4.000000,4.000000,4.000000,100.000000
1614737593.930325,69.000000,0.000000,16.468769,10.501677,-43.047485,53.311237,21.635138,24.216877,25.084404,37.386875,7.142614,38.190071,27.587723,25.608397,19.962664,30.362648,50.339767,-2.727172,12.438395,30.873463,19.002134,-25.289717,21.055120,13.401759,23.355055,39.116787,5.365572,-17.295324,-60.151661,1.368356,8.836431,-8.783506,-24.690128,-79.435143,0.000000,200.000000,4.000000,,,,0.000000,4.000000,4.000000,4.000000,4.000000,4.000000,4.000000,4.000000,4.000000,4.000000,4.000000,4.000000,4.000000,4.000000,4.000000,4.000000,4.000000,4.000000,4.000000,4.000000,4.000000,4.000000,4.000000,4.000000,4.000000,4.000000,4.000000,4.000000,4.000000,4.000000,4.000000,4.000000,4.000000,100.000000
1614737593.937974,70.000000,0.000000,16.965120,10.491175,-37.876232,63.001514,21.613503,24.192661,25.572140,37.349487,9.699574,63.280087,36.278084,25.582787,16.865778,30.845104,58.494556,15.224273,13.451597,42.637459,29.752363,-13.469555,23.598167,12.362717,21.793240,41.128952,15.616617,-14.713926,-45.219715,1.879808,8.314774,-7.236261,-10.306464,-62.945450,0.000000,207.000000,4.000000,,,,0.000000,4.000000,4.000000,4.000000,4.000000,4.000000,4.000000,4.000000,4.000000,4.000000,4.000000,4.000000,4.000000,4.000000,4.000000,4.000000,4.000000,4.000000,4.000000,4.000000,4.000000,4.000000,4.000000,4.000000,4.000000,4.000000,4.000000,4.000000,4.000000,4.000000,4.000000,4.000000,4.000000,100.000000
1614737593.945723,71.000000,0.000000,16.435335,10.480684,-39.376816,63.964153,22.104710,24.168468,22.982466,38.337780,13.792439,61.165524,35.728985,24.018744,7.618143,23.121952,56.897602,16.234690,6.771479,43.620464,25.107225,-23.712496,18.959185,6.196508,23.309908,32.369877,9.447155,-13.673572,-27.738598,-5.814379,5.742356,-4.664923,-11.321798,-61.856861,0.000000,197.000000,4.000000,,,,0.000000,4.000000,4.000000,4.000000,4.000000,4.000000,4.000000,4.000000,4.000000,4.000000,4.000000,4.000000,4.000000,4.000000,4.000000,4.000000,4.000000,4.000000,4.000000,4.000000,4.000000,4.000000,4.000000,4.000000,4.000000,4.000000,4.000000,4.000000,4.000000,4.000000,4.000000,4.000000,4.000000,100.000000
1614737593.953372,72.000000,0.000000,16.418900,9.957383,-39.850262,56.207882,22.082603,24.144299,18.856920,37.273804,15.317108,52.899231,27.488127,19.379339,0.431037,14.893703,47.097115,16.731276,2.149323,43.576843,21.492374,-40.611858,13.299201,1.062106,16.107109,29.260582,-8.511010,-14.172718,-56.428810,-8.885488,2.146870,-4.147437,-19.002785,-61.795006,0.000000,178.000000,4.000000,,,,0.000000,4.000000,4.000000,4.000000,4.000000,4.000000,4.000000,4.000000,4.000000,4.000000,4.000000,4.000000,4.000000,4.000000,4.000000,4.000000,4.000000,4.000000,4.000000,4.000000,4.000000,4.000000,4.000000,4.000000,4.000000,4.000000,4.000000,4.000000,4.000000,4.000000,4.000000,4.000000,4.000000,100.000000
1614737593.961121,73.000000,0.000000,16.915302,11.998708,-38.784771,52.561932,22.060522,24.120155,18.838062,34.159603,14.788970,52.846329,25.922178,19.872782,2.994709,15.904449,37.306427,11.586339,3.172814,41.481983,17.368319,-43.648170,12.773081,1.573865,7.373054,29.744143,-11.066602,-14.158545,-60.987762,-1.184295,0.606262,-4.656110,-22.060705,-66.348595,0.000000,178.000000,4.000000,,,,0.000000,4.000000,4.000000,4.000000,4.000000,4.000000,4.000000,4.000000,4.000000,4.000000,4.000000,4.000000,4.000000,4.000000,4.000000,4.000000,4.000000,4.000000,4.000000,4.000000,4.000000,4.000000,4.000000,4.000000,4.000000,4.000000,4.000000,4.000000,4.000000,4.000000,4.000000,4.000000,4.000000,100.000000
1614737593.968770,74.000000,0.000000,15.872746,14.037991,-38.745983,53.022190,21.525640,24.096035,21.896147,32.586983,14.774181,46.639637,18.203947,19.852907,4.530176,13.324443,28.551170,-13.553452,0.605539,20.414862,-4.187511,-55.912216,4.042359,-0.991812,7.878501,12.791322,-7.978612,-13.631566,-37.849854,-1.183110,1.118476,-4.651454,-21.525824,-78.077118,0.000000,209.000000,4.000000,,,,0.000000,4.000000,4.000000,4.000000,4.000000,4.000000,4.000000,4.000000,4.000000,4.000000,4.000000,4.000000,4.000000,4.000000,4.000000,4.000000,4.000000,4.000000,4.000000,4.000000,4.000000,4.000000,4.000000,4.000000,4.000000,4.000000,4.000000,4.000000,4.000000,4.000000,4.000000,4.000000,4.000000,100.000000
1614737593.976519,75.000000,0.000000,13.292770,14.023952,-42.296982,51.943527,22.016935,24.071939,18.797329,35.118500,14.759407,30.182741,-8.480923,10.602286,0.935902,-5.150421,6.984159,-45.847591,-6.061733,-9.349143,-36.491016,-88.163994,-12.371940,-7.144666,0.178315,-15.426598,-17.201403,-14.130755,-48.581234,-9.899876,1.117358,-4.133982,-22.529938,-76.973396,0.000000,185.000000,4.000000,,,,0.000000,4.000000,4.000000,4.000000,4.000000,4.000000,4.000000,4.000000,4.000000,4.000000,4.000000,4.000000,4.000000,4.000000,4.000000,4.000000,4.000000,4.000000,4.000000,4.000000,4.000000,4.000000,4.000000,4.000000,4.000000,4.000000,4.000000,4.000000,4.000000,4.000000,4.000000,4.000000,4.000000,100.000000
1614737593.984168,76.000000,0.000000,12.253837,14.009929,-48.921352,46.763378,21.994919,24.047867,12.624684,32.519279,14.744648,15.280764,-30.010904,0.335273,-0.603496,-21.042706,-24.817698,-76.058151,-9.132595,-28.826973,-64.659653,-115.768143,-23.128798,-10.214444,-18.796223,-29.770145,-26.414970,-14.116625,-68.532654,-9.377155,1.116240,-4.642669,-33.276638,-70.742584,0.000000,200.000000,4.000000,,,,0.000000,4.000000,4.000000,4.000000,4.000000,4.000000,4.000000,4.000000,4.000000,4.000000,4.000000,4.000000,4.000000,4.000000,4.000000,4.000000,4.000000,4.000000,4.000000,4.000000,4.000000,4.000000,4.000000,4.000000,4.000000,4.000000,4.000000,4.000000,4.000000,4.000000,4.000000,4.000000,4.000000,100.000000
1614737593.991916,77.000000,0.000000,12.754403,14.508739,-50.923714,39.537128,20.434462,24.023819,8.509496,18.640606,14.729903,10.137278,-36.134739,-7.357369,0.422749,-24.611406,-43.767239,-101.110298,-9.636283,-41.105839,-76.902687,-125.395958,-24.644131,-10.717051,-25.956913,-30.253197,-29.465479,-14.102508,-71.541046,1.401452,1.115124,-4.638026,-44.012592,-80.415428,0.000000,213.000000,4.000000,,,,0.000000,4.000000,4.000000,4.000000,4.000000,4.000000,4.000000,4.000000,4.000000,4.000000,4.000000,4.000000,4.000000,4.000000,4.000000,4.000000,4.000000,4.000000,4.000000,4.000000,4.000000,4.000000,4.000000,4.000000,4.000000,4.000000,4.000000,4.000000,4.000000,4.000000,4.000000,4.000000,4.000000,100.000000
1614737593.999565,78.000000,0.000000,12.741649,13.981410,-50.872787,35.907845,17.337105,23.999796,5.424063,4.775811,14.202353,11.665602,-38.149887,-11.452577,-2.141777,-24.586796,-46.800396,-107.163040,-8.088185,-42.090374,-72.210396,-115.526978,-16.414358,-6.090949,-23.879675,-27.146019,-27.897552,-14.088406,-69.931038,6.528256,1.114009,-4.120567,-37.814735,-82.899117,0.000000,197.000000,4.000000,,,,0.000000,4.000000,4.000000,4.000000,4.000000,4.000000,4.000000,4.000000,4.000000,4.000000,4.000000,4.000000,4.000000,4.000000,4.000000,4.000000,4.000000,4.000000,4.000000,4.000000,4.000000,4.000000,4.000000,4.000000,4.000000,4.000000,4.000000,4.000000,4.000000,4.000000,4.000000,4.000000,4.000000,100.000000
1614737594.007314,79.000000,0.000000,12.216086,14.480249,-52.360378,41.000145,17.832588,23.975796,5.418639,6.309496,14.188150,13.705218,-30.419428,-2.723175,-2.652455,-14.818619,-31.368979,-85.004593,-7.567276,-24.612387,-51.112549,-82.590935,0.525132,5.197193,-21.804512,-13.272720,-12.485039,-14.587137,-46.271366,5.496087,1.625715,-4.116447,-21.879484,-71.534164,0.000000,208.000000,4.000000,,,,0.000000,4.000000,4.000000,4.000000,4.000000,4.000000,4.000000,4.000000,4.000000,4.000000,4.000000,4.000000,4.000000,4.000000,4.000000,4.000000,4.000000,4.000000,4.000000,4.000000,4.000000,4.000000,4.000000,4.000000,4.000000,4.000000,4.000000,4.000000,4.000000,4.000000,4.000000,4.000000,4.000000,100.000000
1614737594.014963,80.000000,0.000000,12.716691,14.465769,-45.641350,46.087349,18.327576,23.951820,10.028605,16.559597,15.199603,14.717155,-7.824906,12.151343,1.452761,7.760302,-0.055559,-52.611893,-4.995606,1.053252,-20.292204,-49.687832,16.422043,12.884304,-8.962194,12.894399,4.963344,-14.059730,-23.660992,4.977770,-0.427192,-6.163612,-19.806322,-75.052376,0.000000,214.000000,4.000000,,,,0.000000,4.000000,4.000000,4.000000,4.000000,4.000000,4.000000,4.000000,4.000000,4.000000,4.000000,4.000000,4.000000,4.000000,4.000000,4.000000,4.000000,4.000000,4.000000,4.000000,4.000000,4.000000,4.000000,4.000000,4.000000,4.000000,4.000000,4.000000,4.000000,4.000000,4.000000,4.000000,4.000000,100.000000
1614737594.022712,81.000000,0.000000,12.703974,10.861560,-32.262375,49.118183,16.770786,23.927868,13.608320,20.645601,14.158763,20.343462,15.259841,20.857140,4.015411,23.649979,24.559881,-20.764410,6.804261,27.206045,12.548601,-32.202248,28.200493,12.871420,11.046767,35.958427,7.009662,-13.532849,-48.765537,6.511254,-2.478047,-8.208731,-21.837799,-80.618347,0.000000,200.000000,4.000000,,,,0.000000,4.000000,4.000000,4.000000,4.000000,4.000000,4.000000,4.000000,4.000000,4.000000,4.000000,4.000000,4.000000,4.000000,4.000000,4.000000,4.000000,4.000000,4.000000,4.000000,4.000000,4.000000,4.000000,4.000000,4.000000,4.000000,4.000000,4.000000,4.000000,4.000000,4.000000,4.000000,4.000000,100.000000
1614737594.030361,82.000000,0.000000,12.691270,6.748134,-26.589088,55.735733,21.369400,23.903940,16.158815,23.189058,15.170245,32.117992,38.321507,26.990129,10.165242,27.728891,36.843014,11.564046,19.617970,50.768581,38.689899,-22.939274,36.377422,13.884189,18.728027,45.153240,9.566755,-14.544958,-63.588566,5.991922,-2.475569,-8.200522,-13.098012,-61.050549,0.000000,199.000000,4.000000,,,,0.000000,4.000000,4.000000,4.000000,4.000000,4.000000,4.000000,4.000000,4.000000,4.000000,4.000000,4.000000,4.000000,4.000000,4.000000,4.000000,4.000000,4.000000,4.000000,4.000000,4.000000,4.000000,4.000000,4.000000,4.000000,4.000000,4.000000,4.000000,4.000000,4.000000,4.000000,4.000000,4.000000,100.000000
1614737594.038210,83.000000,0.000000,12.165758,6.741386,-22.459934,64.910767,33.655724,23.880035,21.783682,34.960743,19.770460,41.829464,53.667797,34.142628,18.360205,30.778086,53.729248,31.552483,21.136814,58.922943,48.907619,-9.583002,34.802582,12.844664,19.222120,44.595264,22.377701,-12.479131,-35.319851,1.370546,-2.473094,-7.166681,-5.905427,-47.143345,0.000000,218.000000,4.000000,,,,0.000000,4.000000,4.000000,4.000000,4.000000,4.000000,4.000000,4.000000,4.000000,4.000000,4.000000,4.000000,4.000000,4.000000,4.000000,4.000000,4.000000,4.000000,4.000000,4.000000,4.000000,4.000000,4.000000,4.000000,4.000000,4.000000,4.000000,4.000000,4.000000,4.000000,4.000000,4.000000,4.000000,100.000000
1614737594.045959,84.000000,0.000000,13.179234,7.247465,-19.873371,72.538162,38.750271,24.368977,24.838821,49.797577,20.263510,43.326096,48.998745,37.698227,16.803383,30.747309,64.444748,33.572212,15.987472,57.325558,46.294609,-11.624701,30.152395,7.190794,19.202898,45.576309,18.252760,-7.338447,-33.233246,-1.194928,-2.470621,-7.672335,-6.412342,-56.839790,0.000000,200.000000,4.000000,,,,0.000000,4.000000,4.000000,4.000000,4.000000,4.000000,4.000000,4.000000,4.000000,4.000000,4.000000,4.000000,4.000000,4.000000,4.000000,4.000000,4.000000,4.000000,4.000000,4.000000,4.000000,4.000000,4.000000,4.000000,4.000000,4.000000,4.000000,4.000000,4.000000,4.000000,4.000000,4.000000,4.000000,100.000000
1614737594.053808,85.000000,0.000000,13.166055,6.727397,-32.161190,71.439987,33.583317,22.293325,20.198597,48.209316,17.166323,45.846870,37.154877,32.532326,11.658375,27.126818,51.046970,25.846331,12.894561,57.781052,39.068829,-30.587435,28.070961,5.645141,16.619593,43.479454,-1.765493,-7.331108,-51.148731,2.908831,-2.468150,-8.690303,-11.534135,-63.449619,0.000000,200.000000,4.000000,,,,0.000000,4.000000,4.000000,4.000000,4.000000,4.000000,4.000000,4.000000,4.000000,4.000000,4.000000,4.000000,4.000000,4.000000,4.000000,4.000000,4.000000,4.000000,4.000000,4.000000,4.000000,4.000000,4.000000,4.000000,4.000000,4.000000,4.000000,4.000000,4.000000,4.000000,4.000000,4.000000,4.000000,100.000000
1614737594.061557,86.000000,0.000000,9.050324,7.233490,-45.975185,58.035210,25.344606,18.168468,16.588655,33.289310,13.046593,47.852306,26.861311,22.243382,11.133896,21.971485,29.970284,7.358947,7.753461,46.954041,21.593861,-50.556847,17.786478,4.613855,15.577332,28.051357,-13.045779,-13.990443,-37.251431,7.521307,-3.491323,-7.143151,-26.907215,-62.873348,0.000000,196.000000,4.000000,,,,0.000000,4.000000,4.000000,4.000000,4.000000,4.000000,4.000000,4.000000,4.000000,4.000000,4.000000,4.000000,4.000000,4.000000,4.000000,4.000000,4.000000,4.000000,4.000000,4.000000,4.000000,4.000000,4.000000,4.000000,4.000000,4.000000,4.000000,4.000000,4.000000,4.000000,4.000000,4.000000,4.000000,100.000000
1614737594.069406,87.000000,0.000000,4.938710,5.687795,-47.467670,40.541279,16.601313,16.099018,17.084887,25.050894,4.315597,33.445480,4.783167,13.503189,7.533018,12.718744,14.555697,-24.956104,2.617502,15.625035,-8.171323,-75.121674,-0.692846,-5.647169,12.484832,1.869460,-18.673759,-19.104658,-46.444946,3.924042,-5.539114,-10.725752,-44.829025,-72.554062,0.000000,205.000000,4.000000,,,,0.000000,4.000000,4.000000,4.000000,4.000000,4.000000,4.000000,4.000000,4.000000,4.000000,4.000000,4.000000,4.000000,4.000000,4.000000,4.000000,4.000000,4.000000,4.000000,4.000000,4.000000,4.000000,4.000000,4.000000,4.000000,4.000000,4.000000,4.000000,4.000000,4.000000,4.000000,4.000000,4.000000,100.000000
1614737594.077155,88.000000,0.000000,4.933771,1.579543,-53.061230,35.885353,10.943686,16.595739,17.067802,27.077126,-5.945129,7.258188,-16.247257,12.464046,3.422921,0.911154,-0.843473,-55.187557,2.102064,-14.134179,-38.419563,-104.790146,-13.512666,-14.359470,-4.450730,-21.722153,-29.424316,-21.136835,-78.706192,-3.259369,-6.559216,-25.074001,-48.886761,-81.712280,0.000000,185.000000,4.000000,,,,0.000000,4.000000,4.000000,4.000000,4.000000,4.000000,4.000000,4.000000,4.000000,4.000000,4.000000,4.000000,4.000000,4.000000,4.000000,4.000000,4.000000,4.000000,4.000000,4.000000,4.000000,4.000000,4.000000,4.000000,4.000000,4.000000,4.000000,4.000000,4.000000,4.000000,4.000000,4.000000,4.000000,100.000000
1614737594.085004,89.000000,0.000000,5.441658,-0.986139,-61.726116,37.387928,9.907101,16.579144,16.537914,23.460304,-8.503286,-5.056762,-19.820753,12.964401,3.419498,-5.243603,-11.611861,-69.491348,1.587142,-25.914917,-64.534988,-121.608429,-20.165819,-14.345111,-20.856535,-39.649151,-37.600021,-25.731083,-92.473640,-6.333033,-6.552656,-33.766876,-47.812233,-82.656212,0.000000,201.000000,4.000000,,,,0.000000,4.000000,4.000000,4.000000,4.000000,4.000000,4.000000,4.000000,4.000000,4.000000,4.000000,4.000000,4.000000,4.000000,4.000000,4.000000,4.000000,4.000000,4.000000,4.000000,4.000000,4.000000,4.000000,4.000000,4.000000,4.000000,4.000000,4.000000,4.000000,4.000000,4.000000,4.000000,4.000000,100.000000
1614737594.092753,90.000000,0.000000,4.923396,-0.472332,-60.125927,35.299259,10.410014,16.049744,16.521376,14.206076,-6.956321,0.589320,-19.800932,12.438617,1.877617,-5.238360,-12.625890,-70.447495,-2.004189,-24.350540,-77.803787,-124.563744,-24.248219,-13.817945,-24.425423,-46.276165,-33.972675,-29.295095,-59.560658,-5.813879,-6.033283,-24.502338,-48.790062,-83.599190,0.000000,209.000000,4.000000,,,,0.000000,4.000000,4.000000,4.000000,4.000000,4.000000,4.000000,4.000000,4.000000,4.000000,4.000000,4.000000,4.000000,4.000000,4.000000,4.000000,4.000000,4.000000,4.000000,4.000000,4.000000,4.000000,4.000000,4.000000,4.000000,4.000000,4.000000,4.000000,4.000000,4.000000,4.000000,4.000000,4.000000,100.000000
1614737594.100601,91.000000,0.000000,5.431293,-0.471860,-55.450417,36.802422,9.886784,16.546515,17.017675,14.191870,-7.462186,7.255398,-19.268311,12.938998,0.337278,-4.720301,-7.485059,-67.812943,-1.489364,-18.172344,-61.315727,-111.105850,-19.608585,-7.650281,-25.426638,-28.281172,-24.195114,-29.265800,-31.295967,-6.833706,-3.975968,-12.170144,-43.613068,-84.541237,0.000000,200.000000,4.000000,,,,0.000000,4.000000,4.000000,4.000000,4.000000,4.000000,4.000000,4.000000,4.000000,4.000000,4.000000,4.000000,4.000000,4.000000,4.000000,4.000000,4.000000,4.000000,4.000000,4.000000,4.000000,4.000000,4.000000,4.000000,4.000000,4.000000,4.000000,4.000000,4.000000,4.000000,4.000000,4.000000,4.000000,100.000000
1614737594.108350,92.000000,0.000000,7.989964,-0.984209,-53.343685,43.945107,10.389717,16.529968,17.000658,23.408447,-7.454723,8.786604,-5.915709,12.926060,4.952325,-5.228401,-2.862189,-60.052826,4.665971,-9.949043,-33.562103,-84.840897,-9.332566,4.665061,-17.708904,2.516340,-18.017073,-26.159613,-47.674927,-5.801231,-2.946351,-11.132333,-36.902786,-82.405411,0.000000,177.000000,4.000000,,,,0.000000,4.000000,4.000000,4.000000,4.000000,4.000000,4.000000,4.000000,4.000000,4.000000,4.000000,4.000000,4.000000,4.000000,4.000000,4.000000,4.000000,4.000000,4.000000,4.000000,4.000000,4.000000,4.000000,4.000000,4.000000,4.000000,4.000000,4.000000,4.000000,4.000000,4.000000,4.000000,4.000000,100.000000
1614737594.116199,93.000000,0.000000,9.520435,-0.470404,-49.700596,48.003723,10.892148,14.974977,16.470837,26.974783,-6.934448,6.213715,6.397898,13.425954,8.024296,-0.607788,3.807340,-38.454311,9.789511,1.855777,-22.246490,-69.371437,-5.733490,10.301422,-1.280938,18.924080,-13.896491,-24.082170,-73.268280,-5.795430,-2.943404,-14.198124,-34.814602,-79.758904,0.000000,182.000000,4.000000,,,,0.000000,4.000000,4.000000,4.000000,4.000000,4.000000,4.000000,4.000000,4.000000,4.000000,4.000000,4.000000,4.000000,4.000000,4.000000,4.000000,4.000000,4.000000,4.000000,4.000000,4.000000,4.000000,4.000000,4.000000,4.000000,4.000000,4.000000,4.000000,4.000000,4.000000,4.000000,4.000000,4.000000,100.000000
1614737594.123948,94.000000,0.000000,8.998095,-0.469933,-47.086796,49.494183,9.342794,12.908719,16.967186,24.383705,-6.927514,8.258783,16.135090,15.463810,8.016272,8.623589,18.162506,-11.236369,10.292542,17.751358,-10.942192,-62.635403,-5.727757,9.265479,1.284445,21.982079,-5.677467,-25.596550,-60.374496,-7.840917,-1.914820,-13.671105,-35.805428,-80.704788,0.000000,201.000000,4.000000,,,,0.000000,4.000000,4.000000,4.000000,4.000000,4.000000,4.000000,4.000000,4.000000,4.000000,4.000000,4.000000,4.000000,4.000000,4.000000,4.000000,4.000000,4.000000,4.000000,4.000000,4.000000,4.000000,4.000000,4.000000,4.000000,4.000000,4.000000,4.000000,4.000000,4.000000,4.000000,4.000000,4.000000,100.000000
1614737594.131797,95.000000,0.000000,8.989097,-0.469464,-39.860222,54.060074,10.871913,12.382990,16.950218,25.384962,-6.920586,19.019754,31.503571,16.986809,10.059538,16.820093,34.554600,2.108201,9.769428,32.092579,11.632853,-41.034306,4.021561,9.769034,-2.819403,27.088301,-1.056405,-23.006851,-29.544891,2.423334,-2.938546,-14.170255,-36.282444,-81.136902,0.000000,212.000000,4.000000,,,,0.000000,4.000000,4.000000,4.000000,4.000000,4.000000,4.000000,4.000000,4.000000,4.000000,4.000000,4.000000,4.000000,4.000000,4.000000,4.000000,4.000000,4.000000,4.000000,4.000000,4.000000,4.000000,4.000000,4.000000,4.000000,4.000000,4.000000,4.000000,4.000000,4.000000,4.000000,4.000000,4.000000,100.000000
1614737594.139545,96.000000,0.000000,8.980107,-0.468994,-25.461386,58.621399,13.425144,12.370607,16.420448,28.949320,-6.913666,25.154581,35.061810,16.969822,9.023837,18.854555,37.084148,2.106093,10.785300,35.137409,21.364809,-23.044552,17.350872,9.759265,10.516749,30.650957,0.483113,-15.291536,-27.976885,20.882450,-2.422787,-14.668905,-28.553854,-72.337814,8064.000000,0.000000,4.000000,,,,0.000000,4.000000,4.000000,4.000000,4.000000,4.000000,4.000000,4.000000,4.000000,4.000000,4.000000,4.000000,4.000000,4.000000,4.000000,4.000000,4.000000,4.000000,4.000000,4.000000,4.000000,4.000000,4.000000,4.000000,4.000000,4.000000,4.000000,4.000000,4.000000,4.000000,4.000000,4.000000,4.000000,100.000000
1614737594.147394,97.000000,0.000000,8.971128,-0.981346,-18.256437,59.588417,12.898898,12.358236,17.429668,28.920372,-6.906752,21.539682,20.154953,16.952850,4.399428,18.322880,33.970142,-0.460116,9.748874,33.050991,18.266521,-28.149714,21.436085,9.236686,22.813925,29.081844,7.149297,-8.609578,-26.923267,25.476952,6.810405,-7.474749,-16.217607,-57.393684,8064.000000,0.000000,4.000000,,,,0.000000,4.000000,4.000000,4.000000,4.000000,4.000000,4.000000,4.000000,4.000000,4.000000,4.000000,4.000000,4.000000,4.000000,4.000000,4.000000,4.000000,4.000000,4.000000,4.000000,4.000000,4.000000,4.000000,4.000000,4.000000,4.000000,4.000000,4.000000,4.000000,4.000000,4.000000,4.000000,4.000000,100.000000
1614737594.155143,98.000000,0.000000,8.962156,0.045277,-20.289463,61.067291,16.475742,12.345879,19.463520,29.917091,-6.899845,33.825836,11.929670,16.935898,3.369388,18.304558,33.423351,-9.177605,5.123740,34.043583,17.735435,-33.249767,19.363367,9.227448,22.278290,27.001480,6.116507,-8.600968,-4.332242,21.348911,13.470262,0.225034,-20.816774,-53.746548,8064.000000,0.000000,4.000000,,,,0.000000,4.000000,4.000000,4.000000,4.000000,4.000000,4.000000,4.000000,4.000000,4.000000,4.000000,4.000000,4.000000,4.000000,4.000000,4.000000,4.000000,4.000000,4.000000,4.000000,4.000000,4.000000,4.000000,4.000000,4.000000,4.000000,4.000000,4.000000,4.000000,4.000000,4.000000,4.000000,4.000000,100.000000
1614737594.162992,99.000000,0.000000,8.953194,2.609334,-19.756353,63.057507,28.254139,12.333532,20.469698,36.041019,-7.405766,57.894573,7.815177,16.406141,3.366019,15.722151,23.646338,-32.245350,1.528873,26.830051,5.922828,-41.421646,14.215799,3.064375,22.768833,17.230888,-10.812687,-14.233393,-8.430473,20.814741,9.867047,-5.929038,-33.103649,-61.385109,8192.000000,0.000000,4.000000,,,,0.000000,4.000000,4.000000,4.000000,4.000000,4.000000,4.000000,4.000000,4.000000,4.000000,4.000000,4.000000,4.000000,4.000000,4.000000,4.000000,4.000000,4.000000,4.000000,4.000000,4.000000,4.000000,4.000000,4.000000,4.000000,4.000000,4.000000,4.000000,4.000000,4.000000,4.000000,4.000000,4.000000,100.000000
1614737594.170741,100.000000,0.000000,8.944241,3.119545,-20.762238,62.481628,33.866909,12.834020,20.449228,41.646008,-8.424001,53.221294,-6.551612,16.902555,2.849832,10.578223,6.186794,-59.392593,2.040164,5.264759,-22.801044,-69.585350,3.945173,-4.630997,15.566577,-4.324803,-16.442900,-19.860186,-40.729736,10.537517,4.728975,-20.282084,-34.609009,-67.990387,8064.000000,0.000000,4.000000,,,,0.000000,4.000000,4.000000,4.000000,4.000000,4.000000,4.000000,4.000000,4.000000,4.000000,4.000000,4.000000,4.000000,4.000000,4.000000,4.000000,4.000000,4.000000,4.000000,4.000000,4.000000,4.000000,4.000000,4.000000,4.000000,4.000000,4.000000,4.000000,4.000000,4.000000,4.000000,4.000000,4.000000,100.000000
1614737594.178390,101.000000,0.000000,8.935297,3.116426,-29.459423,61.906326,32.294582,15.898108,20.428780,40.578720,-6.877116,29.065510,-16.288651,16.885654,6.949546,6.465081,-0.998880,-72.666534,2.038124,-17.817429,-47.906448,-94.131149,-5.802362,-6.677648,-5.987452,-22.269196,-14.887996,-21.378786,-68.381310,-8.960201,3.698605,-27.954109,-42.266708,-77.153168,8192.000000,0.000000,4.000000,,,,0.000000,4.000000,4.000000,4.000000,4.000000,4.000000,4.000000,4.000000,4.000000,4.000000,4.000000,4.000000,4.000000,4.000000,4.000000,4.000000,4.000000,4.000000,4.000000,4.000000,4.000000,4.000000,4.000000,4.000000,4.000000,4.000000,4.000000,4.000000,4.000000,4.000000,4.000000,4.000000,4.000000,100.000000
1614737594.186138,102.000000,0.000000,8.926361,3.113309,-35.070992,62.357239,32.262287,19.471954,20.408350,35.922756,-7.383059,25.446701,-14.221080,15.843127,10.532340,4.920154,0.540580,-72.081047,2.036086,-23.440638,-56.063671,-101.216507,-8.873483,-7.696611,-18.289156,-23.785389,-31.283363,-21.357409,-56.518059,-15.105087,1.643625,-26.387693,-57.609055,-87.845245,8192.000000,0.000000,4.000000,,,,0.000000,4.000000,4.000000,4.000000,4.000000,4.000000,4.000000,4.000000,4.000000,4.000000,4.000000,4.000000,4.000000,4.000000,4.000000,4.000000,4.000000,4.000000,4.000000,4.000000,4.000000,4.000000,4.000000,4.000000,4.000000,4.000000,4.000000,4.000000,4.000000,4.000000,4.000000,4.000000,4.000000,100.000000
1614737594.193787,103.000000,0.000000,8.917435,3.110196,-36.061562,61.782063,32.230026,20.478123,19.875122,33.322731,-8.914138,29.010998,-3.437628,17.878567,11.034629,9.017798,2.591322,-67.393578,8.187897,-8.545402,-47.802479,-104.192215,-7.838968,-4.099171,-17.245226,-12.992373,-42.534130,-20.823231,-29.794876,-10.987417,0.616340,-18.668997,-50.371960,-84.680473,8064.000000,0.000000,4.000000,,,,0.000000,4.000000,4.000000,4.000000,4.000000,4.000000,4.000000,4.000000,4.000000,4.000000,4.000000,4.000000,4.000000,4.000000,4.000000,4.000000,4.000000,4.000000,4.000000,4.000000,4.000000,4.000000,4.000000,4.000000,4.000000,4.000000,4.000000,4.000000,4.000000,4.000000,4.000000,4.000000,4.000000,100.000000
1614737594.201536,104.000000,0.000000,8.908518,3.107086,-35.512676,61.720280,29.120872,19.944824,21.906528,34.827869,0.838366,26.417883,11.437604,22.476072,15.638979,17.726728,6.691295,-49.890289,17.923298,9.924683,-30.831598,-91.780334,-2.190104,9.751082,-16.202339,0.866774,-24.542879,-16.699842,-24.636875,-10.976430,0.615724,-9.419559,-30.321589,-66.134254,8064.000000,0.000000,4.000000,,,,0.000000,4.000000,4.000000,4.000000,4.000000,4.000000,4.000000,4.000000,4.000000,4.000000,4.000000,4.000000,4.000000,4.000000,4.000000,4.000000,4.000000,4.000000,4.000000,4.000000,4.000000,4.000000,4.000000,4.000000,4.000000,4.000000,4.000000,4.000000,4.000000,4.000000,4.000000,4.000000,4.000000,100.000000
1614737594.209185,105.000000,0.000000,8.899609,5.155261,-28.297678,61.658558,28.066111,20.437700,23.935904,36.844322,18.786245,38.699158,19.118475,24.504879,21.777185,22.324387,8.735886,-28.301937,21.495119,18.119886,-10.287947,-62.970600,7.555676,21.023382,-11.570753,14.199241,-11.697824,-12.580579,-44.099419,-8.914172,1.127928,-6.846037,-28.239985,-54.786072,8064.000000,0.000000,4.000000,,,,0.000000,4.000000,4.000000,4.000000,4.000000,4.000000,4.000000,4.000000,4.000000,4.000000,4.000000,4.000000,4.000000,4.000000,4.000000,4.000000,4.000000,4.000000,4.000000,4.000000,4.000000,4.000000,4.000000,4.000000,4.000000,4.000000,4.000000,4.000000,4.000000,4.000000,4.000000,4.000000,4.000000,100.000000
1614737594.216934,106.000000,0.000000,8.890710,6.688567,-17.500151,61.596901,28.550865,19.904442,23.911968,35.781837,22.870024,41.737381,19.612177,23.967552,22.781050,21.276423,7.701509,-21.606968,20.447983,23.742792,12.799265,-42.394810,17.291710,20.489538,0.235690,29.569656,-12.198947,-13.080818,-43.542500,-0.187309,1.126800,-7.864832,-32.827129,-65.500519,8064.000000,0.000000,4.000000,,,,0.000000,4.000000,4.000000,4.000000,4.000000,4.000000,4.000000,4.000000,4.000000,4.000000,4.000000,4.000000,4.000000,4.000000,4.000000,4.000000,4.000000,4.000000,4.000000,4.000000,4.000000,4.000000,4.000000,4.000000,4.000000,4.000000,4.000000,4.000000,4.000000,4.000000,4.000000,4.000000,4.000000,100.000000
1614737594.224583,107.000000,0.000000,8.881819,6.681879,-17.482649,61.535305,27.496674,19.884537,23.375237,35.746056,15.667666,16.567440,26.772051,23.943584,22.245447,21.255146,15.898935,-15.431515,21.453175,33.975460,30.735184,-26.454981,30.094931,19.956228,13.568788,43.899059,4.223509,-13.580558,-15.293827,7.505186,1.125674,-6.318506,-29.204557,-77.229889,8192.000000,0.000000,4.000000,,,,0.000000,4.000000,4.000000,4.000000,4.000000,4.000000,4.000000,4.000000,4.000000,4.000000,4.000000,4.000000,4.000000,4.000000,4.000000,4.000000,4.000000,4.000000,4.000000,4.000000,4.000000,4.000000,4.000000,4.000000,4.000000,4.000000,4.000000,4.000000,4.000000,4.000000,4.000000,4.000000,4.000000,100.000000
1614737594.232332,108.000000,0.000000,8.872937,6.675197,-23.619013,61.473766,24.905073,19.864653,23.864681,36.735950,14.113538,18.602154,34.437588,23.919641,19.659100,22.259531,29.216370,4.071096,21.431723,38.556870,33.781372,-9.505448,41.346889,20.961912,24.837269,47.444904,23.193644,-13.054157,-8.099046,11.087424,1.124548,-3.748085,-26.611250,-65.357788,8064.000000,0.000000,4.000000,,,,0.000000,4.000000,4.000000,4.000000,4.000000,4.000000,4.000000,4.000000,4.000000,4.000000,4.000000,4.000000,4.000000,4.000000,4.000000,4.000000,4.000000,4.000000,4.000000,4.000000,4.000000,4.000000,4.000000,4.000000,4.000000,4.000000,4.000000,4.000000,4.000000,4.000000,4.000000,4.000000,4.000000,100.000000
1614737594.239981,109.000000,0.000000,6.812782,6.668521,-24.621035,61.925114,24.367348,18.306326,23.840816,35.160755,16.150705,45.763039,35.428791,23.895721,12.972775,21.211630,32.776897,14.836255,18.846188,36.979851,32.721951,-8.983122,39.767078,19.915310,28.914997,46.884640,18.555065,-13.041103,-15.270434,15.691722,1.123423,-2.718696,-27.097460,-49.394993,8192.000000,0.000000,4.000000,,,,0.000000,4.000000,4.000000,4.000000,4.000000,4.000000,4.000000,4.000000,4.000000,4.000000,4.000000,4.000000,4.000000,4.000000,4.000000,4.000000,4.000000,4.000000,4.000000,4.000000,4.000000,4.000000,4.000000,4.000000,4.000000,4.000000,4.000000,4.000000,4.000000,4.000000,4.000000,4.000000,4.000000,100.000000
1614737594.247730,110.000000,0.000000,5.267508,6.661853,-23.570774,60.837547,24.342981,16.236738,23.816977,33.074310,14.596094,34.435226,34.367722,23.871826,10.395699,21.190418,31.205658,6.103470,17.801701,35.917229,33.714867,-18.204908,31.009363,20.921036,30.424543,47.350574,10.331383,-13.540882,-3.460292,17.727312,1.122300,-6.305720,-25.531900,-54.473804,8064.000000,0.000000,4.000000,,,,0.000000,4.000000,4.000000,4.000000,4.000000,4.000000,4.000000,4.000000,4.000000,4.000000,4.000000,4.000000,4.000000,4.000000,4.000000,4.000000,4.000000,4.000000,4.000000,4.000000,4.000000,4.000000,4.000000,4.000000,4.000000,4.000000,4.000000,4.000000,4.000000,4.000000,4.000000,4.000000,4.000000,100.000000
1614737594.255379,111.000000,0.000000,4.749420,8.193652,-24.060022,61.802353,24.831457,15.707681,23.793159,34.579697,14.068677,16.964891,27.153866,23.847954,13.975047,21.169228,29.635990,-7.748787,15.219796,28.189005,18.809359,-26.391832,22.773226,17.310371,30.394119,35.508354,11.346692,-13.527342,-9.610678,14.119842,1.121178,-11.427620,-23.967907,-61.598816,8192.000000,0.000000,4.000000,,,,0.000000,4.000000,4.000000,4.000000,4.000000,4.000000,4.000000,4.000000,4.000000,4.000000,4.000000,4.000000,4.000000,4.000000,4.000000,4.000000,4.000000,4.000000,4.000000,4.000000,4.000000,4.000000,4.000000,4.000000,4.000000,4.000000,4.000000,4.000000,4.000000,4.000000,4.000000,4.000000,4.000000,100.000000
1614737594.263127,112.000000,0.000000,5.257491,9.723921,-24.548784,65.330292,24.806627,16.204794,23.769365,36.596401,14.567429,36.435108,11.742097,23.824106,13.448252,18.071136,20.375586,-21.587193,9.050731,13.289021,-7.363297,-49.955185,9.929940,6.523830,16.517570,12.395923,0.566115,-13.000994,-41.908760,7.951875,1.120057,-11.416192,-24.456760,-58.973114,8064.000000,0.000000,4.000000,,,,0.000000,4.000000,4.000000,4.000000,4.000000,4.000000,4.000000,4.000000,4.000000,4.000000,4.000000,4.000000,4.000000,4.000000,4.000000,4.000000,4.000000,4.000000,4.000000,4.000000,4.000000,4.000000,4.000000,4.000000,4.000000,4.000000,4.000000,4.000000,4.000000,4.000000,4.000000,4.000000,4.000000,100.000000
1614737594.270776,113.000000,0.000000,5.252233,11.252658,-24.011414,63.726501,23.243359,16.188589,23.745596,35.021343,13.527221,37.424313,2.499585,23.287462,9.845059,14.463322,6.509056,-34.898937,4.939116,5.070603,-21.714909,-80.161636,-3.413323,0.363460,-1.960485,-1.462627,-16.870348,-15.039275,-61.354031,3.328539,1.118936,-12.430417,-32.124611,-66.606453,8064.000000,0.000000,4.000000,,,,0.000000,4.000000,4.000000,4.000000,4.000000,4.000000,4.000000,4.000000,4.000000,4.000000,4.000000,4.000000,4.000000,4.000000,4.000000,4.000000,4.000000,4.000000,4.000000,4.000000,4.000000,4.000000,4.000000,4.000000,4.000000,4.000000,4.000000,4.000000,4.000000,4.000000,4.000000,4.000000,4.000000,100.000000
1614737594.278525,114.000000,0.000000,5.246981,10.728585,-23.987402,58.534569,21.168833,16.172400,23.721851,32.422218,10.949591,8.668940,3.009906,23.776995,12.399317,15.474499,-0.676940,-38.453781,5.446997,5.065533,-22.206015,-91.363525,-5.974013,0.363097,-6.573910,-0.435524,-22.494505,-17.075518,-41.292675,1.273928,1.117818,-19.597473,-42.348896,-78.847534,8064.000000,0.000000,4.000000,,,,0.000000,4.000000,4.000000,4.000000,4.000000,4.000000,4.000000,4.000000,4.000000,4.000000,4.000000,4.000000,4.000000,4.000000,4.000000,4.000000,4.000000,4.000000,4.000000,4.000000,4.000000,4.000000,4.000000,4.000000,4.000000,4.000000,4.000000,4.000000,4.000000,4.000000,4.000000,4.000000,4.000000,100.000000
1614737594.286174,115.000000,0.000000,5.241734,7.128113,-24.476236,56.424751,20.634844,14.617766,23.698128,31.876976,10.425820,13.275656,7.109460,23.753218,18.027943,17.510307,0.862199,-29.184559,5.954370,7.111749,-22.183807,-91.784988,-3.403936,1.388374,-7.592977,1.616194,-19.395086,-17.571262,-25.353949,0.759834,-0.421762,-21.116339,-42.819370,-73.640480,8064.000000,0.000000,4.000000,,,,0.000000,4.000000,4.000000,4.000000,4.000000,4.000000,4.000000,4.000000,4.000000,4.000000,4.000000,4.000000,4.000000,4.000000,4.000000,4.000000,4.000000,4.000000,4.000000,4.000000,4.000000,4.000000,4.000000,4.000000,4.000000,4.000000,4.000000,4.000000,4.000000,4.000000,4.000000,4.000000,4.000000,100.000000
