title:11, start timestamp:1615771864.998862, stop timestamp:1615771910.873867, headset type:EPOCFLEX, headset serial:F00001ED, headset firmware:f12, subject name:s19, channels:75, sampling rate:128, samples:5928      , version:2.0
Timestamp,EEG.Counter,EEG.Interpolated,EEG.Cz,EEG.Fz,EEG.Fp1,EEG.AF3,EEG.F7,EEG.F3,EEG.FC1,EEG.C3,EEG.FC5,EEG.T7,EEG.CP5,EEG.CP1,EEG.P3,EEG.P7,EEG.PO3,EEG.O1,EEG.Pz,EEG.Oz,EEG.O2,EEG.PO4,EEG.P8,EEG.P4,EEG.CP2,EEG.CP6,EEG.T8,EEG.FC6,EEG.C4,EEG.FC2,EEG.F4,EEG.F8,EEG.AF4,EEG.Fp2,EEG.HighBitFlex,EEG.RawCq,EEG.Battery,MarkerIndex,MarkerType,MarkerValueInt,EEG.MarkerHardware,CQ.Cz,CQ.Fz,CQ.Fp1,CQ.AF3,CQ.F7,CQ.F3,CQ.FC1,CQ.C3,CQ.FC5,CQ.T7,CQ.CP5,CQ.CP1,CQ.P3,CQ.P7,CQ.PO3,CQ.O1,CQ.Pz,CQ.Oz,CQ.O2,CQ.PO4,CQ.P8,CQ.P4,CQ.CP2,CQ.CP6,CQ.T8,CQ.FC6,CQ.C4,CQ.FC2,CQ.F4,CQ.F8,CQ.AF4,CQ.Fp2,CQ.Overall
1615771864.998862,93.000000,0.000000,-6.915143,0.692015,-136.168655,-21.356071,-28.011778,-22.323158,-5.471620,32.600601,-5.546394,1.750615,-0.930943,-3.551958,-9.630973,-14.666283,4.858221,4.781585,7.154578,-2.857090,35.101425,-8.667698,6.590946,6.885801,4.737955,5.150707,22.664543,5.256642,7.493163,-6.052870,17.949381,38.755833,-8.916162,82.730988,0.000000,191.000000,4.000000,,,,0.000000,4.000000,4.000000,4.000000,4.000000,4.000000,4.000000,4.000000,4.000000,4.000000,4.000000,4.000000,4.000000,4.000000,4.000000,4.000000,4.000000,4.000000,4.000000,4.000000,4.000000,4.000000,4.000000,4.000000,4.000000,4.000000,4.000000,4.000000,4.000000,4.000000,4.000000,4.000000,4.000000,100.000000
1615771865.006711,94.000000,0.000000,-6.908227,0.691323,-133.981201,-19.283432,-33.111969,-22.300835,-5.466148,32.568001,-3.489566,1.748865,0.095628,-2.522765,-3.980316,-4.908027,3.314901,12.981932,7.660244,-4.392695,35.066322,-13.787235,1.456150,4.314813,3.707575,5.658376,22.129059,5.764205,7.998490,-5.533996,19.469893,38.717075,-5.830322,80.084152,0.000000,206.000000,4.000000,,,,0.000000,4.000000,4.000000,4.000000,4.000000,4.000000,4.000000,4.000000,4.000000,4.000000,4.000000,4.000000,4.000000,4.000000,4.000000,4.000000,4.000000,4.000000,4.000000,4.000000,4.000000,4.000000,4.000000,4.000000,4.000000,4.000000,4.000000,4.000000,4.000000,4.000000,4.000000,4.000000,4.000000,100.000000
1615771865.014460,95.000000,0.000000,-6.901319,0.690631,-132.308762,-14.135944,-28.976295,-21.765713,-5.460682,32.535435,-3.486076,9.952244,-0.417288,-0.981781,-1.412233,0.737907,4.337227,21.174078,7.652584,1.765544,35.031258,-3.004218,8.121361,4.823318,4.729509,5.139897,26.722315,6.271262,11.067415,-3.477180,27.142731,38.678360,-1.209107,82.055351,0.000000,165.000000,4.000000,,,,0.000000,4.000000,4.000000,4.000000,4.000000,4.000000,4.000000,4.000000,4.000000,4.000000,4.000000,4.000000,4.000000,4.000000,4.000000,4.000000,4.000000,4.000000,4.000000,4.000000,4.000000,4.000000,4.000000,4.000000,4.000000,4.000000,4.000000,4.000000,4.000000,4.000000,4.000000,4.000000,4.000000,100.000000
1615771865.022309,96.000000,0.000000,-7.407238,0.689941,-132.176453,-12.070526,-25.357574,-21.743948,-5.455221,33.015717,-3.995411,12.506394,13.429283,1.070483,-1.923642,-1.314113,4.845711,11.409314,9.183393,2.276599,34.996227,6.229556,9.651701,5.331316,4.724779,5.647578,27.208412,6.777811,12.081988,-2.448062,29.679691,39.152500,-1.207898,84.537399,8064.000000,0.000000,4.000000,,,,0.000000,4.000000,4.000000,4.000000,4.000000,4.000000,4.000000,4.000000,4.000000,4.000000,4.000000,4.000000,4.000000,4.000000,4.000000,4.000000,4.000000,4.000000,4.000000,4.000000,4.000000,4.000000,4.000000,4.000000,4.000000,4.000000,4.000000,4.000000,4.000000,4.000000,4.000000,4.000000,4.000000,100.000000
1615771865.030059,97.000000,0.000000,-5.861370,1.202071,-134.095551,-14.109738,-26.357859,-21.722204,-5.449766,32.982704,-3.991415,10.442606,7.774828,1.582233,-1.921718,-1.825619,2.789583,3.192777,11.738313,-1.828242,34.961231,1.607942,5.026665,4.813164,4.207234,5.641931,24.617102,6.771033,12.069906,-1.419973,26.573088,41.164631,-4.796434,82.914398,8064.000000,0.000000,4.000000,,,,0.000000,4.000000,4.000000,4.000000,4.000000,4.000000,4.000000,4.000000,4.000000,4.000000,4.000000,4.000000,4.000000,4.000000,4.000000,4.000000,4.000000,4.000000,4.000000,4.000000,4.000000,4.000000,4.000000,4.000000,4.000000,4.000000,4.000000,4.000000,4.000000,4.000000,4.000000,4.000000,4.000000,100.000000
1615771865.037908,98.000000,0.000000,-3.804226,0.175228,-136.012741,-13.069987,-26.844320,-22.213303,-5.444316,31.924078,-3.987424,10.944983,-17.361151,1.067830,-6.022360,-1.310973,-0.802950,6.266507,10.188112,0.224869,34.926270,-3.521872,5.021638,4.808351,4.203027,5.123468,24.079664,5.225801,13.596298,2.684011,29.110617,42.661926,-5.304458,84.882767,8064.000000,0.000000,4.000000,,,,0.000000,4.000000,4.000000,4.000000,4.000000,4.000000,4.000000,4.000000,4.000000,4.000000,4.000000,4.000000,4.000000,4.000000,4.000000,4.000000,4.000000,4.000000,4.000000,4.000000,4.000000,4.000000,4.000000,4.000000,4.000000,4.000000,4.000000,4.000000,4.000000,4.000000,4.000000,4.000000,4.000000,100.000000
1615771865.045657,99.000000,0.000000,-2.774781,0.687874,-135.363907,-12.031276,-25.791836,-21.678268,-5.438872,32.917797,-2.957795,11.959680,-12.215585,1.579583,-8.580441,-0.284021,0.736314,10.362804,5.562540,2.788746,34.891342,-3.518350,6.555078,4.803543,4.711644,4.605524,24.055584,6.246216,16.146805,6.271071,34.209713,42.619267,-4.273512,89.926086,8064.000000,0.000000,4.000000,,,,0.000000,4.000000,4.000000,4.000000,4.000000,4.000000,4.000000,4.000000,4.000000,4.000000,4.000000,4.000000,4.000000,4.000000,4.000000,4.000000,4.000000,4.000000,4.000000,4.000000,4.000000,4.000000,4.000000,4.000000,4.000000,4.000000,4.000000,4.000000,4.000000,4.000000,4.000000,4.000000,4.000000,100.000000
1615771865.053506,100.000000,0.000000,-3.284827,1.712827,-135.228546,-19.198732,-25.766043,-21.656590,-5.433433,33.397697,-5.518940,7.845156,9.847913,-0.473279,-4.469296,-1.309378,0.735578,8.301160,2.992875,2.273137,34.856453,-5.566113,4.497241,4.798739,3.681292,5.626560,24.544350,7.265611,16.130657,5.751979,32.637039,42.576645,-4.782059,88.810524,8064.000000,0.000000,4.000000,,,,0.000000,4.000000,4.000000,4.000000,4.000000,4.000000,4.000000,4.000000,4.000000,4.000000,4.000000,4.000000,4.000000,4.000000,4.000000,4.000000,4.000000,4.000000,4.000000,4.000000,4.000000,4.000000,4.000000,4.000000,4.000000,4.000000,4.000000,4.000000,4.000000,4.000000,4.000000,4.000000,4.000000,100.000000
1615771865.061256,101.000000,0.000000,-3.281542,-1.365809,-138.683060,-27.897482,-26.253098,-23.686214,-5.427999,27.210455,-12.180088,3.221926,4.197039,-2.524087,-2.926365,-9.000377,-6.444645,4.190294,3.502702,1.758043,32.770313,-7.099009,1.928641,4.793940,1.626328,5.108113,25.032625,0.591678,10.473501,5.233407,29.527481,42.534069,-4.777277,83.593506,8064.000000,0.000000,4.000000,,,,0.000000,4.000000,4.000000,4.000000,4.000000,4.000000,4.000000,4.000000,4.000000,4.000000,4.000000,4.000000,4.000000,4.000000,4.000000,4.000000,4.000000,4.000000,4.000000,4.000000,4.000000,4.000000,4.000000,4.000000,4.000000,4.000000,4.000000,4.000000,4.000000,4.000000,4.000000,4.000000,4.000000,100.000000
1615771865.069105,102.000000,0.000000,-3.278260,-6.492649,-142.134125,-28.895226,-25.714024,-25.713810,-5.422572,21.542219,-15.244831,4.244345,-8.627671,-3.034384,-5.487542,-9.504197,-9.002303,6.750206,4.012020,2.269106,31.199081,-6.579089,1.413892,5.301967,0.086240,0.487620,21.930670,-4.537118,4.309182,5.740994,30.010775,42.491535,-4.772500,82.484268,8064.000000,0.000000,4.000000,,,,0.000000,4.000000,4.000000,4.000000,4.000000,4.000000,4.000000,4.000000,4.000000,4.000000,4.000000,4.000000,4.000000,4.000000,4.000000,4.000000,4.000000,4.000000,4.000000,4.000000,4.000000,4.000000,4.000000,4.000000,4.000000,4.000000,4.000000,4.000000,4.000000,4.000000,4.000000,4.000000,4.000000,100.000000
1615771865.076854,103.000000,0.000000,-3.274982,-4.434874,-142.504807,-27.840689,-26.201132,-26.200918,-5.417149,25.110420,-12.152663,6.804204,-2.465197,-2.518529,-5.994874,-3.340846,-1.813813,17.512688,2.982367,2.266837,31.167881,-6.572510,1.925298,5.296665,0.598975,-2.076970,22.421558,1.108444,3.792052,5.222432,30.493584,42.449043,-4.767727,83.940247,8064.000000,0.000000,4.000000,,,,0.000000,4.000000,4.000000,4.000000,4.000000,4.000000,4.000000,4.000000,4.000000,4.000000,4.000000,4.000000,4.000000,4.000000,4.000000,4.000000,4.000000,4.000000,4.000000,4.000000,4.000000,4.000000,4.000000,4.000000,4.000000,4.000000,4.000000,4.000000,4.000000,4.000000,4.000000,4.000000,4.000000,100.000000
1615771865.084604,104.000000,0.000000,-3.271707,0.697766,-142.362305,-27.812849,-26.174931,-25.661896,-5.411732,29.700695,-11.114869,7.310220,0.614191,-2.516010,-4.963239,-3.850326,1.777744,20.572098,3.492205,2.264570,31.136715,-6.565938,1.923373,4.265727,0.598376,0.489209,29.578625,6.235541,4.813901,5.217210,29.950270,42.406597,-4.762960,83.343491,8064.000000,0.000000,4.000000,,,,0.000000,4.000000,4.000000,4.000000,4.000000,4.000000,4.000000,4.000000,4.000000,4.000000,4.000000,4.000000,4.000000,4.000000,4.000000,4.000000,4.000000,4.000000,4.000000,4.000000,4.000000,4.000000,4.000000,4.000000,4.000000,4.000000,4.000000,4.000000,4.000000,4.000000,4.000000,4.000000,4.000000,100.000000
1615771865.092353,105.000000,0.000000,-3.268435,-1.867034,-141.707123,-25.220934,-25.123114,-25.636234,-5.406320,28.645353,-11.103754,8.328550,-7.078731,-2.513494,-4.958275,-7.949040,0.237505,15.423321,4.001534,2.262305,31.105577,-6.046551,1.921450,5.287102,0.597777,2.027182,32.113148,6.742126,4.296267,5.724813,30.945961,42.364189,-6.296659,83.772964,8064.000000,0.000000,4.000000,,,,0.000000,4.000000,4.000000,4.000000,4.000000,4.000000,4.000000,4.000000,4.000000,4.000000,4.000000,4.000000,4.000000,4.000000,4.000000,4.000000,4.000000,4.000000,4.000000,4.000000,4.000000,4.000000,4.000000,4.000000,4.000000,4.000000,4.000000,4.000000,4.000000,4.000000,4.000000,4.000000,4.000000,100.000000
1615771865.100002,106.000000,0.000000,-2.752346,-6.993372,-141.052582,-23.657251,-26.123632,-25.097778,-4.888093,28.616707,-10.579830,6.781761,-8.610113,-2.510981,-5.466137,-9.479552,0.750088,13.869435,2.971891,3.285684,31.074472,-7.066146,2.945169,6.307456,1.110000,1.512334,26.440010,11.350768,3.779150,5.206268,29.376553,42.321823,-7.828823,83.689194,8064.000000,0.000000,4.000000,,,,0.000000,4.000000,4.000000,4.000000,4.000000,4.000000,4.000000,4.000000,4.000000,4.000000,4.000000,4.000000,4.000000,4.000000,4.000000,4.000000,4.000000,4.000000,4.000000,4.000000,4.000000,4.000000,4.000000,4.000000,4.000000,4.000000,4.000000,4.000000,4.000000,4.000000,4.000000,4.000000,4.000000,100.000000
1615771865.107752,107.000000,0.000000,-3.262414,-6.986379,-145.526917,-24.146414,-29.174431,-25.585501,-5.396026,27.562449,-12.620532,-2.968611,-3.473298,-2.508470,-7.511953,-15.623919,-2.327585,10.778643,-0.108004,1.743937,28.992115,-10.136003,1.403762,-0.878338,0.083249,2.023642,22.823826,12.877879,4.288191,5.201062,26.270252,42.279503,-8.846636,82.579865,8064.000000,0.000000,4.000000,,,,0.000000,4.000000,4.000000,4.000000,4.000000,4.000000,4.000000,4.000000,4.000000,4.000000,4.000000,4.000000,4.000000,4.000000,4.000000,4.000000,4.000000,4.000000,4.000000,4.000000,4.000000,4.000000,4.000000,4.000000,4.000000,4.000000,4.000000,4.000000,4.000000,4.000000,4.000000,4.000000,4.000000,100.000000
1615771865.115401,108.000000,0.000000,-3.771973,-6.466572,-149.483963,-23.609447,-30.170898,-25.047094,-5.903450,24.970785,-14.659194,-7.581027,-5.008286,-3.018782,-8.017262,-19.198038,-6.940642,6.665300,-1.133537,-0.821910,26.911840,-11.664329,1.915179,-6.518486,0.595986,0.995977,24.339464,10.813720,4.283903,5.708681,26.756804,40.185940,-7.812148,84.548561,8064.000000,0.000000,4.000000,,,,0.000000,4.000000,4.000000,4.000000,4.000000,4.000000,4.000000,4.000000,4.000000,4.000000,4.000000,4.000000,4.000000,4.000000,4.000000,4.000000,4.000000,4.000000,4.000000,4.000000,4.000000,4.000000,4.000000,4.000000,4.000000,4.000000,4.000000,4.000000,4.000000,4.000000,4.000000,4.000000,4.000000,100.000000
1615771865.123150,109.000000,0.000000,-2.742560,-6.972926,-148.308838,-23.585838,-28.089445,-24.509226,-4.359086,24.945814,-11.567612,-2.445241,-15.772509,-2.502943,-11.086168,-15.589097,-7.959343,6.145814,-0.106763,-0.308267,27.397749,-8.575741,3.451725,-2.409403,0.595390,1.507802,25.340765,10.802906,4.279619,4.164511,24.678764,38.094475,-7.291515,82.925552,8064.000000,0.000000,4.000000,,,,0.000000,4.000000,4.000000,4.000000,4.000000,4.000000,4.000000,4.000000,4.000000,4.000000,4.000000,4.000000,4.000000,4.000000,4.000000,4.000000,4.000000,4.000000,4.000000,4.000000,4.000000,4.000000,4.000000,4.000000,4.000000,4.000000,4.000000,4.000000,4.000000,4.000000,4.000000,4.000000,4.000000,100.000000
1615771865.130800,110.000000,0.000000,-4.791099,-6.453133,-149.698990,-27.664816,-32.676739,-27.561640,-7.431649,23.895227,-11.556044,-1.417154,-20.884941,-1.987619,-19.280210,-21.214533,-12.566768,-4.629562,-2.157938,-3.897702,24.806250,-14.721011,-3.731213,-5.996737,-5.046231,3.044756,17.110296,3.612616,1.711237,-0.455038,15.936137,38.569199,-12.412429,71.560577,8064.000000,0.000000,4.000000,,,,0.000000,4.000000,4.000000,4.000000,4.000000,4.000000,4.000000,4.000000,4.000000,4.000000,4.000000,4.000000,4.000000,4.000000,4.000000,4.000000,4.000000,4.000000,4.000000,4.000000,4.000000,4.000000,4.000000,4.000000,4.000000,4.000000,4.000000,4.000000,4.000000,4.000000,4.000000,4.000000,4.000000,100.000000
1615771865.138549,111.000000,0.000000,-9.914514,-6.959500,-156.728775,-31.226894,-41.362011,-32.149464,-15.629346,20.794409,-17.185514,-3.467019,-10.607646,-3.524093,-20.286572,-27.859985,-18.195227,-17.445446,-6.771164,-13.124574,19.653238,-27.526802,-15.009533,-16.759972,-10.682210,-3.624956,7.862417,-7.673048,-0.341756,-3.018686,10.791996,39.043449,-19.066683,60.719784,8064.000000,0.000000,4.000000,,,,0.000000,4.000000,4.000000,4.000000,4.000000,4.000000,4.000000,4.000000,4.000000,4.000000,4.000000,4.000000,4.000000,4.000000,4.000000,4.000000,4.000000,4.000000,4.000000,4.000000,4.000000,4.000000,4.000000,4.000000,4.000000,4.000000,4.000000,4.000000,4.000000,4.000000,4.000000,4.000000,4.000000,100.000000
1615771865.146199,112.000000,0.000000,-9.391778,-5.926899,-158.110504,-31.708488,-41.833469,-33.142956,-14.075255,21.286434,-17.681149,0.126191,0.685013,-1.982107,-8.471413,-14.498793,-11.510365,-4.094666,-5.225932,-9.008885,22.197687,-22.371071,-12.943242,-8.538083,-6.568964,-12.339279,14.008401,-4.075632,1.197047,-1.477206,11.294024,37.978767,-19.560436,59.633423,8064.000000,0.000000,4.000000,,,,0.000000,4.000000,4.000000,4.000000,4.000000,4.000000,4.000000,4.000000,4.000000,4.000000,4.000000,4.000000,4.000000,4.000000,4.000000,4.000000,4.000000,4.000000,4.000000,4.000000,4.000000,4.000000,4.000000,4.000000,4.000000,4.000000,4.000000,4.000000,4.000000,4.000000,4.000000,4.000000,4.000000,100.000000
1615771865.153948,113.000000,0.000000,-4.254181,-0.792767,-152.824188,-30.651138,-36.663433,-32.084171,-5.856051,24.342072,-12.022442,4.741450,-0.854134,3.148080,-0.257813,-0.125319,1.321658,21.037634,2.984422,8.436021,29.354977,-3.374341,-3.186709,7.880712,0.617092,-8.737197,26.302084,5.159213,6.324055,1.088374,11.795550,38.453609,-15.951133,61.625072,8064.000000,0.000000,4.000000,,,,0.000000,4.000000,4.000000,4.000000,4.000000,4.000000,4.000000,4.000000,4.000000,4.000000,4.000000,4.000000,4.000000,4.000000,4.000000,4.000000,4.000000,4.000000,4.000000,4.000000,4.000000,4.000000,4.000000,4.000000,4.000000,4.000000,4.000000,4.000000,4.000000,4.000000,4.000000,4.000000,4.000000,100.000000
1615771865.161597,114.000000,0.000000,-2.711465,1.259308,-151.645721,-31.133308,-36.626770,-32.564907,-5.850195,25.343370,-9.959137,4.223888,-3.930203,4.170573,-2.308837,-3.202117,4.910080,23.067877,7.596823,13.042970,31.889725,0.731597,-1.645061,7.872831,1.129296,0.502310,27.301424,2.589952,8.369013,1.600106,10.758114,38.927975,-15.422361,60.024986,8064.000000,0.000000,4.000000,,,,0.000000,4.000000,4.000000,4.000000,4.000000,4.000000,4.000000,4.000000,4.000000,4.000000,4.000000,4.000000,4.000000,4.000000,4.000000,4.000000,4.000000,4.000000,4.000000,4.000000,4.000000,4.000000,4.000000,4.000000,4.000000,4.000000,4.000000,4.000000,4.000000,4.000000,4.000000,4.000000,4.000000,100.000000
1615771865.169347,115.000000,0.000000,-3.734395,-0.793234,-154.570999,-31.102175,-37.102962,-32.532341,-9.434089,24.805206,-11.487639,4.219664,3.766035,0.576659,-1.793708,-9.352761,3.366709,15.352502,7.076405,6.363260,30.319374,-6.448621,-1.643416,4.788035,0.102525,2.040269,23.171558,-2.540844,7.847824,-0.452776,11.260177,35.812122,-15.919760,59.964962,8064.000000,0.000000,4.000000,,,,0.000000,4.000000,4.000000,4.000000,4.000000,4.000000,4.000000,4.000000,4.000000,4.000000,4.000000,4.000000,4.000000,4.000000,4.000000,4.000000,4.000000,4.000000,4.000000,4.000000,4.000000,4.000000,4.000000,4.000000,4.000000,4.000000,4.000000,4.000000,4.000000,4.000000,4.000000,4.000000,4.000000,100.000000
1615771865.176996,116.000000,0.000000,-3.217840,-3.356543,-154.929260,-31.071074,-33.476116,-32.499809,-8.911835,24.780401,-10.963331,3.702624,9.403295,1.088902,1.797830,-7.804946,4.388983,16.362791,7.069329,5.844076,31.314695,-6.954993,2.460792,8.372991,1.128064,0.499767,24.174028,-0.999841,7.839975,-1.990785,11.761737,31.673748,-15.391019,60.930637,8064.000000,0.000000,4.000000,,,,0.000000,4.000000,4.000000,4.000000,4.000000,4.000000,4.000000,4.000000,4.000000,4.000000,4.000000,4.000000,4.000000,4.000000,4.000000,4.000000,4.000000,4.000000,4.000000,4.000000,4.000000,4.000000,4.000000,4.000000,4.000000,4.000000,4.000000,4.000000,4.000000,4.000000,4.000000,4.000000,4.000000,100.000000
1615771865.184745,117.000000,0.000000,-2.701802,-4.891648,-154.261505,-31.040001,-32.929817,-32.467312,-8.390102,25.268440,-10.439548,4.211741,1.701584,2.113455,0.770391,-6.771501,4.897414,18.910530,6.036618,6.863873,31.283381,-5.409577,0.407049,6.313335,1.126936,2.037729,24.662674,-0.998841,8.344956,-1.988794,11.237155,30.616432,-14.862807,60.869705,8064.000000,0.000000,4.000000,,,,0.000000,4.000000,4.000000,4.000000,4.000000,4.000000,4.000000,4.000000,4.000000,4.000000,4.000000,4.000000,4.000000,4.000000,4.000000,4.000000,4.000000,4.000000,4.000000,4.000000,4.000000,4.000000,4.000000,4.000000,4.000000,4.000000,4.000000,4.000000,4.000000,4.000000,4.000000,4.000000,4.000000,100.000000
1615771865.192395,118.000000,0.000000,-3.211920,-6.425218,-154.107239,-31.008961,-32.896889,-32.434841,-8.894532,24.730352,-10.941929,8.822914,-9.069348,-2.504044,-1.794482,-8.816011,3.866876,16.327517,3.466479,6.344189,30.226456,-5.916987,-1.131819,6.307022,0.612988,2.035691,24.638012,-0.997843,7.823791,-1.986805,12.764380,30.585815,-15.360765,60.808838,8064.000000,0.000000,4.000000,,,,0.000000,4.000000,4.000000,4.000000,4.000000,4.000000,4.000000,4.000000,4.000000,4.000000,4.000000,4.000000,4.000000,4.000000,4.000000,4.000000,4.000000,4.000000,4.000000,4.000000,4.000000,4.000000,4.000000,4.000000,4.000000,4.000000,4.000000,4.000000,4.000000,4.000000,4.000000,4.000000,4.000000,100.000000
1615771865.200144,119.000000,0.000000,-3.208709,-6.418793,-154.465958,-30.977953,-29.274248,-32.402409,-8.885638,24.705622,-10.930986,8.814092,-5.470536,-0.963078,-2.305508,-9.320016,3.350188,15.285548,2.950192,6.850665,31.221870,-3.346968,3.484697,10.403279,0.612375,1.520835,26.664656,5.669822,7.815967,-1.984818,14.802896,31.068050,-15.345405,62.799309,8064.000000,0.000000,4.000000,,,,0.000000,4.000000,4.000000,4.000000,4.000000,4.000000,4.000000,4.000000,4.000000,4.000000,4.000000,4.000000,4.000000,4.000000,4.000000,4.000000,4.000000,4.000000,4.000000,4.000000,4.000000,4.000000,4.000000,4.000000,4.000000,4.000000,4.000000,4.000000,4.000000,4.000000,4.000000,4.000000,4.000000,100.000000
1615771865.207794,120.000000,0.000000,-3.205500,-6.412374,-153.798676,-30.946974,-30.783436,-32.370007,-8.876752,24.680916,-10.920055,2.138611,8.381088,7.755834,-1.277562,-8.285055,4.372479,17.321545,3.460063,1.715609,30.165007,-3.343621,2.968392,5.777491,0.611763,3.570596,26.125170,10.792357,7.808151,-1.982833,15.813735,31.549803,-15.330059,64.787796,8064.000000,0.000000,4.000000,,,,0.000000,4.000000,4.000000,4.000000,4.000000,4.000000,4.000000,4.000000,4.000000,4.000000,4.000000,4.000000,4.000000,4.000000,4.000000,4.000000,4.000000,4.000000,4.000000,4.000000,4.000000,4.000000,4.000000,4.000000,4.000000,4.000000,4.000000,4.000000,4.000000,4.000000,4.000000,4.000000,4.000000,100.000000
1615771865.215543,121.000000,0.000000,-3.202294,-6.405962,-153.644867,-30.916027,-36.393677,-32.850456,-8.867875,24.656235,-10.909136,-0.940451,3.244502,4.671155,-1.789105,-8.276770,3.342466,13.201659,3.456603,-8.029696,25.006638,-7.955662,-4.726884,-1.920594,0.611151,5.618308,23.534943,10.268744,7.800343,-1.980851,15.285101,24.851587,-15.314729,64.723007,8064.000000,0.000000,4.000000,,,,0.000000,4.000000,4.000000,4.000000,4.000000,4.000000,4.000000,4.000000,4.000000,4.000000,4.000000,4.000000,4.000000,4.000000,4.000000,4.000000,4.000000,4.000000,4.000000,4.000000,4.000000,4.000000,4.000000,4.000000,4.000000,4.000000,4.000000,4.000000,4.000000,4.000000,4.000000,4.000000,4.000000,100.000000
1615771865.223192,122.000000,0.000000,-3.199092,-6.399556,-153.491226,-30.885111,-33.793182,-31.279144,-8.859008,24.631578,-10.898227,0.598951,-13.168999,-2.513003,-1.787315,-12.371057,-1.789082,2.932048,3.453146,-9.560128,22.930349,-8.460526,-6.773439,-3.969955,0.610540,5.612689,23.511408,9.232835,7.792542,-1.978870,15.269815,19.698530,-15.299415,64.145462,8064.000000,0.000000,4.000000,,,,0.000000,4.000000,4.000000,4.000000,4.000000,4.000000,4.000000,4.000000,4.000000,4.000000,4.000000,4.000000,4.000000,4.000000,4.000000,4.000000,4.000000,4.000000,4.000000,4.000000,4.000000,4.000000,4.000000,4.000000,4.000000,4.000000,4.000000,4.000000,4.000000,4.000000,4.000000,4.000000,4.000000,100.000000
1615771865.231041,123.000000,0.000000,-3.195893,-6.393156,-153.337738,-30.854227,-26.067081,-26.632481,-8.850148,24.606947,-10.887328,0.085532,-5.463522,2.617715,-1.785528,-12.358685,-3.325754,1.390654,3.449693,-3.396722,25.984341,-6.400784,-4.715384,-2.427524,0.609930,5.094256,24.000717,10.249243,7.784750,-1.976891,15.767366,27.371140,-15.284115,64.594139,8064.000000,0.000000,4.000000,,,,0.000000,4.000000,4.000000,4.000000,4.000000,4.000000,4.000000,4.000000,4.000000,4.000000,4.000000,4.000000,4.000000,4.000000,4.000000,4.000000,4.000000,4.000000,4.000000,4.000000,4.000000,4.000000,4.000000,4.000000,4.000000,4.000000,4.000000,4.000000,4.000000,4.000000,4.000000,4.000000,4.000000,100.000000
1615771865.238791,124.000000,0.000000,-3.192697,-6.386763,-153.184402,-30.823372,-24.502552,-24.041746,-8.841298,24.582340,-10.876441,-0.427374,7.362454,10.307405,-1.783743,-3.628378,-0.758326,10.620032,3.446243,-0.316402,27.496819,-5.881563,-5.223489,5.267211,0.609320,5.601983,23.976717,10.238994,7.776965,-1.974914,15.238778,31.446333,-14.756010,64.529541,8064.000000,0.000000,4.000000,,,,0.000000,4.000000,4.000000,4.000000,4.000000,4.000000,4.000000,4.000000,4.000000,4.000000,4.000000,4.000000,4.000000,4.000000,4.000000,4.000000,4.000000,4.000000,4.000000,4.000000,4.000000,4.000000,4.000000,4.000000,4.000000,4.000000,4.000000,4.000000,4.000000,4.000000,4.000000,4.000000,4.000000,100.000000
1615771865.246640,125.000000,0.000000,-3.189504,-6.380376,-153.544037,-30.792549,-26.016512,-25.043344,-8.319636,25.070580,-10.865564,-0.426947,-5.465421,7.732995,-1.269138,-2.086289,0.780894,13.173515,3.955617,-2.367368,26.443680,-6.388502,-5.731086,11.928611,0.608710,5.083560,23.952740,8.690293,7.769188,-1.972939,15.223539,22.696938,-15.254075,62.413731,8064.000000,0.000000,4.000000,,,,0.000000,4.000000,4.000000,4.000000,4.000000,4.000000,4.000000,4.000000,4.000000,4.000000,4.000000,4.000000,4.000000,4.000000,4.000000,4.000000,4.000000,4.000000,4.000000,4.000000,4.000000,4.000000,4.000000,4.000000,4.000000,4.000000,4.000000,4.000000,4.000000,4.000000,4.000000,4.000000,4.000000,100.000000
1615771865.254389,126.000000,0.000000,-3.186315,-6.373996,-153.390488,-30.761757,-24.964853,-25.018301,-9.849778,22.994226,-10.854699,0.086300,-12.639442,4.135518,-2.293510,-11.827792,-0.245528,7.519316,1.900380,-4.416282,26.930058,-6.382113,-5.212534,2.685913,-1.443180,3.027194,23.928787,6.630321,7.761419,-1.970966,15.208316,19.084497,-14.726000,60.300034,8064.000000,0.000000,4.000000,,,,0.000000,4.000000,4.000000,4.000000,4.000000,4.000000,4.000000,4.000000,4.000000,4.000000,4.000000,4.000000,4.000000,4.000000,4.000000,4.000000,4.000000,4.000000,4.000000,4.000000,4.000000,4.000000,4.000000,4.000000,4.000000,4.000000,4.000000,4.000000,4.000000,4.000000,4.000000,4.000000,4.000000,100.000000
1615771865.262239,127.000000,0.000000,-3.183129,-6.367622,-152.724274,-30.730995,-24.939890,-24.480463,-8.301467,20.919950,-10.843844,0.599035,5.321915,4.644203,-1.778396,-17.456989,0.267538,4.947694,-0.152803,-4.924686,26.903128,-8.427013,-5.207322,-6.034722,-2.980199,1.485706,24.417679,5.598049,7.753657,-1.968995,15.705928,25.732079,-14.711274,60.239735,8064.000000,0.000000,4.000000,,,,0.000000,4.000000,4.000000,4.000000,4.000000,4.000000,4.000000,4.000000,4.000000,4.000000,4.000000,4.000000,4.000000,4.000000,4.000000,4.000000,4.000000,4.000000,4.000000,4.000000,4.000000,4.000000,4.000000,4.000000,4.000000,4.000000,4.000000,4.000000,4.000000,4.000000,4.000000,4.000000,4.000000,100.000000
1615771865.269988,0.000000,0.000000,-3.179945,-6.361254,-153.084366,-30.700264,-24.914949,-24.968803,-5.216243,20.899031,-10.833000,-0.940026,13.008901,5.152380,-1.263797,-14.875430,0.267271,5.968388,-0.665470,-4.919762,26.876225,-10.469869,-5.202115,-0.900482,-2.977219,1.484220,24.393261,6.105272,7.745904,-1.967026,13.638940,27.757629,-16.235023,60.179497,0.000000,192.000000,4.000000,,,,0.000000,4.000000,4.000000,4.000000,4.000000,4.000000,4.000000,4.000000,4.000000,4.000000,4.000000,4.000000,4.000000,4.000000,4.000000,4.000000,4.000000,4.000000,4.000000,4.000000,4.000000,4.000000,4.000000,4.000000,4.000000,4.000000,4.000000,4.000000,4.000000,4.000000,4.000000,4.000000,4.000000,100.000000
1615771865.277837,1.000000,0.000000,-3.176765,-6.354893,-152.418472,-30.669563,-25.402855,-24.943834,-8.800770,20.878130,-10.822167,0.086555,2.226661,5.147227,-4.339457,-14.860555,0.267003,5.449598,-0.151985,-4.914842,26.849348,-9.946578,-5.196913,1.151701,-2.974241,1.482736,21.804766,6.099166,7.738158,-1.965059,11.574019,23.114487,-18.782892,60.119316,0.000000,181.000000,4.000000,,,,0.000000,4.000000,4.000000,4.000000,4.000000,4.000000,4.000000,4.000000,4.000000,4.000000,4.000000,4.000000,4.000000,4.000000,4.000000,4.000000,4.000000,4.000000,4.000000,4.000000,4.000000,4.000000,4.000000,4.000000,4.000000,4.000000,4.000000,4.000000,4.000000,4.000000,4.000000,4.000000,4.000000,100.000000
1615771865.285586,2.000000,0.000000,-3.173589,-6.348538,-150.214767,-30.638893,-25.377453,-24.918890,-12.381713,20.857252,-11.324166,7.778776,-5.980694,4.116439,-8.437681,-16.384155,0.266736,4.931328,-0.151833,-5.422748,26.822498,-10.449452,-5.191716,-2.952015,-2.971267,1.481253,20.244499,6.093067,7.730420,-1.963094,11.049624,23.091372,-18.764109,60.059196,0.000000,197.000000,4.000000,,,,0.000000,4.000000,4.000000,4.000000,4.000000,4.000000,4.000000,4.000000,4.000000,4.000000,4.000000,4.000000,4.000000,4.000000,4.000000,4.000000,4.000000,4.000000,4.000000,4.000000,4.000000,4.000000,4.000000,4.000000,4.000000,4.000000,4.000000,4.000000,4.000000,4.000000,4.000000,4.000000,4.000000,100.000000
1615771865.293436,3.000000,0.000000,-3.170415,-6.342189,-148.526093,-30.608255,-25.352074,-24.893970,-8.266767,20.836395,-11.312841,10.847920,-4.436252,4.625143,-7.403603,-14.829310,0.266470,4.926397,-0.664501,-2.853222,26.795677,-9.926182,-5.186524,-1.410602,-2.968296,1.479772,20.737074,6.086974,7.722689,-1.961131,11.551395,26.658024,-18.232525,59.999138,0.000000,183.000000,4.000000,,,,0.000000,4.000000,4.000000,4.000000,4.000000,4.000000,4.000000,4.000000,4.000000,4.000000,4.000000,4.000000,4.000000,4.000000,4.000000,4.000000,4.000000,4.000000,4.000000,4.000000,4.000000,4.000000,4.000000,4.000000,4.000000,4.000000,4.000000,4.000000,4.000000,4.000000,4.000000,4.000000,4.000000,100.000000
1615771865.301185,4.000000,0.000000,-3.167245,-6.335847,-148.377563,-30.577646,-25.326723,-24.869078,-5.181577,20.815559,-9.763067,7.760149,5.311774,5.133338,-2.780814,-12.250379,0.266203,5.434291,-0.151016,-0.799087,26.768881,-9.916256,-5.181337,2.180552,-2.965328,0.452651,16.100952,3.516785,7.714967,-1.959170,11.027023,27.657007,-20.778395,59.939137,0.000000,190.000000,4.000000,,,,0.000000,4.000000,4.000000,4.000000,4.000000,4.000000,4.000000,4.000000,4.000000,4.000000,4.000000,4.000000,4.000000,4.000000,4.000000,4.000000,4.000000,4.000000,4.000000,4.000000,4.000000,4.000000,4.000000,4.000000,4.000000,4.000000,4.000000,4.000000,4.000000,4.000000,4.000000,4.000000,4.000000,100.000000
1615771865.309034,5.000000,0.000000,-3.164078,-6.329512,-148.742004,-30.547070,-25.301395,-24.844208,-8.253319,20.794743,-11.804586,9.290851,3.768001,2.564102,-1.752393,-11.212487,0.265937,5.428857,-0.150865,-1.311108,26.229292,-10.931981,-5.688977,-0.385731,-2.962362,-2.111904,9.418185,1.974806,7.707252,-1.957211,11.015997,27.116529,-22.808899,59.879200,0.000000,185.000000,4.000000,,,,0.000000,4.000000,4.000000,4.000000,4.000000,4.000000,4.000000,4.000000,4.000000,4.000000,4.000000,4.000000,4.000000,4.000000,4.000000,4.000000,4.000000,4.000000,4.000000,4.000000,4.000000,4.000000,4.000000,4.000000,4.000000,4.000000,4.000000,4.000000,4.000000,4.000000,4.000000,4.000000,4.000000,100.000000
1615771865.316783,6.000000,0.000000,-3.160913,-6.323182,-148.080444,-30.516521,-25.276094,-24.819365,-9.783526,20.773949,-10.767140,13.896945,-12.133203,-2.566667,-2.263461,-12.226915,0.265671,4.910607,-0.663535,-1.822618,26.203062,-8.869766,-5.683288,-2.949447,-2.959400,-2.622613,9.921588,2.485652,7.699544,-1.955253,12.543442,27.089413,-20.221987,59.819321,0.000000,211.000000,4.000000,,,,0.000000,4.000000,4.000000,4.000000,4.000000,4.000000,4.000000,4.000000,4.000000,4.000000,4.000000,4.000000,4.000000,4.000000,4.000000,4.000000,4.000000,4.000000,4.000000,4.000000,4.000000,4.000000,4.000000,4.000000,4.000000,4.000000,4.000000,4.000000,4.000000,4.000000,4.000000,4.000000,4.000000,100.000000
1615771865.324633,7.000000,0.000000,-3.157753,-6.316859,-147.932358,-30.486006,-25.250818,-24.794544,-8.748102,20.753174,-1.012784,11.831766,-6.480044,-3.076921,-2.261197,-11.189048,0.265405,7.982620,-0.150051,0.230487,28.228142,-3.732692,-4.651963,-2.433677,-2.956440,-2.107170,12.988589,2.483166,7.691845,-1.953298,15.095001,27.062325,-18.150482,59.759499,0.000000,217.000000,4.000000,,,,0.000000,4.000000,4.000000,4.000000,4.000000,4.000000,4.000000,4.000000,4.000000,4.000000,4.000000,4.000000,4.000000,4.000000,4.000000,4.000000,4.000000,4.000000,4.000000,4.000000,4.000000,4.000000,4.000000,4.000000,4.000000,4.000000,4.000000,4.000000,4.000000,4.000000,4.000000,4.000000,4.000000,100.000000
1615771865.332382,8.000000,0.000000,-3.154595,-6.310542,-148.297256,-30.455519,-25.225567,-24.769751,-8.739354,20.732422,4.629255,10.794292,8.911052,-2.561023,-1.233295,-8.613756,0.265140,14.128484,2.414202,2.281538,29.738375,-2.190497,-3.108850,-2.431244,-2.953484,-2.105063,12.975600,2.480683,7.684153,-1.951345,15.592727,27.035261,-18.645153,59.186920,0.000000,200.000000,4.000000,,,,0.000000,4.000000,4.000000,4.000000,4.000000,4.000000,4.000000,4.000000,4.000000,4.000000,4.000000,4.000000,4.000000,4.000000,4.000000,4.000000,4.000000,4.000000,4.000000,4.000000,4.000000,4.000000,4.000000,4.000000,4.000000,4.000000,4.000000,4.000000,4.000000,4.000000,4.000000,4.000000,4.000000,100.000000
1615771865.340031,9.000000,0.000000,-3.151440,-6.304232,-148.148956,-30.425064,-25.200342,-24.744980,-8.730615,20.711689,-1.529221,13.347601,-1.867090,-3.584103,-1.744882,-8.092321,0.264875,16.678457,3.950249,2.792077,30.221457,-2.701128,-1.054459,-2.428813,-2.950531,-2.102957,14.501086,2.478203,7.676469,-1.949394,15.064314,27.008226,-19.139328,59.640553,0.000000,223.000000,4.000000,,,,0.000000,4.000000,4.000000,4.000000,4.000000,4.000000,4.000000,4.000000,4.000000,4.000000,4.000000,4.000000,4.000000,4.000000,4.000000,4.000000,4.000000,4.000000,4.000000,4.000000,4.000000,4.000000,4.000000,4.000000,4.000000,4.000000,4.000000,4.000000,4.000000,4.000000,4.000000,4.000000,4.000000,100.000000
1615771865.347781,10.000000,0.000000,-3.148289,-6.297927,-147.487991,-30.394638,-25.175142,-24.720236,-9.234705,20.690977,-4.091794,14.872715,-5.454967,-2.554878,-2.255958,-9.109870,0.264610,16.148958,3.433478,2.276465,32.755337,-0.134324,3.561980,-0.375102,-2.947580,-2.100855,17.050688,2.475724,7.668792,-1.947444,15.049250,26.981218,-18.607368,59.580914,0.000000,201.000000,4.000000,,,,0.000000,4.000000,4.000000,4.000000,4.000000,4.000000,4.000000,4.000000,4.000000,4.000000,4.000000,4.000000,4.000000,4.000000,4.000000,4.000000,4.000000,4.000000,4.000000,4.000000,4.000000,4.000000,4.000000,4.000000,4.000000,4.000000,4.000000,4.000000,4.000000,4.000000,4.000000,4.000000,4.000000,100.000000
1615771865.355430,11.000000,0.000000,-3.145140,-6.291629,-147.853317,-30.364244,-25.149967,-25.208336,-8.199829,20.670286,0.014862,14.857842,16.088949,0.524600,1.336042,-7.562299,0.264345,16.132811,3.430045,2.274188,36.825146,1.917093,8.686624,1.676555,-2.944632,-2.098754,16.520817,2.473249,7.661124,-1.945497,15.034200,26.954237,-18.075941,59.008511,0.000000,202.000000,4.000000,,,,0.000000,4.000000,4.000000,4.000000,4.000000,4.000000,4.000000,4.000000,4.000000,4.000000,4.000000,4.000000,4.000000,4.000000,4.000000,4.000000,4.000000,4.000000,4.000000,4.000000,4.000000,4.000000,4.000000,4.000000,4.000000,4.000000,4.000000,4.000000,4.000000,4.000000,4.000000,4.000000,4.000000,100.000000
1615771865.363179,12.000000,0.000000,-3.141995,-6.798158,-148.218292,-30.333879,-25.637636,-24.670307,-6.140347,20.649616,1.040488,12.791702,15.560040,-1.014386,6.462911,-7.554737,0.264081,16.629498,3.426615,2.271914,38.326782,1.402355,8.165116,1.162058,-3.454508,-2.096655,16.504295,2.470775,7.653462,-1.943551,15.019166,26.927282,-19.083506,59.462322,0.000000,195.000000,4.000000,,,,0.000000,4.000000,4.000000,4.000000,4.000000,4.000000,4.000000,4.000000,4.000000,4.000000,4.000000,4.000000,4.000000,4.000000,4.000000,4.000000,4.000000,4.000000,4.000000,4.000000,4.000000,4.000000,4.000000,4.000000,4.000000,4.000000,4.000000,4.000000,4.000000,4.000000,4.000000,4.000000,4.000000,100.000000
1615771865.370829,13.000000,0.000000,-3.651674,-5.252898,-146.531601,-30.303547,-25.099178,-22.594355,-4.595745,20.628967,-0.499014,11.753270,-3.942699,-1.526192,4.917986,-10.111284,0.263817,16.612867,3.423188,2.269642,37.262814,1.400953,5.592848,1.160896,-2.425413,-2.094558,16.487791,2.468305,7.645809,-1.941608,15.004147,26.900356,-18.551601,64.018250,0.000000,190.000000,4.000000,,,,0.000000,4.000000,4.000000,4.000000,4.000000,4.000000,4.000000,4.000000,4.000000,4.000000,4.000000,4.000000,4.000000,4.000000,4.000000,4.000000,4.000000,4.000000,4.000000,4.000000,4.000000,4.000000,4.000000,4.000000,4.000000,4.000000,4.000000,4.000000,4.000000,4.000000,4.000000,4.000000,4.000000,100.000000
1615771865.378578,14.000000,0.000000,-3.135202,-3.196363,-143.820969,-29.760422,-24.561258,-20.520477,-5.103970,20.608337,0.014305,15.331260,-4.964398,3.603539,1.836145,-2.408865,0.263553,15.570614,3.932586,2.267373,36.712730,0.886731,5.587255,1.672556,0.141115,-2.092464,16.471304,2.465836,7.638163,-1.939666,14.989142,26.873455,-16.481768,67.543968,0.000000,205.000000,4.000000,,,,0.000000,4.000000,4.000000,4.000000,4.000000,4.000000,4.000000,4.000000,4.000000,4.000000,4.000000,4.000000,4.000000,4.000000,4.000000,4.000000,4.000000,4.000000,4.000000,4.000000,4.000000,4.000000,4.000000,4.000000,4.000000,4.000000,4.000000,4.000000,4.000000,4.000000,4.000000,4.000000,4.000000,100.000000
1615771865.386228,15.000000,0.000000,-1.080784,-4.218808,-143.677155,-31.269123,-26.587980,-20.499958,-5.098866,20.587729,0.014291,17.880032,0.681592,4.112756,3.885591,8.875595,-0.249531,15.042223,5.467114,1.752285,37.188839,1.398665,5.581668,0.645242,0.653795,-2.090371,15.942012,2.463371,7.630525,-1.937726,14.974154,26.846582,-14.414004,66.963608,0.000000,189.000000,4.000000,,,,0.000000,4.000000,4.000000,4.000000,4.000000,4.000000,4.000000,4.000000,4.000000,4.000000,4.000000,4.000000,4.000000,4.000000,4.000000,4.000000,4.000000,4.000000,4.000000,4.000000,4.000000,4.000000,4.000000,4.000000,4.000000,4.000000,4.000000,4.000000,4.000000,4.000000,4.000000,4.000000,4.000000,100.000000
1615771865.393977,16.000000,0.000000,0.971578,-5.753051,-143.533478,-30.212214,-23.484468,-20.992277,-5.093767,20.054321,0.014277,17.862152,1.193731,1.544541,6.445808,6.815437,0.263539,16.565641,7.000109,1.750532,37.151649,1.397266,4.037625,0.644597,0.140320,-2.088281,15.413250,2.460907,7.622895,-2.448609,14.959179,26.819735,-14.912411,66.383820,0.000000,186.000000,4.000000,,,,0.000000,4.000000,4.000000,4.000000,4.000000,4.000000,4.000000,4.000000,4.000000,4.000000,4.000000,4.000000,4.000000,4.000000,4.000000,4.000000,4.000000,4.000000,4.000000,4.000000,4.000000,4.000000,4.000000,4.000000,4.000000,4.000000,4.000000,4.000000,4.000000,4.000000,4.000000,4.000000,4.000000,100.000000
1615771865.401626,17.000000,0.000000,0.457786,-3.696016,-138.774551,-24.540976,-15.255857,-20.458466,-5.088674,20.547087,0.014263,18.357109,2.730999,1.030175,3.875260,-1.396507,-0.762366,12.446512,7.505929,2.261602,34.037575,-3.732336,2.495126,1.669594,1.165821,-2.599013,16.936298,2.458446,7.615272,-1.933340,14.944220,27.305737,-14.384678,67.343079,0.000000,206.000000,4.000000,,,,0.000000,4.000000,4.000000,4.000000,4.000000,4.000000,4.000000,4.000000,4.000000,4.000000,4.000000,4.000000,4.000000,4.000000,4.000000,4.000000,4.000000,4.000000,4.000000,4.000000,4.000000,4.000000,4.000000,4.000000,4.000000,4.000000,4.000000,4.000000,4.000000,4.000000,4.000000,4.000000,4.000000,100.000000
1615771865.409376,18.000000,0.000000,0.457329,-2.153858,-134.533218,-21.439510,-13.702139,-20.438007,-4.570764,20.526541,0.014248,17.313112,-1.374296,-2.560598,1.307282,-1.395110,-2.812885,4.228938,4.934321,1.233700,32.977898,-8.856809,0.441349,-0.896179,-0.886627,-2.083594,17.432182,2.455988,7.607656,-1.418586,14.929276,25.739969,-14.370293,65.224457,0.000000,201.000000,4.000000,,,,0.000000,4.000000,4.000000,4.000000,4.000000,4.000000,4.000000,4.000000,4.000000,4.000000,4.000000,4.000000,4.000000,4.000000,4.000000,4.000000,4.000000,4.000000,4.000000,4.000000,4.000000,4.000000,4.000000,4.000000,4.000000,4.000000,4.000000,4.000000,4.000000,4.000000,4.000000,4.000000,4.000000,100.000000
1615771865.417025,19.000000,0.000000,0.456871,-2.664525,-135.937149,-23.982174,-17.791000,-21.443211,-6.104655,19.993193,-0.498586,14.731696,-0.860101,-5.122140,1.818795,-0.368074,-1.271611,8.327273,2.878104,1.745286,38.073124,-7.822311,3.005010,-3.459385,-1.398561,-2.081510,14.337827,2.453532,7.087228,-2.955629,14.914347,23.150126,-15.381563,59.518204,0.000000,187.000000,4.000000,,,,0.000000,4.000000,4.000000,4.000000,4.000000,4.000000,4.000000,4.000000,4.000000,4.000000,4.000000,4.000000,4.000000,4.000000,4.000000,4.000000,4.000000,4.000000,4.000000,4.000000,4.000000,4.000000,4.000000,4.000000,4.000000,4.000000,4.000000,4.000000,4.000000,4.000000,4.000000,4.000000,4.000000,100.000000
1615771865.424774,20.000000,0.000000,0.456414,-2.661860,-134.775574,-19.342808,-12.645004,-19.883305,-4.560089,21.511662,1.553194,21.896452,10.422810,0.524008,4.381079,-0.367706,4.370687,26.780483,9.029073,8.923028,43.676075,-5.763207,13.258415,6.287664,3.218222,-2.592249,20.477335,2.963899,8.618603,-0.388571,14.899432,23.126976,-13.827721,55.356121,0.000000,208.000000,4.000000,,,,0.000000,4.000000,4.000000,4.000000,4.000000,4.000000,4.000000,4.000000,4.000000,4.000000,4.000000,4.000000,4.000000,4.000000,4.000000,4.000000,4.000000,4.000000,4.000000,4.000000,4.000000,4.000000,4.000000,4.000000,4.000000,4.000000,4.000000,4.000000,4.000000,4.000000,4.000000,4.000000,4.000000,100.000000
1615771865.432424,21.000000,0.000000,0.455958,-2.659199,-128.999771,-12.143977,-5.965693,-16.786499,1.085497,25.592714,3.602923,29.054043,13.489310,5.651689,5.915160,6.299328,9.494521,37.010113,17.737991,17.632053,45.170864,-6.270264,21.450285,18.589069,8.856030,1.000087,33.277370,2.960935,11.174087,4.740023,14.884533,23.616669,-11.762610,55.300766,0.000000,185.000000,4.000000,,,,0.000000,4.000000,4.000000,4.000000,4.000000,4.000000,4.000000,4.000000,4.000000,4.000000,4.000000,4.000000,4.000000,4.000000,4.000000,4.000000,4.000000,4.000000,4.000000,4.000000,4.000000,4.000000,4.000000,4.000000,4.000000,4.000000,4.000000,4.000000,4.000000,4.000000,4.000000,4.000000,4.000000,100.000000
1615771865.440273,22.000000,0.000000,0.455502,-2.656539,-127.845123,-16.747217,-10.575111,-18.308174,0.571591,28.131224,4.112141,24.922424,12.963000,4.620396,5.396424,10.908414,11.023488,29.793617,15.668972,18.127243,44.612869,-6.776814,19.890373,16.519197,9.359994,5.614471,30.679991,0.906692,11.675733,3.196821,14.869648,23.080233,-14.827771,54.732647,0.000000,181.000000,4.000000,,,,0.000000,4.000000,4.000000,4.000000,4.000000,4.000000,4.000000,4.000000,4.000000,4.000000,4.000000,4.000000,4.000000,4.000000,4.000000,4.000000,4.000000,4.000000,4.000000,4.000000,4.000000,4.000000,4.000000,4.000000,4.000000,4.000000,4.000000,4.000000,4.000000,4.000000,4.000000,4.000000,4.000000,100.000000
1615771865.448022,23.000000,0.000000,0.455047,-2.653883,-132.845490,-26.474060,-14.667101,-23.930891,-7.121288,28.103092,4.108028,18.230835,20.129524,4.615776,5.391027,9.359044,11.525285,23.609978,10.525098,16.057833,43.542618,-5.744397,15.767919,11.374474,4.735250,3.557575,18.341618,-0.632676,11.151237,-1.934581,14.854778,23.057152,-18.915508,51.600990,0.000000,204.000000,4.000000,,,,0.000000,4.000000,4.000000,4.000000,4.000000,4.000000,4.000000,4.000000,4.000000,4.000000,4.000000,4.000000,4.000000,4.000000,4.000000,4.000000,4.000000,4.000000,4.000000,4.000000,4.000000,4.000000,4.000000,4.000000,4.000000,4.000000,4.000000,4.000000,4.000000,4.000000,4.000000,4.000000,4.000000,100.000000
1615771865.455872,24.000000,0.000000,0.454592,-2.651229,-135.789566,-26.960407,-13.113972,-24.932602,-9.678269,27.562168,2.565459,15.648501,12.929908,5.636801,6.411277,7.298403,12.539401,25.124828,11.027393,15.528955,40.422150,-6.251472,14.213690,13.414381,1.653591,-1.574188,15.759174,-1.144864,11.140085,-2.445467,15.352744,23.546915,-18.896591,46.934006,0.000000,166.000000,4.000000,,,,0.000000,4.000000,4.000000,4.000000,4.000000,4.000000,4.000000,4.000000,4.000000,4.000000,4.000000,4.000000,4.000000,4.000000,4.000000,4.000000,4.000000,4.000000,4.000000,4.000000,4.000000,4.000000,4.000000,4.000000,4.000000,4.000000,4.000000,4.000000,4.000000,4.000000,4.000000,4.000000,4.000000,100.000000
1615771865.463621,25.000000,0.000000,0.454137,-2.135757,-134.628128,-25.907806,-18.741884,-23.369207,-8.130130,25.483324,0.511611,12.043109,-10.159945,3.579882,3.327943,-1.426844,8.937118,20.997139,9.990726,9.872400,35.766346,-5.732400,9.071271,11.349685,1.139117,-2.085434,16.769056,-2.682181,11.641766,-1.417380,13.798930,20.959267,-17.852055,43.810146,0.000000,201.000000,4.000000,,,,0.000000,4.000000,4.000000,4.000000,4.000000,4.000000,4.000000,4.000000,4.000000,4.000000,4.000000,4.000000,4.000000,4.000000,4.000000,4.000000,4.000000,4.000000,4.000000,4.000000,4.000000,4.000000,4.000000,4.000000,4.000000,4.000000,4.000000,4.000000,4.000000,4.000000,4.000000,4.000000,4.000000,100.000000
1615771865.471470,26.000000,0.000000,0.453683,-2.646442,-134.493500,-26.394718,-24.364168,-25.909941,-8.634820,23.406559,-0.514541,9.466964,-17.842093,0.499379,-3.854872,-11.681828,-0.302589,8.668450,4.339709,-0.906703,28.038271,-6.752309,1.369892,4.158848,-1.426124,-1.570528,13.675364,-5.243601,10.604483,-1.928783,11.221028,16.835743,-18.347023,43.766338,0.000000,221.000000,4.000000,,,,0.000000,4.000000,4.000000,4.000000,4.000000,4.000000,4.000000,4.000000,4.000000,4.000000,4.000000,4.000000,4.000000,4.000000,4.000000,4.000000,4.000000,4.000000,4.000000,4.000000,4.000000,4.000000,4.000000,4.000000,4.000000,4.000000,4.000000,4.000000,4.000000,4.000000,4.000000,4.000000,4.000000,100.000000
1615771865.479219,27.000000,0.000000,0.453229,-4.182257,-135.384659,-23.804220,-18.185957,-23.832748,-9.139006,23.383152,-0.514027,9.970317,-9.619123,0.498880,-6.927940,-11.157326,-4.404850,3.018756,2.284087,-2.957078,22.369207,-9.309659,-4.785325,0.052125,-6.552903,-4.133060,11.097586,-4.725537,6.491314,-2.439675,10.696987,15.793265,-18.841496,46.286674,0.000000,195.000000,4.000000,,,,0.000000,4.000000,4.000000,4.000000,4.000000,4.000000,4.000000,4.000000,4.000000,4.000000,4.000000,4.000000,4.000000,4.000000,4.000000,4.000000,4.000000,4.000000,4.000000,4.000000,4.000000,4.000000,4.000000,4.000000,4.000000,4.000000,4.000000,4.000000,4.000000,4.000000,4.000000,4.000000,4.000000,100.000000
1615771865.487069,28.000000,0.000000,-0.060045,-6.229357,-135.249268,-22.754776,-12.526746,-17.142248,-8.617046,23.872591,-0.513513,9.447526,-3.455657,2.036842,-4.869730,-8.582066,-3.887625,5.067019,1.768982,-1.928480,22.346838,-9.300350,-7.344642,-1.999210,-7.571991,-5.154568,4.419822,-5.233632,3.920721,-1.924415,11.199111,15.777472,-18.822655,48.291668,0.000000,170.000000,4.000000,,,,0.000000,4.000000,4.000000,4.000000,4.000000,4.000000,4.000000,4.000000,4.000000,4.000000,4.000000,4.000000,4.000000,4.000000,4.000000,4.000000,4.000000,4.000000,4.000000,4.000000,4.000000,4.000000,4.000000,4.000000,4.000000,4.000000,4.000000,4.000000,4.000000,4.000000,4.000000,4.000000,4.000000,100.000000
1615771865.494818,29.000000,0.000000,0.452836,-6.223127,-134.088379,-25.296124,-15.591142,-21.227671,-9.121250,23.848717,-0.512999,7.386797,-6.016304,-1.554938,-8.967424,-14.727329,-11.063225,-2.117535,-1.822530,-12.182961,18.221926,-12.880793,-9.901400,-5.586954,-6.538778,-6.687875,-2.251265,-7.792501,3.916800,-1.922490,11.187911,13.710413,-17.778191,46.704914,0.000000,209.000000,4.000000,,,,0.000000,4.000000,4.000000,4.000000,4.000000,4.000000,4.000000,4.000000,4.000000,4.000000,4.000000,4.000000,4.000000,4.000000,4.000000,4.000000,4.000000,4.000000,4.000000,4.000000,4.000000,4.000000,4.000000,4.000000,4.000000,4.000000,4.000000,4.000000,4.000000,4.000000,4.000000,4.000000,4.000000,100.000000
1615771865.502667,30.000000,0.000000,0.452383,-6.216904,-134.467102,-26.809288,-18.139654,-28.385931,-8.599308,22.799229,-3.076589,5.328128,-8.061570,-7.194409,-14.086662,-16.763884,-16.693188,-8.269263,-5.923272,-16.786163,15.639602,-19.534578,-10.917139,-8.658290,-7.557881,-11.296572,-2.761834,-9.323170,3.400063,-1.920568,11.176723,11.645420,-19.811695,44.606930,0.000000,202.000000,4.000000,,,,0.000000,4.000000,4.000000,4.000000,4.000000,4.000000,4.000000,4.000000,4.000000,4.000000,4.000000,4.000000,4.000000,4.000000,4.000000,4.000000,4.000000,4.000000,4.000000,4.000000,4.000000,4.000000,4.000000,4.000000,4.000000,4.000000,4.000000,4.000000,4.000000,4.000000,4.000000,4.000000,4.000000,100.000000
1615771865.510417,31.000000,0.000000,-0.060890,-6.210687,-134.845459,-26.782480,-17.608694,-20.152416,-6.539427,25.853352,-3.073512,6.861261,5.279825,-2.059009,-2.790524,-2.900967,-2.830340,10.200544,-4.378887,2.717802,28.957296,-11.309916,-4.752376,-5.059888,-4.473400,-11.798096,0.317851,-8.288206,3.909483,-2.431468,11.165546,11.633775,-21.330345,43.536682,0.000000,184.000000,4.000000,,,,0.000000,4.000000,4.000000,4.000000,4.000000,4.000000,4.000000,4.000000,4.000000,4.000000,4.000000,4.000000,4.000000,4.000000,4.000000,4.000000,4.000000,4.000000,4.000000,4.000000,4.000000,4.000000,4.000000,4.000000,4.000000,4.000000,4.000000,4.000000,4.000000,4.000000,4.000000,4.000000,4.000000,100.000000
1615771865.518266,32.000000,0.000000,2.503274,-6.204477,-132.146515,-24.191595,-14.514161,-9.363033,-4.481605,32.494164,6.160331,13.008246,25.274546,7.173819,14.648164,12.486549,15.634029,34.292908,2.292159,21.176622,44.825775,8.188573,7.560069,3.663121,2.710561,-6.658093,7.497020,-5.715815,6.469676,-1.403395,11.154381,12.134962,-16.180809,44.518784,8064.000000,0.000000,4.000000,,,,0.000000,4.000000,4.000000,4.000000,4.000000,4.000000,4.000000,4.000000,4.000000,4.000000,4.000000,4.000000,4.000000,4.000000,4.000000,4.000000,4.000000,4.000000,4.000000,4.000000,4.000000,4.000000,4.000000,4.000000,4.000000,4.000000,4.000000,4.000000,4.000000,4.000000,4.000000,4.000000,4.000000,100.000000
1615771865.526015,33.000000,0.000000,6.603334,-6.198272,-127.911804,-18.013557,-7.832981,-8.840850,-2.425842,35.538593,15.384939,18.123444,30.890297,6.653825,15.146336,10.935601,15.105575,29.643230,6.905251,15.514421,43.755306,13.821410,10.116611,9.300483,5.271953,-5.112973,17.233112,-4.684458,6.463206,0.649290,11.143227,12.122827,-10.523602,46.525547,8064.000000,0.000000,4.000000,,,,0.000000,4.000000,4.000000,4.000000,4.000000,4.000000,4.000000,4.000000,4.000000,4.000000,4.000000,4.000000,4.000000,4.000000,4.000000,4.000000,4.000000,4.000000,4.000000,4.000000,4.000000,4.000000,4.000000,4.000000,4.000000,4.000000,4.000000,4.000000,4.000000,4.000000,4.000000,4.000000,4.000000,100.000000
1615771865.533864,34.000000,0.000000,8.135193,-6.704895,-126.245430,-14.918620,-7.825148,-10.370470,-1.397775,34.477413,15.882375,17.079679,19.577354,4.595889,6.413241,-1.383026,3.808418,11.152048,7.411166,5.242496,33.967964,6.115281,1.388546,7.239901,4.241040,-5.620681,21.318443,-4.679774,3.892641,2.187102,11.132084,12.110704,-11.025900,47.504662,8064.000000,0.000000,4.000000,,,,0.000000,4.000000,4.000000,4.000000,4.000000,4.000000,4.000000,4.000000,4.000000,4.000000,4.000000,4.000000,4.000000,4.000000,4.000000,4.000000,4.000000,4.000000,4.000000,4.000000,4.000000,4.000000,4.000000,4.000000,4.000000,4.000000,4.000000,4.000000,4.000000,4.000000,4.000000,4.000000,4.000000,100.000000
1615771865.541614,35.000000,0.000000,7.614237,-6.185369,-126.632004,-15.416522,-12.945528,-9.847280,-1.396377,34.955757,9.712646,19.113880,-0.955043,6.129755,5.381186,-8.561131,-0.297955,7.551153,6.890934,6.262894,32.908352,4.057884,-0.151304,4.155737,4.236799,-5.615060,20.271484,-4.675094,3.375927,1.672095,11.120952,12.098594,-11.014874,47.969978,8064.000000,0.000000,4.000000,,,,0.000000,4.000000,4.000000,4.000000,4.000000,4.000000,4.000000,4.000000,4.000000,4.000000,4.000000,4.000000,4.000000,4.000000,4.000000,4.000000,4.000000,4.000000,4.000000,4.000000,4.000000,4.000000,4.000000,4.000000,4.000000,4.000000,4.000000,4.000000,4.000000,4.000000,4.000000,4.000000,4.000000,100.000000
1615771865.549463,36.000000,0.000000,7.606623,-6.179183,-127.531013,-15.401106,-12.419762,-11.888714,-1.394981,35.433620,4.574729,24.735792,-12.236139,0.482599,5.888626,-8.039749,0.727984,12.671806,7.396864,7.282272,34.413906,6.617929,7.028334,5.177223,4.745382,-5.609445,20.251213,-4.670419,4.398192,1.670423,11.109831,12.086494,-10.491038,47.409187,8064.000000,0.000000,4.000000,,,,0.000000,4.000000,4.000000,4.000000,4.000000,4.000000,4.000000,4.000000,4.000000,4.000000,4.000000,4.000000,4.000000,4.000000,4.000000,4.000000,4.000000,4.000000,4.000000,4.000000,4.000000,4.000000,4.000000,4.000000,4.000000,4.000000,4.000000,4.000000,4.000000,4.000000,4.000000,4.000000,4.000000,100.000000
1615771865.557212,37.000000,0.000000,8.111836,-6.685825,-124.839378,-15.385704,-7.279137,-13.928107,-1.393586,34.372547,3.031693,23.172596,4.186353,-5.158909,5.369917,-8.031709,0.214436,12.659135,6.876647,5.223708,27.712826,4.560029,3.944383,5.684866,4.227817,-3.552553,17.666859,-4.665749,3.880974,1.668752,11.098721,12.074409,-12.019009,46.848961,8064.000000,0.000000,4.000000,,,,0.000000,4.000000,4.000000,4.000000,4.000000,4.000000,4.000000,4.000000,4.000000,4.000000,4.000000,4.000000,4.000000,4.000000,4.000000,4.000000,4.000000,4.000000,4.000000,4.000000,4.000000,4.000000,4.000000,4.000000,4.000000,4.000000,4.000000,4.000000,4.000000,4.000000,4.000000,4.000000,4.000000,100.000000
1615771865.565061,38.000000,0.000000,7.590904,-4.115036,-118.047874,-15.370318,-6.246216,-13.401359,-1.392192,35.363815,3.541481,21.610962,15.977038,-1.564007,5.877367,-9.049318,-0.811420,10.082374,7.382591,4.705664,20.505627,-0.059916,-6.315972,2.089437,4.223589,-2.523360,14.059449,-4.661083,3.877093,1.667083,11.087622,12.062334,-7.391605,49.879032,8064.000000,0.000000,4.000000,,,,0.000000,4.000000,4.000000,4.000000,4.000000,4.000000,4.000000,4.000000,4.000000,4.000000,4.000000,4.000000,4.000000,4.000000,4.000000,4.000000,4.000000,4.000000,4.000000,4.000000,4.000000,4.000000,4.000000,4.000000,4.000000,4.000000,4.000000,4.000000,4.000000,4.000000,4.000000,4.000000,4.000000,100.000000
1615771865.572811,39.000000,0.000000,7.583313,0.504463,-113.827263,-11.252384,-7.265611,-13.387958,0.147662,33.277168,3.537940,24.153454,0.063626,-0.536802,0.743285,-8.527449,-0.297788,8.021008,5.836747,5.726599,21.510761,-3.136779,-9.899400,-2.015216,4.219365,-7.649042,11.994107,-4.656422,3.873216,1.665416,11.076534,12.050271,1.846555,54.444538,8064.000000,0.000000,4.000000,,,,0.000000,4.000000,4.000000,4.000000,4.000000,4.000000,4.000000,4.000000,4.000000,4.000000,4.000000,4.000000,4.000000,4.000000,4.000000,4.000000,4.000000,4.000000,4.000000,4.000000,4.000000,4.000000,4.000000,4.000000,4.000000,4.000000,4.000000,4.000000,4.000000,4.000000,4.000000,4.000000,4.000000,100.000000
1615771865.580460,40.000000,0.000000,7.575730,1.529600,-115.251900,-8.164208,-7.258346,-13.887390,2.198796,26.577227,2.508761,20.026735,-3.013361,-5.151649,-5.411304,-8.006101,0.215330,8.012988,3.266807,5.208052,20.976431,-4.672104,-9.376679,-3.551662,4.215146,-9.692675,11.469293,-4.651765,3.869343,1.663751,11.065458,12.038221,2.870350,55.415733,8064.000000,0.000000,4.000000,,,,0.000000,4.000000,4.000000,4.000000,4.000000,4.000000,4.000000,4.000000,4.000000,4.000000,4.000000,4.000000,4.000000,4.000000,4.000000,4.000000,4.000000,4.000000,4.000000,4.000000,4.000000,4.000000,4.000000,4.000000,4.000000,4.000000,4.000000,4.000000,4.000000,4.000000,4.000000,4.000000,4.000000,100.000000
1615771865.588209,41.000000,0.000000,7.568154,1.015249,-115.136642,-8.156045,-6.738267,-13.360682,2.196597,22.448086,3.531893,17.442606,12.374268,-4.633677,1.260773,-8.510915,0.727935,9.543436,3.776361,1.613101,21.468275,-5.180253,-8.854483,-2.522470,4.210931,-6.606059,13.509106,-4.647113,3.865473,1.662087,11.054393,12.026183,-3.286366,54.334679,8064.000000,0.000000,4.000000,,,,0.000000,4.000000,4.000000,4.000000,4.000000,4.000000,4.000000,4.000000,4.000000,4.000000,4.000000,4.000000,4.000000,4.000000,4.000000,4.000000,4.000000,4.000000,4.000000,4.000000,4.000000,4.000000,4.000000,4.000000,4.000000,4.000000,4.000000,4.000000,4.000000,4.000000,4.000000,4.000000,4.000000,100.000000
1615771865.595859,42.000000,0.000000,7.560586,1.014234,-114.508690,-6.096607,-1.090503,-13.347322,2.194401,23.451279,5.579643,27.681574,13.900355,-2.064941,8.951820,-6.451122,-0.298433,6.969790,6.336687,1.611488,31.703217,-3.636611,-3.204602,-0.468665,4.206720,-6.086632,18.623802,-4.642467,3.861608,1.660425,11.043338,12.014156,-4.308721,54.793163,8064.000000,0.000000,4.000000,,,,0.000000,4.000000,4.000000,4.000000,4.000000,4.000000,4.000000,4.000000,4.000000,4.000000,4.000000,4.000000,4.000000,4.000000,4.000000,4.000000,4.000000,4.000000,4.000000,4.000000,4.000000,4.000000,4.000000,4.000000,4.000000,4.000000,4.000000,4.000000,4.000000,4.000000,4.000000,4.000000,4.000000,100.000000
1615771865.603608,43.000000,0.000000,7.553026,1.526041,-114.906998,-3.526407,4.551613,-13.333974,2.192206,23.940647,7.112525,31.243635,17.476198,-2.575697,8.942868,-4.393389,0.214685,9.526923,6.843171,6.738081,40.389462,-2.607333,2.439628,1.070265,4.202513,-3.516443,20.143639,-4.637824,3.857746,1.658765,11.032294,12.002143,-2.765951,54.738373,8064.000000,0.000000,4.000000,,,,0.000000,4.000000,4.000000,4.000000,4.000000,4.000000,4.000000,4.000000,4.000000,4.000000,4.000000,4.000000,4.000000,4.000000,4.000000,4.000000,4.000000,4.000000,4.000000,4.000000,4.000000,4.000000,4.000000,4.000000,4.000000,4.000000,4.000000,4.000000,4.000000,4.000000,4.000000,4.000000,4.000000,100.000000
1615771865.611258,44.000000,0.000000,7.545473,1.011694,-114.792091,-4.548522,4.547061,-11.269358,2.190014,22.891066,7.618233,26.597008,26.689491,-2.573121,9.959567,-3.876175,5.855496,20.799448,6.836328,9.808266,40.861893,-1.579085,2.437188,1.069195,4.198310,3.666560,19.610676,-4.633186,3.853889,1.657106,11.021262,11.990141,-3.788826,54.170811,8064.000000,0.000000,4.000000,,,,0.000000,4.000000,4.000000,4.000000,4.000000,4.000000,4.000000,4.000000,4.000000,4.000000,4.000000,4.000000,4.000000,4.000000,4.000000,4.000000,4.000000,4.000000,4.000000,4.000000,4.000000,4.000000,4.000000,4.000000,4.000000,4.000000,4.000000,4.000000,4.000000,4.000000,4.000000,4.000000,4.000000,100.000000
1615771865.619007,45.000000,0.000000,7.537927,1.010682,-114.677299,-4.031153,4.542514,-9.206806,2.187824,23.380995,10.174718,37.852463,5.637161,-3.083368,8.411145,-3.872299,9.439384,22.317110,6.829492,9.798458,40.821030,1.499418,2.434751,1.068126,4.194112,6.739817,20.103886,-4.628553,3.850034,1.655449,11.010242,11.978150,-3.785037,54.629463,8064.000000,0.000000,4.000000,,,,0.000000,4.000000,4.000000,4.000000,4.000000,4.000000,4.000000,4.000000,4.000000,4.000000,4.000000,4.000000,4.000000,4.000000,4.000000,4.000000,4.000000,4.000000,4.000000,4.000000,4.000000,4.000000,4.000000,4.000000,4.000000,4.000000,4.000000,4.000000,4.000000,4.000000,4.000000,4.000000,4.000000,100.000000
1615771865.626656,46.000000,0.000000,7.530389,1.009672,-114.562622,-4.027122,3.512331,-9.197599,2.185636,23.870434,10.164543,41.404354,-14.368477,-5.644388,-2.879317,-5.406888,2.250458,11.012741,5.284201,9.275839,37.703285,0.985098,3.457958,1.067058,4.189918,5.707436,18.545319,-4.623924,3.846184,1.653793,10.999231,11.966172,-3.781252,54.062012,8064.000000,0.000000,4.000000,,,,0.000000,4.000000,4.000000,4.000000,4.000000,4.000000,4.000000,4.000000,4.000000,4.000000,4.000000,4.000000,4.000000,4.000000,4.000000,4.000000,4.000000,4.000000,4.000000,4.000000,4.000000,4.000000,4.000000,4.000000,4.000000,4.000000,4.000000,4.000000,4.000000,4.000000,4.000000,4.000000,4.000000,100.000000
1615771865.634406,47.000000,0.000000,7.522859,1.008662,-114.448059,-10.176941,-2.645027,-11.239684,2.183451,22.820923,6.051814,15.721923,0.004866,-6.664384,-4.927720,-7.452763,-3.392818,7.411985,3.227634,9.779384,27.921993,-2.092811,-1.673706,1.065990,4.185728,5.701729,13.911389,-4.619300,3.842338,1.652140,10.988232,11.954206,-5.315932,51.443848,8064.000000,0.000000,4.000000,,,,0.000000,4.000000,4.000000,4.000000,4.000000,4.000000,4.000000,4.000000,4.000000,4.000000,4.000000,4.000000,4.000000,4.000000,4.000000,4.000000,4.000000,4.000000,4.000000,4.000000,4.000000,4.000000,4.000000,4.000000,4.000000,4.000000,4.000000,4.000000,4.000000,4.000000,4.000000,4.000000,4.000000,100.000000
1615771865.642055,48.000000,0.000000,7.515336,1.007653,-114.333611,-15.294969,-6.744946,-13.279727,2.181267,18.695538,3.481660,6.988252,6.158708,-6.144899,4.307977,-7.958131,1.738780,13.045599,3.224406,9.769604,24.817148,-2.603538,-5.261775,1.064924,4.694363,4.670386,11.846196,-4.614681,3.838496,1.650487,10.977243,11.942252,-7.361898,49.853943,8064.000000,0.000000,4.000000,,,,0.000000,4.000000,4.000000,4.000000,4.000000,4.000000,4.000000,4.000000,4.000000,4.000000,4.000000,4.000000,4.000000,4.000000,4.000000,4.000000,4.000000,4.000000,4.000000,4.000000,4.000000,4.000000,4.000000,4.000000,4.000000,4.000000,4.000000,4.000000,4.000000,4.000000,4.000000,4.000000,4.000000,100.000000
1615771865.649804,49.000000,0.000000,7.507821,1.006646,-113.706459,-14.254033,-5.199740,-13.266447,2.179086,15.599919,3.478178,26.981264,-6.155143,-6.138754,2.765208,-8.975814,3.275503,10.981271,3.221182,9.247014,25.817972,-3.626576,-4.743693,1.063860,4.689669,2.614434,12.347171,-4.610066,3.834657,1.648837,10.966267,11.930309,-7.354537,50.316910,8064.000000,0.000000,4.000000,,,,0.000000,4.000000,4.000000,4.000000,4.000000,4.000000,4.000000,4.000000,4.000000,4.000000,4.000000,4.000000,4.000000,4.000000,4.000000,4.000000,4.000000,4.000000,4.000000,4.000000,4.000000,4.000000,4.000000,4.000000,4.000000,4.000000,4.000000,4.000000,4.000000,4.000000,4.000000,4.000000,4.000000,100.000000
1615771865.657454,50.000000,0.000000,7.500313,1.005639,-114.105576,-11.162856,-3.143258,-13.253181,2.176907,16.097139,3.474700,26.954283,-2.559245,-6.132616,-5.955506,-12.043761,-5.445722,2.252341,3.217961,5.135203,18.612667,-8.238334,-9.354334,1.062796,2.633697,1.586178,12.334824,-4.605456,3.830823,1.647188,10.955300,11.918379,-7.347182,50.266590,8064.000000,0.000000,4.000000,,,,0.000000,4.000000,4.000000,4.000000,4.000000,4.000000,4.000000,4.000000,4.000000,4.000000,4.000000,4.000000,4.000000,4.000000,4.000000,4.000000,4.000000,4.000000,4.000000,4.000000,4.000000,4.000000,4.000000,4.000000,4.000000,4.000000,4.000000,4.000000,4.000000,4.000000,4.000000,4.000000,4.000000,100.000000
1615771865.665203,51.000000,0.000000,7.492813,1.004633,-113.991470,-9.613232,-2.114474,-13.239927,2.174730,16.081043,2.958405,10.517072,2.058699,-6.126483,-2.872627,-12.544538,-9.030020,-0.826834,3.214743,-0.510958,14.491490,-10.794198,-12.934723,0.548912,0.066961,-2.005152,11.809668,-4.600851,3.826992,1.645541,10.944345,11.906461,-6.827014,50.216324,8064.000000,0.000000,4.000000,,,,0.000000,4.000000,4.000000,4.000000,4.000000,4.000000,4.000000,4.000000,4.000000,4.000000,4.000000,4.000000,4.000000,4.000000,4.000000,4.000000,4.000000,4.000000,4.000000,4.000000,4.000000,4.000000,4.000000,4.000000,4.000000,4.000000,4.000000,4.000000,4.000000,4.000000,4.000000,4.000000,4.000000,100.000000
1615771865.672853,52.000000,0.000000,7.485320,1.003629,-112.851837,-8.065157,-0.061077,-13.226687,2.172555,15.552141,3.468267,12.557837,1.543820,-6.633177,2.771271,-11.506352,-4.918426,1.225274,2.185887,-1.023268,22.169308,-9.757763,-7.793583,1.061184,0.579714,-6.105711,12.310678,-4.083429,3.823165,2.156716,10.933400,11.894554,-6.820188,50.166107,8064.000000,0.000000,4.000000,,,,0.000000,4.000000,4.000000,4.000000,4.000000,4.000000,4.000000,4.000000,4.000000,4.000000,4.000000,4.000000,4.000000,4.000000,4.000000,4.000000,4.000000,4.000000,4.000000,4.000000,4.000000,4.000000,4.000000,4.000000,4.000000,4.000000,4.000000,4.000000,4.000000,4.000000,4.000000,4.000000,4.000000,100.000000
1615771865.680602,53.000000,0.000000,5.426552,1.002625,-115.815903,-7.544271,0.964625,-13.213461,2.170383,16.049410,3.464799,18.699125,11.285866,-6.113723,1.742858,-12.007667,-3.375046,1.224049,0.132419,2.054679,23.685598,-10.260825,-5.734508,1.060123,-0.446507,-6.099605,12.298368,-6.130628,3.819342,1.128918,10.922467,11.882660,-10.403111,50.115944,8064.000000,0.000000,4.000000,,,,0.000000,4.000000,4.000000,4.000000,4.000000,4.000000,4.000000,4.000000,4.000000,4.000000,4.000000,4.000000,4.000000,4.000000,4.000000,4.000000,4.000000,4.000000,4.000000,4.000000,4.000000,4.000000,4.000000,4.000000,4.000000,4.000000,4.000000,4.000000,4.000000,4.000000,4.000000,4.000000,4.000000,100.000000
1615771865.688251,54.000000,0.000000,1.831382,1.001622,-120.315475,-8.049547,0.450839,-13.200247,2.168212,16.033360,3.461334,16.116323,5.120734,-6.107610,1.228295,-11.995659,-3.371670,-0.828457,-0.893354,1.026983,20.584990,-10.250565,-8.805696,0.546242,-5.574265,-6.093505,12.286070,-8.175779,3.815522,-0.923493,10.911545,11.870777,-14.495272,50.065826,8064.000000,0.000000,4.000000,,,,0.000000,4.000000,4.000000,4.000000,4.000000,4.000000,4.000000,4.000000,4.000000,4.000000,4.000000,4.000000,4.000000,4.000000,4.000000,4.000000,4.000000,4.000000,4.000000,4.000000,4.000000,4.000000,4.000000,4.000000,4.000000,4.000000,4.000000,4.000000,4.000000,4.000000,4.000000,4.000000,4.000000,100.000000
1615771865.696101,55.000000,0.000000,-0.221731,1.000621,-118.656700,-8.554318,0.450389,-13.187047,2.166044,16.017326,3.457872,21.741234,-11.294643,-7.639964,1.227067,-6.855458,-1.829837,2.762115,-0.379640,1.538777,31.846457,-6.137750,-2.130224,1.571337,-7.107152,-6.087412,12.273784,-8.680425,3.811707,-2.461031,10.900633,11.858907,-14.993597,50.015762,8064.000000,0.000000,4.000000,,,,0.000000,4.000000,4.000000,4.000000,4.000000,4.000000,4.000000,4.000000,4.000000,4.000000,4.000000,4.000000,4.000000,4.000000,4.000000,4.000000,4.000000,4.000000,4.000000,4.000000,4.000000,4.000000,4.000000,4.000000,4.000000,4.000000,4.000000,4.000000,4.000000,4.000000,4.000000,4.000000,4.000000,100.000000
1615771865.703850,56.000000,0.000000,0.291311,0.999620,-117.512398,-7.520123,0.449938,-13.173860,2.163878,16.001310,3.454415,23.770773,5.126908,-4.555400,1.738660,-0.694756,0.736095,11.990122,-0.379261,6.152623,44.635124,-2.541869,4.538573,4.133868,-4.023122,0.072522,12.261510,-8.158923,3.807895,-1.945749,10.889732,11.847048,-14.465783,49.965744,8064.000000,0.000000,4.000000,,,,0.000000,4.000000,4.000000,4.000000,4.000000,4.000000,4.000000,4.000000,4.000000,4.000000,4.000000,4.000000,4.000000,4.000000,4.000000,4.000000,4.000000,4.000000,4.000000,4.000000,4.000000,4.000000,4.000000,4.000000,4.000000,4.000000,4.000000,4.000000,4.000000,4.000000,4.000000,4.000000,4.000000,100.000000
1615771865.711699,57.000000,0.000000,0.291020,0.998621,-122.010269,-8.025423,0.962309,-13.160686,2.161714,15.985308,3.450960,11.439311,25.634602,1.090180,4.813845,0.331579,3.299462,17.106337,-0.378881,3.069547,42.539207,-1.513686,-1.619812,5.155375,-2.993458,6.226295,12.249249,-8.150764,3.804087,-1.943804,10.878842,12.348021,-14.451317,49.915779,8064.000000,0.000000,4.000000,,,,0.000000,4.000000,4.000000,4.000000,4.000000,4.000000,4.000000,4.000000,4.000000,4.000000,4.000000,4.000000,4.000000,4.000000,4.000000,4.000000,4.000000,4.000000,4.000000,4.000000,4.000000,4.000000,4.000000,4.000000,4.000000,4.000000,4.000000,4.000000,4.000000,4.000000,4.000000,4.000000,4.000000,100.000000
1615771865.719448,58.000000,0.000000,0.290729,0.484801,-123.426727,-13.658423,0.961347,-13.147526,2.159552,15.969323,2.934689,7.838128,9.198710,0.576270,5.321851,-2.232855,3.296162,14.525128,-0.891323,-1.036087,35.830002,-3.050634,-6.746397,4.637400,-2.990465,4.681608,12.237000,-8.142613,3.800283,-1.941860,10.867964,11.822852,-14.436866,50.378685,8064.000000,0.000000,4.000000,,,,0.000000,4.000000,4.000000,4.000000,4.000000,4.000000,4.000000,4.000000,4.000000,4.000000,4.000000,4.000000,4.000000,4.000000,4.000000,4.000000,4.000000,4.000000,4.000000,4.000000,4.000000,4.000000,4.000000,4.000000,4.000000,4.000000,4.000000,4.000000,4.000000,4.000000,4.000000,4.000000,4.000000,100.000000
1615771865.727298,59.000000,0.000000,0.290438,0.997137,-124.841759,-13.131945,-0.578076,-13.134377,2.157393,15.953354,3.444575,18.086700,1.497204,2.114155,4.803709,0.333481,5.344148,17.587526,0.135209,8.195719,35.794170,-2.534762,-4.688369,6.684044,0.602269,1.600003,12.224762,-8.134471,3.796483,-1.939918,10.857096,11.811029,-14.422429,49.815483,8064.000000,0.000000,4.000000,,,,0.000000,4.000000,4.000000,4.000000,4.000000,4.000000,4.000000,4.000000,4.000000,4.000000,4.000000,4.000000,4.000000,4.000000,4.000000,4.000000,4.000000,4.000000,4.000000,4.000000,4.000000,4.000000,4.000000,4.000000,4.000000,4.000000,4.000000,4.000000,4.000000,4.000000,4.000000,4.000000,4.000000,100.000000
1615771865.735047,60.000000,0.000000,0.290147,3.047422,-124.716919,-3.888043,3.525066,-13.121243,2.155236,15.937400,5.492412,22.171177,24.572630,10.317169,13.004033,8.025455,13.543932,24.236605,2.186356,18.443933,36.784016,2.595977,-4.683681,9.241463,5.729872,1.598403,11.699717,-8.126337,3.792686,-1.937978,10.846238,13.337680,-14.408007,49.252850,8064.000000,0.000000,4.000000,,,,0.000000,4.000000,4.000000,4.000000,4.000000,4.000000,4.000000,4.000000,4.000000,4.000000,4.000000,4.000000,4.000000,4.000000,4.000000,4.000000,4.000000,4.000000,4.000000,4.000000,4.000000,4.000000,4.000000,4.000000,4.000000,4.000000,4.000000,4.000000,4.000000,4.000000,4.000000,4.000000,4.000000,100.000000
1615771865.742896,61.000000,0.000000,0.289857,5.095657,-113.310150,0.731229,8.136926,-13.108122,2.153080,15.921463,7.538202,19.584904,28.650621,9.281211,16.580772,9.043071,12.504747,17.032881,3.209811,14.322925,34.695950,5.157484,-6.217458,8.206580,5.211322,2.109625,11.688017,-8.118210,3.788894,-1.936040,10.835392,14.862804,-14.393599,50.229237,8064.000000,0.000000,4.000000,,,,0.000000,4.000000,4.000000,4.000000,4.000000,4.000000,4.000000,4.000000,4.000000,4.000000,4.000000,4.000000,4.000000,4.000000,4.000000,4.000000,4.000000,4.000000,4.000000,4.000000,4.000000,4.000000,4.000000,4.000000,4.000000,4.000000,4.000000,4.000000,4.000000,4.000000,4.000000,4.000000,4.000000,100.000000
1615771865.750645,62.000000,0.000000,0.289567,4.577741,-109.607094,-2.859246,1.974942,-13.095014,2.150927,15.905541,7.017843,20.078138,4.006586,-3.548583,2.718038,3.393002,-1.866732,5.220977,3.206601,8.667577,32.097153,0.536942,-6.211241,5.634271,-1.460556,1.594695,12.189150,-9.648554,3.785105,-1.934104,10.824557,14.335120,-14.379205,48.640545,8064.000000,0.000000,4.000000,,,,0.000000,4.000000,4.000000,4.000000,4.000000,4.000000,4.000000,4.000000,4.000000,4.000000,4.000000,4.000000,4.000000,4.000000,4.000000,4.000000,4.000000,4.000000,4.000000,4.000000,4.000000,4.000000,4.000000,4.000000,4.000000,4.000000,4.000000,4.000000,4.000000,4.000000,4.000000,4.000000,4.000000,100.000000
1615771865.758495,63.000000,0.000000,0.289278,4.573163,-122.318001,-4.394848,-7.257802,-13.081919,2.148776,15.889636,6.498004,21.083702,-8.305113,-7.134778,-6.515449,1.851147,-9.044353,9.318320,3.203394,10.197371,32.577877,-2.027698,-4.666568,4.602996,-6.587301,1.080280,12.689781,-12.203008,3.781320,-1.932170,10.813732,11.243862,-14.364826,42.950882,8064.000000,0.000000,4.000000,,,,0.000000,4.000000,4.000000,4.000000,4.000000,4.000000,4.000000,4.000000,4.000000,4.000000,4.000000,4.000000,4.000000,4.000000,4.000000,4.000000,4.000000,4.000000,4.000000,4.000000,4.000000,4.000000,4.000000,4.000000,4.000000,4.000000,4.000000,4.000000,4.000000,4.000000,4.000000,4.000000,4.000000,100.000000
1615771865.766244,64.000000,0.000000,0.288989,5.081410,-122.708504,-3.364812,-6.737723,-13.068837,2.146627,17.925028,9.055609,23.626720,1.446782,-0.973797,0.670554,3.900578,-2.881462,19.052591,3.200191,9.674353,31.519657,0.025612,-4.661901,4.598393,-7.606354,1.592020,11.651450,-11.165164,3.264718,-1.930238,10.802918,10.206978,-13.837641,43.420750,0.000000,195.000000,4.000000,,,,0.000000,4.000000,4.000000,4.000000,4.000000,4.000000,4.000000,4.000000,4.000000,4.000000,4.000000,4.000000,4.000000,4.000000,4.000000,4.000000,4.000000,4.000000,4.000000,4.000000,4.000000,4.000000,4.000000,4.000000,4.000000,4.000000,4.000000,4.000000,4.000000,4.000000,4.000000,4.000000,4.000000,100.000000
1615771865.774093,65.000000,0.000000,0.288700,5.076329,-107.713997,-3.874268,-3.654063,-13.055768,2.144481,19.958385,10.585015,24.628735,12.214566,1.591279,6.310909,2.358216,0.198343,18.520718,3.709811,9.151857,31.488136,1.564048,-7.734163,5.106615,-6.060287,1.590428,15.742363,-9.102716,3.774274,-1.928308,10.792116,17.376257,-13.823803,51.069637,0.000000,192.000000,4.000000,,,,0.000000,4.000000,4.000000,4.000000,4.000000,4.000000,4.000000,4.000000,4.000000,4.000000,4.000000,4.000000,4.000000,4.000000,4.000000,4.000000,4.000000,4.000000,4.000000,4.000000,4.000000,4.000000,4.000000,4.000000,4.000000,4.000000,4.000000,4.000000,4.000000,4.000000,4.000000,4.000000,4.000000,100.000000
1615771865.781843,66.000000,0.000000,0.288411,4.558432,-103.503723,-4.383214,-3.137588,-13.042712,2.142336,19.938427,10.574430,22.552824,14.253633,0.564047,5.278957,2.868678,-0.827497,22.091942,5.757384,16.322193,39.148956,5.152227,-0.546941,7.152790,-2.464483,1.076017,26.495852,-8.067972,6.334602,-1.926379,10.781323,26.076830,-14.835620,54.095490,0.000000,177.000000,4.000000,,,,0.000000,4.000000,4.000000,4.000000,4.000000,4.000000,4.000000,4.000000,4.000000,4.000000,4.000000,4.000000,4.000000,4.000000,4.000000,4.000000,4.000000,4.000000,4.000000,4.000000,4.000000,4.000000,4.000000,4.000000,4.000000,4.000000,4.000000,4.000000,4.000000,4.000000,4.000000,4.000000,4.000000,100.000000
1615771865.789692,67.000000,0.000000,0.288122,5.066694,-106.989960,-3.866010,-3.134451,-13.029670,2.653014,19.405668,11.589497,26.120016,13.726560,0.563483,7.324960,6.455553,3.275895,30.274977,7.802908,21.434076,44.238014,9.249640,11.761298,8.684099,0.614905,2.100582,26.982176,-7.547084,7.866729,-1.924453,10.770542,25.025112,-14.307964,53.528576,0.000000,193.000000,4.000000,,,,0.000000,4.000000,4.000000,4.000000,4.000000,4.000000,4.000000,4.000000,4.000000,4.000000,4.000000,4.000000,4.000000,4.000000,4.000000,4.000000,4.000000,4.000000,4.000000,4.000000,4.000000,4.000000,4.000000,4.000000,4.000000,4.000000,4.000000,4.000000,4.000000,4.000000,4.000000,4.000000,4.000000,100.000000
1615771865.797441,68.000000,0.000000,0.287834,4.548807,-112.011177,-5.913426,-6.208239,-13.016640,2.137541,19.899082,8.500984,27.119535,15.251294,1.588560,9.881738,3.372175,7.375183,25.629318,6.769464,12.181872,33.937366,4.625005,6.621332,7.136953,1.127111,4.149764,12.596219,-9.077998,7.346042,-1.922528,10.759771,18.846241,-13.268015,51.936584,0.000000,197.000000,4.000000,,,,0.000000,4.000000,4.000000,4.000000,4.000000,4.000000,4.000000,4.000000,4.000000,4.000000,4.000000,4.000000,4.000000,4.000000,4.000000,4.000000,4.000000,4.000000,4.000000,4.000000,4.000000,4.000000,4.000000,4.000000,4.000000,4.000000,4.000000,4.000000,4.000000,4.000000,4.000000,4.000000,4.000000,100.000000
1615771865.805090,69.000000,0.000000,0.287547,-0.071127,-125.232498,-12.574180,-10.304595,-13.003624,0.084121,19.879183,-0.738286,15.810366,13.697581,1.074151,9.359035,-4.323505,5.316526,12.270355,2.660131,0.887639,23.134197,-3.584748,-5.692982,4.565714,0.613163,3.119973,2.840033,-10.607382,7.338696,-1.920606,10.749012,18.314575,-17.357311,45.730801,0.000000,161.000000,4.000000,,,,0.000000,4.000000,4.000000,4.000000,4.000000,4.000000,4.000000,4.000000,4.000000,4.000000,4.000000,4.000000,4.000000,4.000000,4.000000,4.000000,4.000000,4.000000,4.000000,4.000000,4.000000,4.000000,4.000000,4.000000,4.000000,4.000000,4.000000,4.000000,4.000000,4.000000,4.000000,4.000000,4.000000,100.000000
1615771865.812840,70.000000,0.000000,0.287259,-3.147979,-134.850861,-16.664169,-10.807111,-12.990620,-1.967245,19.346483,-4.840112,11.691991,2.914653,1.073077,8.836856,-4.319182,3.259927,10.719624,-0.419452,2.938034,25.162344,-1.017061,0.979378,5.073969,1.125370,1.578391,4.375655,-10.083954,7.331357,-1.918685,10.738263,19.834721,-21.955338,42.608147,0.000000,200.000000,4.000000,,,,0.000000,4.000000,4.000000,4.000000,4.000000,4.000000,4.000000,4.000000,4.000000,4.000000,4.000000,4.000000,4.000000,4.000000,4.000000,4.000000,4.000000,4.000000,4.000000,4.000000,4.000000,4.000000,4.000000,4.000000,4.000000,4.000000,4.000000,4.000000,4.000000,4.000000,4.000000,4.000000,4.000000,100.000000
1615771865.820489,71.000000,0.000000,0.286972,-3.144831,-131.639084,-14.596223,-10.283484,-12.977630,-1.452457,19.327137,-1.245528,21.423889,-6.319031,1.072004,8.315198,0.813343,4.282309,18.401211,-0.931854,11.140224,30.778208,9.240367,10.209167,7.632997,0.611424,1.063992,10.012305,-8.535409,7.324026,-1.916767,10.727525,18.789246,-16.292356,46.668102,0.000000,180.000000,4.000000,,,,0.000000,4.000000,4.000000,4.000000,4.000000,4.000000,4.000000,4.000000,4.000000,4.000000,4.000000,4.000000,4.000000,4.000000,4.000000,4.000000,4.000000,4.000000,4.000000,4.000000,4.000000,4.000000,4.000000,4.000000,4.000000,4.000000,4.000000,4.000000,4.000000,4.000000,4.000000,4.000000,4.000000,100.000000
1615771865.828239,72.000000,0.000000,0.286685,-2.628865,-128.943344,-12.017525,-10.273200,-12.964652,-1.451005,19.307810,0.294179,23.966568,-3.235789,1.070932,8.819704,1.325350,3.765206,18.382811,-0.418101,13.180366,31.773071,12.820869,5.070753,8.651006,0.610813,1.575749,14.104856,-8.014052,7.316702,-1.914850,10.716797,18.257635,-11.147860,50.211178,0.000000,189.000000,4.000000,,,,0.000000,4.000000,4.000000,4.000000,4.000000,4.000000,4.000000,4.000000,4.000000,4.000000,4.000000,4.000000,4.000000,4.000000,4.000000,4.000000,4.000000,4.000000,4.000000,4.000000,4.000000,4.000000,4.000000,4.000000,4.000000,4.000000,4.000000,4.000000,4.000000,4.000000,4.000000,4.000000,4.000000,100.000000
1615771865.835888,73.000000,0.000000,0.286398,-3.139057,-130.352859,-13.543968,-10.775747,-12.951687,-1.449554,19.288502,-0.731756,16.250294,3.946934,1.069861,9.836525,-1.752899,1.197338,5.031094,-0.930504,8.038980,31.228477,8.192664,0.450298,7.103893,0.610202,1.574173,15.629213,-8.518859,7.309385,-1.912935,10.193260,18.752199,-13.700814,49.135326,0.000000,218.000000,4.000000,,,,0.000000,4.000000,4.000000,4.000000,4.000000,4.000000,4.000000,4.000000,4.000000,4.000000,4.000000,4.000000,4.000000,4.000000,4.000000,4.000000,4.000000,4.000000,4.000000,4.000000,4.000000,4.000000,4.000000,4.000000,4.000000,4.000000,4.000000,4.000000,4.000000,4.000000,4.000000,4.000000,4.000000,100.000000
1615771865.843637,74.000000,0.000000,-0.226709,-2.623097,-129.709686,-14.556066,-10.252151,-12.938735,-1.448104,19.269215,-0.731025,15.721222,1.378885,1.068791,6.236945,-1.238325,-0.342321,-0.614963,-0.929573,5.466839,30.684427,4.081908,1.988309,5.045507,0.609592,1.572599,14.587943,-9.023161,7.302075,-1.911022,10.695888,18.733446,-13.174294,48.573372,0.000000,201.000000,4.000000,,,,0.000000,4.000000,4.000000,4.000000,4.000000,4.000000,4.000000,4.000000,4.000000,4.000000,4.000000,4.000000,4.000000,4.000000,4.000000,4.000000,4.000000,4.000000,4.000000,4.000000,4.000000,4.000000,4.000000,4.000000,4.000000,4.000000,4.000000,4.000000,4.000000,4.000000,4.000000,4.000000,4.000000,100.000000
1615771865.851287,75.000000,0.000000,0.799159,-2.620474,-128.554337,-12.490228,-10.241899,-12.925797,-1.446656,19.249945,-0.217473,17.756783,-1.699417,3.631825,5.205067,1.839836,0.170842,10.667704,0.096998,10.076756,33.217846,4.590646,1.986321,4.527641,0.096162,1.571026,17.137457,-5.937215,7.294774,-2.421932,13.249294,18.714712,-7.007273,49.550438,0.000000,179.000000,4.000000,,,,0.000000,4.000000,4.000000,4.000000,4.000000,4.000000,4.000000,4.000000,4.000000,4.000000,4.000000,4.000000,4.000000,4.000000,4.000000,4.000000,4.000000,4.000000,4.000000,4.000000,4.000000,4.000000,4.000000,4.000000,4.000000,4.000000,4.000000,4.000000,4.000000,4.000000,4.000000,4.000000,4.000000,100.000000
1615771865.859036,76.000000,0.000000,3.362462,-2.617854,-128.425781,-10.939276,-10.231657,-12.912870,-1.445209,19.230696,-0.217256,16.713385,10.097155,5.166655,12.892170,2.863637,0.170671,18.349344,2.148183,13.656424,37.800014,5.098876,5.574078,4.523113,0.608886,1.569455,22.248526,1.248210,7.287479,-1.906689,14.774506,18.695999,-5.974625,48.988068,0.000000,228.000000,4.000000,,,,0.000000,4.000000,4.000000,4.000000,4.000000,4.000000,4.000000,4.000000,4.000000,4.000000,4.000000,4.000000,4.000000,4.000000,4.000000,4.000000,4.000000,4.000000,4.000000,4.000000,4.000000,4.000000,4.000000,4.000000,4.000000,4.000000,4.000000,4.000000,4.000000,4.000000,4.000000,4.000000,4.000000,100.000000
1615771865.866685,77.000000,0.000000,3.871920,-2.615236,-128.810181,-11.441157,-10.221425,-12.899958,-1.443764,19.211464,-0.217038,16.183851,14.702442,3.110206,15.443380,2.860774,-0.342320,12.177148,3.684496,12.617126,37.762215,4.068136,10.183888,4.518590,0.608277,1.567886,23.764738,4.323884,7.280191,-2.417603,14.246911,18.677301,-6.994291,48.939079,0.000000,209.000000,4.000000,,,,0.000000,4.000000,4.000000,4.000000,4.000000,4.000000,4.000000,4.000000,4.000000,4.000000,4.000000,4.000000,4.000000,4.000000,4.000000,4.000000,4.000000,4.000000,4.000000,4.000000,4.000000,4.000000,4.000000,4.000000,4.000000,4.000000,4.000000,4.000000,4.000000,4.000000,4.000000,4.000000,4.000000,100.000000
1615771865.874435,78.000000,0.000000,3.868048,-2.612621,-128.681366,-11.429716,-10.211204,-12.887058,-1.442320,19.192253,-0.216821,16.680489,-5.825081,0.542993,7.735629,2.857913,0.170843,10.113688,3.167991,12.091688,34.647526,4.064068,7.609602,4.514071,0.094849,1.566318,22.715332,2.781099,7.272911,-2.415185,14.232664,18.658625,-6.987297,48.377319,0.000000,176.000000,4.000000,,,,0.000000,4.000000,4.000000,4.000000,4.000000,4.000000,4.000000,4.000000,4.000000,4.000000,4.000000,4.000000,4.000000,4.000000,4.000000,4.000000,4.000000,4.000000,4.000000,4.000000,4.000000,4.000000,4.000000,4.000000,4.000000,4.000000,4.000000,4.000000,4.000000,4.000000,4.000000,4.000000,4.000000,100.000000
1615771865.882084,79.000000,0.000000,6.428283,-2.610008,-128.552689,-11.418286,-10.200993,-12.874171,-1.440878,19.173059,-0.216605,16.663807,-15.562846,1.568091,4.138150,3.367875,2.734774,12.667678,3.164823,13.105238,35.125702,4.572824,5.550710,4.509557,1.120395,1.564752,23.205439,2.778318,7.265638,0.664153,14.218431,18.639967,-6.980309,49.354584,0.000000,189.000000,4.000000,,,,0.000000,4.000000,4.000000,4.000000,4.000000,4.000000,4.000000,4.000000,4.000000,4.000000,4.000000,4.000000,4.000000,4.000000,4.000000,4.000000,4.000000,4.000000,4.000000,4.000000,4.000000,4.000000,4.000000,4.000000,4.000000,4.000000,4.000000,4.000000,4.000000,4.000000,4.000000,4.000000,4.000000,100.000000
1615771865.889833,80.000000,0.000000,7.960316,-3.120219,-128.424133,-11.406868,-10.190792,-12.861297,-1.439437,19.153887,-0.216388,16.647144,3.427076,4.130626,8.236576,2.851687,4.270501,9.578087,3.161658,12.579312,35.603394,4.568252,6.570801,4.505048,3.683377,1.563187,22.669413,3.801181,7.258373,4.766053,14.204213,18.621326,-5.947688,51.869331,0.000000,196.000000,4.000000,,,,0.000000,4.000000,4.000000,4.000000,4.000000,4.000000,4.000000,4.000000,4.000000,4.000000,4.000000,4.000000,4.000000,4.000000,4.000000,4.000000,4.000000,4.000000,4.000000,4.000000,4.000000,4.000000,4.000000,4.000000,4.000000,4.000000,4.000000,4.000000,4.000000,4.000000,4.000000,4.000000,4.000000,100.000000
1615771865.897483,81.000000,0.000000,7.439535,-2.604278,-128.295700,-10.882640,-10.180601,-12.848435,-1.437998,19.134733,-0.216172,16.630497,15.731341,5.152136,9.766801,2.848835,4.266231,10.081329,3.158496,13.079553,33.516510,5.076504,-0.102437,4.500543,4.705335,1.561624,20.082640,1.233277,7.251114,5.786928,14.190009,19.115526,-7.993022,52.843102,0.000000,210.000000,4.000000,,,,0.000000,4.000000,4.000000,4.000000,4.000000,4.000000,4.000000,4.000000,4.000000,4.000000,4.000000,4.000000,4.000000,4.000000,4.000000,4.000000,4.000000,4.000000,4.000000,4.000000,4.000000,4.000000,4.000000,4.000000,4.000000,4.000000,4.000000,4.000000,4.000000,4.000000,4.000000,4.000000,4.000000,100.000000
1615771865.905232,82.000000,0.000000,7.432096,-0.037571,-128.167404,-12.410219,-10.170421,-12.835587,-1.436560,19.115599,-0.215955,16.613867,9.561764,2.582881,8.218573,3.358807,3.749144,19.814838,3.155338,12.553653,31.431711,4.558607,-8.820283,4.496042,4.187809,1.560062,18.524096,-0.819238,7.243863,5.268321,14.175818,18.070768,-12.600414,52.277439,0.000000,203.000000,4.000000,,,,0.000000,4.000000,4.000000,4.000000,4.000000,4.000000,4.000000,4.000000,4.000000,4.000000,4.000000,4.000000,4.000000,4.000000,4.000000,4.000000,4.000000,4.000000,4.000000,4.000000,4.000000,4.000000,4.000000,4.000000,4.000000,4.000000,4.000000,4.000000,4.000000,4.000000,4.000000,4.000000,4.000000,100.000000
1615771865.912882,83.000000,0.000000,7.424664,1.500928,-127.526421,-9.320886,-10.160250,-12.822751,-1.435123,19.096483,0.297081,16.597252,7.500920,1.554658,8.723174,1.304166,3.745395,23.897587,3.152183,12.541100,30.887459,4.041228,-6.760180,5.004367,4.183621,1.558502,19.018393,-0.818419,7.236619,5.775873,14.161643,19.078339,-12.074993,52.737984,0.000000,193.000000,4.000000,,,,0.000000,4.000000,4.000000,4.000000,4.000000,4.000000,4.000000,4.000000,4.000000,4.000000,4.000000,4.000000,4.000000,4.000000,4.000000,4.000000,4.000000,4.000000,4.000000,4.000000,4.000000,4.000000,4.000000,4.000000,4.000000,4.000000,4.000000,4.000000,4.000000,4.000000,4.000000,4.000000,4.000000,100.000000
1615771865.920631,84.000000,0.000000,7.417239,0.986607,-127.398895,-4.183360,-10.150089,-12.297108,-0.920867,19.590208,-1.241678,16.580656,10.570342,3.604385,9.227271,-0.748420,4.767290,21.309587,3.149030,13.554199,31.882212,7.114110,-2.138036,4.999362,4.179437,1.556943,18.999374,-0.304780,7.229383,4.231635,14.147481,19.572081,-10.011636,53.198067,0.000000,202.000000,4.000000,,,,0.000000,4.000000,4.000000,4.000000,4.000000,4.000000,4.000000,4.000000,4.000000,4.000000,4.000000,4.000000,4.000000,4.000000,4.000000,4.000000,4.000000,4.000000,4.000000,4.000000,4.000000,4.000000,4.000000,4.000000,4.000000,4.000000,4.000000,4.000000,4.000000,4.000000,4.000000,4.000000,4.000000,100.000000
1615771865.928280,85.000000,0.000000,7.409822,0.985620,-127.784317,-7.256100,-10.139939,-12.284811,-0.919947,19.057796,-4.317359,17.076895,11.072592,5.139242,8.705224,-0.234851,2.198421,19.749815,3.145881,12.002184,31.337509,7.106996,-1.110257,4.481543,4.175258,1.555386,18.467554,-0.817296,7.222153,1.663301,14.646154,14.424304,-13.078547,52.119225,0.000000,201.000000,4.000000,,,,0.000000,4.000000,4.000000,4.000000,4.000000,4.000000,4.000000,4.000000,4.000000,4.000000,4.000000,4.000000,4.000000,4.000000,4.000000,4.000000,4.000000,4.000000,4.000000,4.000000,4.000000,4.000000,4.000000,4.000000,4.000000,4.000000,4.000000,4.000000,4.000000,4.000000,4.000000,4.000000,4.000000,100.000000
1615771865.936130,86.000000,0.000000,7.402412,0.984634,-127.143715,-10.838587,-9.616979,-12.785347,-1.431847,19.038738,-3.287400,16.546997,12.599981,5.134103,6.645236,-0.747437,-4.470445,15.114681,3.142735,5.836335,25.665146,-1.105240,-2.134788,5.502702,4.683903,1.553831,19.474728,-0.816479,7.214931,1.661638,14.631508,12.358598,-11.527007,53.092747,0.000000,192.000000,4.000000,,,,0.000000,4.000000,4.000000,4.000000,4.000000,4.000000,4.000000,4.000000,4.000000,4.000000,4.000000,4.000000,4.000000,4.000000,4.000000,4.000000,4.000000,4.000000,4.000000,4.000000,4.000000,4.000000,4.000000,4.000000,4.000000,4.000000,4.000000,4.000000,4.000000,4.000000,4.000000,4.000000,4.000000,100.000000
1615771865.943879,87.000000,0.000000,7.907830,0.983650,-127.016571,-10.314928,-10.120183,-12.259741,-0.917595,19.532520,-0.207190,16.530451,3.356612,4.103328,4.074489,-3.310792,-8.055717,8.432900,3.139593,1.215114,19.998455,-6.745160,-6.235217,3.958738,3.140758,1.552277,17.916792,-0.302842,7.720537,1.659976,12.565595,16.448803,-4.848814,53.039654,0.000000,198.000000,4.000000,,,,0.000000,4.000000,4.000000,4.000000,4.000000,4.000000,4.000000,4.000000,4.000000,4.000000,4.000000,4.000000,4.000000,4.000000,4.000000,4.000000,4.000000,4.000000,4.000000,4.000000,4.000000,4.000000,4.000000,4.000000,4.000000,4.000000,4.000000,4.000000,4.000000,4.000000,4.000000,4.000000,4.000000,100.000000
1615771865.951728,88.000000,0.000000,7.387102,1.495487,-128.428009,-16.971279,-10.110063,-12.760302,-1.429498,18.487347,-2.258265,17.539560,-16.646746,2.047942,2.019132,-6.897225,-7.022021,7.911647,3.136453,1.213899,19.978458,-4.174313,-7.767443,-2.711888,1.086335,1.550725,13.796310,-2.866641,6.174355,1.658316,11.014567,13.355432,-9.459350,44.268665,0.000000,204.000000,4.000000,,,,0.000000,4.000000,4.000000,4.000000,4.000000,4.000000,4.000000,4.000000,4.000000,4.000000,4.000000,4.000000,4.000000,4.000000,4.000000,4.000000,4.000000,4.000000,4.000000,4.000000,4.000000,4.000000,4.000000,4.000000,4.000000,4.000000,4.000000,4.000000,4.000000,4.000000,4.000000,4.000000,4.000000,100.000000
1615771865.959477,89.000000,0.000000,4.815612,-0.557291,-130.863693,-28.749180,-9.587132,-16.337284,-5.530632,15.391936,-7.384212,13.932278,-14.065995,0.507433,-0.034169,-13.044173,-7.014999,4.826812,3.133317,1.212685,20.471300,-3.657318,-2.631471,-7.324561,0.059607,1.549174,11.218411,-8.504801,2.578437,1.656658,8.952271,4.624127,-18.680658,33.967987,0.000000,202.000000,4.000000,,,,0.000000,4.000000,4.000000,4.000000,4.000000,4.000000,4.000000,4.000000,4.000000,4.000000,4.000000,4.000000,4.000000,4.000000,4.000000,4.000000,4.000000,4.000000,4.000000,4.000000,4.000000,4.000000,4.000000,4.000000,4.000000,4.000000,4.000000,4.000000,4.000000,4.000000,4.000000,4.000000,4.000000,100.000000
1615771865.967327,90.000000,0.000000,3.272335,-2.608016,-131.245651,-29.233252,-11.116006,-20.423512,-9.114845,14.863724,-7.889648,9.302961,5.435250,1.019746,-2.085417,-19.184975,-10.084908,-3.383143,3.130183,-1.352630,17.886726,-7.243404,-1.603198,-6.804415,0.572368,1.547625,11.207192,-11.573218,0.011756,-0.396281,5.353575,4.619503,-18.661978,33.421200,0.000000,211.000000,4.000000,,,,0.000000,4.000000,4.000000,4.000000,4.000000,4.000000,4.000000,4.000000,4.000000,4.000000,4.000000,4.000000,4.000000,4.000000,4.000000,4.000000,4.000000,4.000000,4.000000,4.000000,4.000000,4.000000,4.000000,4.000000,4.000000,4.000000,4.000000,4.000000,4.000000,4.000000,4.000000,4.000000,4.000000,100.000000
1615771865.975076,91.000000,0.000000,3.781883,-2.605408,-130.601578,-25.101454,-13.668993,-20.403088,-9.105730,15.361681,-7.881758,8.780838,0.814430,0.505906,-2.596152,-20.191431,-11.100463,-8.507965,3.127053,-2.376918,15.817557,-6.723340,-7.242620,-6.284791,0.571796,1.546077,11.195986,-12.074466,-1.013897,-1.934346,2.784119,8.717448,-17.104855,37.490341,0.000000,202.000000,4.000000,,,,0.000000,4.000000,4.000000,4.000000,4.000000,4.000000,4.000000,4.000000,4.000000,4.000000,4.000000,4.000000,4.000000,4.000000,4.000000,4.000000,4.000000,4.000000,4.000000,4.000000,4.000000,4.000000,4.000000,4.000000,4.000000,4.000000,4.000000,4.000000,4.000000,4.000000,4.000000,4.000000,4.000000,100.000000
1615771865.982925,92.000000,0.000000,3.778101,-2.602802,-129.958160,-26.101994,-13.655324,-19.357044,-8.583804,13.807858,-7.361056,8.772057,-8.929974,1.018220,-3.106376,-18.632778,-8.012440,-7.986637,3.123926,-2.887362,15.801740,-6.203796,-9.799480,-7.304147,0.571224,1.544531,11.697610,-11.549571,0.012758,-1.932412,2.781335,7.683089,-18.113392,37.452850,0.000000,180.000000,4.000000,,,,0.000000,4.000000,4.000000,4.000000,4.000000,4.000000,4.000000,4.000000,4.000000,4.000000,4.000000,4.000000,4.000000,4.000000,4.000000,4.000000,4.000000,4.000000,4.000000,4.000000,4.000000,4.000000,4.000000,4.000000,4.000000,4.000000,4.000000,4.000000,4.000000,4.000000,4.000000,4.000000,4.000000,100.000000
1615771865.990675,93.000000,0.000000,3.261503,-2.600199,-131.366653,-26.588713,-13.641668,-19.850508,-9.088041,17.383793,-1.199849,8.763285,8.514853,3.581305,-1.051988,-17.075684,-7.491607,0.739299,3.120802,-1.858834,18.350040,-6.197592,-8.251220,-5.758381,0.570653,1.542987,11.685912,-11.538021,0.012745,-1.930479,3.291374,7.162586,-18.608099,35.876938,0.000000,192.000000,4.000000,,,,0.000000,4.000000,4.000000,4.000000,4.000000,4.000000,4.000000,4.000000,4.000000,4.000000,4.000000,4.000000,4.000000,4.000000,4.000000,4.000000,4.000000,4.000000,4.000000,4.000000,4.000000,4.000000,4.000000,4.000000,4.000000,4.000000,4.000000,4.000000,4.000000,4.000000,4.000000,4.000000,4.000000,100.000000
1615771865.998524,94.000000,0.000000,3.771062,-0.546317,-129.184006,-21.433918,-14.140847,-19.830658,-7.027671,26.084358,4.442377,14.908367,23.378134,5.116185,5.102910,-13.468865,-6.458474,12.020611,3.117682,4.296872,24.998356,-3.114472,-8.755789,-3.188520,0.570082,2.054264,11.161407,-12.039304,-1.012909,-1.928549,3.288083,7.668244,-18.076670,39.430805,0.000000,217.000000,4.000000,,,,0.000000,4.000000,4.000000,4.000000,4.000000,4.000000,4.000000,4.000000,4.000000,4.000000,4.000000,4.000000,4.000000,4.000000,4.000000,4.000000,4.000000,4.000000,4.000000,4.000000,4.000000,4.000000,4.000000,4.000000,4.000000,4.000000,4.000000,4.000000,4.000000,4.000000,4.000000,4.000000,4.000000,100.000000
1615771866.006273,95.000000,0.000000,6.331393,0.992691,-121.362518,-15.771459,-8.485681,-19.810827,-5.482182,30.673658,3.412293,22.072947,14.123986,4.598248,9.200372,-4.737447,3.804395,16.111155,3.114564,12.497703,30.614384,-0.034434,-9.259853,-2.672511,0.569512,1.026569,14.227168,-11.514444,1.039386,-2.439441,2.771974,7.660575,-13.956029,46.058041,0.000000,205.000000,4.000000,,,,0.000000,4.000000,4.000000,4.000000,4.000000,4.000000,4.000000,4.000000,4.000000,4.000000,4.000000,4.000000,4.000000,4.000000,4.000000,4.000000,4.000000,4.000000,4.000000,4.000000,4.000000,4.000000,4.000000,4.000000,4.000000,4.000000,4.000000,4.000000,4.000000,4.000000,4.000000,4.000000,4.000000,100.000000
1615771866.014122,96.000000,0.000000,7.863523,1.504519,-117.651413,-13.704406,-2.836169,-19.791016,-4.963879,30.642984,4.947342,24.614977,5.391913,4.593650,9.191171,2.446777,12.005718,16.095043,3.111449,14.023666,32.122231,1.504062,-8.737773,-2.669838,0.568943,2.564004,19.341146,-9.451648,8.217834,-1.924181,3.282022,7.652915,-10.352329,49.088905,8064.000000,0.000000,4.000000,,,,0.000000,4.000000,4.000000,4.000000,4.000000,4.000000,4.000000,4.000000,4.000000,4.000000,4.000000,4.000000,4.000000,4.000000,4.000000,4.000000,4.000000,4.000000,4.000000,4.000000,4.000000,4.000000,4.000000,4.000000,4.000000,4.000000,4.000000,4.000000,4.000000,4.000000,4.000000,4.000000,4.000000,100.000000
1615771866.021872,97.000000,0.000000,7.342839,1.503014,-122.149147,-14.716342,-7.448718,-19.771225,-4.958915,29.073881,3.403934,24.590361,7.437804,4.589056,8.669159,-4.735157,8.916790,14.540486,3.108338,9.394258,31.577288,2.015378,-8.729035,-2.667169,0.568374,5.125543,18.808985,-7.390914,11.799359,-1.922257,5.842843,7.645262,-9.829157,48.526997,8064.000000,0.000000,4.000000,,,,0.000000,4.000000,4.000000,4.000000,4.000000,4.000000,4.000000,4.000000,4.000000,4.000000,4.000000,4.000000,4.000000,4.000000,4.000000,4.000000,4.000000,4.000000,4.000000,4.000000,4.000000,4.000000,4.000000,4.000000,4.000000,4.000000,4.000000,4.000000,4.000000,4.000000,4.000000,4.000000,4.000000,100.000000
1615771866.029721,98.000000,0.000000,7.335496,0.475870,-126.129562,-14.701626,-14.107936,-19.751453,-5.466777,24.942242,-6.343060,19.950386,7.943186,4.584467,9.173310,-19.089396,3.779668,5.807997,3.105229,5.795120,27.955967,-3.114842,-9.233127,-3.177322,0.567805,2.043494,13.661970,-7.896343,10.761919,-2.433155,7.375462,8.150437,-10.332148,47.965649,8064.000000,0.000000,4.000000,,,,0.000000,4.000000,4.000000,4.000000,4.000000,4.000000,4.000000,4.000000,4.000000,4.000000,4.000000,4.000000,4.000000,4.000000,4.000000,4.000000,4.000000,4.000000,4.000000,4.000000,4.000000,4.000000,4.000000,4.000000,4.000000,4.000000,4.000000,4.000000,4.000000,4.000000,4.000000,4.000000,4.000000,100.000000
1615771866.037470,99.000000,0.000000,7.328161,2.013856,-125.490616,-13.148462,-10.504085,-19.731703,-3.410028,22.353197,-8.900820,13.263769,6.909602,4.579883,9.164137,-14.454922,3.775888,2.212446,3.102124,5.789325,24.338268,-9.265574,-7.685432,-2.148504,0.567238,-2.061114,11.084206,-7.888447,11.263978,-0.892260,6.855266,7.629466,-9.808995,48.943325,8064.000000,0.000000,4.000000,,,,0.000000,4.000000,4.000000,4.000000,4.000000,4.000000,4.000000,4.000000,4.000000,4.000000,4.000000,4.000000,4.000000,4.000000,4.000000,4.000000,4.000000,4.000000,4.000000,4.000000,4.000000,4.000000,4.000000,4.000000,4.000000,4.000000,4.000000,4.000000,4.000000,4.000000,4.000000,4.000000,4.000000,100.000000
1615771866.045120,100.000000,0.000000,7.320833,4.575944,-124.852303,-11.084032,-5.365375,-19.711969,1.208767,24.894947,-1.712432,13.763326,4.851410,4.575303,8.642153,-1.107134,4.284933,7.851259,3.099022,5.783536,26.878033,-5.666564,-3.062362,2.469029,0.566670,-2.571873,12.098763,-7.880558,11.765534,1.672734,6.848411,7.109016,-9.799187,48.381561,8064.000000,0.000000,4.000000,,,,0.000000,4.000000,4.000000,4.000000,4.000000,4.000000,4.000000,4.000000,4.000000,4.000000,4.000000,4.000000,4.000000,4.000000,4.000000,4.000000,4.000000,4.000000,4.000000,4.000000,4.000000,4.000000,4.000000,4.000000,4.000000,4.000000,4.000000,4.000000,4.000000,4.000000,4.000000,4.000000,4.000000,100.000000
1615771866.052869,101.000000,0.000000,7.313512,2.520086,-125.753090,-10.560127,-6.385651,-19.692259,2.746020,26.408514,-1.710719,18.877768,1.769636,4.570727,8.633511,-3.670129,3.767827,5.792126,3.095923,4.752111,27.363976,0.492948,-1.008018,5.030663,0.566104,-1.543660,12.086663,-7.872678,10.728127,1.671062,6.841562,9.153190,-10.302208,47.820358,8064.000000,0.000000,4.000000,,,,0.000000,4.000000,4.000000,4.000000,4.000000,4.000000,4.000000,4.000000,4.000000,4.000000,4.000000,4.000000,4.000000,4.000000,4.000000,4.000000,4.000000,4.000000,4.000000,4.000000,4.000000,4.000000,4.000000,4.000000,4.000000,4.000000,4.000000,4.000000,4.000000,4.000000,4.000000,4.000000,4.000000,100.000000
1615771866.060518,102.000000,0.000000,7.306199,-2.610639,-125.627335,-11.062387,-6.892086,-20.185387,2.230453,25.869284,-7.862854,19.884531,1.767866,4.566157,9.137697,-12.897228,3.251239,4.247872,3.092827,5.773000,26.310970,2.030917,-2.032651,5.025632,0.565538,-2.054937,11.048936,-7.864805,11.743041,1.156570,6.834721,11.195318,-10.804726,48.285358,8064.000000,0.000000,4.000000,,,,0.000000,4.000000,4.000000,4.000000,4.000000,4.000000,4.000000,4.000000,4.000000,4.000000,4.000000,4.000000,4.000000,4.000000,4.000000,4.000000,4.000000,4.000000,4.000000,4.000000,4.000000,4.000000,4.000000,4.000000,4.000000,4.000000,4.000000,4.000000,4.000000,4.000000,4.000000,4.000000,4.000000,100.000000
1615771866.068268,103.000000,0.000000,7.811713,-3.120849,-124.988892,-11.051326,-5.346732,-19.652380,2.741043,25.843414,-8.367812,19.864647,2.278919,5.074411,7.590098,-11.858690,3.760808,10.910291,3.602555,5.254407,28.848761,3.567348,-1.004977,5.020607,1.077793,-2.052882,12.063528,-7.856941,10.705657,2.693875,7.340706,9.132841,-9.768280,47.211430,8064.000000,0.000000,4.000000,,,,0.000000,4.000000,4.000000,4.000000,4.000000,4.000000,4.000000,4.000000,4.000000,4.000000,4.000000,4.000000,4.000000,4.000000,4.000000,4.000000,4.000000,4.000000,4.000000,4.000000,4.000000,4.000000,4.000000,4.000000,4.000000,4.000000,4.000000,4.000000,4.000000,4.000000,4.000000,4.000000,4.000000,100.000000
1615771866.075917,104.000000,0.000000,7.291080,-2.604908,-128.453644,-11.040275,-8.931129,-19.632729,1.199841,24.791931,-6.820983,18.306320,3.815102,4.556516,5.531226,-10.308370,3.757047,5.258355,2.060491,-2.443155,22.153246,2.538139,-2.029613,3.989945,-0.461747,-3.076470,11.538644,-7.849084,4.028285,0.127079,5.794904,7.072426,-10.784153,44.600117,8064.000000,0.000000,4.000000,,,,0.000000,4.000000,4.000000,4.000000,4.000000,4.000000,4.000000,4.000000,4.000000,4.000000,4.000000,4.000000,4.000000,4.000000,4.000000,4.000000,4.000000,4.000000,4.000000,4.000000,4.000000,4.000000,4.000000,4.000000,4.000000,4.000000,4.000000,4.000000,4.000000,4.000000,4.000000,4.000000,4.000000,100.000000
1615771866.083666,105.000000,0.000000,4.719687,-2.602303,-132.940582,-11.029234,-13.537582,-20.125916,-1.365462,22.715857,-7.326982,15.211091,4.324107,1.987857,4.500054,-11.836523,1.702008,-6.541775,0.007148,-10.645841,7.259298,-4.131065,-7.155789,0.909032,-2.512567,-5.637496,4.860438,-7.841235,-1.103949,-5.514074,3.225007,7.578174,-13.850292,44.042698,8064.000000,0.000000,4.000000,,,,0.000000,4.000000,4.000000,4.000000,4.000000,4.000000,4.000000,4.000000,4.000000,4.000000,4.000000,4.000000,4.000000,4.000000,4.000000,4.000000,4.000000,4.000000,4.000000,4.000000,4.000000,4.000000,4.000000,4.000000,4.000000,4.000000,4.000000,4.000000,4.000000,4.000000,4.000000,4.000000,4.000000,100.000000
1615771866.091316,106.000000,0.000000,3.176506,-3.112521,-132.807632,-11.018205,-11.985583,-19.080149,-1.876917,21.667500,-7.832476,20.836905,-5.936627,0.447408,5.008374,-10.799046,0.161845,0.131433,-1.018500,-7.558271,7.764859,-6.178216,-7.661453,0.395303,-3.535696,-6.144679,0.240194,-7.833394,1.461258,-2.944457,4.760243,7.570596,-13.323621,44.511475,8064.000000,0.000000,4.000000,,,,0.000000,4.000000,4.000000,4.000000,4.000000,4.000000,4.000000,4.000000,4.000000,4.000000,4.000000,4.000000,4.000000,4.000000,4.000000,4.000000,4.000000,4.000000,4.000000,4.000000,4.000000,4.000000,4.000000,4.000000,4.000000,4.000000,4.000000,4.000000,4.000000,4.000000,4.000000,4.000000,4.000000,100.000000
1615771866.099065,107.000000,0.000000,3.686150,-3.109408,-129.085083,-11.007187,-7.358213,-13.932864,-1.362219,22.158653,-7.311823,27.482735,-7.981973,0.959781,5.003366,-7.711323,0.161683,11.413353,-1.017481,-1.909688,21.603249,-3.095115,-2.525587,0.907728,-3.019339,-5.625714,2.291235,-7.825560,4.023899,3.725154,7.319585,7.563025,-8.694913,43.441322,8064.000000,0.000000,4.000000,,,,0.000000,4.000000,4.000000,4.000000,4.000000,4.000000,4.000000,4.000000,4.000000,4.000000,4.000000,4.000000,4.000000,4.000000,4.000000,4.000000,4.000000,4.000000,4.000000,4.000000,4.000000,4.000000,4.000000,4.000000,4.000000,4.000000,4.000000,4.000000,4.000000,4.000000,4.000000,4.000000,4.000000,100.000000
1615771866.106715,108.000000,0.000000,3.682463,-2.593478,-126.391899,-10.996180,-5.812393,-8.790726,-1.360857,22.136494,-7.304511,22.839869,10.487548,0.958821,4.998363,-7.190792,0.161521,8.837837,0.009177,-1.907778,24.658567,-2.579200,-0.984600,0.906820,-3.016320,-5.620089,4.853047,-7.817734,2.994234,6.285531,6.799446,10.119565,-6.122115,44.423523,8064.000000,0.000000,4.000000,,,,0.000000,4.000000,4.000000,4.000000,4.000000,4.000000,4.000000,4.000000,4.000000,4.000000,4.000000,4.000000,4.000000,4.000000,4.000000,4.000000,4.000000,4.000000,4.000000,4.000000,4.000000,4.000000,4.000000,4.000000,4.000000,4.000000,4.000000,4.000000,4.000000,4.000000,4.000000,4.000000,4.000000,100.000000
1615771866.114464,109.000000,0.000000,3.165961,-0.026782,-124.727043,-10.985183,-6.319401,-8.269114,-1.359496,22.114357,-7.297207,16.150362,10.989881,0.957862,4.993364,-7.696421,0.161360,6.264896,2.060450,-2.418690,20.018524,-3.089441,-2.009256,0.905913,-3.013304,-5.614468,3.822553,-5.758635,2.991240,8.330527,6.792646,11.647906,-6.628814,47.456020,8064.000000,0.000000,4.000000,,,,0.000000,4.000000,4.000000,4.000000,4.000000,4.000000,4.000000,4.000000,4.000000,4.000000,4.000000,4.000000,4.000000,4.000000,4.000000,4.000000,4.000000,4.000000,4.000000,4.000000,4.000000,4.000000,4.000000,4.000000,4.000000,4.000000,4.000000,4.000000,4.000000,4.000000,4.000000,4.000000,4.000000,100.000000
1615771866.122113,110.000000,0.000000,3.675615,1.511706,-124.089493,-10.461377,-5.800261,-8.260845,-1.358137,22.092243,-7.802730,18.698313,-4.918545,0.956904,4.988371,-7.175904,1.186839,8.822734,3.596851,-1.390631,19.998507,-2.573531,-1.494426,1.417828,-3.010290,-5.608854,4.331551,-3.701594,4.013889,8.835018,9.862777,11.636259,-6.109365,46.895744,8064.000000,0.000000,4.000000,,,,0.000000,4.000000,4.000000,4.000000,4.000000,4.000000,4.000000,4.000000,4.000000,4.000000,4.000000,4.000000,4.000000,4.000000,4.000000,4.000000,4.000000,4.000000,4.000000,4.000000,4.000000,4.000000,4.000000,4.000000,4.000000,4.000000,4.000000,4.000000,4.000000,4.000000,4.000000,4.000000,4.000000,100.000000
1615771866.129863,111.000000,0.000000,3.671939,0.997374,-123.965408,-10.963737,-6.307282,-9.278226,-1.356779,22.070150,-6.256466,20.218077,3.804322,0.955948,5.496203,-7.681549,-1.378450,8.813911,3.080434,-0.876420,21.004148,-4.622240,-0.467291,1.416410,-2.494460,-5.090425,4.840040,-4.723533,4.009876,4.210798,10.878554,11.624622,-7.641716,44.284748,8064.000000,0.000000,4.000000,,,,0.000000,4.000000,4.000000,4.000000,4.000000,4.000000,4.000000,4.000000,4.000000,4.000000,4.000000,4.000000,4.000000,4.000000,4.000000,4.000000,4.000000,4.000000,4.000000,4.000000,4.000000,4.000000,4.000000,4.000000,4.000000,4.000000,4.000000,4.000000,4.000000,4.000000,4.000000,4.000000,4.000000,100.000000
1615771866.137512,112.000000,0.000000,3.668267,0.996377,-124.354263,-11.465593,-6.300974,-12.345870,-1.355422,22.048080,-4.198927,19.172218,10.467184,0.954992,4.977886,-7.673867,-7.530918,6.753816,3.077353,-2.926825,20.470324,-6.668899,-2.005285,-0.636289,-3.517606,-5.598155,3.809558,-7.795733,2.980225,1.129664,10.354856,10.074536,-10.710998,43.214821,8064.000000,0.000000,4.000000,,,,0.000000,4.000000,4.000000,4.000000,4.000000,4.000000,4.000000,4.000000,4.000000,4.000000,4.000000,4.000000,4.000000,4.000000,4.000000,4.000000,4.000000,4.000000,4.000000,4.000000,4.000000,4.000000,4.000000,4.000000,4.000000,4.000000,4.000000,4.000000,4.000000,4.000000,4.000000,4.000000,4.000000,100.000000
1615771866.145261,113.000000,0.000000,6.228702,0.995380,-124.742729,-10.428487,-5.781853,-12.333525,-1.354066,21.513212,-3.681908,19.665865,-2.876616,0.954037,4.460088,-7.666193,-8.549027,7.772703,3.587096,-1.385437,22.501135,-4.610948,-0.977639,1.415630,-3.001268,-6.618197,4.318570,-7.787937,3.490065,1.641355,10.857321,11.602923,-9.674645,44.197247,8064.000000,0.000000,4.000000,,,,0.000000,4.000000,4.000000,4.000000,4.000000,4.000000,4.000000,4.000000,4.000000,4.000000,4.000000,4.000000,4.000000,4.000000,4.000000,4.000000,4.000000,4.000000,4.000000,4.000000,4.000000,4.000000,4.000000,4.000000,4.000000,4.000000,4.000000,4.000000,4.000000,4.000000,4.000000,4.000000,4.000000,100.000000
1615771866.152911,114.000000,0.000000,8.273755,0.994385,-123.079521,-11.443699,-7.314533,-11.808371,-1.352713,22.004520,-3.678226,16.056456,3.280107,0.953083,5.994090,-8.171348,-5.463556,8.277751,3.583509,-0.358410,25.555557,-2.042235,0.048980,2.439855,-2.485446,-4.560297,4.827071,-7.267329,3.999395,1.639714,8.795182,12.104141,-10.690612,44.153049,8064.000000,0.000000,4.000000,,,,0.000000,4.000000,4.000000,4.000000,4.000000,4.000000,4.000000,4.000000,4.000000,4.000000,4.000000,4.000000,4.000000,4.000000,4.000000,4.000000,4.000000,4.000000,4.000000,4.000000,4.000000,4.000000,4.000000,4.000000,4.000000,4.000000,4.000000,4.000000,4.000000,4.000000,4.000000,4.000000,4.000000,100.000000
1615771866.160660,115.000000,0.000000,4.675738,0.993390,-125.007721,-16.047640,-9.871321,-16.924767,-1.351360,23.008156,-3.674548,11.937836,11.481955,1.464950,4.962454,-10.727279,-9.560657,0.064345,2.041464,-7.024719,21.940258,-2.040193,-5.592095,-9.870277,-6.585525,-5.581378,2.258142,-8.798523,-0.619989,1.125253,2.119720,4.399729,-18.372229,43.083256,8064.000000,0.000000,4.000000,,,,0.000000,4.000000,4.000000,4.000000,4.000000,4.000000,4.000000,4.000000,4.000000,4.000000,4.000000,4.000000,4.000000,4.000000,4.000000,4.000000,4.000000,4.000000,4.000000,4.000000,4.000000,4.000000,4.000000,4.000000,4.000000,4.000000,4.000000,4.000000,4.000000,4.000000,4.000000,4.000000,4.000000,100.000000
1615771866.168309,116.000000,0.000000,-0.457143,0.992397,-128.472458,-17.057234,-7.810167,-17.933483,-1.350008,21.446686,-4.183693,19.105385,-11.093630,0.950665,-1.196354,-11.742192,-14.679300,-8.140848,-0.524680,-11.120258,16.790113,-3.063793,-11.740349,-17.039894,-10.168683,-13.268105,0.717422,-11.353827,-4.209112,1.636949,0.066318,1.831227,-21.430780,40.476070,8064.000000,0.000000,4.000000,,,,0.000000,4.000000,4.000000,4.000000,4.000000,4.000000,4.000000,4.000000,4.000000,4.000000,4.000000,4.000000,4.000000,4.000000,4.000000,4.000000,4.000000,4.000000,4.000000,4.000000,4.000000,4.000000,4.000000,4.000000,4.000000,4.000000,4.000000,4.000000,4.000000,4.000000,4.000000,4.000000,4.000000,100.000000
1615771866.176159,117.000000,0.000000,0.056135,0.991405,-122.190140,-12.424791,-3.186973,-11.248883,-1.348658,22.963701,-1.102587,27.804228,-13.646639,0.949714,-0.682337,-9.679169,-6.459493,2.636524,-0.524155,-0.852728,18.824606,-0.496627,-8.138865,-3.689521,-6.568771,-14.793298,6.357730,-11.342473,2.461764,1.635312,5.194457,13.111447,-16.281145,39.922771,8064.000000,0.000000,4.000000,,,,0.000000,4.000000,4.000000,4.000000,4.000000,4.000000,4.000000,4.000000,4.000000,4.000000,4.000000,4.000000,4.000000,4.000000,4.000000,4.000000,4.000000,4.000000,4.000000,4.000000,4.000000,4.000000,4.000000,4.000000,4.000000,4.000000,4.000000,4.000000,4.000000,4.000000,4.000000,4.000000,4.000000,100.000000
1615771866.183908,118.000000,0.000000,1.081720,0.990413,-113.862823,-9.848265,-2.158144,-7.647891,-1.347310,28.068943,3.513900,26.237963,15.597777,1.461585,7.523473,-7.618207,4.829018,10.839015,-0.010810,4.789151,20.344242,2.067972,-4.028162,4.006476,-2.972458,-6.060555,10.453937,-10.305490,8.100327,1.633676,7.753365,19.252182,-12.675119,39.882851,8064.000000,0.000000,4.000000,,,,0.000000,4.000000,4.000000,4.000000,4.000000,4.000000,4.000000,4.000000,4.000000,4.000000,4.000000,4.000000,4.000000,4.000000,4.000000,4.000000,4.000000,4.000000,4.000000,4.000000,4.000000,4.000000,4.000000,4.000000,4.000000,4.000000,4.000000,4.000000,4.000000,4.000000,4.000000,4.000000,4.000000,100.000000
1615771866.191757,119.000000,0.000000,-4.047567,0.989423,-117.851524,-11.376878,-3.181628,-8.665884,-1.345962,25.989592,2.484746,24.673264,16.094999,-0.078338,5.464667,-7.610589,0.721624,-4.556439,-3.600543,-6.497690,11.093128,-5.113583,-10.690801,-8.818043,-5.533588,-6.567316,1.725534,-13.884928,4.502483,1.632043,4.668689,13.079083,-13.688086,39.842968,8064.000000,0.000000,4.000000,,,,0.000000,4.000000,4.000000,4.000000,4.000000,4.000000,4.000000,4.000000,4.000000,4.000000,4.000000,4.000000,4.000000,4.000000,4.000000,4.000000,4.000000,4.000000,4.000000,4.000000,4.000000,4.000000,4.000000,4.000000,4.000000,4.000000,4.000000,4.000000,4.000000,4.000000,4.000000,4.000000,4.000000,100.000000
1615771866.199507,120.000000,0.000000,-7.120443,0.988433,-124.400337,-10.852680,-2.665625,-8.657218,-1.344616,17.245653,-0.081842,22.084488,-5.972377,-4.180824,-3.771566,-7.602979,-9.022687,-17.885216,-7.186687,-13.670679,1.851266,-14.852059,-22.474981,-15.988712,-7.066516,-16.817158,-9.558243,-18.486427,-0.630224,1.630411,2.612738,9.989081,-13.674397,39.803123,8064.000000,0.000000,4.000000,,,,0.000000,4.000000,4.000000,4.000000,4.000000,4.000000,4.000000,4.000000,4.000000,4.000000,4.000000,4.000000,4.000000,4.000000,4.000000,4.000000,4.000000,4.000000,4.000000,4.000000,4.000000,4.000000,4.000000,4.000000,4.000000,4.000000,4.000000,4.000000,4.000000,4.000000,4.000000,4.000000,4.000000,100.000000
1615771866.207356,121.000000,0.000000,-4.549220,0.987445,-123.250298,-10.329007,-2.150139,-8.648561,-0.830451,13.638664,-0.081760,13.344454,-6.992046,-6.740746,-4.793436,-7.082555,-11.064946,-12.739125,-8.205141,-12.631368,1.336594,-18.426950,-31.683275,-12.895800,-6.546629,-20.902906,-9.548684,-18.980761,-0.116773,1.628780,3.122946,9.979092,-13.147902,39.763321,8064.000000,0.000000,4.000000,,,,0.000000,4.000000,4.000000,4.000000,4.000000,4.000000,4.000000,4.000000,4.000000,4.000000,4.000000,4.000000,4.000000,4.000000,4.000000,4.000000,4.000000,4.000000,4.000000,4.000000,4.000000,4.000000,4.000000,4.000000,4.000000,4.000000,4.000000,4.000000,4.000000,4.000000,4.000000,4.000000,4.000000,100.000000
1615771866.215105,122.000000,0.000000,-3.006209,0.986457,-122.101410,-10.318678,-2.147989,-11.716836,-1.342441,14.650666,-1.620140,8.202905,-0.831208,-6.221185,-1.711719,-7.588293,-10.028240,-9.649464,-8.196936,-13.644377,0.822437,-17.895702,-30.625952,-13.395724,-6.540083,-20.369183,-5.949392,-18.448959,0.396164,1.627151,3.119823,7.917831,-13.134754,40.236378,8064.000000,0.000000,4.000000,,,,0.000000,4.000000,4.000000,4.000000,4.000000,4.000000,4.000000,4.000000,4.000000,4.000000,4.000000,4.000000,4.000000,4.000000,4.000000,4.000000,4.000000,4.000000,4.000000,4.000000,4.000000,4.000000,4.000000,4.000000,4.000000,4.000000,4.000000,4.000000,4.000000,4.000000,4.000000,4.000000,4.000000,100.000000
1615771866.222954,123.000000,0.000000,-4.541665,0.985471,-123.004944,-10.821179,-2.658662,-12.730760,-4.418022,14.636016,-3.669802,10.758804,2.759367,-6.214963,-2.222828,-7.580705,-10.531033,-9.639814,-7.675918,-9.528169,3.385717,-14.288064,-19.313274,-12.869509,-6.020722,-19.323172,-7.481905,-18.943333,-0.117053,1.625524,2.603883,6.884272,-13.634440,40.196144,8064.000000,0.000000,4.000000,,,,0.000000,4.000000,4.000000,4.000000,4.000000,4.000000,4.000000,4.000000,4.000000,4.000000,4.000000,4.000000,4.000000,4.000000,4.000000,4.000000,4.000000,4.000000,4.000000,4.000000,4.000000,4.000000,4.000000,4.000000,4.000000,4.000000,4.000000,4.000000,4.000000,4.000000,4.000000,4.000000,4.000000,100.000000
1615771866.230704,124.000000,0.000000,-3.511482,0.984486,-123.394760,-10.810359,-3.168823,-12.205209,-5.439245,16.672663,-4.178953,11.773686,6.859172,-6.721569,-2.733426,-7.060303,-11.546143,-2.450687,-5.616960,0.224949,15.177203,-8.119929,-9.550371,-7.728434,-3.450599,-16.226925,-4.397500,-18.924389,-0.116936,1.623899,3.114099,6.364567,-13.620806,39.643127,8064.000000,0.000000,4.000000,,,,0.000000,4.000000,4.000000,4.000000,4.000000,4.000000,4.000000,4.000000,4.000000,4.000000,4.000000,4.000000,4.000000,4.000000,4.000000,4.000000,4.000000,4.000000,4.000000,4.000000,4.000000,4.000000,4.000000,4.000000,4.000000,4.000000,4.000000,4.000000,4.000000,4.000000,4.000000,4.000000,4.000000,100.000000
1615771866.238553,125.000000,0.000000,-2.995150,1.496322,-123.271370,-10.799548,-2.140013,-12.193004,-4.408165,18.707272,-3.661953,11.249092,-4.942559,-6.202027,-2.217872,-9.104526,-11.021776,0.628687,-4.072882,1.250365,23.879974,-5.547707,-8.002359,-5.669424,-2.421507,-12.620955,2.786385,-18.392643,-0.116819,1.622275,3.110985,7.896664,-13.607185,39.603481,8064.000000,0.000000,4.000000,,,,0.000000,4.000000,4.000000,4.000000,4.000000,4.000000,4.000000,4.000000,4.000000,4.000000,4.000000,4.000000,4.000000,4.000000,4.000000,4.000000,4.000000,4.000000,4.000000,4.000000,4.000000,4.000000,4.000000,4.000000,4.000000,4.000000,4.000000,4.000000,4.000000,4.000000,4.000000,4.000000,4.000000,100.000000
1615771866.246302,126.000000,0.000000,-6.581898,-0.043636,-122.122452,-10.788749,-2.650694,-12.180810,-7.480680,18.175743,-3.658291,15.853228,-16.219667,-6.195825,-2.215654,-11.146703,-9.985113,-1.423224,-4.068809,-0.802167,22.830454,-5.542160,-8.507177,-5.663754,-2.931906,-12.095513,5.860522,-18.887072,-0.116702,1.620653,3.107874,7.888768,-13.593577,40.589520,8064.000000,0.000000,4.000000,,,,0.000000,4.000000,4.000000,4.000000,4.000000,4.000000,4.000000,4.000000,4.000000,4.000000,4.000000,4.000000,4.000000,4.000000,4.000000,4.000000,4.000000,4.000000,4.000000,4.000000,4.000000,4.000000,4.000000,4.000000,4.000000,4.000000,4.000000,4.000000,4.000000,4.000000,4.000000,4.000000,4.000000,100.000000
1615771866.254151,127.000000,0.000000,-7.088137,-2.094875,-123.538795,-13.342063,-7.776248,-12.168630,-12.601404,18.670389,-3.654633,15.324554,-1.844474,-6.189629,-2.213438,-11.135556,-10.487948,0.116661,-4.064740,-1.314185,20.243521,-5.536617,-7.473029,-6.170911,-2.928974,-12.596239,4.829021,-18.355364,-0.116585,1.619032,3.104766,3.265494,-13.579985,37.984829,8064.000000,0.000000,4.000000,,,,0.000000,4.000000,4.000000,4.000000,4.000000,4.000000,4.000000,4.000000,4.000000,4.000000,4.000000,4.000000,4.000000,4.000000,4.000000,4.000000,4.000000,4.000000,4.000000,4.000000,4.000000,4.000000,4.000000,4.000000,4.000000,4.000000,4.000000,4.000000,4.000000,4.000000,4.000000,4.000000,4.000000,100.000000
1615771866.261901,0.000000,0.000000,-1.952844,-3.118421,-127.004997,-14.867182,-11.358216,-12.156461,-12.075982,20.702999,-3.650978,11.206665,9.952243,-6.183440,-2.211225,-11.124420,-10.990281,-0.396276,-4.060675,-4.389794,19.710457,-6.043901,-7.465556,-6.164740,-2.926045,-12.583642,4.311371,-16.285727,-0.116469,1.617413,5.152944,5.826331,-13.566404,34.869919,0.000000,196.000000,4.000000,,,,0.000000,4.000000,4.000000,4.000000,4.000000,4.000000,4.000000,4.000000,4.000000,4.000000,4.000000,4.000000,4.000000,4.000000,4.000000,4.000000,4.000000,4.000000,4.000000,4.000000,4.000000,4.000000,4.000000,4.000000,4.000000,4.000000,4.000000,4.000000,4.000000,4.000000,4.000000,4.000000,4.000000,100.000000
1615771866.269750,1.000000,0.000000,0.613212,-2.602482,-122.775429,-12.801033,-6.731473,-10.093022,-8.986983,21.707937,-1.083225,21.964689,2.249983,-6.177256,-2.209014,-11.113296,-7.389547,1.655402,-4.569435,-4.385405,20.716387,-5.012216,-8.483731,-2.568831,-2.923119,-11.545418,4.819880,-14.218159,-0.116352,1.615796,6.686252,18.641018,-13.552838,38.937614,0.000000,168.000000,4.000000,,,,0.000000,4.000000,4.000000,4.000000,4.000000,4.000000,4.000000,4.000000,4.000000,4.000000,4.000000,4.000000,4.000000,4.000000,4.000000,4.000000,4.000000,4.000000,4.000000,4.000000,4.000000,4.000000,4.000000,4.000000,4.000000,4.000000,4.000000,4.000000,4.000000,4.000000,4.000000,4.000000,4.000000,100.000000
1615771866.277499,2.000000,0.000000,0.099778,-2.599880,-112.909065,-10.224130,-2.622177,-8.544468,-8.465176,22.711870,0.456320,33.224777,-1.854831,-6.171079,-2.206805,-11.102182,-2.766773,7.807593,-4.052045,-1.304096,21.208492,-3.468743,-8.475248,-2.566263,-2.920196,-8.969769,4.815060,-14.203940,-0.116236,2.127000,7.192386,20.160839,-13.539285,43.001240,0.000000,170.000000,4.000000,,,,0.000000,4.000000,4.000000,4.000000,4.000000,4.000000,4.000000,4.000000,4.000000,4.000000,4.000000,4.000000,4.000000,4.000000,4.000000,4.000000,4.000000,4.000000,4.000000,4.000000,4.000000,4.000000,4.000000,4.000000,4.000000,4.000000,4.000000,4.000000,4.000000,4.000000,4.000000,4.000000,4.000000,100.000000
1615771866.285149,3.000000,0.000000,0.099678,-4.648561,-112.283333,-10.726726,-6.209299,-10.587205,-8.969531,19.612236,-3.646700,22.935141,-1.340156,-6.677728,-2.717418,-14.168004,-7.892211,-1.943805,-4.047993,-11.046382,12.469335,-6.542197,-9.492414,-9.743183,-2.917276,-9.473620,0.707681,-15.215378,-0.116120,0.073591,6.159553,8.858626,-14.038567,37.830036,0.000000,189.000000,4.000000,,,,0.000000,4.000000,4.000000,4.000000,4.000000,4.000000,4.000000,4.000000,4.000000,4.000000,4.000000,4.000000,4.000000,4.000000,4.000000,4.000000,4.000000,4.000000,4.000000,4.000000,4.000000,4.000000,4.000000,4.000000,4.000000,4.000000,4.000000,4.000000,4.000000,4.000000,4.000000,4.000000,4.000000,100.000000
1615771866.292898,4.000000,0.000000,-0.413242,-6.182374,-117.299255,-11.228820,-7.228731,-12.627900,-8.960562,14.977240,-6.719976,11.630155,-4.415739,-6.158230,-2.201880,-19.282042,-15.063807,-16.300835,-5.069586,-19.753284,5.790198,-9.612577,-8.970100,-14.348825,-2.914359,-14.592352,-3.908411,-15.200162,-0.116003,-1.464944,6.666214,6.285665,-14.024528,37.279385,0.000000,211.000000,4.000000,,,,0.000000,4.000000,4.000000,4.000000,4.000000,4.000000,4.000000,4.000000,4.000000,4.000000,4.000000,4.000000,4.000000,4.000000,4.000000,4.000000,4.000000,4.000000,4.000000,4.000000,4.000000,4.000000,4.000000,4.000000,4.000000,4.000000,4.000000,4.000000,4.000000,4.000000,4.000000,4.000000,4.000000,100.000000
1615771866.300547,5.000000,0.000000,1.638453,-6.176192,-115.643494,-9.679129,-1.580476,-12.102451,-8.438781,18.552006,-5.174795,15.208268,1.229702,-3.587969,0.364424,-18.237118,-8.894897,-8.079406,-3.013234,-11.528402,11.425434,-10.628606,-8.448310,-12.283195,-2.911444,-16.116220,0.198061,-14.159321,-0.628708,0.074983,8.710830,10.381944,-12.984862,46.985695,0.000000,184.000000,4.000000,,,,0.000000,4.000000,4.000000,4.000000,4.000000,4.000000,4.000000,4.000000,4.000000,4.000000,4.000000,4.000000,4.000000,4.000000,4.000000,4.000000,4.000000,4.000000,4.000000,4.000000,4.000000,4.000000,4.000000,4.000000,4.000000,4.000000,4.000000,4.000000,4.000000,4.000000,4.000000,4.000000,4.000000,100.000000
1615771866.308297,6.000000,0.000000,6.252200,-6.682837,-114.502213,-7.618168,2.010848,-12.090349,-6.379060,25.712940,-4.143979,19.295624,2.766934,-2.558740,1.902521,-13.090675,0.857588,7.826109,1.605163,-3.311746,16.029392,-10.617978,-9.978323,-9.706808,-2.908533,-13.536002,5.838889,-15.683623,-0.115259,1.613369,10.753401,10.884382,-14.510339,52.066914,0.000000,196.000000,4.000000,,,,0.000000,4.000000,4.000000,4.000000,4.000000,4.000000,4.000000,4.000000,4.000000,4.000000,4.000000,4.000000,4.000000,4.000000,4.000000,4.000000,4.000000,4.000000,4.000000,4.000000,4.000000,4.000000,4.000000,4.000000,4.000000,4.000000,4.000000,4.000000,4.000000,4.000000,4.000000,4.000000,4.000000,100.000000
1615771866.315946,7.000000,0.000000,6.245947,-6.163333,-116.951813,-6.584908,0.983196,-12.078259,-4.834219,25.687227,-1.575733,21.327610,-9.030704,-2.556181,0.874978,-10.513482,1.369551,9.356745,3.654840,1.819771,17.039005,-3.940693,-4.840140,-4.568896,-2.905624,-14.035287,8.909973,-14.642299,3.474600,1.611756,9.717007,11.899138,-12.957367,49.450745,0.000000,212.000000,4.000000,,,,0.000000,4.000000,4.000000,4.000000,4.000000,4.000000,4.000000,4.000000,4.000000,4.000000,4.000000,4.000000,4.000000,4.000000,4.000000,4.000000,4.000000,4.000000,4.000000,4.000000,4.000000,4.000000,4.000000,4.000000,4.000000,4.000000,4.000000,4.000000,4.000000,4.000000,4.000000,4.000000,4.000000,100.000000
