title:25, start timestamp:1615773479.226167, stop timestamp:1615773525.114824, headset type:EPOCFLEX, headset serial:F00001ED, headset firmware:f12, subject name:s19, channels:75, sampling rate:128, samples:5923      , version:2.0
Timestamp,EEG.Counter,EEG.Interpolated,EEG.Cz,EEG.Fz,EEG.Fp1,EEG.AF3,EEG.F7,EEG.F3,EEG.FC1,EEG.C3,EEG.FC5,EEG.T7,EEG.CP5,EEG.CP1,EEG.P3,EEG.P7,EEG.PO3,EEG.O1,EEG.Pz,EEG.Oz,EEG.O2,EEG.PO4,EEG.P8,EEG.P4,EEG.CP2,EEG.CP6,EEG.T8,EEG.FC6,EEG.C4,EEG.FC2,EEG.F4,EEG.F8,EEG.AF4,EEG.Fp2,EEG.HighBitFlex,EEG.RawCq,EEG.Battery,MarkerIndex,MarkerType,MarkerValueInt,EEG.MarkerHardware,CQ.Cz,CQ.Fz,CQ.Fp1,CQ.AF3,CQ.F7,CQ.F3,CQ.FC1,CQ.C3,CQ.FC5,CQ.T7,CQ.CP5,CQ.CP1,CQ.P3,CQ.P7,CQ.PO3,CQ.O1,CQ.Pz,CQ.Oz,CQ.O2,CQ.PO4,CQ.P8,CQ.P4,CQ.CP2,CQ.CP6,CQ.T8,CQ.FC6,CQ.C4,CQ.FC2,CQ.F4,CQ.F8,CQ.AF4,CQ.Fp2,CQ.Overall
1615773479.226167,28.000000,0.000000,1.983320,-4.173228,364.140350,-27.915911,8.242209,2.863280,5.180991,-5.714365,10.124115,3.158439,-1.793962,-0.198905,-3.229200,10.785329,-9.513066,41.799835,21.331612,-6.315968,9.303872,-4.073606,-12.322864,-10.834479,-9.977722,10.698236,-18.245169,17.243782,-2.593209,-1.818542,-3.393153,6.905951,-1.845997,239.048737,0.000000,198.000000,4.000000,,,,0.000000,4.000000,4.000000,4.000000,4.000000,4.000000,4.000000,4.000000,4.000000,4.000000,4.000000,4.000000,4.000000,4.000000,4.000000,4.000000,4.000000,4.000000,4.000000,4.000000,4.000000,4.000000,4.000000,4.000000,4.000000,4.000000,4.000000,4.000000,4.000000,4.000000,4.000000,4.000000,4.000000,100.000000
1615773479.234016,29.000000,0.000000,1.981336,-4.681875,365.827484,-25.836712,7.208326,1.834776,6.201450,-6.221470,8.062709,2.642460,-2.304989,-2.249988,-11.431099,2.569415,-24.888168,15.604188,20.797459,-16.053242,8.781747,-4.069532,-11.284900,-10.310824,-10.480565,12.226000,-17.201283,14.149616,-3.103436,-2.329544,-4.415401,9.463148,-1.331330,240.860962,0.000000,190.000000,4.000000,,,,0.000000,4.000000,4.000000,4.000000,4.000000,4.000000,4.000000,4.000000,4.000000,4.000000,4.000000,4.000000,4.000000,4.000000,4.000000,4.000000,4.000000,4.000000,4.000000,4.000000,4.000000,4.000000,4.000000,4.000000,4.000000,4.000000,4.000000,4.000000,4.000000,4.000000,4.000000,4.000000,4.000000,100.000000
1615773479.241765,30.000000,0.000000,1.466534,-4.677194,366.487305,-25.298056,4.124195,1.832941,1.579864,-6.728070,6.516185,-4.026849,3.851162,-4.299020,-7.317104,4.105308,-19.222256,25.332172,20.776661,-5.267958,12.362709,-4.065463,-12.299255,-11.326155,-10.982905,19.393261,-0.261004,9.520082,-14.382384,-2.327214,-3.898165,9.966505,-1.842819,242.158569,0.000000,201.000000,4.000000,,,,0.000000,4.000000,4.000000,4.000000,4.000000,4.000000,4.000000,4.000000,4.000000,4.000000,4.000000,4.000000,4.000000,4.000000,4.000000,4.000000,4.000000,4.000000,4.000000,4.000000,4.000000,4.000000,4.000000,4.000000,4.000000,4.000000,4.000000,4.000000,4.000000,4.000000,4.000000,4.000000,4.000000,100.000000
1615773479.249614,31.000000,0.000000,1.465068,-2.621234,366.633636,-25.785578,8.222634,1.831108,2.603926,-5.182880,7.535310,-3.510002,-0.255253,-4.807542,1.408162,10.255049,3.873890,58.127354,21.268705,4.993721,12.863167,-4.061397,-11.774136,-10.802008,-10.459102,-0.626132,3.841821,8.997742,-16.932104,-2.324887,-3.381446,10.469359,-1.840977,241.916412,0.000000,182.000000,4.000000,,,,0.000000,4.000000,4.000000,4.000000,4.000000,4.000000,4.000000,4.000000,4.000000,4.000000,4.000000,4.000000,4.000000,4.000000,4.000000,4.000000,4.000000,4.000000,4.000000,4.000000,4.000000,4.000000,4.000000,4.000000,4.000000,4.000000,4.000000,4.000000,4.000000,4.000000,4.000000,4.000000,4.000000,100.000000
1615773479.257363,32.000000,0.000000,1.976423,-0.567331,365.754181,-25.246971,8.727232,1.829277,4.139783,-6.203338,6.502133,2.647354,-18.203716,-5.828375,-8.849656,4.090947,1.305914,45.761536,20.221796,-8.344606,12.337483,-1.493233,-11.762362,-4.124539,-10.448643,-5.240891,-18.213303,11.040026,-4.094659,-2.322562,-3.890885,9.946070,-1.839136,241.674484,8064.000000,0.000000,4.000000,,,,0.000000,4.000000,4.000000,4.000000,4.000000,4.000000,4.000000,4.000000,4.000000,4.000000,4.000000,4.000000,4.000000,4.000000,4.000000,4.000000,4.000000,4.000000,4.000000,4.000000,4.000000,4.000000,4.000000,4.000000,4.000000,4.000000,4.000000,4.000000,4.000000,4.000000,4.000000,4.000000,4.000000,100.000000
1615773479.265212,33.000000,0.000000,1.461626,-1.079584,364.362793,-25.734545,7.180044,1.314627,4.135643,-7.222776,10.085375,3.670348,-8.441922,-2.232803,-11.404909,4.086856,-6.900520,30.331158,20.714394,-7.823442,15.914889,0.046722,-11.237779,0.494970,-10.951015,27.584864,-20.246372,11.541806,-0.500821,-2.320239,-3.886995,8.910482,-1.837296,241.432816,8064.000000,0.000000,4.000000,,,,0.000000,4.000000,4.000000,4.000000,4.000000,4.000000,4.000000,4.000000,4.000000,4.000000,4.000000,4.000000,4.000000,4.000000,4.000000,4.000000,4.000000,4.000000,4.000000,4.000000,4.000000,4.000000,4.000000,4.000000,4.000000,4.000000,4.000000,4.000000,4.000000,4.000000,4.000000,4.000000,4.000000,100.000000
1615773479.272961,34.000000,0.000000,1.460165,-1.078505,369.639435,-24.683168,14.352350,1.313312,9.772533,3.553678,16.741957,1.102575,20.284468,5.974558,8.606496,18.441744,10.542277,63.121338,26.334705,13.210023,22.565641,1.072316,-6.611156,0.494475,-9.914422,32.685482,-0.226125,11.017444,-7.166987,-2.317919,-3.883107,14.029777,-2.348280,241.704208,8064.000000,0.000000,4.000000,,,,0.000000,4.000000,4.000000,4.000000,4.000000,4.000000,4.000000,4.000000,4.000000,4.000000,4.000000,4.000000,4.000000,4.000000,4.000000,4.000000,4.000000,4.000000,4.000000,4.000000,4.000000,4.000000,4.000000,4.000000,4.000000,4.000000,4.000000,4.000000,4.000000,4.000000,4.000000,4.000000,4.000000,100.000000
1615773479.280610,35.000000,0.000000,6.074089,0.973856,377.474945,-18.504641,17.927742,3.363281,15.916607,17.909098,17.238035,4.691216,19.751364,10.071147,18.854300,24.577148,20.788145,74.853088,31.949396,14.222454,26.645639,3.635346,-4.040442,4.596544,-3.750662,11.114336,-1.251540,13.570529,-5.108538,-2.828422,-4.904865,20.682413,-1.833111,243.513779,8064.000000,0.000000,4.000000,,,,0.000000,4.000000,4.000000,4.000000,4.000000,4.000000,4.000000,4.000000,4.000000,4.000000,4.000000,4.000000,4.000000,4.000000,4.000000,4.000000,4.000000,4.000000,4.000000,4.000000,4.000000,4.000000,4.000000,4.000000,4.000000,4.000000,4.000000,4.000000,4.000000,4.000000,4.000000,4.000000,4.000000,100.000000
1615773479.288359,36.000000,0.000000,12.221861,3.536985,378.123108,-13.870750,17.909815,5.411200,15.387870,19.429651,14.143873,8.789089,7.423920,9.548256,9.604675,19.424366,13.587871,45.547466,32.430267,1.900539,28.157455,9.785557,-4.549222,11.771435,3.432576,22.898094,-13.045160,19.710804,1.050417,-1.287132,-4.387140,13.482244,0.220004,244.295914,8064.000000,0.000000,4.000000,,,,0.000000,4.000000,4.000000,4.000000,4.000000,4.000000,4.000000,4.000000,4.000000,4.000000,4.000000,4.000000,4.000000,4.000000,4.000000,4.000000,4.000000,4.000000,4.000000,4.000000,4.000000,4.000000,4.000000,4.000000,4.000000,4.000000,4.000000,4.000000,4.000000,4.000000,4.000000,4.000000,4.000000,100.000000
1615773479.296008,37.000000,0.000000,12.209640,5.584730,378.770630,-14.369700,20.456007,4.892968,14.346841,12.743554,13.616909,3.652095,11.519060,10.051528,6.518148,18.892120,13.574283,45.501919,31.885017,1.898639,26.590837,11.827053,-4.544673,9.195561,4.967605,43.388016,-15.596218,22.255196,1.049366,1.278258,-0.793009,4.750813,0.732605,243.025970,8064.000000,0.000000,4.000000,,,,0.000000,4.000000,4.000000,4.000000,4.000000,4.000000,4.000000,4.000000,4.000000,4.000000,4.000000,4.000000,4.000000,4.000000,4.000000,4.000000,4.000000,4.000000,4.000000,4.000000,4.000000,4.000000,4.000000,4.000000,4.000000,4.000000,4.000000,4.000000,4.000000,4.000000,4.000000,4.000000,4.000000,100.000000
1615773479.303757,38.000000,0.000000,9.633327,6.604786,384.545685,-14.355330,18.897089,5.400896,15.358135,12.217991,14.116113,6.212545,-0.287331,8.503015,9.588552,20.411690,9.458144,57.251289,32.365952,2.409561,24.000143,6.687021,-4.027308,-0.557224,-0.165568,35.652321,-11.990878,15.053453,0.022676,1.789800,-0.279396,13.976831,2.270334,243.808594,8064.000000,0.000000,4.000000,,,,0.000000,4.000000,4.000000,4.000000,4.000000,4.000000,4.000000,4.000000,4.000000,4.000000,4.000000,4.000000,4.000000,4.000000,4.000000,4.000000,4.000000,4.000000,4.000000,4.000000,4.000000,4.000000,4.000000,4.000000,4.000000,4.000000,4.000000,4.000000,4.000000,4.000000,4.000000,4.000000,4.000000,100.000000
1615773479.311406,39.000000,0.000000,9.110873,6.085361,385.186798,-11.264052,14.775628,8.472418,15.342777,13.231414,15.127638,21.078127,-16.184479,4.391948,9.066144,19.878458,0.217917,46.424809,32.333588,0.868690,25.001783,4.116232,-4.023281,-3.633590,-3.755146,21.257694,-3.773759,6.320452,-0.490167,1.275190,-1.304757,28.834650,4.319345,243.564774,8576.000000,0.000000,4.000000,,,,0.000000,4.000000,4.000000,4.000000,4.000000,4.000000,4.000000,4.000000,4.000000,4.000000,4.000000,4.000000,4.000000,4.000000,4.000000,4.000000,4.000000,4.000000,4.000000,4.000000,4.000000,4.000000,4.000000,4.000000,4.000000,4.000000,4.000000,4.000000,4.000000,4.000000,4.000000,4.000000,4.000000,100.000000
1615773479.319156,40.000000,0.000000,9.101763,6.079276,384.801605,-10.227147,18.350595,8.976766,14.814613,12.192541,13.061228,20.031408,0.241962,3.874735,8.031437,19.345758,4.833084,48.429665,31.788431,6.508847,31.130629,8.727500,-4.019258,-0.040213,-2.725749,15.082590,-6.334088,12.467978,0.535964,1.273915,7.414496,26.241713,4.827847,241.269928,8192.000000,0.000000,4.000000,,,,0.000000,4.000000,4.000000,4.000000,4.000000,4.000000,4.000000,4.000000,4.000000,4.000000,4.000000,4.000000,4.000000,4.000000,4.000000,4.000000,4.000000,4.000000,4.000000,4.000000,4.000000,4.000000,4.000000,4.000000,4.000000,4.000000,4.000000,4.000000,4.000000,4.000000,4.000000,4.000000,4.000000,100.000000
1615773479.326805,41.000000,0.000000,9.092661,8.637299,394.673218,-10.729740,21.921989,8.967790,14.799799,12.693169,6.381500,3.088300,15.113515,6.434963,6.997764,17.787952,11.494917,62.227390,31.756643,10.092081,35.714882,11.282875,-4.528059,0.985468,-0.158921,21.221354,-20.173908,25.276022,3.099531,1.272641,17.663492,17.497522,7.899942,251.285080,8064.000000,0.000000,4.000000,,,,0.000000,4.000000,4.000000,4.000000,4.000000,4.000000,4.000000,4.000000,4.000000,4.000000,4.000000,4.000000,4.000000,4.000000,4.000000,4.000000,4.000000,4.000000,4.000000,4.000000,4.000000,4.000000,4.000000,4.000000,4.000000,4.000000,4.000000,4.000000,4.000000,4.000000,4.000000,4.000000,4.000000,100.000000
1615773479.334554,42.000000,0.000000,9.596389,10.167123,403.509308,-9.180550,21.387247,11.522924,15.297820,9.090733,9.964862,-0.504532,4.329170,5.402887,5.965126,16.231703,9.432140,58.062599,30.186426,10.081989,32.089424,9.220310,-4.010710,-3.630902,0.354058,31.969362,-18.615273,21.661003,1.045149,1.271368,15.594546,19.531307,16.097170,268.982513,8064.000000,0.000000,4.000000,,,,0.000000,4.000000,4.000000,4.000000,4.000000,4.000000,4.000000,4.000000,4.000000,4.000000,4.000000,4.000000,4.000000,4.000000,4.000000,4.000000,4.000000,4.000000,4.000000,4.000000,4.000000,4.000000,4.000000,4.000000,4.000000,4.000000,4.000000,4.000000,4.000000,4.000000,4.000000,4.000000,4.000000,100.000000
1615773479.342203,43.000000,0.000000,5.484228,10.156956,400.541687,-7.120087,20.853039,13.049863,15.282522,2.927795,20.211308,3.598537,-0.290544,3.346202,4.420699,14.164188,2.756041,37.491714,27.592136,4.430882,21.800924,8.185449,-5.032341,-6.704194,-0.159116,18.604059,-9.878708,17.536777,-3.058460,1.270097,9.937926,13.870749,21.209278,271.790436,8064.000000,0.000000,4.000000,,,,0.000000,4.000000,4.000000,4.000000,4.000000,4.000000,4.000000,4.000000,4.000000,4.000000,4.000000,4.000000,4.000000,4.000000,4.000000,4.000000,4.000000,4.000000,4.000000,4.000000,4.000000,4.000000,4.000000,4.000000,4.000000,4.000000,4.000000,4.000000,4.000000,4.000000,4.000000,4.000000,4.000000,100.000000
1615773479.349952,44.000000,0.000000,1.376180,9.633978,397.064240,-6.600146,18.780903,12.523993,14.241598,0.873586,16.088531,3.082118,-5.931279,1.804394,-1.737568,10.047461,-12.118509,16.428581,24.487621,-9.419703,13.061174,4.587520,-11.693975,-6.697490,0.353863,4.226481,-17.561136,24.698729,-1.004120,1.268827,10.953629,3.600469,19.649607,264.851990,8064.000000,0.000000,4.000000,,,,0.000000,4.000000,4.000000,4.000000,4.000000,4.000000,4.000000,4.000000,4.000000,4.000000,4.000000,4.000000,4.000000,4.000000,4.000000,4.000000,4.000000,4.000000,4.000000,4.000000,4.000000,4.000000,4.000000,4.000000,4.000000,4.000000,4.000000,4.000000,4.000000,4.000000,4.000000,4.000000,4.000000,100.000000
1615773479.357601,45.000000,0.000000,3.426086,9.624344,398.205627,-6.593546,18.762123,12.511468,15.252998,1.385532,11.457059,7.694420,-15.156116,2.315411,-3.274292,9.011772,-13.132032,18.463434,23.437492,-14.025668,14.073754,4.070112,-15.784845,-7.203613,0.353509,18.581230,-23.184601,15.956080,1.048166,1.267558,11.968316,16.417381,20.142778,268.176880,8064.000000,0.000000,4.000000,,,,0.000000,4.000000,4.000000,4.000000,4.000000,4.000000,4.000000,4.000000,4.000000,4.000000,4.000000,4.000000,4.000000,4.000000,4.000000,4.000000,4.000000,4.000000,4.000000,4.000000,4.000000,4.000000,4.000000,4.000000,4.000000,4.000000,4.000000,4.000000,4.000000,4.000000,4.000000,4.000000,4.000000,100.000000
1615773479.365350,46.000000,0.000000,5.986762,10.127541,397.807434,-8.125414,18.230539,13.011777,14.724924,1.384147,15.035346,7.173905,3.833398,6.415659,2.882828,10.541222,9.958023,43.573177,27.516619,-4.268053,18.675066,11.758349,-13.717778,-5.145127,0.353156,26.254955,-21.110134,-3.034235,0.021477,1.266290,9.905066,30.759937,21.148277,270.985626,8064.000000,0.000000,4.000000,,,,0.000000,4.000000,4.000000,4.000000,4.000000,4.000000,4.000000,4.000000,4.000000,4.000000,4.000000,4.000000,4.000000,4.000000,4.000000,4.000000,4.000000,4.000000,4.000000,4.000000,4.000000,4.000000,4.000000,4.000000,4.000000,4.000000,4.000000,4.000000,4.000000,4.000000,4.000000,4.000000,4.000000,100.000000
1615773479.372999,47.000000,0.000000,5.467955,10.117413,395.358337,-10.681391,8.468720,12.485945,9.069174,1.382763,5.789541,-5.140961,17.162899,3.332320,0.828663,7.966578,13.024988,42.503963,31.591667,-2.725323,18.143570,13.285052,-11.652779,-2.063059,0.352803,18.023573,-22.114666,8.250851,1.047097,1.265024,10.407982,15.857383,18.050205,264.560791,8064.000000,0.000000,4.000000,,,,0.000000,4.000000,4.000000,4.000000,4.000000,4.000000,4.000000,4.000000,4.000000,4.000000,4.000000,4.000000,4.000000,4.000000,4.000000,4.000000,4.000000,4.000000,4.000000,4.000000,4.000000,4.000000,4.000000,4.000000,4.000000,4.000000,4.000000,4.000000,4.000000,4.000000,4.000000,4.000000,4.000000,100.000000
1615773479.380848,48.000000,0.000000,4.949667,8.056013,397.527069,-10.670710,5.896149,12.473459,3.419079,-1.695543,-4.472659,-3.597358,-5.931188,-7.440243,-11.992678,3.856047,-9.552139,16.820433,28.483152,-11.953367,14.022862,1.989716,-12.153946,-7.702022,0.352450,20.569653,-12.861782,27.216959,-1.518053,1.263759,11.936035,6.097936,17.006514,259.680847,8064.000000,0.000000,4.000000,,,,0.000000,4.000000,4.000000,4.000000,4.000000,4.000000,4.000000,4.000000,4.000000,4.000000,4.000000,4.000000,4.000000,4.000000,4.000000,4.000000,4.000000,4.000000,4.000000,4.000000,4.000000,4.000000,4.000000,4.000000,4.000000,4.000000,4.000000,4.000000,4.000000,4.000000,4.000000,4.000000,4.000000,100.000000
1615773479.388598,49.000000,0.000000,5.970358,5.996675,394.565460,-10.660039,10.505637,12.460986,3.415660,-5.283591,6.813865,3.072906,-10.027821,-12.048187,-15.570429,4.365012,-14.670793,22.444637,23.839285,-11.941414,11.444736,-5.191761,-11.628972,-15.899447,0.352097,14.395236,-9.771997,13.856409,-10.747304,1.262495,6.283073,14.809787,15.451046,255.831421,8064.000000,0.000000,4.000000,,,,0.000000,4.000000,4.000000,4.000000,4.000000,4.000000,4.000000,4.000000,4.000000,4.000000,4.000000,4.000000,4.000000,4.000000,4.000000,4.000000,4.000000,4.000000,4.000000,4.000000,4.000000,4.000000,4.000000,4.000000,4.000000,4.000000,4.000000,4.000000,4.000000,4.000000,4.000000,4.000000,4.000000,100.000000
1615773479.396447,50.000000,0.000000,5.451567,5.990679,378.273438,-14.239122,1.264362,10.910063,4.437885,-3.739846,12.448077,-9.237860,6.905284,-8.959216,-12.477936,5.386288,-4.912532,46.011936,23.815445,-7.826908,12.971753,-3.648107,-12.130163,-13.832266,0.351745,4.124430,-30.787867,-2.054883,-14.839121,1.261233,-2.953979,8.128310,6.204825,246.344818,8064.000000,0.000000,4.000000,,,,0.000000,4.000000,4.000000,4.000000,4.000000,4.000000,4.000000,4.000000,4.000000,4.000000,4.000000,4.000000,4.000000,4.000000,4.000000,4.000000,4.000000,4.000000,4.000000,4.000000,4.000000,4.000000,4.000000,4.000000,4.000000,4.000000,4.000000,4.000000,4.000000,4.000000,4.000000,4.000000,4.000000,100.000000
1615773479.404196,51.000000,0.000000,5.446115,5.984688,365.074677,-17.301805,-2.326646,8.847871,3.407806,-3.223286,-1.410525,-13.331186,-8.999057,-8.437436,-16.055201,4.355260,-4.907619,46.478745,24.817270,-7.819081,18.599808,-3.644459,-11.092392,-9.203050,0.351394,19.504921,-32.808361,6.152299,-11.747358,1.259971,-5.515127,-0.597767,-2.006508,243.021561,8064.000000,0.000000,4.000000,,,,0.000000,4.000000,4.000000,4.000000,4.000000,4.000000,4.000000,4.000000,4.000000,4.000000,4.000000,4.000000,4.000000,4.000000,4.000000,4.000000,4.000000,4.000000,4.000000,4.000000,4.000000,4.000000,4.000000,4.000000,4.000000,4.000000,4.000000,4.000000,4.000000,4.000000,4.000000,4.000000,4.000000,100.000000
1615773479.412045,52.000000,0.000000,5.440669,6.491524,364.709595,-17.797325,9.470552,8.326202,3.917219,-6.296986,-8.075781,0.015479,-21.810572,-9.454639,-18.090427,4.863726,-7.466815,42.329704,24.279633,-8.836903,20.632490,-4.153635,-6.465915,-9.706667,0.351042,26.152082,-11.749911,13.838455,-10.197149,1.771532,-3.971151,6.582318,-0.466039,246.368286,8064.000000,0.000000,4.000000,,,,0.000000,4.000000,4.000000,4.000000,4.000000,4.000000,4.000000,4.000000,4.000000,4.000000,4.000000,4.000000,4.000000,4.000000,4.000000,4.000000,4.000000,4.000000,4.000000,4.000000,4.000000,4.000000,4.000000,4.000000,4.000000,4.000000,4.000000,4.000000,4.000000,4.000000,4.000000,4.000000,4.000000,100.000000
1615773479.419794,53.000000,0.000000,4.409587,6.485033,361.780762,-19.317989,3.820057,8.830697,3.913302,-5.777868,-4.477962,-4.087101,6.416368,-8.419544,-9.867209,4.858862,-6.946527,41.261734,23.742533,-8.828066,14.970832,-4.149482,-3.382526,-10.722601,0.350691,12.279778,-19.430470,10.234873,-11.212594,0.231299,-4.480000,4.524454,2.098529,242.532166,8064.000000,0.000000,4.000000,,,,0.000000,4.000000,4.000000,4.000000,4.000000,4.000000,4.000000,4.000000,4.000000,4.000000,4.000000,4.000000,4.000000,4.000000,4.000000,4.000000,4.000000,4.000000,4.000000,4.000000,4.000000,4.000000,4.000000,4.000000,4.000000,4.000000,4.000000,4.000000,4.000000,4.000000,4.000000,4.000000,4.000000,100.000000
1615773479.427643,54.000000,0.000000,1.841075,2.888804,356.290802,-21.862774,-8.491456,8.821866,1.858107,-6.284911,-2.935022,-15.365066,14.102260,-8.923944,-5.241958,4.854003,-9.503683,23.271753,21.667507,-7.793597,16.494322,-5.170973,-4.404785,-11.224699,0.350341,17.395702,-36.334114,9.711818,-11.201381,-2.333035,-4.988340,-4.198020,1.070790,235.110153,8064.000000,0.000000,4.000000,,,,0.000000,4.000000,4.000000,4.000000,4.000000,4.000000,4.000000,4.000000,4.000000,4.000000,4.000000,4.000000,4.000000,4.000000,4.000000,4.000000,4.000000,4.000000,4.000000,4.000000,4.000000,4.000000,4.000000,4.000000,4.000000,4.000000,4.000000,4.000000,4.000000,4.000000,4.000000,4.000000,4.000000,100.000000
1615773479.435392,55.000000,0.000000,1.326414,-1.216649,356.447327,-21.840912,0.747805,8.813045,0.317787,-6.278625,0.657656,-6.631752,-6.424664,-8.402201,-7.800818,4.849149,-9.494180,15.043352,20.107378,-5.734521,25.708597,-2.601700,-3.887559,-10.187834,0.349990,27.121897,-27.067011,11.240567,-10.677360,-2.843522,-3.957711,1.447204,1.582539,234.875031,8064.000000,0.000000,4.000000,,,,0.000000,4.000000,4.000000,4.000000,4.000000,4.000000,4.000000,4.000000,4.000000,4.000000,4.000000,4.000000,4.000000,4.000000,4.000000,4.000000,4.000000,4.000000,4.000000,4.000000,4.000000,4.000000,4.000000,4.000000,4.000000,4.000000,4.000000,4.000000,4.000000,4.000000,4.000000,4.000000,4.000000,100.000000
1615773479.443241,56.000000,0.000000,2.350729,-1.215433,354.552399,-21.306250,4.336801,8.804232,0.317469,-0.118501,1.682640,-0.984094,2.299710,-4.291234,-1.126351,5.357121,-4.356480,31.951385,20.087271,-5.728787,21.067503,-0.034995,-5.422133,-9.152004,0.349640,21.966570,-21.398918,11.229326,-10.666682,-1.815038,-3.953753,5.035501,0.042495,236.178619,8064.000000,0.000000,4.000000,,,,0.000000,4.000000,4.000000,4.000000,4.000000,4.000000,4.000000,4.000000,4.000000,4.000000,4.000000,4.000000,4.000000,4.000000,4.000000,4.000000,4.000000,4.000000,4.000000,4.000000,4.000000,4.000000,4.000000,4.000000,4.000000,4.000000,4.000000,4.000000,4.000000,4.000000,4.000000,4.000000,4.000000,100.000000
1615773479.450990,57.000000,0.000000,4.399660,-0.701397,349.069641,-21.284943,-6.436767,9.308248,0.317152,4.497002,-1.395966,-11.239520,16.143564,-1.722840,8.618365,4.838943,-1.275201,39.611744,19.554363,-7.774340,7.713103,-5.675986,-15.160301,-13.758237,0.349291,19.893320,-20.864700,11.218098,-11.168836,-2.838864,-4.462620,2.979183,-2.008829,234.916809,8064.000000,0.000000,4.000000,,,,0.000000,4.000000,4.000000,4.000000,4.000000,4.000000,4.000000,4.000000,4.000000,4.000000,4.000000,4.000000,4.000000,4.000000,4.000000,4.000000,4.000000,4.000000,4.000000,4.000000,4.000000,4.000000,4.000000,4.000000,4.000000,4.000000,4.000000,4.000000,4.000000,4.000000,4.000000,4.000000,4.000000,100.000000
1615773479.458839,58.000000,0.000000,5.420901,-2.239157,350.259033,-21.263659,-7.968791,8.786119,1.342476,0.389941,2.195174,-9.689819,-7.462323,0.330165,2.968721,4.834104,-2.299567,30.854181,23.637373,-8.279387,11.295134,-6.695951,-20.786165,-12.206017,-0.163879,8.591376,-6.997681,10.694058,-10.132026,-2.323205,-2.919696,7.591588,0.557282,234.681885,8064.000000,0.000000,4.000000,,,,0.000000,4.000000,4.000000,4.000000,4.000000,4.000000,4.000000,4.000000,4.000000,4.000000,4.000000,4.000000,4.000000,4.000000,4.000000,4.000000,4.000000,4.000000,4.000000,4.000000,4.000000,4.000000,4.000000,4.000000,4.000000,4.000000,4.000000,4.000000,4.000000,4.000000,4.000000,4.000000,4.000000,100.000000
1615773479.466588,59.000000,0.000000,5.415480,-0.698456,352.985718,-21.242395,-3.858259,8.777332,5.956518,-3.200192,6.295543,2.627563,-21.813835,4.432399,-2.162452,7.393373,-2.810087,36.464352,32.331684,-8.783928,24.617172,7.669719,-14.098713,1.652343,1.374746,-4.750548,-15.195811,11.196185,-5.506509,0.756042,-0.352674,5.532715,1.069545,234.447205,8064.000000,0.000000,4.000000,,,,0.000000,4.000000,4.000000,4.000000,4.000000,4.000000,4.000000,4.000000,4.000000,4.000000,4.000000,4.000000,4.000000,4.000000,4.000000,4.000000,4.000000,4.000000,4.000000,4.000000,4.000000,4.000000,4.000000,4.000000,4.000000,4.000000,4.000000,4.000000,4.000000,4.000000,4.000000,4.000000,4.000000,100.000000
1615773479.474437,60.000000,0.000000,5.922885,-1.210578,350.581451,-21.733973,-3.854400,9.794196,8.514664,-1.658531,7.314888,3.650576,4.361825,6.992069,6.044838,8.924440,0.782466,51.299683,36.401917,-8.262323,27.669477,19.456921,-5.879487,7.291716,4.450294,17.305485,-33.129333,11.184989,-2.424079,-0.270355,0.160499,1.937439,-1.495627,234.212753,8064.000000,0.000000,4.000000,,,,0.000000,4.000000,4.000000,4.000000,4.000000,4.000000,4.000000,4.000000,4.000000,4.000000,4.000000,4.000000,4.000000,4.000000,4.000000,4.000000,4.000000,4.000000,4.000000,4.000000,4.000000,4.000000,4.000000,4.000000,4.000000,4.000000,4.000000,4.000000,4.000000,4.000000,4.000000,4.000000,4.000000,100.000000
1615773479.482186,61.000000,0.000000,4.891321,-6.337573,347.666748,-21.712238,-0.773623,7.733120,4.916406,-2.169693,7.820394,-0.968459,17.177977,6.472256,8.602896,5.838593,1.294504,51.248383,32.775772,-5.689958,25.590527,17.386183,-3.822325,-0.920704,3.420203,32.672794,-18.737230,5.532778,-3.447296,-5.398290,-0.865302,12.704732,-3.032593,234.491364,8064.000000,0.000000,4.000000,,,,0.000000,4.000000,4.000000,4.000000,4.000000,4.000000,4.000000,4.000000,4.000000,4.000000,4.000000,4.000000,4.000000,4.000000,4.000000,4.000000,4.000000,4.000000,4.000000,4.000000,4.000000,4.000000,4.000000,4.000000,4.000000,4.000000,4.000000,4.000000,4.000000,4.000000,4.000000,4.000000,4.000000,100.000000
1615773479.489835,62.000000,0.000000,2.322327,-7.356876,346.293457,-21.690527,1.278433,2.597182,0.296104,-5.757267,-0.392555,-1.480311,-6.941766,5.952963,-0.123656,0.704549,-5.886277,36.325340,27.614790,-7.735550,26.077757,12.753411,-5.356964,-3.996706,0.339860,12.127301,-9.487723,0.399040,-3.443849,-6.931353,-0.351616,14.230489,-3.029560,232.718414,8064.000000,0.000000,4.000000,,,,0.000000,4.000000,4.000000,4.000000,4.000000,4.000000,4.000000,4.000000,4.000000,4.000000,4.000000,4.000000,4.000000,4.000000,4.000000,4.000000,4.000000,4.000000,4.000000,4.000000,4.000000,4.000000,4.000000,4.000000,4.000000,4.000000,4.000000,4.000000,4.000000,4.000000,4.000000,4.000000,4.000000,100.000000
1615773479.497584,63.000000,0.000000,1.294364,-2.221314,347.998444,-21.156015,0.764334,0.543303,-0.217012,-6.264330,-7.571650,1.085272,-16.165594,3.895728,-4.226096,0.191024,-11.008596,27.571068,23.997433,-12.856020,26.564499,9.663735,-8.428530,-3.479889,-0.173300,12.115173,-24.350031,-0.114179,-2.927585,-5.385960,0.674376,1.395745,-0.975249,233.511337,8064.000000,0.000000,4.000000,,,,0.000000,4.000000,4.000000,4.000000,4.000000,4.000000,4.000000,4.000000,4.000000,4.000000,4.000000,4.000000,4.000000,4.000000,4.000000,4.000000,4.000000,4.000000,4.000000,4.000000,4.000000,4.000000,4.000000,4.000000,4.000000,4.000000,4.000000,4.000000,4.000000,4.000000,4.000000,4.000000,4.000000,100.000000
1615773479.505233,64.000000,0.000000,1.805890,-0.680631,351.752991,-19.083578,2.302031,1.568401,1.321666,-3.693963,5.256435,1.084187,6.927495,2.353371,-2.683408,4.806218,-6.382203,40.876827,23.460615,-9.253420,24.486652,7.089969,-6.368820,-6.553332,0.339693,27.487673,-22.787220,-2.165347,-3.437478,-5.893395,-0.864760,5.496914,4.666752,240.457306,0.000000,191.000000,4.000000,,,,0.000000,4.000000,4.000000,4.000000,4.000000,4.000000,4.000000,4.000000,4.000000,4.000000,4.000000,4.000000,4.000000,4.000000,4.000000,4.000000,4.000000,4.000000,4.000000,4.000000,4.000000,4.000000,4.000000,4.000000,4.000000,4.000000,4.000000,4.000000,4.000000,4.000000,4.000000,4.000000,4.000000,100.000000
1615773479.512982,65.000000,0.000000,1.804084,-1.192771,352.426880,-17.013212,0.761267,1.566832,3.371627,-1.638987,18.071692,-2.506641,15.125696,4.915120,-1.655084,8.903975,-0.734795,50.066723,24.462795,-5.654423,21.385242,7.595699,3.381139,-2.444215,0.339354,18.229416,-14.046483,6.554767,-3.434040,-6.400322,0.674567,19.850391,7.226188,244.832245,0.000000,198.000000,4.000000,,,,0.000000,4.000000,4.000000,4.000000,4.000000,4.000000,4.000000,4.000000,4.000000,4.000000,4.000000,4.000000,4.000000,4.000000,4.000000,4.000000,4.000000,4.000000,4.000000,4.000000,4.000000,4.000000,4.000000,4.000000,4.000000,4.000000,4.000000,4.000000,4.000000,4.000000,4.000000,4.000000,4.000000,100.000000
1615773479.520632,66.000000,0.000000,1.802280,3.423806,356.689850,-12.893635,8.965634,1.052445,3.881076,-2.150168,14.976697,3.136891,-4.376609,3.884564,-3.191890,8.382251,-2.785342,32.580757,22.899870,-5.648769,27.517704,7.075283,12.095707,4.224896,0.339014,20.262470,-9.417052,28.599495,-2.917786,-5.881101,8.366199,21.369003,10.295885,249.202789,0.000000,181.000000,4.000000,,,,0.000000,4.000000,4.000000,4.000000,4.000000,4.000000,4.000000,4.000000,4.000000,4.000000,4.000000,4.000000,4.000000,4.000000,4.000000,4.000000,4.000000,4.000000,4.000000,4.000000,4.000000,4.000000,4.000000,4.000000,4.000000,4.000000,4.000000,4.000000,4.000000,4.000000,4.000000,4.000000,4.000000,100.000000
1615773479.528381,67.000000,0.000000,1.800478,7.522947,368.128021,-5.701254,26.392567,1.564213,3.877195,-2.148018,13.936079,16.979908,-6.423515,1.829398,-4.727160,7.861048,-4.833839,27.419971,23.389791,5.126111,39.797878,6.555387,11.057970,4.733491,0.338675,32.037079,9.566724,30.622177,-4.966150,-5.875220,11.947577,22.886095,19.516359,260.235626,0.000000,167.000000,4.000000,,,,0.000000,4.000000,4.000000,4.000000,4.000000,4.000000,4.000000,4.000000,4.000000,4.000000,4.000000,4.000000,4.000000,4.000000,4.000000,4.000000,4.000000,4.000000,4.000000,4.000000,4.000000,4.000000,4.000000,4.000000,4.000000,4.000000,4.000000,4.000000,4.000000,4.000000,4.000000,4.000000,4.000000,100.000000
1615773479.536030,68.000000,0.000000,1.798677,5.464141,362.118866,-8.772475,21.237968,1.562649,3.873317,-1.633050,12.896502,10.296262,11.531627,2.853209,1.431413,8.878828,3.376123,56.623322,28.494606,10.249189,33.604233,8.087294,1.816143,4.728758,0.338337,14.569144,4.428952,10.078734,-7.012466,-5.869345,3.217681,22.350388,15.394278,258.949768,0.000000,201.000000,4.000000,,,,0.000000,4.000000,4.000000,4.000000,4.000000,4.000000,4.000000,4.000000,4.000000,4.000000,4.000000,4.000000,4.000000,4.000000,4.000000,4.000000,4.000000,4.000000,4.000000,4.000000,4.000000,4.000000,4.000000,4.000000,4.000000,4.000000,4.000000,4.000000,4.000000,4.000000,4.000000,4.000000,4.000000,100.000000
1615773479.543779,69.000000,0.000000,1.796879,0.843293,339.705475,-21.584215,-1.347372,0.022624,3.869444,-3.169878,1.601554,-13.303778,6.391890,1.824715,1.429982,7.331488,4.911208,59.643620,31.030214,-9.248239,14.596271,4.489462,-6.390802,4.724029,0.337998,9.939191,-27.883169,5.966092,-7.005454,-6.376296,-5.503486,4.892140,-3.082655,241.767731,0.000000,186.000000,4.000000,,,,0.000000,4.000000,4.000000,4.000000,4.000000,4.000000,4.000000,4.000000,4.000000,4.000000,4.000000,4.000000,4.000000,4.000000,4.000000,4.000000,4.000000,4.000000,4.000000,4.000000,4.000000,4.000000,4.000000,4.000000,4.000000,4.000000,4.000000,4.000000,4.000000,4.000000,4.000000,4.000000,4.000000,100.000000
1615773479.551428,70.000000,0.000000,1.795082,-2.747294,336.288849,-23.613914,-4.935768,-2.541501,3.865575,-5.730811,-3.528253,-17.905859,-12.076040,-3.305315,-12.930423,2.708772,-11.503960,27.276285,26.383801,-21.546682,6.889367,-2.181694,-7.922873,0.103921,0.337660,29.416431,-27.342466,11.601151,-6.998448,-5.857099,-3.446700,-6.907623,-5.643675,242.038788,0.000000,205.000000,4.000000,,,,0.000000,4.000000,4.000000,4.000000,4.000000,4.000000,4.000000,4.000000,4.000000,4.000000,4.000000,4.000000,4.000000,4.000000,4.000000,4.000000,4.000000,4.000000,4.000000,4.000000,4.000000,4.000000,4.000000,4.000000,4.000000,4.000000,4.000000,4.000000,4.000000,4.000000,4.000000,4.000000,4.000000,100.000000
1615773479.559177,71.000000,0.000000,1.793287,-0.693265,350.824341,-11.795428,2.761475,-1.513318,3.861709,-6.237901,0.065019,-9.170005,-3.346016,-2.789189,-13.430312,3.218884,-13.030917,30.325932,25.844595,-7.166162,7.908119,-4.743614,-7.914949,-3.485927,0.337323,17.079323,-4.238200,2.358781,-6.991449,-5.851242,1.684952,4.894156,9.233764,261.796753,0.000000,199.000000,4.000000,,,,0.000000,4.000000,4.000000,4.000000,4.000000,4.000000,4.000000,4.000000,4.000000,4.000000,4.000000,4.000000,4.000000,4.000000,4.000000,4.000000,4.000000,4.000000,4.000000,4.000000,4.000000,4.000000,4.000000,4.000000,4.000000,4.000000,4.000000,4.000000,4.000000,4.000000,4.000000,4.000000,4.000000,100.000000
1615773479.566826,72.000000,0.000000,1.791494,6.486916,356.627380,-5.629786,4.297175,1.052298,3.857847,-5.718842,2.629057,-8.135194,6.913741,1.828985,4.019015,7.318229,5.956473,56.449451,30.946957,0.533312,9.438672,-4.226050,-8.419855,-2.969620,0.336985,0.139166,-11.926270,2.356422,-6.984458,-6.358212,3.221728,15.145672,17.429659,270.252899,0.000000,198.000000,4.000000,,,,0.000000,4.000000,4.000000,4.000000,4.000000,4.000000,4.000000,4.000000,4.000000,4.000000,4.000000,4.000000,4.000000,4.000000,4.000000,4.000000,4.000000,4.000000,4.000000,4.000000,4.000000,4.000000,4.000000,4.000000,4.000000,4.000000,4.000000,4.000000,4.000000,4.000000,4.000000,4.000000,4.000000,100.000000
1615773479.574575,73.000000,0.000000,1.789702,10.070172,355.245117,-7.162618,8.908262,3.102527,3.853990,-5.713123,9.293095,-4.024494,-14.118814,2.852797,3.502176,6.798090,3.899235,42.034027,29.377548,-6.133888,16.095900,-3.709004,-5.847333,-2.966651,0.336648,17.062103,-15.504086,18.251501,-6.977474,-5.326212,5.782609,15.643347,17.412230,265.880096,0.000000,215.000000,4.000000,,,,0.000000,4.000000,4.000000,4.000000,4.000000,4.000000,4.000000,4.000000,4.000000,4.000000,4.000000,4.000000,4.000000,4.000000,4.000000,4.000000,4.000000,4.000000,4.000000,4.000000,4.000000,4.000000,4.000000,4.000000,4.000000,4.000000,4.000000,4.000000,4.000000,4.000000,4.000000,4.000000,4.000000,100.000000
1615773479.582225,74.000000,0.000000,1.787912,9.547282,357.453979,-7.155456,14.540380,4.637887,3.850136,-5.707410,10.309443,-0.430726,-22.309824,1.824303,-6.757737,4.740010,-10.463639,19.427891,27.296888,-4.076472,16.592625,-0.628372,-5.328665,-2.963684,0.336312,26.275810,-7.283454,21.822994,-6.970496,-0.705501,10.392211,18.191807,18.933277,266.639832,0.000000,202.000000,4.000000,,,,0.000000,4.000000,4.000000,4.000000,4.000000,4.000000,4.000000,4.000000,4.000000,4.000000,4.000000,4.000000,4.000000,4.000000,4.000000,4.000000,4.000000,4.000000,4.000000,4.000000,4.000000,4.000000,4.000000,4.000000,4.000000,4.000000,4.000000,4.000000,4.000000,4.000000,4.000000,4.000000,4.000000,100.000000
1615773479.589974,75.000000,0.000000,1.786124,9.537734,358.634979,-6.122659,14.013020,5.658889,3.846285,-5.701703,-2.521380,-10.173885,1.302230,2.848120,-2.135594,4.735270,-3.786509,32.228977,28.808052,-6.123678,6.319622,-0.114923,-7.374618,-2.960721,0.335975,20.608509,-27.276171,14.108863,-6.963526,1.859307,11.407460,13.558229,19.939985,268.424500,0.000000,191.000000,4.000000,,,,0.000000,4.000000,4.000000,4.000000,4.000000,4.000000,4.000000,4.000000,4.000000,4.000000,4.000000,4.000000,4.000000,4.000000,4.000000,4.000000,4.000000,4.000000,4.000000,4.000000,4.000000,4.000000,4.000000,4.000000,4.000000,4.000000,4.000000,4.000000,4.000000,4.000000,4.000000,4.000000,4.000000,100.000000
1615773479.597623,76.000000,0.000000,1.784338,10.041018,357.250702,-6.629357,13.486186,5.140410,3.842439,-5.696001,-2.006038,-13.240634,2.839389,2.845272,-1.107818,3.192073,-0.192979,38.863415,19.035654,-18.425247,4.262020,-4.217372,-8.392884,-4.496222,0.335639,29.818670,-38.530945,13.069113,-6.956562,1.344627,10.370412,4.313902,19.920046,265.591949,0.000000,197.000000,4.000000,,,,0.000000,4.000000,4.000000,4.000000,4.000000,4.000000,4.000000,4.000000,4.000000,4.000000,4.000000,4.000000,4.000000,4.000000,4.000000,4.000000,4.000000,4.000000,4.000000,4.000000,4.000000,4.000000,4.000000,4.000000,4.000000,4.000000,4.000000,4.000000,4.000000,4.000000,4.000000,4.000000,4.000000,100.000000
1615773479.605472,77.000000,0.000000,1.782554,9.518156,356.380615,-6.622728,13.985519,5.135270,3.838597,-5.690305,13.380583,-0.406881,-12.035245,2.329606,-8.286198,0.111958,-10.449196,28.055319,9.273029,-13.278616,11.950066,-2.674693,-7.358851,-6.543007,0.335304,28.250389,-10.287287,15.620146,-6.949605,1.343282,10.360042,17.642921,21.951408,267.890472,0.000000,189.000000,4.000000,,,,0.000000,4.000000,4.000000,4.000000,4.000000,4.000000,4.000000,4.000000,4.000000,4.000000,4.000000,4.000000,4.000000,4.000000,4.000000,4.000000,4.000000,4.000000,4.000000,4.000000,4.000000,4.000000,4.000000,4.000000,4.000000,4.000000,4.000000,4.000000,4.000000,4.000000,4.000000,4.000000,4.000000,100.000000
1615773479.613221,78.000000,0.000000,1.780771,9.508637,359.101166,-7.128925,13.458714,5.130135,3.834758,-5.684615,11.828741,5.747372,1.822944,2.840097,-5.713809,4.727231,-5.823362,35.206753,18.494526,4.683381,16.553501,2.969007,-7.351492,-6.536464,0.334968,5.658037,3.569154,14.066065,-6.942656,1.854760,10.349681,36.086819,25.519199,274.289246,0.000000,215.000000,4.000000,,,,0.000000,4.000000,4.000000,4.000000,4.000000,4.000000,4.000000,4.000000,4.000000,4.000000,4.000000,4.000000,4.000000,4.000000,4.000000,4.000000,4.000000,4.000000,4.000000,4.000000,4.000000,4.000000,4.000000,4.000000,4.000000,4.000000,4.000000,4.000000,4.000000,4.000000,4.000000,4.000000,4.000000,100.000000
1615773479.621070,79.000000,0.000000,1.778991,9.499129,362.844635,-7.121797,13.445255,5.125004,3.830923,-5.166110,2.073323,2.664702,8.487787,2.324436,-3.143992,9.850709,4.951692,45.427956,29.245262,4.165877,16.024126,1.427577,-8.882602,-6.529928,0.334633,-0.501467,-12.331851,13.026358,-7.448534,1.340084,10.339332,21.178936,26.519321,277.091888,0.000000,205.000000,4.000000,,,,0.000000,4.000000,4.000000,4.000000,4.000000,4.000000,4.000000,4.000000,4.000000,4.000000,4.000000,4.000000,4.000000,4.000000,4.000000,4.000000,4.000000,4.000000,4.000000,4.000000,4.000000,4.000000,4.000000,4.000000,4.000000,4.000000,4.000000,4.000000,4.000000,4.000000,4.000000,4.000000,4.000000,100.000000
1615773479.628819,80.000000,0.000000,1.777212,9.489630,362.994598,-6.601854,13.431809,5.119879,3.827092,-7.212225,4.635352,4.200499,-16.136086,-1.780452,-11.345976,3.687012,-4.284029,34.613297,24.087811,-10.197264,12.418359,-3.702056,-10.925001,-6.523398,0.334299,9.242624,-17.960545,13.526152,-6.928265,1.338744,10.328992,4.747500,25.979982,275.789154,0.000000,185.000000,4.000000,,,,0.000000,4.000000,4.000000,4.000000,4.000000,4.000000,4.000000,4.000000,4.000000,4.000000,4.000000,4.000000,4.000000,4.000000,4.000000,4.000000,4.000000,4.000000,4.000000,4.000000,4.000000,4.000000,4.000000,4.000000,4.000000,4.000000,4.000000,4.000000,4.000000,4.000000,4.000000,4.000000,4.000000,100.000000
1615773479.636668,81.000000,0.000000,1.775434,9.480140,362.118805,-7.108073,13.418378,5.114759,3.823265,-9.256295,5.656357,0.606555,-12.017385,-5.368416,-13.385912,-5.547444,-13.510514,23.809452,18.935518,-13.263989,8.816196,-4.211174,-11.939717,-6.516874,0.333965,12.823125,-9.737456,14.538266,-6.408516,1.337405,10.318664,21.665829,26.979643,275.513367,0.000000,200.000000,4.000000,,,,0.000000,4.000000,4.000000,4.000000,4.000000,4.000000,4.000000,4.000000,4.000000,4.000000,4.000000,4.000000,4.000000,4.000000,4.000000,4.000000,4.000000,4.000000,4.000000,4.000000,4.000000,4.000000,4.000000,4.000000,4.000000,4.000000,4.000000,4.000000,4.000000,4.000000,4.000000,4.000000,4.000000,100.000000
1615773479.644417,82.000000,0.000000,1.773659,9.470660,361.756683,-7.100965,13.404960,5.109644,3.819442,-9.247039,-0.503145,-11.701744,12.097197,-4.850227,-9.782783,-7.080359,-10.420080,23.785643,20.455044,-10.173802,8.294559,-3.181322,-11.414957,-6.510357,0.333631,11.784660,-9.727718,12.472446,-7.427749,1.336068,10.308345,29.849293,25.927023,276.263489,0.000000,221.000000,4.000000,,,,0.000000,4.000000,4.000000,4.000000,4.000000,4.000000,4.000000,4.000000,4.000000,4.000000,4.000000,4.000000,4.000000,4.000000,4.000000,4.000000,4.000000,4.000000,4.000000,4.000000,4.000000,4.000000,4.000000,4.000000,4.000000,4.000000,4.000000,4.000000,4.000000,4.000000,4.000000,4.000000,4.000000,100.000000
1615773479.652266,83.000000,0.000000,1.771885,9.461189,361.394928,-5.042582,13.391555,5.104535,3.302802,-10.263433,-1.015462,-15.279786,1.828689,-4.845376,-11.311461,-5.534817,-10.922481,20.172113,19.921768,-12.214911,8.286265,-3.690961,-11.916363,-5.991026,0.846117,10.234414,-17.923119,8.870230,-5.881859,1.334732,9.785215,14.947648,25.388275,273.935944,0.000000,192.000000,4.000000,,,,0.000000,4.000000,4.000000,4.000000,4.000000,4.000000,4.000000,4.000000,4.000000,4.000000,4.000000,4.000000,4.000000,4.000000,4.000000,4.000000,4.000000,4.000000,4.000000,4.000000,4.000000,4.000000,4.000000,4.000000,4.000000,4.000000,4.000000,4.000000,4.000000,4.000000,4.000000,4.000000,4.000000,100.000000
1615773479.660015,84.000000,0.000000,1.770113,9.451728,362.571991,-2.986257,13.378163,5.099431,4.325140,-8.714708,3.088117,-9.110661,-3.814165,-5.353352,-5.146304,-6.554923,-5.783353,22.716043,19.901848,-12.715516,7.765159,-4.200091,-11.391626,-3.420933,0.332451,14.839564,-22.007759,15.528027,-0.747772,1.333397,10.801071,18.009623,31.003912,276.226105,0.000000,195.000000,4.000000,,,,0.000000,4.000000,4.000000,4.000000,4.000000,4.000000,4.000000,4.000000,4.000000,4.000000,4.000000,4.000000,4.000000,4.000000,4.000000,4.000000,4.000000,4.000000,4.000000,4.000000,4.000000,4.000000,4.000000,4.000000,4.000000,4.000000,4.000000,4.000000,4.000000,4.000000,4.000000,4.000000,4.000000,100.000000
1615773479.667864,85.000000,0.000000,1.768343,9.442276,364.773499,-2.983271,13.364785,5.094331,6.884918,-5.116250,3.597850,-6.537447,15.164008,-3.809537,0.499868,-6.548368,7.555763,38.590763,20.394766,-7.574595,12.885598,-3.683070,-8.816132,-1.366230,-0.180702,30.722160,-15.831906,24.743267,1.304258,1.332064,10.790271,31.324947,36.613934,283.642181,0.000000,186.000000,4.000000,,,,0.000000,4.000000,4.000000,4.000000,4.000000,4.000000,4.000000,4.000000,4.000000,4.000000,4.000000,4.000000,4.000000,4.000000,4.000000,4.000000,4.000000,4.000000,4.000000,4.000000,4.000000,4.000000,4.000000,4.000000,4.000000,4.000000,4.000000,4.000000,4.000000,4.000000,4.000000,4.000000,4.000000,100.000000
1615773479.675613,86.000000,0.000000,1.766575,9.432835,364.921570,-2.980288,13.351420,4.576416,7.903674,-9.726519,2.568611,-6.530910,-0.235771,-6.369830,-13.859607,-6.028999,1.907182,41.629097,15.758986,-3.464457,19.026560,-3.679387,-7.268854,-4.441787,-2.744624,33.255543,-6.072484,23.692883,-1.773970,1.330732,7.702557,25.139776,35.038857,283.871368,0.000000,215.000000,4.000000,,,,0.000000,4.000000,4.000000,4.000000,4.000000,4.000000,4.000000,4.000000,4.000000,4.000000,4.000000,4.000000,4.000000,4.000000,4.000000,4.000000,4.000000,4.000000,4.000000,4.000000,4.000000,4.000000,4.000000,4.000000,4.000000,4.000000,4.000000,4.000000,4.000000,4.000000,4.000000,4.000000,4.000000,100.000000
1615773479.683462,87.000000,0.000000,1.764808,9.423401,363.531006,-2.977307,13.338069,5.084660,7.382950,-14.332176,3.078863,-3.960276,-23.825279,-12.004485,-25.640619,-6.022970,-14.504982,26.715672,12.153483,-5.512274,19.520353,-3.675708,-7.261585,-9.052730,-7.357264,9.632543,-0.425386,21.617908,-3.310657,1.329401,8.720495,15.883867,35.003819,278.972107,0.000000,224.000000,4.000000,,,,0.000000,4.000000,4.000000,4.000000,4.000000,4.000000,4.000000,4.000000,4.000000,4.000000,4.000000,4.000000,4.000000,4.000000,4.000000,4.000000,4.000000,4.000000,4.000000,4.000000,4.000000,4.000000,4.000000,4.000000,4.000000,4.000000,4.000000,4.000000,4.000000,4.000000,4.000000,4.000000,4.000000,100.000000
1615773479.691211,88.000000,0.000000,2.275864,9.413978,364.193115,-2.461510,13.837551,7.130857,7.888387,-5.599895,3.075784,-2.930675,-1.237351,-9.428378,-14.332927,-5.504127,-11.926374,26.688957,15.218253,-7.558044,16.423910,-3.159212,-7.767144,-10.069318,-10.426830,-3.710424,-4.527525,21.596291,-2.794526,1.328072,13.327160,15.867983,37.020096,277.667511,0.000000,168.000000,4.000000,,,,0.000000,4.000000,4.000000,4.000000,4.000000,4.000000,4.000000,4.000000,4.000000,4.000000,4.000000,4.000000,4.000000,4.000000,4.000000,4.000000,4.000000,4.000000,4.000000,4.000000,4.000000,4.000000,4.000000,4.000000,4.000000,4.000000,4.000000,4.000000,4.000000,4.000000,4.000000,4.000000,4.000000,100.000000
1615773479.699060,89.000000,0.000000,1.760768,9.404564,364.341736,-2.971869,11.772431,9.175009,7.367678,-3.543014,3.072708,-7.030308,9.020296,-4.803566,-3.549363,-5.498622,-4.734961,39.482780,16.741497,-9.088947,10.253639,-3.668873,-9.297838,-11.084889,-10.929223,11.165082,-15.805049,12.856746,-3.304552,1.326744,10.749730,13.800833,33.906155,276.877014,0.000000,204.000000,4.000000,,,,0.000000,4.000000,4.000000,4.000000,4.000000,4.000000,4.000000,4.000000,4.000000,4.000000,4.000000,4.000000,4.000000,4.000000,4.000000,4.000000,4.000000,4.000000,4.000000,4.000000,4.000000,4.000000,4.000000,4.000000,4.000000,4.000000,4.000000,4.000000,4.000000,4.000000,4.000000,4.000000,4.000000,100.000000
1615773479.706809,90.000000,0.000000,-0.292275,9.395160,360.387665,-2.968897,9.709377,8.653013,4.796208,-17.898445,3.069635,-10.613022,-10.475904,-10.439788,-7.135557,-6.005944,-10.371251,34.827911,11.083730,-14.720884,5.115180,-5.203666,-11.339823,-15.689190,-10.405474,21.410326,-16.302065,6.690042,-3.301248,1.325417,6.123596,16.351135,29.769684,274.036041,0.000000,198.000000,4.000000,,,,0.000000,4.000000,4.000000,4.000000,4.000000,4.000000,4.000000,4.000000,4.000000,4.000000,4.000000,4.000000,4.000000,4.000000,4.000000,4.000000,4.000000,4.000000,4.000000,4.000000,4.000000,4.000000,4.000000,4.000000,4.000000,4.000000,4.000000,4.000000,4.000000,4.000000,4.000000,4.000000,4.000000,100.000000
1615773479.714558,91.000000,0.000000,-2.343265,9.385764,356.437531,-2.453107,9.699668,8.644361,3.252950,-17.880547,3.066566,-11.628050,0.303803,-11.454988,-10.205344,-5.999938,-14.976265,19.408470,8.508543,-19.321548,4.084424,-7.249744,-11.328483,-17.211962,-10.395068,11.132506,-10.644736,10.273096,-2.785126,1.324091,7.143113,21.462988,28.201452,273.761993,0.000000,180.000000,4.000000,,,,0.000000,4.000000,4.000000,4.000000,4.000000,4.000000,4.000000,4.000000,4.000000,4.000000,4.000000,4.000000,4.000000,4.000000,4.000000,4.000000,4.000000,4.000000,4.000000,4.000000,4.000000,4.000000,4.000000,4.000000,4.000000,4.000000,4.000000,4.000000,4.000000,4.000000,4.000000,4.000000,4.000000,100.000000
1615773479.722307,92.000000,0.000000,-1.828101,9.889199,352.491333,-3.476295,7.125865,8.635716,4.275338,-5.554974,3.063499,-11.616422,10.047090,-4.264047,-9.169498,-4.968297,-12.910007,16.312138,11.576958,-19.302227,4.080340,-7.242494,-11.317155,-14.117826,-10.384673,6.505989,-26.531528,7.185900,-2.782341,1.322767,4.059047,13.236398,22.532227,269.385681,0.000000,196.000000,4.000000,,,,0.000000,4.000000,4.000000,4.000000,4.000000,4.000000,4.000000,4.000000,4.000000,4.000000,4.000000,4.000000,4.000000,4.000000,4.000000,4.000000,4.000000,4.000000,4.000000,4.000000,4.000000,4.000000,4.000000,4.000000,4.000000,4.000000,4.000000,4.000000,4.000000,4.000000,4.000000,4.000000,4.000000,100.000000
1615773479.729957,93.000000,0.000000,-1.313452,8.340848,345.472168,-6.036922,3.016176,8.627080,2.732601,-10.677624,3.060436,-9.553523,-19.706547,-9.387988,-11.724431,-8.553073,-12.384275,12.706082,13.103843,-18.770103,4.076260,-7.235252,-11.305838,-13.590888,-10.374289,14.191791,-43.428074,3.588971,-3.292379,1.321445,-3.637320,5.530853,17.894310,259.885529,0.000000,190.000000,4.000000,,,,0.000000,4.000000,4.000000,4.000000,4.000000,4.000000,4.000000,4.000000,4.000000,4.000000,4.000000,4.000000,4.000000,4.000000,4.000000,4.000000,4.000000,4.000000,4.000000,4.000000,4.000000,4.000000,4.000000,4.000000,4.000000,4.000000,4.000000,4.000000,4.000000,4.000000,4.000000,4.000000,4.000000,100.000000
1615773479.737706,94.000000,0.000000,-3.363421,5.768405,339.485687,-9.620628,1.474698,8.618453,0.165766,-21.436176,3.057375,-12.620893,-23.789406,-20.147831,-13.763988,-15.211186,-12.884712,9.616453,12.065098,-19.264154,4.585004,-7.228016,-11.294532,-14.090118,-10.363914,14.177599,-34.153877,12.816151,-2.263445,1.320123,-5.684965,4.499681,17.876415,256.548706,0.000000,187.000000,4.000000,,,,0.000000,4.000000,4.000000,4.000000,4.000000,4.000000,4.000000,4.000000,4.000000,4.000000,4.000000,4.000000,4.000000,4.000000,4.000000,4.000000,4.000000,4.000000,4.000000,4.000000,4.000000,4.000000,4.000000,4.000000,4.000000,4.000000,4.000000,4.000000,4.000000,4.000000,4.000000,4.000000,4.000000,100.000000
1615773479.745355,95.000000,0.000000,-5.411340,5.249816,338.633362,-11.149469,1.986044,8.609835,-0.347220,-18.337818,3.054318,-19.787758,2.901051,-14.999477,-13.237405,-16.221617,-12.871827,23.965811,12.053032,-19.244890,0.477855,-7.733609,-11.283237,-13.050387,-10.353550,11.599319,-22.324850,21.008463,-3.799644,1.318803,-5.166459,-1.145844,18.371359,257.317810,0.000000,187.000000,4.000000,,,,0.000000,4.000000,4.000000,4.000000,4.000000,4.000000,4.000000,4.000000,4.000000,4.000000,4.000000,4.000000,4.000000,4.000000,4.000000,4.000000,4.000000,4.000000,4.000000,4.000000,4.000000,4.000000,4.000000,4.000000,4.000000,4.000000,4.000000,4.000000,4.000000,4.000000,4.000000,4.000000,4.000000,100.000000
1615773479.753104,96.000000,0.000000,-5.918749,5.757387,339.320374,-10.625499,3.522519,8.601225,0.165948,-16.781017,3.051264,-13.614125,-3.255696,-7.804991,-13.224167,-13.128471,-12.858955,34.711075,13.066620,-18.712824,-2.599546,-10.289978,-11.271954,-15.601439,-10.343197,13.126181,-19.738422,17.910532,-11.488152,1.317484,-3.622831,2.445046,18.352987,257.573303,8064.000000,0.000000,4.000000,,,,0.000000,4.000000,4.000000,4.000000,4.000000,4.000000,4.000000,4.000000,4.000000,4.000000,4.000000,4.000000,4.000000,4.000000,4.000000,4.000000,4.000000,4.000000,4.000000,4.000000,4.000000,4.000000,4.000000,4.000000,4.000000,4.000000,4.000000,4.000000,4.000000,4.000000,4.000000,4.000000,4.000000,100.000000
1615773479.760753,97.000000,0.000000,-5.400010,6.264450,338.981049,-9.076412,6.083099,8.592624,0.165782,-19.841160,3.048212,-3.856921,-14.021671,-11.386930,-13.210943,-12.602523,-12.846097,23.907135,12.540733,-16.642830,5.608181,-10.792508,-10.235041,-17.637119,-9.820033,4.907927,-12.539197,6.610569,-18.656151,1.828987,-4.132029,17.314396,18.847456,259.879822,8064.000000,0.000000,4.000000,,,,0.000000,4.000000,4.000000,4.000000,4.000000,4.000000,4.000000,4.000000,4.000000,4.000000,4.000000,4.000000,4.000000,4.000000,4.000000,4.000000,4.000000,4.000000,4.000000,4.000000,4.000000,4.000000,4.000000,4.000000,4.000000,4.000000,4.000000,4.000000,4.000000,4.000000,4.000000,4.000000,4.000000,100.000000
1615773479.768502,98.000000,0.000000,-5.394609,5.232544,338.129272,-11.118618,6.589837,8.584031,0.165616,-15.718755,3.045164,-12.058192,4.453889,-12.401184,-11.146450,-13.615561,-12.833250,15.678099,12.528193,-15.087726,14.833343,-7.704793,-7.660703,-13.004098,-9.810213,-3.814930,-15.603581,-0.575528,-17.611853,1.314338,-5.666358,18.322721,18.315786,260.645599,8064.000000,0.000000,4.000000,,,,0.000000,4.000000,4.000000,4.000000,4.000000,4.000000,4.000000,4.000000,4.000000,4.000000,4.000000,4.000000,4.000000,4.000000,4.000000,4.000000,4.000000,4.000000,4.000000,4.000000,4.000000,4.000000,4.000000,4.000000,4.000000,4.000000,4.000000,4.000000,4.000000,4.000000,4.000000,4.000000,4.000000,100.000000
1615773479.776151,99.000000,0.000000,-5.902035,6.252953,337.791138,-9.569037,6.070426,8.575447,0.165450,-12.113293,3.042119,-17.174339,-3.755693,-8.286219,-9.084022,-13.601946,-12.820417,18.226522,12.515664,-16.098278,16.869791,-4.107345,-7.140222,-6.324427,-10.313224,14.137603,-22.254644,15.835303,-12.466037,1.313023,3.570077,13.689014,19.835934,259.359314,8064.000000,0.000000,4.000000,,,,0.000000,4.000000,4.000000,4.000000,4.000000,4.000000,4.000000,4.000000,4.000000,4.000000,4.000000,4.000000,4.000000,4.000000,4.000000,4.000000,4.000000,4.000000,4.000000,4.000000,4.000000,4.000000,4.000000,4.000000,4.000000,4.000000,4.000000,4.000000,4.000000,4.000000,4.000000,4.000000,4.000000,100.000000
1615773479.783901,100.000000,0.000000,-5.896133,9.323623,338.991791,-0.841520,7.089997,8.566872,0.165285,-13.639641,3.039077,-4.336652,-32.469887,-9.816394,-9.587758,-13.075523,-12.807597,20.259579,13.015969,-14.543719,15.827281,-2.051955,-7.133081,-4.779641,-9.790090,30.533722,-12.488800,32.229725,-9.889468,1.824531,16.899841,18.290710,23.405840,262.176880,8064.000000,0.000000,4.000000,,,,0.000000,4.000000,4.000000,4.000000,4.000000,4.000000,4.000000,4.000000,4.000000,4.000000,4.000000,4.000000,4.000000,4.000000,4.000000,4.000000,4.000000,4.000000,4.000000,4.000000,4.000000,4.000000,4.000000,4.000000,4.000000,4.000000,4.000000,4.000000,4.000000,4.000000,4.000000,4.000000,4.000000,100.000000
1615773479.791550,101.000000,0.000000,-4.864596,7.263017,336.601532,-0.840678,2.467522,8.558305,0.165120,-11.574719,3.036038,-8.434879,-19.616903,-11.857860,-9.065350,-11.523986,-12.281969,21.777781,10.951671,-14.016355,10.170427,-5.126826,-9.177231,-8.877426,-9.780299,15.631393,-12.476311,11.171854,-10.905219,-0.741396,11.754735,14.169855,21.331152,256.273682,8064.000000,0.000000,4.000000,,,,0.000000,4.000000,4.000000,4.000000,4.000000,4.000000,4.000000,4.000000,4.000000,4.000000,4.000000,4.000000,4.000000,4.000000,4.000000,4.000000,4.000000,4.000000,4.000000,4.000000,4.000000,4.000000,4.000000,4.000000,4.000000,4.000000,4.000000,4.000000,4.000000,4.000000,4.000000,4.000000,4.000000,100.000000
1615773479.799299,102.000000,0.000000,-6.398193,0.589087,327.546967,-14.173171,-6.252894,8.549747,0.164955,-12.588785,3.033002,-29.452085,0.402713,-11.333181,-8.543464,-15.615026,-11.756866,18.166260,8.889438,-23.233107,1.955129,-11.788366,-13.783438,-12.971112,-11.821801,-0.281674,-31.438194,-7.813677,-12.945597,-5.356040,-2.615994,1.847993,13.617514,238.581497,8064.000000,0.000000,4.000000,,,,0.000000,4.000000,4.000000,4.000000,4.000000,4.000000,4.000000,4.000000,4.000000,4.000000,4.000000,4.000000,4.000000,4.000000,4.000000,4.000000,4.000000,4.000000,4.000000,4.000000,4.000000,4.000000,4.000000,4.000000,4.000000,4.000000,4.000000,4.000000,4.000000,4.000000,4.000000,4.000000,4.000000,100.000000
1615773479.806948,103.000000,0.000000,-9.981539,-4.026886,321.065582,-22.876947,-9.323565,8.541197,0.164790,-20.268505,3.029969,-26.858532,-16.007946,-12.860310,-10.586203,-18.163513,-13.283571,10.968606,8.367727,-23.209875,-0.098108,-14.853500,-18.385038,-13.470962,-13.861261,1.769890,-38.073421,11.681316,-13.958292,-6.376325,-2.100557,0.307684,11.552614,234.240356,8448.000000,0.000000,4.000000,,,,0.000000,4.000000,4.000000,4.000000,4.000000,4.000000,4.000000,4.000000,4.000000,4.000000,4.000000,4.000000,4.000000,4.000000,4.000000,4.000000,4.000000,4.000000,4.000000,4.000000,4.000000,4.000000,4.000000,4.000000,4.000000,4.000000,4.000000,4.000000,4.000000,4.000000,4.000000,4.000000,4.000000,100.000000
1615773479.814697,104.000000,0.000000,-5.868993,0.079705,321.257355,-21.315607,-8.288600,8.532656,0.164625,-14.607210,3.026939,-14.011160,-15.991938,-10.283346,-7.498693,-6.863299,-10.193364,26.342253,8.872180,-7.289228,1.440452,-11.761724,-18.879475,-12.944671,-13.847401,4.845043,-37.522530,22.951687,-13.431513,-5.344307,4.568210,1.845838,15.130805,248.877899,8064.000000,0.000000,4.000000,,,,0.000000,4.000000,4.000000,4.000000,4.000000,4.000000,4.000000,4.000000,4.000000,4.000000,4.000000,4.000000,4.000000,4.000000,4.000000,4.000000,4.000000,4.000000,4.000000,4.000000,4.000000,4.000000,4.000000,4.000000,4.000000,4.000000,4.000000,4.000000,4.000000,4.000000,4.000000,4.000000,4.000000,100.000000
1615773479.822346,105.000000,0.000000,1.316363,7.771933,321.961731,-20.268652,-8.280311,8.524123,0.677281,2.843294,3.023912,-16.048431,11.716362,-2.067935,-1.850169,2.374334,-4.542145,49.905655,9.376128,-0.102452,0.413370,-10.211501,-18.347775,-12.931726,-13.320732,6.891480,-38.510647,5.492837,-13.418081,-5.338963,3.025180,2.356812,15.628495,257.346985,8064.000000,0.000000,4.000000,,,,0.000000,4.000000,4.000000,4.000000,4.000000,4.000000,4.000000,4.000000,4.000000,4.000000,4.000000,4.000000,4.000000,4.000000,4.000000,4.000000,4.000000,4.000000,4.000000,4.000000,4.000000,4.000000,4.000000,4.000000,4.000000,4.000000,4.000000,4.000000,4.000000,4.000000,4.000000,4.000000,4.000000,100.000000
1615773479.830095,106.000000,0.000000,0.289406,8.789802,321.126953,-21.786844,-8.784851,8.515598,0.163783,0.276349,3.020888,-16.032383,1.448235,-3.604328,-9.027805,-9.422913,-9.665808,33.445492,8.853932,-10.358760,0.412957,-11.226931,-18.842247,-14.457255,-14.333053,1.243563,-24.625982,-0.153681,-14.430305,-6.359265,1.483694,9.533943,14.074405,254.012711,8064.000000,0.000000,4.000000,,,,0.000000,4.000000,4.000000,4.000000,4.000000,4.000000,4.000000,4.000000,4.000000,4.000000,4.000000,4.000000,4.000000,4.000000,4.000000,4.000000,4.000000,4.000000,4.000000,4.000000,4.000000,4.000000,4.000000,4.000000,4.000000,4.000000,4.000000,4.000000,4.000000,4.000000,4.000000,4.000000,4.000000,100.000000
1615773479.837745,107.000000,0.000000,-5.351909,4.165627,319.780182,-23.303518,-9.288887,8.507083,-0.349201,-17.159824,2.505046,-8.836863,-29.835264,-12.318673,-23.377752,-21.721182,-21.963835,3.155636,7.306616,-18.040709,0.412544,-11.728524,-19.336226,-13.929977,-13.805899,-9.014091,-17.934689,7.025959,-14.928695,-6.865726,2.507851,14.139793,14.060330,252.733047,8064.000000,0.000000,4.000000,,,,0.000000,4.000000,4.000000,4.000000,4.000000,4.000000,4.000000,4.000000,4.000000,4.000000,4.000000,4.000000,4.000000,4.000000,4.000000,4.000000,4.000000,4.000000,4.000000,4.000000,4.000000,4.000000,4.000000,4.000000,4.000000,4.000000,4.000000,4.000000,4.000000,4.000000,4.000000,4.000000,4.000000,100.000000
1615773479.845594,108.000000,0.000000,-5.346557,6.212744,319.460388,-19.690472,-8.766777,7.985755,0.676789,-21.245230,1.989721,-7.289564,-15.959275,-9.229431,-24.380016,-18.622538,-21.941872,14.947352,9.350592,-13.407284,0.412131,-10.691154,-18.804070,-12.890407,-13.792093,7.405180,-28.685986,8.044575,-13.375304,-5.320399,3.018164,17.202578,14.046270,256.070068,8064.000000,0.000000,4.000000,,,,0.000000,4.000000,4.000000,4.000000,4.000000,4.000000,4.000000,4.000000,4.000000,4.000000,4.000000,4.000000,4.000000,4.000000,4.000000,4.000000,4.000000,4.000000,4.000000,4.000000,4.000000,4.000000,4.000000,4.000000,4.000000,4.000000,4.000000,4.000000,4.000000,4.000000,4.000000,4.000000,4.000000,100.000000
1615773479.853343,109.000000,0.000000,-7.905313,5.180890,325.294769,-11.465653,-7.732369,8.490590,0.163292,-17.634241,4.039013,-9.846377,6.107966,-8.194561,-17.176147,-16.552633,-14.740442,39.547791,9.341241,-12.368236,1.950181,-12.218925,-18.272444,-18.005722,-18.393686,27.910595,-27.118837,5.472427,-15.413211,-7.879181,3.015146,18.211016,15.057865,258.378082,8064.000000,0.000000,4.000000,,,,0.000000,4.000000,4.000000,4.000000,4.000000,4.000000,4.000000,4.000000,4.000000,4.000000,4.000000,4.000000,4.000000,4.000000,4.000000,4.000000,4.000000,4.000000,4.000000,4.000000,4.000000,4.000000,4.000000,4.000000,4.000000,4.000000,4.000000,4.000000,4.000000,4.000000,4.000000,4.000000,4.000000,100.000000
1615773479.861192,110.000000,0.000000,-11.999972,-5.080701,328.559235,-11.454187,-10.288740,8.994920,-3.939436,-21.206350,1.983692,-19.580120,-12.872500,-17.417135,-17.158972,-21.151464,-17.289804,31.815935,0.613951,-24.150740,-0.103052,-15.796450,-19.792633,-25.167202,-22.477856,4.805761,-26.066078,2.902853,-21.551643,-14.537969,1.986489,1.269727,13.504346,256.581268,8064.000000,0.000000,4.000000,,,,0.000000,4.000000,4.000000,4.000000,4.000000,4.000000,4.000000,4.000000,4.000000,4.000000,4.000000,4.000000,4.000000,4.000000,4.000000,4.000000,4.000000,4.000000,4.000000,4.000000,4.000000,4.000000,4.000000,4.000000,4.000000,4.000000,4.000000,4.000000,4.000000,4.000000,4.000000,4.000000,4.000000,100.000000
1615773479.868941,111.000000,0.000000,-8.911049,-3.024338,324.640930,-12.468374,-11.304092,7.447464,-6.499599,-19.133862,-3.146497,-25.201567,-22.603218,-16.374077,-17.654634,-20.104673,-17.272514,14.861041,0.100517,-28.229153,0.409872,-11.678089,-16.695917,-16.936907,-18.352814,-17.250326,-39.886166,7.515335,-16.914707,-10.420866,4.035785,-14.116158,16.054943,257.350311,8064.000000,0.000000,4.000000,,,,0.000000,4.000000,4.000000,4.000000,4.000000,4.000000,4.000000,4.000000,4.000000,4.000000,4.000000,4.000000,4.000000,4.000000,4.000000,4.000000,4.000000,4.000000,4.000000,4.000000,4.000000,4.000000,4.000000,4.000000,4.000000,4.000000,4.000000,4.000000,4.000000,4.000000,4.000000,4.000000,4.000000,100.000000
1615773479.876790,112.000000,0.000000,-4.799574,15.440225,335.598328,-0.661034,-0.010737,10.004119,-3.928997,-5.268574,7.625881,-8.253287,-0.016512,-2.511549,-12.508774,-11.366619,-2.383447,22.538488,14.459391,-10.765026,12.204334,2.179743,-6.422812,-2.048176,-9.103692,5.331026,-31.128330,18.789871,-2.538819,4.461349,11.211236,6.410779,30.397863,271.964752,8064.000000,0.000000,4.000000,,,,0.000000,4.000000,4.000000,4.000000,4.000000,4.000000,4.000000,4.000000,4.000000,4.000000,4.000000,4.000000,4.000000,4.000000,4.000000,4.000000,4.000000,4.000000,4.000000,4.000000,4.000000,4.000000,4.000000,4.000000,4.000000,4.000000,4.000000,4.000000,4.000000,4.000000,4.000000,4.000000,4.000000,100.000000
1615773479.884539,113.000000,0.000000,-5.307595,26.194016,358.339661,11.647319,13.835428,18.199244,-2.899427,-0.647921,24.028511,8.165222,-5.144701,0.567885,-10.444983,-5.714227,5.824065,35.336464,19.573137,-6.138876,20.397257,8.331409,0.763098,1.030796,-7.043306,23.787233,-5.456177,16.206978,1.053464,10.610734,13.251307,28.455650,43.700798,288.103058,8064.000000,0.000000,4.000000,,,,0.000000,4.000000,4.000000,4.000000,4.000000,4.000000,4.000000,4.000000,4.000000,4.000000,4.000000,4.000000,4.000000,4.000000,4.000000,4.000000,4.000000,4.000000,4.000000,4.000000,4.000000,4.000000,4.000000,4.000000,4.000000,4.000000,4.000000,4.000000,4.000000,4.000000,4.000000,4.000000,4.000000,100.000000
1615773479.892388,114.000000,0.000000,-5.302287,23.603718,360.545410,13.174133,10.744669,20.232327,-3.922168,-9.365222,17.850636,0.977570,-28.729300,-4.560888,-12.485820,-6.734154,-2.899708,30.685741,13.912538,-19.978891,10.120450,3.707693,0.249515,-3.072799,-10.113186,11.968575,-5.450721,11.575386,-5.614256,6.497559,10.161133,19.709246,45.195560,289.353424,8064.000000,0.000000,4.000000,,,,0.000000,4.000000,4.000000,4.000000,4.000000,4.000000,4.000000,4.000000,4.000000,4.000000,4.000000,4.000000,4.000000,4.000000,4.000000,4.000000,4.000000,4.000000,4.000000,4.000000,4.000000,4.000000,4.000000,4.000000,4.000000,4.000000,4.000000,4.000000,4.000000,4.000000,4.000000,4.000000,4.000000,100.000000
1615773479.900137,115.000000,0.000000,-5.296985,23.067295,344.800262,10.084036,-2.599409,13.032606,-3.405426,-12.945600,6.037914,-7.741356,-12.290314,-4.556327,-10.934873,-9.291522,-3.922449,28.090954,18.001188,-14.830707,4.982125,0.114242,-0.263555,-2.044086,-10.103073,4.777119,-14.163218,16.179195,-7.147104,4.952600,10.663792,11.997229,43.099083,285.987122,8064.000000,0.000000,4.000000,,,,0.000000,4.000000,4.000000,4.000000,4.000000,4.000000,4.000000,4.000000,4.000000,4.000000,4.000000,4.000000,4.000000,4.000000,4.000000,4.000000,4.000000,4.000000,4.000000,4.000000,4.000000,4.000000,4.000000,4.000000,4.000000,4.000000,4.000000,4.000000,4.000000,4.000000,4.000000,4.000000,4.000000,100.000000
1615773479.907986,116.000000,0.000000,-4.266047,25.095509,338.301605,9.048311,-5.673732,7.891368,-3.402020,-8.317269,9.108799,-7.220795,8.234797,-3.526129,-5.282912,-8.256590,-0.328783,28.062862,23.624214,-4.046646,14.720733,0.626948,-1.288933,-1.016400,-7.016047,8.362085,-15.174697,10.521991,-5.601495,5.973289,10.140307,15.574975,44.081623,284.162689,8192.000000,0.000000,4.000000,,,,0.000000,4.000000,4.000000,4.000000,4.000000,4.000000,4.000000,4.000000,4.000000,4.000000,4.000000,4.000000,4.000000,4.000000,4.000000,4.000000,4.000000,4.000000,4.000000,4.000000,4.000000,4.000000,4.000000,4.000000,4.000000,4.000000,4.000000,4.000000,4.000000,4.000000,4.000000,4.000000,4.000000,100.000000
1615773479.915735,117.000000,0.000000,-2.210499,24.557592,340.527405,8.013621,-3.616776,8.396297,-3.398618,-9.334594,8.074049,-16.444344,-7.158053,-4.548244,-6.303270,-9.273973,-13.661788,15.727107,18.472383,-16.350290,10.090627,0.113501,-5.903028,-4.605127,-5.983390,8.866544,-22.339008,9.485827,-6.621534,5.454495,3.976321,8.892734,44.037540,276.699036,8064.000000,0.000000,4.000000,,,,0.000000,4.000000,4.000000,4.000000,4.000000,4.000000,4.000000,4.000000,4.000000,4.000000,4.000000,4.000000,4.000000,4.000000,4.000000,4.000000,4.000000,4.000000,4.000000,4.000000,4.000000,4.000000,4.000000,4.000000,4.000000,4.000000,4.000000,4.000000,4.000000,4.000000,4.000000,4.000000,4.000000,100.000000
1615773479.923584,118.000000,0.000000,-3.233929,23.507395,339.674072,7.492788,-6.177262,8.387901,-3.395220,-12.402182,-0.651973,-23.607386,-10.740639,-4.543696,-6.296967,-10.803162,-18.776331,19.813944,14.351348,-22.487787,-2.739977,0.113387,-7.948407,-6.651804,-6.490227,7.319216,-26.419233,28.450701,-7.127734,4.936220,5.510807,1.191533,43.480682,272.832581,8064.000000,0.000000,4.000000,,,,0.000000,4.000000,4.000000,4.000000,4.000000,4.000000,4.000000,4.000000,4.000000,4.000000,4.000000,4.000000,4.000000,4.000000,4.000000,4.000000,4.000000,4.000000,4.000000,4.000000,4.000000,4.000000,4.000000,4.000000,4.000000,4.000000,4.000000,4.000000,4.000000,4.000000,4.000000,4.000000,4.000000,100.000000
1615773479.931333,119.000000,0.000000,-5.281978,23.483887,339.334381,7.998116,-3.606982,8.379514,-3.391824,-10.851318,3.964063,-13.840189,1.577794,-4.026332,-1.675286,-4.638512,-0.808837,45.947975,15.875458,-12.208889,4.442251,0.626094,-5.889177,-5.619512,-5.970916,6.286255,-18.700508,24.319687,-6.094965,4.931283,9.095039,8.369828,43.437202,278.200775,8192.000000,0.000000,4.000000,,,,0.000000,4.000000,4.000000,4.000000,4.000000,4.000000,4.000000,4.000000,4.000000,4.000000,4.000000,4.000000,4.000000,4.000000,4.000000,4.000000,4.000000,4.000000,4.000000,4.000000,4.000000,4.000000,4.000000,4.000000,4.000000,4.000000,4.000000,4.000000,4.000000,4.000000,4.000000,4.000000,4.000000,100.000000
1615773479.939182,120.000000,0.000000,-4.763875,24.486044,342.071991,10.041399,6.653035,10.422416,-3.388433,-10.327646,14.216509,-1.518656,-19.449425,-6.073587,-7.314636,-4.121053,-2.346489,38.722542,16.372402,-10.658218,18.796783,-0.912993,-3.832006,-5.613892,-5.964945,11.920995,-13.040781,4.808187,-6.601690,4.926353,5.496201,23.233253,43.393764,284.076416,8064.000000,0.000000,4.000000,,,,0.000000,4.000000,4.000000,4.000000,4.000000,4.000000,4.000000,4.000000,4.000000,4.000000,4.000000,4.000000,4.000000,4.000000,4.000000,4.000000,4.000000,4.000000,4.000000,4.000000,4.000000,4.000000,4.000000,4.000000,4.000000,4.000000,4.000000,4.000000,4.000000,4.000000,4.000000,4.000000,4.000000,100.000000
1615773479.946931,121.000000,0.000000,-7.323214,22.410276,342.755554,11.569819,10.748946,12.463276,-3.385044,-12.368601,12.663832,0.534144,-34.814590,-9.144437,-17.050911,-12.834881,-17.728758,10.991510,15.330390,-9.109098,19.803627,0.626381,-3.828174,-7.146740,-6.471801,21.652664,-12.002099,18.649532,-6.595088,4.921426,3.439422,28.338226,42.837551,284.305176,8064.000000,0.000000,4.000000,,,,0.000000,4.000000,4.000000,4.000000,4.000000,4.000000,4.000000,4.000000,4.000000,4.000000,4.000000,4.000000,4.000000,4.000000,4.000000,4.000000,4.000000,4.000000,4.000000,4.000000,4.000000,4.000000,4.000000,4.000000,4.000000,4.000000,4.000000,4.000000,4.000000,4.000000,4.000000,4.000000,4.000000,100.000000
1615773479.954780,122.000000,0.000000,-8.854352,15.208379,338.823059,11.558249,6.635633,11.937992,-3.381659,-11.843411,8.548603,-1.517672,-8.113110,-8.109652,-10.367193,-8.206661,-3.352055,32.006161,14.802238,4.233344,17.732542,9.343703,-3.824346,-5.601131,-5.952508,25.733576,-17.631123,35.553959,-4.537211,4.916504,9.077008,13.438092,43.307533,280.943939,8064.000000,0.000000,4.000000,,,,0.000000,4.000000,4.000000,4.000000,4.000000,4.000000,4.000000,4.000000,4.000000,4.000000,4.000000,4.000000,4.000000,4.000000,4.000000,4.000000,4.000000,4.000000,4.000000,4.000000,4.000000,4.000000,4.000000,4.000000,4.000000,4.000000,4.000000,4.000000,4.000000,4.000000,4.000000,4.000000,4.000000,100.000000
1615773479.962529,123.000000,0.000000,-3.717293,11.603427,333.868835,11.546691,6.116177,11.926054,-3.378278,-8.754645,10.078516,-2.541795,3.689875,-5.024619,1.438046,4.622058,12.548733,59.666462,16.325897,5.254751,18.227629,9.847180,-3.307701,-6.108351,-6.972197,29.297585,-22.741697,20.133791,-3.507033,4.911588,11.119214,-0.934320,43.777046,276.047607,8064.000000,0.000000,4.000000,,,,0.000000,4.000000,4.000000,4.000000,4.000000,4.000000,4.000000,4.000000,4.000000,4.000000,4.000000,4.000000,4.000000,4.000000,4.000000,4.000000,4.000000,4.000000,4.000000,4.000000,4.000000,4.000000,4.000000,4.000000,4.000000,4.000000,4.000000,4.000000,4.000000,4.000000,4.000000,4.000000,4.000000,100.000000
1615773479.970178,124.000000,0.000000,-3.200755,12.617464,333.534973,11.535145,11.751086,12.426949,-3.374899,-8.233070,11.094079,-2.026433,-11.185610,-8.609338,-2.665957,0.514872,-5.412534,33.452950,14.771111,-8.596657,15.645299,0.093744,-5.868495,-16.358652,-14.144711,21.575979,-4.770237,8.318785,-7.093270,4.906676,10.082454,9.323025,40.143528,275.771576,8064.000000,0.000000,4.000000,,,,0.000000,4.000000,4.000000,4.000000,4.000000,4.000000,4.000000,4.000000,4.000000,4.000000,4.000000,4.000000,4.000000,4.000000,4.000000,4.000000,4.000000,4.000000,4.000000,4.000000,4.000000,4.000000,4.000000,4.000000,4.000000,4.000000,4.000000,4.000000,4.000000,4.000000,4.000000,4.000000,4.000000,100.000000
1615773479.977927,125.000000,0.000000,-7.812939,10.040744,333.714264,11.010789,12.252155,11.901701,-3.884345,-6.173555,9.544523,-5.101329,-3.994937,-11.164831,-7.278675,-4.101027,-17.714813,11.881035,9.115314,-12.177804,15.629654,-3.496094,-7.401089,-21.983320,-18.233131,-7.676365,7.029405,6.772005,-10.675920,4.901770,10.072371,20.082932,35.487999,276.008606,8064.000000,0.000000,4.000000,,,,0.000000,4.000000,4.000000,4.000000,4.000000,4.000000,4.000000,4.000000,4.000000,4.000000,4.000000,4.000000,4.000000,4.000000,4.000000,4.000000,4.000000,4.000000,4.000000,4.000000,4.000000,4.000000,4.000000,4.000000,4.000000,4.000000,4.000000,4.000000,4.000000,4.000000,4.000000,4.000000,4.000000,100.000000
1615773479.985576,126.000000,0.000000,-3.702562,9.005062,328.252350,11.512599,9.162980,11.889799,-3.880461,-4.628920,10.047799,-3.044946,2.162905,-7.051102,-0.604730,8.210766,-2.825304,34.946075,10.644660,-4.986139,18.178127,2.661248,-5.342405,-10.166465,-13.599514,-14.848176,-12.464804,7.278053,-7.588321,4.896868,9.549479,10.832080,35.452511,268.553131,8064.000000,0.000000,4.000000,,,,0.000000,4.000000,4.000000,4.000000,4.000000,4.000000,4.000000,4.000000,4.000000,4.000000,4.000000,4.000000,4.000000,4.000000,4.000000,4.000000,4.000000,4.000000,4.000000,4.000000,4.000000,4.000000,4.000000,4.000000,4.000000,4.000000,4.000000,4.000000,4.000000,4.000000,4.000000,4.000000,4.000000,100.000000
1615773479.993326,127.000000,0.000000,2.967808,13.611442,324.847168,11.501086,9.666637,11.877910,-1.825298,-4.624291,14.653136,9.265791,-17.326437,-3.967128,2.472798,14.869222,5.382649,45.167542,18.839144,-2.417051,19.185589,4.709869,-3.285781,2.664215,-9.483350,16.961544,-19.119005,22.655390,-2.965348,4.891971,11.078390,2.616120,36.442699,264.182007,8064.000000,0.000000,4.000000,,,,0.000000,4.000000,4.000000,4.000000,4.000000,4.000000,4.000000,4.000000,4.000000,4.000000,4.000000,4.000000,4.000000,4.000000,4.000000,4.000000,4.000000,4.000000,4.000000,4.000000,4.000000,4.000000,4.000000,4.000000,4.000000,4.000000,4.000000,4.000000,4.000000,4.000000,4.000000,4.000000,4.000000,100.000000
1615773480.000975,0.000000,0.000000,2.964840,15.649113,325.035156,9.951123,9.144151,10.840390,0.740630,-5.132487,17.202585,11.307807,-12.693727,-3.963161,1.444684,12.290250,0.249062,36.917244,19.333124,-4.978736,18.653584,3.166698,-3.795316,0.610268,-9.986687,25.149710,-8.330656,22.632734,-4.500844,4.887079,10.554491,5.177607,30.765232,262.892181,0.000000,191.000000,4.000000,,,,0.000000,4.000000,4.000000,4.000000,4.000000,4.000000,4.000000,4.000000,4.000000,4.000000,4.000000,4.000000,4.000000,4.000000,4.000000,4.000000,4.000000,4.000000,4.000000,4.000000,4.000000,4.000000,4.000000,4.000000,4.000000,4.000000,4.000000,4.000000,4.000000,4.000000,4.000000,4.000000,4.000000,100.000000
1615773480.008724,1.000000,0.000000,1.423414,12.556540,321.120361,7.889890,4.519622,8.265448,0.227069,-5.127355,12.569998,-1.011193,13.472813,1.681828,8.622726,12.790780,2.812915,51.239304,19.313791,-4.460937,18.634930,3.163531,-3.791520,-2.980086,-8.951059,5.637381,-21.142838,-2.005282,-7.060446,4.882192,2.338809,5.685249,24.580620,253.398514,0.000000,211.000000,4.000000,,,,0.000000,4.000000,4.000000,4.000000,4.000000,4.000000,4.000000,4.000000,4.000000,4.000000,4.000000,4.000000,4.000000,4.000000,4.000000,4.000000,4.000000,4.000000,4.000000,4.000000,4.000000,4.000000,4.000000,4.000000,4.000000,4.000000,4.000000,4.000000,4.000000,4.000000,4.000000,4.000000,4.000000,100.000000
1615773480.016373,2.000000,0.000000,2.447631,12.031163,317.722321,7.882000,7.079205,7.744361,0.226842,-5.122227,9.993325,-2.548643,6.279853,7.321172,10.665386,9.188246,5.887025,58.367550,28.012426,-2.918014,18.103474,4.186008,-3.787729,-0.925823,-6.378006,14.862513,-30.352465,4.663390,-3.976463,4.877310,0.798008,5.166743,24.043219,250.068207,0.000000,193.000000,4.000000,,,,0.000000,4.000000,4.000000,4.000000,4.000000,4.000000,4.000000,4.000000,4.000000,4.000000,4.000000,4.000000,4.000000,4.000000,4.000000,4.000000,4.000000,4.000000,4.000000,4.000000,4.000000,4.000000,4.000000,4.000000,4.000000,4.000000,4.000000,4.000000,4.000000,4.000000,4.000000,4.000000,4.000000,100.000000
1615773480.024122,3.000000,0.000000,2.445184,13.044773,318.943054,7.874118,13.225972,10.300719,2.277897,-5.117105,12.547435,3.607752,-7.572581,5.262568,-1.140151,-3.128635,1.265754,33.180977,29.522877,-7.017661,18.085371,3.669002,-3.783941,-3.489000,-5.345987,32.283546,-17.501600,25.684368,-1.408383,5.385253,7.463877,6.700038,25.044817,259.561707,0.000000,186.000000,4.000000,,,,0.000000,4.000000,4.000000,4.000000,4.000000,4.000000,4.000000,4.000000,4.000000,4.000000,4.000000,4.000000,4.000000,4.000000,4.000000,4.000000,4.000000,4.000000,4.000000,4.000000,4.000000,4.000000,4.000000,4.000000,4.000000,4.000000,4.000000,4.000000,4.000000,4.000000,4.000000,4.000000,4.000000,100.000000
1615773480.031771,4.000000,0.000000,2.442738,12.518908,318.624115,7.353424,12.187105,11.828880,4.326901,-5.111988,14.073349,-1.011241,4.229864,2.693203,-7.292857,-8.766532,-2.838076,22.891386,19.236942,-11.113207,19.605747,3.665333,-4.292978,-8.613716,-5.853461,23.533316,-19.535379,9.248426,-5.509539,3.328586,5.405131,7.206159,24.506950,258.789337,0.000000,201.000000,4.000000,,,,0.000000,4.000000,4.000000,4.000000,4.000000,4.000000,4.000000,4.000000,4.000000,4.000000,4.000000,4.000000,4.000000,4.000000,4.000000,4.000000,4.000000,4.000000,4.000000,4.000000,4.000000,4.000000,4.000000,4.000000,4.000000,4.000000,4.000000,4.000000,4.000000,4.000000,4.000000,4.000000,4.000000,100.000000
1615773480.039520,5.000000,0.000000,0.901834,12.506389,317.279846,8.371712,10.123635,12.329872,3.809754,-5.106876,13.546455,-4.087152,4.225634,3.203331,-5.234282,-1.065457,-2.322417,38.765930,14.602322,-8.025170,17.022039,3.661668,-3.263044,-8.092282,-6.873249,14.279013,-19.003023,-0.504412,-7.555312,1.273975,0.784341,9.763055,24.482445,248.786957,0.000000,205.000000,4.000000,,,,0.000000,4.000000,4.000000,4.000000,4.000000,4.000000,4.000000,4.000000,4.000000,4.000000,4.000000,4.000000,4.000000,4.000000,4.000000,4.000000,4.000000,4.000000,4.000000,4.000000,4.000000,4.000000,4.000000,4.000000,4.000000,4.000000,4.000000,4.000000,4.000000,4.000000,4.000000,4.000000,4.000000,100.000000
1615773480.047169,6.000000,0.000000,-1.150350,11.468242,314.398468,6.312057,9.600692,11.804722,3.805944,-5.101769,13.020088,2.070781,-15.778592,2.687307,-8.305971,5.602275,-1.807275,45.906651,15.613360,-3.401761,13.928094,3.658006,-3.772601,-6.032907,-9.430478,9.136529,1.528799,16.419170,-5.496474,0.759881,4.886121,8.727651,23.945141,246.486893,0.000000,215.000000,4.000000,,,,0.000000,4.000000,4.000000,4.000000,4.000000,4.000000,4.000000,4.000000,4.000000,4.000000,4.000000,4.000000,4.000000,4.000000,4.000000,4.000000,4.000000,4.000000,4.000000,4.000000,4.000000,4.000000,4.000000,4.000000,4.000000,4.000000,4.000000,4.000000,4.000000,4.000000,4.000000,4.000000,4.000000,100.000000
1615773480.054919,7.000000,0.000000,-2.174840,8.379850,304.853302,0.151899,4.975706,10.254456,3.802138,-5.096667,13.519889,1.043069,-13.711531,-0.392303,-9.323306,2.519749,-2.318288,43.809464,12.520823,-3.911180,21.093653,3.654348,-5.307290,-6.026875,-10.446689,1.435085,-2.575294,13.325828,-7.542260,1.271941,4.368414,1.026616,21.357094,243.676300,0.000000,190.000000,4.000000,,,,0.000000,4.000000,4.000000,4.000000,4.000000,4.000000,4.000000,4.000000,4.000000,4.000000,4.000000,4.000000,4.000000,4.000000,4.000000,4.000000,4.000000,4.000000,4.000000,4.000000,4.000000,4.000000,4.000000,4.000000,4.000000,4.000000,4.000000,4.000000,4.000000,4.000000,4.000000,4.000000,4.000000,100.000000
1615773480.062568,8.000000,0.000000,-1.659845,8.884291,298.394592,-2.925175,9.073295,8.192919,3.798336,-5.091571,13.506369,-3.573359,2.712437,-1.417552,-3.160137,-2.610976,-1.803149,43.765656,11.995482,-3.907268,29.277687,3.650694,0.851863,-4.482387,-9.923422,12.202880,-16.418873,9.209937,-5.483436,1.270669,2.825584,9.230718,20.822916,241.381348,0.000000,200.000000,4.000000,,,,0.000000,4.000000,4.000000,4.000000,4.000000,4.000000,4.000000,4.000000,4.000000,4.000000,4.000000,4.000000,4.000000,4.000000,4.000000,4.000000,4.000000,4.000000,4.000000,4.000000,4.000000,4.000000,4.000000,4.000000,4.000000,4.000000,4.000000,4.000000,4.000000,4.000000,4.000000,4.000000,4.000000,100.000000
1615773480.070417,9.000000,0.000000,-1.658185,11.952330,302.711578,0.154673,22.397554,8.184726,3.794538,-5.086479,14.005683,0.532779,5.273827,-0.903314,-2.644156,-2.608365,-1.288525,38.080864,15.573231,-3.903361,26.684307,4.159863,10.594602,-1.400981,-9.913498,29.626575,-1.017838,26.636625,2.214355,1.269399,11.027887,34.349693,23.366196,250.370728,0.000000,204.000000,4.000000,,,,0.000000,4.000000,4.000000,4.000000,4.000000,4.000000,4.000000,4.000000,4.000000,4.000000,4.000000,4.000000,4.000000,4.000000,4.000000,4.000000,4.000000,4.000000,4.000000,4.000000,4.000000,4.000000,4.000000,4.000000,4.000000,4.000000,4.000000,4.000000,4.000000,4.000000,4.000000,4.000000,4.000000,100.000000
1615773480.078166,10.000000,0.000000,-1.656527,11.940377,304.460175,1.180159,19.811054,6.638080,3.790743,-5.081393,13.478857,4.121990,2.704451,-0.902411,-5.205615,-1.580115,-2.312878,38.042782,14.019196,-3.899458,20.503777,3.130063,5.968622,-3.450862,-9.903584,28.058487,1.547283,25.071527,2.724962,1.268129,11.529679,33.802521,25.394112,251.145996,0.000000,198.000000,4.000000,,,,0.000000,4.000000,4.000000,4.000000,4.000000,4.000000,4.000000,4.000000,4.000000,4.000000,4.000000,4.000000,4.000000,4.000000,4.000000,4.000000,4.000000,4.000000,4.000000,4.000000,4.000000,4.000000,4.000000,4.000000,4.000000,4.000000,4.000000,4.000000,4.000000,4.000000,4.000000,4.000000,4.000000,100.000000
1615773480.086015,11.000000,0.000000,-1.654871,8.851514,300.053131,-0.359483,6.457910,4.580160,3.786952,-5.076311,13.465378,0.528124,5.265849,-1.414329,-0.585024,-2.091356,0.253538,53.902176,11.953895,1.232647,22.534555,3.639753,-3.268116,-7.037155,-10.406502,20.850941,-21.018368,16.328506,-2.405968,1.266861,7.928406,9.153335,24.343077,241.151260,0.000000,202.000000,4.000000,,,,0.000000,4.000000,4.000000,4.000000,4.000000,4.000000,4.000000,4.000000,4.000000,4.000000,4.000000,4.000000,4.000000,4.000000,4.000000,4.000000,4.000000,4.000000,4.000000,4.000000,4.000000,4.000000,4.000000,4.000000,4.000000,4.000000,4.000000,4.000000,4.000000,4.000000,4.000000,4.000000,4.000000,100.000000
1615773480.093764,12.000000,0.000000,-1.653216,8.329842,298.727448,2.204979,9.015554,4.575580,3.783165,-5.071235,13.964733,-1.010866,0.645198,-0.900094,1.979663,-2.602085,4.355848,57.950836,16.044504,3.795517,25.588943,6.200216,1.863357,-3.953194,-9.883274,20.830090,-18.433247,31.696793,0.160540,1.778415,16.638426,6.580079,24.831554,245.525497,0.000000,188.000000,4.000000,,,,0.000000,4.000000,4.000000,4.000000,4.000000,4.000000,4.000000,4.000000,4.000000,4.000000,4.000000,4.000000,4.000000,4.000000,4.000000,4.000000,4.000000,4.000000,4.000000,4.000000,4.000000,4.000000,4.000000,4.000000,4.000000,4.000000,4.000000,4.000000,4.000000,4.000000,4.000000,4.000000,4.000000,100.000000
1615773480.101613,13.000000,0.000000,-1.651563,9.347153,299.967163,5.279697,17.724487,3.545363,3.779382,-5.066164,11.386665,1.041427,-11.150319,-0.899194,-3.150522,-2.086662,1.787390,31.226219,19.618204,-1.336484,25.050533,6.706836,12.117905,2.204605,-9.360571,22.860542,-0.978916,31.665096,-1.378082,1.263816,16.108967,19.394011,25.319542,253.997925,0.000000,197.000000,4.000000,,,,0.000000,4.000000,4.000000,4.000000,4.000000,4.000000,4.000000,4.000000,4.000000,4.000000,4.000000,4.000000,4.000000,4.000000,4.000000,4.000000,4.000000,4.000000,4.000000,4.000000,4.000000,4.000000,4.000000,4.000000,4.000000,4.000000,4.000000,4.000000,4.000000,4.000000,4.000000,4.000000,4.000000,100.000000
1615773480.109362,14.000000,0.000000,-1.649911,6.773704,298.128754,1.684674,16.168303,0.977715,3.775603,-5.061098,5.734253,1.040386,-13.190451,-0.898295,-6.224294,-1.571755,-4.368244,9.656531,19.085764,-7.488994,22.461380,4.648848,10.567325,-1.387343,-10.376851,24.376143,-5.593321,9.069329,-13.171576,-1.301551,-1.855859,13.733592,22.730120,246.564438,0.000000,206.000000,4.000000,,,,0.000000,4.000000,4.000000,4.000000,4.000000,4.000000,4.000000,4.000000,4.000000,4.000000,4.000000,4.000000,4.000000,4.000000,4.000000,4.000000,4.000000,4.000000,4.000000,4.000000,4.000000,4.000000,4.000000,4.000000,4.000000,4.000000,4.000000,4.000000,4.000000,4.000000,4.000000,4.000000,4.000000,100.000000
1615773480.117211,15.000000,0.000000,-1.648261,5.228468,295.266510,-2.419574,12.049569,0.463917,3.259007,-5.056036,4.702878,-1.011937,-8.049055,-0.897397,-5.192429,-2.595824,-5.902337,21.954567,19.066679,-7.994325,21.413279,3.105737,5.941373,-10.103905,-9.853654,12.044075,-11.228754,11.624362,-18.286610,-2.838711,-4.930926,7.053191,21.168928,240.164032,0.000000,212.000000,4.000000,,,,0.000000,4.000000,4.000000,4.000000,4.000000,4.000000,4.000000,4.000000,4.000000,4.000000,4.000000,4.000000,4.000000,4.000000,4.000000,4.000000,4.000000,4.000000,4.000000,4.000000,4.000000,4.000000,4.000000,4.000000,4.000000,4.000000,4.000000,4.000000,4.000000,4.000000,4.000000,4.000000,4.000000,100.000000
1615773480.124960,16.000000,0.000000,-1.646613,7.787342,294.458435,0.659768,13.063161,0.976273,3.768568,-5.050981,10.339201,0.527537,-8.041006,-0.896499,-5.700057,-2.080408,-4.870794,44.496716,21.611715,-2.858126,24.468788,3.615452,7.473893,-7.016878,-3.177134,0.749979,-6.602140,29.048635,-14.165758,-2.323051,7.894517,15.764087,26.275965,246.077713,0.000000,202.000000,4.000000,,,,0.000000,4.000000,4.000000,4.000000,4.000000,4.000000,4.000000,4.000000,4.000000,4.000000,4.000000,4.000000,4.000000,4.000000,4.000000,4.000000,4.000000,4.000000,4.000000,4.000000,4.000000,4.000000,4.000000,4.000000,4.000000,4.000000,4.000000,4.000000,4.000000,4.000000,4.000000,4.000000,4.000000,100.000000
1615773480.132809,17.000000,0.000000,-1.644966,9.318016,294.676788,4.761672,14.075739,0.975297,6.328902,-5.045929,7.764759,2.065471,-6.494503,-0.382782,-5.181536,-0.027045,-4.865923,51.118885,24.154205,1.760117,27.008423,4.124657,8.492061,-1.368835,1.954249,22.800512,-10.698102,25.429844,-12.613132,-2.320728,10.963546,20.876528,29.326612,249.421371,0.000000,201.000000,4.000000,,,,0.000000,4.000000,4.000000,4.000000,4.000000,4.000000,4.000000,4.000000,4.000000,4.000000,4.000000,4.000000,4.000000,4.000000,4.000000,4.000000,4.000000,4.000000,4.000000,4.000000,4.000000,4.000000,4.000000,4.000000,4.000000,4.000000,4.000000,4.000000,4.000000,4.000000,4.000000,4.000000,4.000000,100.000000
1615773480.140558,18.000000,0.000000,-1.643321,8.795877,293.869293,4.244090,12.010381,0.461501,7.861035,-5.040884,-2.499416,-6.141723,1.717119,0.130421,-5.689175,-5.668044,-5.373878,41.836998,22.078770,-5.421130,20.314747,2.582071,2.329722,-7.521313,-0.611808,40.213608,-12.225865,14.635182,-15.677442,-2.318408,5.824377,16.753088,24.681900,247.633484,0.000000,205.000000,4.000000,,,,0.000000,4.000000,4.000000,4.000000,4.000000,4.000000,4.000000,4.000000,4.000000,4.000000,4.000000,4.000000,4.000000,4.000000,4.000000,4.000000,4.000000,4.000000,4.000000,4.000000,4.000000,4.000000,4.000000,4.000000,4.000000,4.000000,4.000000,4.000000,4.000000,4.000000,4.000000,4.000000,4.000000,100.000000
1615773480.148407,19.000000,0.000000,-1.641678,8.274261,292.549774,3.214205,8.921448,0.461040,6.827533,-5.035842,1.092827,-14.340710,-6.489726,-2.433812,-10.811691,-13.354684,-7.419786,27.949007,19.492588,-20.287504,9.012381,-1.523075,-4.339274,-14.180458,-3.175299,14.532369,-8.111075,16.671829,-13.610481,-2.316089,5.305732,15.197873,21.067476,246.873032,0.000000,216.000000,4.000000,,,,0.000000,4.000000,4.000000,4.000000,4.000000,4.000000,4.000000,4.000000,4.000000,4.000000,4.000000,4.000000,4.000000,4.000000,4.000000,4.000000,4.000000,4.000000,4.000000,4.000000,4.000000,4.000000,4.000000,4.000000,4.000000,4.000000,4.000000,4.000000,4.000000,4.000000,4.000000,4.000000,4.000000,100.000000
1615773480.156156,20.000000,0.000000,-1.640036,8.778808,294.821350,4.236632,8.912526,0.973399,7.846346,-5.030807,13.912247,-8.685343,-28.021698,-4.995481,-13.364982,-8.213124,-9.976468,21.254391,19.473095,-20.780037,4.387984,-4.085655,-4.847755,-11.089355,-2.146482,4.261426,-15.795272,20.757721,-8.468666,-2.313773,7.351708,15.695496,23.610510,247.651810,0.000000,202.000000,4.000000,,,,0.000000,4.000000,4.000000,4.000000,4.000000,4.000000,4.000000,4.000000,4.000000,4.000000,4.000000,4.000000,4.000000,4.000000,4.000000,4.000000,4.000000,4.000000,4.000000,4.000000,4.000000,4.000000,4.000000,4.000000,4.000000,4.000000,4.000000,4.000000,4.000000,4.000000,4.000000,4.000000,4.000000,100.000000
1615773480.164005,21.000000,0.000000,-2.151217,8.770029,296.577789,3.719575,9.416434,0.972426,7.838500,-5.538597,7.744489,-3.035632,-25.429573,-3.964844,-13.864438,-3.589526,-9.453671,21.745956,17.915161,-7.425923,10.537442,-4.594390,-3.817267,-8.514162,-2.657156,25.795626,-20.394861,18.172861,-7.434556,-2.311459,6.831536,15.679800,24.612541,246.891327,0.000000,187.000000,4.000000,,,,0.000000,4.000000,4.000000,4.000000,4.000000,4.000000,4.000000,4.000000,4.000000,4.000000,4.000000,4.000000,4.000000,4.000000,4.000000,4.000000,4.000000,4.000000,4.000000,4.000000,4.000000,4.000000,4.000000,4.000000,4.000000,4.000000,4.000000,4.000000,4.000000,4.000000,4.000000,4.000000,4.000000,100.000000
1615773480.171754,22.000000,0.000000,-2.149065,8.248439,294.742767,3.715855,7.355736,-0.567008,0.651174,-5.020237,-5.083769,-9.699263,-2.327221,-7.037802,-17.953136,-16.406450,-9.957038,16.083185,13.281861,-3.828754,15.655109,-4.076975,-4.839091,-10.556931,-6.244243,20.128805,-16.271902,15.077765,-10.504045,-2.821968,4.773423,18.228222,23.562288,247.157257,0.000000,196.000000,4.000000,,,,0.000000,4.000000,4.000000,4.000000,4.000000,4.000000,4.000000,4.000000,4.000000,4.000000,4.000000,4.000000,4.000000,4.000000,4.000000,4.000000,4.000000,4.000000,4.000000,4.000000,4.000000,4.000000,4.000000,4.000000,4.000000,4.000000,4.000000,4.000000,4.000000,4.000000,4.000000,4.000000,4.000000,100.000000
1615773480.179603,23.000000,0.000000,-1.634096,8.753011,301.627502,6.789063,11.963764,2.510482,-2.939221,-5.015217,1.075161,-12.253666,-0.273612,-14.723072,-21.012108,-25.620811,-14.049645,11.964538,10.704476,-12.030053,6.921506,-4.072898,-4.321431,-10.033553,-6.750819,8.826625,-19.845375,17.626791,-7.929438,-2.306326,7.845572,18.209995,28.666931,253.063950,0.000000,198.000000,4.000000,,,,0.000000,4.000000,4.000000,4.000000,4.000000,4.000000,4.000000,4.000000,4.000000,4.000000,4.000000,4.000000,4.000000,4.000000,4.000000,4.000000,4.000000,4.000000,4.000000,4.000000,4.000000,4.000000,4.000000,4.000000,4.000000,4.000000,4.000000,4.000000,4.000000,4.000000,4.000000,4.000000,4.000000,100.000000
1615773480.187352,24.000000,0.000000,-2.658103,10.795540,317.736145,10.884837,22.208212,10.200279,3.217565,-6.035843,13.894599,-5.574746,-5.914364,-13.169888,-17.401352,-15.338781,-12.497134,26.824368,11.719414,-10.992382,0.247918,-5.094466,-4.317110,-9.510698,-6.231248,24.202414,-14.184504,16.070702,-5.870227,-2.304019,12.453112,15.627682,35.304932,260.503204,0.000000,187.000000,4.000000,,,,0.000000,4.000000,4.000000,4.000000,4.000000,4.000000,4.000000,4.000000,4.000000,4.000000,4.000000,4.000000,4.000000,4.000000,4.000000,4.000000,4.000000,4.000000,4.000000,4.000000,4.000000,4.000000,4.000000,4.000000,4.000000,4.000000,4.000000,4.000000,4.000000,4.000000,4.000000,4.000000,4.000000,100.000000
1615773480.195001,25.000000,0.000000,-1.116983,12.323206,321.008148,11.899593,23.724464,11.728540,8.342552,-4.491345,14.393525,-3.517889,13.578731,-3.925948,-7.640360,-4.041391,-2.228227,49.874466,11.707694,1.839123,11.016901,-3.038090,-4.312792,-10.014009,-7.763478,16.998724,3.265579,10.413606,-7.915638,-3.327357,11.415017,16.124874,35.269627,260.755524,0.000000,204.000000,4.000000,,,,0.000000,4.000000,4.000000,4.000000,4.000000,4.000000,4.000000,4.000000,4.000000,4.000000,4.000000,4.000000,4.000000,4.000000,4.000000,4.000000,4.000000,4.000000,4.000000,4.000000,4.000000,4.000000,4.000000,4.000000,4.000000,4.000000,4.000000,4.000000,4.000000,4.000000,4.000000,4.000000,4.000000,100.000000
1615773480.202750,26.000000,0.000000,4.525159,12.310883,317.610199,10.862053,19.085356,8.127069,7.308569,2.692633,12.840670,-3.514371,27.411304,0.180542,3.649331,-1.986068,6.491950,58.542542,11.183166,9.529592,18.698191,6.708538,-0.205916,-5.388610,-4.165971,-6.095198,-3.404354,20.146782,-0.728236,-1.272747,11.916423,20.724134,35.234356,263.571686,0.000000,197.000000,4.000000,,,,0.000000,4.000000,4.000000,4.000000,4.000000,4.000000,4.000000,4.000000,4.000000,4.000000,4.000000,4.000000,4.000000,4.000000,4.000000,4.000000,4.000000,4.000000,4.000000,4.000000,4.000000,4.000000,4.000000,4.000000,4.000000,4.000000,4.000000,4.000000,4.000000,4.000000,4.000000,4.000000,4.000000,100.000000
1615773480.210400,27.000000,0.000000,9.648839,12.811392,326.523376,12.389652,22.143192,11.708685,6.788440,6.792504,14.366291,4.181451,7.383894,1.718823,6.722605,-1.471261,7.511099,49.253231,11.684803,7.468780,19.705133,14.394137,8.512239,2.821907,5.581785,13.398077,-12.118898,33.459969,11.067364,3.856731,17.032711,28.395718,41.865788,277.667084,0.000000,199.000000,4.000000,,,,0.000000,4.000000,4.000000,4.000000,4.000000,4.000000,4.000000,4.000000,4.000000,4.000000,4.000000,4.000000,4.000000,4.000000,4.000000,4.000000,4.000000,4.000000,4.000000,4.000000,4.000000,4.000000,4.000000,4.000000,4.000000,4.000000,4.000000,4.000000,4.000000,4.000000,4.000000,4.000000,4.000000,100.000000
1615773480.218149,28.000000,0.000000,9.639191,11.772940,327.222473,14.941365,24.685152,15.799541,7.807292,6.272892,13.839104,14.946500,-8.520926,3.255565,2.613318,-1.469790,4.939486,38.434746,11.673119,6.435670,31.480301,15.405384,15.170394,6.408829,9.678767,39.025703,6.867580,27.272661,11.569118,5.904156,13.938756,31.444244,43.362385,277.389404,0.000000,180.000000,4.000000,,,,0.000000,4.000000,4.000000,4.000000,4.000000,4.000000,4.000000,4.000000,4.000000,4.000000,4.000000,4.000000,4.000000,4.000000,4.000000,4.000000,4.000000,4.000000,4.000000,4.000000,4.000000,4.000000,4.000000,4.000000,4.000000,4.000000,4.000000,4.000000,4.000000,4.000000,4.000000,4.000000,4.000000,100.000000
1615773480.225798,29.000000,0.000000,9.629551,8.684243,308.946533,12.875142,16.968159,11.168356,7.799485,6.266619,13.825265,16.470015,4.820929,3.765130,4.661987,-0.955500,5.960187,44.037334,11.661446,9.506157,36.577026,15.902800,13.103941,5.889599,8.643447,28.217449,7.373533,23.655645,8.993445,4.872611,6.745330,22.182032,33.062611,258.650482,0.000000,186.000000,4.000000,,,,0.000000,4.000000,4.000000,4.000000,4.000000,4.000000,4.000000,4.000000,4.000000,4.000000,4.000000,4.000000,4.000000,4.000000,4.000000,4.000000,4.000000,4.000000,4.000000,4.000000,4.000000,4.000000,4.000000,4.000000,4.000000,4.000000,4.000000,4.000000,4.000000,4.000000,4.000000,4.000000,4.000000,100.000000
1615773480.233547,30.000000,0.000000,9.619922,8.162739,299.919647,10.810985,11.822987,8.080265,7.278865,5.747531,14.324260,10.299699,13.021235,4.274186,7.734248,0.071097,8.518330,52.711246,12.162604,6.932549,19.617373,11.271512,5.911350,2.293966,9.660444,19.984102,-15.710764,29.785837,8.984452,5.893379,10.328328,15.493183,26.875702,251.212357,0.000000,206.000000,4.000000,,,,0.000000,4.000000,4.000000,4.000000,4.000000,4.000000,4.000000,4.000000,4.000000,4.000000,4.000000,4.000000,4.000000,4.000000,4.000000,4.000000,4.000000,4.000000,4.000000,4.000000,4.000000,4.000000,4.000000,4.000000,4.000000,4.000000,4.000000,4.000000,4.000000,4.000000,4.000000,4.000000,4.000000,100.000000
1615773480.241196,31.000000,0.000000,8.584661,9.180217,300.645355,12.338635,13.349625,8.072185,5.733125,3.177681,6.617628,3.622733,1.213343,1.705809,-5.093999,-7.621282,-1.746599,33.684177,11.124801,-3.843615,9.341344,0.491010,2.828516,-1.810892,5.035399,25.092323,-14.156591,21.550922,2.308801,4.349024,14.420564,17.528973,28.387287,251.473953,0.000000,185.000000,4.000000,,,,0.000000,4.000000,4.000000,4.000000,4.000000,4.000000,4.000000,4.000000,4.000000,4.000000,4.000000,4.000000,4.000000,4.000000,4.000000,4.000000,4.000000,4.000000,4.000000,4.000000,4.000000,4.000000,4.000000,4.000000,4.000000,4.000000,4.000000,4.000000,4.000000,4.000000,4.000000,4.000000,4.000000,100.000000
1615773480.248945,32.000000,0.000000,4.986332,6.606934,289.062683,6.172451,7.182429,-0.141016,3.676109,1.636042,-1.594118,-3.560377,-4.941717,-7.526666,-20.473520,-19.921352,-18.667929,9.547929,8.036753,-12.044899,13.947388,-5.150507,4.364149,-2.834722,-2.149123,15.836462,-12.603973,8.196038,-6.411457,-0.783530,9.790759,7.255033,25.281979,236.350693,8064.000000,0.000000,4.000000,,,,0.000000,4.000000,4.000000,4.000000,4.000000,4.000000,4.000000,4.000000,4.000000,4.000000,4.000000,4.000000,4.000000,4.000000,4.000000,4.000000,4.000000,4.000000,4.000000,4.000000,4.000000,4.000000,4.000000,4.000000,4.000000,4.000000,4.000000,4.000000,4.000000,4.000000,4.000000,4.000000,4.000000,100.000000
1615773480.256594,33.000000,0.000000,0.878782,1.472122,277.491547,-6.141414,-3.081164,-7.833183,3.159613,2.147227,-1.592524,-8.172201,-2.885493,-12.134524,-18.401764,-21.439894,-16.085159,23.384535,8.028716,-11.520034,14.446260,-3.606895,3.334143,-1.293426,-2.146974,8.641138,-38.745216,1.521175,-7.430686,-3.346849,6.191225,-3.521453,17.564388,223.806641,8064.000000,0.000000,4.000000,,,,0.000000,4.000000,4.000000,4.000000,4.000000,4.000000,4.000000,4.000000,4.000000,4.000000,4.000000,4.000000,4.000000,4.000000,4.000000,4.000000,4.000000,4.000000,4.000000,4.000000,4.000000,4.000000,4.000000,4.000000,4.000000,4.000000,4.000000,4.000000,4.000000,4.000000,4.000000,4.000000,4.000000,100.000000
1615773480.264344,34.000000,0.000000,-1.686199,0.957830,279.265350,-5.109632,1.537302,-6.286888,3.669274,2.145079,1.485992,-4.061465,-11.600556,-11.609569,-12.229517,-15.264606,-3.248561,46.950893,10.584790,-10.995693,9.816430,-4.628929,-2.310216,-5.394697,-5.734571,16.324804,-37.168007,-6.172654,-7.936076,-2.317861,4.133751,12.892324,17.546824,230.249512,8064.000000,0.000000,4.000000,,,,0.000000,4.000000,4.000000,4.000000,4.000000,4.000000,4.000000,4.000000,4.000000,4.000000,4.000000,4.000000,4.000000,4.000000,4.000000,4.000000,4.000000,4.000000,4.000000,4.000000,4.000000,4.000000,4.000000,4.000000,4.000000,4.000000,4.000000,4.000000,4.000000,4.000000,4.000000,4.000000,4.000000,100.000000
1615773480.271993,35.000000,0.000000,-4.248616,4.033795,282.575836,3.100606,11.279354,-2.690858,3.152784,1.630114,2.510147,2.609263,-16.204340,-17.238985,-15.807031,-12.685240,-6.322236,36.647533,9.548564,-12.523159,8.780972,-5.649941,-4.872009,-16.158533,-15.472425,11.693095,-5.848790,3.577109,-10.492242,-2.828363,3.616797,24.161484,20.606199,237.198746,8064.000000,0.000000,4.000000,,,,0.000000,4.000000,4.000000,4.000000,4.000000,4.000000,4.000000,4.000000,4.000000,4.000000,4.000000,4.000000,4.000000,4.000000,4.000000,4.000000,4.000000,4.000000,4.000000,4.000000,4.000000,4.000000,4.000000,4.000000,4.000000,4.000000,4.000000,4.000000,4.000000,4.000000,4.000000,4.000000,4.000000,100.000000
1615773480.279742,36.000000,0.000000,-5.782828,5.055402,281.780426,1.559044,10.755255,-3.200987,3.662452,2.141304,1.481996,2.606654,-0.290700,-17.734566,-17.329685,-13.698195,-14.008221,19.174988,7.487733,-11.997815,10.823473,-3.080189,-3.841496,-18.706476,-18.021055,-5.754495,-8.407043,24.599173,-10.994571,-3.338356,5.664462,4.650143,20.585594,235.935898,8064.000000,0.000000,4.000000,,,,0.000000,4.000000,4.000000,4.000000,4.000000,4.000000,4.000000,4.000000,4.000000,4.000000,4.000000,4.000000,4.000000,4.000000,4.000000,4.000000,4.000000,4.000000,4.000000,4.000000,4.000000,4.000000,4.000000,4.000000,4.000000,4.000000,4.000000,4.000000,4.000000,4.000000,4.000000,4.000000,4.000000,100.000000
1615773480.287391,37.000000,0.000000,-5.264225,4.537526,279.447357,-4.083540,8.693217,-3.710607,3.145969,3.164804,-1.596409,-0.985697,6.889078,-7.973242,-16.799536,-14.197318,-12.455751,21.719915,7.993066,-10.960176,11.838291,-4.102749,-5.376116,-9.969822,-15.438932,-0.620535,-30.962738,24.574574,-11.496396,-2.309376,3.607516,-7.149379,20.052187,235.187149,8064.000000,0.000000,4.000000,,,,0.000000,4.000000,4.000000,4.000000,4.000000,4.000000,4.000000,4.000000,4.000000,4.000000,4.000000,4.000000,4.000000,4.000000,4.000000,4.000000,4.000000,4.000000,4.000000,4.000000,4.000000,4.000000,4.000000,4.000000,4.000000,4.000000,4.000000,4.000000,4.000000,4.000000,4.000000,4.000000,4.000000,100.000000
1615773480.295140,38.000000,0.000000,-6.797422,5.045809,275.065369,-4.079457,9.710165,-2.681255,3.655643,0.597537,-0.056351,0.040930,-1.835760,-5.401166,-16.782736,-9.054915,-12.956116,22.211016,9.523535,-10.949217,10.287991,-4.611467,-1.268176,-6.882929,-13.885032,25.533932,-21.701006,17.370512,-5.843874,-2.819887,-0.498656,4.139822,20.032135,236.490417,8064.000000,0.000000,4.000000,,,,0.000000,4.000000,4.000000,4.000000,4.000000,4.000000,4.000000,4.000000,4.000000,4.000000,4.000000,4.000000,4.000000,4.000000,4.000000,4.000000,4.000000,4.000000,4.000000,4.000000,4.000000,4.000000,4.000000,4.000000,4.000000,4.000000,4.000000,4.000000,4.000000,4.000000,4.000000,4.000000,4.000000,100.000000
1615773480.302789,39.000000,0.000000,-4.226522,5.040763,273.251831,-2.536916,8.161993,-0.114471,5.190449,2.648221,7.123192,1.066530,11.499409,0.245260,-8.048004,0.697729,-7.814955,21.163164,16.693499,-7.348524,13.867447,7.188016,12.579247,-3.799123,-1.563454,34.739166,2.423258,23.506987,4.931200,-2.304247,3.604407,10.289528,20.524923,236.253937,8448.000000,0.000000,4.000000,,,,0.000000,4.000000,4.000000,4.000000,4.000000,4.000000,4.000000,4.000000,4.000000,4.000000,4.000000,4.000000,4.000000,4.000000,4.000000,4.000000,4.000000,4.000000,4.000000,4.000000,4.000000,4.000000,4.000000,4.000000,4.000000,4.000000,4.000000,4.000000,4.000000,4.000000,4.000000,4.000000,4.000000,100.000000
1615773480.310638,40.000000,0.000000,5.521294,5.035723,276.055511,-0.483097,13.282037,3.475387,7.236541,11.876342,10.705812,-0.985818,29.436628,19.219374,6.831839,8.902160,11.680039,40.629181,31.035780,4.966517,29.751015,25.642366,23.848719,14.666215,14.848366,31.114683,8.061861,28.098866,12.105756,5.390365,10.267469,10.279239,22.555681,235.504852,8192.000000,0.000000,4.000000,,,,0.000000,4.000000,4.000000,4.000000,4.000000,4.000000,4.000000,4.000000,4.000000,4.000000,4.000000,4.000000,4.000000,4.000000,4.000000,4.000000,4.000000,4.000000,4.000000,4.000000,4.000000,4.000000,4.000000,4.000000,4.000000,4.000000,4.000000,4.000000,4.000000,4.000000,4.000000,4.000000,4.000000,100.000000
1615773480.318387,41.000000,0.000000,9.618337,7.081969,277.317902,2.594309,22.499523,5.010373,7.229304,10.326004,9.669466,2.092091,6.330268,21.251436,9.901930,12.483001,20.899128,61.101372,35.620129,18.807705,38.439213,26.129545,21.773588,23.369497,16.371979,43.391262,1.387132,30.634869,13.632112,12.051641,10.770022,13.345882,24.071587,235.269348,8064.000000,0.000000,4.000000,,,,0.000000,4.000000,4.000000,4.000000,4.000000,4.000000,4.000000,4.000000,4.000000,4.000000,4.000000,4.000000,4.000000,4.000000,4.000000,4.000000,4.000000,4.000000,4.000000,4.000000,4.000000,4.000000,4.000000,4.000000,4.000000,4.000000,4.000000,4.000000,4.000000,4.000000,4.000000,4.000000,4.000000,100.000000
1615773480.326236,42.000000,0.000000,4.480513,9.126169,276.527771,4.642997,19.400101,4.492542,7.222075,0.059268,9.659796,7.218204,-18.804268,0.717365,0.661259,9.906416,6.519255,54.886425,27.379379,13.660691,23.528978,9.693159,10.469763,4.884590,8.663299,53.091461,-3.229640,23.937567,9.515916,11.013948,9.733611,16.409460,24.047516,235.546906,8064.000000,0.000000,4.000000,,,,0.000000,4.000000,4.000000,4.000000,4.000000,4.000000,4.000000,4.000000,4.000000,4.000000,4.000000,4.000000,4.000000,4.000000,4.000000,4.000000,4.000000,4.000000,4.000000,4.000000,4.000000,4.000000,4.000000,4.000000,4.000000,4.000000,4.000000,4.000000,4.000000,4.000000,4.000000,4.000000,4.000000,100.000000
1615773480.333985,43.000000,0.000000,1.399110,8.604222,276.251251,4.125533,9.124290,4.488050,7.214853,2.110491,10.162957,4.646883,-2.888027,-2.873096,-5.493249,3.742663,-5.794956,39.446922,21.710974,-4.814507,7.095193,-0.572945,1.228524,-11.017731,5.577713,34.576832,-6.303333,0.836707,-3.314113,8.438832,7.672596,17.931511,24.023468,233.260071,8064.000000,0.000000,4.000000,,,,0.000000,4.000000,4.000000,4.000000,4.000000,4.000000,4.000000,4.000000,4.000000,4.000000,4.000000,4.000000,4.000000,4.000000,4.000000,4.000000,4.000000,4.000000,4.000000,4.000000,4.000000,4.000000,4.000000,4.000000,4.000000,4.000000,4.000000,4.000000,4.000000,4.000000,4.000000,4.000000,4.000000,100.000000
1615773480.341834,44.000000,0.000000,2.936172,8.595618,276.487823,2.582946,7.576705,4.996382,7.207638,9.287868,10.152794,0.026851,9.422553,6.873367,-3.436473,1.174818,-5.276341,35.304913,22.714905,-11.989181,6.062457,-0.059551,-0.823987,-9.468252,3.520853,10.439690,-5.784209,0.323049,-8.951824,8.943213,6.126461,10.734093,23.999445,227.385788,8064.000000,0.000000,4.000000,,,,0.000000,4.000000,4.000000,4.000000,4.000000,4.000000,4.000000,4.000000,4.000000,4.000000,4.000000,4.000000,4.000000,4.000000,4.000000,4.000000,4.000000,4.000000,4.000000,4.000000,4.000000,4.000000,4.000000,4.000000,4.000000,4.000000,4.000000,4.000000,4.000000,4.000000,4.000000,4.000000,4.000000,100.000000
1615773480.349583,45.000000,0.000000,0.369133,8.587023,275.698517,0.529081,10.133231,4.478565,7.200430,3.124733,9.629821,2.078107,-3.920203,5.328032,-1.381755,2.199284,-4.245423,36.808067,22.692190,-7.874627,8.107677,-0.059492,0.202478,-8.945963,0.953229,4.275403,-5.778425,20.322727,-1.763386,7.908629,7.658796,0.979769,23.975445,223.055832,8064.000000,0.000000,4.000000,,,,0.000000,4.000000,4.000000,4.000000,4.000000,4.000000,4.000000,4.000000,4.000000,4.000000,4.000000,4.000000,4.000000,4.000000,4.000000,4.000000,4.000000,4.000000,4.000000,4.000000,4.000000,4.000000,4.000000,4.000000,4.000000,4.000000,4.000000,4.000000,4.000000,4.000000,4.000000,4.000000,4.000000,100.000000
1615773480.357432,46.000000,0.000000,-1.682518,8.578435,275.422791,0.015732,8.584636,4.474087,7.193230,-3.545058,8.594550,3.101670,-0.326539,2.245781,-2.406014,1.684264,-6.292460,36.771259,21.643856,-7.866752,6.048287,-1.597894,-1.336186,-9.962658,0.439456,6.322410,-10.388031,10.045994,1.828121,5.336618,3.548573,11.748020,23.951469,222.832779,8064.000000,0.000000,4.000000,,,,0.000000,4.000000,4.000000,4.000000,4.000000,4.000000,4.000000,4.000000,4.000000,4.000000,4.000000,4.000000,4.000000,4.000000,4.000000,4.000000,4.000000,4.000000,4.000000,4.000000,4.000000,4.000000,4.000000,4.000000,4.000000,4.000000,4.000000,4.000000,4.000000,4.000000,4.000000,4.000000,4.000000,100.000000
1615773480.365181,47.000000,0.000000,0.883267,8.569857,275.147369,0.528536,8.063231,4.469613,7.186037,-2.003052,10.637238,-0.491176,15.058403,5.320458,-2.403608,1.169759,-6.286168,32.631924,21.622213,-5.807603,6.042239,0.454986,-0.822029,-4.824490,-1.099445,14.008395,-12.941746,-4.835847,-0.224989,4.305641,0.980922,21.479862,23.927517,223.122772,8064.000000,0.000000,4.000000,,,,0.000000,4.000000,4.000000,4.000000,4.000000,4.000000,4.000000,4.000000,4.000000,4.000000,4.000000,4.000000,4.000000,4.000000,4.000000,4.000000,4.000000,4.000000,4.000000,4.000000,4.000000,4.000000,4.000000,4.000000,4.000000,4.000000,4.000000,4.000000,4.000000,4.000000,4.000000,4.000000,4.000000,100.000000
1615773480.373030,48.000000,0.000000,2.420846,8.561287,275.385040,0.015187,11.132091,4.465143,7.178851,-1.488228,13.703524,0.534956,3.248473,1.212573,-1.888384,1.168590,-5.767061,26.958267,22.113411,1.377691,7.061838,3.531454,0.204434,-1.229922,-3.149628,25.789259,-10.364701,17.220270,0.288057,4.814156,13.287634,7.099407,23.903591,221.874008,8064.000000,0.000000,4.000000,,,,0.000000,4.000000,4.000000,4.000000,4.000000,4.000000,4.000000,4.000000,4.000000,4.000000,4.000000,4.000000,4.000000,4.000000,4.000000,4.000000,4.000000,4.000000,4.000000,4.000000,4.000000,4.000000,4.000000,4.000000,4.000000,4.000000,4.000000,4.000000,4.000000,4.000000,4.000000,4.000000,4.000000,100.000000
1615773480.380780,49.000000,0.000000,1.905604,8.552726,274.596863,0.015172,12.659420,3.947857,7.171672,-0.973919,9.587255,3.611345,-14.190673,-4.942485,-1.886496,1.680242,-5.248473,32.572334,22.091297,4.453237,7.567596,4.040743,-4.411155,-1.741513,-2.633658,26.789110,-9.841516,28.485102,1.313410,4.809341,18.402552,5.041026,23.879686,222.677780,8064.000000,0.000000,4.000000,,,,0.000000,4.000000,4.000000,4.000000,4.000000,4.000000,4.000000,4.000000,4.000000,4.000000,4.000000,4.000000,4.000000,4.000000,4.000000,4.000000,4.000000,4.000000,4.000000,4.000000,4.000000,4.000000,4.000000,4.000000,4.000000,4.000000,4.000000,4.000000,4.000000,4.000000,4.000000,4.000000,4.000000,100.000000
1615773480.388629,50.000000,0.000000,1.903698,8.544173,274.835083,0.015157,12.646761,4.456730,7.164500,1.591157,7.013566,4.120553,-5.458534,-2.886261,-1.371789,2.191382,-4.730404,38.693607,22.069206,3.423142,7.047208,4.036703,-6.970847,-1.739771,-2.631024,22.659758,-9.831675,12.046360,1.312096,4.804532,6.589277,23.497524,23.855806,225.532013,8064.000000,0.000000,4.000000,,,,0.000000,4.000000,4.000000,4.000000,4.000000,4.000000,4.000000,4.000000,4.000000,4.000000,4.000000,4.000000,4.000000,4.000000,4.000000,4.000000,4.000000,4.000000,4.000000,4.000000,4.000000,4.000000,4.000000,4.000000,4.000000,4.000000,4.000000,4.000000,4.000000,4.000000,4.000000,4.000000,4.000000,100.000000
1615773480.396378,51.000000,0.000000,1.901795,8.535629,274.560242,0.015142,12.634114,7.016376,7.157336,1.589566,12.647578,3.603613,8.905899,-0.319272,-1.370417,1.163549,-5.751315,26.347221,22.047136,3.419719,7.040161,4.032666,-2.861311,-1.738032,-2.628393,21.611456,-8.796202,11.521493,1.310784,4.799727,4.018585,24.499666,23.831951,226.332123,8064.000000,0.000000,4.000000,,,,0.000000,4.000000,4.000000,4.000000,4.000000,4.000000,4.000000,4.000000,4.000000,4.000000,4.000000,4.000000,4.000000,4.000000,4.000000,4.000000,4.000000,4.000000,4.000000,4.000000,4.000000,4.000000,4.000000,4.000000,4.000000,4.000000,4.000000,4.000000,4.000000,4.000000,4.000000,4.000000,4.000000,100.000000
1615773480.404227,52.000000,0.000000,1.899893,8.527093,272.234406,0.527947,12.621480,7.522180,7.150178,3.126438,16.737494,3.087188,7.871352,-1.344594,-2.394687,2.188027,-5.232743,19.141388,22.025089,3.929120,7.545941,3.515813,0.218473,-1.736293,-0.061662,19.025742,-10.838688,18.176638,0.283832,4.794928,13.245336,13.193116,23.808119,224.567337,8064.000000,0.000000,4.000000,,,,0.000000,4.000000,4.000000,4.000000,4.000000,4.000000,4.000000,4.000000,4.000000,4.000000,4.000000,4.000000,4.000000,4.000000,4.000000,4.000000,4.000000,4.000000,4.000000,4.000000,4.000000,4.000000,4.000000,4.000000,4.000000,4.000000,4.000000,4.000000,4.000000,4.000000,4.000000,4.000000,4.000000,100.000000
1615773480.411976,53.000000,0.000000,1.897993,8.518566,269.910889,0.014599,12.608858,8.027478,7.143028,5.687414,17.746397,4.109742,4.273737,-1.343249,-0.853831,7.314044,-1.124946,35.019684,22.003065,3.925191,5.999934,4.025117,-0.807387,-1.734557,1.476861,24.134922,-10.827849,14.568718,1.309190,4.790133,13.744911,16.769667,23.784311,225.368408,8064.000000,0.000000,4.000000,,,,0.000000,4.000000,4.000000,4.000000,4.000000,4.000000,4.000000,4.000000,4.000000,4.000000,4.000000,4.000000,4.000000,4.000000,4.000000,4.000000,4.000000,4.000000,4.000000,4.000000,4.000000,4.000000,4.000000,4.000000,4.000000,4.000000,4.000000,4.000000,4.000000,4.000000,4.000000,4.000000,4.000000,100.000000
1615773480.419625,54.000000,0.000000,1.896095,8.510048,269.128143,0.527405,12.596250,8.532271,7.135885,1.579163,16.703011,4.618453,11.448951,-0.829085,1.198305,7.306730,0.927461,43.189793,21.981062,3.408445,3.429831,4.021092,0.219062,-5.322566,-2.114359,26.162069,-2.099072,24.297739,1.307880,4.785343,13.218346,20.855461,23.247705,230.271240,8064.000000,0.000000,4.000000,,,,0.000000,4.000000,4.000000,4.000000,4.000000,4.000000,4.000000,4.000000,4.000000,4.000000,4.000000,4.000000,4.000000,4.000000,4.000000,4.000000,4.000000,4.000000,4.000000,4.000000,4.000000,4.000000,4.000000,4.000000,4.000000,4.000000,4.000000,4.000000,4.000000,4.000000,4.000000,4.000000,4.000000,100.000000
1615773480.427374,55.000000,0.000000,1.894199,7.988717,269.884674,2.578159,12.583653,6.985277,7.128749,-0.986519,8.481179,1.536912,11.950322,-0.828256,-3.418278,0.119936,-1.124749,33.403011,21.959082,3.405037,5.990504,-0.598313,0.731663,-8.906987,-6.727630,5.110266,-6.199538,26.837543,-2.795992,4.780557,13.717947,14.680759,23.737280,232.605072,8064.000000,0.000000,4.000000,,,,0.000000,4.000000,4.000000,4.000000,4.000000,4.000000,4.000000,4.000000,4.000000,4.000000,4.000000,4.000000,4.000000,4.000000,4.000000,4.000000,4.000000,4.000000,4.000000,4.000000,4.000000,4.000000,4.000000,4.000000,4.000000,4.000000,4.000000,4.000000,4.000000,4.000000,4.000000,4.000000,4.000000,100.000000
1615773480.435023,56.000000,0.000000,1.892305,8.493548,268.589142,4.114043,12.571070,9.542395,7.121620,4.142673,7.959877,0.509734,-6.010346,-0.827428,-9.568707,-1.418645,-1.636445,32.856789,21.937122,4.427273,10.599898,-3.674638,-1.320350,-9.923721,-6.208081,-5.151255,-25.167698,5.785065,-6.382939,4.775777,3.447819,18.768642,23.713541,231.346832,8064.000000,0.000000,4.000000,,,,0.000000,4.000000,4.000000,4.000000,4.000000,4.000000,4.000000,4.000000,4.000000,4.000000,4.000000,4.000000,4.000000,4.000000,4.000000,4.000000,4.000000,4.000000,4.000000,4.000000,4.000000,4.000000,4.000000,4.000000,4.000000,4.000000,4.000000,4.000000,4.000000,4.000000,4.000000,4.000000,4.000000,100.000000
1615773480.442772,57.000000,0.000000,1.890412,10.536337,268.833374,4.109929,12.558498,16.712339,7.114499,4.651350,21.798071,7.175890,-10.106900,-0.826601,-9.559137,1.659696,-1.121988,31.798290,21.915184,3.910025,11.102118,-0.594040,3.809175,-9.913797,-3.124950,17.930820,-19.501503,1.676716,-4.838095,4.771001,1.393089,32.083206,23.177008,234.192413,8064.000000,0.000000,4.000000,,,,0.000000,4.000000,4.000000,4.000000,4.000000,4.000000,4.000000,4.000000,4.000000,4.000000,4.000000,4.000000,4.000000,4.000000,4.000000,4.000000,4.000000,4.000000,4.000000,4.000000,4.000000,4.000000,4.000000,4.000000,4.000000,4.000000,4.000000,4.000000,4.000000,4.000000,4.000000,4.000000,4.000000,100.000000
1615773480.450421,58.000000,0.000000,1.888522,12.064262,270.615814,3.592998,12.033119,17.208448,7.107384,-0.994326,18.186529,5.630253,11.954489,-0.825774,-8.523937,1.658037,-2.146507,18.945978,21.893269,0.316371,10.578196,-1.106267,7.395110,-8.878242,-2.609005,26.630838,1.543639,20.136578,-2.269154,4.766230,15.237850,29.999842,23.666651,238.573593,8064.000000,0.000000,4.000000,,,,0.000000,4.000000,4.000000,4.000000,4.000000,4.000000,4.000000,4.000000,4.000000,4.000000,4.000000,4.000000,4.000000,4.000000,4.000000,4.000000,4.000000,4.000000,4.000000,4.000000,4.000000,4.000000,4.000000,4.000000,4.000000,4.000000,4.000000,4.000000,4.000000,4.000000,4.000000,4.000000,4.000000,100.000000
1615773480.458170,59.000000,0.000000,1.886634,12.052198,272.396484,4.102226,12.021087,11.550214,7.100277,0.545129,7.911933,-4.118967,15.532278,-0.824948,-9.541055,2.169199,-1.118719,26.106520,21.871376,0.316055,10.054797,-4.182084,-2.355875,-6.818082,-2.606396,13.783694,-5.124571,26.270287,-2.779705,4.761464,19.837997,18.687790,26.207087,238.847839,8064.000000,0.000000,4.000000,,,,0.000000,4.000000,4.000000,4.000000,4.000000,4.000000,4.000000,4.000000,4.000000,4.000000,4.000000,4.000000,4.000000,4.000000,4.000000,4.000000,4.000000,4.000000,4.000000,4.000000,4.000000,4.000000,4.000000,4.000000,4.000000,4.000000,4.000000,4.000000,4.000000,4.000000,4.000000,4.000000,4.000000,100.000000
1615773480.465820,60.000000,0.000000,1.884747,12.040146,272.124084,4.098124,13.034706,11.025843,7.093176,2.083046,20.211714,-0.012284,-3.457613,-0.824123,-9.018693,0.628568,-0.604780,41.465031,21.849504,-0.197082,11.070383,-3.665081,-11.584289,-5.272803,-2.603789,24.539141,-20.504063,21.115812,-3.289746,4.756702,13.151492,18.669104,27.206522,237.583359,8064.000000,0.000000,4.000000,,,,0.000000,4.000000,4.000000,4.000000,4.000000,4.000000,4.000000,4.000000,4.000000,4.000000,4.000000,4.000000,4.000000,4.000000,4.000000,4.000000,4.000000,4.000000,4.000000,4.000000,4.000000,4.000000,4.000000,4.000000,4.000000,4.000000,4.000000,4.000000,4.000000,4.000000,4.000000,4.000000,4.000000,100.000000
1615773480.473569,61.000000,0.000000,1.882862,12.028106,271.339142,4.094025,12.508851,12.040458,7.086083,-3.560063,25.319706,1.526190,0.648409,-0.823299,-9.522494,-6.038727,-8.296483,23.474846,21.827656,-12.504577,11.572134,-4.687057,-11.572704,-5.267530,-2.601186,39.899216,-19.457916,17.504953,-2.773636,4.751945,12.625521,18.650434,27.179316,237.858597,8064.000000,0.000000,4.000000,,,,0.000000,4.000000,4.000000,4.000000,4.000000,4.000000,4.000000,4.000000,4.000000,4.000000,4.000000,4.000000,4.000000,4.000000,4.000000,4.000000,4.000000,4.000000,4.000000,4.000000,4.000000,4.000000,4.000000,4.000000,4.000000,4.000000,4.000000,4.000000,4.000000,4.000000,4.000000,4.000000,4.000000,100.000000
1615773480.481218,62.000000,0.000000,1.880979,12.016078,271.580627,4.089931,10.957881,11.002776,7.078997,-6.633426,5.807208,-11.295849,12.442632,-0.822476,-8.487331,-7.571150,-12.390750,9.092397,21.805828,-18.133099,9.509279,-7.759293,-12.073953,-5.775083,-2.598584,30.628550,-17.899998,16.461807,-2.770862,4.747194,12.100074,14.016399,27.152136,237.620743,8064.000000,0.000000,4.000000,,,,0.000000,4.000000,4.000000,4.000000,4.000000,4.000000,4.000000,4.000000,4.000000,4.000000,4.000000,4.000000,4.000000,4.000000,4.000000,4.000000,4.000000,4.000000,4.000000,4.000000,4.000000,4.000000,4.000000,4.000000,4.000000,4.000000,4.000000,4.000000,4.000000,4.000000,4.000000,4.000000,4.000000,100.000000
1615773480.488967,63.000000,0.000000,1.879098,12.004062,271.821869,4.085841,17.100769,13.555877,7.071918,-3.037049,2.211657,-1.028143,-3.467247,-0.821653,-5.914741,-0.896912,-5.198873,34.211510,21.784021,-3.755990,11.551052,-5.187431,-8.984955,-5.769308,-2.595986,19.828690,-8.651328,23.624832,-2.768091,4.742446,12.087975,22.207510,27.637804,237.383118,8064.000000,0.000000,4.000000,,,,0.000000,4.000000,4.000000,4.000000,4.000000,4.000000,4.000000,4.000000,4.000000,4.000000,4.000000,4.000000,4.000000,4.000000,4.000000,4.000000,4.000000,4.000000,4.000000,4.000000,4.000000,4.000000,4.000000,4.000000,4.000000,4.000000,4.000000,4.000000,4.000000,4.000000,4.000000,4.000000,4.000000,100.000000
1615773480.496616,64.000000,0.000000,1.877219,11.992058,271.550049,4.081756,24.775976,18.670525,7.064847,-0.982730,16.055599,18.972885,-16.284292,-0.820832,-6.934467,2.693729,-1.091110,48.536274,21.762238,7.529817,19.231810,-0.566859,1.280440,-5.250718,-2.593390,18.783220,3.665015,27.703772,-2.765323,5.250525,18.229733,32.954533,27.610167,237.658554,0.000000,192.000000,4.000000,,,,0.000000,4.000000,4.000000,4.000000,4.000000,4.000000,4.000000,4.000000,4.000000,4.000000,4.000000,4.000000,4.000000,4.000000,4.000000,4.000000,4.000000,4.000000,4.000000,4.000000,4.000000,4.000000,4.000000,4.000000,4.000000,4.000000,4.000000,4.000000,4.000000,4.000000,4.000000,4.000000,4.000000,100.000000
1615773480.504365,65.000000,0.000000,1.875342,11.980065,270.252838,3.564853,16.546072,19.164675,7.570602,-1.494568,16.039543,5.107759,-3.960315,-0.820011,-7.953174,1.665394,-6.731044,31.051838,22.253296,4.958185,18.186935,-2.104754,1.279160,-5.758288,-2.590796,18.251616,-9.159163,15.881196,-2.762558,4.732453,17.698683,26.254913,27.069735,236.908066,0.000000,193.000000,4.000000,,,,0.000000,4.000000,4.000000,4.000000,4.000000,4.000000,4.000000,4.000000,4.000000,4.000000,4.000000,4.000000,4.000000,4.000000,4.000000,4.000000,4.000000,4.000000,4.000000,4.000000,4.000000,4.000000,4.000000,4.000000,4.000000,4.000000,4.000000,4.000000,4.000000,4.000000,4.000000,4.000000,4.000000,100.000000
1615773480.512014,66.000000,0.000000,2.386287,12.480906,271.008240,4.074109,9.350039,19.145512,6.024570,-1.493073,12.433761,-6.692221,2.197491,-0.306370,-5.893939,1.150908,-9.288416,20.764376,21.205402,2.901944,8.937980,-4.153931,-6.927248,-8.316632,-2.588206,20.284647,-17.355131,7.660186,-2.759795,5.240541,12.552778,19.049171,27.042665,237.183990,0.000000,216.000000,4.000000,,,,0.000000,4.000000,4.000000,4.000000,4.000000,4.000000,4.000000,4.000000,4.000000,4.000000,4.000000,4.000000,4.000000,4.000000,4.000000,4.000000,4.000000,4.000000,4.000000,4.000000,4.000000,4.000000,4.000000,4.000000,4.000000,4.000000,4.000000,4.000000,4.000000,4.000000,4.000000,4.000000,4.000000,100.000000
1615773480.519764,67.000000,0.000000,0.332619,10.929964,270.224396,4.582855,14.981714,19.126366,3.967263,-1.491580,16.523891,8.186266,-10.625219,-0.306064,-4.862404,2.175398,-8.253486,24.846176,19.132914,2.386222,5.339298,-3.636957,-7.945961,-9.333957,-2.585618,17.700260,-0.414700,14.319193,-2.757036,5.235301,14.078687,18.517302,28.041264,236.946808,0.000000,195.000000,4.000000,,,,0.000000,4.000000,4.000000,4.000000,4.000000,4.000000,4.000000,4.000000,4.000000,4.000000,4.000000,4.000000,4.000000,4.000000,4.000000,4.000000,4.000000,4.000000,4.000000,4.000000,4.000000,4.000000,4.000000,4.000000,4.000000,4.000000,4.000000,4.000000,4.000000,4.000000,4.000000,4.000000,4.000000,100.000000
1615773480.527413,68.000000,0.000000,-1.718996,8.867752,260.723419,-0.037112,11.376988,14.491855,3.450475,-0.977268,15.994546,1.511413,-12.665876,-1.331399,-4.857542,2.173223,-8.758053,25.846972,18.088140,0.845374,7.898062,-3.120499,-6.399554,-9.324622,-2.583032,8.964610,-6.568131,13.792053,-2.754279,2.153143,8.423583,9.780835,22.885017,232.607285,0.000000,207.000000,4.000000,,,,0.000000,4.000000,4.000000,4.000000,4.000000,4.000000,4.000000,4.000000,4.000000,4.000000,4.000000,4.000000,4.000000,4.000000,4.000000,4.000000,4.000000,4.000000,4.000000,4.000000,4.000000,4.000000,4.000000,4.000000,4.000000,4.000000,4.000000,4.000000,4.000000,4.000000,4.000000,4.000000,4.000000,100.000000
1615773480.535262,69.000000,0.000000,-2.230097,7.833243,249.180634,-3.626819,-2.480542,8.323516,2.421384,-0.976291,12.901628,-17.464457,-2.396800,-0.817247,-1.775761,0.632588,-6.185193,29.923689,17.557232,-0.693933,6.351702,-3.630199,-9.982898,-9.315298,-2.580449,9.468466,-28.100025,-0.580713,-2.751524,-2.464395,-3.379713,4.130029,13.631363,226.220840,0.000000,180.000000,4.000000,,,,0.000000,4.000000,4.000000,4.000000,4.000000,4.000000,4.000000,4.000000,4.000000,4.000000,4.000000,4.000000,4.000000,4.000000,4.000000,4.000000,4.000000,4.000000,4.000000,4.000000,4.000000,4.000000,4.000000,4.000000,4.000000,4.000000,4.000000,4.000000,4.000000,4.000000,4.000000,4.000000,4.000000,100.000000
1615773480.543011,70.000000,0.000000,-1.715047,8.338230,246.367355,0.479372,-1.452420,6.776731,-0.145140,-3.026596,12.375907,-6.164941,-8.548249,-0.303609,-3.312447,-1.932147,-5.666187,35.021969,17.539675,-2.231700,5.832530,-4.139390,-12.024198,-9.305983,-2.577868,15.612844,-19.353975,-8.272440,-2.748773,-2.974751,-2.350692,10.279745,11.566450,223.943329,0.000000,197.000000,4.000000,,,,0.000000,4.000000,4.000000,4.000000,4.000000,4.000000,4.000000,4.000000,4.000000,4.000000,4.000000,4.000000,4.000000,4.000000,4.000000,4.000000,4.000000,4.000000,4.000000,4.000000,4.000000,4.000000,4.000000,4.000000,4.000000,4.000000,4.000000,4.000000,4.000000,4.000000,4.000000,4.000000,4.000000,100.000000
