title:32, start timestamp:1615774018.277491, stop timestamp:1615774064.872813, headset type:EPOCFLEX, headset serial:F00001ED, headset firmware:f12, subject name:s19, channels:75, sampling rate:128, samples:6014      , version:2.0
Timestamp,EEG.Counter,EEG.Interpolated,EEG.Cz,EEG.Fz,EEG.Fp1,EEG.AF3,EEG.F7,EEG.F3,EEG.FC1,EEG.C3,EEG.FC5,EEG.T7,EEG.CP5,EEG.CP1,EEG.P3,EEG.P7,EEG.PO3,EEG.O1,EEG.Pz,EEG.Oz,EEG.O2,EEG.PO4,EEG.P8,EEG.P4,EEG.CP2,EEG.CP6,EEG.T8,EEG.FC6,EEG.C4,EEG.FC2,EEG.F4,EEG.F8,EEG.AF4,EEG.Fp2,EEG.HighBitFlex,EEG.RawCq,EEG.Battery,MarkerIndex,MarkerType,MarkerValueInt,EEG.MarkerHardware,CQ.Cz,CQ.Fz,CQ.Fp1,CQ.AF3,CQ.F7,CQ.F3,CQ.FC1,CQ.C3,CQ.FC5,CQ.T7,CQ.CP5,CQ.CP1,CQ.P3,CQ.P7,CQ.PO3,CQ.O1,CQ.Pz,CQ.Oz,CQ.O2,CQ.PO4,CQ.P8,CQ.P4,CQ.CP2,CQ.CP6,CQ.T8,CQ.FC6,CQ.C4,CQ.FC2,CQ.F4,CQ.F8,CQ.AF4,CQ.Fp2,CQ.Overall
1615774018.277491,84.000000,0.000000,-1.055889,1.211695,9.230965,19.623114,36.855453,16.157328,2.734863,16.011213,-77.749840,-9.212488,7.286668,2.666968,-11.393551,-1.022924,1.101052,12.034386,-5.232746,8.187584,6.088658,-6.610908,-10.720164,-6.810350,-3.915117,-11.854673,-31.532242,-19.111847,-7.936503,-10.089820,-16.140209,-73.255135,-2.660428,-34.465668,0.000000,190.000000,4.000000,,,,0.000000,4.000000,4.000000,4.000000,4.000000,4.000000,4.000000,4.000000,4.000000,4.000000,4.000000,4.000000,4.000000,4.000000,4.000000,4.000000,4.000000,4.000000,4.000000,4.000000,4.000000,4.000000,4.000000,4.000000,4.000000,4.000000,4.000000,4.000000,4.000000,4.000000,4.000000,4.000000,2.000000,83.333336
1615774018.285340,85.000000,0.000000,-1.567653,-2.892081,4.093528,17.039389,33.741676,16.141171,3.244949,14.969562,-77.672089,-8.177635,-5.541132,2.151480,-12.407799,-1.021901,-0.951331,10.996710,-6.253154,6.128114,6.595390,-8.142758,-11.222264,-6.290720,-5.962483,-14.919743,-31.500710,-27.297863,-7.928567,-11.618192,-21.765095,-71.643417,-3.170588,-37.508125,0.000000,193.000000,4.000000,,,,0.000000,4.000000,4.000000,4.000000,4.000000,4.000000,4.000000,4.000000,4.000000,4.000000,4.000000,4.000000,4.000000,4.000000,4.000000,4.000000,4.000000,4.000000,4.000000,4.000000,4.000000,4.000000,4.000000,4.000000,4.000000,4.000000,4.000000,4.000000,4.000000,4.000000,4.000000,4.000000,2.000000,83.333336
1615774018.293089,86.000000,0.000000,-2.078906,-6.991753,-2.577232,14.971066,28.579729,15.612209,3.241704,13.928950,-78.620056,-8.169457,-1.433027,2.662149,-13.421032,-0.508059,-3.514482,10.985713,-6.759721,4.070704,1.973410,-8.647436,-16.852068,-7.310070,-8.520623,-22.084311,-31.982029,-34.962872,-7.920639,-10.068112,-23.281790,-73.623062,-3.680238,-39.521900,0.000000,182.000000,4.000000,,,,0.000000,4.000000,4.000000,4.000000,4.000000,4.000000,4.000000,4.000000,4.000000,4.000000,4.000000,4.000000,4.000000,4.000000,4.000000,4.000000,4.000000,4.000000,4.000000,4.000000,4.000000,4.000000,4.000000,4.000000,4.000000,4.000000,4.000000,4.000000,4.000000,4.000000,4.000000,4.000000,2.000000,83.333336
1615774018.300938,87.000000,0.000000,-1.051186,-6.984761,1.527909,14.443275,28.551149,16.109417,4.776924,15.966304,-78.028618,-11.238211,9.337637,3.172308,-10.843509,-2.046012,-5.049429,12.000369,-5.727320,2.528172,-7.772153,-10.690071,-22.989061,-9.866862,-10.050565,-25.139149,-42.719276,-31.850988,-7.912718,-7.493941,-21.720047,-73.549438,-3.163738,-38.969559,0.000000,173.000000,4.000000,,,,0.000000,4.000000,4.000000,4.000000,4.000000,4.000000,4.000000,4.000000,4.000000,4.000000,4.000000,4.000000,4.000000,4.000000,4.000000,4.000000,4.000000,4.000000,4.000000,4.000000,4.000000,4.000000,4.000000,4.000000,4.000000,4.000000,4.000000,4.000000,4.000000,4.000000,4.000000,4.000000,4.000000,100.000000
1615774018.308687,88.000000,0.000000,-2.588596,-6.464955,2.552022,9.813447,28.009777,16.093307,-0.356059,10.309312,-78.463409,-11.739794,-10.671700,-1.446249,-14.935229,-6.659351,-8.121303,7.885804,-7.772875,0.987182,-10.328484,-12.217843,-22.966072,-10.369816,-12.091796,-24.088367,-45.753483,-34.896061,-7.904805,-10.563371,-24.262430,-67.322044,-3.160574,-38.930588,0.000000,203.000000,4.000000,,,,0.000000,4.000000,4.000000,4.000000,4.000000,4.000000,4.000000,4.000000,4.000000,4.000000,4.000000,4.000000,4.000000,4.000000,4.000000,4.000000,4.000000,4.000000,4.000000,4.000000,4.000000,4.000000,4.000000,4.000000,4.000000,4.000000,4.000000,4.000000,4.000000,4.000000,4.000000,4.000000,4.000000,100.000000
1615774018.316536,89.000000,0.000000,-8.227034,-7.484131,3.062291,6.726711,25.417664,16.077215,-7.535190,-1.495869,-77.872124,-5.574207,-32.199490,-8.111469,-25.689524,-8.703974,-11.702925,2.749713,-9.303564,-0.039446,-5.702771,-12.205625,-22.430286,-9.846625,-12.592525,-23.551460,-30.835934,-38.963726,-7.896900,-13.116910,-19.109962,-60.588051,-1.618952,-35.814735,0.000000,229.000000,4.000000,,,,0.000000,4.000000,4.000000,4.000000,4.000000,4.000000,4.000000,4.000000,4.000000,4.000000,4.000000,4.000000,4.000000,4.000000,4.000000,4.000000,4.000000,4.000000,4.000000,4.000000,4.000000,4.000000,4.000000,4.000000,4.000000,4.000000,4.000000,4.000000,4.000000,4.000000,4.000000,4.000000,4.000000,100.000000
1615774018.324285,90.000000,0.000000,-8.731627,-5.425365,10.238716,7.745625,27.443529,16.061138,-2.912270,-4.571297,-76.768616,-6.081454,-13.705752,-10.154640,-25.151014,-8.182449,-10.152761,10.439271,-10.319901,0.473414,-5.697068,-12.706240,-22.407856,-11.375240,-12.067112,-25.066370,-24.651251,-18.924765,-7.889003,-9.001228,-6.783160,-61.040283,0.433949,-31.676355,0.000000,193.000000,4.000000,,,,0.000000,4.000000,4.000000,4.000000,4.000000,4.000000,4.000000,4.000000,4.000000,4.000000,4.000000,4.000000,4.000000,4.000000,4.000000,4.000000,4.000000,4.000000,4.000000,4.000000,4.000000,4.000000,4.000000,4.000000,4.000000,4.000000,4.000000,4.000000,4.000000,4.000000,4.000000,4.000000,4.000000,100.000000
1615774018.332134,91.000000,0.000000,-3.081870,-0.804555,14.843862,6.712238,28.954546,16.045076,4.270130,1.587121,-78.743126,-8.639475,10.410518,-7.067563,-11.792530,-8.174267,-2.963121,26.326267,-9.283940,0.472940,-4.152909,-11.667892,-20.846987,-9.312583,-12.055044,-24.528482,-30.780447,-0.444301,-7.881114,-5.402484,-3.186633,-59.440784,0.433515,-31.131859,0.000000,195.000000,4.000000,,,,0.000000,4.000000,4.000000,4.000000,4.000000,4.000000,4.000000,4.000000,4.000000,4.000000,4.000000,4.000000,4.000000,4.000000,4.000000,4.000000,4.000000,4.000000,4.000000,4.000000,4.000000,4.000000,4.000000,4.000000,4.000000,4.000000,4.000000,4.000000,4.000000,4.000000,4.000000,4.000000,4.000000,100.000000
1615774018.339883,92.000000,0.000000,-1.027506,1.247531,13.803377,8.756808,28.412771,16.029032,3.753039,4.149636,-77.638741,2.138395,3.733440,-5.522033,-6.652533,-8.678913,3.706509,31.940968,-9.274656,0.472467,9.697397,-5.502378,-17.749216,-4.175066,-12.042990,-20.401390,-23.570179,-15.315651,-7.873233,-6.935543,-7.286011,-53.227497,0.433082,-31.100727,0.000000,215.000000,4.000000,,,,0.000000,4.000000,4.000000,4.000000,4.000000,4.000000,4.000000,4.000000,4.000000,4.000000,4.000000,4.000000,4.000000,4.000000,4.000000,4.000000,4.000000,4.000000,4.000000,4.000000,4.000000,4.000000,4.000000,4.000000,4.000000,4.000000,4.000000,4.000000,4.000000,4.000000,4.000000,4.000000,4.000000,100.000000
1615774018.347732,93.000000,0.000000,-2.052119,1.246284,13.276753,14.389077,29.922821,16.013002,4.262106,3.119846,-71.407257,6.751642,-0.885678,-5.003691,-9.209983,-8.157413,4.215623,29.344923,-11.829484,0.984815,18.405649,-6.009696,-14.654544,-4.170890,-12.030947,-16.278425,-16.367121,-30.172131,-7.865360,-7.441428,-8.304366,-53.174267,0.432649,-31.582445,0.000000,204.000000,4.000000,,,,0.000000,4.000000,4.000000,4.000000,4.000000,4.000000,4.000000,4.000000,4.000000,4.000000,4.000000,4.000000,4.000000,4.000000,4.000000,4.000000,4.000000,4.000000,4.000000,4.000000,4.000000,4.000000,4.000000,4.000000,4.000000,4.000000,4.000000,4.000000,4.000000,4.000000,4.000000,4.000000,4.000000,100.000000
1615774018.355481,94.000000,0.000000,-1.537247,-0.293424,11.212194,12.323406,26.303154,15.996989,7.334767,3.116726,-72.874313,-8.126904,10.397260,-4.998687,-8.687952,-8.149256,1.134484,29.828400,-16.433039,0.983831,8.643653,-11.131892,-14.127069,-6.730822,-12.018915,-16.262146,-26.607164,-23.475292,-7.857495,-6.408345,-6.757600,-59.274940,0.432216,-33.602146,0.000000,210.000000,4.000000,,,,0.000000,4.000000,4.000000,4.000000,4.000000,4.000000,4.000000,4.000000,4.000000,4.000000,4.000000,4.000000,4.000000,4.000000,4.000000,4.000000,4.000000,4.000000,4.000000,4.000000,4.000000,4.000000,4.000000,4.000000,4.000000,4.000000,4.000000,4.000000,4.000000,4.000000,4.000000,4.000000,4.000000,100.000000
1615774018.363330,95.000000,0.000000,-1.022889,-2.344413,5.047136,4.105954,15.507620,15.980992,5.788971,4.139250,-82.032204,-18.888008,4.233016,-4.993688,-7.653623,-8.141107,0.620529,31.337032,-17.442247,-0.042794,-2.647042,-9.582298,-19.753967,-6.724092,-12.006897,-16.758705,-36.836967,-22.938995,-7.849637,-6.914758,-7.776484,-62.292587,0.431784,-35.107006,0.000000,198.000000,4.000000,,,,0.000000,4.000000,4.000000,4.000000,4.000000,4.000000,4.000000,4.000000,4.000000,4.000000,4.000000,4.000000,4.000000,4.000000,4.000000,4.000000,4.000000,4.000000,4.000000,4.000000,4.000000,4.000000,4.000000,4.000000,4.000000,4.000000,4.000000,4.000000,4.000000,4.000000,4.000000,4.000000,4.000000,100.000000
1615774018.371079,96.000000,0.000000,-1.534686,-3.367709,0.939525,2.050566,13.953651,15.965011,3.219079,3.622290,-86.565559,-16.817839,-16.796858,-4.988695,-8.158790,-8.132966,0.107088,25.664669,-16.911985,-0.042751,-2.644394,-9.572716,-23.323957,-7.743008,-12.507710,-16.229126,-36.800129,-34.198109,-8.867429,-6.907843,-8.281528,-60.691833,-0.081468,-35.071899,8064.000000,0.000000,4.000000,,,,0.000000,4.000000,4.000000,4.000000,4.000000,4.000000,4.000000,4.000000,4.000000,4.000000,4.000000,4.000000,4.000000,4.000000,4.000000,4.000000,4.000000,4.000000,4.000000,4.000000,4.000000,4.000000,4.000000,4.000000,4.000000,4.000000,4.000000,4.000000,4.000000,4.000000,4.000000,4.000000,4.000000,100.000000
1615774018.378928,97.000000,0.000000,-1.533152,-3.364342,1.964226,4.099798,21.119184,13.897764,3.215860,3.105848,-84.427711,-15.262559,-21.908266,-4.983706,-8.663451,-8.124833,-2.457121,16.921057,-18.433535,0.982932,-1.103289,-16.742630,-21.762171,-10.299368,-11.982382,-16.212896,-34.712048,-35.702370,-8.345740,-6.900935,-7.760426,-59.605503,-0.081387,-36.575287,8064.000000,0.000000,4.000000,,,,0.000000,4.000000,4.000000,4.000000,4.000000,4.000000,4.000000,4.000000,4.000000,4.000000,4.000000,4.000000,4.000000,4.000000,4.000000,4.000000,4.000000,4.000000,4.000000,4.000000,4.000000,4.000000,4.000000,4.000000,4.000000,4.000000,4.000000,4.000000,4.000000,4.000000,4.000000,4.000000,4.000000,100.000000
1615774018.386678,98.000000,0.000000,-1.531619,-2.848157,1.962262,2.557236,16.482681,11.832584,3.725465,3.102742,-85.368927,-17.298578,-14.706871,-4.978722,-8.654788,-8.629529,-3.993126,14.340033,-16.363819,-2.607794,-6.743211,-19.802811,-24.817333,-10.801889,-11.970400,-17.222324,-35.190155,-32.076927,-7.311754,-6.894034,-7.752665,-68.776665,0.944335,-38.077175,8064.000000,0.000000,4.000000,,,,0.000000,4.000000,4.000000,4.000000,4.000000,4.000000,4.000000,4.000000,4.000000,4.000000,4.000000,4.000000,4.000000,4.000000,4.000000,4.000000,4.000000,4.000000,4.000000,4.000000,4.000000,4.000000,4.000000,4.000000,4.000000,4.000000,4.000000,4.000000,4.000000,4.000000,4.000000,4.000000,4.000000,100.000000
1615774018.394527,99.000000,0.000000,-1.530087,-3.358129,-5.732008,-1.035064,5.184147,11.820751,3.721740,3.099639,-85.283554,-18.306921,-14.179343,-4.973743,-8.646133,-8.108079,-3.989133,14.325693,-12.757711,-7.220571,-14.428776,-20.808649,-30.946362,-10.278267,-12.471250,-16.692282,-40.283173,-34.608952,-9.355724,-6.887140,-7.744912,-76.400192,-1.620711,-39.577557,8064.000000,0.000000,4.000000,,,,0.000000,4.000000,4.000000,4.000000,4.000000,4.000000,4.000000,4.000000,4.000000,4.000000,4.000000,4.000000,4.000000,4.000000,4.000000,4.000000,4.000000,4.000000,4.000000,4.000000,4.000000,4.000000,4.000000,4.000000,4.000000,4.000000,4.000000,4.000000,4.000000,4.000000,4.000000,4.000000,4.000000,100.000000
1615774018.402276,100.000000,0.000000,-1.528557,-3.354771,-9.316020,2.042894,7.230245,11.808930,3.205197,3.096539,-83.146988,-13.160409,-19.293369,-4.968770,-8.637487,-8.612791,-3.985143,12.772905,-14.796235,-2.597966,-11.337423,-21.300661,-22.710287,-10.267988,-11.433138,-16.675589,-34.089043,-30.471779,-7.807907,-7.393074,-8.249988,-67.093025,-3.157552,-38.512341,8064.000000,0.000000,4.000000,,,,0.000000,4.000000,4.000000,4.000000,4.000000,4.000000,4.000000,4.000000,4.000000,4.000000,4.000000,4.000000,4.000000,4.000000,4.000000,4.000000,4.000000,4.000000,4.000000,4.000000,4.000000,4.000000,4.000000,4.000000,4.000000,4.000000,4.000000,4.000000,4.000000,4.000000,4.000000,4.000000,4.000000,100.000000
1615774018.410125,101.000000,0.000000,-1.527028,1.263968,1.975348,15.374184,20.556349,13.848404,4.227633,5.657546,-82.038200,0.698905,-9.017666,-4.963801,-8.628850,-8.091357,-0.391415,17.888338,-11.191695,7.661042,6.109811,-7.946027,-7.302961,-7.693618,-5.267858,-18.197374,-13.542132,-9.928486,2.969132,-5.847219,-5.677635,-52.154140,5.563554,-30.781519,8064.000000,0.000000,4.000000,,,,0.000000,4.000000,4.000000,4.000000,4.000000,4.000000,4.000000,4.000000,4.000000,4.000000,4.000000,4.000000,4.000000,4.000000,4.000000,4.000000,4.000000,4.000000,4.000000,4.000000,4.000000,4.000000,4.000000,4.000000,4.000000,4.000000,4.000000,4.000000,4.000000,4.000000,4.000000,4.000000,4.000000,100.000000
1615774018.417874,102.000000,0.000000,-1.525501,7.929371,13.255424,27.153681,28.228100,17.937120,6.787508,12.831375,-73.238213,7.364873,18.683661,-4.958837,-6.568939,-4.493523,4.224361,31.716602,1.640009,12.268766,18.924213,5.395252,-1.654633,-6.147463,-0.647206,-14.589434,-7.374744,2.389135,11.684112,-3.790090,-3.107855,-48.512241,15.301580,-23.571251,8192.000000,0.000000,4.000000,,,,0.000000,4.000000,4.000000,4.000000,4.000000,4.000000,4.000000,4.000000,4.000000,4.000000,4.000000,4.000000,4.000000,4.000000,4.000000,4.000000,4.000000,4.000000,4.000000,4.000000,4.000000,4.000000,4.000000,4.000000,4.000000,4.000000,4.000000,4.000000,4.000000,4.000000,4.000000,4.000000,4.000000,100.000000
1615774018.425523,103.000000,0.000000,-1.523976,9.459903,12.729347,24.562426,29.225512,19.457644,7.806362,18.459570,-63.421387,6.331867,25.331642,-4.953878,-3.998267,1.664817,4.732957,39.377193,3.689651,11.230856,13.777085,2.312934,-4.729901,-7.166956,-0.646559,-4.831255,-15.572498,-9.920946,10.646786,-2.760658,-5.156029,-49.489368,15.799099,-23.034859,8192.000000,0.000000,4.000000,,,,0.000000,4.000000,4.000000,4.000000,4.000000,4.000000,4.000000,4.000000,4.000000,4.000000,4.000000,4.000000,4.000000,4.000000,4.000000,4.000000,4.000000,4.000000,4.000000,4.000000,4.000000,4.000000,4.000000,4.000000,4.000000,4.000000,4.000000,4.000000,4.000000,4.000000,4.000000,4.000000,4.000000,100.000000
1615774018.433272,104.000000,0.000000,-1.522452,7.911982,10.152515,19.409658,27.657825,19.951008,7.798555,18.441111,-65.409248,9.402458,0.690926,-4.948925,-4.507090,4.227255,3.702584,38.312176,-4.006346,12.245266,9.660744,1.797800,-3.186710,-5.621328,-0.645912,-0.723859,-10.941541,-11.449487,10.636139,-2.757898,-5.663694,-49.439880,15.270479,-23.524645,8064.000000,0.000000,4.000000,,,,0.000000,4.000000,4.000000,4.000000,4.000000,4.000000,4.000000,4.000000,4.000000,4.000000,4.000000,4.000000,4.000000,4.000000,4.000000,4.000000,4.000000,4.000000,4.000000,4.000000,4.000000,4.000000,4.000000,4.000000,4.000000,4.000000,4.000000,4.000000,4.000000,4.000000,4.000000,4.000000,4.000000,100.000000
1615774018.440921,105.000000,0.000000,-1.520929,6.878429,9.116722,20.415890,27.117348,20.443876,7.790757,18.422668,-72.010506,9.905876,-4.437970,-4.943975,-4.502583,3.710207,5.237342,36.735401,-3.489520,15.822764,16.317749,10.001131,-1.645061,-1.000322,-0.645266,-1.748777,-5.802394,5.485039,11.138324,-2.755140,-3.093928,-48.364799,14.742389,-22.475479,8064.000000,0.000000,4.000000,,,,0.000000,4.000000,4.000000,4.000000,4.000000,4.000000,4.000000,4.000000,4.000000,4.000000,4.000000,4.000000,4.000000,4.000000,4.000000,4.000000,4.000000,4.000000,4.000000,4.000000,4.000000,4.000000,4.000000,4.000000,4.000000,4.000000,4.000000,4.000000,4.000000,4.000000,4.000000,4.000000,4.000000,100.000000
1615774018.448670,106.000000,0.000000,-1.519408,5.333089,6.030683,15.780088,24.013306,18.372150,6.757325,19.429888,-71.938492,3.742124,15.053648,-4.939032,-3.985260,3.193676,5.232105,37.724308,-2.460389,16.319763,14.250150,2.298822,-7.284442,0.539140,-0.644621,-0.721387,-15.027361,-7.853779,2.922057,-6.342128,-5.654936,-45.752331,10.112262,-26.042747,8064.000000,0.000000,4.000000,,,,0.000000,4.000000,4.000000,4.000000,4.000000,4.000000,4.000000,4.000000,4.000000,4.000000,4.000000,4.000000,4.000000,4.000000,4.000000,4.000000,4.000000,4.000000,4.000000,4.000000,4.000000,4.000000,4.000000,4.000000,4.000000,4.000000,4.000000,4.000000,4.000000,4.000000,4.000000,4.000000,4.000000,100.000000
1615774018.456319,107.000000,0.000000,-1.517889,2.763653,1.922088,6.020719,17.322626,13.225574,4.699286,12.743791,-75.969124,-1.389823,11.961671,-4.421272,-6.032556,4.216124,1.124309,38.199406,-5.534852,10.149596,-0.635895,-11.549631,-14.456645,-1.512681,-0.643976,-3.284768,-22.191820,-31.948490,-4.773172,-10.951171,-10.264666,-47.245041,8.050867,-30.119268,8064.000000,0.000000,4.000000,,,,0.000000,4.000000,4.000000,4.000000,4.000000,4.000000,4.000000,4.000000,4.000000,4.000000,4.000000,4.000000,4.000000,4.000000,4.000000,4.000000,4.000000,4.000000,4.000000,4.000000,4.000000,4.000000,4.000000,4.000000,4.000000,4.000000,4.000000,4.000000,4.000000,4.000000,4.000000,4.000000,4.000000,100.000000
1615774018.464068,108.000000,0.000000,-1.003551,0.709607,-3.720860,3.963416,11.151458,10.648245,3.156125,3.500278,-83.585457,-6.003818,-9.075932,-5.442492,-12.693191,-1.429118,-2.466559,25.340693,-5.016496,0.908678,-9.866029,-13.076543,-14.955009,-5.613732,-5.258717,-10.973791,-20.631168,-16.019106,-4.768399,-10.940220,-11.280043,-54.377285,5.991534,-32.653252,8064.000000,0.000000,4.000000,,,,0.000000,4.000000,4.000000,4.000000,4.000000,4.000000,4.000000,4.000000,4.000000,4.000000,4.000000,4.000000,4.000000,4.000000,4.000000,4.000000,4.000000,4.000000,4.000000,4.000000,4.000000,4.000000,4.000000,4.000000,4.000000,4.000000,4.000000,4.000000,4.000000,4.000000,4.000000,4.000000,4.000000,100.000000
1615774018.471718,109.000000,0.000000,-3.053829,0.708898,-10.383806,1.908171,6.012101,6.535033,-0.436775,1.958316,-84.014694,-11.126019,-10.605317,-8.001152,-19.859983,-16.812304,-5.028195,-2.889777,-11.678146,-5.246077,-14.471547,-14.601928,-16.478516,-9.197863,-11.407304,-12.501279,-20.097715,-5.746675,-6.814913,-9.903638,-14.858506,-57.399830,-0.168303,-37.235985,8064.000000,0.000000,4.000000,,,,0.000000,4.000000,4.000000,4.000000,4.000000,4.000000,4.000000,4.000000,4.000000,4.000000,4.000000,4.000000,4.000000,4.000000,4.000000,4.000000,4.000000,4.000000,4.000000,4.000000,4.000000,4.000000,4.000000,4.000000,4.000000,4.000000,4.000000,4.000000,4.000000,4.000000,4.000000,4.000000,4.000000,100.000000
1615774018.479467,110.000000,0.000000,-5.102057,-0.317452,-12.937525,-7.837327,-0.147757,-1.676630,-4.026082,3.494819,-87.520424,-14.191816,-3.415225,-9.018792,-23.429869,-27.564722,-14.766757,-17.245861,-24.999802,-7.292113,-16.508358,-19.202711,-22.103062,-10.727126,-13.447179,-15.565701,-21.103260,-28.817852,-8.346560,-10.919375,-18.433392,-56.316788,-4.783520,-42.326954,8064.000000,0.000000,4.000000,,,,0.000000,4.000000,4.000000,4.000000,4.000000,4.000000,4.000000,4.000000,4.000000,4.000000,4.000000,4.000000,4.000000,4.000000,4.000000,4.000000,4.000000,4.000000,4.000000,4.000000,4.000000,4.000000,4.000000,4.000000,4.000000,4.000000,4.000000,4.000000,4.000000,4.000000,4.000000,4.000000,4.000000,100.000000
1615774018.487116,111.000000,0.000000,-5.609776,-2.881237,-12.411767,-11.419233,-4.762994,-6.803159,-4.022056,2.978503,-95.125214,-17.767368,-4.437450,-8.496952,-23.406439,-24.460236,-22.957117,-6.459385,-26.513264,-7.284821,-8.286721,-16.106585,-20.029676,-10.203578,-10.356809,-23.755262,-20.569336,-23.660830,0.379736,-9.882815,-14.825213,-57.286114,-4.265916,-42.797447,8064.000000,0.000000,4.000000,,,,0.000000,4.000000,4.000000,4.000000,4.000000,4.000000,4.000000,4.000000,4.000000,4.000000,4.000000,4.000000,4.000000,4.000000,4.000000,4.000000,4.000000,4.000000,4.000000,4.000000,4.000000,4.000000,4.000000,4.000000,4.000000,4.000000,4.000000,4.000000,4.000000,4.000000,4.000000,4.000000,4.000000,100.000000
1615774018.494865,112.000000,0.000000,-5.091346,-3.391176,-12.399355,-5.253968,-4.758231,-6.283535,-3.505213,2.975525,-90.927521,-13.647037,-5.458654,-8.488456,-22.870211,-19.307570,-21.395699,5.854767,-17.768801,-7.277536,-2.637409,-11.475093,-12.317340,-10.193375,-6.243888,-22.193047,-20.548765,-2.098707,8.071664,-7.308830,-10.195004,-57.741646,-3.236009,-41.729008,8064.000000,0.000000,4.000000,,,,0.000000,4.000000,4.000000,4.000000,4.000000,4.000000,4.000000,4.000000,4.000000,4.000000,4.000000,4.000000,4.000000,4.000000,4.000000,4.000000,4.000000,4.000000,4.000000,4.000000,4.000000,4.000000,4.000000,4.000000,4.000000,4.000000,4.000000,4.000000,4.000000,4.000000,4.000000,4.000000,4.000000,100.000000
1615774018.502514,113.000000,0.000000,-5.086254,-2.874965,-12.386955,-2.171791,-4.240653,-5.764431,-4.014528,3.485370,-82.631462,-2.864159,-6.991657,-8.479967,-23.872982,-19.288261,-17.784559,5.336092,-15.699751,-7.270259,-7.762976,-11.976439,-10.766561,-10.696002,-4.186362,-13.965725,-20.528217,-19.019686,5.499489,-7.814342,-11.210450,-52.042881,-3.745593,-42.200100,8064.000000,0.000000,4.000000,,,,0.000000,4.000000,4.000000,4.000000,4.000000,4.000000,4.000000,4.000000,4.000000,4.000000,4.000000,4.000000,4.000000,4.000000,4.000000,4.000000,4.000000,4.000000,4.000000,4.000000,4.000000,4.000000,4.000000,4.000000,4.000000,4.000000,4.000000,4.000000,4.000000,4.000000,4.000000,4.000000,4.000000,100.000000
1615774018.510363,114.000000,0.000000,-5.081168,-3.384910,-12.374569,-4.220901,-4.236412,-6.271487,-4.010514,3.481885,-85.625755,-5.938218,-6.471845,-8.471487,-21.797827,-19.268974,-18.279596,5.843576,-17.222513,-4.698886,-6.216752,-12.477283,-11.268615,-10.172485,-4.694996,-14.464580,-20.507689,-29.257076,2.417067,-10.883451,-11.199240,-48.401093,-4.254668,-42.157898,8064.000000,0.000000,4.000000,,,,0.000000,4.000000,4.000000,4.000000,4.000000,4.000000,4.000000,4.000000,4.000000,4.000000,4.000000,4.000000,4.000000,4.000000,4.000000,4.000000,4.000000,4.000000,4.000000,4.000000,4.000000,4.000000,4.000000,4.000000,4.000000,4.000000,4.000000,4.000000,4.000000,4.000000,4.000000,4.000000,4.000000,100.000000
1615774018.518112,115.000000,0.000000,-5.076087,-2.868705,-11.849374,-3.703860,-4.232175,-6.265216,-3.493683,3.478403,-91.181160,-19.778433,2.765396,-8.463016,-16.647823,-18.736885,-16.210035,17.119783,-16.179649,-2.642905,4.045875,-11.439164,-8.180423,-10.162313,-4.177481,-15.475757,-20.487181,-6.150895,3.440291,-10.359746,-8.111117,-50.403973,-2.199131,-40.577278,8064.000000,0.000000,4.000000,,,,0.000000,4.000000,4.000000,4.000000,4.000000,4.000000,4.000000,4.000000,4.000000,4.000000,4.000000,4.000000,4.000000,4.000000,4.000000,4.000000,4.000000,4.000000,4.000000,4.000000,4.000000,4.000000,4.000000,4.000000,4.000000,4.000000,4.000000,4.000000,4.000000,4.000000,4.000000,4.000000,4.000000,100.000000
1615774018.525861,116.000000,0.000000,-5.071011,-0.301734,-12.350345,-3.187335,-3.715123,-6.258951,-3.490189,2.962104,-90.577156,-16.681732,5.326733,-8.454553,-15.605536,-18.205328,-13.629722,26.846254,-16.163469,-3.153083,7.631573,-11.427725,-6.633781,-10.152151,-5.198944,-9.819255,-20.466694,-4.093462,3.436851,-7.785284,-7.077365,-44.712543,4.469734,-35.921318,8064.000000,0.000000,4.000000,,,,0.000000,4.000000,4.000000,4.000000,4.000000,4.000000,4.000000,4.000000,4.000000,4.000000,4.000000,4.000000,4.000000,4.000000,4.000000,4.000000,4.000000,4.000000,4.000000,4.000000,4.000000,4.000000,4.000000,4.000000,4.000000,4.000000,4.000000,4.000000,4.000000,4.000000,4.000000,4.000000,4.000000,100.000000
1615774018.533510,117.000000,0.000000,-5.065940,1.237030,-12.337995,-3.184148,-3.711407,-6.252692,-3.486699,3.471962,-89.460938,-7.434281,3.270124,-8.446098,-16.102751,-18.699942,-14.128913,26.306587,-16.147306,-3.149930,5.572659,-11.929118,-7.652788,-10.141998,-7.757848,-10.322256,-20.446228,-19.986805,2.920593,-6.239038,-7.583108,-32.360138,8.055008,-31.270012,8064.000000,0.000000,4.000000,,,,0.000000,4.000000,4.000000,4.000000,4.000000,4.000000,4.000000,4.000000,4.000000,4.000000,4.000000,4.000000,4.000000,4.000000,4.000000,4.000000,4.000000,4.000000,4.000000,4.000000,4.000000,4.000000,4.000000,4.000000,4.000000,4.000000,4.000000,4.000000,4.000000,4.000000,4.000000,4.000000,4.000000,100.000000
1615774018.541359,118.000000,0.000000,-5.060874,0.722972,-11.812836,-3.693784,-4.733337,-5.733619,-3.483212,3.981311,-90.397118,-11.529410,6.343778,-8.437652,-14.548185,-19.194063,-14.114783,25.767460,-16.643978,-2.633959,5.567087,-11.917189,-7.645135,-10.131857,-8.262911,-16.465780,-20.425781,-15.351434,2.917673,-6.745619,-7.575525,-29.250856,7.534132,-30.213100,8064.000000,0.000000,4.000000,,,,0.000000,4.000000,4.000000,4.000000,4.000000,4.000000,4.000000,4.000000,4.000000,4.000000,4.000000,4.000000,4.000000,4.000000,4.000000,4.000000,4.000000,4.000000,4.000000,4.000000,4.000000,4.000000,4.000000,4.000000,4.000000,4.000000,4.000000,4.000000,4.000000,4.000000,4.000000,4.000000,4.000000,100.000000
1615774018.549109,119.000000,0.000000,-5.055813,0.722249,-12.313844,-3.690091,-3.702963,-6.753526,-3.479729,1.413227,-90.306717,-9.979420,-6.995900,-9.967676,-18.123381,-18.149227,-13.075027,27.280153,-19.704258,-3.144145,6.587161,-11.905272,-7.124670,-10.121725,-8.254647,-16.962135,-20.405355,-5.592492,2.914755,-6.738873,-7.055129,-35.375450,8.039419,-30.182888,8064.000000,0.000000,4.000000,,,,0.000000,4.000000,4.000000,4.000000,4.000000,4.000000,4.000000,4.000000,4.000000,4.000000,4.000000,4.000000,4.000000,4.000000,4.000000,4.000000,4.000000,4.000000,4.000000,4.000000,4.000000,4.000000,4.000000,4.000000,4.000000,4.000000,4.000000,4.000000,4.000000,4.000000,4.000000,4.000000,4.000000,100.000000
1615774018.556958,120.000000,0.000000,-5.050757,0.721527,-11.788709,-1.122298,-1.135157,-5.208311,-3.989070,-0.126648,-87.652313,3.876714,-25.963263,-13.034631,-23.233463,-15.566976,-15.113235,22.124668,-23.787117,-3.141001,5.554933,-11.893367,-7.630366,-10.111603,-10.810495,-15.919532,-20.384951,-5.586900,2.911840,-6.219314,-7.560894,-39.442642,7.005739,-28.101423,8064.000000,0.000000,4.000000,,,,0.000000,4.000000,4.000000,4.000000,4.000000,4.000000,4.000000,4.000000,4.000000,4.000000,4.000000,4.000000,4.000000,4.000000,4.000000,4.000000,4.000000,4.000000,4.000000,4.000000,4.000000,4.000000,4.000000,4.000000,4.000000,4.000000,4.000000,4.000000,4.000000,4.000000,4.000000,4.000000,4.000000,100.000000
1615774018.564707,121.000000,0.000000,-5.045706,0.720805,-8.699997,3.494209,-0.108381,2.489205,-3.472260,3.463223,-86.539017,3.872837,-7.475761,-11.483135,-15.517921,-16.064230,-13.559660,20.051262,-25.301792,-1.086578,5.549377,-11.881474,-7.622736,-10.101491,-12.338146,-16.416433,-20.877386,-6.094133,2.908928,-6.725915,-7.553334,-37.864735,8.537194,-26.534859,8064.000000,0.000000,4.000000,,,,0.000000,4.000000,4.000000,4.000000,4.000000,4.000000,4.000000,4.000000,4.000000,4.000000,4.000000,4.000000,4.000000,4.000000,4.000000,4.000000,4.000000,4.000000,4.000000,4.000000,4.000000,4.000000,4.000000,4.000000,4.000000,4.000000,4.000000,4.000000,4.000000,4.000000,4.000000,4.000000,4.000000,100.000000
1615774018.572556,122.000000,0.000000,-5.040660,0.720084,-5.101554,4.516356,1.430189,9.153382,-1.930326,7.562323,-85.939659,-8.438728,11.506074,-6.343447,-4.733173,-15.535345,-6.366613,25.672235,-22.199568,0.965790,5.543828,-11.869592,-7.615113,-10.091390,-11.812987,-16.912836,-20.343687,-10.703424,2.906019,-6.719189,-7.545780,-29.108923,15.195324,-27.021145,8064.000000,0.000000,4.000000,,,,0.000000,4.000000,4.000000,4.000000,4.000000,4.000000,4.000000,4.000000,4.000000,4.000000,4.000000,4.000000,4.000000,4.000000,4.000000,4.000000,4.000000,4.000000,4.000000,4.000000,4.000000,4.000000,4.000000,4.000000,4.000000,4.000000,4.000000,4.000000,4.000000,4.000000,4.000000,4.000000,4.000000,100.000000
1615774018.580305,123.000000,0.000000,-5.035620,0.719364,-4.583632,3.999019,5.531323,9.144229,0.122886,7.554761,-85.853722,-9.968751,-8.505432,-3.773001,-6.266901,-13.468527,-8.924349,18.467077,-17.561983,-1.086458,5.538284,-11.857722,-7.607498,-10.081299,-11.801175,-16.895924,-20.323343,-15.820926,2.903113,-6.712470,-7.538235,-22.925968,18.257051,-26.994123,8064.000000,0.000000,4.000000,,,,0.000000,4.000000,4.000000,4.000000,4.000000,4.000000,4.000000,4.000000,4.000000,4.000000,4.000000,4.000000,4.000000,4.000000,4.000000,4.000000,4.000000,4.000000,4.000000,4.000000,4.000000,4.000000,4.000000,4.000000,4.000000,4.000000,4.000000,4.000000,4.000000,4.000000,4.000000,4.000000,4.000000,100.000000
1615774018.588154,124.000000,0.000000,-5.030584,0.718645,-4.579048,3.995020,7.577074,8.622265,0.635584,6.008745,-86.793503,-7.907500,-16.702055,-5.820510,-11.901660,-17.044802,-17.633373,0.499892,-16.518780,-3.649474,5.019926,-12.358685,-8.112711,-10.071218,-11.789373,-15.853387,-20.815842,-10.164079,2.900210,-6.705757,-7.530696,-27.518427,15.161872,-26.967131,8064.000000,0.000000,4.000000,,,,0.000000,4.000000,4.000000,4.000000,4.000000,4.000000,4.000000,4.000000,4.000000,4.000000,4.000000,4.000000,4.000000,4.000000,4.000000,4.000000,4.000000,4.000000,4.000000,4.000000,4.000000,4.000000,4.000000,4.000000,4.000000,4.000000,4.000000,4.000000,4.000000,4.000000,4.000000,4.000000,4.000000,100.000000
1615774018.595903,125.000000,0.000000,-5.025554,0.717926,-4.574469,4.503845,7.056676,9.126463,0.122127,7.541197,-85.168251,-9.950875,8.442852,-4.276228,-11.889758,-14.463655,-11.461894,8.191700,-17.015081,-2.107363,6.553367,-11.320685,-7.591777,-10.061146,-12.290404,-16.863174,-18.230923,-3.487248,2.897310,-6.699051,-7.523166,-30.567831,14.121069,-26.427341,8064.000000,0.000000,4.000000,,,,0.000000,4.000000,4.000000,4.000000,4.000000,4.000000,4.000000,4.000000,4.000000,4.000000,4.000000,4.000000,4.000000,4.000000,4.000000,4.000000,4.000000,4.000000,4.000000,4.000000,4.000000,4.000000,4.000000,4.000000,4.000000,4.000000,4.000000,4.000000,4.000000,4.000000,4.000000,4.000000,4.000000,100.000000
1615774018.603752,126.000000,0.000000,-5.020528,0.717209,-4.569894,3.986521,7.049619,9.117336,0.122005,12.149041,-78.929237,-3.274257,15.613896,0.856254,-10.852228,5.550808,2.908542,36.388638,-13.408323,2.510129,11.162198,-9.770903,-3.994442,-10.051085,-11.765294,-17.359131,-11.033205,-3.996582,2.894413,-6.692353,-7.515643,-20.280853,15.132588,-22.298351,8064.000000,0.000000,4.000000,,,,0.000000,4.000000,4.000000,4.000000,4.000000,4.000000,4.000000,4.000000,4.000000,4.000000,4.000000,4.000000,4.000000,4.000000,4.000000,4.000000,4.000000,4.000000,4.000000,4.000000,4.000000,4.000000,4.000000,4.000000,4.000000,4.000000,4.000000,4.000000,4.000000,4.000000,4.000000,4.000000,4.000000,100.000000
1615774018.611501,127.000000,0.000000,-5.015508,0.716491,-3.026863,3.982534,7.042570,8.595398,0.121883,13.675353,-73.722099,9.036709,2.264949,3.419500,-11.867017,15.801668,2.905634,45.583015,-8.779531,7.123004,13.715138,-7.197030,-0.400704,-9.528214,-9.702247,-11.187926,-5.893966,-3.992585,2.378698,-6.685660,-7.508127,-11.542624,14.604635,-17.147848,8064.000000,0.000000,4.000000,,,,0.000000,4.000000,4.000000,4.000000,4.000000,4.000000,4.000000,4.000000,4.000000,4.000000,4.000000,4.000000,4.000000,4.000000,4.000000,4.000000,4.000000,4.000000,4.000000,4.000000,4.000000,4.000000,4.000000,4.000000,4.000000,4.000000,4.000000,4.000000,4.000000,4.000000,4.000000,4.000000,4.000000,100.000000
1615774018.619350,0.000000,0.000000,-5.010492,0.715775,-0.459734,3.978552,7.035527,8.586803,0.121761,7.507832,-74.161201,11.591775,-2.865521,2.903260,-11.855149,2.965354,-3.251118,35.793842,-8.770751,9.679983,14.214244,-4.112909,1.138158,-9.518685,-7.641262,-1.945969,-5.375252,4.729356,3.401960,-6.678975,-7.500618,-16.146465,14.077210,-15.079417,0.000000,170.000000,4.000000,,,,0.000000,4.000000,4.000000,4.000000,4.000000,4.000000,4.000000,4.000000,4.000000,4.000000,4.000000,4.000000,4.000000,4.000000,4.000000,4.000000,4.000000,4.000000,4.000000,4.000000,4.000000,4.000000,4.000000,4.000000,4.000000,4.000000,4.000000,4.000000,4.000000,4.000000,4.000000,4.000000,4.000000,100.000000
1615774018.627099,1.000000,0.000000,-5.005482,0.715059,-0.972094,3.974573,7.541312,8.578217,0.121640,2.884939,-74.599861,7.477619,-0.298553,2.387536,-11.843294,-4.729919,-2.735046,33.706768,-9.787621,7.619021,13.174389,-4.108797,-0.401441,-9.509167,-8.146441,0.107259,-5.882697,16.006678,5.962661,-6.672296,-7.493118,-23.309807,14.575953,-16.089979,0.000000,192.000000,4.000000,,,,0.000000,4.000000,4.000000,4.000000,4.000000,4.000000,4.000000,4.000000,4.000000,4.000000,4.000000,4.000000,4.000000,4.000000,4.000000,4.000000,4.000000,4.000000,4.000000,4.000000,4.000000,4.000000,4.000000,4.000000,4.000000,4.000000,4.000000,4.000000,4.000000,4.000000,4.000000,4.000000,4.000000,100.000000
1615774018.634948,2.000000,0.000000,-5.000476,0.714344,-1.483943,3.970599,7.020950,8.569638,0.121518,3.907696,-74.012436,4.906039,6.368412,2.897969,-11.318630,-0.109805,-2.219491,34.698704,-8.752192,7.611403,12.648394,-4.104688,0.111781,-6.422734,-8.138295,-2.456951,-5.363994,11.888107,6.469519,-6.665623,-7.485625,-24.312138,14.561378,-16.073889,0.000000,179.000000,4.000000,,,,0.000000,4.000000,4.000000,4.000000,4.000000,4.000000,4.000000,4.000000,4.000000,4.000000,4.000000,4.000000,4.000000,4.000000,4.000000,4.000000,4.000000,4.000000,4.000000,4.000000,4.000000,4.000000,4.000000,4.000000,4.000000,4.000000,4.000000,4.000000,4.000000,4.000000,4.000000,4.000000,4.000000,100.000000
1615774018.642697,3.000000,0.000000,-4.995476,0.713630,-0.456818,3.966628,7.013929,9.073889,0.121396,3.390967,-73.938423,7.465236,12.003070,2.382251,-11.820132,-0.109695,-3.242913,31.587080,-6.179338,15.808919,17.251129,0.514802,1.137310,-4.877850,-8.130157,-1.428853,-5.358630,-0.431473,6.463049,-6.658957,-7.478139,-20.698082,14.546816,-15.544994,0.000000,189.000000,4.000000,,,,0.000000,4.000000,4.000000,4.000000,4.000000,4.000000,4.000000,4.000000,4.000000,4.000000,4.000000,4.000000,4.000000,4.000000,4.000000,4.000000,4.000000,4.000000,4.000000,4.000000,4.000000,4.000000,4.000000,4.000000,4.000000,4.000000,4.000000,4.000000,4.000000,4.000000,4.000000,4.000000,4.000000,100.000000
1615774018.650346,4.000000,0.000000,-4.990480,0.712916,-1.482002,4.475482,7.519736,8.039174,0.121275,2.874756,-73.864487,7.970591,9.426964,2.892689,-12.321133,-0.109585,-3.239670,33.093956,-5.147517,18.357212,15.182597,-3.075457,-5.530494,-10.513998,-8.122026,-0.401783,-5.866092,-4.020785,6.456586,-6.652299,-7.470661,-19.651743,14.532269,-16.042271,0.000000,157.000000,4.000000,,,,0.000000,4.000000,4.000000,4.000000,4.000000,4.000000,4.000000,4.000000,4.000000,4.000000,4.000000,4.000000,4.000000,4.000000,4.000000,4.000000,4.000000,4.000000,4.000000,4.000000,4.000000,4.000000,4.000000,4.000000,4.000000,4.000000,4.000000,4.000000,4.000000,4.000000,4.000000,4.000000,4.000000,100.000000
1615774018.658095,5.000000,0.000000,-4.985490,0.712203,-3.531802,3.445365,5.973754,5.467032,0.121154,3.897522,-75.841904,-5.370713,9.930358,1.351335,-10.257529,-3.186399,-7.338994,26.907015,-5.655190,1.415779,-6.371047,-21.533920,-16.807014,-17.170151,-8.113905,-6.555228,-5.347405,-4.016764,4.911668,-6.645647,-7.463191,-23.221834,14.517737,-15.513408,0.000000,204.000000,4.000000,,,,0.000000,4.000000,4.000000,4.000000,4.000000,4.000000,4.000000,4.000000,4.000000,4.000000,4.000000,4.000000,4.000000,4.000000,4.000000,4.000000,4.000000,4.000000,4.000000,4.000000,4.000000,4.000000,4.000000,4.000000,4.000000,4.000000,4.000000,4.000000,4.000000,4.000000,4.000000,4.000000,4.000000,100.000000
1615774018.665744,6.000000,0.000000,-4.980504,0.711491,-4.553911,1.390638,-0.186065,4.948745,0.121033,1.329522,-77.817345,-17.673035,3.253761,-0.701299,-12.811375,-17.029366,-15.536783,-0.299379,-5.649535,-16.021534,-22.774933,-32.794437,-19.354311,-17.665800,-8.105790,-15.266622,-6.880519,-4.525568,2.855474,-6.639001,-7.455727,-27.813997,14.503220,-16.010715,0.000000,174.000000,4.000000,,,,0.000000,4.000000,4.000000,4.000000,4.000000,4.000000,4.000000,4.000000,4.000000,4.000000,4.000000,4.000000,4.000000,4.000000,4.000000,4.000000,4.000000,4.000000,4.000000,4.000000,4.000000,4.000000,4.000000,4.000000,4.000000,4.000000,4.000000,4.000000,4.000000,4.000000,4.000000,4.000000,4.000000,100.000000
1615774018.673493,7.000000,0.000000,-4.975524,0.197959,-4.549357,0.363606,-6.852546,5.456616,0.120912,-3.287192,-77.226707,-8.937413,-22.390518,-1.726238,-18.952410,-21.627722,-19.110991,-16.709337,-5.643886,-13.441410,-14.547029,-27.120617,-15.745213,-16.622494,-8.097685,-16.789816,-9.950562,1.119983,2.339798,-6.632362,-7.448272,-27.786182,13.975896,-15.994704,0.000000,186.000000,4.000000,,,,0.000000,4.000000,4.000000,4.000000,4.000000,4.000000,4.000000,4.000000,4.000000,4.000000,4.000000,4.000000,4.000000,4.000000,4.000000,4.000000,4.000000,4.000000,4.000000,4.000000,4.000000,4.000000,4.000000,4.000000,4.000000,4.000000,4.000000,4.000000,4.000000,4.000000,4.000000,4.000000,4.000000,100.000000
1615774018.681143,8.000000,0.000000,-4.970548,0.710581,-4.544808,0.363243,-7.871335,3.912698,0.120791,-4.822367,-78.687943,-4.825912,-23.393770,-1.211692,-15.343714,-11.349684,-14.989315,3.307373,-5.638242,-3.171559,-1.711970,-19.914009,-15.216647,-17.631512,-8.089587,-11.132001,-9.940612,2.144504,2.850279,-6.625730,-7.440823,-24.681475,13.961920,-15.465889,0.000000,217.000000,4.000000,,,,0.000000,4.000000,4.000000,4.000000,4.000000,4.000000,4.000000,4.000000,4.000000,4.000000,4.000000,4.000000,4.000000,4.000000,4.000000,4.000000,4.000000,4.000000,4.000000,4.000000,4.000000,4.000000,4.000000,4.000000,4.000000,4.000000,4.000000,4.000000,4.000000,4.000000,4.000000,4.000000,4.000000,100.000000
1615774018.688892,9.000000,0.000000,-4.965578,0.709871,-4.540263,0.875700,-6.837822,1.857504,0.120670,-3.791903,-82.711823,-20.205700,5.347573,-1.210480,-4.559139,-6.722950,-7.282018,28.432270,-5.119783,0.421356,-1.710258,-19.894094,-16.739891,-18.126701,-8.081497,-8.556767,-8.392209,-9.139691,2.847429,-6.619103,-7.433383,-20.554228,14.460778,-15.963243,0.000000,201.000000,4.000000,,,,0.000000,4.000000,4.000000,4.000000,4.000000,4.000000,4.000000,4.000000,4.000000,4.000000,4.000000,4.000000,4.000000,4.000000,4.000000,4.000000,4.000000,4.000000,4.000000,4.000000,4.000000,4.000000,4.000000,4.000000,4.000000,4.000000,4.000000,4.000000,4.000000,4.000000,4.000000,4.000000,4.000000,100.000000
1615774018.696541,10.000000,0.000000,-4.960612,-1.342121,-5.561364,-0.150817,-9.395087,0.317184,0.120549,-3.788111,-84.167572,-21.211136,-0.298800,-1.209270,-5.580221,-8.254688,-6.761915,28.916658,-6.653125,-0.091886,-3.247009,-20.387022,-14.671870,-17.082933,-8.073416,-10.599491,-12.999202,-9.643373,2.331761,-6.612484,-7.938770,-18.995213,13.933497,-20.562664,0.000000,202.000000,4.000000,,,,0.000000,4.000000,4.000000,4.000000,4.000000,4.000000,4.000000,4.000000,4.000000,4.000000,4.000000,4.000000,4.000000,4.000000,4.000000,4.000000,4.000000,4.000000,4.000000,4.000000,4.000000,4.000000,4.000000,4.000000,4.000000,4.000000,4.000000,4.000000,4.000000,4.000000,4.000000,4.000000,4.000000,100.000000
1615774018.704290,11.000000,0.000000,-4.955651,-2.879241,-9.145546,-4.766050,-14.001077,-1.734415,0.120429,-4.809964,-86.134682,-8.882233,-21.324142,-2.746522,-13.779769,-7.220792,-15.473103,20.682613,-9.210574,-0.091794,-1.192480,-18.315353,-14.657198,-17.578671,-8.065343,-8.537610,-16.063126,-0.402960,2.842249,-6.605872,-7.418010,-21.540319,13.919563,-23.619024,0.000000,216.000000,4.000000,,,,0.000000,4.000000,4.000000,4.000000,4.000000,4.000000,4.000000,4.000000,4.000000,4.000000,4.000000,4.000000,4.000000,4.000000,4.000000,4.000000,4.000000,4.000000,4.000000,4.000000,4.000000,4.000000,4.000000,4.000000,4.000000,4.000000,4.000000,4.000000,4.000000,4.000000,4.000000,4.000000,4.000000,100.000000
1615774018.711939,12.000000,0.000000,-4.950696,-0.312259,-11.700503,-6.812566,-15.012716,-2.758321,0.120308,-1.728231,-88.612648,-17.078478,-3.354100,-4.795057,-15.817271,-9.264853,-15.457629,18.097828,-9.714184,2.985221,-0.165646,-17.784216,-15.668181,-18.073914,-8.057278,-7.503431,-11.431678,-6.556403,2.839407,-6.599266,-7.410592,-23.057241,16.469748,-23.595406,0.000000,196.000000,4.000000,,,,0.000000,4.000000,4.000000,4.000000,4.000000,4.000000,4.000000,4.000000,4.000000,4.000000,4.000000,4.000000,4.000000,4.000000,4.000000,4.000000,4.000000,4.000000,4.000000,4.000000,4.000000,4.000000,4.000000,4.000000,4.000000,4.000000,4.000000,4.000000,4.000000,4.000000,4.000000,4.000000,4.000000,100.000000
1615774018.719688,13.000000,0.000000,-4.945745,1.226515,-11.688803,-4.754472,-13.972062,-2.242743,0.120188,3.401702,-86.472755,-27.317810,5.880023,-5.303083,-14.262992,-9.768409,-2.108838,19.105371,-9.191649,7.084800,-1.191122,-19.817715,-4.370462,-11.901993,-8.049220,-12.624133,-9.368964,-12.703692,2.323747,-7.105487,-8.428823,-19.957260,17.991739,-23.571810,0.000000,188.000000,4.000000,,,,0.000000,4.000000,4.000000,4.000000,4.000000,4.000000,4.000000,4.000000,4.000000,4.000000,4.000000,4.000000,4.000000,4.000000,4.000000,4.000000,4.000000,4.000000,4.000000,4.000000,4.000000,4.000000,4.000000,4.000000,4.000000,4.000000,4.000000,4.000000,4.000000,4.000000,4.000000,4.000000,4.000000,100.000000
1615774018.727337,14.000000,0.000000,-4.940799,0.712468,-11.677114,-2.698435,-14.470911,-2.240500,0.120068,2.885480,-84.847824,-14.469980,-23.869446,-4.784959,-15.274370,-5.143256,-0.055447,20.111908,-9.182458,8.103356,0.861351,-12.105589,9.992883,-1.120860,-8.041171,-9.021765,-8.846774,3.719267,3.347064,-6.585561,-4.317830,-16.347561,17.973747,-22.009777,0.000000,202.000000,4.000000,,,,0.000000,4.000000,4.000000,4.000000,4.000000,4.000000,4.000000,4.000000,4.000000,4.000000,4.000000,4.000000,4.000000,4.000000,4.000000,4.000000,4.000000,4.000000,4.000000,4.000000,4.000000,4.000000,4.000000,4.000000,4.000000,4.000000,4.000000,4.000000,4.000000,4.000000,4.000000,4.000000,4.000000,100.000000
1615774018.735086,15.000000,0.000000,-4.935859,0.711756,-11.665437,-3.208557,-14.456440,-2.751080,0.119948,-0.194328,-92.968102,-9.840125,-28.973782,-4.780174,-15.771916,-7.702215,-9.286161,21.117437,-9.173275,8.095253,6.501516,0.214209,9.470069,2.470004,-8.033130,6.371872,-1.145620,17.048882,5.907820,-4.014874,2.865975,-16.331213,20.519875,-16.859562,0.000000,200.000000,4.000000,,,,0.000000,4.000000,4.000000,4.000000,4.000000,4.000000,4.000000,4.000000,4.000000,4.000000,4.000000,4.000000,4.000000,4.000000,4.000000,4.000000,4.000000,4.000000,4.000000,4.000000,4.000000,4.000000,4.000000,4.000000,4.000000,4.000000,4.000000,4.000000,4.000000,4.000000,4.000000,4.000000,4.000000,100.000000
1615774018.742736,16.000000,0.000000,-4.930923,0.711044,-11.653771,-3.205349,-14.441983,-2.235508,0.119828,-0.194134,-99.541801,-23.676439,-4.842245,-4.775394,-14.730503,-13.335539,-10.302516,21.609140,-8.651281,8.599978,6.495014,-3.375749,2.793932,1.441893,-8.025097,7.391141,1.419628,10.877987,6.414732,-2.472397,2.350289,-16.314880,22.037817,-14.791421,0.000000,196.000000,4.000000,,,,0.000000,4.000000,4.000000,4.000000,4.000000,4.000000,4.000000,4.000000,4.000000,4.000000,4.000000,4.000000,4.000000,4.000000,4.000000,4.000000,4.000000,4.000000,4.000000,4.000000,4.000000,4.000000,4.000000,4.000000,4.000000,4.000000,4.000000,4.000000,4.000000,4.000000,4.000000,4.000000,4.000000,100.000000
1615774018.750485,17.000000,0.000000,-4.925992,0.710333,-16.257502,-5.253426,-18.530106,-1.720452,0.632528,0.318880,-98.416618,-28.780968,-4.324582,-4.770618,-16.254234,-15.886306,-10.805034,20.561890,-9.155451,3.463173,-7.357635,-18.244167,-1.824246,0.414810,-7.504251,-5.949584,-7.299740,5.226083,3.844215,-3.495566,-3.293087,-16.811386,19.964497,-15.802270,0.000000,197.000000,4.000000,,,,0.000000,4.000000,4.000000,4.000000,4.000000,4.000000,4.000000,4.000000,4.000000,4.000000,4.000000,4.000000,4.000000,4.000000,4.000000,4.000000,4.000000,4.000000,4.000000,4.000000,4.000000,4.000000,4.000000,4.000000,4.000000,4.000000,4.000000,4.000000,4.000000,4.000000,4.000000,4.000000,4.000000,100.000000
1615774018.758134,18.000000,0.000000,-4.921066,0.709622,-21.882271,-6.786633,-22.101318,-2.231552,0.119075,-0.194259,-99.856667,-25.675264,-14.063847,-4.765848,-21.879005,-21.511446,-18.999357,17.977224,-9.146296,-4.745418,-20.683611,-23.866949,-12.591653,-2.662528,-7.496747,-10.559018,-13.959107,8.297780,2.301910,-1.953608,-1.751333,-19.358679,17.380430,-15.786469,0.000000,202.000000,4.000000,,,,0.000000,4.000000,4.000000,4.000000,4.000000,4.000000,4.000000,4.000000,4.000000,4.000000,4.000000,4.000000,4.000000,4.000000,4.000000,4.000000,4.000000,4.000000,4.000000,4.000000,4.000000,4.000000,4.000000,4.000000,4.000000,4.000000,4.000000,4.000000,4.000000,4.000000,4.000000,4.000000,4.000000,100.000000
1615774018.765883,19.000000,0.000000,-4.916145,0.708913,-23.398849,-6.779847,-22.079218,-2.742141,0.118956,-0.194065,-102.320908,-26.675230,-7.383116,-4.761082,-22.882769,-27.130959,-21.544460,16.933607,-8.624329,-8.330417,-15.021901,-21.791801,-19.245728,-6.249609,-8.514891,-7.984357,-13.945148,5.725379,2.812428,0.099627,0.301701,-20.364960,17.363050,-15.257861,0.000000,196.000000,4.000000,,,,0.000000,4.000000,4.000000,4.000000,4.000000,4.000000,4.000000,4.000000,4.000000,4.000000,4.000000,4.000000,4.000000,4.000000,4.000000,4.000000,4.000000,4.000000,4.000000,4.000000,4.000000,4.000000,4.000000,4.000000,4.000000,4.000000,4.000000,4.000000,4.000000,4.000000,4.000000,4.000000,4.000000,100.000000
1615774018.773532,20.000000,0.000000,-4.398408,0.708204,-22.862631,-6.773067,-21.544317,-1.200938,0.631658,-0.193871,-98.116020,-23.058811,-10.965477,-4.756321,-18.757320,-20.949982,-17.933172,17.429495,-9.641345,-7.809266,-6.801751,-22.282829,-11.021354,-6.243359,-7.480735,-9.002013,-12.392741,-2.485474,2.296795,1.125169,-0.211421,-16.242031,17.858507,-15.755424,0.000000,213.000000,4.000000,,,,0.000000,4.000000,4.000000,4.000000,4.000000,4.000000,4.000000,4.000000,4.000000,4.000000,4.000000,4.000000,4.000000,4.000000,4.000000,4.000000,4.000000,4.000000,4.000000,4.000000,4.000000,4.000000,4.000000,4.000000,4.000000,4.000000,4.000000,4.000000,4.000000,4.000000,4.000000,4.000000,4.000000,100.000000
1615774018.781381,21.000000,0.000000,-4.906830,0.707496,-22.326946,-6.766294,-22.035595,-2.225378,-1.420256,-2.757779,-93.915344,-15.856264,-26.851948,-4.751565,-19.764204,-15.800827,-17.402418,16.386423,-12.195807,-6.262995,-6.282129,-23.799007,-3.318025,-6.237116,-7.473254,-10.018652,-8.790606,-4.534271,2.294498,1.124043,-0.211210,-12.123225,17.840649,-15.739668,0.000000,187.000000,4.000000,,,,0.000000,4.000000,4.000000,4.000000,4.000000,4.000000,4.000000,4.000000,4.000000,4.000000,4.000000,4.000000,4.000000,4.000000,4.000000,4.000000,4.000000,4.000000,4.000000,4.000000,4.000000,4.000000,4.000000,4.000000,4.000000,4.000000,4.000000,4.000000,4.000000,4.000000,4.000000,4.000000,4.000000,100.000000
1615774018.789130,22.000000,0.000000,-6.440385,0.706788,-23.330261,-6.759528,-22.013559,-10.428281,-7.572682,-4.293483,-94.334251,-15.327588,-18.619967,-4.746813,-22.308542,-18.861950,-18.410658,13.293114,-13.722073,-4.718270,1.929282,-23.262388,-4.853168,-7.256520,-12.081165,-10.008634,-6.217712,-4.529737,2.292204,-0.928363,-0.210999,-12.111102,17.309988,-15.723928,0.000000,192.000000,4.000000,,,,0.000000,4.000000,4.000000,4.000000,4.000000,4.000000,4.000000,4.000000,4.000000,4.000000,4.000000,4.000000,4.000000,4.000000,4.000000,4.000000,4.000000,4.000000,4.000000,4.000000,4.000000,4.000000,4.000000,4.000000,4.000000,4.000000,4.000000,4.000000,4.000000,4.000000,4.000000,4.000000,4.000000,100.000000
1615774018.796979,23.000000,0.000000,-8.485227,0.706081,-22.794111,-6.752768,-21.991545,-13.494775,-11.154853,-3.776369,-94.752731,-19.414824,2.937114,-4.742066,-17.158030,-17.817446,-16.853785,13.279820,-12.682709,-3.175090,16.286327,-19.649382,-2.797033,-5.197981,-14.120366,-8.972984,-5.698674,-5.550848,1.777091,-2.465896,-0.210788,-13.637452,17.292677,-16.221025,0.000000,213.000000,4.000000,,,,0.000000,4.000000,4.000000,4.000000,4.000000,4.000000,4.000000,4.000000,4.000000,4.000000,4.000000,4.000000,4.000000,4.000000,4.000000,4.000000,4.000000,4.000000,4.000000,4.000000,4.000000,4.000000,4.000000,4.000000,4.000000,4.000000,4.000000,4.000000,4.000000,4.000000,4.000000,4.000000,4.000000,100.000000
1615774018.804728,24.000000,0.000000,-8.476742,0.705375,-19.181572,-6.746016,-19.918272,-7.327435,-8.579596,-4.285413,-94.145164,-19.395409,-1.681207,-5.250145,-12.525487,-12.158604,-12.734367,19.420387,-12.157206,1.443469,18.834143,-16.552811,2.333969,-2.628680,-10.003682,-5.374268,-0.051949,5.736754,5.365058,-0.412148,4.404808,-11.572533,22.403589,-14.666343,0.000000,189.000000,4.000000,,,,0.000000,4.000000,4.000000,4.000000,4.000000,4.000000,4.000000,4.000000,4.000000,4.000000,4.000000,4.000000,4.000000,4.000000,4.000000,4.000000,4.000000,4.000000,4.000000,4.000000,4.000000,4.000000,4.000000,4.000000,4.000000,4.000000,4.000000,4.000000,4.000000,4.000000,4.000000,4.000000,4.000000,100.000000
1615774018.812577,25.000000,0.000000,-8.468265,0.704670,-16.085468,-6.739269,-17.334251,-6.294466,-6.519733,-3.768307,-94.051018,-17.837553,-9.884654,-4.732074,-10.974500,-10.095162,-5.542146,28.631737,-13.683510,9.647154,15.738386,-14.997796,4.895738,-1.600411,-6.916755,-5.881714,5.589128,21.115633,11.513539,0.101085,7.990146,-6.432755,24.945290,-12.600394,0.000000,225.000000,4.000000,,,,0.000000,4.000000,4.000000,4.000000,4.000000,4.000000,4.000000,4.000000,4.000000,4.000000,4.000000,4.000000,4.000000,4.000000,4.000000,4.000000,4.000000,4.000000,4.000000,4.000000,4.000000,4.000000,4.000000,4.000000,4.000000,4.000000,4.000000,4.000000,4.000000,4.000000,4.000000,4.000000,4.000000,100.000000
1615774018.820326,26.000000,0.000000,-8.459796,0.703965,-17.095024,-6.732530,-18.342558,-12.954838,-7.538855,-1.200436,-93.956963,-19.358177,9.612410,-2.676060,-5.835320,-8.546606,-0.408398,33.731308,-12.131365,14.765712,18.286751,-7.803311,8.993406,-0.060349,-7.935480,-4.850191,5.583539,15.966312,14.578948,-2.463119,5.930874,-3.862220,19.792139,-11.562153,0.000000,215.000000,4.000000,,,,0.000000,4.000000,4.000000,4.000000,4.000000,4.000000,4.000000,4.000000,4.000000,4.000000,4.000000,4.000000,4.000000,4.000000,4.000000,4.000000,4.000000,4.000000,4.000000,4.000000,4.000000,4.000000,4.000000,4.000000,4.000000,4.000000,4.000000,4.000000,4.000000,4.000000,4.000000,4.000000,4.000000,100.000000
1615774018.828175,27.000000,0.000000,-8.451337,0.703261,-19.129211,-6.725798,-17.298574,-11.403421,-7.531316,0.339226,-94.375832,-18.825998,21.910490,-0.109281,0.837182,-2.384213,1.130472,31.646296,-5.452567,16.802229,23.396667,2.973723,11.548515,3.529455,-7.927544,3.872608,5.577956,4.155474,13.538729,-3.486297,3.360841,-5.909640,17.721064,-12.063412,0.000000,196.000000,4.000000,,,,0.000000,4.000000,4.000000,4.000000,4.000000,4.000000,4.000000,4.000000,4.000000,4.000000,4.000000,4.000000,4.000000,4.000000,4.000000,4.000000,4.000000,4.000000,4.000000,4.000000,4.000000,4.000000,4.000000,4.000000,4.000000,4.000000,4.000000,4.000000,4.000000,4.000000,4.000000,4.000000,4.000000,100.000000
1615774018.835924,28.000000,0.000000,-8.442885,1.215379,-18.084440,-6.206251,-12.153070,-5.750993,-7.010964,-0.173934,-93.768631,-14.704608,5.991143,1.942110,0.836345,3.772017,6.257546,32.640289,-0.831730,19.862349,25.424553,8.611775,11.024146,6.090028,-7.919617,10.535402,5.572378,4.151319,14.038011,-2.969990,3.870301,-3.852448,20.780266,-11.538527,0.000000,197.000000,4.000000,,,,0.000000,4.000000,4.000000,4.000000,4.000000,4.000000,4.000000,4.000000,4.000000,4.000000,4.000000,4.000000,4.000000,4.000000,4.000000,4.000000,4.000000,4.000000,4.000000,4.000000,4.000000,4.000000,4.000000,4.000000,4.000000,4.000000,4.000000,4.000000,4.000000,4.000000,4.000000,4.000000,4.000000,100.000000
1615774018.843773,29.000000,0.000000,-8.434443,1.214163,-17.553535,-7.738507,-9.576815,-7.283703,-7.003953,-0.173760,-92.136406,-11.100160,-7.348181,2.965809,-1.728594,4.793886,8.302571,43.376881,-1.856539,22.919411,21.809385,8.603164,10.500301,2.494195,-7.398876,8.986405,-1.099861,7.736911,12.998331,-5.018302,2.840789,-4.874237,18.708204,-11.526989,0.000000,208.000000,4.000000,,,,0.000000,4.000000,4.000000,4.000000,4.000000,4.000000,4.000000,4.000000,4.000000,4.000000,4.000000,4.000000,4.000000,4.000000,4.000000,4.000000,4.000000,4.000000,4.000000,4.000000,4.000000,4.000000,4.000000,4.000000,4.000000,4.000000,4.000000,4.000000,4.000000,4.000000,4.000000,4.000000,4.000000,100.000000
1615774018.851522,30.000000,0.000000,-8.426008,0.700129,-20.100084,-9.782050,-12.644161,-9.840522,-6.996949,-0.173586,-89.992981,-10.063418,-4.776731,2.450022,0.837237,1.712169,-0.936501,44.359146,-1.341862,23.922132,14.608088,1.927894,1.259032,-5.713428,-7.391478,6.413316,-6.226967,8.241995,10.421230,-7.064566,0.273846,-17.177055,13.561291,-13.566744,0.000000,202.000000,4.000000,,,,0.000000,4.000000,4.000000,4.000000,4.000000,4.000000,4.000000,4.000000,4.000000,4.000000,4.000000,4.000000,4.000000,4.000000,4.000000,4.000000,4.000000,4.000000,4.000000,4.000000,4.000000,4.000000,4.000000,4.000000,4.000000,4.000000,4.000000,4.000000,4.000000,4.000000,4.000000,4.000000,4.000000,100.000000
1615774018.859371,31.000000,0.000000,-8.417582,1.725069,-24.695370,-10.285089,-14.682798,-9.317861,-6.989952,-0.173413,-89.390167,-13.643099,-1.695031,2.960393,-0.702062,-2.392107,-7.602231,24.314787,-1.340520,17.231543,6.388353,-9.868906,-14.639663,-10.323099,-11.486650,-0.772584,-5.707919,4.131188,9.385168,-6.544681,-0.752069,-23.313725,13.547729,-15.091639,0.000000,206.000000,4.000000,,,,0.000000,4.000000,4.000000,4.000000,4.000000,4.000000,4.000000,4.000000,4.000000,4.000000,4.000000,4.000000,4.000000,4.000000,4.000000,4.000000,4.000000,4.000000,4.000000,4.000000,4.000000,4.000000,4.000000,4.000000,4.000000,4.000000,4.000000,4.000000,4.000000,4.000000,4.000000,4.000000,4.000000,100.000000
1615774018.867121,32.000000,0.000000,-8.409164,0.697703,-26.721956,-10.787624,-14.155295,-8.795723,-6.982962,-0.173239,-89.813599,-17.732019,-4.257438,1.931792,-13.009052,-3.928176,-5.543347,5.316113,-5.954565,2.855337,-2.335984,-16.525703,-18.727587,-9.799955,-15.064907,-11.028222,-5.702211,-7.154994,9.888603,-6.538136,-0.238497,-15.598103,14.047002,-15.589368,8064.000000,0.000000,4.000000,,,,0.000000,4.000000,4.000000,4.000000,4.000000,4.000000,4.000000,4.000000,4.000000,4.000000,4.000000,4.000000,4.000000,4.000000,4.000000,4.000000,4.000000,4.000000,4.000000,4.000000,4.000000,4.000000,4.000000,4.000000,4.000000,4.000000,4.000000,4.000000,4.000000,4.000000,4.000000,4.000000,4.000000,100.000000
1615774018.874970,33.000000,0.000000,-8.400755,-5.456841,-25.669592,-13.340939,-13.628320,-9.299747,-6.975979,-0.173066,-89.723785,-19.252748,-7.842924,-1.659884,-21.201172,-3.411428,-7.589086,4.285155,-9.538353,-4.839826,-6.436213,-14.457896,-13.067834,-9.790155,-12.998560,-13.068476,-5.696509,-12.276044,9.878715,-6.531598,-0.238258,-10.967119,14.032955,-17.112240,8064.000000,0.000000,4.000000,,,,0.000000,4.000000,4.000000,4.000000,4.000000,4.000000,4.000000,4.000000,4.000000,4.000000,4.000000,4.000000,4.000000,4.000000,4.000000,4.000000,4.000000,4.000000,4.000000,4.000000,4.000000,4.000000,4.000000,4.000000,4.000000,4.000000,4.000000,4.000000,4.000000,4.000000,4.000000,4.000000,4.000000,100.000000
1615774018.882719,34.000000,0.000000,-8.905175,-10.579589,-25.643923,-14.353239,-14.127512,-9.290447,-6.969003,-0.685714,-89.634064,-18.720676,-1.168415,-2.171044,-12.462022,-3.920837,-4.504573,18.639845,-9.528815,0.293219,-2.327212,-12.904977,-11.003484,-11.318827,-11.447100,-8.952844,-6.203633,-5.597101,7.817554,-6.525066,-0.750840,-15.058717,13.506102,-18.633589,8064.000000,0.000000,4.000000,,,,0.000000,4.000000,4.000000,4.000000,4.000000,4.000000,4.000000,4.000000,4.000000,4.000000,4.000000,4.000000,4.000000,4.000000,4.000000,4.000000,4.000000,4.000000,4.000000,4.000000,4.000000,4.000000,4.000000,4.000000,4.000000,4.000000,4.000000,4.000000,4.000000,4.000000,4.000000,4.000000,4.000000,100.000000
1615774018.890368,35.000000,0.000000,-8.383450,-10.569009,-25.618279,-13.826065,-14.113384,-9.281157,-6.962034,0.340613,-89.544426,-18.701956,9.601985,1.933691,-3.731611,-3.916916,7.807623,33.493000,-9.006466,6.446772,3.828961,-11.866430,-12.018122,-7.204944,-11.948473,-9.456711,-11.325635,-3.540222,6.271275,-6.518541,-0.237269,-16.582119,9.902852,-19.640596,8064.000000,0.000000,4.000000,,,,0.000000,4.000000,4.000000,4.000000,4.000000,4.000000,4.000000,4.000000,4.000000,4.000000,4.000000,4.000000,4.000000,4.000000,4.000000,4.000000,4.000000,4.000000,4.000000,4.000000,4.000000,4.000000,4.000000,4.000000,4.000000,4.000000,4.000000,4.000000,4.000000,4.000000,4.000000,4.000000,4.000000,100.000000
1615774018.898117,36.000000,0.000000,-8.375066,-10.045620,-25.592661,-13.812240,-13.586451,-9.271876,-6.955072,-0.172548,-89.454887,-16.119150,-6.817874,0.393295,-9.368905,-3.912999,2.671611,30.382584,-8.997459,6.953146,5.876414,-10.828923,-10.980463,-2.069534,-11.423704,-9.960074,-16.442514,-5.587964,5.752183,-6.512022,-0.237032,-15.539896,5.790385,-23.723520,8064.000000,0.000000,4.000000,,,,0.000000,4.000000,4.000000,4.000000,4.000000,4.000000,4.000000,4.000000,4.000000,4.000000,4.000000,4.000000,4.000000,4.000000,4.000000,4.000000,4.000000,4.000000,4.000000,4.000000,4.000000,4.000000,4.000000,4.000000,4.000000,4.000000,4.000000,4.000000,4.000000,4.000000,4.000000,4.000000,4.000000,100.000000
1615774018.905766,37.000000,0.000000,-8.879511,-10.548394,-25.054247,-13.798427,-13.060043,-9.262604,-6.948117,-3.249299,-89.365433,-14.564569,-30.400799,-5.248124,-18.590305,-8.011650,-16.305420,14.454765,-9.501283,6.946192,5.870538,-11.843736,-11.482303,-5.144387,-12.437922,-8.924474,-14.887610,1.597111,6.259252,-6.505511,-0.749615,-15.011536,6.297415,-26.776720,8064.000000,0.000000,4.000000,,,,0.000000,4.000000,4.000000,4.000000,4.000000,4.000000,4.000000,4.000000,4.000000,4.000000,4.000000,4.000000,4.000000,4.000000,4.000000,4.000000,4.000000,4.000000,4.000000,4.000000,4.000000,4.000000,4.000000,4.000000,4.000000,4.000000,4.000000,4.000000,4.000000,4.000000,4.000000,4.000000,4.000000,100.000000
1615774018.913515,38.000000,0.000000,-6.306529,-7.973743,-24.516373,-13.271808,-16.123907,-9.253342,-6.941169,-3.758870,-88.763245,-17.114107,-12.421680,-1.653132,-15.494792,-11.593382,-15.776294,13.927489,-9.491781,7.964887,5.864667,-10.293430,-7.368256,-9.754627,-10.374202,-9.428370,-12.308619,8.262180,6.252992,-6.499005,0.276775,-13.458063,8.855221,-24.698660,8064.000000,0.000000,4.000000,,,,0.000000,4.000000,4.000000,4.000000,4.000000,4.000000,4.000000,4.000000,4.000000,4.000000,4.000000,4.000000,4.000000,4.000000,4.000000,4.000000,4.000000,4.000000,4.000000,4.000000,4.000000,4.000000,4.000000,4.000000,4.000000,4.000000,4.000000,4.000000,4.000000,4.000000,4.000000,4.000000,4.000000,100.000000
1615774018.921164,39.000000,0.000000,-1.684838,-5.914488,-28.594421,-13.771357,-21.235989,-9.244088,-6.934228,-0.678188,-89.187302,-19.148275,12.718946,6.040829,-5.222887,-11.068969,-0.888723,24.169973,-5.892546,7.956922,6.371623,-2.590829,-0.694221,-5.129488,-1.133058,-7.880480,-12.809132,0.561611,6.246739,-6.492506,2.327781,-11.906143,10.384827,-21.597038,8064.000000,0.000000,4.000000,,,,0.000000,4.000000,4.000000,4.000000,4.000000,4.000000,4.000000,4.000000,4.000000,4.000000,4.000000,4.000000,4.000000,4.000000,4.000000,4.000000,4.000000,4.000000,4.000000,4.000000,4.000000,4.000000,4.000000,4.000000,4.000000,4.000000,4.000000,4.000000,4.000000,4.000000,4.000000,4.000000,4.000000,100.000000
1615774018.928913,40.000000,0.000000,-0.144692,-6.421394,-32.155571,-13.757586,-21.214752,-9.234844,-6.927294,0.348131,-89.098114,-18.103487,-0.114286,6.034788,-2.140741,-7.980976,2.189089,23.632982,-3.322551,7.436145,6.365252,-0.024136,-0.180707,1.542308,4.509100,-2.231574,-13.309143,-5.592797,6.240492,-6.486013,3.863914,-11.894238,10.374442,-22.601084,8064.000000,0.000000,4.000000,,,,0.000000,4.000000,4.000000,4.000000,4.000000,4.000000,4.000000,4.000000,4.000000,4.000000,4.000000,4.000000,4.000000,4.000000,4.000000,4.000000,4.000000,4.000000,4.000000,4.000000,4.000000,4.000000,4.000000,4.000000,4.000000,4.000000,4.000000,4.000000,4.000000,4.000000,4.000000,4.000000,4.000000,100.000000
1615774018.936563,41.000000,0.000000,-1.170188,-6.414972,-32.636234,-13.231008,-20.167896,-8.712789,-6.920366,-0.165037,-88.496193,-18.598204,-7.293659,1.926189,-5.728343,-7.460175,-0.890023,16.942682,-4.344869,7.941529,1.743502,-7.203598,-3.257449,1.540766,2.453309,2.898863,-12.783013,5.182026,6.234252,-6.479527,3.347230,-13.933625,10.364067,-22.578482,8064.000000,0.000000,4.000000,,,,0.000000,4.000000,4.000000,4.000000,4.000000,4.000000,4.000000,4.000000,4.000000,4.000000,4.000000,4.000000,4.000000,4.000000,4.000000,4.000000,4.000000,4.000000,4.000000,4.000000,4.000000,4.000000,4.000000,4.000000,4.000000,4.000000,4.000000,4.000000,4.000000,4.000000,4.000000,4.000000,4.000000,100.000000
1615774018.944312,42.000000,0.000000,-0.656197,-6.408557,-35.680523,-14.756238,-26.301575,-8.704076,-6.913446,0.347948,-89.946159,-20.630888,6.559789,2.949904,-6.748256,-7.452714,0.649328,15.900099,-5.366165,6.395126,-6.463370,-11.811780,-5.305474,-1.024878,-0.113247,2.895964,-12.770230,12.356332,6.228018,-6.473048,3.343883,-15.458153,10.353703,-21.530262,8064.000000,0.000000,4.000000,,,,0.000000,4.000000,4.000000,4.000000,4.000000,4.000000,4.000000,4.000000,4.000000,4.000000,4.000000,4.000000,4.000000,4.000000,4.000000,4.000000,4.000000,4.000000,4.000000,4.000000,4.000000,4.000000,4.000000,4.000000,4.000000,4.000000,4.000000,4.000000,4.000000,4.000000,4.000000,4.000000,4.000000,100.000000
1615774018.951961,43.000000,0.000000,-0.655541,-6.402149,-41.798687,-18.844046,-34.993221,-10.746654,-6.906533,-3.242143,-93.958778,-22.661539,-4.728822,2.434134,-7.767149,-6.932441,1.674320,16.909840,-5.873620,4.337449,-11.072291,-11.287148,-9.915553,-2.562315,-1.651595,-0.696675,-12.757461,-1.502178,6.221790,-6.466575,3.853359,-15.955515,10.343349,-23.047194,8064.000000,0.000000,4.000000,,,,0.000000,4.000000,4.000000,4.000000,4.000000,4.000000,4.000000,4.000000,4.000000,4.000000,4.000000,4.000000,4.000000,4.000000,4.000000,4.000000,4.000000,4.000000,4.000000,4.000000,4.000000,4.000000,4.000000,4.000000,4.000000,4.000000,4.000000,4.000000,4.000000,4.000000,4.000000,4.000000,4.000000,100.000000
1615774018.959710,44.000000,0.000000,-2.706167,-6.395747,-43.295349,-21.389305,-37.009510,-12.787189,-6.899626,-7.854286,-96.428925,-22.126057,-28.313837,-0.645223,-16.477331,-8.976791,0.647005,17.405750,-7.919028,3.820291,-9.009937,-11.275860,-10.931278,-2.559752,-3.188405,-4.798543,-13.257524,-17.398111,6.215568,-6.460108,2.311045,-15.426739,10.845827,-27.639530,8064.000000,0.000000,4.000000,,,,0.000000,4.000000,4.000000,4.000000,4.000000,4.000000,4.000000,4.000000,4.000000,4.000000,4.000000,4.000000,4.000000,4.000000,4.000000,4.000000,4.000000,4.000000,4.000000,4.000000,4.000000,4.000000,4.000000,4.000000,4.000000,4.000000,4.000000,4.000000,4.000000,4.000000,4.000000,4.000000,4.000000,100.000000
1615774018.967359,45.000000,0.000000,-4.754744,-6.389351,-43.764874,-20.855095,-34.921219,-12.774403,-6.892726,-7.333611,-95.819672,-21.591110,-19.054754,-1.670219,-22.614700,-13.583199,1.159178,16.362703,-9.449571,4.329291,-1.308619,-11.264585,-6.304962,-2.557192,-3.698037,-5.819386,-11.705804,-12.252509,6.209352,-6.453649,0.257452,-15.924133,9.809340,-30.175995,8064.000000,0.000000,4.000000,,,,0.000000,4.000000,4.000000,4.000000,4.000000,4.000000,4.000000,4.000000,4.000000,4.000000,4.000000,4.000000,4.000000,4.000000,4.000000,4.000000,4.000000,4.000000,4.000000,4.000000,4.000000,4.000000,4.000000,4.000000,4.000000,4.000000,4.000000,4.000000,4.000000,4.000000,4.000000,4.000000,4.000000,100.000000
1615774018.975108,46.000000,0.000000,-4.749989,-6.382962,-43.208290,-20.321419,-32.835014,-12.761628,-6.885834,-3.736534,-95.723854,-22.595160,-1.086981,-1.155729,-17.976700,-15.108077,0.645199,12.756598,-8.927300,3.812141,4.333715,-12.278961,-3.734555,-2.554635,-6.258441,-5.300745,-7.591534,7.759744,6.203143,-6.447195,-0.768447,-15.908209,10.312351,-29.632998,8064.000000,0.000000,4.000000,,,,0.000000,4.000000,4.000000,4.000000,4.000000,4.000000,4.000000,4.000000,4.000000,4.000000,4.000000,4.000000,4.000000,4.000000,4.000000,4.000000,4.000000,4.000000,4.000000,4.000000,4.000000,4.000000,4.000000,4.000000,4.000000,4.000000,4.000000,4.000000,4.000000,4.000000,4.000000,4.000000,4.000000,100.000000
1615774018.982757,47.000000,0.000000,-4.745239,-6.376579,-38.036877,-20.813917,-31.776539,-12.748866,-6.878948,-3.219977,-96.140953,-22.572565,-5.188458,-1.154573,-14.368979,-15.092969,0.644553,12.743840,-8.918373,2.782688,4.842202,-15.343605,-3.218000,-2.552081,-10.867568,-5.295445,-5.019840,15.444291,6.709760,-6.440748,-0.254858,-15.892301,13.378962,-29.603365,8064.000000,0.000000,4.000000,,,,0.000000,4.000000,4.000000,4.000000,4.000000,4.000000,4.000000,4.000000,4.000000,4.000000,4.000000,4.000000,4.000000,4.000000,4.000000,4.000000,4.000000,4.000000,4.000000,4.000000,4.000000,4.000000,4.000000,4.000000,4.000000,4.000000,4.000000,4.000000,4.000000,4.000000,4.000000,4.000000,4.000000,100.000000
1615774018.990506,48.000000,0.000000,-4.740493,-6.370202,-36.460377,-22.844385,-32.257584,-12.736117,-6.872069,-4.242398,-95.531990,-21.524351,-10.311475,-1.666239,-14.867432,-14.565056,1.669550,20.936224,-8.909454,4.831188,7.914283,-11.738518,-3.214782,-2.549528,-12.395162,-5.802970,-5.014821,-3.545512,6.190230,-6.434307,-0.254603,-15.363587,12.339942,-29.573761,8064.000000,0.000000,4.000000,,,,0.000000,4.000000,4.000000,4.000000,4.000000,4.000000,4.000000,4.000000,4.000000,4.000000,4.000000,4.000000,4.000000,4.000000,4.000000,4.000000,4.000000,4.000000,4.000000,4.000000,4.000000,4.000000,4.000000,4.000000,4.000000,4.000000,4.000000,4.000000,4.000000,4.000000,4.000000,4.000000,4.000000,100.000000
1615774018.998156,49.000000,0.000000,-4.735753,-6.363832,-43.090584,-24.360003,-34.789429,-12.723381,-6.865197,-3.212514,-94.923637,-22.528467,-0.557574,-1.151752,-12.801282,-14.037670,-0.383402,23.479391,-8.900545,2.775074,2.265343,-6.598574,-7.826952,-2.034158,-11.357125,-5.284347,-5.009806,-16.362478,6.184040,-6.427873,-0.254349,-15.348225,7.712217,-29.544188,8064.000000,0.000000,4.000000,,,,0.000000,4.000000,4.000000,4.000000,4.000000,4.000000,4.000000,4.000000,4.000000,4.000000,4.000000,4.000000,4.000000,4.000000,4.000000,4.000000,4.000000,4.000000,4.000000,4.000000,4.000000,4.000000,4.000000,4.000000,4.000000,4.000000,4.000000,4.000000,4.000000,4.000000,4.000000,4.000000,4.000000,100.000000
1615774019.006005,50.000000,0.000000,-5.756658,-6.357468,-47.150059,-24.335644,-35.267460,-12.710658,-6.858332,-3.722122,-95.341530,-26.608503,-0.557016,-1.150600,-13.301301,-15.049273,-7.049685,15.763604,-8.891644,-4.407188,-12.095897,-9.668899,-10.383227,-4.083406,-11.345768,-5.279062,-5.004796,2.115422,7.203497,-6.421444,-0.254094,-15.845696,6.166044,-29.514643,8064.000000,0.000000,4.000000,,,,0.000000,4.000000,4.000000,4.000000,4.000000,4.000000,4.000000,4.000000,4.000000,4.000000,4.000000,4.000000,4.000000,4.000000,4.000000,4.000000,4.000000,4.000000,4.000000,4.000000,4.000000,4.000000,4.000000,4.000000,4.000000,4.000000,4.000000,4.000000,4.000000,4.000000,4.000000,4.000000,4.000000,100.000000
1615774019.013754,51.000000,0.000000,-8.315004,-6.351110,-46.590088,-25.336948,-35.232193,-12.697948,-6.851473,-8.333785,-95.246193,-23.504972,-22.607740,-1.149450,-18.416204,-14.008583,-10.632379,13.696559,-8.369932,0.212604,-5.417134,-7.607947,-5.757459,-6.130605,-10.821602,-5.273783,-5.512611,10.318435,4.632191,-6.415023,0.258980,-15.829851,5.647057,-29.485128,8064.000000,0.000000,4.000000,,,,0.000000,4.000000,4.000000,4.000000,4.000000,4.000000,4.000000,4.000000,4.000000,4.000000,4.000000,4.000000,4.000000,4.000000,4.000000,4.000000,4.000000,4.000000,4.000000,4.000000,4.000000,4.000000,4.000000,4.000000,4.000000,4.000000,4.000000,4.000000,4.000000,4.000000,4.000000,4.000000,4.000000,100.000000
1615774019.021603,52.000000,0.000000,-8.819510,-6.344759,-46.030678,-24.285971,-35.196960,-12.685249,-6.331801,-11.402374,-94.638123,-15.789159,-29.251801,-1.148300,-18.910608,-6.302267,-10.108926,21.375170,-8.874383,12.520083,12.024180,-0.933673,-5.238881,-6.124475,-10.297960,-5.268509,-4.481458,-8.153422,-2.039108,-6.408608,-1.279740,-14.788380,3.590128,-29.455643,8064.000000,0.000000,4.000000,,,,0.000000,4.000000,4.000000,4.000000,4.000000,4.000000,4.000000,4.000000,4.000000,4.000000,4.000000,4.000000,4.000000,4.000000,4.000000,4.000000,4.000000,4.000000,4.000000,4.000000,4.000000,4.000000,4.000000,4.000000,4.000000,4.000000,4.000000,4.000000,4.000000,4.000000,4.000000,4.000000,4.000000,100.000000
1615774019.029352,53.000000,0.000000,-8.297870,-6.338415,-46.497467,-23.236044,-35.161762,-12.672564,-7.351110,-10.878151,-97.620407,-18.337473,-6.145625,-1.147152,-15.301955,-5.270323,-9.585997,28.020462,-8.865509,10.456282,6.883951,-6.060945,-11.900310,-6.118350,-12.338944,-5.263241,-7.553899,-5.068346,-5.626812,-6.402199,-3.329742,-17.337694,3.073717,-29.426188,8064.000000,0.000000,4.000000,,,,0.000000,4.000000,4.000000,4.000000,4.000000,4.000000,4.000000,4.000000,4.000000,4.000000,4.000000,4.000000,4.000000,4.000000,4.000000,4.000000,4.000000,4.000000,4.000000,4.000000,4.000000,4.000000,4.000000,4.000000,4.000000,4.000000,4.000000,4.000000,4.000000,4.000000,4.000000,4.000000,4.000000,100.000000
1615774019.037201,54.000000,0.000000,-8.289572,-6.332077,-49.527893,-28.853834,-35.639423,-12.659891,-9.907862,-10.867273,-102.138176,-25.498623,2.065649,-1.146005,-15.799474,-13.470181,-10.089231,26.966799,-7.831002,3.779159,-2.353702,-14.260012,-15.478152,-5.599411,-9.762503,-5.257977,-14.213013,16.475183,-5.108365,-6.395797,-3.839233,-21.935741,1.019362,-29.396761,8064.000000,0.000000,4.000000,,,,0.000000,4.000000,4.000000,4.000000,4.000000,4.000000,4.000000,4.000000,4.000000,4.000000,4.000000,4.000000,4.000000,4.000000,4.000000,4.000000,4.000000,4.000000,4.000000,4.000000,4.000000,4.000000,4.000000,4.000000,4.000000,4.000000,4.000000,4.000000,4.000000,4.000000,4.000000,4.000000,4.000000,100.000000
1615774019.044950,55.000000,0.000000,-8.281282,-6.325744,-49.478363,-30.363441,-35.603783,-12.647231,-10.923595,-11.369226,-103.061676,-25.985945,-14.859494,-1.144859,-17.834955,-18.584917,-13.156065,15.657782,-10.900094,3.775379,-0.812887,-15.271393,-16.488316,-6.106632,-7.188638,-5.252719,-16.762901,6.202299,-4.590436,-6.389401,-3.322573,-23.452267,-1.032940,-29.367365,8064.000000,0.000000,4.000000,,,,0.000000,4.000000,4.000000,4.000000,4.000000,4.000000,4.000000,4.000000,4.000000,4.000000,4.000000,4.000000,4.000000,4.000000,4.000000,4.000000,4.000000,4.000000,4.000000,4.000000,4.000000,4.000000,4.000000,4.000000,4.000000,4.000000,4.000000,4.000000,4.000000,4.000000,4.000000,4.000000,4.000000,100.000000
1615774019.052799,56.000000,0.000000,-8.273001,-6.319418,-44.813503,-19.051025,-33.516895,-12.634584,-10.399851,-10.845037,-100.394516,-25.447138,-13.818994,-1.143714,-19.868402,-19.079151,-17.758293,-1.793774,-18.068682,-2.895063,-10.555664,-19.871506,-18.523109,-9.177448,-17.437859,-7.298749,-13.156395,-18.932108,-5.098666,-6.383012,-3.832071,-22.915995,3.070657,-29.337997,8064.000000,0.000000,4.000000,,,,0.000000,4.000000,4.000000,4.000000,4.000000,4.000000,4.000000,4.000000,4.000000,4.000000,4.000000,4.000000,4.000000,4.000000,4.000000,4.000000,4.000000,4.000000,4.000000,4.000000,4.000000,4.000000,4.000000,4.000000,4.000000,4.000000,4.000000,4.000000,4.000000,4.000000,4.000000,4.000000,4.000000,100.000000
1615774019.060548,57.000000,0.000000,-8.264728,-6.313099,-41.691765,-11.852488,-32.457737,-12.621949,-10.389451,-11.347012,-98.755653,-25.934511,3.117902,-1.142570,-17.797253,-18.034431,-18.253355,-3.330441,-19.589075,-6.481911,-13.622031,-19.338814,-17.991766,-9.681091,-25.625549,-9.855553,-12.117598,-18.400356,-4.580747,-6.376629,-3.828239,-22.893078,6.144510,-29.308661,8064.000000,0.000000,4.000000,,,,0.000000,4.000000,4.000000,4.000000,4.000000,4.000000,4.000000,4.000000,4.000000,4.000000,4.000000,4.000000,4.000000,4.000000,4.000000,4.000000,4.000000,4.000000,4.000000,4.000000,4.000000,4.000000,4.000000,4.000000,4.000000,4.000000,4.000000,4.000000,4.000000,4.000000,4.000000,4.000000,4.000000,100.000000
1615774019.068397,58.000000,0.000000,-8.256463,-6.306786,-42.675713,-15.943200,-30.373999,-12.609327,-10.379062,-10.822845,-98.144081,-21.806013,3.627605,-0.628607,-11.625609,-9.811269,-14.645359,10.519043,-15.979741,3.268160,1.776206,-9.575886,-14.896851,-6.081667,-18.933258,-8.820056,-13.131122,-9.664007,-4.576167,-6.370253,-3.311591,-22.870186,3.574263,-29.279350,8064.000000,0.000000,4.000000,,,,0.000000,4.000000,4.000000,4.000000,4.000000,4.000000,4.000000,4.000000,4.000000,4.000000,4.000000,4.000000,4.000000,4.000000,4.000000,4.000000,4.000000,4.000000,4.000000,4.000000,4.000000,4.000000,4.000000,4.000000,4.000000,4.000000,4.000000,4.000000,4.000000,4.000000,4.000000,4.000000,4.000000,100.000000
1615774019.076146,59.000000,0.000000,-8.248207,-6.300479,-42.633038,-17.978539,-25.728239,-12.596719,-10.368683,-10.299201,-98.045937,-18.194464,-5.093971,-2.679260,-12.126804,-1.083509,-14.117893,15.636729,-16.476582,4.803354,-0.789673,-11.617592,-14.881953,-6.588406,-13.786119,-4.195851,-12.605169,-11.192804,-4.571590,-6.363882,-4.333920,-22.847315,3.057868,-29.250072,8064.000000,0.000000,4.000000,,,,0.000000,4.000000,4.000000,4.000000,4.000000,4.000000,4.000000,4.000000,4.000000,4.000000,4.000000,4.000000,4.000000,4.000000,4.000000,4.000000,4.000000,4.000000,4.000000,4.000000,4.000000,4.000000,4.000000,4.000000,4.000000,4.000000,4.000000,4.000000,4.000000,4.000000,4.000000,4.000000,4.000000,100.000000
1615774019.083995,60.000000,0.000000,-9.265599,-7.319820,-42.077583,-15.909278,-23.138409,-12.584122,-10.358315,-12.853004,-98.460709,-17.663448,-7.140160,-4.727863,-15.704421,0.456036,-14.103775,18.185194,-16.972927,4.285730,-10.532473,-14.682897,-14.867072,-6.581818,-15.823615,-1.114732,-12.592565,-13.232894,-4.567019,-6.357518,-6.893689,-22.824467,2.541989,-29.220821,8064.000000,0.000000,4.000000,,,,0.000000,4.000000,4.000000,4.000000,4.000000,4.000000,4.000000,4.000000,4.000000,4.000000,4.000000,4.000000,4.000000,4.000000,4.000000,4.000000,4.000000,4.000000,4.000000,4.000000,4.000000,4.000000,4.000000,4.000000,4.000000,4.000000,4.000000,4.000000,4.000000,4.000000,4.000000,4.000000,4.000000,100.000000
1615774019.091744,61.000000,0.000000,-8.230693,-5.261218,-42.548328,-16.406189,-24.653732,-12.571538,-10.347956,-9.250408,-97.336609,-15.594502,2.097750,-2.159033,-6.970768,3.532503,-6.910184,31.500343,-11.314928,18.640419,9.990880,-1.334881,-13.826564,0.091431,-12.218047,-1.626438,-13.092793,-11.681199,-4.562452,-6.351161,-7.912436,-23.314463,-0.537476,-29.191601,8064.000000,0.000000,4.000000,,,,0.000000,4.000000,4.000000,4.000000,4.000000,4.000000,4.000000,4.000000,4.000000,4.000000,4.000000,4.000000,4.000000,4.000000,4.000000,4.000000,4.000000,4.000000,4.000000,4.000000,4.000000,4.000000,4.000000,4.000000,4.000000,4.000000,4.000000,4.000000,4.000000,4.000000,4.000000,4.000000,4.000000,100.000000
1615774019.099593,62.000000,0.000000,-7.709642,-3.204675,-42.505779,-16.902603,-23.603437,-12.558966,-10.337607,1.015253,-95.187988,-14.040446,12.352062,-0.105592,-1.835592,3.528970,-2.287889,31.981663,-7.713869,25.288445,24.852684,1.230557,-14.325558,0.604160,-10.667368,-1.624812,-11.541238,-10.131057,-6.096351,-6.344810,-7.391703,-21.752687,-1.049759,-28.649588,8064.000000,0.000000,4.000000,,,,0.000000,4.000000,4.000000,4.000000,4.000000,4.000000,4.000000,4.000000,4.000000,4.000000,4.000000,4.000000,4.000000,4.000000,4.000000,4.000000,4.000000,4.000000,4.000000,4.000000,4.000000,4.000000,4.000000,4.000000,4.000000,4.000000,4.000000,4.000000,4.000000,4.000000,4.000000,4.000000,4.000000,100.000000
1615774019.107342,63.000000,0.000000,-10.266035,-4.739932,-41.950455,-16.885700,-21.015732,-12.546407,-10.327271,2.552699,-94.067162,-14.539227,4.647403,-4.208050,-16.705551,-1.089943,-7.926627,15.539425,-9.244617,20.134951,10.981678,-10.565546,-13.285591,-5.550290,-17.323368,-1.623187,-13.068158,-10.120926,-8.654357,-6.338465,-7.384311,-22.243755,-1.048709,-29.646580,8064.000000,0.000000,4.000000,,,,0.000000,4.000000,4.000000,4.000000,4.000000,4.000000,4.000000,4.000000,4.000000,4.000000,4.000000,4.000000,4.000000,4.000000,4.000000,4.000000,4.000000,4.000000,4.000000,4.000000,4.000000,4.000000,4.000000,4.000000,4.000000,4.000000,4.000000,4.000000,4.000000,4.000000,4.000000,4.000000,4.000000,100.000000
1615774019.114991,64.000000,0.000000,-4.614743,-6.273653,-40.882862,-17.894457,-20.481895,-12.533860,-10.316943,-3.603700,-93.973091,-12.473405,1.053012,-2.665381,-16.688847,7.116275,-5.867418,23.216194,-6.671270,25.243021,10.457875,-4.401134,-6.092818,-0.416535,-14.741941,-0.595923,-14.080731,-7.546702,-8.132882,-7.357768,-7.376927,-24.785614,-2.073301,-28.591293,0.000000,189.000000,4.000000,,,,0.000000,4.000000,4.000000,4.000000,4.000000,4.000000,4.000000,4.000000,4.000000,4.000000,4.000000,4.000000,4.000000,4.000000,4.000000,4.000000,4.000000,4.000000,4.000000,4.000000,4.000000,4.000000,4.000000,4.000000,4.000000,4.000000,4.000000,4.000000,4.000000,4.000000,4.000000,4.000000,4.000000,100.000000
1615774019.122740,65.000000,0.000000,7.697564,-1.139174,-35.200954,-16.850922,-20.461412,-13.034147,-8.768165,-0.010353,-91.315018,-11.435290,17.462215,6.055233,3.840664,16.339928,9.010244,45.757080,-1.023573,26.243420,19.678186,7.910960,2.118403,8.301830,-2.932328,1.455955,-5.861522,1.178793,-5.560647,-4.786307,-7.369550,-20.658264,1.518516,-26.511419,0.000000,191.000000,4.000000,,,,0.000000,4.000000,4.000000,4.000000,4.000000,4.000000,4.000000,4.000000,4.000000,4.000000,4.000000,4.000000,4.000000,4.000000,4.000000,4.000000,4.000000,4.000000,4.000000,4.000000,4.000000,4.000000,4.000000,4.000000,4.000000,4.000000,4.000000,4.000000,4.000000,4.000000,4.000000,4.000000,4.000000,100.000000
1615774019.130390,66.000000,0.000000,9.228328,1.938888,-30.550367,-13.757147,-17.876850,-11.995472,-6.708114,5.117863,-89.685242,-13.475138,8.726804,3.997896,-1.291382,4.015896,5.924311,34.942093,-2.048190,8.268458,6.325175,-0.302080,-1.473459,1.114042,1.173169,2.480140,0.811006,2.203256,-4.529445,-2.217418,-7.362181,-11.919658,8.696485,-25.972088,0.000000,196.000000,4.000000,,,,0.000000,4.000000,4.000000,4.000000,4.000000,4.000000,4.000000,4.000000,4.000000,4.000000,4.000000,4.000000,4.000000,4.000000,4.000000,4.000000,4.000000,4.000000,4.000000,4.000000,4.000000,4.000000,4.000000,4.000000,4.000000,4.000000,4.000000,4.000000,4.000000,4.000000,4.000000,4.000000,4.000000,100.000000
1615774019.138139,67.000000,0.000000,3.578074,0.398488,-32.571098,-15.794672,-16.320511,-12.496297,-6.188586,-2.066742,-90.621201,-13.461662,-23.589615,-6.262512,-24.879835,-10.859915,-17.671358,4.137919,-7.687168,-3.021862,-8.552945,-9.532547,-14.805319,-7.092201,-5.494671,1.964840,-8.933394,-5.491255,-4.524916,-3.753662,-7.354818,-18.061584,10.739070,-28.510218,0.000000,200.000000,4.000000,,,,0.000000,4.000000,4.000000,4.000000,4.000000,4.000000,4.000000,4.000000,4.000000,4.000000,4.000000,4.000000,4.000000,4.000000,4.000000,4.000000,4.000000,4.000000,4.000000,4.000000,4.000000,4.000000,4.000000,4.000000,4.000000,4.000000,4.000000,4.000000,4.000000,4.000000,4.000000,4.000000,4.000000,100.000000
1615774019.145788,68.000000,0.000000,4.087317,1.423730,-34.076988,-15.778877,-17.329832,-13.509442,-7.208038,-6.680060,-90.530579,-16.525124,-17.924999,-9.333173,-21.778032,-13.413157,-23.294712,1.569679,-9.217942,-0.967558,-6.493110,-7.471732,-22.482821,-6.059467,-8.053279,2.475695,-16.103949,3.745005,-5.033211,-1.185806,-7.860284,-28.299932,11.241151,-31.045811,0.000000,199.000000,4.000000,,,,0.000000,4.000000,4.000000,4.000000,4.000000,4.000000,4.000000,4.000000,4.000000,4.000000,4.000000,4.000000,4.000000,4.000000,4.000000,4.000000,4.000000,4.000000,4.000000,4.000000,4.000000,4.000000,4.000000,4.000000,4.000000,4.000000,4.000000,4.000000,4.000000,4.000000,4.000000,4.000000,4.000000,100.000000
1615774019.153537,69.000000,0.000000,7.672973,4.499229,-27.889067,-6.019508,-16.286861,-8.880548,-6.175189,-2.570816,-85.824661,-18.559881,9.785233,-2.657173,-4.833177,-7.758719,-5.835519,17.465546,-8.695904,1.084692,-5.460976,-7.977081,-17.844954,-8.617511,-7.019585,1.447579,-6.344255,15.536132,-4.002537,6.507688,-6.826783,-12.887017,17.383757,-24.860918,0.000000,187.000000,4.000000,,,,0.000000,4.000000,4.000000,4.000000,4.000000,4.000000,4.000000,4.000000,4.000000,4.000000,4.000000,4.000000,4.000000,4.000000,4.000000,4.000000,4.000000,4.000000,4.000000,4.000000,4.000000,4.000000,4.000000,4.000000,4.000000,4.000000,4.000000,4.000000,4.000000,4.000000,4.000000,4.000000,4.000000,100.000000
1615774019.161186,70.000000,0.000000,6.126838,5.007551,-22.732973,2.704460,-11.655190,-2.205001,-3.604911,0.508678,-82.149094,-7.259270,6.185704,1.960869,-2.264241,7.120835,2.375444,21.037823,-8.687207,3.134889,-5.968335,-5.917822,-8.596340,-9.121714,-7.525385,-1.630792,2.892859,0.648801,-1.947252,7.014000,-4.255853,9.689972,23.520218,-13.554006,0.000000,209.000000,4.000000,,,,0.000000,4.000000,4.000000,4.000000,4.000000,4.000000,4.000000,4.000000,4.000000,4.000000,4.000000,4.000000,4.000000,4.000000,4.000000,4.000000,4.000000,4.000000,4.000000,4.000000,4.000000,4.000000,4.000000,4.000000,4.000000,4.000000,4.000000,4.000000,4.000000,4.000000,4.000000,4.000000,4.000000,100.000000
1615774019.168935,71.000000,0.000000,5.607891,4.489723,-23.735880,2.701756,-8.566611,-1.689975,-2.575665,0.508169,-82.066948,-1.098164,3.615416,2.471729,-5.338900,14.293201,0.321787,17.427042,-6.627238,5.695857,3.268402,3.318865,-3.459538,2.682280,-8.030681,-2.654802,1.864325,-6.018515,-0.406844,1.365961,-3.225956,5.064898,21.958237,-10.463529,0.000000,200.000000,4.000000,,,,0.000000,4.000000,4.000000,4.000000,4.000000,4.000000,4.000000,4.000000,4.000000,4.000000,4.000000,4.000000,4.000000,4.000000,4.000000,4.000000,4.000000,4.000000,4.000000,4.000000,4.000000,4.000000,4.000000,4.000000,4.000000,4.000000,4.000000,4.000000,4.000000,4.000000,4.000000,4.000000,4.000000,100.000000
1615774019.176584,72.000000,0.000000,6.115104,4.485233,-24.737785,-1.403510,-10.096506,-5.278028,-3.085910,-1.030800,-82.497696,-13.917579,14.893852,2.469257,-3.795099,-1.105708,0.834286,19.460896,-4.569329,8.767084,14.034365,8.443751,-3.968899,9.346264,-7.509830,-1.113686,1.349640,11.936222,-0.919257,-0.173867,-3.735551,-10.837603,13.218330,-15.581270,0.000000,214.000000,4.000000,,,,0.000000,4.000000,4.000000,4.000000,4.000000,4.000000,4.000000,4.000000,4.000000,4.000000,4.000000,4.000000,4.000000,4.000000,4.000000,4.000000,4.000000,4.000000,4.000000,4.000000,4.000000,4.000000,4.000000,4.000000,4.000000,4.000000,4.000000,4.000000,4.000000,4.000000,4.000000,4.000000,4.000000,100.000000
1615774019.184333,73.000000,0.000000,6.108988,4.480748,-23.687407,-4.479030,-13.163332,-5.272751,-3.082824,-5.645154,-81.902382,-21.083149,-1.531299,2.979608,-2.765663,-9.822551,-2.243472,20.979897,-5.590401,11.835240,13.507510,7.409667,-7.041853,5.747174,-8.015141,-2.651034,2.373931,13.975568,-0.918338,1.364769,-3.731816,-12.365227,6.538445,-18.129791,0.000000,215.000000,4.000000,,,,0.000000,4.000000,4.000000,4.000000,4.000000,4.000000,4.000000,4.000000,4.000000,4.000000,4.000000,4.000000,4.000000,4.000000,4.000000,4.000000,4.000000,4.000000,4.000000,4.000000,4.000000,4.000000,4.000000,4.000000,4.000000,4.000000,4.000000,4.000000,4.000000,4.000000,4.000000,4.000000,4.000000,100.000000
1615774019.191983,74.000000,0.000000,6.102880,4.476267,-23.663719,-6.013012,-12.637348,-4.754657,-3.079741,-7.177970,-81.820480,-10.805655,-19.991306,2.976629,-3.788538,-2.120420,-5.318151,19.420456,-4.559169,8.233662,11.442720,7.402257,-6.009171,7.792709,-7.494305,-2.135562,2.884378,1.653900,-0.917420,0.850583,-3.215263,-7.224657,8.070368,-17.086021,0.000000,215.000000,4.000000,,,,0.000000,4.000000,4.000000,4.000000,4.000000,4.000000,4.000000,4.000000,4.000000,4.000000,4.000000,4.000000,4.000000,4.000000,4.000000,4.000000,4.000000,4.000000,4.000000,4.000000,4.000000,4.000000,4.000000,4.000000,4.000000,4.000000,4.000000,4.000000,4.000000,4.000000,4.000000,4.000000,4.000000,100.000000
1615774019.199832,75.000000,0.000000,6.609597,4.471791,-24.665697,-6.006999,-10.060609,-5.262723,-3.076662,-2.042588,-82.251480,-4.641003,-0.996955,2.460831,-3.271929,0.445803,-2.235910,22.477959,-1.990508,9.763889,20.662046,7.394855,-1.900597,13.425942,-4.922708,4.533240,4.419955,5.241990,-0.916502,0.336912,-3.724869,-5.678970,10.626400,-17.581755,0.000000,233.000000,4.000000,,,,0.000000,4.000000,4.000000,4.000000,4.000000,4.000000,4.000000,4.000000,4.000000,4.000000,4.000000,4.000000,4.000000,4.000000,4.000000,4.000000,4.000000,4.000000,4.000000,4.000000,4.000000,4.000000,4.000000,4.000000,4.000000,4.000000,4.000000,4.000000,4.000000,4.000000,4.000000,4.000000,4.000000,100.000000
1615774019.207581,76.000000,0.000000,6.602987,4.467319,-24.128210,-6.000992,-9.537727,-5.257461,-3.073585,1.036378,-82.169228,-7.713285,16.952759,2.458371,-3.268657,2.496639,0.843249,31.173429,-0.962876,22.574638,28.333693,8.413101,1.178226,11.361235,-3.379323,10.169732,4.928356,10.877773,-0.915586,0.336575,-3.721143,-5.160471,9.590133,-18.076994,0.000000,207.000000,4.000000,,,,0.000000,4.000000,4.000000,4.000000,4.000000,4.000000,4.000000,4.000000,4.000000,4.000000,4.000000,4.000000,4.000000,4.000000,4.000000,4.000000,4.000000,4.000000,4.000000,4.000000,4.000000,4.000000,4.000000,4.000000,4.000000,4.000000,4.000000,4.000000,4.000000,4.000000,4.000000,4.000000,4.000000,100.000000
1615774019.215430,77.000000,0.000000,5.570744,4.462852,-19.488697,-6.507812,-9.528190,-5.252203,-3.070511,0.009701,-81.574234,-7.705572,4.115294,2.455912,-3.778209,11.724912,1.868047,37.296101,-1.474734,22.552063,17.536127,5.840585,0.664228,9.298591,-3.888765,9.646742,6.461889,12.405357,-0.914670,0.849059,-3.717422,-5.155311,9.580543,-18.058916,0.000000,189.000000,4.000000,,,,0.000000,4.000000,4.000000,4.000000,4.000000,4.000000,4.000000,4.000000,4.000000,4.000000,4.000000,4.000000,4.000000,4.000000,4.000000,4.000000,4.000000,4.000000,4.000000,4.000000,4.000000,4.000000,4.000000,4.000000,4.000000,4.000000,4.000000,4.000000,4.000000,4.000000,4.000000,4.000000,4.000000,100.000000
1615774019.223179,78.000000,0.000000,6.590814,4.458389,-16.392286,-5.988484,-8.493021,-5.246951,-3.067441,0.009691,-82.518303,-5.133764,-4.093949,1.940636,-3.261611,12.226007,3.404640,33.156242,-1.473259,8.170537,3.159617,-1.857563,-2.413360,8.263651,-3.884876,9.124275,5.429786,10.854490,-0.400935,2.899492,-3.713705,-3.611694,10.083783,-18.040857,0.000000,203.000000,4.000000,,,,0.000000,4.000000,4.000000,4.000000,4.000000,4.000000,4.000000,4.000000,4.000000,4.000000,4.000000,4.000000,4.000000,4.000000,4.000000,4.000000,4.000000,4.000000,4.000000,4.000000,4.000000,4.000000,4.000000,4.000000,4.000000,4.000000,4.000000,4.000000,4.000000,4.000000,4.000000,4.000000,4.000000,100.000000
1615774019.231028,79.000000,0.000000,7.097044,4.453930,-16.375893,-5.982495,-12.074271,-5.241704,-3.064373,0.522502,-87.051170,-10.256835,7.192196,2.451516,-3.771169,4.008653,0.324312,21.841034,-0.958965,1.495700,0.592355,-8.009552,-6.513511,0.563080,-3.880991,9.627971,-3.293593,-8.643544,-1.426175,4.947875,-3.709991,-3.608082,10.073699,-18.022818,0.000000,210.000000,4.000000,,,,0.000000,4.000000,4.000000,4.000000,4.000000,4.000000,4.000000,4.000000,4.000000,4.000000,4.000000,4.000000,4.000000,4.000000,4.000000,4.000000,4.000000,4.000000,4.000000,4.000000,4.000000,4.000000,4.000000,4.000000,4.000000,4.000000,4.000000,4.000000,4.000000,4.000000,4.000000,4.000000,4.000000,100.000000
1615774019.238777,80.000000,0.000000,0.936100,4.449476,-16.872337,-5.976513,-16.677582,-5.236462,-3.061309,0.009159,-90.041039,-19.990168,7.697824,2.961885,-7.357142,2.466183,-2.752935,15.152526,-0.958006,4.058307,2.130224,-8.001542,-7.532638,-7.129791,-3.877110,6.028600,-9.444145,-15.814387,-0.911928,4.430106,-3.706281,-8.732679,10.063625,-18.004795,0.000000,185.000000,4.000000,,,,0.000000,4.000000,4.000000,4.000000,4.000000,4.000000,4.000000,4.000000,4.000000,4.000000,4.000000,4.000000,4.000000,4.000000,4.000000,4.000000,4.000000,4.000000,4.000000,4.000000,4.000000,4.000000,4.000000,4.000000,4.000000,4.000000,4.000000,4.000000,4.000000,4.000000,4.000000,4.000000,4.000000,100.000000
1615774019.246626,81.000000,0.000000,-4.705862,4.445027,-16.342646,-5.970536,-17.173725,-5.231226,-3.058248,0.009150,-88.925362,-22.534281,-10.258592,0.394820,-10.426708,4.514998,-1.724541,16.675835,-3.008330,4.567069,1.102453,-7.480720,-5.473823,-7.122661,-3.873233,1.920007,-6.870599,10.355273,1.140266,4.425676,-3.702575,-11.288049,10.053561,-17.986790,0.000000,200.000000,4.000000,,,,0.000000,4.000000,4.000000,4.000000,4.000000,4.000000,4.000000,4.000000,4.000000,4.000000,4.000000,4.000000,4.000000,4.000000,4.000000,4.000000,4.000000,4.000000,4.000000,4.000000,4.000000,4.000000,4.000000,4.000000,4.000000,4.000000,4.000000,4.000000,4.000000,4.000000,4.000000,4.000000,4.000000,100.000000
1615774019.254375,82.000000,0.000000,-5.726797,4.440582,-16.326303,-5.451745,-17.669371,-5.225995,-3.055190,0.521961,-88.323616,-18.922003,-16.402180,-1.144036,-11.954742,2.972022,-3.774098,15.120698,-5.056604,5.075322,0.075710,-7.986060,-3.417068,-6.089897,-3.869360,1.405266,-4.812446,13.934661,2.164766,4.934071,-3.698873,-8.712658,10.043508,-17.968803,0.000000,202.000000,4.000000,,,,0.000000,4.000000,4.000000,4.000000,4.000000,4.000000,4.000000,4.000000,4.000000,4.000000,4.000000,4.000000,4.000000,4.000000,4.000000,4.000000,4.000000,4.000000,4.000000,4.000000,4.000000,4.000000,4.000000,4.000000,4.000000,4.000000,4.000000,4.000000,4.000000,4.000000,4.000000,4.000000,4.000000,100.000000
1615774019.262224,83.000000,0.000000,-5.208249,4.436141,-16.822798,-5.959114,-20.728624,-5.220768,-2.539314,0.008619,-89.260933,-19.415901,2.075761,2.446851,-10.404326,2.969050,-1.719042,15.105577,-5.051548,7.121529,1.614096,-7.978074,-3.413650,-7.109448,-3.865490,1.916682,-6.346095,-10.694658,-0.401501,4.416317,-3.695174,-9.216766,10.033464,-17.950834,0.000000,215.000000,4.000000,,,,0.000000,4.000000,4.000000,4.000000,4.000000,4.000000,4.000000,4.000000,4.000000,4.000000,4.000000,4.000000,4.000000,4.000000,4.000000,4.000000,4.000000,4.000000,4.000000,4.000000,4.000000,4.000000,4.000000,4.000000,4.000000,4.000000,4.000000,4.000000,4.000000,4.000000,4.000000,4.000000,4.000000,100.000000
1615774019.269973,84.000000,0.000000,-3.664580,4.431705,-16.805975,-5.953155,-20.707897,-5.215548,-3.049595,0.521431,-88.658852,-15.293921,16.945480,7.572610,-3.214435,6.043004,11.616010,29.962267,-4.533675,9.678510,4.176584,-7.457275,-3.410237,-5.051057,-3.348804,1.401944,-5.314108,-2.991656,-1.426740,4.411900,-3.691478,-12.284472,10.023431,-17.932882,0.000000,225.000000,4.000000,,,,0.000000,4.000000,4.000000,4.000000,4.000000,4.000000,4.000000,4.000000,4.000000,4.000000,4.000000,4.000000,4.000000,4.000000,4.000000,4.000000,4.000000,4.000000,4.000000,4.000000,4.000000,4.000000,4.000000,4.000000,4.000000,4.000000,4.000000,4.000000,4.000000,4.000000,4.000000,4.000000,4.000000,100.000000
1615774019.277822,85.000000,0.000000,0.441649,4.427273,-16.789167,-5.434381,-17.097445,-5.210332,-3.046546,0.008089,-88.057373,-6.560678,12.825971,6.026576,0.891344,7.575423,12.117214,41.214355,-5.041962,10.694472,5.710869,-7.449818,-2.894006,-2.481903,-3.345455,1.913363,-4.283153,18.036978,-0.399673,4.920309,-3.687787,-12.272188,10.013408,-17.914949,0.000000,174.000000,4.000000,,,,0.000000,4.000000,4.000000,4.000000,4.000000,4.000000,4.000000,4.000000,4.000000,4.000000,4.000000,4.000000,4.000000,4.000000,4.000000,4.000000,4.000000,4.000000,4.000000,4.000000,4.000000,4.000000,4.000000,4.000000,4.000000,4.000000,4.000000,4.000000,4.000000,4.000000,4.000000,4.000000,4.000000,100.000000
1615774019.285571,86.000000,0.000000,3.518131,4.422846,-16.259558,-6.454588,-16.054707,-5.205122,-2.017858,-2.043201,-89.507774,-13.220784,10.761863,3.969267,-5.776214,6.029386,-4.305159,29.891090,-5.036920,8.632496,5.192338,-7.442368,-3.403933,-1.966601,-4.880571,1.911450,-5.817331,6.736889,-0.912094,3.376927,-3.684099,-11.234275,10.003394,-17.897036,0.000000,193.000000,4.000000,,,,0.000000,4.000000,4.000000,4.000000,4.000000,4.000000,4.000000,4.000000,4.000000,4.000000,4.000000,4.000000,4.000000,4.000000,4.000000,4.000000,4.000000,4.000000,4.000000,4.000000,4.000000,4.000000,4.000000,4.000000,4.000000,4.000000,4.000000,4.000000,4.000000,4.000000,4.000000,4.000000,4.000000,100.000000
1615774019.293420,87.000000,0.000000,3.514612,4.418423,-17.268940,-11.063518,-18.602755,-5.199917,-5.092763,-5.118082,-91.469551,-27.566538,12.289562,3.452477,-10.898643,3.459254,-11.993161,19.091969,-4.519063,7.085402,5.187145,-6.922105,-3.400528,-1.964634,-6.926973,1.909538,-4.273052,-0.449335,-0.911181,1.322268,-3.680415,-11.735861,9.993391,-17.366318,0.000000,198.000000,4.000000,,,,0.000000,4.000000,4.000000,4.000000,4.000000,4.000000,4.000000,4.000000,4.000000,4.000000,4.000000,4.000000,4.000000,4.000000,4.000000,4.000000,4.000000,4.000000,4.000000,4.000000,4.000000,4.000000,4.000000,4.000000,4.000000,4.000000,4.000000,4.000000,4.000000,4.000000,4.000000,4.000000,4.000000,100.000000
1615774019.301169,88.000000,0.000000,1.972636,4.414005,-19.815773,-13.616557,-20.122614,-5.194717,-11.754337,-8.702707,-92.403717,-26.000509,-8.235548,-2.192001,-10.374924,3.968615,-8.391425,21.636978,-7.078646,7.591137,5.694778,-6.915183,-2.884307,-2.988311,-7.432867,1.907629,-1.191856,8.781883,-0.910270,0.808125,-3.163914,-11.724125,9.983397,-17.348951,0.000000,174.000000,4.000000,,,,0.000000,4.000000,4.000000,4.000000,4.000000,4.000000,4.000000,4.000000,4.000000,4.000000,4.000000,4.000000,4.000000,4.000000,4.000000,4.000000,4.000000,4.000000,4.000000,4.000000,4.000000,4.000000,4.000000,4.000000,4.000000,4.000000,4.000000,4.000000,4.000000,4.000000,4.000000,4.000000,4.000000,100.000000
1615774019.309018,89.000000,0.000000,-2.644721,4.409591,-20.821598,-13.090119,-20.102489,-5.189522,-15.332326,-11.770927,-91.798492,-17.256561,-32.329876,-9.369296,-13.954292,3.964646,-10.434316,23.666624,-11.686953,7.070725,5.176263,-8.959550,-4.419885,-5.549425,-11.015178,2.418541,-6.318870,0.055153,-2.960642,-1.243965,-3.160750,-11.712401,9.973414,-19.382885,0.000000,205.000000,4.000000,,,,0.000000,4.000000,4.000000,4.000000,4.000000,4.000000,4.000000,4.000000,4.000000,4.000000,4.000000,4.000000,4.000000,4.000000,4.000000,4.000000,4.000000,4.000000,4.000000,4.000000,4.000000,4.000000,4.000000,4.000000,4.000000,4.000000,4.000000,4.000000,4.000000,4.000000,4.000000,4.000000,4.000000,100.000000
1615774019.316767,90.000000,0.000000,-5.718999,4.405181,-20.287956,-13.589850,-20.082388,-5.184333,-14.291353,-11.759156,-91.706696,-17.239304,-16.912931,-6.795824,-14.965980,1.909400,-10.423882,23.642958,-12.700907,7.576475,5.171087,-11.001872,-6.466747,-6.569517,-14.593905,0.877661,-14.004858,-10.201313,-4.496143,-2.781183,-3.670410,-11.700688,9.963441,-21.414783,0.000000,186.000000,4.000000,,,,0.000000,4.000000,4.000000,4.000000,4.000000,4.000000,4.000000,4.000000,4.000000,4.000000,4.000000,4.000000,4.000000,4.000000,4.000000,4.000000,4.000000,4.000000,4.000000,4.000000,4.000000,4.000000,4.000000,4.000000,4.000000,4.000000,4.000000,4.000000,4.000000,4.000000,4.000000,4.000000,4.000000,100.000000
1615774019.324616,91.000000,0.000000,-4.174819,4.400776,-20.267668,-13.063439,-20.062305,-5.179148,-11.712959,-7.644833,-91.614990,-19.273348,10.283469,-0.635182,-13.925372,-0.143792,-6.310893,22.080853,-12.175385,7.568899,5.165916,-10.990870,-7.485921,-6.050127,-15.092133,-0.661678,-15.016495,-0.447522,-4.491647,-3.291222,-3.153919,-11.688988,9.953477,-20.880548,0.000000,183.000000,4.000000,,,,0.000000,4.000000,4.000000,4.000000,4.000000,4.000000,4.000000,4.000000,4.000000,4.000000,4.000000,4.000000,4.000000,4.000000,4.000000,4.000000,4.000000,4.000000,4.000000,4.000000,4.000000,4.000000,4.000000,4.000000,4.000000,4.000000,4.000000,4.000000,4.000000,4.000000,4.000000,4.000000,4.000000,100.000000
1615774019.332365,92.000000,0.000000,-6.221926,4.396375,-20.247400,-12.537556,-20.042244,-5.173969,-10.675605,-8.150009,-91.523376,-17.715612,-3.060148,-5.249932,-21.090935,-0.656469,-10.407146,12.828003,-12.163210,1.407484,5.673571,-10.979879,-6.965615,-6.044076,-14.564219,-2.712298,-11.924555,5.193952,-4.487155,-4.313572,-3.150765,-13.215760,10.456345,-22.398130,0.000000,201.000000,4.000000,,,,0.000000,4.000000,4.000000,4.000000,4.000000,4.000000,4.000000,4.000000,4.000000,4.000000,4.000000,4.000000,4.000000,4.000000,4.000000,4.000000,4.000000,4.000000,4.000000,4.000000,4.000000,4.000000,4.000000,4.000000,4.000000,4.000000,4.000000,4.000000,4.000000,4.000000,4.000000,4.000000,4.000000,100.000000
1615774019.340014,93.000000,0.000000,-8.266986,4.391979,-21.765615,-17.653223,-20.022202,-5.168795,-10.152109,-12.244423,-91.944672,-17.185076,-17.928883,-9.347246,-24.146767,-2.707094,-17.063406,8.712610,-12.663867,-4.234949,6.180717,-10.968900,-6.958649,-6.038033,-14.549656,-4.760868,-12.425451,3.137475,-4.482668,-6.873361,-6.224537,-15.766647,8.907426,-27.503937,0.000000,177.000000,4.000000,,,,0.000000,4.000000,4.000000,4.000000,4.000000,4.000000,4.000000,4.000000,4.000000,4.000000,4.000000,4.000000,4.000000,4.000000,4.000000,4.000000,4.000000,4.000000,4.000000,4.000000,4.000000,4.000000,4.000000,4.000000,4.000000,4.000000,4.000000,4.000000,4.000000,4.000000,4.000000,4.000000,4.000000,100.000000
1615774019.347763,94.000000,0.000000,-3.643335,4.387587,-23.795132,-18.661211,-20.002178,-5.163626,-9.116316,-6.078332,-90.827087,-17.680712,5.165970,-2.671232,-13.353389,-4.242848,-14.995061,14.857744,-12.138383,-4.230714,5.148896,-10.957931,-6.951691,-6.031994,-14.535106,-5.781748,-12.925846,9.801004,-4.478185,-6.866488,-7.243954,-15.238060,6.334416,-27.989252,0.000000,166.000000,4.000000,,,,0.000000,4.000000,4.000000,4.000000,4.000000,4.000000,4.000000,4.000000,4.000000,4.000000,4.000000,4.000000,4.000000,4.000000,4.000000,4.000000,4.000000,4.000000,4.000000,4.000000,4.000000,4.000000,4.000000,4.000000,4.000000,4.000000,4.000000,4.000000,4.000000,4.000000,4.000000,4.000000,4.000000,100.000000
1615774019.355413,95.000000,0.000000,-1.075589,4.383199,-24.284157,-11.975883,-20.494997,-5.158463,-6.543097,3.671336,-88.684975,-17.663031,19.006958,3.485286,-5.134907,-4.238605,-9.339040,14.842886,-12.126245,-4.226484,5.656568,-10.946973,-6.944739,-6.025962,-14.520571,-5.263146,-12.400100,10.816845,-6.524989,-6.346800,-4.159787,-12.658719,5.815261,-25.397161,0.000000,187.000000,4.000000,,,,0.000000,4.000000,4.000000,4.000000,4.000000,4.000000,4.000000,4.000000,4.000000,4.000000,4.000000,4.000000,4.000000,4.000000,4.000000,4.000000,4.000000,4.000000,4.000000,4.000000,4.000000,4.000000,4.000000,4.000000,4.000000,4.000000,4.000000,4.000000,4.000000,4.000000,4.000000,4.000000,4.000000,100.000000
1615774019.363162,96.000000,0.000000,-1.074513,4.378816,-23.234232,-7.861343,-19.448860,-5.153304,-6.023733,0.077921,-87.057831,-15.594086,-1.012049,2.968980,-7.181055,-3.721547,-9.329700,17.392145,-12.114118,-3.196616,6.676552,-10.423205,-6.937794,-6.019936,-14.506050,-5.257883,-12.387699,-2.014485,-8.056926,-6.340454,-4.668447,-11.107599,6.322267,-27.935867,8064.000000,0.000000,4.000000,,,,0.000000,4.000000,4.000000,4.000000,4.000000,4.000000,4.000000,4.000000,4.000000,4.000000,4.000000,4.000000,4.000000,4.000000,4.000000,4.000000,4.000000,4.000000,4.000000,4.000000,4.000000,4.000000,4.000000,4.000000,4.000000,4.000000,4.000000,4.000000,4.000000,4.000000,4.000000,4.000000,4.000000,100.000000
1615774019.370811,97.000000,0.000000,1.490664,4.374437,-24.236639,-9.391944,-19.942232,-5.148151,-6.530530,-7.101644,-87.483597,-12.501569,-13.318729,2.453190,-7.686694,-3.717825,-10.346012,32.246548,-11.589183,-1.142138,1.028850,-10.412783,-6.418036,-6.013916,-14.491544,-4.739804,-12.375312,-9.704778,-8.048869,-6.334113,-6.202241,-11.096492,6.315944,-32.523315,8064.000000,0.000000,4.000000,,,,0.000000,4.000000,4.000000,4.000000,4.000000,4.000000,4.000000,4.000000,4.000000,4.000000,4.000000,4.000000,4.000000,4.000000,4.000000,4.000000,4.000000,4.000000,4.000000,4.000000,4.000000,4.000000,4.000000,4.000000,4.000000,4.000000,4.000000,4.000000,4.000000,4.000000,4.000000,4.000000,4.000000,100.000000
1615774019.378560,98.000000,0.000000,2.001994,4.370063,-26.776505,-9.382551,-22.486393,-5.143003,-6.524000,-5.556081,-87.396111,-14.027529,-8.177206,1.937916,-6.140546,-3.714107,-9.310025,31.188662,-12.090415,-2.166636,-8.202949,-10.915190,-7.437259,-6.007903,-14.477053,-4.735065,-12.362936,-7.130971,-8.040820,-6.327779,-2.093474,-10.572575,6.309628,-32.490791,8064.000000,0.000000,4.000000,,,,0.000000,4.000000,4.000000,4.000000,4.000000,4.000000,4.000000,4.000000,4.000000,4.000000,4.000000,4.000000,4.000000,4.000000,4.000000,4.000000,4.000000,4.000000,4.000000,4.000000,4.000000,4.000000,4.000000,4.000000,4.000000,4.000000,4.000000,4.000000,4.000000,4.000000,4.000000,4.000000,4.000000,100.000000
1615774019.386209,99.000000,0.000000,-0.564111,4.365693,-27.775370,-8.860349,-23.489548,-5.137860,-6.517476,-2.473602,-87.821533,-19.141706,-5.092105,2.961620,-6.647226,-3.710393,-9.300715,17.824139,-11.565504,-2.164470,-10.758848,-10.904275,-10.506744,-5.489074,-14.462576,-6.268791,-12.350574,-9.687943,-8.032779,-6.321451,-1.578560,-11.074822,6.303319,-31.432661,8064.000000,0.000000,4.000000,,,,0.000000,4.000000,4.000000,4.000000,4.000000,4.000000,4.000000,4.000000,4.000000,4.000000,4.000000,4.000000,4.000000,4.000000,4.000000,4.000000,4.000000,4.000000,4.000000,4.000000,4.000000,4.000000,4.000000,4.000000,4.000000,4.000000,4.000000,4.000000,4.000000,4.000000,4.000000,4.000000,4.000000,100.000000
1615774019.393958,100.000000,0.000000,2.513376,4.361327,-27.234774,-8.851488,-20.901955,-5.132722,-6.510958,-4.009590,-87.220894,-13.481539,-4.574193,7.061222,-7.153399,-3.706683,-9.804235,23.960161,-11.553938,2.965900,-6.645525,-9.867729,-10.496238,-5.996406,-14.448112,-3.698420,-12.338223,-12.755177,-8.024746,-6.315130,-6.705187,-11.576569,6.297016,-32.426868,8064.000000,0.000000,4.000000,,,,0.000000,4.000000,4.000000,4.000000,4.000000,4.000000,4.000000,4.000000,4.000000,4.000000,4.000000,4.000000,4.000000,4.000000,4.000000,4.000000,4.000000,4.000000,4.000000,4.000000,4.000000,4.000000,4.000000,4.000000,4.000000,4.000000,4.000000,4.000000,4.000000,4.000000,4.000000,4.000000,4.000000,100.000000
1615774019.401607,101.000000,0.000000,6.613427,4.356966,-27.207539,-6.791355,-19.342592,-5.127589,-6.504447,-4.005580,-87.133675,-6.288570,-7.133721,3.977238,-7.146245,-3.702976,-9.794431,22.910561,-13.593666,4.501396,-5.100418,-14.473247,-9.972921,-8.041691,-14.433664,-1.643439,-12.325885,-6.075756,-8.016722,-6.308815,-8.236943,-10.539351,6.290719,-31.881620,8064.000000,0.000000,4.000000,,,,0.000000,4.000000,4.000000,4.000000,4.000000,4.000000,4.000000,4.000000,4.000000,4.000000,4.000000,4.000000,4.000000,4.000000,4.000000,4.000000,4.000000,4.000000,4.000000,4.000000,4.000000,4.000000,4.000000,4.000000,4.000000,4.000000,4.000000,4.000000,4.000000,4.000000,4.000000,4.000000,4.000000,100.000000
1615774019.409356,102.000000,0.000000,6.606814,4.352609,-27.693151,-5.246102,-21.887352,-5.122462,-6.497942,-4.001575,-88.072182,-14.487410,-0.972741,-1.154945,-7.139099,-3.699273,-9.784636,-4.804658,-15.631354,0.907151,-6.633779,-21.638260,-14.065513,-9.572111,-14.419231,-9.846924,-12.313559,0.596987,-8.008705,-6.302506,-6.690245,-14.631375,6.284428,-31.849739,8064.000000,0.000000,4.000000,,,,0.000000,4.000000,4.000000,4.000000,4.000000,4.000000,4.000000,4.000000,4.000000,4.000000,4.000000,4.000000,4.000000,4.000000,4.000000,4.000000,4.000000,4.000000,4.000000,4.000000,4.000000,4.000000,4.000000,4.000000,4.000000,4.000000,4.000000,4.000000,4.000000,4.000000,4.000000,4.000000,4.000000,100.000000
1615774019.417006,103.000000,0.000000,5.574566,4.861077,-27.152637,-5.240856,-22.378284,-5.117339,-6.491445,-2.459111,-84.907181,-21.139589,19.028231,6.025698,-5.080678,-3.695574,-9.774852,-8.389597,-16.128544,-0.632218,-4.575863,-21.103802,-17.128370,-9.562539,-14.404812,-16.503744,-12.301246,-0.429251,-8.000696,-5.783383,-7.196375,-25.898796,6.278143,-31.817890,8064.000000,0.000000,4.000000,,,,0.000000,4.000000,4.000000,4.000000,4.000000,4.000000,4.000000,4.000000,4.000000,4.000000,4.000000,4.000000,4.000000,4.000000,4.000000,4.000000,4.000000,4.000000,4.000000,4.000000,4.000000,4.000000,4.000000,4.000000,4.000000,4.000000,4.000000,4.000000,4.000000,4.000000,4.000000,4.000000,4.000000,100.000000
1615774019.424755,104.000000,0.000000,6.594633,4.856215,-25.587023,-5.235615,-16.714882,-5.112222,-6.997774,1.645912,-78.668434,-9.836398,14.393819,9.609415,-3.024315,-2.153417,-9.765077,17.259817,-15.599595,0.394055,0.044097,-14.928852,-15.059959,-9.552977,-14.390407,-9.820573,-11.776123,0.083998,-7.992695,-5.777599,-7.701999,-30.488281,6.271865,-31.273251,8064.000000,0.000000,4.000000,,,,0.000000,4.000000,4.000000,4.000000,4.000000,4.000000,4.000000,4.000000,4.000000,4.000000,4.000000,4.000000,4.000000,4.000000,4.000000,4.000000,4.000000,4.000000,4.000000,4.000000,4.000000,4.000000,4.000000,4.000000,4.000000,4.000000,4.000000,4.000000,4.000000,4.000000,4.000000,4.000000,4.000000,100.000000
1615774019.432404,105.000000,0.000000,6.588038,4.338539,-23.510155,-6.256020,-12.595602,-5.107110,-5.965135,4.208368,-74.487198,-0.595792,-9.723140,-1.169425,-3.534111,-0.099981,-9.242491,23.909225,-15.583995,0.393661,2.608156,-13.888282,-13.506438,-8.517782,-14.376017,-3.656906,-9.713065,0.596735,-7.984703,-6.797463,-7.181477,-23.278305,6.265594,-28.677876,8064.000000,0.000000,4.000000,,,,0.000000,4.000000,4.000000,4.000000,4.000000,4.000000,4.000000,4.000000,4.000000,4.000000,4.000000,4.000000,4.000000,4.000000,4.000000,4.000000,4.000000,4.000000,4.000000,4.000000,4.000000,4.000000,4.000000,4.000000,4.000000,4.000000,4.000000,4.000000,4.000000,4.000000,4.000000,4.000000,4.000000,100.000000
1615774019.440153,106.000000,0.000000,6.068629,4.847021,-22.973824,-5.224123,-12.070187,-5.102003,-3.907888,4.204160,-75.438354,-3.159299,-2.021109,-3.732358,-3.530577,0.412939,-9.233249,14.654547,-15.568411,-0.119553,2.605547,-14.387214,-14.005752,-5.945162,-14.361641,-5.191711,-8.164890,-6.583349,-7.976718,-5.252204,-7.174295,-15.562719,6.259328,-27.623556,8064.000000,0.000000,4.000000,,,,0.000000,4.000000,4.000000,4.000000,4.000000,4.000000,4.000000,4.000000,4.000000,4.000000,4.000000,4.000000,4.000000,4.000000,4.000000,4.000000,4.000000,4.000000,4.000000,4.000000,4.000000,4.000000,4.000000,4.000000,4.000000,4.000000,4.000000,4.000000,4.000000,4.000000,4.000000,4.000000,4.000000,100.000000
1615774019.447802,107.000000,0.000000,6.575381,4.842174,-22.950850,-4.706079,-12.058116,-5.096900,-2.365518,4.199956,-81.516762,-3.668960,15.416810,2.425220,-2.501406,-0.100294,-9.736835,15.665533,-15.552843,-0.119434,0.038839,-13.860006,-13.991746,-5.939217,-14.347279,-5.186520,-8.669546,-8.115227,-7.968741,-2.682849,-7.167121,-15.034336,6.253068,-28.108753,8064.000000,0.000000,4.000000,,,,0.000000,4.000000,4.000000,4.000000,4.000000,4.000000,4.000000,4.000000,4.000000,4.000000,4.000000,4.000000,4.000000,4.000000,4.000000,4.000000,4.000000,4.000000,4.000000,4.000000,4.000000,4.000000,4.000000,4.000000,4.000000,4.000000,4.000000,4.000000,4.000000,4.000000,4.000000,4.000000,4.000000,100.000000
1615774019.455551,108.000000,0.000000,6.055985,1.247588,-23.953541,-9.316757,-14.097340,-5.091804,-2.875973,4.195756,-86.050629,-3.152471,2.068060,-4.243871,-3.524545,-0.613014,-9.727099,19.752432,-16.050110,-0.119314,-3.038122,-15.384607,-15.516216,-5.420457,-14.332932,-4.668512,-11.224979,-1.953266,-7.960773,-5.757089,-7.672774,-15.532123,6.246815,-28.080645,8064.000000,0.000000,4.000000,,,,0.000000,4.000000,4.000000,4.000000,4.000000,4.000000,4.000000,4.000000,4.000000,4.000000,4.000000,4.000000,4.000000,4.000000,4.000000,4.000000,4.000000,4.000000,4.000000,4.000000,4.000000,4.000000,4.000000,4.000000,4.000000,4.000000,4.000000,4.000000,4.000000,4.000000,4.000000,4.000000,4.000000,100.000000
1615774019.463200,109.000000,0.000000,3.485827,-2.856224,-26.493689,-12.384363,-18.698627,-4.573891,-2.873097,3.678740,-83.913292,-5.200601,-5.626316,-7.829371,-3.521021,0.413240,-8.691730,22.296782,-15.008419,0.393626,-1.496623,-13.830762,-12.936597,-5.415037,-13.805779,-6.202305,-12.239395,-0.412851,-7.952812,-9.341076,-6.639461,-12.952488,6.240569,-27.539743,8064.000000,0.000000,4.000000,,,,0.000000,4.000000,4.000000,4.000000,4.000000,4.000000,4.000000,4.000000,4.000000,4.000000,4.000000,4.000000,4.000000,4.000000,4.000000,4.000000,4.000000,4.000000,4.000000,4.000000,4.000000,4.000000,4.000000,4.000000,4.000000,4.000000,4.000000,4.000000,4.000000,4.000000,4.000000,4.000000,4.000000,100.000000
1615774019.470949,110.000000,0.000000,1.943879,-2.853367,-26.980017,-8.269415,-20.218390,-5.082138,-2.357404,4.700702,-82.290916,-8.272323,6.174182,0.383587,-2.491859,-0.099994,-12.272782,15.607818,-16.019053,-1.658050,-2.007947,-12.791290,-9.333917,-10.025006,-15.843254,-3.119180,-12.227156,0.613203,-7.944859,-7.280453,-6.632821,-17.042099,6.234328,-27.512203,8064.000000,0.000000,4.000000,,,,0.000000,4.000000,4.000000,4.000000,4.000000,4.000000,4.000000,4.000000,4.000000,4.000000,4.000000,4.000000,4.000000,4.000000,4.000000,4.000000,4.000000,4.000000,4.000000,4.000000,4.000000,4.000000,4.000000,4.000000,4.000000,4.000000,4.000000,4.000000,4.000000,4.000000,4.000000,4.000000,4.000000,100.000000
1615774019.478599,111.000000,0.000000,2.454756,-2.850514,-26.953035,-6.722684,-20.198172,-6.615517,-4.406328,1.106258,-83.234268,-10.315332,-2.037120,-4.745002,-7.104752,-4.715279,-17.388716,1.746056,-19.079956,-4.220495,-9.698247,-23.034908,-17.016891,-16.168827,-17.878693,-6.705804,-12.214929,0.612590,-7.936914,-7.273172,-11.241573,-26.255827,6.228094,-27.997513,8064.000000,0.000000,4.000000,,,,0.000000,4.000000,4.000000,4.000000,4.000000,4.000000,4.000000,4.000000,4.000000,4.000000,4.000000,4.000000,4.000000,4.000000,4.000000,4.000000,4.000000,4.000000,4.000000,4.000000,4.000000,4.000000,4.000000,4.000000,4.000000,4.000000,4.000000,4.000000,4.000000,4.000000,4.000000,4.000000,4.000000,100.000000
1615774019.486448,112.000000,0.000000,2.452301,-3.360484,-27.438904,-8.767243,-19.665154,-8.660184,-6.453204,-7.612797,-82.638214,-7.740915,-19.470980,-14.996668,-14.277134,-5.223384,-14.807224,9.436618,-18.548056,-2.164992,-6.098804,-26.601618,-19.051155,-14.101377,-17.860815,-17.468328,-12.202714,-12.208535,-7.928977,-9.317182,-10.204690,-22.639828,6.221866,-27.969515,8064.000000,0.000000,4.000000,,,,0.000000,4.000000,4.000000,4.000000,4.000000,4.000000,4.000000,4.000000,4.000000,4.000000,4.000000,4.000000,4.000000,4.000000,4.000000,4.000000,4.000000,4.000000,4.000000,4.000000,4.000000,4.000000,4.000000,4.000000,4.000000,4.000000,4.000000,4.000000,4.000000,4.000000,4.000000,4.000000,4.000000,100.000000
1615774019.494197,113.000000,0.000000,2.449849,-2.331482,-25.360182,-9.271297,-17.081385,-8.651524,-6.959571,-11.194928,-82.042755,-5.681892,-9.195099,-9.853466,-13.750036,-1.115596,-9.664211,28.401541,-13.401302,0.401276,10.317551,-13.241683,-5.185951,-9.471890,-17.842955,-13.348297,-12.190511,-12.709147,-7.921048,-7.256582,-4.040639,-13.386418,6.215644,-27.428724,8064.000000,0.000000,4.000000,,,,0.000000,4.000000,4.000000,4.000000,4.000000,4.000000,4.000000,4.000000,4.000000,4.000000,4.000000,4.000000,4.000000,4.000000,4.000000,4.000000,4.000000,4.000000,4.000000,4.000000,4.000000,4.000000,4.000000,4.000000,4.000000,4.000000,4.000000,4.000000,4.000000,4.000000,4.000000,4.000000,4.000000,100.000000
1615774019.502046,114.000000,0.000000,2.447399,-3.867612,-27.898926,-10.800487,-16.551483,-8.642872,-6.439791,-8.619631,-85.550461,-9.778774,11.839737,-2.664125,-8.095261,0.423981,-9.141726,23.244934,-10.823798,-1.137587,13.896976,-8.613056,-2.616663,-9.462419,-17.825111,1.536846,-12.178321,7.303562,-7.913127,-6.736505,-9.677625,-19.014057,6.209428,-29.452578,8064.000000,0.000000,4.000000,,,,0.000000,4.000000,4.000000,4.000000,4.000000,4.000000,4.000000,4.000000,4.000000,4.000000,4.000000,4.000000,4.000000,4.000000,4.000000,4.000000,4.000000,4.000000,4.000000,4.000000,4.000000,4.000000,4.000000,4.000000,4.000000,4.000000,4.000000,4.000000,4.000000,4.000000,4.000000,4.000000,4.000000,100.000000
1615774019.509795,115.000000,0.000000,2.444952,-8.991950,-34.024872,-12.328148,-16.534931,-8.634230,-6.433352,-7.072549,-86.490547,-10.281816,11.827897,-4.712743,-6.035883,0.423557,-10.158226,14.503740,-11.838615,0.914832,9.267695,-15.271110,-9.280712,-10.478598,-17.807285,0.509668,-12.678963,2.680873,-7.905214,-9.293871,-17.360254,-20.020685,6.203218,-30.448767,8064.000000,0.000000,4.000000,,,,0.000000,4.000000,4.000000,4.000000,4.000000,4.000000,4.000000,4.000000,4.000000,4.000000,4.000000,4.000000,4.000000,4.000000,4.000000,4.000000,4.000000,4.000000,4.000000,4.000000,4.000000,4.000000,4.000000,4.000000,4.000000,4.000000,4.000000,4.000000,4.000000,4.000000,4.000000,4.000000,4.000000,100.000000
1615774019.517644,116.000000,0.000000,2.442507,-10.521420,-28.349821,-10.264538,-10.364551,-8.625595,-6.426918,-5.527015,-85.378418,-4.117688,4.123762,-5.733671,-7.568309,2.987236,-7.071145,25.258467,-11.826777,8.093405,10.284068,-12.691736,-2.091944,-6.365554,-17.789478,-6.670329,-11.640643,-15.270526,-7.897309,-10.310218,-9.650586,-1.026305,6.197015,-28.367035,8064.000000,0.000000,4.000000,,,,0.000000,4.000000,4.000000,4.000000,4.000000,4.000000,4.000000,4.000000,4.000000,4.000000,4.000000,4.000000,4.000000,4.000000,4.000000,4.000000,4.000000,4.000000,4.000000,4.000000,4.000000,4.000000,4.000000,4.000000,4.000000,4.000000,4.000000,4.000000,4.000000,4.000000,4.000000,4.000000,4.000000,100.000000
1615774019.525393,117.000000,0.000000,2.440064,-9.485257,-19.603523,-9.228632,-9.328546,-8.616969,-6.420491,-0.906104,-89.395599,-6.677672,13.350407,-4.189476,-7.047920,4.009890,-5.525612,29.335773,-11.302130,11.162234,4.119938,-12.679045,-1.064212,-6.359189,-17.771688,-2.048274,-12.141823,1.155001,-7.889411,-9.274267,-1.435808,1.538824,6.190818,-28.338669,8064.000000,0.000000,4.000000,,,,0.000000,4.000000,4.000000,4.000000,4.000000,4.000000,4.000000,4.000000,4.000000,4.000000,4.000000,4.000000,4.000000,4.000000,4.000000,4.000000,4.000000,4.000000,4.000000,4.000000,4.000000,4.000000,4.000000,4.000000,4.000000,4.000000,4.000000,4.000000,4.000000,4.000000,4.000000,4.000000,4.000000,100.000000
1615774019.533242,118.000000,0.000000,2.437624,-13.065516,-25.737766,-12.296327,-18.549986,-8.608353,-6.414071,1.146084,-92.895950,-14.363302,22.055006,-4.698107,-6.015231,3.493059,-5.520086,28.793617,-11.803648,11.663893,1.038895,-17.281750,-11.319557,-9.942574,-17.753918,-4.097507,-13.155322,15.512821,-7.881522,-9.777813,-6.049757,-15.385792,4.646166,-31.387253,8064.000000,0.000000,4.000000,,,,0.000000,4.000000,4.000000,4.000000,4.000000,4.000000,4.000000,4.000000,4.000000,4.000000,4.000000,4.000000,4.000000,4.000000,4.000000,4.000000,4.000000,4.000000,4.000000,4.000000,4.000000,4.000000,4.000000,4.000000,4.000000,4.000000,4.000000,4.000000,4.000000,4.000000,4.000000,4.000000,4.000000,100.000000
1615774019.540991,119.000000,0.000000,2.435187,-13.565270,-30.840233,-13.309671,-20.582718,-8.599744,-6.407657,0.632118,-89.213310,-10.759195,1.007309,-4.693409,-7.034857,4.002387,-6.027387,27.739182,-11.791844,14.216331,14.884010,-7.008058,-7.718494,-5.830067,-17.736164,-16.401102,-8.526782,-1.425769,-7.873641,-9.768035,-7.069348,-16.908867,2.590238,-28.791763,8064.000000,0.000000,4.000000,,,,0.000000,4.000000,4.000000,4.000000,4.000000,4.000000,4.000000,4.000000,4.000000,4.000000,4.000000,4.000000,4.000000,4.000000,4.000000,4.000000,4.000000,4.000000,4.000000,4.000000,4.000000,4.000000,4.000000,4.000000,4.000000,4.000000,4.000000,4.000000,4.000000,4.000000,4.000000,4.000000,4.000000,100.000000
1615774019.548840,120.000000,0.000000,2.432751,-7.910679,-27.219648,-12.783541,-13.895469,-9.103965,-6.401249,-0.394155,-85.534355,-3.056129,-21.044981,-5.714356,-10.104745,1.947102,-6.021359,9.249904,-11.780052,13.176474,16.407587,-1.872845,-1.556930,0.842430,-17.718428,-14.846239,-1.338768,-2.449984,-7.865767,-9.758267,-2.959714,-12.276574,2.074827,-24.147587,8064.000000,0.000000,4.000000,,,,0.000000,4.000000,4.000000,4.000000,4.000000,4.000000,4.000000,4.000000,4.000000,4.000000,4.000000,4.000000,4.000000,4.000000,4.000000,4.000000,4.000000,4.000000,4.000000,4.000000,4.000000,4.000000,4.000000,4.000000,4.000000,4.000000,4.000000,4.000000,4.000000,4.000000,4.000000,4.000000,4.000000,100.000000
1615774019.556589,121.000000,0.000000,2.430319,-6.364307,-30.782173,-13.283578,-15.420034,-8.582041,-6.394848,0.119059,-85.448822,-5.617175,-6.664961,-4.170181,-10.607461,-0.618948,-6.015338,6.163731,-11.768272,10.599195,2.032206,-14.178664,-8.222039,-1.209694,-18.213530,-3.036521,-3.388711,12.937081,-7.857901,-10.261330,-2.956755,-18.418144,2.072752,-26.174721,8064.000000,0.000000,4.000000,,,,0.000000,4.000000,4.000000,4.000000,4.000000,4.000000,4.000000,4.000000,4.000000,4.000000,4.000000,4.000000,4.000000,4.000000,4.000000,4.000000,4.000000,4.000000,4.000000,4.000000,4.000000,4.000000,4.000000,4.000000,4.000000,4.000000,4.000000,4.000000,4.000000,4.000000,4.000000,4.000000,4.000000,100.000000
1615774019.564438,122.000000,0.000000,2.427888,-5.845122,-32.289852,-11.731833,-20.019999,-8.573459,-6.388453,3.195863,-82.286446,-10.739763,11.803243,-1.601908,-7.007110,2.458595,-5.496502,32.311413,-11.243684,11.101417,2.030174,-16.215767,-11.803561,-5.823869,-17.682495,-3.033485,-9.026348,7.795939,-7.850043,-9.225427,-2.953798,-11.220238,4.634782,-28.199829,8064.000000,0.000000,4.000000,,,,0.000000,4.000000,4.000000,4.000000,4.000000,4.000000,4.000000,4.000000,4.000000,4.000000,4.000000,4.000000,4.000000,4.000000,4.000000,4.000000,4.000000,4.000000,4.000000,4.000000,4.000000,4.000000,4.000000,4.000000,4.000000,4.000000,4.000000,4.000000,4.000000,4.000000,4.000000,4.000000,4.000000,100.000000
1615774019.572187,123.000000,0.000000,2.425460,-0.711072,-22.001152,-9.668819,-20.512800,-9.077705,-5.869244,2.679847,-81.691338,-10.729024,1.022209,-1.600306,-6.487282,7.071520,-6.003826,34.843204,-11.232440,8.526213,-0.535959,-10.558526,-6.663552,-5.818046,-17.151993,-9.697118,-8.504501,-1.955447,-7.842193,-7.164919,-0.386742,5.714059,8.732712,-27.145988,8064.000000,0.000000,4.000000,,,,0.000000,4.000000,4.000000,4.000000,4.000000,4.000000,4.000000,4.000000,4.000000,4.000000,4.000000,4.000000,4.000000,4.000000,4.000000,4.000000,4.000000,4.000000,4.000000,4.000000,4.000000,4.000000,4.000000,4.000000,4.000000,4.000000,4.000000,4.000000,4.000000,4.000000,4.000000,4.000000,4.000000,100.000000
1615774019.580036,124.000000,0.000000,2.423035,1.853741,-19.927870,-9.146330,-19.466646,-6.504525,-6.376195,0.113065,-81.609650,-9.692654,-4.107018,-0.060244,-7.506436,7.577270,-7.536284,18.910925,-12.759669,4.415122,-17.458500,-15.676173,-6.144068,-5.299407,-18.673302,-8.661780,-5.931894,3.174714,-8.347172,-6.132113,0.639286,4.682704,9.749619,-28.657303,8064.000000,0.000000,4.000000,,,,0.000000,4.000000,4.000000,4.000000,4.000000,4.000000,4.000000,4.000000,4.000000,4.000000,4.000000,4.000000,4.000000,4.000000,4.000000,4.000000,4.000000,4.000000,4.000000,4.000000,4.000000,4.000000,4.000000,4.000000,4.000000,4.000000,4.000000,4.000000,4.000000,4.000000,4.000000,4.000000,4.000000,100.000000
