title:12, start timestamp:1617697113.462879, stop timestamp:1617697159.374997, headset type:EPOCFLEX, headset serial:F00001ED, headset firmware:f12, subject name:s20, channels:75, sampling rate:128, samples:5926      , version:2.0
Timestamp,EEG.Counter,EEG.Interpolated,EEG.Cz,EEG.Fz,EEG.Fp1,EEG.AF3,EEG.F7,EEG.F3,EEG.FC1,EEG.C3,EEG.FC5,EEG.T7,EEG.CP5,EEG.CP1,EEG.P3,EEG.P7,EEG.PO3,EEG.O1,EEG.Pz,EEG.Oz,EEG.O2,EEG.PO4,EEG.P8,EEG.P4,EEG.CP2,EEG.CP6,EEG.T8,EEG.FC6,EEG.C4,EEG.FC2,EEG.F4,EEG.F8,EEG.AF4,EEG.Fp2,EEG.HighBitFlex,EEG.RawCq,EEG.Battery,MarkerIndex,MarkerType,MarkerValueInt,EEG.MarkerHardware,CQ.Cz,CQ.Fz,CQ.Fp1,CQ.AF3,CQ.F7,CQ.F3,CQ.FC1,CQ.C3,CQ.FC5,CQ.T7,CQ.CP5,CQ.CP1,CQ.P3,CQ.P7,CQ.PO3,CQ.O1,CQ.Pz,CQ.Oz,CQ.O2,CQ.PO4,CQ.P8,CQ.P4,CQ.CP2,CQ.CP6,CQ.T8,CQ.FC6,CQ.C4,CQ.FC2,CQ.F4,CQ.F8,CQ.AF4,CQ.Fp2,CQ.Overall
1617697113.462879,31.000000,0.000000,-1.542435,3.267442,25.877056,-5.999768,-24.401306,17.100857,1.089194,-5.937988,9.438598,-18.094700,-3.385147,-2.966009,5.347107,-1.070292,16.009298,2.088844,2.517187,2.511261,0.495260,5.124194,6.654255,6.108752,7.445518,9.426825,3.939554,-0.401403,3.876634,-4.443269,14.053969,-24.914635,-7.761340,5.839798,0.000000,189.000000,4.000000,,,,0.000000,4.000000,4.000000,4.000000,2.000000,4.000000,4.000000,4.000000,4.000000,4.000000,4.000000,4.000000,4.000000,4.000000,4.000000,4.000000,4.000000,4.000000,4.000000,4.000000,4.000000,4.000000,4.000000,4.000000,4.000000,4.000000,4.000000,4.000000,4.000000,4.000000,4.000000,4.000000,4.000000,83.333336
1617697113.470728,32.000000,0.000000,-1.540893,3.776995,25.851179,-5.993769,-25.402546,17.596577,3.139387,5.862822,11.993262,-13.461221,6.361828,4.216444,11.495606,16.366676,19.070213,6.702140,4.565952,3.534390,3.058868,4.606249,9.211703,7.641105,7.438073,10.443039,3.935615,5.752844,5.924039,-4.438826,14.039915,-19.248695,-8.266399,10.962164,8064.000000,0.000000,4.000000,,,,0.000000,4.000000,4.000000,4.000000,2.000000,4.000000,4.000000,4.000000,4.000000,4.000000,4.000000,4.000000,4.000000,4.000000,4.000000,4.000000,4.000000,4.000000,4.000000,4.000000,4.000000,4.000000,4.000000,4.000000,4.000000,4.000000,4.000000,4.000000,4.000000,4.000000,4.000000,4.000000,4.000000,83.333336
1617697113.478477,33.000000,0.000000,-1.539352,2.747577,25.312508,-5.987775,-24.864323,22.194365,10.315735,22.780035,22.237679,-5.242631,23.791365,15.494279,25.843084,38.401592,25.204988,12.336464,10.202412,5.069318,5.107091,7.165745,12.279414,9.684746,7.430635,15.047981,3.418859,9.336835,11.559141,-4.434387,14.025875,-18.716627,-8.258133,5.822997,8064.000000,0.000000,4.000000,,,,0.000000,4.000000,4.000000,4.000000,2.000000,4.000000,4.000000,4.000000,4.000000,4.000000,4.000000,4.000000,4.000000,4.000000,4.000000,4.000000,4.000000,4.000000,4.000000,4.000000,4.000000,4.000000,4.000000,4.000000,4.000000,4.000000,4.000000,4.000000,4.000000,4.000000,4.000000,4.000000,4.000000,83.333336
1617697113.486327,34.000000,0.000000,-1.537813,-2.383376,25.287195,-5.981787,-24.326637,23.710632,13.895163,26.347000,24.266724,-2.160466,32.998341,18.042887,34.022369,46.568317,29.282349,19.503614,7.628107,10.705274,5.101984,8.184220,8.164571,9.675061,7.423204,18.109856,3.928260,7.789037,12.060403,-4.429952,14.011849,-19.210730,-7.737054,4.791533,8064.000000,0.000000,4.000000,,,,0.000000,4.000000,4.000000,4.000000,2.000000,4.000000,4.000000,4.000000,4.000000,4.000000,4.000000,4.000000,4.000000,4.000000,4.000000,4.000000,4.000000,4.000000,4.000000,4.000000,4.000000,4.000000,4.000000,4.000000,4.000000,4.000000,4.000000,4.000000,4.000000,4.000000,4.000000,4.000000,4.000000,83.333336
1617697113.494076,35.000000,0.000000,-1.536275,-6.996377,22.697805,-5.462985,-29.943336,16.507435,11.317165,20.679626,14.498867,-4.209587,27.837139,14.435101,35.526810,45.496109,28.740246,19.996931,2.492273,8.130466,0.994318,8.688857,-0.048722,9.665386,7.415781,16.040464,2.898691,3.678684,6.407317,-4.425522,13.997837,-20.729980,-9.267779,2.735459,8064.000000,0.000000,4.000000,,,,0.000000,4.000000,4.000000,4.000000,2.000000,4.000000,4.000000,4.000000,4.000000,4.000000,4.000000,4.000000,4.000000,4.000000,4.000000,4.000000,4.000000,4.000000,4.000000,4.000000,4.000000,4.000000,4.000000,4.000000,4.000000,4.000000,4.000000,4.000000,4.000000,4.000000,4.000000,4.000000,4.000000,83.333336
1617697113.501825,36.000000,0.000000,-1.534739,-8.015021,16.008440,-6.483163,-37.605701,12.388363,9.254565,14.505101,8.843342,-8.307941,14.988789,10.318101,31.388718,36.219845,26.147402,6.130780,1.976961,-8.287921,-5.673343,7.654527,-4.151237,9.655721,7.408365,13.460321,0.844510,1.110902,3.836807,-4.421097,12.445378,-23.273354,-11.309793,-0.857020,8064.000000,0.000000,4.000000,,,,0.000000,4.000000,4.000000,4.000000,2.000000,4.000000,4.000000,4.000000,4.000000,4.000000,4.000000,4.000000,4.000000,4.000000,4.000000,4.000000,4.000000,4.000000,4.000000,4.000000,4.000000,4.000000,4.000000,4.000000,4.000000,4.000000,4.000000,4.000000,4.000000,4.000000,4.000000,4.000000,4.000000,83.333336
1617697113.509574,37.000000,0.000000,-1.533204,-7.494186,9.325766,-9.040782,-40.645020,10.837513,8.732491,10.900852,10.885781,-12.915018,6.255851,8.769321,20.075277,21.311829,23.044333,-7.208683,3.000625,-18.536043,-6.693311,9.698154,-4.659906,9.646065,7.400957,13.446860,-0.694796,1.109791,5.371431,-4.929496,9.868830,-23.250080,-12.324124,-2.394625,8064.000000,0.000000,4.000000,,,,0.000000,4.000000,4.000000,4.000000,2.000000,4.000000,4.000000,4.000000,4.000000,4.000000,4.000000,4.000000,4.000000,4.000000,4.000000,4.000000,4.000000,4.000000,4.000000,4.000000,4.000000,4.000000,4.000000,4.000000,4.000000,4.000000,4.000000,4.000000,4.000000,4.000000,4.000000,4.000000,4.000000,83.333336
1617697113.517224,38.000000,0.000000,-1.531671,-7.486692,11.367722,-10.057383,-40.091553,9.288214,10.775041,8.325849,10.874895,-14.440565,5.736774,9.786194,10.824433,16.675133,18.918724,-6.175834,2.484804,-10.825199,1.518511,17.380764,-4.142426,11.687701,7.393556,13.433414,0.331540,0.595861,4.853240,-4.411747,10.371781,-21.688368,-12.311800,-1.366589,8064.000000,0.000000,4.000000,,,,0.000000,4.000000,4.000000,4.000000,2.000000,4.000000,4.000000,4.000000,4.000000,4.000000,4.000000,4.000000,4.000000,4.000000,4.000000,4.000000,4.000000,4.000000,4.000000,4.000000,4.000000,4.000000,4.000000,4.000000,4.000000,4.000000,4.000000,4.000000,4.000000,4.000000,4.000000,4.000000,4.000000,83.333336
1617697113.524973,39.000000,0.000000,-1.530139,-7.992026,19.561483,-9.534505,-39.538643,8.766105,9.225803,4.727779,9.838379,-13.400483,3.679755,7.725125,5.685404,9.991791,13.258779,-8.220941,1.969498,-4.660528,11.773402,25.055691,-3.625463,13.727295,7.898983,13.419980,1.356850,-3.507299,4.335566,-3.894514,10.361410,-22.692322,-11.273848,1.711701,8064.000000,0.000000,4.000000,,,,0.000000,4.000000,4.000000,4.000000,2.000000,4.000000,4.000000,4.000000,4.000000,4.000000,4.000000,4.000000,4.000000,4.000000,4.000000,4.000000,4.000000,4.000000,4.000000,4.000000,4.000000,4.000000,4.000000,4.000000,4.000000,4.000000,4.000000,4.000000,4.000000,4.000000,4.000000,4.000000,4.000000,83.333336
1617697113.532623,40.000000,0.000000,-1.528609,-6.958393,21.593203,-9.524970,-36.422180,7.731698,-0.014191,1.133308,9.828541,-15.438365,-4.016232,1.563554,-2.525409,-12.069484,6.066033,-17.956308,2.480349,-7.219970,14.325731,24.517815,-4.134658,13.713568,7.891084,13.919381,-0.182969,-1.965330,4.844050,-4.916261,9.838228,-22.669628,-9.211291,5.299733,8064.000000,0.000000,4.000000,,,,0.000000,4.000000,4.000000,4.000000,2.000000,4.000000,4.000000,4.000000,4.000000,4.000000,4.000000,4.000000,4.000000,4.000000,4.000000,4.000000,4.000000,4.000000,4.000000,4.000000,4.000000,4.000000,4.000000,4.000000,4.000000,4.000000,4.000000,4.000000,4.000000,4.000000,4.000000,4.000000,4.000000,83.333336
1617697113.540372,41.000000,0.000000,-1.527080,-4.900152,22.084431,-9.515445,-32.283192,10.288069,-5.655203,0.619354,10.331532,-17.474209,-8.114779,-2.540574,-6.112628,-22.826645,4.008685,-11.784507,2.477869,-2.597365,12.772944,17.826630,-3.104882,13.187034,7.370373,13.392641,0.330035,5.216123,4.839207,-3.885703,13.930954,-14.441831,-7.663619,5.807253,8064.000000,0.000000,4.000000,,,,0.000000,4.000000,4.000000,4.000000,2.000000,4.000000,4.000000,4.000000,4.000000,4.000000,4.000000,4.000000,4.000000,4.000000,4.000000,4.000000,4.000000,4.000000,4.000000,4.000000,4.000000,4.000000,4.000000,4.000000,4.000000,4.000000,4.000000,4.000000,4.000000,4.000000,4.000000,4.000000,4.000000,83.333336
1617697113.548021,42.000000,0.000000,-1.525553,-3.356791,25.652090,-9.505930,-31.225269,17.970089,-0.008522,1.644376,10.321201,-16.943914,-6.568203,-2.538033,-0.465489,-7.419203,9.132881,4.637534,2.475391,11.251386,16.349915,13.706240,4.077710,14.199488,7.875823,13.892069,7.509192,6.749368,5.347188,2.272029,18.019587,-5.196620,-8.168776,7.339908,8064.000000,0.000000,4.000000,,,,0.000000,4.000000,4.000000,4.000000,2.000000,4.000000,4.000000,4.000000,4.000000,4.000000,4.000000,4.000000,4.000000,4.000000,4.000000,4.000000,4.000000,4.000000,4.000000,4.000000,4.000000,4.000000,4.000000,4.000000,4.000000,4.000000,4.000000,4.000000,4.000000,4.000000,4.000000,4.000000,4.000000,83.333336
1617697113.555771,43.000000,0.000000,-1.524028,-3.866254,22.549515,-9.496424,-32.219685,20.003401,1.529948,1.642731,10.310880,-18.978252,-6.048815,-2.022675,2.611899,4.383088,15.790415,10.273923,2.472916,14.317058,10.692539,12.666892,8.689016,13.159647,8.380768,17.980742,6.988862,1.614413,4.829020,4.321039,14.924644,-14.935013,-8.160606,6.819747,8064.000000,0.000000,4.000000,,,,0.000000,4.000000,4.000000,4.000000,2.000000,4.000000,4.000000,4.000000,4.000000,4.000000,4.000000,4.000000,4.000000,4.000000,4.000000,4.000000,4.000000,4.000000,4.000000,4.000000,4.000000,4.000000,4.000000,4.000000,4.000000,4.000000,4.000000,4.000000,4.000000,4.000000,4.000000,4.000000,4.000000,83.333336
1617697113.563420,44.000000,0.000000,-1.522504,-3.862388,15.347478,-9.486927,-34.238747,16.393654,-4.625428,0.102627,10.300570,-23.574659,-7.068407,-2.533473,4.147749,2.840244,17.825907,8.212366,2.470443,2.507869,-6.241230,5.474738,2.526481,6.479821,3.757002,15.911478,-8.402742,0.074337,1.747268,-4.401231,10.294335,-35.432899,-7.639626,-3.443483,8064.000000,0.000000,4.000000,,,,0.000000,4.000000,4.000000,4.000000,2.000000,4.000000,4.000000,4.000000,4.000000,4.000000,4.000000,4.000000,4.000000,4.000000,4.000000,4.000000,4.000000,4.000000,4.000000,4.000000,4.000000,4.000000,4.000000,4.000000,4.000000,4.000000,4.000000,4.000000,4.000000,4.000000,4.000000,4.000000,4.000000,83.333336
1617697113.571169,45.000000,0.000000,-1.520981,-3.858526,12.768027,-9.477441,-35.742970,18.428541,-6.672085,-1.948758,10.290269,-25.602365,-5.522877,-2.530939,9.271806,7.965609,16.269619,9.229795,2.467972,-6.212588,-13.927297,-1.710224,-7.219635,0.832316,-0.349319,8.716080,-15.061006,1.612725,0.719880,-9.525035,10.284040,-34.371826,-8.144807,-8.568244,8064.000000,0.000000,4.000000,,,,0.000000,4.000000,4.000000,4.000000,2.000000,4.000000,4.000000,4.000000,4.000000,4.000000,4.000000,4.000000,4.000000,4.000000,4.000000,4.000000,4.000000,4.000000,4.000000,4.000000,4.000000,4.000000,4.000000,4.000000,4.000000,4.000000,4.000000,4.000000,4.000000,4.000000,4.000000,4.000000,4.000000,83.333336
1617697113.578819,46.000000,0.000000,-1.519460,-3.854667,13.780901,-9.467963,-36.220047,20.461395,-4.614130,-2.459629,10.279979,-25.063944,-2.953252,-2.015588,11.826637,18.214054,17.278990,9.733386,2.465504,-8.257657,-16.477472,-2.221334,-14.904723,-2.245440,0.163851,5.630440,-7.866458,0.585471,2.770442,-2.336023,8.735295,-22.542582,-8.649483,-1.380189,8064.000000,0.000000,4.000000,,,,0.000000,4.000000,4.000000,4.000000,2.000000,4.000000,4.000000,4.000000,4.000000,4.000000,4.000000,4.000000,4.000000,4.000000,4.000000,4.000000,4.000000,4.000000,4.000000,4.000000,4.000000,4.000000,4.000000,4.000000,4.000000,4.000000,4.000000,4.000000,4.000000,4.000000,4.000000,4.000000,4.000000,83.333336
1617697113.586568,47.000000,0.000000,-1.005120,-3.850812,14.279941,-9.458495,-35.671005,15.825549,-5.122337,-1.944349,10.269698,-24.526058,-1.924657,-2.013572,11.814811,20.759941,18.287354,9.210832,2.463039,-13.377604,-28.255867,-12.475523,-25.146229,-9.422682,-1.887595,2.035066,-10.422694,0.584885,-2.360534,-1.820866,6.162457,-29.699526,-8.640833,-2.917270,8064.000000,0.000000,4.000000,,,,0.000000,4.000000,4.000000,4.000000,2.000000,4.000000,4.000000,4.000000,4.000000,4.000000,4.000000,4.000000,4.000000,4.000000,4.000000,4.000000,4.000000,4.000000,4.000000,4.000000,4.000000,4.000000,4.000000,4.000000,4.000000,4.000000,4.000000,4.000000,4.000000,4.000000,4.000000,4.000000,4.000000,83.333336
1617697113.594218,48.000000,0.000000,-2.542577,-4.359782,11.701558,-9.449037,-36.148155,12.219980,-5.630035,-1.942405,10.259429,-25.014353,-2.435553,-2.011558,11.290175,19.200720,14.166501,8.688801,2.460576,-17.466791,-31.817354,-25.283560,-31.787748,-13.515823,-7.526733,-8.223379,-19.643040,1.097121,-12.101763,-11.562635,6.156295,-38.900597,-7.606551,-18.298969,8064.000000,0.000000,4.000000,,,,0.000000,4.000000,4.000000,4.000000,2.000000,4.000000,4.000000,4.000000,4.000000,4.000000,4.000000,4.000000,4.000000,4.000000,4.000000,4.000000,4.000000,4.000000,4.000000,4.000000,4.000000,4.000000,4.000000,4.000000,4.000000,4.000000,4.000000,4.000000,4.000000,4.000000,4.000000,4.000000,4.000000,83.333336
1617697113.601967,49.000000,0.000000,-4.591316,-3.842602,8.100113,-9.439588,-36.112007,12.207760,-5.624405,-1.940462,10.249169,-25.502159,-2.433118,-2.009547,6.663500,16.104597,7.485668,5.603189,2.458115,-17.449324,-18.965023,-16.540327,-24.063654,-8.886923,-7.519207,-13.856181,-13.469551,0.070383,-12.089661,-10.012611,5.124497,-29.118105,-9.650227,-19.819132,8064.000000,0.000000,4.000000,,,,0.000000,4.000000,4.000000,4.000000,2.000000,4.000000,4.000000,4.000000,4.000000,4.000000,4.000000,4.000000,4.000000,4.000000,4.000000,4.000000,4.000000,4.000000,4.000000,4.000000,4.000000,4.000000,4.000000,4.000000,4.000000,4.000000,4.000000,4.000000,4.000000,4.000000,4.000000,4.000000,4.000000,83.333336
1617697113.609616,50.000000,0.000000,-5.612366,-0.249016,18.861242,-9.430148,-33.511795,13.221193,-5.105960,-1.938522,10.238920,-21.886913,-2.430685,-2.007537,-0.522650,14.550031,4.914080,0.469380,1.942837,-14.867773,-6.638366,-0.113531,-5.065231,-2.211369,-0.332200,-6.662838,-1.661210,3.147236,-5.923725,3.843555,7.170655,-21.396679,-7.589294,-1.850594,8064.000000,0.000000,4.000000,,,,0.000000,4.000000,4.000000,4.000000,2.000000,4.000000,4.000000,4.000000,4.000000,4.000000,4.000000,4.000000,4.000000,4.000000,4.000000,4.000000,4.000000,4.000000,4.000000,4.000000,4.000000,4.000000,4.000000,4.000000,4.000000,4.000000,4.000000,4.000000,4.000000,4.000000,4.000000,4.000000,4.000000,83.333336
1617697113.617366,51.000000,0.000000,-5.606753,3.340977,37.303921,-9.420718,-28.350077,15.259254,-2.536752,-2.449404,10.228682,-15.198359,-2.941074,-3.031171,-2.060589,15.048301,4.396345,-3.120832,2.453714,-6.134956,6.188785,8.091711,13.914193,8.047253,5.821978,6.164338,4.494298,7.759473,-5.404981,8.455096,20.496819,-21.888103,2.674705,17.125616,8064.000000,0.000000,4.000000,,,,0.000000,4.000000,4.000000,4.000000,2.000000,4.000000,4.000000,4.000000,4.000000,4.000000,4.000000,4.000000,4.000000,4.000000,4.000000,4.000000,4.000000,4.000000,4.000000,4.000000,4.000000,4.000000,4.000000,4.000000,4.000000,4.000000,4.000000,4.000000,4.000000,4.000000,4.000000,4.000000,4.000000,83.333336
1617697113.625015,52.000000,0.000000,-4.575506,3.850456,39.830719,-9.411297,-24.731983,16.269636,-1.508574,-2.446954,9.705632,-13.131880,-3.450954,-2.515319,-1.032888,8.366586,4.391949,-3.117712,4.502542,7.204512,24.644135,21.416952,26.720793,21.372540,7.867438,20.517147,10.130829,9.290175,-6.938037,5.882539,33.809654,-14.173907,11.389979,24.800798,8064.000000,0.000000,4.000000,,,,0.000000,4.000000,4.000000,4.000000,2.000000,4.000000,4.000000,4.000000,4.000000,4.000000,4.000000,4.000000,4.000000,4.000000,4.000000,4.000000,4.000000,4.000000,4.000000,4.000000,4.000000,4.000000,4.000000,4.000000,4.000000,4.000000,4.000000,4.000000,4.000000,4.000000,4.000000,4.000000,4.000000,83.333336
1617697113.632864,53.000000,0.000000,-2.519648,3.846606,37.226788,-9.401886,-24.194431,16.253366,-1.507065,-1.931687,10.208747,-14.144388,-2.934682,-1.487163,-0.519034,-4.462294,5.413198,-2.601774,6.549322,14.376795,34.875900,32.164764,31.309456,25.966551,7.346750,32.804321,15.248903,8.255244,-5.905458,6.902297,32.237385,-2.877682,11.378590,24.775997,8064.000000,0.000000,4.000000,,,,0.000000,4.000000,4.000000,4.000000,2.000000,4.000000,4.000000,4.000000,4.000000,4.000000,4.000000,4.000000,4.000000,4.000000,4.000000,4.000000,4.000000,4.000000,4.000000,4.000000,4.000000,4.000000,4.000000,4.000000,4.000000,4.000000,4.000000,4.000000,4.000000,4.000000,4.000000,4.000000,4.000000,83.333336
1617697113.640614,54.000000,0.000000,-0.978667,4.355580,45.394688,-9.392484,-24.683056,16.749933,-1.505558,-2.442576,10.198538,-13.104603,-2.931748,-3.536958,-1.031336,-12.662959,3.356503,-4.137633,6.029952,13.849598,30.225639,24.953114,30.252506,22.350842,7.852224,36.874084,15.746474,8.759809,-5.386733,7.408216,28.615402,-2.361984,10.341570,24.238400,8064.000000,0.000000,4.000000,,,,0.000000,4.000000,4.000000,4.000000,2.000000,4.000000,4.000000,4.000000,4.000000,4.000000,4.000000,4.000000,4.000000,4.000000,4.000000,4.000000,4.000000,4.000000,4.000000,4.000000,4.000000,4.000000,4.000000,4.000000,4.000000,4.000000,4.000000,4.000000,4.000000,4.000000,4.000000,4.000000,4.000000,83.333336
1617697113.648463,55.000000,0.000000,-1.490509,3.325583,44.836472,-9.383091,-24.145554,16.220364,-2.016873,-0.388851,9.675519,-13.604319,0.148107,-0.969318,3.072260,-8.547732,5.917249,-1.056573,4.998281,12.810107,24.554388,15.184571,28.683792,20.277208,7.844372,36.324387,15.217908,8.751049,-5.894166,6.375166,30.125248,-5.436545,11.356870,25.752623,8064.000000,0.000000,4.000000,,,,0.000000,4.000000,4.000000,4.000000,2.000000,4.000000,4.000000,4.000000,4.000000,4.000000,4.000000,4.000000,4.000000,4.000000,4.000000,4.000000,4.000000,4.000000,4.000000,4.000000,4.000000,4.000000,4.000000,4.000000,4.000000,4.000000,4.000000,4.000000,4.000000,4.000000,4.000000,4.000000,4.000000,83.333336
1617697113.656212,56.000000,0.000000,-1.489018,3.835078,31.971123,-9.373709,-24.121407,16.204144,-0.476395,6.278204,13.768408,-13.077894,10.404369,12.877805,19.992264,12.999277,25.911331,14.841920,7.557385,13.310118,24.529835,15.169387,26.603825,20.769751,7.323707,35.775242,15.202690,8.229478,-6.401093,6.881612,23.941277,-3.892647,8.781410,24.188410,8064.000000,0.000000,4.000000,,,,0.000000,4.000000,4.000000,4.000000,2.000000,4.000000,4.000000,4.000000,4.000000,4.000000,4.000000,4.000000,4.000000,4.000000,4.000000,4.000000,4.000000,4.000000,4.000000,4.000000,4.000000,4.000000,4.000000,4.000000,4.000000,4.000000,4.000000,4.000000,4.000000,4.000000,4.000000,4.000000,4.000000,83.333336
1617697113.664061,57.000000,0.000000,-1.487529,3.831243,27.323767,-8.851514,-24.610106,19.264862,4.652287,11.912951,20.421307,-4.859688,23.727299,21.070055,39.459450,42.217049,46.911060,30.724514,12.165213,14.835269,21.428381,16.179859,19.397734,21.261803,7.316383,32.662544,13.649026,8.734069,-5.881871,5.849089,12.122464,-1.837472,2.105962,21.087297,8064.000000,0.000000,4.000000,,,,0.000000,4.000000,4.000000,4.000000,2.000000,4.000000,4.000000,4.000000,4.000000,4.000000,4.000000,4.000000,4.000000,4.000000,4.000000,4.000000,4.000000,4.000000,4.000000,4.000000,4.000000,4.000000,4.000000,4.000000,4.000000,4.000000,4.000000,4.000000,4.000000,4.000000,4.000000,4.000000,4.000000,83.333336
1617697113.671811,58.000000,0.000000,-1.486042,-3.864896,27.296444,-10.893945,-24.585497,17.194315,6.698916,12.413859,20.913706,-1.265085,28.318956,14.895140,41.984093,46.277393,49.428253,33.257893,14.717150,11.230690,8.586440,15.650858,9.634747,20.214899,7.309067,26.988857,11.584094,4.622771,-5.875989,1.740676,8.007777,-12.604865,-8.665375,19.527748,8064.000000,0.000000,4.000000,,,,0.000000,4.000000,4.000000,4.000000,2.000000,4.000000,4.000000,4.000000,4.000000,4.000000,4.000000,4.000000,4.000000,4.000000,4.000000,4.000000,4.000000,4.000000,4.000000,4.000000,4.000000,4.000000,4.000000,4.000000,4.000000,4.000000,4.000000,4.000000,4.000000,4.000000,4.000000,4.000000,4.000000,83.333336
1617697113.679660,59.000000,0.000000,-1.484556,-12.578979,20.602480,-12.934333,-24.560911,9.997633,3.615294,9.324522,15.251766,-9.468948,23.675253,8.726398,30.147238,29.820860,43.737801,31.173351,13.676792,5.065613,-1.165736,15.122387,5.522548,14.553658,7.301758,23.372124,8.495587,-1.535698,-6.895754,-2.363629,9.538231,-22.848671,-16.349018,20.021042,8064.000000,0.000000,4.000000,,,,0.000000,4.000000,4.000000,4.000000,2.000000,4.000000,4.000000,4.000000,4.000000,4.000000,4.000000,4.000000,4.000000,4.000000,4.000000,4.000000,4.000000,4.000000,4.000000,4.000000,4.000000,4.000000,4.000000,4.000000,4.000000,4.000000,4.000000,4.000000,4.000000,4.000000,4.000000,4.000000,4.000000,83.333336
1617697113.687409,60.000000,0.000000,-0.970251,-9.489477,15.966493,-12.921398,-24.536350,7.936354,1.560397,9.828018,14.210873,-13.049223,21.087475,9.743313,26.014528,31.329500,44.719704,33.706280,13.663116,10.701573,7.040558,15.620085,6.542666,13.000644,8.320097,21.297470,6.948630,-1.021342,-3.299115,-0.309983,11.067154,-12.569412,-13.768566,20.001020,8064.000000,0.000000,4.000000,,,,0.000000,4.000000,4.000000,4.000000,2.000000,4.000000,4.000000,4.000000,4.000000,4.000000,4.000000,4.000000,4.000000,4.000000,4.000000,4.000000,4.000000,4.000000,4.000000,4.000000,4.000000,4.000000,4.000000,4.000000,4.000000,4.000000,4.000000,4.000000,4.000000,4.000000,4.000000,4.000000,4.000000,83.333336
1617697113.695258,61.000000,0.000000,-1.482101,-1.787680,16.976168,-12.908477,-23.998993,9.466879,2.584478,10.331011,14.709482,-12.523353,20.553566,9.733569,29.065435,40.528942,43.136520,30.595652,16.726376,16.844717,16.777107,19.194208,7.561765,19.141489,10.363059,19.224890,9.505784,4.107884,4.909312,5.331352,12.594548,-0.249150,-8.626592,19.981020,8064.000000,0.000000,4.000000,,,,0.000000,4.000000,4.000000,4.000000,2.000000,4.000000,4.000000,4.000000,4.000000,4.000000,4.000000,4.000000,4.000000,4.000000,4.000000,4.000000,4.000000,4.000000,4.000000,4.000000,4.000000,4.000000,4.000000,4.000000,4.000000,4.000000,4.000000,4.000000,4.000000,4.000000,4.000000,4.000000,4.000000,83.333336
1617697113.703008,62.000000,0.000000,-1.480619,0.265389,17.472012,-12.895569,-24.487814,8.944592,2.069073,6.730936,9.053747,-22.254419,11.815064,9.211015,17.241499,21.514053,21.042103,13.129159,16.196829,4.520181,6.503920,19.687834,4.990100,17.583885,11.378337,20.231306,11.547561,3.590956,9.519788,6.864482,13.607595,-8.966849,-8.617966,19.961039,8064.000000,0.000000,4.000000,,,,0.000000,4.000000,4.000000,4.000000,2.000000,4.000000,4.000000,4.000000,4.000000,4.000000,4.000000,4.000000,4.000000,4.000000,4.000000,4.000000,4.000000,4.000000,4.000000,4.000000,4.000000,4.000000,4.000000,4.000000,4.000000,4.000000,4.000000,4.000000,4.000000,4.000000,4.000000,4.000000,4.000000,83.333336
1617697113.710857,63.000000,0.000000,-0.966318,-0.760517,16.941719,-12.882673,-27.540251,7.910006,2.067004,3.647282,2.378027,-32.488575,-1.017264,6.124881,-1.237281,-5.174128,-8.722529,-8.422432,5.924221,-8.817673,-6.323097,11.975839,0.369726,6.284251,9.828497,20.211075,9.484731,0.510442,9.510268,5.831977,13.593987,-20.752754,-8.609347,19.941078,8064.000000,0.000000,4.000000,,,,0.000000,4.000000,4.000000,4.000000,2.000000,4.000000,4.000000,4.000000,4.000000,4.000000,4.000000,4.000000,4.000000,4.000000,4.000000,4.000000,4.000000,4.000000,4.000000,4.000000,4.000000,4.000000,4.000000,4.000000,4.000000,4.000000,4.000000,4.000000,4.000000,4.000000,4.000000,4.000000,4.000000,83.333336
1617697113.718606,64.000000,0.000000,-1.990992,-0.759757,17.437597,-12.869790,-28.538351,8.927736,2.064937,-0.458929,2.375649,-31.943266,-8.708554,-4.650475,-10.979633,-14.912544,-22.559961,-23.798624,-8.440678,-11.372958,-2.727030,5.297196,-1.169105,0.636941,5.716105,17.626762,7.936785,1.022752,7.449476,6.851786,13.580394,-19.706362,-8.087917,19.921137,0.000000,194.000000,4.000000,,,,0.000000,4.000000,4.000000,4.000000,2.000000,4.000000,4.000000,4.000000,4.000000,4.000000,4.000000,4.000000,4.000000,4.000000,4.000000,4.000000,4.000000,4.000000,4.000000,4.000000,4.000000,4.000000,4.000000,4.000000,4.000000,4.000000,4.000000,4.000000,4.000000,4.000000,4.000000,4.000000,4.000000,83.333336
1617697113.726455,65.000000,0.000000,-6.604386,0.779465,17.420160,-12.856920,-27.484171,8.918809,1.550051,-8.150778,2.373273,-34.988247,-14.340872,-14.902234,-20.712244,-29.256605,-26.127144,-35.056877,-14.073262,-24.182098,-3.749944,2.214976,0.370525,2.174765,1.607824,16.070673,6.390386,0.508909,3.852283,7.357755,13.566813,-18.661013,-8.592650,19.901215,0.000000,197.000000,4.000000,,,,0.000000,4.000000,4.000000,4.000000,2.000000,4.000000,4.000000,4.000000,4.000000,4.000000,4.000000,4.000000,4.000000,4.000000,4.000000,4.000000,4.000000,4.000000,4.000000,4.000000,4.000000,4.000000,4.000000,4.000000,4.000000,4.000000,4.000000,4.000000,4.000000,4.000000,4.000000,4.000000,4.000000,83.333336
1617697113.734205,66.000000,0.000000,-9.161884,2.829967,16.889919,-11.305602,-32.072071,8.397070,2.061322,-13.783653,-1.218843,-43.158386,-23.557301,-17.451435,-36.076145,-54.868374,-38.921532,-47.329514,-16.110472,-39.029709,-14.002604,-3.428264,-0.142666,1.146950,-0.445066,16.567423,1.255791,-3.081344,0.771507,4.273474,13.553246,-22.232096,-6.019955,20.394135,0.000000,199.000000,4.000000,,,,0.000000,4.000000,4.000000,4.000000,2.000000,4.000000,4.000000,4.000000,4.000000,4.000000,4.000000,4.000000,4.000000,4.000000,4.000000,4.000000,4.000000,4.000000,4.000000,4.000000,4.000000,4.000000,4.000000,4.000000,4.000000,4.000000,4.000000,4.000000,4.000000,4.000000,4.000000,4.000000,4.000000,83.333336
1617697113.741854,67.000000,0.000000,-8.639902,3.852778,19.437132,-9.243014,-35.629742,9.414313,2.059260,-13.769869,-1.730445,-42.089588,-31.226049,-17.946804,-42.193916,-64.044273,-47.600559,-53.948849,-18.658463,-31.298372,-8.347576,-4.963298,-0.655344,2.171444,-0.444620,15.012394,1.254535,-1.539801,1.283556,3.243560,13.539693,-23.235504,-1.398550,20.373741,0.000000,198.000000,4.000000,,,,0.000000,4.000000,4.000000,4.000000,4.000000,4.000000,4.000000,4.000000,4.000000,4.000000,4.000000,4.000000,4.000000,4.000000,4.000000,4.000000,4.000000,4.000000,4.000000,4.000000,4.000000,4.000000,4.000000,4.000000,4.000000,4.000000,4.000000,4.000000,4.000000,4.000000,4.000000,4.000000,4.000000,100.000000
1617697113.749604,68.000000,0.000000,-8.631262,3.336105,21.981798,-8.720951,-28.414627,11.969002,1.544381,-14.268920,1.348208,-37.432114,-27.092260,-15.877575,-29.331211,-47.569973,-30.629879,-41.587208,-11.973138,-14.856818,8.583848,-0.342950,4.473517,7.297477,0.068645,11.920459,9.971230,5.641226,1.282273,5.291598,13.526154,-19.109705,0.141310,19.840546,0.000000,155.000000,4.000000,,,,0.000000,4.000000,4.000000,4.000000,4.000000,4.000000,4.000000,4.000000,4.000000,4.000000,4.000000,4.000000,4.000000,4.000000,4.000000,4.000000,4.000000,4.000000,4.000000,4.000000,4.000000,4.000000,4.000000,4.000000,4.000000,4.000000,4.000000,4.000000,4.000000,4.000000,4.000000,4.000000,4.000000,100.000000
1617697113.757253,69.000000,0.000000,-9.135451,3.332769,20.421354,-9.225050,-20.181084,12.982674,3.081298,-9.126446,3.398142,-34.317757,-11.680552,-7.656569,-6.737776,-17.778814,0.682801,-11.289211,1.372168,-10.226577,11.139367,1.708675,9.084428,9.854282,1.607038,15.498281,16.115105,9.225328,0.768170,5.286306,13.512628,-8.834186,-0.884473,20.333527,0.000000,205.000000,4.000000,,,,0.000000,4.000000,4.000000,4.000000,4.000000,4.000000,4.000000,4.000000,4.000000,4.000000,4.000000,4.000000,4.000000,4.000000,4.000000,4.000000,4.000000,4.000000,4.000000,4.000000,4.000000,4.000000,4.000000,4.000000,4.000000,4.000000,4.000000,4.000000,4.000000,4.000000,4.000000,4.000000,4.000000,100.000000
1617697113.765002,70.000000,0.000000,-8.613495,3.329436,21.426575,-8.703005,-20.160902,16.046614,7.693601,1.651911,5.446026,-25.052670,2.177282,-0.982246,10.704859,14.546656,21.194939,10.773360,7.524642,-9.703529,1.384638,0.681326,2.921497,9.844428,3.656713,21.123810,12.509245,8.190462,1.280222,2.716918,12.986294,-3.184326,-0.883588,20.826014,0.000000,190.000000,4.000000,,,,0.000000,4.000000,4.000000,4.000000,4.000000,4.000000,4.000000,4.000000,4.000000,4.000000,4.000000,4.000000,4.000000,4.000000,4.000000,4.000000,4.000000,4.000000,4.000000,4.000000,4.000000,4.000000,4.000000,4.000000,4.000000,4.000000,4.000000,4.000000,4.000000,4.000000,4.000000,4.000000,4.000000,100.000000
1617697113.772652,71.000000,0.000000,-8.604881,3.326107,26.020533,-9.207123,-20.653563,19.107491,10.250010,6.265644,6.979042,-15.796848,5.252028,-1.494084,17.360821,35.557751,26.301949,13.326689,5.978656,-8.155365,-2.719311,0.680644,-6.825014,9.321763,3.653056,17.512941,5.317249,8.182272,1.278942,2.201380,13.486128,-13.950372,-0.369884,15.676982,0.000000,204.000000,4.000000,,,,0.000000,4.000000,4.000000,4.000000,4.000000,4.000000,4.000000,4.000000,4.000000,4.000000,4.000000,4.000000,4.000000,4.000000,4.000000,4.000000,4.000000,4.000000,4.000000,4.000000,4.000000,4.000000,4.000000,4.000000,4.000000,4.000000,4.000000,4.000000,4.000000,4.000000,4.000000,4.000000,4.000000,100.000000
1617697113.780401,72.000000,0.000000,-9.109097,3.322781,20.866306,-9.197915,-20.632908,15.498640,7.675658,2.669635,5.946422,-15.781052,5.246776,-2.005410,18.369101,40.137577,25.250006,14.339004,5.972678,-7.634389,-1.178130,1.192784,-8.869471,7.773980,3.649403,10.315942,0.696547,8.686910,1.277663,2.711999,13.985463,-26.756935,-0.882335,8.481818,0.000000,200.000000,4.000000,,,,0.000000,4.000000,4.000000,4.000000,4.000000,4.000000,4.000000,4.000000,4.000000,4.000000,4.000000,4.000000,4.000000,4.000000,4.000000,4.000000,4.000000,4.000000,4.000000,4.000000,4.000000,4.000000,4.000000,4.000000,4.000000,4.000000,4.000000,4.000000,4.000000,4.000000,4.000000,4.000000,4.000000,100.000000
1617697113.788050,73.000000,0.000000,-8.074347,3.319458,10.589030,-9.188717,-24.202019,9.329295,5.616700,1.128504,6.453296,-16.790911,7.805632,-0.977764,20.402014,39.071800,25.737577,17.401587,6.992346,-6.088293,-3.741055,1.191591,-7.322140,5.202103,3.645753,8.767164,-0.329791,8.165402,1.276385,2.709287,11.920196,-25.704536,-0.881452,8.473336,0.000000,191.000000,4.000000,,,,0.000000,4.000000,4.000000,4.000000,4.000000,4.000000,4.000000,4.000000,4.000000,4.000000,4.000000,4.000000,4.000000,4.000000,4.000000,4.000000,4.000000,4.000000,4.000000,4.000000,4.000000,4.000000,4.000000,4.000000,4.000000,4.000000,4.000000,4.000000,4.000000,4.000000,4.000000,4.000000,4.000000,100.000000
1617697113.795800,74.000000,0.000000,-6.014991,3.316139,13.142544,-10.717990,-27.767561,8.294325,5.611083,2.665837,6.959663,-15.748479,9.849108,-1.489607,19.868792,38.007084,27.250301,13.794442,6.472533,-5.056563,-10.916800,-0.348062,-8.853279,5.196901,3.642108,7.219935,-0.329461,8.157237,0.762289,2.706578,13.446736,-19.524986,-0.880571,11.541786,0.000000,190.000000,4.000000,,,,0.000000,4.000000,4.000000,4.000000,4.000000,4.000000,4.000000,4.000000,4.000000,4.000000,4.000000,4.000000,4.000000,4.000000,4.000000,4.000000,4.000000,4.000000,4.000000,4.000000,4.000000,4.000000,4.000000,4.000000,4.000000,4.000000,4.000000,4.000000,4.000000,4.000000,4.000000,4.000000,4.000000,100.000000
1617697113.803449,75.000000,0.000000,-4.983335,3.312822,23.385811,-12.758554,-28.252613,8.286030,5.605472,1.637530,3.875780,-16.245552,8.813618,-2.000938,12.669436,33.866516,18.505102,6.088340,5.953240,-5.051507,-9.880243,1.190748,-7.305964,5.704525,3.638466,4.135793,-0.841952,8.149080,1.787167,2.191051,17.535854,-18.479820,-0.879690,12.555885,0.000000,200.000000,4.000000,,,,0.000000,4.000000,4.000000,4.000000,4.000000,4.000000,4.000000,4.000000,4.000000,4.000000,4.000000,4.000000,4.000000,4.000000,4.000000,4.000000,4.000000,4.000000,4.000000,4.000000,4.000000,4.000000,4.000000,4.000000,4.000000,4.000000,4.000000,4.000000,4.000000,4.000000,4.000000,4.000000,4.000000,100.000000
1617697113.811199,76.000000,0.000000,-4.978351,3.309510,25.413708,-13.258616,-27.711540,9.303385,5.599866,1.635892,3.871904,-16.229305,8.804804,-1.998937,3.938817,23.576239,1.563520,-2.122876,5.947287,-5.046455,2.950150,9.394686,-1.657633,4.160359,3.634827,7.721400,-0.841110,8.140931,4.349483,2.701680,13.928575,-19.486980,-0.878811,12.030509,0.000000,204.000000,4.000000,,,,0.000000,4.000000,4.000000,4.000000,4.000000,4.000000,4.000000,4.000000,4.000000,4.000000,4.000000,4.000000,4.000000,4.000000,4.000000,4.000000,4.000000,4.000000,4.000000,4.000000,4.000000,4.000000,4.000000,4.000000,4.000000,4.000000,4.000000,4.000000,4.000000,4.000000,4.000000,4.000000,4.000000,100.000000
1617697113.818848,77.000000,0.000000,-4.973373,3.306200,23.337011,-11.194076,-27.683828,14.422287,5.081446,1.634256,12.585981,-16.213076,8.283179,-1.996938,1.370776,11.757790,-6.643172,-9.300241,5.941339,-5.554230,12.690790,15.539137,4.497871,8.771583,3.118372,11.816243,0.185372,8.132790,5.370774,5.263081,8.786441,-19.467495,-1.390752,11.505658,0.000000,194.000000,4.000000,,,,0.000000,4.000000,4.000000,4.000000,4.000000,4.000000,4.000000,4.000000,4.000000,4.000000,4.000000,4.000000,4.000000,4.000000,4.000000,4.000000,4.000000,4.000000,4.000000,4.000000,4.000000,4.000000,4.000000,4.000000,4.000000,4.000000,4.000000,4.000000,4.000000,4.000000,4.000000,4.000000,4.000000,100.000000
1617697113.826597,78.000000,0.000000,-4.968400,3.302894,24.339315,-9.131599,-28.168966,19.536070,5.589185,1.632622,18.214420,-17.735325,5.710793,-2.507761,2.395046,5.592186,-8.687811,-10.829402,5.422577,-4.523034,12.165278,17.062059,13.211322,17.480761,3.628074,12.830068,2.236469,7.611836,4.852583,6.796279,18.008423,-16.883924,-0.363721,13.545434,0.000000,189.000000,4.000000,,,,0.000000,4.000000,4.000000,4.000000,4.000000,4.000000,4.000000,4.000000,4.000000,4.000000,4.000000,4.000000,4.000000,4.000000,4.000000,4.000000,4.000000,4.000000,4.000000,4.000000,4.000000,4.000000,4.000000,4.000000,4.000000,4.000000,4.000000,4.000000,4.000000,4.000000,4.000000,4.000000,4.000000,100.000000
1617697113.834247,79.000000,0.000000,-4.450611,3.299591,25.340618,-9.122468,-27.627975,20.542175,8.660520,1.630990,18.196207,-15.666307,4.679441,-1.992433,2.905471,4.560953,-4.576559,-7.741650,5.929976,-0.928768,14.717216,21.660381,21.403238,21.565844,3.624446,18.458263,6.336797,8.117045,4.847730,6.276663,31.836569,-14.302938,1.687925,15.070351,0.000000,204.000000,4.000000,,,,0.000000,4.000000,4.000000,4.000000,4.000000,4.000000,4.000000,4.000000,4.000000,4.000000,4.000000,4.000000,4.000000,4.000000,4.000000,4.000000,4.000000,4.000000,4.000000,4.000000,4.000000,4.000000,4.000000,4.000000,4.000000,4.000000,4.000000,4.000000,4.000000,4.000000,4.000000,4.000000,4.000000,100.000000
1617697113.841996,80.000000,0.000000,-2.394878,3.809112,23.776815,-9.113345,-27.087528,18.983171,10.190320,1.629359,16.639549,-15.650641,4.674762,-1.477620,2.389745,-4.674377,11.325454,-6.195446,7.975327,1.636264,21.369165,27.279747,23.433117,20.518637,3.108001,26.644934,10.433023,10.673031,4.842883,6.270386,31.804733,-15.314276,3.224699,15.568100,0.000000,202.000000,4.000000,,,,0.000000,4.000000,4.000000,4.000000,4.000000,4.000000,4.000000,4.000000,4.000000,4.000000,4.000000,4.000000,4.000000,4.000000,4.000000,4.000000,4.000000,4.000000,4.000000,4.000000,4.000000,4.000000,4.000000,4.000000,4.000000,4.000000,4.000000,4.000000,4.000000,4.000000,4.000000,4.000000,4.000000,100.000000
1617697113.849645,81.000000,0.000000,-0.854022,3.805303,21.188936,-9.104232,-30.137363,16.912907,8.128848,2.140550,13.033166,-22.814478,3.644446,-3.014604,2.387356,-15.438934,23.621820,-1.573866,9.505814,3.685910,17.758053,27.252468,22.384043,20.498117,4.643354,29.182390,11.961053,12.200819,5.350860,6.776937,28.183184,-14.273320,2.708654,20.167917,0.000000,163.000000,4.000000,,,,0.000000,4.000000,4.000000,4.000000,4.000000,4.000000,4.000000,4.000000,4.000000,4.000000,4.000000,4.000000,4.000000,4.000000,4.000000,4.000000,4.000000,4.000000,4.000000,4.000000,4.000000,4.000000,4.000000,4.000000,4.000000,4.000000,4.000000,4.000000,4.000000,4.000000,4.000000,4.000000,4.000000,100.000000
1617697113.857495,82.000000,0.000000,-1.365988,1.237395,20.654926,-9.095128,-31.645687,15.870352,5.556616,1.625589,9.943210,-25.868586,6.204904,0.065334,11.615738,-4.141444,24.623840,11.248220,10.009129,7.784788,13.124909,27.738035,21.848839,20.477619,6.689993,27.101927,10.923450,12.188619,4.832689,6.257339,28.155001,-7.079560,3.218765,26.301596,0.000000,207.000000,4.000000,,,,0.000000,4.000000,4.000000,4.000000,4.000000,4.000000,4.000000,4.000000,4.000000,4.000000,4.000000,4.000000,4.000000,4.000000,4.000000,4.000000,4.000000,4.000000,4.000000,4.000000,4.000000,4.000000,4.000000,4.000000,4.000000,4.000000,4.000000,4.000000,4.000000,4.000000,4.000000,4.000000,4.000000,100.000000
1617697113.865244,83.000000,0.000000,-1.364622,-0.302304,21.147093,-9.086033,-25.973017,15.854482,5.551060,1.623963,13.010189,-18.663231,11.326904,7.757576,24.937454,19.965261,31.778704,20.980562,10.511940,10.341105,13.624605,23.607733,22.339811,20.969963,7.708944,27.587645,11.425347,13.202071,4.827856,6.251081,28.639666,-1.944275,3.215547,24.736832,0.000000,184.000000,4.000000,,,,0.000000,4.000000,4.000000,4.000000,4.000000,4.000000,4.000000,4.000000,4.000000,4.000000,4.000000,4.000000,4.000000,4.000000,4.000000,4.000000,4.000000,4.000000,4.000000,4.000000,4.000000,4.000000,4.000000,4.000000,4.000000,4.000000,4.000000,4.000000,4.000000,4.000000,4.000000,4.000000,4.000000,100.000000
1617697113.872993,84.000000,0.000000,-0.850437,-0.302002,19.074663,-9.076946,-23.895761,16.351448,4.519868,2.135160,13.509999,-19.157389,10.289937,7.749818,26.963800,27.637604,36.362309,17.369837,8.962966,9.817944,5.918673,8.199510,17.702085,17.872070,8.214056,28.585699,11.413922,16.778612,5.335849,6.757651,29.123848,-3.480792,2.699511,19.583891,0.000000,195.000000,4.000000,,,,0.000000,4.000000,4.000000,4.000000,4.000000,4.000000,4.000000,4.000000,4.000000,4.000000,4.000000,4.000000,4.000000,4.000000,4.000000,4.000000,4.000000,4.000000,4.000000,4.000000,4.000000,4.000000,4.000000,4.000000,4.000000,4.000000,4.000000,4.000000,4.000000,4.000000,4.000000,4.000000,4.000000,100.000000
1617697113.880643,85.000000,0.000000,-2.900869,-1.327341,17.004307,-9.067869,-31.564173,14.796635,0.412784,-0.943899,6.317002,-27.343359,5.151442,2.613863,17.706066,18.892017,22.992613,9.660160,5.877080,9.295305,-8.446219,-8.218946,5.376692,9.649070,5.128919,24.967369,8.838406,16.249014,4.817692,4.699611,24.992159,-6.554235,3.209632,19.051485,0.000000,224.000000,4.000000,,,,0.000000,4.000000,4.000000,4.000000,4.000000,4.000000,4.000000,4.000000,4.000000,4.000000,4.000000,4.000000,4.000000,4.000000,4.000000,4.000000,4.000000,4.000000,4.000000,4.000000,4.000000,4.000000,4.000000,4.000000,4.000000,4.000000,4.000000,4.000000,4.000000,4.000000,4.000000,4.000000,4.000000,100.000000
1617697113.888492,86.000000,0.000000,-4.949250,-3.890116,16.474482,-9.058802,-35.122353,12.730556,-2.151732,-5.045519,1.695301,-27.828836,4.120649,1.072788,14.611438,20.924408,16.815775,8.624859,6.384024,9.798831,-11.001876,-12.313291,-6.423557,3.998395,0.508405,17.762915,6.778285,7.001995,1.223131,2.643630,15.736398,-7.573321,2.180781,20.058075,0.000000,186.000000,4.000000,,,,0.000000,4.000000,4.000000,4.000000,4.000000,4.000000,4.000000,4.000000,4.000000,4.000000,4.000000,4.000000,4.000000,4.000000,4.000000,4.000000,4.000000,4.000000,4.000000,4.000000,4.000000,4.000000,4.000000,4.000000,4.000000,4.000000,4.000000,4.000000,4.000000,4.000000,4.000000,4.000000,4.000000,100.000000
1617697113.896241,87.000000,0.000000,-5.457121,-4.399046,16.970827,-9.049743,-30.984667,11.692184,-2.149580,-6.066114,2.206426,-23.185623,5.142169,-0.979567,15.622467,29.621431,19.363062,9.641875,4.839178,8.250570,-6.375490,-7.172772,-10.006877,5.020037,-1.030565,15.181049,6.771507,-2.748597,-2.880656,2.128165,11.618097,-10.642672,-1.923964,19.525196,0.000000,187.000000,4.000000,,,,0.000000,4.000000,4.000000,4.000000,4.000000,4.000000,4.000000,4.000000,4.000000,4.000000,4.000000,4.000000,4.000000,4.000000,4.000000,4.000000,4.000000,4.000000,4.000000,4.000000,4.000000,4.000000,4.000000,4.000000,4.000000,4.000000,4.000000,4.000000,4.000000,4.000000,4.000000,4.000000,4.000000,100.000000
1617697113.904090,88.000000,0.000000,-4.938843,-3.881827,16.953857,-9.040693,-30.440861,12.193313,-1.634610,-5.547228,2.717040,-23.162437,4.624207,-5.593972,8.940178,25.489246,8.061646,5.016849,-5.422071,5.678217,-6.369114,-4.088677,-6.919947,5.527838,-0.003893,16.191509,7.277556,-3.771489,-2.877775,2.638858,13.144940,-17.811516,-4.998963,19.505671,0.000000,204.000000,4.000000,,,,0.000000,4.000000,4.000000,4.000000,4.000000,4.000000,4.000000,4.000000,4.000000,4.000000,4.000000,4.000000,4.000000,4.000000,4.000000,4.000000,4.000000,4.000000,4.000000,4.000000,4.000000,4.000000,4.000000,4.000000,4.000000,4.000000,4.000000,4.000000,4.000000,4.000000,4.000000,4.000000,4.000000,100.000000
1617697113.911840,89.000000,0.000000,-4.933905,-3.877945,16.936903,-9.031652,-34.000164,12.181119,-2.145796,-5.541680,2.201503,-24.164915,4.619583,-6.614019,-0.299531,18.284271,-6.818210,-1.142014,-14.134598,3.621257,-5.849925,-4.084588,-1.272001,3.471028,-0.516710,14.124036,6.757458,-3.254897,-2.362077,2.123399,10.567694,-22.409088,-5.506784,19.486166,0.000000,203.000000,4.000000,,,,0.000000,4.000000,4.000000,4.000000,4.000000,4.000000,4.000000,4.000000,4.000000,4.000000,4.000000,4.000000,4.000000,4.000000,4.000000,4.000000,4.000000,4.000000,4.000000,4.000000,4.000000,4.000000,4.000000,4.000000,4.000000,4.000000,4.000000,4.000000,4.000000,4.000000,4.000000,4.000000,4.000000,100.000000
1617697113.919689,90.000000,0.000000,-5.441791,-1.822785,16.407145,-9.022621,-34.991806,11.656117,-2.143650,-6.048959,1.686480,-24.140751,4.614963,-6.094584,-2.350514,17.753166,-8.862674,-3.192154,-11.556360,2.079174,-3.279972,-0.490760,2.319014,6.031660,-1.029014,12.058630,6.750700,-3.764463,-3.385356,1.608455,9.018664,-20.848219,-4.475637,19.466679,0.000000,205.000000,4.000000,,,,0.000000,4.000000,4.000000,4.000000,4.000000,4.000000,4.000000,4.000000,4.000000,4.000000,4.000000,4.000000,4.000000,4.000000,4.000000,4.000000,4.000000,4.000000,4.000000,4.000000,4.000000,4.000000,4.000000,4.000000,4.000000,4.000000,4.000000,4.000000,4.000000,4.000000,4.000000,4.000000,4.000000,100.000000
1617697113.927438,91.000000,0.000000,-5.436349,0.230320,17.416380,-9.013598,-34.956814,11.644462,-2.141506,-6.042910,2.710435,-23.603788,3.584707,-6.088490,-1.322522,12.094387,-7.315350,-3.701783,-5.390958,1.051454,-1.738231,6.176397,3.342336,13.205115,-0.002344,11.533751,7.256770,0.341866,-1.843509,4.170949,14.650671,-18.263268,-4.471161,19.447212,0.000000,200.000000,4.000000,,,,0.000000,4.000000,4.000000,4.000000,4.000000,4.000000,4.000000,4.000000,4.000000,4.000000,4.000000,4.000000,4.000000,4.000000,4.000000,4.000000,4.000000,4.000000,4.000000,4.000000,4.000000,4.000000,4.000000,4.000000,4.000000,4.000000,4.000000,4.000000,4.000000,4.000000,4.000000,4.000000,4.000000,100.000000
1617697113.935288,92.000000,0.000000,-4.918093,-0.282731,19.963066,-9.004584,-34.409035,11.632817,-1.626544,-5.524047,5.271827,-23.580185,4.606763,-3.005478,-0.808379,3.364344,-4.231111,-3.185261,-2.821465,1.050402,-0.710851,9.247144,3.338994,18.320114,3.587402,12.547857,7.249513,4.444088,2.260898,8.782163,17.712944,-15.680902,-6.005152,17.889303,0.000000,199.000000,4.000000,,,,0.000000,4.000000,4.000000,4.000000,4.000000,4.000000,4.000000,4.000000,4.000000,4.000000,4.000000,4.000000,4.000000,4.000000,4.000000,4.000000,4.000000,4.000000,4.000000,4.000000,4.000000,4.000000,4.000000,4.000000,4.000000,4.000000,4.000000,4.000000,4.000000,4.000000,4.000000,4.000000,4.000000,100.000000
1617697113.943037,93.000000,0.000000,-4.913175,-0.282448,19.943102,-8.995580,-34.374626,12.134005,-1.624918,-5.518523,6.292196,-28.684811,3.576515,-1.464011,-1.320392,1.822518,-1.149957,-2.669255,-3.844284,2.074993,0.828321,9.237897,2.822834,18.814615,5.635097,16.125053,7.755085,4.952465,5.848381,10.824662,16.669590,-14.639580,-2.922223,16.332952,0.000000,193.000000,4.000000,,,,0.000000,4.000000,4.000000,4.000000,4.000000,4.000000,4.000000,4.000000,4.000000,4.000000,4.000000,4.000000,4.000000,4.000000,4.000000,4.000000,4.000000,4.000000,4.000000,4.000000,4.000000,4.000000,4.000000,4.000000,4.000000,4.000000,4.000000,4.000000,4.000000,4.000000,4.000000,4.000000,4.000000,100.000000
1617697113.950886,94.000000,0.000000,-5.421082,-0.282166,16.846235,-9.499405,-35.365894,11.609051,-2.648934,-6.025825,5.773084,-31.220228,-3.093728,-3.513829,-2.857533,-1.256228,0.389655,-4.205047,1.800586,1.560097,2.365954,10.767120,6.922575,20.334263,7.680744,19.698671,7.234509,5.973153,9.945097,9.788197,18.191381,-15.137760,3.747365,16.829441,0.000000,189.000000,4.000000,,,,0.000000,4.000000,4.000000,4.000000,4.000000,4.000000,4.000000,4.000000,4.000000,4.000000,4.000000,4.000000,4.000000,4.000000,4.000000,4.000000,4.000000,4.000000,4.000000,4.000000,4.000000,4.000000,4.000000,4.000000,4.000000,4.000000,4.000000,4.000000,4.000000,4.000000,4.000000,4.000000,4.000000,100.000000
1617697113.958635,95.000000,0.000000,-3.364379,-0.281884,17.342211,-8.977085,-33.792065,12.110262,-1.107823,-3.455696,7.818593,-25.035162,-1.039352,1.105069,4.837633,0.796310,15.261060,-1.123919,15.132118,1.045717,3.389229,12.807635,18.197704,24.929312,12.801269,20.704615,6.714454,10.582564,12.499254,10.291229,23.301395,-7.430315,7.333362,18.863894,0.000000,184.000000,4.000000,,,,0.000000,4.000000,4.000000,4.000000,4.000000,4.000000,4.000000,4.000000,4.000000,4.000000,4.000000,4.000000,4.000000,4.000000,4.000000,4.000000,4.000000,4.000000,4.000000,4.000000,4.000000,4.000000,4.000000,4.000000,4.000000,4.000000,4.000000,4.000000,4.000000,4.000000,4.000000,4.000000,4.000000,100.000000
1617697113.966485,96.000000,0.000000,0.741550,-0.281602,20.914612,-6.404006,-27.091606,15.175075,3.508669,1.163144,14.990261,-15.266537,13.833483,10.334733,22.781513,22.333975,38.835541,14.774641,22.809294,9.762620,5.949943,12.282007,24.333353,22.853102,14.326928,22.735191,8.759022,14.674546,12.486755,10.793758,26.355017,5.910449,6.813208,24.486055,8064.000000,0.000000,4.000000,,,,0.000000,4.000000,4.000000,4.000000,4.000000,4.000000,4.000000,4.000000,4.000000,4.000000,4.000000,4.000000,4.000000,4.000000,4.000000,4.000000,4.000000,4.000000,4.000000,4.000000,4.000000,4.000000,4.000000,4.000000,4.000000,4.000000,4.000000,4.000000,4.000000,4.000000,4.000000,4.000000,4.000000,100.000000
1617697113.974234,97.000000,0.000000,2.792090,-0.281320,20.893698,-4.859140,-21.936310,19.262465,6.069263,2.187622,20.616297,-10.123065,24.076059,13.914143,31.476681,41.285999,48.540298,30.657303,20.735203,20.522087,6.456813,7.654341,17.642353,13.086658,9.697217,24.763739,7.724621,9.018846,12.987089,7.193221,22.738918,4.878897,6.293574,26.512852,8064.000000,0.000000,4.000000,,,,0.000000,4.000000,4.000000,4.000000,4.000000,4.000000,4.000000,4.000000,4.000000,4.000000,4.000000,4.000000,4.000000,4.000000,4.000000,4.000000,4.000000,4.000000,4.000000,4.000000,4.000000,4.000000,4.000000,4.000000,4.000000,4.000000,4.000000,4.000000,4.000000,4.000000,4.000000,4.000000,4.000000,100.000000
1617697113.982083,98.000000,0.000000,2.276478,-0.281039,20.359983,-5.367101,-22.940014,20.268843,6.063194,1.672614,21.621321,-8.574480,24.051983,12.874587,29.393921,42.270355,44.902012,32.165108,20.714468,18.963104,5.424716,5.082584,10.958044,7.945367,6.097776,21.662052,0.537409,-3.297865,10.922820,2.570643,14.511051,-7.946495,4.235999,19.306850,8064.000000,0.000000,4.000000,,,,0.000000,4.000000,4.000000,4.000000,4.000000,4.000000,4.000000,4.000000,4.000000,4.000000,4.000000,4.000000,4.000000,4.000000,4.000000,4.000000,4.000000,4.000000,4.000000,4.000000,4.000000,4.000000,4.000000,4.000000,4.000000,4.000000,4.000000,4.000000,4.000000,4.000000,4.000000,4.000000,4.000000,100.000000
1617697113.989832,99.000000,0.000000,2.274201,-0.280758,21.365265,-5.361734,-22.917074,19.735752,6.057130,1.670941,21.086880,-8.053085,23.515110,13.887353,30.390169,44.279366,40.754547,27.517557,22.745035,13.815936,9.009034,10.205707,11.459907,8.963062,7.630140,15.999364,-3.565692,-6.371490,4.758051,2.568072,13.470899,-11.015471,0.129198,13.646519,8064.000000,0.000000,4.000000,,,,0.000000,4.000000,4.000000,4.000000,4.000000,4.000000,4.000000,4.000000,4.000000,4.000000,4.000000,4.000000,4.000000,4.000000,4.000000,4.000000,4.000000,4.000000,4.000000,4.000000,4.000000,4.000000,4.000000,4.000000,4.000000,4.000000,4.000000,4.000000,4.000000,4.000000,4.000000,4.000000,4.000000,100.000000
1617697113.997582,100.000000,0.000000,2.784748,-0.280477,18.779797,-4.843552,-21.868517,19.203196,6.051074,2.182091,21.578613,-7.019392,24.004416,12.847825,29.334137,51.414574,37.636868,27.490040,16.568443,18.930325,13.102590,12.759604,10.422805,8.954100,7.622510,12.906442,-4.074947,-2.262555,0.650729,1.539863,13.457428,-8.953174,-2.435033,14.658513,8064.000000,0.000000,4.000000,,,,0.000000,4.000000,4.000000,4.000000,4.000000,4.000000,4.000000,4.000000,4.000000,4.000000,4.000000,4.000000,4.000000,4.000000,4.000000,4.000000,4.000000,4.000000,4.000000,4.000000,4.000000,4.000000,4.000000,4.000000,4.000000,4.000000,4.000000,4.000000,4.000000,4.000000,4.000000,4.000000,4.000000,100.000000
1617697114.005331,101.000000,0.000000,2.269142,-0.280197,14.145632,-4.838708,-23.897930,20.722454,6.045022,2.179909,22.069855,-11.627757,21.929129,10.783695,23.150957,45.722134,32.471027,25.924088,7.833927,23.526779,11.551025,9.669921,2.720075,8.432324,5.050785,10.842253,-9.711898,-6.875677,1.162898,-2.051420,5.238842,-17.662169,-3.971060,11.566932,8064.000000,0.000000,4.000000,,,,0.000000,4.000000,4.000000,4.000000,4.000000,4.000000,4.000000,4.000000,4.000000,4.000000,4.000000,4.000000,4.000000,4.000000,4.000000,4.000000,4.000000,4.000000,4.000000,4.000000,4.000000,4.000000,4.000000,4.000000,4.000000,4.000000,4.000000,4.000000,4.000000,4.000000,4.000000,4.000000,4.000000,100.000000
1617697114.012981,102.000000,0.000000,2.266873,-0.279916,13.105845,-5.346690,-25.412493,19.163271,6.551798,2.177729,18.458042,-21.359718,16.778996,9.747271,16.461140,26.189234,24.233427,12.052010,5.261990,11.195560,3.334346,9.147430,-6.513414,9.449533,3.507272,5.190385,-15.856031,-9.432904,1.161735,-0.510907,2.669501,-26.362455,-4.992730,6.939980,8064.000000,0.000000,4.000000,,,,0.000000,4.000000,4.000000,4.000000,4.000000,4.000000,4.000000,4.000000,4.000000,4.000000,4.000000,4.000000,4.000000,4.000000,4.000000,4.000000,4.000000,4.000000,4.000000,4.000000,4.000000,4.000000,4.000000,4.000000,4.000000,4.000000,4.000000,4.000000,4.000000,4.000000,4.000000,4.000000,4.000000,100.000000
1617697114.020730,103.000000,0.000000,2.264606,-0.279636,10.528637,-5.341343,-28.464005,9.913339,2.442682,1.662730,12.285737,-29.543488,2.916062,1.532395,5.675447,7.188685,9.850220,-13.088247,4.743908,-13.431020,-10.002321,4.522898,-13.686388,7.388802,2.990945,1.082631,-15.327355,-1.218343,1.160574,2.566527,10.871960,-26.336094,-4.987737,8.984323,8064.000000,0.000000,4.000000,,,,0.000000,4.000000,4.000000,4.000000,4.000000,4.000000,4.000000,4.000000,4.000000,4.000000,4.000000,4.000000,4.000000,4.000000,4.000000,4.000000,4.000000,4.000000,4.000000,4.000000,4.000000,4.000000,4.000000,4.000000,4.000000,4.000000,4.000000,4.000000,4.000000,4.000000,4.000000,4.000000,4.000000,100.000000
1617697114.028379,104.000000,0.000000,2.262342,0.233464,4.364262,-4.823182,-37.666309,0.672656,-4.226428,1.148247,6.632426,-34.129330,-11.445828,-10.264009,-7.663561,-6.664658,-7.595528,-32.562340,0.123779,-32.391949,-21.274370,-5.738035,-18.288086,3.791669,3.500774,1.594369,-13.773566,-2.242765,1.672234,-1.025783,8.296986,-25.796936,-4.469929,6.924056,8064.000000,0.000000,4.000000,,,,0.000000,4.000000,4.000000,4.000000,4.000000,4.000000,4.000000,4.000000,4.000000,4.000000,4.000000,4.000000,4.000000,4.000000,4.000000,4.000000,4.000000,4.000000,4.000000,4.000000,4.000000,4.000000,4.000000,4.000000,4.000000,4.000000,4.000000,4.000000,4.000000,4.000000,4.000000,4.000000,4.000000,100.000000
1617697114.036129,105.000000,0.000000,2.260079,-1.818052,0.257334,-6.356820,-45.320950,0.159163,-6.273483,-1.929824,2.010409,-38.710583,-15.536946,-14.356309,-12.784102,-21.016968,-20.921265,-37.145161,-4.491729,-35.949299,-24.330019,-10.347682,-19.295439,1.223775,3.497273,0.567133,-14.785434,-15.573856,-2.944823,-5.127322,-1.454901,-29.873703,-4.465459,-0.262355,8064.000000,0.000000,4.000000,,,,0.000000,4.000000,4.000000,4.000000,4.000000,4.000000,4.000000,4.000000,4.000000,4.000000,4.000000,4.000000,4.000000,4.000000,4.000000,4.000000,4.000000,4.000000,4.000000,4.000000,4.000000,4.000000,4.000000,4.000000,4.000000,4.000000,4.000000,4.000000,4.000000,4.000000,4.000000,4.000000,4.000000,100.000000
1617697114.043778,106.000000,0.000000,2.257819,-3.354695,1.282717,-8.914566,-45.275631,1.184644,-5.241569,-10.133022,-1.068525,-39.697514,-16.547050,-13.316312,-17.386703,-32.278000,-22.438807,-40.697758,-7.564160,-34.374889,-23.792870,-12.901437,-18.763323,-0.315910,1.955315,-1.997536,-14.257828,-19.148026,-6.018802,-4.609374,0.597836,-29.331009,-5.999455,-0.774914,8064.000000,0.000000,4.000000,,,,0.000000,4.000000,4.000000,4.000000,4.000000,4.000000,4.000000,4.000000,4.000000,4.000000,4.000000,4.000000,4.000000,4.000000,4.000000,4.000000,4.000000,4.000000,4.000000,4.000000,4.000000,4.000000,4.000000,4.000000,4.000000,4.000000,4.000000,4.000000,4.000000,4.000000,4.000000,4.000000,4.000000,100.000000
1617697114.051527,107.000000,0.000000,2.255561,-1.300059,9.486563,-8.905651,-45.230354,1.183460,-5.236327,-16.789557,-2.093097,-38.119354,-25.248451,-13.302996,-26.600086,-35.322647,-21.903547,-49.375011,-8.582237,-36.904617,-24.794718,-17.503920,-18.744560,-1.854056,-0.097923,-2.508359,-14.243570,-11.949390,-5.499962,-4.091944,6.751084,-25.711935,-8.044738,4.354066,8064.000000,0.000000,4.000000,,,,0.000000,4.000000,4.000000,4.000000,4.000000,4.000000,4.000000,4.000000,4.000000,4.000000,4.000000,4.000000,4.000000,4.000000,4.000000,4.000000,4.000000,4.000000,4.000000,4.000000,4.000000,4.000000,4.000000,4.000000,4.000000,4.000000,4.000000,4.000000,4.000000,4.000000,4.000000,4.000000,4.000000,100.000000
1617697114.059177,108.000000,0.000000,2.253306,-0.273117,19.733486,-8.383924,-45.697945,3.233558,-5.743911,-17.798409,-1.578184,-38.594055,-32.402691,-13.802513,-25.035025,-36.312965,-22.907284,-43.171787,-9.086475,-34.303608,-23.231461,-15.435134,-18.725815,-2.365022,-0.610645,-1.993031,-14.229326,-9.373339,-8.058565,-4.600673,6.231512,-24.660582,-8.036693,6.400994,8064.000000,0.000000,4.000000,,,,0.000000,4.000000,4.000000,4.000000,4.000000,4.000000,4.000000,4.000000,4.000000,4.000000,4.000000,4.000000,4.000000,4.000000,4.000000,4.000000,4.000000,4.000000,4.000000,4.000000,4.000000,4.000000,4.000000,4.000000,4.000000,4.000000,4.000000,4.000000,4.000000,4.000000,4.000000,4.000000,4.000000,100.000000
1617697114.066926,109.000000,0.000000,2.251053,-3.349767,21.252214,-8.888362,-40.011219,5.281607,-5.225347,-14.190866,0.987497,-35.478539,-20.575417,-11.224608,-11.163836,-25.507421,-11.089505,-16.461950,-9.077389,-21.961613,-18.592844,-11.317135,-18.194269,-1.849837,-0.097214,-2.503858,-13.702276,-10.389606,-13.178711,-4.596072,5.199640,-24.635921,-7.515836,4.856132,8064.000000,0.000000,4.000000,,,,0.000000,4.000000,4.000000,4.000000,4.000000,4.000000,4.000000,4.000000,4.000000,4.000000,4.000000,4.000000,4.000000,4.000000,4.000000,4.000000,4.000000,4.000000,4.000000,4.000000,4.000000,4.000000,4.000000,4.000000,4.000000,4.000000,4.000000,4.000000,4.000000,4.000000,4.000000,4.000000,4.000000,100.000000
1617697114.074575,110.000000,0.000000,2.248801,-4.372059,20.718142,-8.366652,-33.817364,4.763505,-5.220121,-7.510008,4.576253,-24.161009,4.060544,-6.085178,5.770405,2.210394,11.485687,6.118614,-8.555491,-12.708882,-14.984509,-9.767356,-17.150434,-1.847987,-0.097117,-1.988534,-15.227036,-9.866396,-14.191174,-5.617117,5.194440,-25.636927,-8.021140,4.338455,8064.000000,0.000000,4.000000,,,,0.000000,4.000000,4.000000,4.000000,4.000000,4.000000,4.000000,4.000000,4.000000,4.000000,4.000000,4.000000,4.000000,4.000000,4.000000,4.000000,4.000000,4.000000,4.000000,4.000000,4.000000,4.000000,4.000000,4.000000,4.000000,4.000000,4.000000,4.000000,4.000000,4.000000,4.000000,4.000000,4.000000,100.000000
1617697114.082325,111.000000,0.000000,2.246553,-3.342046,21.723064,-8.871106,-32.757904,4.758741,-5.214901,-0.323011,6.110138,-15.418900,20.979561,-1.976529,21.149250,24.772285,24.294714,11.753521,-6.495654,-9.619250,-10.866960,-4.116563,-17.133284,-1.846139,-0.097020,-1.473725,-17.263090,-9.343709,-13.151341,-7.662782,3.137964,-26.636930,-7.500299,5.359758,8064.000000,0.000000,4.000000,,,,0.000000,4.000000,4.000000,4.000000,4.000000,4.000000,4.000000,4.000000,4.000000,4.000000,4.000000,4.000000,4.000000,4.000000,4.000000,4.000000,4.000000,4.000000,4.000000,4.000000,4.000000,4.000000,4.000000,4.000000,4.000000,4.000000,4.000000,4.000000,4.000000,4.000000,4.000000,4.000000,4.000000,100.000000
1617697114.089974,112.000000,0.000000,2.244306,-5.389986,11.444931,-12.451979,-33.750790,5.266803,-5.209686,2.241415,6.104029,-14.890660,18.907299,-0.948912,24.205025,27.311617,26.834522,10.716126,-4.437876,-4.481426,-7.779170,2.041400,-18.654612,-1.844293,-0.096923,-2.497892,-15.707366,-9.847186,-13.651011,-8.167939,1.596364,-23.020550,-8.518439,5.867218,8064.000000,0.000000,4.000000,,,,0.000000,4.000000,4.000000,4.000000,4.000000,4.000000,4.000000,4.000000,4.000000,4.000000,4.000000,4.000000,4.000000,4.000000,4.000000,4.000000,4.000000,4.000000,4.000000,4.000000,4.000000,4.000000,4.000000,4.000000,4.000000,4.000000,4.000000,4.000000,4.000000,4.000000,4.000000,4.000000,4.000000,100.000000
1617697114.097724,113.000000,0.000000,2.242062,-7.435878,-0.874206,-16.029270,-33.204216,4.748716,-5.204477,0.700712,6.097925,-16.414230,5.555058,-1.460783,13.924409,25.233023,22.192303,6.090025,-4.433438,-3.964124,-7.258570,2.039359,-16.584675,-1.329628,-0.096826,-1.469753,-13.640377,-9.837339,-12.611718,-8.159772,2.107588,-26.074453,-13.125305,-2.343777,8064.000000,0.000000,4.000000,,,,0.000000,4.000000,4.000000,4.000000,4.000000,4.000000,4.000000,4.000000,4.000000,4.000000,4.000000,4.000000,4.000000,4.000000,4.000000,4.000000,4.000000,4.000000,4.000000,4.000000,4.000000,4.000000,4.000000,4.000000,4.000000,4.000000,4.000000,4.000000,4.000000,4.000000,4.000000,4.000000,4.000000,100.000000
1617697114.105373,114.000000,0.000000,2.239820,-7.428442,2.203591,-16.526062,-33.171013,4.743967,-5.199272,-1.351271,5.579006,-14.859355,-2.142805,-1.972143,6.730997,28.284714,10.888060,-4.172475,-4.941825,-10.626826,-8.276953,2.037319,-19.645014,-1.328298,-0.096729,3.147101,-14.139557,-10.340322,-10.035005,-8.151612,2.105481,-38.868893,-15.676283,-11.059381,8064.000000,0.000000,4.000000,,,,0.000000,4.000000,4.000000,4.000000,4.000000,4.000000,4.000000,4.000000,4.000000,4.000000,4.000000,4.000000,4.000000,4.000000,4.000000,4.000000,4.000000,4.000000,4.000000,4.000000,4.000000,4.000000,4.000000,4.000000,4.000000,4.000000,4.000000,4.000000,4.000000,4.000000,4.000000,4.000000,4.000000,100.000000
1617697114.113122,115.000000,0.000000,2.237580,-7.421013,9.893696,-15.996716,-33.650661,4.226403,-5.194073,-1.862740,6.599068,-12.280394,-2.140662,-0.944530,8.262728,26.205147,1.646402,-9.296508,-4.424063,-11.641841,-12.371240,-1.041641,-32.958702,-5.942355,-0.096632,3.656775,-14.125418,-10.329982,-8.999329,-6.092178,2.103375,-31.650536,-15.147786,-4.381656,8064.000000,0.000000,4.000000,,,,0.000000,4.000000,4.000000,4.000000,4.000000,4.000000,4.000000,4.000000,4.000000,4.000000,4.000000,4.000000,4.000000,4.000000,4.000000,4.000000,4.000000,4.000000,4.000000,4.000000,4.000000,4.000000,4.000000,4.000000,4.000000,4.000000,4.000000,4.000000,4.000000,4.000000,4.000000,4.000000,4.000000,100.000000
1617697114.120772,116.000000,0.000000,2.235343,-7.413592,9.370981,-15.980719,-34.129833,4.734997,-5.188879,-1.348057,8.643751,-13.293754,-2.651342,-1.456406,6.716003,16.948172,0.106294,-9.287210,-4.419639,-11.117378,-23.640919,-10.784189,-43.694973,-9.526155,-0.096536,1.601836,-14.111292,-7.755549,-9.503149,-4.034804,2.101272,-9.567602,-15.132638,7.930418,8064.000000,0.000000,4.000000,,,,0.000000,4.000000,4.000000,4.000000,4.000000,4.000000,4.000000,4.000000,4.000000,4.000000,4.000000,4.000000,4.000000,4.000000,4.000000,4.000000,4.000000,4.000000,4.000000,4.000000,4.000000,4.000000,4.000000,4.000000,4.000000,4.000000,4.000000,4.000000,4.000000,4.000000,4.000000,4.000000,4.000000,100.000000
1617697114.128621,117.000000,0.000000,2.233107,-7.406179,7.823149,-15.964738,-33.582882,4.217441,-5.696510,-1.859530,9.660748,-15.331742,-4.187152,-7.608796,-0.983020,13.341480,-4.509197,-20.047155,-5.953681,-22.901133,-34.899330,-18.465714,-45.702560,-9.516629,-0.096439,1.600234,-15.122822,-6.209332,-10.006467,-4.543590,2.099170,-12.634958,-16.143147,7.922488,8064.000000,0.000000,4.000000,,,,0.000000,4.000000,4.000000,4.000000,4.000000,4.000000,4.000000,4.000000,4.000000,4.000000,4.000000,4.000000,4.000000,4.000000,4.000000,4.000000,4.000000,4.000000,4.000000,4.000000,4.000000,4.000000,4.000000,4.000000,4.000000,4.000000,4.000000,4.000000,4.000000,4.000000,4.000000,4.000000,4.000000,100.000000
1617697114.136370,118.000000,0.000000,2.230874,-7.911593,11.405069,-15.948773,-30.985195,4.213224,-5.177993,-1.857670,9.651088,-12.752308,-2.644503,-13.755033,-6.110242,12.815318,-12.709816,-33.360439,-10.563111,-32.621822,-33.838791,-18.960068,-40.015831,-11.045574,-0.609163,-0.965469,-12.543596,-7.741584,-9.483640,-4.539046,4.148354,-25.442837,-15.614182,3.299181,8064.000000,0.000000,4.000000,,,,0.000000,4.000000,4.000000,4.000000,4.000000,4.000000,4.000000,4.000000,4.000000,4.000000,4.000000,4.000000,4.000000,4.000000,4.000000,4.000000,4.000000,4.000000,4.000000,4.000000,4.000000,4.000000,4.000000,4.000000,4.000000,4.000000,4.000000,4.000000,4.000000,4.000000,4.000000,4.000000,4.000000,100.000000
1617697114.144219,119.000000,0.000000,2.228643,-6.878040,13.444946,-15.932824,-28.902929,7.285933,-3.121533,-1.855812,11.692719,-11.713915,-3.667500,-13.228457,-6.104132,3.058913,-17.312490,-37.942463,-12.603830,-29.512276,-24.574181,-16.889826,-21.001457,-8.470427,-0.608554,-2.502965,-10.479771,-3.631279,-6.910054,-1.970405,5.682667,-15.160983,-15.085749,5.859984,8064.000000,0.000000,4.000000,,,,0.000000,4.000000,4.000000,4.000000,4.000000,4.000000,4.000000,4.000000,4.000000,4.000000,4.000000,4.000000,4.000000,4.000000,4.000000,4.000000,4.000000,4.000000,4.000000,4.000000,4.000000,4.000000,4.000000,4.000000,4.000000,4.000000,4.000000,4.000000,4.000000,4.000000,4.000000,4.000000,4.000000,100.000000
1617697114.151969,120.000000,0.000000,1.713594,-4.819880,14.457142,-15.916891,-29.386847,10.868391,-1.067130,-1.853957,14.245129,-15.291945,-6.740756,-13.215229,-8.149310,-9.764659,-19.346460,-35.853241,-12.078406,-27.944304,-23.523966,-14.821653,0.558005,1.281634,0.417695,3.653384,-10.982112,1.500558,-5.877502,-0.429972,6.189805,-10.017616,-16.096304,5.854124,8064.000000,0.000000,4.000000,,,,0.000000,4.000000,4.000000,4.000000,4.000000,4.000000,4.000000,4.000000,4.000000,4.000000,4.000000,4.000000,4.000000,4.000000,4.000000,4.000000,4.000000,4.000000,4.000000,4.000000,4.000000,4.000000,4.000000,4.000000,4.000000,4.000000,4.000000,4.000000,4.000000,4.000000,4.000000,4.000000,4.000000,100.000000
1617697114.159818,121.000000,0.000000,2.224701,-2.763778,15.468327,-15.900974,-29.870279,12.395985,-1.578883,-1.852103,13.205242,-16.302294,-5.195553,-13.714834,-9.679622,-8.729253,-11.634806,-22.996874,-13.091969,-25.352255,-23.500443,-7.114524,5.172832,6.408557,-0.608363,7.752295,-6.355745,0.473416,-5.871625,-0.942363,5.157974,-16.674265,-14.541745,3.284167,8064.000000,0.000000,4.000000,,,,0.000000,4.000000,4.000000,4.000000,4.000000,4.000000,4.000000,4.000000,4.000000,4.000000,4.000000,4.000000,4.000000,4.000000,4.000000,4.000000,4.000000,4.000000,4.000000,4.000000,4.000000,4.000000,4.000000,4.000000,4.000000,4.000000,4.000000,4.000000,4.000000,4.000000,4.000000,4.000000,4.000000,100.000000
1617697114.167567,122.000000,0.000000,4.273758,-1.222553,17.504141,-15.885074,-29.327589,14.434871,-1.577304,-1.850250,13.192037,-15.260350,-0.062153,-9.598556,-0.439173,2.561527,6.838367,0.103046,-12.053236,-3.788442,-2.964121,9.302847,7.218941,8.453431,-0.607755,9.283005,6.471124,4.575507,-2.788830,-0.941421,5.665636,-7.939643,-7.860537,10.460370,8064.000000,0.000000,4.000000,,,,0.000000,4.000000,4.000000,4.000000,4.000000,4.000000,4.000000,4.000000,4.000000,4.000000,4.000000,4.000000,4.000000,4.000000,4.000000,4.000000,4.000000,4.000000,4.000000,4.000000,4.000000,4.000000,4.000000,4.000000,4.000000,4.000000,4.000000,4.000000,4.000000,4.000000,4.000000,4.000000,4.000000,100.000000
1617697114.175417,123.000000,0.000000,6.320766,0.317131,17.486635,-15.869188,-29.298262,15.446076,-1.062907,-1.848400,14.204486,-18.322012,1.989192,-5.486392,11.868958,7.174350,19.652042,13.949097,-5.374516,19.292269,19.602945,23.652517,16.955311,17.675747,7.597981,17.991671,15.182601,14.827342,1.316523,-0.940479,10.788176,-0.752216,-3.237292,18.142218,8064.000000,0.000000,4.000000,,,,0.000000,4.000000,4.000000,4.000000,4.000000,4.000000,4.000000,4.000000,4.000000,4.000000,4.000000,4.000000,4.000000,4.000000,4.000000,4.000000,4.000000,4.000000,4.000000,4.000000,4.000000,4.000000,4.000000,4.000000,4.000000,4.000000,4.000000,4.000000,4.000000,4.000000,4.000000,4.000000,4.000000,100.000000
1617697114.183166,124.000000,0.000000,5.801625,0.316814,12.853765,-15.853319,-32.858707,12.353707,-2.600305,-1.846552,10.600538,-23.431896,0.448741,-4.455265,15.959653,2.551791,21.683672,14.447968,-0.240936,18.247335,16.506420,24.141685,12.835793,22.786276,14.769870,27.717268,9.013573,13.274053,2.340847,-0.939539,13.854311,-13.059156,-3.746875,11.970229,8064.000000,0.000000,4.000000,,,,0.000000,4.000000,4.000000,4.000000,4.000000,4.000000,4.000000,4.000000,4.000000,4.000000,4.000000,4.000000,4.000000,4.000000,4.000000,4.000000,4.000000,4.000000,4.000000,4.000000,4.000000,4.000000,4.000000,4.000000,4.000000,4.000000,4.000000,4.000000,4.000000,4.000000,4.000000,4.000000,4.000000,100.000000
1617697114.191015,125.000000,0.000000,6.308644,-0.196324,6.687065,-15.837466,-37.441235,8.238790,-5.161808,-1.844705,5.974553,-23.408464,0.961113,-2.912348,14.405232,3.062060,21.661987,10.330956,-0.240695,5.408576,-0.433164,15.399596,-5.125762,15.071182,10.652536,27.689550,-4.328774,2.491548,1.312865,-0.938599,9.225072,-15.610199,-3.743128,5.804413,8064.000000,0.000000,4.000000,,,,0.000000,4.000000,4.000000,4.000000,4.000000,4.000000,4.000000,4.000000,4.000000,4.000000,4.000000,4.000000,4.000000,4.000000,4.000000,4.000000,4.000000,4.000000,4.000000,4.000000,4.000000,4.000000,4.000000,4.000000,4.000000,4.000000,4.000000,4.000000,4.000000,4.000000,4.000000,4.000000,4.000000,100.000000
1617697114.198764,126.000000,0.000000,6.302335,-0.196127,5.141916,-15.821629,-37.403793,8.743371,-3.618184,-0.304399,8.019860,-20.308132,3.011434,-0.858154,14.903647,13.315409,21.640326,6.730881,-1.266096,-0.750679,-4.022474,7.179068,-14.351405,9.415085,6.026499,23.046476,-10.991112,-0.587867,1.824373,-0.937661,4.600462,-12.517666,-3.739385,7.849891,8064.000000,0.000000,4.000000,,,,0.000000,4.000000,4.000000,4.000000,4.000000,4.000000,4.000000,4.000000,4.000000,4.000000,4.000000,4.000000,4.000000,4.000000,4.000000,4.000000,4.000000,4.000000,4.000000,4.000000,4.000000,4.000000,4.000000,4.000000,4.000000,4.000000,4.000000,4.000000,4.000000,4.000000,4.000000,4.000000,4.000000,100.000000
1617697114.206614,127.000000,0.000000,5.270392,-0.195931,5.649595,-15.805807,-33.776646,10.785910,-1.563284,1.747187,12.627225,-17.210901,4.546884,-1.370116,15.914385,21.507221,21.618687,9.801073,-0.752009,0.788534,-1.454350,6.659069,-16.901155,9.918490,7.558934,15.843943,-10.467300,2.489644,1.822549,-0.936723,7.159964,-20.197456,-3.735646,8.354861,8064.000000,0.000000,4.000000,,,,0.000000,4.000000,4.000000,4.000000,4.000000,4.000000,4.000000,4.000000,4.000000,4.000000,4.000000,4.000000,4.000000,4.000000,4.000000,4.000000,4.000000,4.000000,4.000000,4.000000,4.000000,4.000000,4.000000,4.000000,4.000000,4.000000,4.000000,4.000000,4.000000,4.000000,4.000000,4.000000,4.000000,100.000000
1617697114.214363,0.000000,0.000000,6.803583,-0.195735,6.156765,-15.790001,-32.717228,12.826406,-1.561721,1.745440,14.153059,-15.142408,6.080798,-0.855926,14.872829,24.049816,21.084248,11.842554,0.274384,1.300566,-10.683664,6.139589,-26.115025,3.754726,7.551375,9.674253,-10.456833,4.025616,0.795085,-0.935786,9.716907,-18.125977,-1.167808,9.372148,0.000000,197.000000,4.000000,,,,0.000000,4.000000,4.000000,4.000000,4.000000,4.000000,4.000000,4.000000,4.000000,4.000000,4.000000,4.000000,4.000000,4.000000,4.000000,4.000000,4.000000,4.000000,4.000000,4.000000,4.000000,4.000000,4.000000,4.000000,4.000000,4.000000,4.000000,4.000000,4.000000,4.000000,4.000000,4.000000,4.000000,100.000000
1617697114.222012,1.000000,0.000000,5.771139,-0.195539,8.201891,-15.774211,-35.248611,11.787939,-2.072979,1.743695,12.600445,-14.614446,4.536256,-3.419172,8.191290,21.461664,9.268291,-4.066724,-2.289993,-13.059710,-30.160160,-10.276807,-40.960705,-8.043900,3.954080,6.587656,-14.036120,3.508770,-2.795454,-0.934850,9.194369,-14.005286,0.371822,7.311493,0.000000,187.000000,4.000000,,,,0.000000,4.000000,4.000000,4.000000,4.000000,4.000000,4.000000,4.000000,4.000000,4.000000,4.000000,4.000000,4.000000,4.000000,4.000000,4.000000,4.000000,4.000000,4.000000,4.000000,4.000000,4.000000,4.000000,4.000000,4.000000,4.000000,4.000000,4.000000,4.000000,4.000000,4.000000,4.000000,4.000000,100.000000
1617697114.229762,2.000000,0.000000,-1.414120,-0.195344,7.168048,-15.758437,-37.264645,5.622304,-1.558086,1.741951,8.998100,-18.189575,-2.134947,-11.620881,-2.586132,11.696612,-12.279439,-21.498554,-11.005651,-37.662033,-48.591537,-35.907555,-51.176155,-15.215343,2.411665,-0.085599,-15.047725,0.428338,-5.869581,-0.933916,8.672355,-30.401537,-4.756755,-5.516331,0.000000,184.000000,4.000000,,,,0.000000,4.000000,4.000000,4.000000,4.000000,4.000000,4.000000,4.000000,4.000000,4.000000,4.000000,4.000000,4.000000,4.000000,4.000000,4.000000,4.000000,4.000000,4.000000,4.000000,4.000000,4.000000,4.000000,4.000000,4.000000,4.000000,4.000000,4.000000,4.000000,4.000000,4.000000,4.000000,4.000000,100.000000
1617697114.237411,3.000000,0.000000,-6.028090,-0.195149,6.135239,-15.742679,-36.201740,0.488477,-1.556528,1.740209,5.399359,-21.761127,-9.825120,-16.737465,-9.763033,1.428506,-25.087673,-28.143723,-16.635672,-50.957706,-59.312180,-45.102417,-52.150620,-17.251411,3.434894,-9.829103,-14.519856,0.427910,-6.376532,-0.932982,9.176502,-34.473701,-7.828922,-8.587738,0.000000,182.000000,4.000000,,,,0.000000,4.000000,4.000000,4.000000,2.000000,4.000000,4.000000,4.000000,4.000000,4.000000,4.000000,4.000000,4.000000,4.000000,4.000000,4.000000,4.000000,4.000000,4.000000,4.000000,4.000000,4.000000,4.000000,4.000000,4.000000,4.000000,4.000000,4.000000,4.000000,4.000000,4.000000,4.000000,4.000000,83.333336
1617697114.245160,4.000000,0.000000,-3.457959,0.317867,6.641924,-15.726935,-36.165539,0.487989,-1.554971,1.738469,6.419600,-22.765009,-10.328115,-16.720728,-14.368655,-4.726769,-27.113867,-40.423271,-16.106216,-48.855465,-60.791328,-44.031673,-52.098469,-18.259800,3.431459,-10.844914,-13.479695,4.530046,-5.857335,-0.932049,9.680146,-14.439226,-6.795452,4.754183,0.000000,137.000000,4.000000,,,,0.000000,4.000000,4.000000,4.000000,2.000000,4.000000,4.000000,4.000000,4.000000,4.000000,4.000000,4.000000,4.000000,4.000000,4.000000,4.000000,4.000000,4.000000,4.000000,4.000000,4.000000,4.000000,4.000000,4.000000,4.000000,4.000000,4.000000,4.000000,4.000000,4.000000,4.000000,4.000000,4.000000,83.333336
1617697114.252810,5.000000,0.000000,-0.890399,-0.195271,0.481436,-15.711209,-38.693474,1.000321,-1.553416,1.736730,4.361899,-26.331987,-10.830607,-17.216827,-19.995312,-17.542555,-28.112394,-56.280285,-18.141392,-50.857891,-62.268997,-48.603027,-52.559189,-21.318464,2.915207,-9.808429,-14.491858,1.448593,-6.364298,-0.931117,9.157646,-9.296582,-10.891220,6.800711,0.000000,190.000000,4.000000,,,,0.000000,4.000000,4.000000,4.000000,2.000000,4.000000,4.000000,4.000000,4.000000,4.000000,4.000000,4.000000,4.000000,4.000000,4.000000,4.000000,4.000000,4.000000,4.000000,4.000000,4.000000,4.000000,4.000000,4.000000,4.000000,4.000000,4.000000,4.000000,4.000000,4.000000,4.000000,4.000000,4.000000,83.333336
1617697114.260559,6.000000,0.000000,-1.915150,-0.195076,-4.647251,-15.695498,-40.706062,0.486500,-1.551863,1.222173,-1.283489,-31.433861,-14.922341,-16.686790,-19.975317,-38.037834,-29.622744,-60.839390,-19.661711,-49.781395,-59.642624,-42.400578,-39.686119,-19.245863,3.425112,-13.901184,-13.964544,1.959965,-5.332293,-0.930186,9.148488,-13.902670,-14.470073,-2.949679,0.000000,189.000000,4.000000,,,,0.000000,4.000000,4.000000,4.000000,2.000000,4.000000,4.000000,4.000000,4.000000,4.000000,4.000000,4.000000,4.000000,4.000000,4.000000,4.000000,4.000000,4.000000,4.000000,4.000000,4.000000,4.000000,4.000000,4.000000,4.000000,4.000000,4.000000,4.000000,4.000000,4.000000,4.000000,4.000000,4.000000,83.333336
1617697114.268209,7.000000,0.000000,-1.913234,0.830760,3.049704,-15.679802,-40.152538,0.486014,-2.063132,1.220951,-1.282205,-31.915247,-19.009983,-11.541899,-19.442520,-49.794666,-29.593121,-58.727268,-15.026666,-28.193150,-34.967598,-16.204330,-13.492585,-4.354822,5.985790,-7.220617,-9.848016,14.265697,-3.275679,-0.929255,9.652161,-6.196460,-12.917141,0.130193,0.000000,182.000000,4.000000,,,,0.000000,4.000000,4.000000,4.000000,2.000000,4.000000,4.000000,4.000000,4.000000,4.000000,4.000000,4.000000,4.000000,4.000000,4.000000,4.000000,4.000000,4.000000,4.000000,4.000000,4.000000,4.000000,4.000000,4.000000,4.000000,4.000000,4.000000,4.000000,4.000000,4.000000,4.000000,4.000000,4.000000,83.333336
1617697114.275958,8.000000,0.000000,-1.398501,-2.246994,9.713322,-15.664123,-40.112385,0.485528,-2.061068,1.732551,1.796000,-29.832048,-17.965332,-9.479074,-21.987181,-41.026924,-26.999424,-51.489052,-10.909075,-9.190598,-2.624938,2.273412,3.443984,11.546968,7.518266,11.248142,-6.248425,17.328354,-1.733942,-0.928326,8.104047,-8.241546,-15.468327,8.335192,0.000000,200.000000,4.000000,,,,0.000000,4.000000,4.000000,4.000000,2.000000,4.000000,4.000000,4.000000,4.000000,4.000000,4.000000,4.000000,4.000000,4.000000,4.000000,4.000000,4.000000,4.000000,4.000000,4.000000,4.000000,4.000000,4.000000,4.000000,4.000000,4.000000,4.000000,4.000000,4.000000,4.000000,4.000000,4.000000,4.000000,83.333336
1617697114.283607,9.000000,0.000000,-1.397102,-6.860131,6.113864,-15.648458,-41.097912,1.510683,-1.033366,1.217998,1.794204,-31.853498,-9.742238,-8.956775,-10.170321,-15.344871,-15.177553,-34.001667,-6.795601,-7.130126,9.172558,2.271138,6.517463,14.612345,6.485106,18.929201,-6.242176,4.490513,-2.245028,-0.927398,3.993378,-18.489714,-22.119524,7.301215,0.000000,201.000000,4.000000,,,,0.000000,4.000000,4.000000,4.000000,2.000000,4.000000,4.000000,4.000000,4.000000,4.000000,4.000000,4.000000,4.000000,4.000000,4.000000,4.000000,4.000000,4.000000,4.000000,4.000000,4.000000,4.000000,4.000000,4.000000,4.000000,4.000000,4.000000,4.000000,4.000000,4.000000,4.000000,4.000000,4.000000,83.333336
1617697114.291357,10.000000,0.000000,-0.882885,-7.878912,5.594930,-15.632810,-35.928612,4.073275,-1.545153,1.216779,4.869333,-28.231903,4.113658,-1.255511,11.378310,14.926885,1.760701,-14.480485,1.929143,0.056492,7.624924,2.268867,8.562227,13.059271,7.504262,15.833349,-6.748755,-1.155003,-2.242783,-0.926470,0.912462,-22.573788,-23.123047,4.729811,0.000000,200.000000,4.000000,,,,0.000000,4.000000,4.000000,4.000000,2.000000,4.000000,4.000000,4.000000,4.000000,4.000000,4.000000,4.000000,4.000000,4.000000,4.000000,4.000000,4.000000,4.000000,4.000000,4.000000,4.000000,4.000000,4.000000,4.000000,4.000000,4.000000,4.000000,4.000000,4.000000,4.000000,4.000000,4.000000,4.000000,83.333336
1617697114.299006,11.000000,0.000000,-2.420463,-7.358213,6.102156,-15.617177,-30.251656,4.582023,-2.056429,6.343768,12.556771,-12.819055,15.391596,5.925232,19.572060,34.399136,11.502530,3.482714,7.568240,11.851307,10.694222,6.881983,10.092127,13.559031,10.060861,16.330338,-6.229185,1.923075,-2.240540,-0.925544,1.937191,-25.628138,-22.587103,4.725081,0.000000,172.000000,4.000000,,,,0.000000,4.000000,4.000000,4.000000,2.000000,4.000000,4.000000,4.000000,4.000000,4.000000,4.000000,4.000000,4.000000,4.000000,4.000000,4.000000,4.000000,4.000000,4.000000,4.000000,4.000000,4.000000,4.000000,4.000000,4.000000,4.000000,4.000000,4.000000,4.000000,4.000000,4.000000,4.000000,4.000000,83.333336
1617697114.306755,12.000000,0.000000,-1.392402,-7.863675,5.583233,-15.601560,-28.170122,7.141543,2.048192,11.978450,18.185240,2.578379,22.042871,6.432127,21.090950,39.492943,14.567950,22.966410,6.535030,13.890738,13.760451,7.387921,9.056394,13.545473,11.076441,17.339647,-6.735776,0.895511,-2.238300,-1.437439,4.499356,-14.833279,-22.564516,4.720356,0.000000,178.000000,4.000000,,,,0.000000,4.000000,4.000000,4.000000,2.000000,4.000000,4.000000,4.000000,4.000000,4.000000,4.000000,4.000000,4.000000,4.000000,4.000000,4.000000,4.000000,4.000000,4.000000,4.000000,4.000000,4.000000,4.000000,4.000000,4.000000,4.000000,4.000000,4.000000,4.000000,4.000000,4.000000,4.000000,4.000000,83.333336
1617697114.314405,13.000000,0.000000,4.250016,-7.342991,11.218676,-15.585958,-26.603491,12.262607,6.661528,14.017754,17.654234,7.704006,27.661854,7.964157,29.787807,37.914989,21.220049,34.225494,8.066957,12.338386,12.208229,5.329251,9.047338,14.044748,11.065364,16.296667,-6.216220,-0.131025,-0.184779,-0.923181,5.007677,5.181554,-17.413746,7.279739,0.000000,197.000000,4.000000,,,,0.000000,4.000000,4.000000,4.000000,2.000000,4.000000,4.000000,4.000000,4.000000,4.000000,4.000000,4.000000,4.000000,4.000000,4.000000,4.000000,4.000000,4.000000,4.000000,4.000000,4.000000,4.000000,4.000000,4.000000,4.000000,4.000000,4.000000,4.000000,4.000000,4.000000,4.000000,4.000000,4.000000,83.333336
1617697114.322254,14.000000,0.000000,5.271407,-7.335648,10.694636,-15.057551,-26.064066,11.224703,1.526662,12.978094,14.559657,8.721943,27.121370,7.956192,28.219559,38.389893,24.275753,30.601526,10.622993,9.249124,8.606277,4.298281,4.422905,10.953780,10.541478,16.793190,-6.210004,0.894747,1.866687,-0.922258,6.541131,-4.054397,-14.832230,6.246818,0.000000,202.000000,4.000000,,,,0.000000,4.000000,4.000000,4.000000,2.000000,4.000000,4.000000,4.000000,4.000000,4.000000,4.000000,4.000000,4.000000,4.000000,4.000000,4.000000,4.000000,4.000000,4.000000,4.000000,4.000000,4.000000,4.000000,4.000000,4.000000,4.000000,4.000000,4.000000,4.000000,4.000000,4.000000,4.000000,4.000000,83.333336
1617697114.330003,15.000000,0.000000,1.163572,-7.841133,-1.110930,-17.093777,-31.679028,5.572453,-5.141532,8.349731,9.929713,4.097836,19.914762,3.332852,11.268262,36.813042,15.533527,16.724771,8.048266,-0.503715,1.418184,1.217060,-7.889210,3.763339,7.966835,15.237936,-8.255076,0.381031,1.352000,-1.946977,8.585872,-21.486240,-15.330218,-0.426096,0.000000,212.000000,4.000000,,,,0.000000,4.000000,4.000000,4.000000,2.000000,4.000000,4.000000,4.000000,4.000000,4.000000,4.000000,4.000000,4.000000,4.000000,4.000000,4.000000,4.000000,4.000000,4.000000,4.000000,4.000000,4.000000,4.000000,4.000000,4.000000,4.000000,4.000000,4.000000,4.000000,4.000000,4.000000,4.000000,4.000000,83.333336
1617697114.337853,16.000000,0.000000,4.239331,-5.782010,-6.238024,-19.127964,-36.775555,4.028419,-1.033826,2.187536,8.894142,-8.213953,13.228181,1.278237,2.539044,22.417255,3.210302,-4.830415,7.014577,-11.785262,-10.378106,-6.476465,-17.624910,1.708294,6.420406,10.094493,-10.298103,0.893471,1.350648,0.619073,9.602927,-8.644240,-8.648221,-0.938490,0.000000,200.000000,4.000000,,,,0.000000,4.000000,4.000000,4.000000,2.000000,4.000000,4.000000,4.000000,4.000000,4.000000,4.000000,4.000000,4.000000,4.000000,4.000000,4.000000,4.000000,4.000000,4.000000,4.000000,4.000000,4.000000,4.000000,4.000000,4.000000,4.000000,4.000000,4.000000,4.000000,4.000000,4.000000,4.000000,4.000000,83.333336
1617697114.345602,17.000000,0.000000,10.388938,-1.160843,-5.718966,-19.108837,-36.225960,4.537211,5.633874,0.646887,9.910889,-16.410868,6.548286,1.789779,0.485223,-1.707726,-9.613421,-35.081997,5.469101,-31.773478,-29.854908,-19.803322,-22.735491,-1.370338,6.926806,8.033116,-10.287805,2.943860,1.862118,5.746659,9.593324,4.184916,0.591196,6.754756,0.000000,184.000000,4.000000,,,,0.000000,4.000000,4.000000,4.000000,2.000000,4.000000,4.000000,4.000000,4.000000,4.000000,4.000000,4.000000,4.000000,4.000000,4.000000,4.000000,4.000000,4.000000,4.000000,4.000000,4.000000,4.000000,4.000000,4.000000,4.000000,4.000000,4.000000,4.000000,4.000000,4.000000,4.000000,4.000000,4.000000,83.333336
1617697114.353451,18.000000,0.000000,5.763165,0.891600,-6.738888,-19.089727,-36.702553,4.532673,6.141061,1.671881,7.336876,-17.420097,-1.150570,0.762348,-8.746031,-14.526531,-23.962782,-54.021271,0.848248,-54.305805,-45.209667,-22.860441,-23.738396,-8.035634,6.407059,8.537904,-12.328799,1.915275,-0.191026,6.766553,9.070910,-7.614140,0.077785,8.286463,0.000000,215.000000,4.000000,,,,0.000000,4.000000,4.000000,4.000000,2.000000,4.000000,4.000000,4.000000,4.000000,4.000000,4.000000,4.000000,4.000000,4.000000,4.000000,4.000000,4.000000,4.000000,4.000000,4.000000,4.000000,4.000000,4.000000,4.000000,4.000000,4.000000,4.000000,4.000000,4.000000,4.000000,4.000000,4.000000,4.000000,83.333336
1617697114.361200,19.000000,0.000000,2.167658,-0.134933,3.011441,-19.583458,-36.665852,6.579423,5.109279,1.157389,5.791077,-19.966780,-4.739163,3.838509,-8.224464,-12.973543,-20.861897,-38.582634,5.975605,-41.943810,-24.651638,-3.863222,-12.432607,1.715991,7.939113,4.939622,-14.367752,-2.702025,-1.729297,6.246966,5.472095,-16.837296,-4.537678,3.662792,0.000000,203.000000,4.000000,,,,0.000000,4.000000,4.000000,4.000000,2.000000,4.000000,4.000000,4.000000,4.000000,4.000000,4.000000,4.000000,4.000000,4.000000,4.000000,4.000000,4.000000,4.000000,4.000000,4.000000,4.000000,4.000000,4.000000,4.000000,4.000000,4.000000,4.000000,4.000000,4.000000,4.000000,4.000000,4.000000,4.000000,83.333336
1617697114.369050,20.000000,0.000000,8.319336,-0.134798,18.393045,-17.512592,-36.116364,8.111305,6.129811,1.156231,8.349389,-20.459635,-3.195962,8.962875,7.168375,-13.986211,0.184607,-10.338924,20.841423,-9.081351,8.193526,17.166283,3.990083,20.688635,13.059380,0.832119,-14.353385,-4.750605,0.323715,6.753540,1.876880,-16.820457,-4.020319,4.171950,0.000000,201.000000,4.000000,,,,0.000000,4.000000,4.000000,4.000000,2.000000,4.000000,4.000000,4.000000,4.000000,4.000000,4.000000,4.000000,4.000000,4.000000,4.000000,4.000000,4.000000,4.000000,4.000000,4.000000,4.000000,4.000000,4.000000,4.000000,4.000000,4.000000,4.000000,4.000000,4.000000,4.000000,4.000000,4.000000,4.000000,83.333336
1617697114.376799,21.000000,0.000000,9.336658,0.378158,18.887472,-15.443798,-37.105888,8.103194,6.123681,1.667896,9.366680,-19.413534,-4.218407,8.441092,12.289412,-15.510686,13.004935,-2.636278,21.846224,1.696960,12.800717,21.251680,8.601477,22.719229,15.097602,3.908210,-13.826211,-0.130470,1.861853,5.721145,1.362183,-16.290817,-2.990658,5.193419,0.000000,201.000000,4.000000,,,,0.000000,4.000000,4.000000,4.000000,2.000000,4.000000,4.000000,4.000000,4.000000,4.000000,4.000000,4.000000,4.000000,4.000000,4.000000,4.000000,4.000000,4.000000,4.000000,4.000000,4.000000,4.000000,4.000000,4.000000,4.000000,4.000000,4.000000,4.000000,4.000000,4.000000,4.000000,4.000000,4.000000,83.333336
1617697114.384648,22.000000,0.000000,1.122193,-0.135041,12.714739,-14.915534,-36.043140,7.582270,5.604737,1.153407,9.870134,-20.932581,-3.701368,6.381369,10.738661,0.402261,12.991930,-0.069539,7.978223,2.720905,6.121250,18.666325,8.080055,16.542662,14.569684,8.006866,-14.325205,4.485045,1.859991,3.664142,1.873641,-17.812988,-4.013309,3.136943,0.000000,203.000000,4.000000,,,,0.000000,4.000000,4.000000,4.000000,2.000000,4.000000,4.000000,4.000000,4.000000,4.000000,4.000000,4.000000,4.000000,4.000000,4.000000,4.000000,4.000000,4.000000,4.000000,4.000000,4.000000,4.000000,4.000000,4.000000,4.000000,4.000000,4.000000,4.000000,4.000000,4.000000,4.000000,4.000000,4.000000,83.333336
1617697114.392397,23.000000,0.000000,-1.955852,-0.134906,12.702024,-16.439079,-29.340431,8.087508,5.599132,1.665074,11.911546,-15.270623,3.994641,7.400629,23.035614,22.453140,18.107143,19.930531,5.406143,23.231005,25.602308,21.211761,14.738642,21.141504,14.042294,7.998858,-10.721136,3.967739,1.345310,4.686119,2.384588,-19.846457,-4.522116,8.262012,0.000000,225.000000,4.000000,,,,0.000000,4.000000,4.000000,4.000000,2.000000,4.000000,4.000000,4.000000,4.000000,4.000000,4.000000,4.000000,4.000000,4.000000,4.000000,4.000000,4.000000,4.000000,4.000000,4.000000,4.000000,4.000000,4.000000,4.000000,4.000000,4.000000,4.000000,4.000000,4.000000,4.000000,4.000000,4.000000,4.000000,83.333336
1617697114.400247,24.000000,0.000000,1.635847,-0.134771,14.227783,-13.858539,-23.670065,10.130703,5.593533,3.201871,13.438096,-3.460481,14.247056,9.957331,34.807449,32.687096,25.781343,36.833675,11.041762,38.592388,36.345936,22.729012,21.390570,26.761389,14.541072,9.529322,-6.607851,7.040695,1.343965,6.219894,4.433486,-11.108662,-1.440671,23.125544,0.000000,211.000000,4.000000,,,,0.000000,4.000000,4.000000,4.000000,2.000000,4.000000,4.000000,4.000000,4.000000,4.000000,4.000000,4.000000,4.000000,4.000000,4.000000,4.000000,4.000000,4.000000,4.000000,4.000000,4.000000,4.000000,4.000000,4.000000,4.000000,4.000000,4.000000,4.000000,4.000000,4.000000,4.000000,4.000000,4.000000,83.333336
1617697114.407996,25.000000,0.000000,2.659853,-0.134636,17.803299,-9.229296,-24.159216,12.171854,5.587939,5.249951,13.424658,0.645544,18.848194,10.460194,33.234180,44.962101,26.781204,39.360947,10.005079,34.451233,22.463438,20.655001,22.394819,23.657703,15.552172,12.596715,-6.088423,15.238782,2.368262,6.726495,5.967514,-1.866784,3.176155,29.256266,0.000000,199.000000,4.000000,,,,0.000000,4.000000,4.000000,4.000000,2.000000,4.000000,4.000000,4.000000,4.000000,4.000000,4.000000,4.000000,4.000000,4.000000,4.000000,4.000000,4.000000,4.000000,4.000000,4.000000,4.000000,4.000000,4.000000,4.000000,4.000000,4.000000,4.000000,4.000000,4.000000,4.000000,4.000000,4.000000,4.000000,83.333336
1617697114.415845,26.000000,0.000000,1.631552,-0.134502,20.862419,-7.168784,-25.673519,11.646862,5.582351,5.757522,13.411233,0.132078,20.367807,7.372811,29.611204,58.250473,21.113396,36.757481,5.892510,29.801395,15.261487,19.095884,14.680118,15.941739,10.921235,13.609759,-5.056693,12.146621,0.314612,6.206948,6.474366,-6.993122,1.634517,24.098803,0.000000,225.000000,4.000000,,,,0.000000,4.000000,4.000000,4.000000,2.000000,4.000000,4.000000,4.000000,4.000000,4.000000,4.000000,4.000000,4.000000,4.000000,4.000000,4.000000,4.000000,4.000000,4.000000,4.000000,4.000000,4.000000,4.000000,4.000000,4.000000,4.000000,4.000000,4.000000,4.000000,4.000000,4.000000,4.000000,4.000000,83.333336
1617697114.423595,27.000000,0.000000,2.142740,-0.134367,16.738993,-8.187256,-23.596563,11.635215,5.576769,5.238944,12.372181,0.131946,19.834620,2.750053,22.914927,46.397350,12.887155,23.900211,4.860977,19.002363,7.553917,19.076788,-0.206357,10.284771,1.679545,12.057688,-8.641380,-0.173219,-7.890831,2.610997,1.852507,-12.627154,-3.495323,24.587524,0.000000,175.000000,4.000000,,,,0.000000,4.000000,4.000000,4.000000,2.000000,4.000000,4.000000,4.000000,4.000000,4.000000,4.000000,4.000000,4.000000,4.000000,4.000000,4.000000,4.000000,4.000000,4.000000,4.000000,4.000000,4.000000,4.000000,4.000000,4.000000,4.000000,4.000000,4.000000,4.000000,4.000000,4.000000,4.000000,4.000000,83.333336
1617697114.431444,28.000000,0.000000,2.653418,-0.134233,14.158151,-8.179069,-24.598608,12.649220,5.571192,5.233705,13.385450,-11.663058,11.609656,1.721662,10.071499,18.658646,0.566575,-0.226253,1.266372,-8.708946,-18.094662,6.750019,-17.642048,7.197564,-0.886238,11.532810,-18.889149,-3.762789,-13.523966,-0.981357,-5.328832,-15.178630,-4.517468,21.998835,0.000000,174.000000,4.000000,,,,0.000000,4.000000,4.000000,4.000000,2.000000,4.000000,4.000000,4.000000,4.000000,4.000000,4.000000,4.000000,4.000000,4.000000,4.000000,4.000000,4.000000,4.000000,4.000000,4.000000,4.000000,4.000000,4.000000,4.000000,4.000000,4.000000,4.000000,4.000000,4.000000,4.000000,4.000000,4.000000,4.000000,83.333336
1617697114.439193,29.000000,0.000000,0.599483,0.378722,12.605531,-7.658069,-32.266315,8.021187,6.078442,5.741291,12.859244,-29.087292,-3.786569,0.181479,0.830658,-3.411294,-18.921171,-25.354231,-10.016946,-41.007931,-47.820156,-25.564423,-38.137226,-6.142967,-1.910992,6.905892,-25.536926,-2.733385,-14.023263,-0.980376,-5.323503,-24.907042,-3.487310,5.053760,0.000000,223.000000,4.000000,,,,0.000000,4.000000,4.000000,4.000000,2.000000,4.000000,4.000000,4.000000,4.000000,4.000000,4.000000,4.000000,4.000000,4.000000,4.000000,4.000000,4.000000,4.000000,4.000000,4.000000,4.000000,4.000000,4.000000,4.000000,4.000000,4.000000,4.000000,4.000000,4.000000,4.000000,4.000000,4.000000,4.000000,83.333336
1617697114.446842,30.000000,0.000000,-1.452399,-0.134477,2.849336,-8.163232,-39.413536,1.346499,5.559543,5.735550,5.666898,-34.699230,-17.116116,-5.972548,-11.990685,-24.946344,-37.363789,-48.918621,-21.801800,-61.479740,-63.669773,-47.077320,-57.073448,-25.624004,-8.062927,-8.485629,-26.537031,-1.705011,-14.522059,-0.979395,0.322846,-21.292391,-3.996643,-3.156423,0.000000,220.000000,4.000000,,,,0.000000,4.000000,4.000000,4.000000,2.000000,4.000000,4.000000,4.000000,4.000000,4.000000,4.000000,4.000000,4.000000,4.000000,4.000000,4.000000,4.000000,4.000000,4.000000,4.000000,4.000000,4.000000,4.000000,4.000000,4.000000,4.000000,4.000000,4.000000,4.000000,4.000000,4.000000,4.000000,4.000000,83.333336
1617697114.454592,31.000000,0.000000,-1.963767,-0.134343,0.282384,-8.155068,-40.399765,-0.193309,6.066803,5.216994,2.584308,-34.151711,-19.150282,-4.940935,-20.696644,-33.639347,-33.736679,-56.562012,-19.728716,-55.264416,-52.324051,-29.594345,-47.272785,-18.418892,-3.952301,-22.836117,-22.920750,2.912079,-8.866512,-0.978416,2.373805,-2.809560,-4.505467,7.615964,0.000000,198.000000,4.000000,,,,0.000000,4.000000,4.000000,4.000000,2.000000,4.000000,4.000000,4.000000,4.000000,4.000000,4.000000,4.000000,4.000000,4.000000,4.000000,4.000000,4.000000,4.000000,4.000000,4.000000,4.000000,4.000000,4.000000,4.000000,4.000000,4.000000,4.000000,4.000000,4.000000,4.000000,4.000000,4.000000,4.000000,83.333336
1617697114.462241,32.000000,0.000000,-1.448982,0.378612,7.974409,-8.146914,-38.820904,1.345346,6.573557,5.211777,8.735569,-33.604740,-14.002926,3.781955,-3.752870,-13.092887,-8.574739,-31.890064,-3.298732,-24.952742,-19.451216,3.255761,-14.405000,10.317474,11.436267,-14.095333,-15.205522,4.447628,1.911585,2.099486,1.858611,-4.858032,-3.988141,11.198092,8064.000000,0.000000,4.000000,,,,0.000000,4.000000,4.000000,4.000000,2.000000,4.000000,4.000000,4.000000,4.000000,4.000000,4.000000,4.000000,4.000000,4.000000,4.000000,4.000000,4.000000,4.000000,4.000000,4.000000,4.000000,4.000000,4.000000,4.000000,4.000000,4.000000,4.000000,4.000000,4.000000,4.000000,4.000000,4.000000,4.000000,83.333336
1617697114.469991,33.000000,0.000000,-1.447533,-1.160228,4.376691,-8.138766,-39.807724,0.831180,1.951599,5.719386,13.342218,-27.417288,-10.912000,5.316634,16.250883,5.381744,10.921016,-2.114583,9.012259,-0.312404,6.209262,18.637121,12.276072,23.127670,15.527395,7.970045,-9.036469,1.366258,6.525058,0.558925,1.856752,-20.237789,-3.984153,2.981766,8064.000000,0.000000,4.000000,,,,0.000000,4.000000,4.000000,4.000000,2.000000,4.000000,4.000000,4.000000,4.000000,4.000000,4.000000,4.000000,4.000000,4.000000,4.000000,4.000000,4.000000,4.000000,4.000000,4.000000,4.000000,4.000000,4.000000,4.000000,4.000000,4.000000,4.000000,4.000000,4.000000,4.000000,4.000000,4.000000,4.000000,83.333336
1617697114.477640,34.000000,0.000000,-1.446086,-5.261632,-1.781532,-8.130628,-39.767914,0.317528,-4.204199,3.149564,13.328876,-21.748844,-10.388268,1.721574,12.132068,3.837901,13.474197,6.605480,5.926324,5.841754,10.818438,19.644125,14.827898,20.027620,10.896483,17.192844,-9.027433,0.852071,6.005713,-3.544199,2.367716,-23.294476,-3.980169,-0.098139,8064.000000,0.000000,4.000000,,,,0.000000,4.000000,4.000000,4.000000,2.000000,4.000000,4.000000,4.000000,4.000000,4.000000,4.000000,4.000000,4.000000,4.000000,4.000000,4.000000,4.000000,4.000000,4.000000,4.000000,4.000000,4.000000,4.000000,4.000000,4.000000,4.000000,4.000000,4.000000,4.000000,4.000000,4.000000,4.000000,4.000000,83.333336
1617697114.485389,35.000000,0.000000,-1.444640,-7.820473,3.348455,-7.609677,-38.702507,0.830031,-6.251276,-1.468970,10.751445,-25.316839,-11.403521,1.207032,4.940449,3.321243,12.947903,6.086054,1.817834,7.887195,12.858901,20.650122,13.787430,20.007591,10.372766,16.150009,-9.531226,1.364039,3.948425,-5.079116,2.878169,-19.681437,-3.976188,0.414780,8064.000000,0.000000,4.000000,,,,0.000000,4.000000,4.000000,4.000000,2.000000,4.000000,4.000000,4.000000,4.000000,4.000000,4.000000,4.000000,4.000000,4.000000,4.000000,4.000000,4.000000,4.000000,4.000000,4.000000,4.000000,4.000000,4.000000,4.000000,4.000000,4.000000,4.000000,4.000000,4.000000,4.000000,4.000000,4.000000,4.000000,83.333336
1617697114.493039,36.000000,0.000000,-1.443195,-7.299832,0.268183,-8.114887,-39.689445,0.829201,-5.219384,-3.005963,5.612488,-26.317163,-8.828014,1.718645,8.525251,7.420485,14.473416,7.105609,2.841657,8.904948,10.794760,20.629471,15.312103,18.449123,9.336752,16.646681,-11.572977,-2.227068,-3.235011,-7.638139,0.311188,-19.148935,-3.972212,2.465647,8064.000000,0.000000,4.000000,,,,0.000000,4.000000,4.000000,4.000000,2.000000,4.000000,4.000000,4.000000,4.000000,4.000000,4.000000,4.000000,4.000000,4.000000,4.000000,4.000000,4.000000,4.000000,4.000000,4.000000,4.000000,4.000000,4.000000,4.000000,4.000000,4.000000,4.000000,4.000000,4.000000,4.000000,4.000000,4.000000,4.000000,83.333336
1617697114.500788,37.000000,0.000000,-1.441752,-7.292532,-6.911572,-7.593952,-38.624115,1.341193,-5.214165,-0.438855,6.632517,-18.598539,-0.101238,2.229747,11.593650,16.643835,13.433302,7.611324,3.351636,9.921684,3.091657,21.634483,11.707047,13.302468,7.276134,14.065931,-19.253712,-6.327405,-9.898442,-12.245886,-4.304508,-23.232349,-3.968240,7.078566,8064.000000,0.000000,4.000000,,,,0.000000,4.000000,4.000000,4.000000,2.000000,4.000000,4.000000,4.000000,4.000000,4.000000,4.000000,4.000000,4.000000,4.000000,4.000000,4.000000,4.000000,4.000000,4.000000,4.000000,4.000000,4.000000,4.000000,4.000000,4.000000,4.000000,4.000000,4.000000,4.000000,4.000000,4.000000,4.000000,4.000000,83.333336
1617697114.508437,38.000000,0.000000,-1.440310,-7.285240,0.787647,-7.073538,-33.970104,1.339851,-5.208951,1.612866,15.343833,-13.964556,8.103992,6.842902,15.684620,33.037445,13.419868,9.654994,2.322643,7.860481,-3.578101,18.023106,1.438931,12.776345,6.756037,9.436481,-24.875484,-6.833899,-9.888544,-12.746460,-5.838665,-29.875784,-3.964272,2.968923,8064.000000,0.000000,4.000000,,,,0.000000,4.000000,4.000000,4.000000,2.000000,4.000000,4.000000,4.000000,4.000000,4.000000,4.000000,4.000000,4.000000,4.000000,4.000000,4.000000,4.000000,4.000000,4.000000,4.000000,4.000000,4.000000,4.000000,4.000000,4.000000,4.000000,4.000000,4.000000,4.000000,4.000000,4.000000,4.000000,4.000000,83.333336
1617697114.516187,39.000000,0.000000,-1.438870,-7.277955,5.915065,-10.656208,-30.859213,0.825691,-5.716562,1.611253,15.841310,-14.463412,9.121529,9.400162,19.771500,38.132614,11.355166,7.594058,1.807500,-7.019175,-22.548882,-0.456456,-12.408662,7.635364,1.621076,8.401403,-24.850609,-6.314244,-9.365835,-11.708073,-5.320006,-20.615139,-3.960308,-2.675071,8064.000000,0.000000,4.000000,,,,0.000000,4.000000,4.000000,4.000000,2.000000,4.000000,4.000000,4.000000,4.000000,4.000000,4.000000,4.000000,4.000000,4.000000,4.000000,4.000000,4.000000,4.000000,4.000000,4.000000,4.000000,4.000000,4.000000,4.000000,4.000000,4.000000,4.000000,4.000000,4.000000,4.000000,4.000000,4.000000,4.000000,83.333336
1617697114.523836,40.000000,0.000000,-1.437431,-7.270677,2.319406,-14.235295,-31.853994,1.337686,-4.685205,1.609642,10.184443,-13.936128,9.112408,8.877941,16.674805,25.273970,3.651504,-1.644306,1.805692,-23.422411,-42.526333,-17.379076,-23.165483,-0.577400,-0.431827,5.316079,-24.312937,-6.307930,-9.869289,-12.209186,-5.314686,-9.825294,-3.956347,3.994271,8064.000000,0.000000,4.000000,,,,0.000000,4.000000,4.000000,4.000000,2.000000,4.000000,4.000000,4.000000,4.000000,4.000000,4.000000,4.000000,4.000000,4.000000,4.000000,4.000000,4.000000,4.000000,4.000000,4.000000,4.000000,4.000000,4.000000,4.000000,4.000000,4.000000,4.000000,4.000000,4.000000,4.000000,4.000000,4.000000,4.000000,83.333336
1617697114.531586,41.000000,0.000000,-1.435994,-7.263406,3.855548,-12.682598,-31.822142,1.849169,-1.603596,2.120853,9.148618,-15.973474,8.077654,8.869063,13.068386,15.505105,-3.531635,-10.360610,2.316707,-27.501553,-46.586372,-19.925800,-31.347446,-3.653745,2.645527,0.695378,-24.801445,-6.814442,-9.859420,-10.145694,-5.822192,-22.635981,-3.952391,9.118482,8064.000000,0.000000,4.000000,,,,0.000000,4.000000,4.000000,4.000000,2.000000,4.000000,4.000000,4.000000,4.000000,4.000000,4.000000,4.000000,4.000000,4.000000,4.000000,4.000000,4.000000,4.000000,4.000000,4.000000,4.000000,4.000000,4.000000,4.000000,4.000000,4.000000,4.000000,4.000000,4.000000,4.000000,4.000000,4.000000,4.000000,83.333336
1617697114.539235,42.000000,0.000000,-1.434558,-7.256143,2.313231,-12.669915,-31.277498,-1.742424,-3.653275,0.067450,6.575366,-23.649809,0.890089,8.860194,13.055318,13.951138,-4.553745,-16.504095,1.288750,-31.576616,-50.129528,-22.469976,-44.136612,-6.214194,0.078779,0.181862,-25.289463,-6.807628,-10.875202,-8.084267,-5.303549,-30.305653,-3.948439,2.955517,8064.000000,0.000000,4.000000,,,,0.000000,4.000000,4.000000,4.000000,2.000000,4.000000,4.000000,4.000000,4.000000,4.000000,4.000000,4.000000,4.000000,4.000000,4.000000,4.000000,4.000000,4.000000,4.000000,4.000000,4.000000,4.000000,4.000000,4.000000,4.000000,4.000000,4.000000,4.000000,4.000000,4.000000,4.000000,4.000000,4.000000,83.333336
1617697114.546984,43.000000,0.000000,-1.433123,-7.248886,-5.381390,-17.785450,-33.297504,-6.356066,-8.777826,-2.496720,-1.123517,-27.215902,-4.751827,8.851334,13.042263,12.398726,-0.959447,-13.410668,0.774640,-25.904013,-43.412731,-15.780841,-42.554016,-6.720800,-0.946940,-1.869602,-24.751354,-5.775179,-8.813045,-8.076182,-4.785425,-12.839449,-3.944490,0.901279,8064.000000,0.000000,4.000000,,,,0.000000,4.000000,4.000000,4.000000,2.000000,4.000000,4.000000,4.000000,4.000000,4.000000,4.000000,4.000000,4.000000,4.000000,4.000000,4.000000,4.000000,4.000000,4.000000,4.000000,4.000000,4.000000,4.000000,4.000000,4.000000,4.000000,4.000000,4.000000,4.000000,4.000000,4.000000,4.000000,4.000000,83.333336
1617697114.554634,44.000000,0.000000,-1.431690,-7.241637,-3.837547,-18.793306,-35.828308,-6.862531,-9.794690,-2.494223,-2.660855,-25.650225,-2.695793,8.842483,13.542041,14.437610,8.785102,7.628383,5.389250,2.839839,-10.548806,8.337504,-18.408895,1.491049,9.310417,-3.406194,-23.188141,-5.769404,-5.727308,-8.068106,-5.806281,-3.083020,-3.940546,3.977301,8064.000000,0.000000,4.000000,,,,0.000000,4.000000,4.000000,4.000000,2.000000,4.000000,4.000000,4.000000,4.000000,4.000000,4.000000,4.000000,4.000000,4.000000,4.000000,4.000000,4.000000,4.000000,4.000000,4.000000,4.000000,4.000000,4.000000,4.000000,4.000000,4.000000,4.000000,4.000000,4.000000,4.000000,4.000000,4.000000,4.000000,83.333336
1617697114.562383,45.000000,0.000000,-1.430258,-7.747216,2.832958,-15.697590,-35.279659,-6.855668,-8.246433,-2.491729,-2.658194,-26.650215,-3.205917,8.320820,11.990037,14.935992,15.955804,20.441267,8.973604,15.657512,10.487384,22.175322,-4.031513,7.643404,12.890850,2.751059,-24.703415,-6.789276,-6.747222,-8.572858,-5.287654,-9.746604,-3.936605,3.973324,8064.000000,0.000000,4.000000,,,,0.000000,4.000000,4.000000,4.000000,2.000000,4.000000,4.000000,4.000000,4.000000,4.000000,4.000000,4.000000,4.000000,4.000000,4.000000,4.000000,4.000000,4.000000,4.000000,4.000000,4.000000,4.000000,4.000000,4.000000,4.000000,4.000000,4.000000,4.000000,4.000000,4.000000,4.000000,4.000000,4.000000,83.333336
1617697114.570032,46.000000,0.000000,-1.941649,-8.252290,5.907048,-15.169072,-35.244381,-7.874454,-9.263828,-3.002058,-3.168356,-27.649206,-5.253994,9.338140,9.413945,16.459518,14.914207,15.292621,8.964631,8.462367,13.553820,30.358274,4.177647,14.302427,10.826677,5.312410,-24.165890,-3.705563,-4.176373,-8.051465,-1.692623,-8.711216,-3.932668,6.020632,8064.000000,0.000000,4.000000,,,,0.000000,4.000000,4.000000,4.000000,2.000000,4.000000,4.000000,4.000000,4.000000,4.000000,4.000000,4.000000,4.000000,4.000000,4.000000,4.000000,4.000000,4.000000,4.000000,4.000000,4.000000,4.000000,4.000000,4.000000,4.000000,4.000000,4.000000,4.000000,4.000000,4.000000,4.000000,4.000000,4.000000,83.333336
1617697114.577782,47.000000,0.000000,-1.426886,-6.705575,6.413961,-13.615441,-35.721954,-1.712733,-9.767385,1.616329,5.552761,-19.929249,3.469209,11.892904,18.635300,33.366135,24.130062,28.610662,17.673615,26.915443,36.617188,54.430481,31.865776,33.262482,20.559441,12.486585,-15.936597,3.477629,7.622676,-3.428029,2.411634,-4.599941,-3.415915,11.142817,8064.000000,0.000000,4.000000,,,,0.000000,4.000000,4.000000,4.000000,2.000000,4.000000,4.000000,4.000000,4.000000,4.000000,4.000000,4.000000,4.000000,4.000000,4.000000,4.000000,4.000000,4.000000,4.000000,4.000000,4.000000,4.000000,4.000000,4.000000,4.000000,4.000000,4.000000,4.000000,4.000000,4.000000,4.000000,4.000000,4.000000,83.333336
1617697114.585431,48.000000,0.000000,0.625822,-4.647588,2.817804,-11.550544,-31.583670,7.006928,-5.655054,9.819841,15.290797,-11.704192,17.824715,12.906652,30.411537,49.743027,38.977726,52.171795,28.937992,47.914169,52.990829,65.658104,46.705708,46.562553,28.231188,35.551022,-9.253993,3.474152,13.768899,-0.347678,2.409223,-7.159443,-3.412499,9.593212,8064.000000,0.000000,4.000000,,,,0.000000,4.000000,4.000000,4.000000,2.000000,4.000000,4.000000,4.000000,4.000000,4.000000,4.000000,4.000000,4.000000,4.000000,4.000000,4.000000,4.000000,4.000000,4.000000,4.000000,4.000000,4.000000,4.000000,4.000000,4.000000,4.000000,4.000000,4.000000,4.000000,4.000000,4.000000,4.000000,4.000000,83.333336
1617697114.593280,49.000000,0.000000,2.676479,-3.104479,8.968832,-11.538993,-26.936701,9.051204,-2.059655,12.374124,17.839609,-10.666846,21.396633,12.893745,32.945229,51.744564,34.323364,41.863213,23.780849,31.455999,31.912195,47.130905,25.120539,34.721119,21.536291,45.259060,-14.885765,-5.247271,6.575643,-0.347330,1.381172,-10.229207,-4.434728,9.070799,8064.000000,0.000000,4.000000,,,,0.000000,4.000000,4.000000,4.000000,2.000000,4.000000,4.000000,4.000000,4.000000,4.000000,4.000000,4.000000,4.000000,4.000000,4.000000,4.000000,4.000000,4.000000,4.000000,4.000000,4.000000,4.000000,4.000000,4.000000,4.000000,4.000000,4.000000,4.000000,4.000000,4.000000,4.000000,4.000000,4.000000,83.333336
1617697114.601030,50.000000,0.000000,2.160982,3.052472,28.447042,-7.937711,-26.909765,13.144716,-0.519134,14.925852,22.949974,-6.553616,18.811134,12.880852,34.450745,51.692822,22.494169,20.282888,13.500659,10.911722,8.290540,28.109413,9.197982,15.712040,16.899370,26.239443,-21.537546,-5.754844,0.928042,1.704299,3.431073,-9.706158,-2.379011,15.728395,8064.000000,0.000000,4.000000,,,,0.000000,4.000000,4.000000,4.000000,2.000000,4.000000,4.000000,4.000000,4.000000,4.000000,4.000000,4.000000,4.000000,4.000000,4.000000,4.000000,4.000000,4.000000,4.000000,4.000000,4.000000,4.000000,4.000000,4.000000,4.000000,4.000000,4.000000,4.000000,4.000000,4.000000,4.000000,4.000000,4.000000,83.333336
1617697114.608879,51.000000,0.000000,2.158821,10.741727,33.033981,-3.827209,-27.395676,23.387981,2.045488,20.551952,27.542410,4.734989,20.843605,11.329510,33.903473,48.564205,18.881931,14.108759,12.974338,3.721323,-7.102365,11.158228,6.624682,6.978379,13.805547,15.443972,-19.464725,1.430398,2.465575,3.241056,5.478924,-8.157990,0.700291,19.815229,8064.000000,0.000000,4.000000,,,,0.000000,4.000000,4.000000,4.000000,2.000000,4.000000,4.000000,4.000000,4.000000,4.000000,4.000000,4.000000,4.000000,4.000000,4.000000,4.000000,4.000000,4.000000,4.000000,4.000000,4.000000,4.000000,4.000000,4.000000,4.000000,4.000000,4.000000,4.000000,4.000000,4.000000,4.000000,4.000000,4.000000,83.333336
1617697114.616628,52.000000,0.000000,2.669482,11.243806,18.129150,-3.823382,-26.342638,26.954338,6.146007,16.941656,23.412304,4.217434,18.258659,9.266898,23.100338,35.182308,9.632280,3.325419,9.884440,-12.692655,-30.685007,-12.955495,-13.381943,0.304734,5.073793,16.454168,-20.470901,-2.160776,0.924648,0.673713,5.986266,-13.278037,-1.864512,19.282595,8064.000000,0.000000,4.000000,,,,0.000000,4.000000,4.000000,4.000000,2.000000,4.000000,4.000000,4.000000,4.000000,4.000000,4.000000,4.000000,4.000000,4.000000,4.000000,4.000000,4.000000,4.000000,4.000000,4.000000,4.000000,4.000000,4.000000,4.000000,4.000000,4.000000,4.000000,4.000000,4.000000,4.000000,4.000000,4.000000,4.000000,83.333336
1617697114.624477,53.000000,0.000000,1.128351,7.642818,10.931535,-3.819558,-32.470142,15.645332,4.088579,5.129843,14.670942,-11.171399,6.958349,7.719170,13.846469,22.839432,-6.274787,-13.600983,-3.458778,-26.526115,-47.577400,-25.763052,-35.932663,-10.977622,0.966155,3.617202,-29.681200,-15.491949,-4.717302,-0.865422,5.467459,-25.059631,-9.554955,19.263311,8064.000000,0.000000,4.000000,,,,0.000000,4.000000,4.000000,4.000000,2.000000,4.000000,4.000000,4.000000,4.000000,4.000000,4.000000,4.000000,4.000000,4.000000,4.000000,4.000000,4.000000,4.000000,4.000000,4.000000,4.000000,4.000000,4.000000,4.000000,4.000000,4.000000,4.000000,4.000000,4.000000,4.000000,4.000000,4.000000,4.000000,83.333336
1617697114.632227,54.000000,0.000000,-1.436880,7.122355,11.433424,-4.328559,-45.258186,1.270712,-2.582177,-1.541954,1.835758,-23.467920,-4.330661,3.096066,7.165956,9.996079,-9.858256,-16.664305,-11.660447,-25.473949,-50.093925,-25.737289,-39.486473,-16.607670,1.990830,-12.796672,-36.831005,-18.553379,-7.276687,-1.890198,5.461991,-29.137135,-12.109503,14.628664,8064.000000,0.000000,4.000000,,,,0.000000,4.000000,4.000000,4.000000,2.000000,4.000000,4.000000,4.000000,4.000000,4.000000,4.000000,4.000000,4.000000,4.000000,4.000000,4.000000,4.000000,4.000000,4.000000,4.000000,4.000000,4.000000,4.000000,4.000000,4.000000,4.000000,4.000000,4.000000,4.000000,4.000000,4.000000,4.000000,4.000000,83.333336
1617697114.640076,55.000000,0.000000,-1.948263,7.628053,6.293786,-8.939615,-51.366772,-3.858763,-7.194979,-2.053232,-12.012232,-28.572657,-8.941715,-1.522415,-3.097620,-2.834429,-6.258655,-14.596359,-9.597505,-24.422834,-43.889984,-24.173090,-35.857243,-14.539781,1.988839,-13.296696,-35.255714,-12.893801,-5.730949,-3.939590,6.482171,-25.005434,-11.071753,7.947369,8064.000000,0.000000,4.000000,,,,0.000000,4.000000,4.000000,4.000000,2.000000,4.000000,4.000000,4.000000,4.000000,4.000000,4.000000,4.000000,4.000000,4.000000,4.000000,4.000000,4.000000,4.000000,4.000000,4.000000,4.000000,4.000000,4.000000,4.000000,4.000000,4.000000,4.000000,4.000000,4.000000,4.000000,4.000000,4.000000,4.000000,83.333336
1617697114.647825,56.000000,0.000000,-1.433494,7.107605,3.723389,-11.494779,-48.751305,-2.829264,-8.213425,-2.563999,-13.538681,-32.133827,-10.471234,-2.546534,-6.171446,-7.446980,-6.252396,-13.556122,-9.075087,-18.757385,-24.358915,-14.405328,-33.257286,-16.063702,2.499671,-9.693655,-34.194817,-13.906549,-5.725218,-4.961291,5.962868,-24.467607,-11.060680,10.503524,8064.000000,0.000000,4.000000,,,,0.000000,4.000000,4.000000,4.000000,2.000000,4.000000,4.000000,4.000000,4.000000,4.000000,4.000000,4.000000,4.000000,4.000000,4.000000,4.000000,4.000000,4.000000,4.000000,4.000000,4.000000,4.000000,4.000000,4.000000,4.000000,4.000000,4.000000,4.000000,4.000000,4.000000,4.000000,4.000000,4.000000,83.333336
1617697114.655675,57.000000,0.000000,-1.432061,7.100497,3.719666,-8.919181,-47.164089,-3.852075,-9.230853,-3.587076,-8.396936,-34.665798,-13.024866,-3.056808,-3.601172,-8.977994,-8.810246,-8.414360,-11.630115,-6.943756,-7.924299,1.506514,-29.121464,-12.457894,1.471530,-11.735244,-37.237545,-13.892642,-6.745134,-4.956330,4.931264,-23.417500,-11.562440,14.082764,8064.000000,0.000000,4.000000,,,,0.000000,4.000000,4.000000,4.000000,2.000000,4.000000,4.000000,4.000000,4.000000,4.000000,4.000000,4.000000,4.000000,4.000000,4.000000,4.000000,4.000000,4.000000,4.000000,4.000000,4.000000,4.000000,4.000000,4.000000,4.000000,4.000000,4.000000,4.000000,4.000000,4.000000,4.000000,4.000000,4.000000,83.333336
1617697114.663424,58.000000,0.000000,-1.430629,7.093397,4.741587,-7.884621,-46.604107,-4.361044,-10.247263,-2.557848,-6.850079,-34.631130,-7.370815,-1.515289,-1.033468,-3.327990,-3.160410,0.824823,-3.413356,4.858059,1.314394,17.915264,-14.733367,11.144307,3.521340,-11.210688,-30.533642,-2.083877,-2.123004,-3.925733,9.028897,-14.163313,-11.038057,15.607142,8064.000000,0.000000,4.000000,,,,0.000000,4.000000,4.000000,4.000000,2.000000,4.000000,4.000000,4.000000,4.000000,4.000000,4.000000,4.000000,4.000000,4.000000,4.000000,4.000000,4.000000,4.000000,4.000000,4.000000,4.000000,4.000000,4.000000,4.000000,4.000000,4.000000,4.000000,4.000000,4.000000,4.000000,4.000000,4.000000,4.000000,83.333336
1617697114.671273,59.000000,0.000000,-1.429198,7.599123,10.377871,-7.876736,-39.378014,0.771522,-9.211374,0.521633,-0.689382,-33.570858,4.431427,5.152893,8.711155,22.316364,13.765827,16.208614,15.051596,23.827560,22.338720,40.461452,12.460854,35.748547,15.825511,1.621036,-16.656954,6.636156,7.109888,-1.870525,14.148073,-4.405560,-11.027020,21.232561,8192.000000,0.000000,4.000000,,,,0.000000,4.000000,4.000000,4.000000,2.000000,4.000000,4.000000,4.000000,4.000000,4.000000,4.000000,4.000000,4.000000,4.000000,4.000000,4.000000,4.000000,4.000000,4.000000,4.000000,4.000000,4.000000,4.000000,4.000000,4.000000,4.000000,4.000000,4.000000,4.000000,4.000000,4.000000,4.000000,4.000000,83.333336
1617697114.679022,60.000000,0.000000,-1.427769,6.053063,11.905954,-5.304757,-30.107866,4.873315,-8.176522,1.546752,8.542076,-33.024467,8.529560,9.250304,19.471674,38.191483,24.521292,30.551380,22.728851,37.137066,38.213818,53.754322,29.371469,40.328182,22.476353,21.106594,-12.024913,2.014135,9.666881,-0.330193,7.467258,-4.401154,-11.015992,20.185688,8192.000000,0.000000,4.000000,,,,0.000000,4.000000,4.000000,4.000000,2.000000,4.000000,4.000000,4.000000,4.000000,4.000000,4.000000,4.000000,4.000000,4.000000,4.000000,4.000000,4.000000,4.000000,4.000000,4.000000,4.000000,4.000000,4.000000,4.000000,4.000000,4.000000,4.000000,4.000000,4.000000,4.000000,4.000000,4.000000,4.000000,83.333336
1617697114.686872,61.000000,0.000000,-1.426341,3.995728,12.406869,-3.760991,-26.488016,3.842801,-10.219627,0.519564,9.559175,-34.017082,8.521030,8.728233,20.990665,33.025085,21.932669,30.008007,20.654840,34.535828,31.508938,50.623646,28.829277,38.749393,18.351313,29.290615,-16.115452,-5.167367,9.144393,-0.842683,-5.360722,-15.678804,-11.517797,11.960374,8192.000000,0.000000,4.000000,,,,0.000000,4.000000,4.000000,4.000000,2.000000,4.000000,4.000000,4.000000,4.000000,4.000000,4.000000,4.000000,4.000000,4.000000,4.000000,4.000000,4.000000,4.000000,4.000000,4.000000,4.000000,4.000000,4.000000,4.000000,4.000000,4.000000,4.000000,4.000000,4.000000,4.000000,4.000000,4.000000,4.000000,83.333336
1617697114.694621,62.000000,0.000000,-1.424915,2.966091,22.138052,-3.757230,-26.461527,5.890240,-7.645306,5.647250,12.113719,-28.342041,15.691997,8.719505,24.046597,38.633087,19.346634,24.849794,21.147007,31.424368,26.349224,45.444817,29.826090,37.172184,18.332960,25.158760,-17.124977,-6.187840,9.648069,-0.841840,-7.406643,-24.381073,-10.993459,15.538157,8064.000000,0.000000,4.000000,,,,0.000000,4.000000,4.000000,4.000000,2.000000,4.000000,4.000000,4.000000,4.000000,4.000000,4.000000,4.000000,4.000000,4.000000,4.000000,4.000000,4.000000,4.000000,4.000000,4.000000,4.000000,4.000000,4.000000,4.000000,4.000000,4.000000,4.000000,4.000000,4.000000,4.000000,4.000000,4.000000,4.000000,83.333336
1617697114.702470,63.000000,0.000000,-1.423490,3.475945,33.910786,-1.702190,-22.332502,12.551016,4.157212,14.359551,22.870836,-11.390622,23.881433,11.787708,31.202038,53.466248,19.327286,22.773663,19.074577,20.110891,18.117746,33.604500,22.616776,21.750395,14.724884,25.133602,-16.082211,-6.181653,3.997396,-1.353819,-2.271031,-19.741308,-12.008106,25.779030,8064.000000,0.000000,4.000000,,,,0.000000,4.000000,4.000000,4.000000,2.000000,4.000000,4.000000,4.000000,4.000000,4.000000,4.000000,4.000000,4.000000,4.000000,4.000000,4.000000,4.000000,4.000000,4.000000,4.000000,4.000000,4.000000,4.000000,4.000000,4.000000,4.000000,4.000000,4.000000,4.000000,4.000000,4.000000,4.000000,4.000000,83.333336
1617697114.710219,64.000000,0.000000,-1.934887,3.472470,35.415337,-0.162027,-19.233246,16.128208,10.306900,17.422115,28.488991,1.441281,24.883192,13.314383,33.222118,50.848679,17.256678,14.032941,10.337554,-2.986142,-8.567039,5.365767,-3.046867,3.267106,-0.161635,22.031546,-16.066130,-6.688292,-8.827114,-0.839645,-2.268760,-13.054900,-11.483277,25.753250,0.000000,202.000000,4.000000,,,,0.000000,4.000000,4.000000,4.000000,2.000000,4.000000,4.000000,4.000000,4.000000,4.000000,4.000000,4.000000,4.000000,4.000000,4.000000,4.000000,4.000000,4.000000,4.000000,4.000000,4.000000,4.000000,4.000000,4.000000,4.000000,4.000000,4.000000,4.000000,4.000000,4.000000,4.000000,4.000000,4.000000,83.333336
1617697114.717869,65.000000,0.000000,-0.907311,3.468997,34.354279,-0.161864,-19.726833,16.112082,5.168388,15.866231,29.486143,0.414199,23.319847,12.788247,33.701717,42.592705,16.726601,5.813779,5.711832,-8.624182,-27.532829,-19.254982,-20.992538,-3.915648,-9.392243,5.086437,-16.562883,-6.681603,-15.997774,-0.838805,-4.317774,-14.067487,-6.856410,26.240318,0.000000,179.000000,4.000000,,,,0.000000,4.000000,4.000000,4.000000,2.000000,4.000000,4.000000,4.000000,4.000000,4.000000,4.000000,4.000000,4.000000,4.000000,4.000000,4.000000,4.000000,4.000000,4.000000,4.000000,4.000000,4.000000,4.000000,4.000000,4.000000,4.000000,4.000000,4.000000,4.000000,4.000000,4.000000,4.000000,4.000000,83.333336
1617697114.725618,66.000000,0.000000,-0.906404,3.465528,34.832745,-0.674523,-20.219927,15.070328,1.573476,17.388826,27.405375,-3.688779,23.809349,12.262639,30.078270,42.037289,15.684232,10.936171,4.680480,2.666494,-23.402733,-19.235727,-17.894623,-4.937374,-7.331569,-7.739162,-17.571962,-3.085178,-10.340751,-1.863607,2.866031,-10.463675,-3.772630,33.906384,0.000000,209.000000,4.000000,,,,0.000000,4.000000,4.000000,4.000000,2.000000,4.000000,4.000000,4.000000,4.000000,4.000000,4.000000,4.000000,4.000000,4.000000,4.000000,4.000000,4.000000,4.000000,4.000000,4.000000,4.000000,4.000000,4.000000,4.000000,4.000000,4.000000,4.000000,4.000000,4.000000,4.000000,4.000000,4.000000,4.000000,83.333336
1617697114.733268,67.000000,0.000000,-2.956779,2.949242,34.285091,-1.186669,-19.686888,15.568078,2.597544,14.807335,14.557456,-6.762014,20.708616,12.763197,25.432808,40.456791,16.181368,18.617542,7.239902,10.356135,-9.020356,-0.242133,-9.158779,4.811153,0.880891,-1.064756,-11.400543,4.097394,3.515743,0.702359,14.658037,-1.222442,0.333707,37.975044,0.000000,167.000000,4.000000,,,,0.000000,4.000000,4.000000,4.000000,2.000000,4.000000,4.000000,4.000000,4.000000,4.000000,4.000000,4.000000,4.000000,4.000000,4.000000,4.000000,4.000000,4.000000,4.000000,4.000000,4.000000,4.000000,4.000000,4.000000,4.000000,4.000000,4.000000,4.000000,4.000000,4.000000,4.000000,4.000000,4.000000,83.333336
1617697114.741017,68.000000,0.000000,1.661562,3.459113,34.763630,-0.159841,-20.180021,16.065331,2.594946,8.638681,2.235207,-18.550123,6.841753,11.724792,25.407375,32.724026,18.216469,22.188669,12.360867,16.499626,6.886100,24.886314,2.132431,29.421726,16.264626,8.679898,2.969831,9.221502,17.358381,8.393964,18.233122,3.394165,8.025681,37.424248,0.000000,127.000000,4.000000,,,,0.000000,4.000000,4.000000,4.000000,2.000000,4.000000,4.000000,4.000000,4.000000,4.000000,4.000000,4.000000,4.000000,4.000000,4.000000,4.000000,4.000000,4.000000,4.000000,4.000000,4.000000,4.000000,4.000000,4.000000,4.000000,4.000000,4.000000,4.000000,4.000000,4.000000,4.000000,4.000000,4.000000,83.333336
1617697114.748666,69.000000,0.000000,7.300926,3.455654,32.164761,-0.159682,-20.159842,13.997983,1.566710,5.040299,-1.356772,-29.300804,-15.216371,6.072042,14.612737,9.101559,7.429022,11.910069,11.322865,11.867741,8.417676,33.579376,13.412350,38.623074,25.991951,8.158398,6.556605,9.212280,20.417946,11.462493,16.163607,2.877950,11.607399,35.848362,0.000000,217.000000,4.000000,,,,0.000000,4.000000,4.000000,4.000000,2.000000,4.000000,4.000000,4.000000,4.000000,4.000000,4.000000,4.000000,4.000000,4.000000,4.000000,4.000000,4.000000,4.000000,4.000000,4.000000,4.000000,4.000000,4.000000,4.000000,4.000000,4.000000,4.000000,4.000000,4.000000,4.000000,4.000000,4.000000,4.000000,83.333336
1617697114.756416,70.000000,0.000000,-0.911503,1.400916,22.389008,-4.774907,-20.139681,6.804498,1.565144,0.419874,-8.534903,-30.297144,-33.149872,-3.164799,-8.991619,-23.215235,-14.629689,-17.845430,1.055132,-8.144127,-8.513819,19.699644,10.322015,23.199837,19.812113,7.637419,-0.629439,8.177427,16.807785,7.348467,16.660265,-1.740313,8.518868,30.171488,0.000000,209.000000,4.000000,,,,0.000000,4.000000,4.000000,4.000000,2.000000,4.000000,4.000000,4.000000,4.000000,4.000000,4.000000,4.000000,4.000000,4.000000,4.000000,4.000000,4.000000,4.000000,4.000000,4.000000,4.000000,4.000000,4.000000,4.000000,4.000000,4.000000,4.000000,4.000000,4.000000,4.000000,4.000000,4.000000,4.000000,83.333336
1617697114.764065,71.000000,0.000000,-8.602900,-0.138946,17.751234,-6.821414,-20.632362,2.182308,2.076399,-2.144648,-10.577650,-31.805309,-35.680824,-6.751378,-14.623653,-32.422791,-23.333008,-35.263481,-6.125411,-16.853931,-18.761715,5.833790,-5.585743,11.894585,14.151275,8.655422,-5.757014,9.707711,12.688413,6.315477,17.669245,-7.892418,6.971888,25.525930,0.000000,201.000000,4.000000,,,,0.000000,4.000000,4.000000,4.000000,2.000000,4.000000,4.000000,4.000000,4.000000,4.000000,4.000000,4.000000,4.000000,4.000000,4.000000,4.000000,4.000000,4.000000,4.000000,4.000000,4.000000,4.000000,4.000000,4.000000,4.000000,4.000000,4.000000,4.000000,4.000000,4.000000,4.000000,4.000000,4.000000,83.333336
1617697114.771814,72.000000,0.000000,-1.414809,2.425296,22.348867,-0.660746,-20.098909,6.795511,2.074323,6.575445,4.304723,-28.183760,-19.747707,-1.616422,-4.352620,-14.954469,-20.745573,-21.894886,-6.119285,-9.657590,-20.281416,4.289495,-23.016054,12.395511,13.111483,6.082664,-12.417924,7.646722,3.957776,7.334803,13.549012,-9.422988,7.990557,24.987585,0.000000,201.000000,4.000000,,,,0.000000,4.000000,4.000000,4.000000,2.000000,4.000000,4.000000,4.000000,4.000000,4.000000,4.000000,4.000000,4.000000,4.000000,4.000000,4.000000,4.000000,4.000000,4.000000,4.000000,4.000000,4.000000,4.000000,4.000000,4.000000,4.000000,4.000000,4.000000,4.000000,4.000000,4.000000,4.000000,4.000000,83.333336
1617697114.779464,73.000000,0.000000,3.201990,3.961332,26.429083,3.955299,-18.540348,12.942561,1.559428,17.850922,16.095289,-9.694037,1.810501,0.949297,2.318400,5.573306,-18.160725,-10.590940,-4.574704,-8.109471,-24.363697,3.259564,-33.762268,8.793372,7.457345,4.025300,-25.738840,-0.566053,-7.328233,3.737724,7.381617,-11.464847,5.931284,22.398495,0.000000,216.000000,4.000000,,,,0.000000,4.000000,4.000000,4.000000,2.000000,4.000000,4.000000,4.000000,4.000000,4.000000,4.000000,4.000000,4.000000,4.000000,4.000000,4.000000,4.000000,4.000000,4.000000,4.000000,4.000000,4.000000,4.000000,4.000000,4.000000,4.000000,4.000000,4.000000,4.000000,4.000000,4.000000,4.000000,4.000000,83.333336
