title:10, start timestamp:1613870460.807840, stop timestamp:1613870506.689547, headset type:EPOCFLEX, headset serial:F00001ED, headset firmware:f12, subject name:s02, channels:75, sampling rate:128, samples:5922      , version:2.0
Timestamp,EEG.Counter,EEG.Interpolated,EEG.Cz,EEG.Fz,EEG.Fp1,EEG.AF3,EEG.F7,EEG.F3,EEG.FC1,EEG.C3,EEG.FC5,EEG.T7,EEG.CP5,EEG.CP1,EEG.P3,EEG.P7,EEG.PO3,EEG.O1,EEG.Pz,EEG.Oz,EEG.O2,EEG.PO4,EEG.P8,EEG.P4,EEG.CP2,EEG.CP6,EEG.T8,EEG.FC6,EEG.C4,EEG.FC2,EEG.F4,EEG.F8,EEG.AF4,EEG.Fp2,EEG.HighBitFlex,EEG.RawCq,EEG.Battery,MarkerIndex,MarkerType,MarkerValueInt,EEG.MarkerHardware,CQ.Cz,CQ.Fz,CQ.Fp1,CQ.AF3,CQ.F7,CQ.F3,CQ.FC1,CQ.C3,CQ.FC5,CQ.T7,CQ.CP5,CQ.CP1,CQ.P3,CQ.P7,CQ.PO3,CQ.O1,CQ.Pz,CQ.Oz,CQ.O2,CQ.PO4,CQ.P8,CQ.P4,CQ.CP2,CQ.CP6,CQ.T8,CQ.FC6,CQ.C4,CQ.FC2,CQ.F4,CQ.F8,CQ.AF4,CQ.Fp2,CQ.Overall
1613870460.807840,85.000000,0.000000,5.618774,2.111188,11.815229,7.876629,-1.987643,10.969952,-4.800624,8.662653,7.260411,18.091570,24.644642,24.960438,32.590244,44.379738,30.751356,10.584134,24.973383,42.811127,45.194168,24.786831,54.052315,31.371405,21.217390,30.967354,23.433388,21.271057,5.163176,1.829495,11.625358,25.963634,18.531971,14.047455,0.000000,193.000000,4.000000,,,,0.000000,4.000000,4.000000,4.000000,4.000000,4.000000,4.000000,4.000000,4.000000,4.000000,4.000000,4.000000,4.000000,4.000000,4.000000,4.000000,4.000000,4.000000,4.000000,4.000000,2.000000,4.000000,4.000000,4.000000,4.000000,4.000000,4.000000,4.000000,4.000000,4.000000,4.000000,4.000000,4.000000,83.333336
1613870460.815689,86.000000,0.000000,5.613156,0.570615,9.752131,4.279009,-4.549757,7.882059,-4.795824,-1.602420,7.765971,9.868350,18.978971,23.909836,28.967911,32.027668,28.669323,10.060730,26.999693,39.691391,43.097691,29.377430,55.023907,34.929775,22.221813,39.654335,26.999697,21.762606,7.722115,1.827665,11.613732,32.604340,19.026258,15.571869,0.000000,189.000000,4.000000,,,,0.000000,4.000000,4.000000,4.000000,4.000000,4.000000,4.000000,4.000000,4.000000,4.000000,4.000000,4.000000,4.000000,4.000000,4.000000,4.000000,4.000000,4.000000,4.000000,4.000000,2.000000,4.000000,4.000000,4.000000,4.000000,4.000000,4.000000,4.000000,4.000000,4.000000,4.000000,4.000000,4.000000,83.333336
1613870460.823438,87.000000,0.000000,5.607543,-1.994058,8.203918,2.223448,-8.647772,3.771612,-4.791028,-4.164920,7.758205,12.935405,21.524096,24.398746,31.503044,31.482819,31.717577,11.589130,27.998333,38.113239,46.131516,26.783949,53.430420,36.433308,23.225233,41.153141,26.972698,22.253664,5.150290,1.825838,11.602118,23.340965,15.930309,10.428092,0.000000,196.000000,4.000000,,,,0.000000,4.000000,4.000000,4.000000,4.000000,4.000000,4.000000,4.000000,4.000000,4.000000,4.000000,4.000000,4.000000,4.000000,4.000000,4.000000,4.000000,4.000000,4.000000,4.000000,2.000000,4.000000,4.000000,4.000000,4.000000,4.000000,4.000000,4.000000,4.000000,4.000000,4.000000,4.000000,4.000000,83.333336
1613870460.831287,88.000000,0.000000,5.089115,-2.504885,3.580330,2.221225,-10.177586,2.742200,-4.786237,-3.135114,8.263268,12.922469,13.297442,22.835886,22.753593,25.297489,26.044834,-1.755792,26.431873,25.254612,33.264874,15.475115,34.915451,28.704567,18.586622,32.906860,20.791880,20.692949,4.632319,1.824012,9.539234,9.984290,11.298994,3.238176,0.000000,205.000000,4.000000,,,,0.000000,4.000000,4.000000,4.000000,4.000000,4.000000,4.000000,4.000000,4.000000,4.000000,4.000000,4.000000,4.000000,4.000000,4.000000,4.000000,4.000000,4.000000,4.000000,4.000000,2.000000,4.000000,4.000000,4.000000,4.000000,4.000000,4.000000,4.000000,4.000000,4.000000,4.000000,4.000000,4.000000,83.333336
1613870460.839036,89.000000,0.000000,5.596846,-2.502380,-3.602738,2.731824,-9.654588,3.252278,-4.781451,-8.773005,6.716542,7.781342,-4.151752,17.684845,3.756481,-2.420116,0.890583,-26.369421,17.174673,-5.539873,5.026479,9.305793,8.213868,12.778426,9.850087,16.976519,12.053138,11.954308,3.602046,1.822188,7.478413,8.948666,10.774875,2.722118,0.000000,198.000000,4.000000,,,,0.000000,4.000000,4.000000,4.000000,4.000000,4.000000,4.000000,4.000000,4.000000,4.000000,4.000000,4.000000,4.000000,4.000000,4.000000,4.000000,4.000000,4.000000,4.000000,4.000000,2.000000,4.000000,4.000000,4.000000,4.000000,4.000000,4.000000,4.000000,4.000000,4.000000,4.000000,4.000000,4.000000,83.333336
1613870460.846685,90.000000,0.000000,6.104070,-1.987057,-6.676058,0.164990,-9.644933,3.249026,-4.776669,-11.328334,2.607262,-1.970030,-8.762985,11.000493,-7.016507,-32.674107,-23.212872,-45.317410,7.413908,-22.970230,-11.901624,7.245205,-3.589217,-1.080506,6.763314,7.215952,8.964162,6.301327,1.547162,1.820366,7.983755,11.503819,11.276920,1.180934,0.000000,175.000000,4.000000,,,,0.000000,4.000000,4.000000,4.000000,4.000000,4.000000,4.000000,4.000000,4.000000,4.000000,4.000000,4.000000,4.000000,4.000000,4.000000,4.000000,4.000000,4.000000,4.000000,4.000000,2.000000,4.000000,4.000000,4.000000,4.000000,4.000000,4.000000,4.000000,4.000000,4.000000,4.000000,4.000000,4.000000,83.333336
1613870460.854435,91.000000,0.000000,3.021043,0.066212,-5.643741,-1.373637,-10.148108,2.732956,-4.771893,-11.317005,0.040552,-9.660367,-14.395247,5.348467,-19.830004,-51.102970,-40.112736,-64.246452,-0.285813,-28.588285,-19.069210,-12.249220,-17.944603,-14.412759,3.679628,4.131813,6.391095,8.859129,1.032794,1.818545,7.975771,9.441033,10.752823,-5.999734,0.000000,129.000000,4.000000,,,,0.000000,4.000000,4.000000,4.000000,4.000000,4.000000,4.000000,4.000000,4.000000,4.000000,4.000000,4.000000,4.000000,4.000000,4.000000,4.000000,4.000000,4.000000,4.000000,4.000000,2.000000,4.000000,4.000000,4.000000,4.000000,4.000000,4.000000,4.000000,4.000000,4.000000,4.000000,4.000000,4.000000,83.333336
1613870460.862084,92.000000,0.000000,-1.597363,1.604607,-5.638097,-0.859443,-10.137960,3.243044,-4.254300,-19.510817,-3.036412,-11.701989,-37.457775,-3.887650,-42.374275,-63.872379,-59.559803,-87.259125,-11.567578,-50.098160,-31.357832,-30.698509,-37.413837,-28.244499,-5.554821,-3.564626,-3.871706,8.337449,-3.583623,1.303906,7.967796,9.431592,10.742070,-9.583478,0.000000,189.000000,4.000000,,,,0.000000,4.000000,4.000000,4.000000,4.000000,4.000000,4.000000,4.000000,4.000000,4.000000,4.000000,4.000000,4.000000,4.000000,4.000000,4.000000,4.000000,4.000000,4.000000,4.000000,2.000000,4.000000,4.000000,4.000000,4.000000,4.000000,4.000000,4.000000,4.000000,4.000000,4.000000,4.000000,4.000000,83.333336
1613870460.869833,93.000000,0.000000,-2.621407,2.115824,-6.145280,-3.422686,-9.615002,3.239801,-5.788507,-25.645153,-6.623119,-17.844133,-46.138268,-14.140173,-50.024208,-67.398254,-61.038704,-88.197510,-20.273960,-58.253189,-36.967499,-16.821657,-29.171295,-29.754717,-8.626189,-10.740549,-0.278091,6.277830,-9.733886,3.353884,7.959828,10.447802,11.244148,-8.035433,0.000000,191.000000,4.000000,,,,0.000000,4.000000,4.000000,4.000000,4.000000,4.000000,4.000000,4.000000,4.000000,4.000000,4.000000,4.000000,4.000000,4.000000,4.000000,4.000000,4.000000,4.000000,4.000000,4.000000,2.000000,4.000000,4.000000,4.000000,4.000000,4.000000,4.000000,4.000000,4.000000,4.000000,4.000000,4.000000,4.000000,83.333336
1613870460.877482,94.000000,0.000000,-1.593144,1.600887,-5.626314,-4.957725,-9.605387,3.236561,-8.346822,-21.516943,-8.154958,-16.800648,-25.579308,-13.100391,-35.615211,-49.894955,-38.413563,-60.929825,-18.715225,-33.579552,-27.186943,-5.009963,-9.142124,-16.904449,-4.514999,-8.678526,12.542700,9.348475,-8.185690,5.914633,8.464688,10.950174,11.232904,-7.514577,0.000000,200.000000,4.000000,,,,0.000000,4.000000,4.000000,4.000000,4.000000,4.000000,4.000000,4.000000,4.000000,4.000000,4.000000,4.000000,4.000000,4.000000,4.000000,4.000000,4.000000,4.000000,4.000000,4.000000,2.000000,4.000000,4.000000,4.000000,4.000000,4.000000,4.000000,4.000000,4.000000,4.000000,4.000000,4.000000,4.000000,83.333336
1613870460.885231,95.000000,0.000000,-2.617192,1.599286,-5.620687,-2.901485,-10.108602,3.233325,-8.851295,-17.392862,-7.633982,-0.373591,-7.605010,-6.420625,-20.194981,-17.024548,-24.016174,-43.945820,-15.106766,-19.699818,-15.877705,-17.312645,-6.056059,-10.220879,-3.997663,-8.157027,4.837850,9.339127,-7.151863,4.370257,8.456223,10.426404,11.221672,-8.532703,0.000000,196.000000,4.000000,,,,0.000000,4.000000,4.000000,4.000000,4.000000,4.000000,4.000000,4.000000,4.000000,4.000000,4.000000,4.000000,4.000000,4.000000,4.000000,4.000000,4.000000,4.000000,4.000000,4.000000,2.000000,4.000000,4.000000,4.000000,4.000000,4.000000,4.000000,4.000000,4.000000,4.000000,4.000000,4.000000,4.000000,83.333336
1613870460.892880,96.000000,0.000000,-5.691498,2.110507,-5.615067,-2.385763,-8.560032,3.230091,-8.329623,-18.913931,-7.113527,7.319090,-4.520482,-6.414204,-7.354272,10.171964,-17.838312,-43.389053,-9.963453,-21.218580,-2.528494,-11.141486,3.693587,-10.210657,-4.506486,-9.174511,-2.346475,7.278505,-10.734455,1.801784,5.883665,9.903156,11.723270,-9.036991,8064.000000,0.000000,4.000000,,,,0.000000,4.000000,4.000000,4.000000,4.000000,4.000000,4.000000,4.000000,4.000000,4.000000,4.000000,4.000000,4.000000,4.000000,4.000000,4.000000,4.000000,4.000000,4.000000,4.000000,2.000000,4.000000,4.000000,4.000000,4.000000,4.000000,4.000000,4.000000,4.000000,4.000000,4.000000,4.000000,4.000000,83.333336
1613870460.900629,97.000000,0.000000,-5.685807,2.108397,-5.609452,-4.947480,-3.936087,3.226861,-8.321294,-18.895016,-4.542311,-1.406177,-4.515962,-3.330867,5.986415,20.418201,2.179526,-24.884125,0.815741,-3.248643,20.550957,21.690168,31.382200,0.568784,-1.425057,-1.985849,16.630230,7.271226,-7.133977,1.799982,4.339320,10.918895,10.173085,-7.489493,8064.000000,0.000000,4.000000,,,,0.000000,4.000000,4.000000,4.000000,4.000000,4.000000,4.000000,4.000000,4.000000,4.000000,4.000000,4.000000,4.000000,4.000000,4.000000,4.000000,4.000000,4.000000,4.000000,4.000000,2.000000,4.000000,4.000000,4.000000,4.000000,4.000000,4.000000,4.000000,4.000000,4.000000,4.000000,4.000000,4.000000,83.333336
1613870460.908279,98.000000,0.000000,-5.167300,-1.483455,-5.603842,-4.942532,-1.368049,3.223634,-8.312972,-17.850481,-3.512128,-1.917592,-2.460164,4.877592,11.621455,20.910604,20.126064,3.345887,9.020053,19.831530,36.940662,30.899246,44.684151,14.414369,0.627650,8.785367,19.690523,1.622930,-2.511458,0.259721,4.847801,9.369514,8.111630,-8.507645,8064.000000,0.000000,4.000000,,,,0.000000,4.000000,4.000000,4.000000,4.000000,4.000000,4.000000,4.000000,4.000000,4.000000,4.000000,4.000000,4.000000,4.000000,4.000000,4.000000,4.000000,4.000000,4.000000,4.000000,2.000000,4.000000,4.000000,4.000000,4.000000,4.000000,4.000000,4.000000,4.000000,4.000000,4.000000,4.000000,4.000000,83.333336
1613870460.916028,99.000000,0.000000,-7.213415,-5.584536,-6.111059,-4.937590,-2.392322,3.220411,-8.304660,-18.858271,-3.508616,5.263813,-1.432063,5.898355,12.122654,18.325592,20.618759,3.855362,9.011033,23.914261,35.365261,13.945271,35.921520,14.399955,0.114202,12.366325,-5.970193,-7.609462,-8.149973,-1.791821,1.766030,2.693478,7.077878,-14.140162,8064.000000,0.000000,4.000000,,,,0.000000,4.000000,4.000000,4.000000,4.000000,4.000000,4.000000,4.000000,4.000000,4.000000,4.000000,4.000000,4.000000,4.000000,4.000000,4.000000,4.000000,4.000000,4.000000,4.000000,2.000000,4.000000,4.000000,4.000000,4.000000,4.000000,4.000000,4.000000,4.000000,4.000000,4.000000,4.000000,4.000000,83.333336
1613870460.923677,100.000000,0.000000,-9.257483,-6.091772,-5.079307,-4.932652,-2.389929,3.217190,-7.783535,-17.813772,-1.453825,5.771370,-3.481912,3.841175,12.623352,13.691881,17.008396,-9.994647,9.514843,20.813423,25.073484,10.854403,26.654829,11.308632,-0.398733,10.302677,-15.707813,-6.063391,-14.808489,-1.790029,-2.851120,0.126682,7.583621,-15.151663,8064.000000,0.000000,4.000000,,,,0.000000,4.000000,4.000000,4.000000,4.000000,4.000000,4.000000,4.000000,4.000000,4.000000,4.000000,4.000000,4.000000,4.000000,4.000000,4.000000,4.000000,4.000000,4.000000,4.000000,2.000000,4.000000,4.000000,4.000000,4.000000,4.000000,4.000000,4.000000,4.000000,4.000000,4.000000,4.000000,4.000000,83.333336
1613870460.931426,101.000000,0.000000,-9.248226,-5.572859,-3.022946,-2.876437,-1.874719,3.213973,-8.288571,-13.693394,0.598911,4.739957,-3.478431,5.375795,9.020985,5.985882,13.401645,-16.138498,9.505327,11.049021,12.227899,19.561497,18.423046,8.220400,0.627307,8.753913,-4.922874,-0.416302,-14.280860,-2.301060,0.228654,4.229119,7.576037,-6.931383,8064.000000,0.000000,4.000000,,,,0.000000,4.000000,4.000000,4.000000,4.000000,4.000000,4.000000,4.000000,4.000000,4.000000,4.000000,4.000000,4.000000,4.000000,4.000000,4.000000,4.000000,4.000000,4.000000,4.000000,2.000000,4.000000,4.000000,4.000000,4.000000,4.000000,4.000000,4.000000,4.000000,4.000000,4.000000,4.000000,4.000000,83.333336
1613870460.939075,102.000000,0.000000,-9.238978,-5.567286,-1.481461,-2.360740,-2.385665,3.210759,-8.280283,-10.089957,0.598312,3.709576,-1.936491,5.883240,4.396579,-10.943181,0.054910,-28.430052,3.341976,-8.962029,-3.168944,8.772704,1.481546,-5.633975,-0.911782,4.642595,-1.841028,-0.415886,-13.240938,-1.785938,4.330989,7.301813,7.568461,-0.257785,8064.000000,0.000000,4.000000,,,,0.000000,4.000000,4.000000,4.000000,4.000000,4.000000,4.000000,4.000000,4.000000,4.000000,4.000000,4.000000,4.000000,4.000000,4.000000,4.000000,4.000000,4.000000,4.000000,4.000000,2.000000,4.000000,4.000000,4.000000,4.000000,4.000000,4.000000,4.000000,4.000000,4.000000,4.000000,4.000000,4.000000,83.333336
1613870460.946924,103.000000,0.000000,-9.229739,-6.074540,-1.992800,-4.409662,-2.383279,3.207548,-7.759182,-10.592688,-1.453569,1.141764,-8.088400,3.313255,1.315260,-33.496342,-20.457966,-46.350342,-4.353673,-21.260757,-15.473468,-14.825811,-18.519936,-21.525776,-5.013434,-3.054356,-2.352008,-0.415470,-14.253339,1.292771,4.326658,6.268870,7.560893,-0.257527,8064.000000,0.000000,4.000000,,,,0.000000,4.000000,4.000000,4.000000,4.000000,4.000000,4.000000,4.000000,4.000000,4.000000,4.000000,4.000000,4.000000,4.000000,4.000000,4.000000,4.000000,4.000000,4.000000,4.000000,2.000000,4.000000,4.000000,4.000000,4.000000,4.000000,4.000000,4.000000,4.000000,4.000000,4.000000,4.000000,4.000000,83.333336
1613870460.954673,104.000000,0.000000,-9.220510,-5.555645,-1.990807,-5.430893,-1.868075,3.717161,-8.777063,-10.582095,-3.503397,-2.961942,-22.952106,-5.920828,-9.968107,-46.796177,-35.309303,-55.534760,-9.990345,-22.777960,-23.150301,-18.400730,-31.834749,-26.632456,-8.085343,-7.666686,-0.298374,2.149048,-14.239085,0.265837,6.886434,6.262601,7.040511,-0.770090,8064.000000,0.000000,4.000000,,,,0.000000,4.000000,4.000000,4.000000,4.000000,4.000000,4.000000,4.000000,4.000000,4.000000,4.000000,4.000000,4.000000,4.000000,4.000000,4.000000,4.000000,4.000000,4.000000,4.000000,2.000000,4.000000,4.000000,4.000000,4.000000,4.000000,4.000000,4.000000,4.000000,4.000000,4.000000,4.000000,4.000000,83.333336
1613870460.962522,105.000000,0.000000,-9.211288,-6.062910,-1.988817,-4.912642,-3.404669,1.662162,-11.332389,-10.571512,-3.499894,-11.676929,-30.621462,-19.761061,-29.445318,-52.903229,-41.940659,-65.735634,-15.621381,-28.909027,-30.819460,-4.536175,-36.418301,-25.067362,-8.077258,-8.684660,-1.836537,3.685360,-14.224846,-1.272890,12.007752,6.256339,7.546291,-0.256500,8064.000000,0.000000,4.000000,,,,0.000000,4.000000,4.000000,4.000000,4.000000,4.000000,4.000000,4.000000,4.000000,4.000000,4.000000,4.000000,4.000000,4.000000,4.000000,4.000000,4.000000,4.000000,4.000000,4.000000,2.000000,4.000000,4.000000,4.000000,4.000000,4.000000,4.000000,4.000000,4.000000,4.000000,4.000000,4.000000,4.000000,83.333336
1613870460.970271,106.000000,0.000000,-9.202078,-5.544026,-1.986828,-4.907729,-5.452546,-0.903603,-12.346698,-13.125044,-3.496394,-18.844738,-29.565199,-22.818224,-39.159462,-60.542633,-46.514103,-82.080154,-18.682682,-40.162170,-34.891205,-5.044459,-37.407520,-24.016653,-7.556361,-10.727258,-1.834700,3.681675,-13.697801,0.779665,12.508566,7.275723,8.564385,0.256577,8064.000000,0.000000,4.000000,,,,0.000000,4.000000,4.000000,4.000000,4.000000,4.000000,4.000000,4.000000,4.000000,4.000000,4.000000,4.000000,4.000000,4.000000,4.000000,4.000000,4.000000,4.000000,4.000000,4.000000,2.000000,4.000000,4.000000,4.000000,4.000000,4.000000,4.000000,4.000000,4.000000,4.000000,4.000000,4.000000,4.000000,83.333336
1613870460.978120,107.000000,0.000000,-9.192875,-5.025661,-1.984841,-4.902821,-5.959914,-0.902699,-11.821530,-15.163200,-4.005718,-17.800253,-29.535635,-14.590277,-38.607483,-65.610298,-50.057335,-89.690384,-18.151178,-47.301495,-35.881954,-15.295825,-34.293190,-25.531097,-7.548804,-12.254992,0.218416,1.626711,-13.171283,0.266065,11.983236,7.781269,7.017360,-0.256500,8064.000000,0.000000,4.000000,,,,0.000000,4.000000,4.000000,4.000000,4.000000,4.000000,4.000000,4.000000,4.000000,4.000000,4.000000,4.000000,4.000000,4.000000,4.000000,4.000000,4.000000,4.000000,4.000000,4.000000,2.000000,4.000000,4.000000,4.000000,4.000000,4.000000,4.000000,4.000000,4.000000,4.000000,4.000000,4.000000,4.000000,83.333336
1613870460.985869,108.000000,0.000000,-9.183682,-6.559097,-2.495677,-6.949201,-8.518057,-0.388976,-11.809710,-14.122396,-3.488892,-19.320913,-30.531740,-14.575686,-38.568874,-66.057503,-48.981636,-87.036591,-17.620207,-46.741371,-30.717867,-7.588222,-18.874283,-24.479925,-8.054076,-11.217096,0.218198,0.086623,-14.696572,-1.272663,11.971253,5.209384,3.420599,-1.281884,7936.000000,0.000000,4.000000,,,,0.000000,4.000000,4.000000,4.000000,4.000000,4.000000,4.000000,4.000000,4.000000,4.000000,4.000000,4.000000,4.000000,4.000000,4.000000,4.000000,4.000000,4.000000,4.000000,4.000000,2.000000,4.000000,4.000000,4.000000,4.000000,4.000000,4.000000,4.000000,4.000000,4.000000,4.000000,4.000000,4.000000,83.333336
1613870460.993718,109.000000,0.000000,-9.174499,-5.014077,-1.980360,-7.967892,-9.022359,-1.414228,-12.310719,-16.159555,-3.485403,-22.891336,-28.962748,-15.586752,-38.530308,-66.504265,-47.907013,-86.436729,-17.089767,-39.002323,-13.764071,11.393725,7.811258,-9.583652,-8.046021,-12.744340,7.910287,2.650639,-12.117773,1.805533,10.933641,10.332380,7.006922,0.257859,7936.000000,0.000000,4.000000,,,,0.000000,4.000000,4.000000,4.000000,4.000000,4.000000,4.000000,4.000000,4.000000,4.000000,4.000000,4.000000,4.000000,4.000000,4.000000,4.000000,4.000000,4.000000,4.000000,4.000000,2.000000,4.000000,4.000000,4.000000,4.000000,4.000000,4.000000,4.000000,4.000000,4.000000,4.000000,4.000000,4.000000,83.333336
1613870461.001467,110.000000,0.000000,-9.165324,1.657604,0.072902,-3.857360,-5.936414,0.638468,-9.734306,-18.707499,-3.994738,-13.124856,-29.446604,-5.827575,-34.902031,-64.899300,-48.884747,-87.888756,-15.534216,-34.860756,0.608667,17.023357,26.777805,10.938753,-4.961053,-8.116211,22.261351,6.237732,-4.926168,5.906291,12.461169,24.168201,12.128120,2.308883,8064.000000,0.000000,4.000000,,,,0.000000,4.000000,4.000000,4.000000,4.000000,4.000000,4.000000,4.000000,4.000000,4.000000,4.000000,4.000000,4.000000,4.000000,4.000000,4.000000,4.000000,4.000000,4.000000,4.000000,2.000000,4.000000,4.000000,4.000000,4.000000,4.000000,4.000000,4.000000,4.000000,4.000000,4.000000,4.000000,4.000000,83.333336
1613870461.009316,111.000000,0.000000,-9.156159,6.271331,1.098470,-1.289400,-4.392015,5.253214,-8.186110,-17.663151,-3.477923,1.247243,-29.417158,-2.744824,-26.149181,-55.090813,-42.169197,-79.082924,-12.954578,-34.825897,1.120878,13.929411,22.135643,12.466276,-0.340707,4.712418,21.726269,7.769956,-2.357140,5.900385,10.910246,20.041470,3.910864,-2.821631,8064.000000,0.000000,4.000000,,,,0.000000,4.000000,4.000000,4.000000,4.000000,4.000000,4.000000,4.000000,4.000000,4.000000,4.000000,4.000000,4.000000,4.000000,4.000000,4.000000,4.000000,4.000000,4.000000,4.000000,2.000000,4.000000,4.000000,4.000000,4.000000,4.000000,4.000000,4.000000,4.000000,4.000000,4.000000,4.000000,4.000000,83.333336
1613870461.017065,112.000000,0.000000,-9.147003,5.752239,1.610192,-1.800932,1.766222,7.299243,-8.177925,-14.568564,-0.910342,5.861381,-22.208254,-3.767721,-13.815340,-31.958799,-26.229589,-55.926914,-6.787778,-29.150045,-0.931525,14.428302,9.805816,2.710220,0.172454,7.784628,7.858389,6.736545,-5.944526,5.381664,2.181387,0.534249,-7.375098,-8.972655,8064.000000,0.000000,4.000000,,,,0.000000,4.000000,4.000000,4.000000,4.000000,4.000000,4.000000,4.000000,4.000000,4.000000,4.000000,4.000000,4.000000,4.000000,4.000000,4.000000,4.000000,4.000000,4.000000,4.000000,2.000000,4.000000,4.000000,4.000000,4.000000,4.000000,4.000000,4.000000,4.000000,4.000000,4.000000,4.000000,4.000000,83.333336
1613870461.024914,113.000000,0.000000,-9.137856,5.233666,1.608582,-0.773490,13.046508,5.753482,-8.169746,-14.553996,0.116209,6.368340,-12.442455,3.415534,-4.057935,-9.362738,-15.946950,-32.794064,-1.652785,-19.890125,1.633510,15.952335,7.231907,3.733150,-0.340539,-3.505208,0.158223,2.627244,-6.964223,5.889103,-2.948999,-6.132952,-7.880544,-7.938042,8064.000000,0.000000,4.000000,,,,0.000000,4.000000,4.000000,4.000000,4.000000,4.000000,4.000000,4.000000,4.000000,4.000000,4.000000,4.000000,4.000000,4.000000,4.000000,4.000000,4.000000,4.000000,4.000000,4.000000,2.000000,4.000000,4.000000,4.000000,4.000000,4.000000,4.000000,4.000000,4.000000,4.000000,4.000000,4.000000,4.000000,83.333336
1613870461.032663,114.000000,0.000000,-9.128718,5.228433,0.581332,-2.311178,16.110384,7.286191,-8.161577,-14.539442,0.116093,9.438894,-9.353090,2.386478,-3.028236,-6.789272,-16.956644,-27.633066,-1.651132,-17.818953,-2.470688,14.397922,4.147752,1.165315,0.172622,-8.629908,1.183706,0.060514,-5.931618,5.370393,1.669334,-0.998614,-6.334202,-5.878821,8064.000000,0.000000,4.000000,,,,0.000000,4.000000,4.000000,4.000000,4.000000,4.000000,4.000000,4.000000,4.000000,4.000000,4.000000,4.000000,4.000000,4.000000,4.000000,4.000000,4.000000,4.000000,4.000000,4.000000,2.000000,4.000000,4.000000,4.000000,4.000000,4.000000,4.000000,4.000000,4.000000,4.000000,4.000000,4.000000,4.000000,83.333336
1613870461.040512,115.000000,0.000000,-7.068307,6.248845,4.683315,-0.770405,18.658377,13.432751,-8.153416,-12.473620,2.167259,8.403814,-10.882198,-3.769755,-4.563670,-14.987611,-18.478149,-32.220818,-3.700763,-20.365236,-12.724627,13.870703,-7.651267,-15.758927,-1.366012,-6.569995,0.669702,2.111736,-6.438507,5.365023,5.257409,0.540846,-7.353508,-0.744738,8064.000000,0.000000,4.000000,,,,0.000000,4.000000,4.000000,4.000000,4.000000,4.000000,4.000000,4.000000,4.000000,4.000000,4.000000,4.000000,4.000000,4.000000,4.000000,4.000000,4.000000,4.000000,4.000000,4.000000,2.000000,4.000000,4.000000,4.000000,4.000000,4.000000,4.000000,4.000000,4.000000,4.000000,4.000000,4.000000,4.000000,83.333336
1613870461.048261,116.000000,0.000000,-5.522778,8.806699,15.447863,12.563699,32.485870,19.573164,-6.093980,-10.409864,7.293297,9.421052,-9.845675,-1.201883,-1.482183,-15.485444,-16.408388,-34.752697,-5.235524,-19.832050,-17.840109,13.856833,-15.335924,-25.999578,-3.928748,-9.640348,-0.869429,3.648086,-6.432068,5.359658,3.713690,1.053126,-3.756412,9.512418,8064.000000,0.000000,4.000000,,,,0.000000,4.000000,4.000000,4.000000,4.000000,4.000000,4.000000,4.000000,4.000000,4.000000,4.000000,4.000000,4.000000,4.000000,4.000000,4.000000,4.000000,4.000000,4.000000,4.000000,2.000000,4.000000,4.000000,4.000000,4.000000,4.000000,4.000000,4.000000,4.000000,4.000000,4.000000,4.000000,4.000000,83.333336
1613870461.056110,117.000000,0.000000,-5.517254,9.310713,21.073441,20.756264,38.094410,22.117693,-4.036604,-10.399455,10.875747,10.950092,-10.861470,-1.200681,-5.583265,-21.110985,-19.468904,-42.410255,-9.332852,-18.273758,-15.770986,14.868616,-13.269306,-21.358194,-3.924820,-12.194811,0.157081,3.131617,-6.425636,5.354298,3.709976,3.103354,0.349909,13.092649,8064.000000,0.000000,4.000000,,,,0.000000,4.000000,4.000000,4.000000,4.000000,4.000000,4.000000,4.000000,4.000000,4.000000,4.000000,4.000000,4.000000,4.000000,4.000000,4.000000,4.000000,4.000000,4.000000,4.000000,2.000000,4.000000,4.000000,4.000000,4.000000,4.000000,4.000000,4.000000,4.000000,4.000000,4.000000,4.000000,4.000000,83.333336
1613870461.063860,118.000000,0.000000,-5.511737,8.788582,18.488264,14.068840,29.851189,21.582756,-4.545388,-10.901875,10.864871,4.272476,-13.927532,-8.378967,-20.962297,-39.038589,-33.295589,-63.393486,-13.938905,-25.434971,-15.755215,13.828107,-13.768857,-20.824017,-3.920895,-11.669795,0.669745,3.128485,-6.419210,5.348944,4.731907,3.100251,0.862380,8.464171,8064.000000,0.000000,4.000000,,,,0.000000,4.000000,4.000000,4.000000,4.000000,4.000000,4.000000,4.000000,4.000000,4.000000,4.000000,4.000000,4.000000,4.000000,4.000000,4.000000,4.000000,4.000000,4.000000,4.000000,2.000000,4.000000,4.000000,4.000000,4.000000,4.000000,4.000000,4.000000,4.000000,4.000000,4.000000,4.000000,4.000000,83.333336
1613870461.071509,119.000000,0.000000,-4.993405,9.292613,15.905674,8.413746,25.205954,18.484249,-4.540843,-10.378154,8.289904,-6.501028,-14.939246,-6.832127,-28.633642,-49.768784,-46.082806,-82.304451,-14.437786,-36.178768,-17.277922,12.788638,-13.755088,-18.751909,-3.916974,-12.683766,-4.459130,2.099716,-6.412791,5.343595,4.727175,3.609971,0.348697,5.891604,8064.000000,0.000000,4.000000,,,,0.000000,4.000000,4.000000,4.000000,4.000000,4.000000,4.000000,4.000000,4.000000,4.000000,4.000000,4.000000,4.000000,4.000000,4.000000,4.000000,4.000000,4.000000,4.000000,4.000000,2.000000,4.000000,4.000000,4.000000,4.000000,4.000000,4.000000,4.000000,4.000000,4.000000,4.000000,4.000000,4.000000,83.333336
1613870461.079258,120.000000,0.000000,-6.014053,8.257680,16.402588,9.943793,26.719208,14.363201,-4.536302,-10.880596,7.255973,-8.545809,-14.411486,-1.184269,-22.963984,-50.744656,-43.985439,-83.247787,-9.295143,-32.552845,-12.132439,17.904055,-5.023384,-5.912645,-1.861775,-10.619801,-5.993133,-0.466486,-6.406378,5.338252,4.722448,3.606361,0.348348,6.911354,8064.000000,0.000000,4.000000,,,,0.000000,4.000000,4.000000,4.000000,4.000000,4.000000,4.000000,4.000000,4.000000,4.000000,4.000000,4.000000,4.000000,4.000000,4.000000,4.000000,4.000000,4.000000,4.000000,4.000000,2.000000,4.000000,4.000000,4.000000,4.000000,4.000000,4.000000,4.000000,4.000000,4.000000,4.000000,4.000000,4.000000,83.333336
1613870461.086907,121.000000,0.000000,-4.469577,5.685319,16.386187,9.933850,26.692490,13.323196,-4.531765,-10.869716,7.248717,-4.434699,-14.397075,-1.183085,-18.325634,-52.745193,-33.172226,-72.395309,-4.157643,-20.725420,-1.351075,23.527176,3.186767,3.324037,-0.321452,-3.429694,2.730809,-1.491661,-6.399972,5.332913,2.153623,3.089935,0.348000,6.391622,8064.000000,0.000000,4.000000,,,,0.000000,4.000000,4.000000,4.000000,4.000000,4.000000,4.000000,4.000000,4.000000,4.000000,4.000000,4.000000,4.000000,4.000000,4.000000,4.000000,4.000000,4.000000,4.000000,4.000000,2.000000,4.000000,4.000000,4.000000,4.000000,4.000000,4.000000,4.000000,4.000000,4.000000,4.000000,4.000000,4.000000,83.333336
1613870461.094656,122.000000,0.000000,0.150277,4.653993,15.344158,8.898275,25.640156,13.822694,-4.527234,-10.858846,7.241468,-0.840520,-14.895498,0.356560,-15.230386,-47.564243,-21.857000,-55.399834,-0.563742,-16.602131,6.855404,17.349802,1.132298,2.295072,0.191690,0.163479,7.856284,-1.490169,-6.393572,5.327580,0.100187,3.599665,0.347652,5.872410,8064.000000,0.000000,4.000000,,,,0.000000,4.000000,4.000000,4.000000,4.000000,4.000000,4.000000,4.000000,4.000000,4.000000,4.000000,4.000000,4.000000,4.000000,4.000000,4.000000,4.000000,4.000000,4.000000,4.000000,2.000000,4.000000,4.000000,4.000000,4.000000,4.000000,4.000000,4.000000,4.000000,4.000000,4.000000,4.000000,4.000000,83.333336
1613870461.102305,123.000000,0.000000,2.714229,5.162160,15.328815,8.889377,24.588875,13.296051,-4.522707,-10.847987,7.234227,0.185961,-12.829320,2.407485,-4.445924,-29.055140,-10.553093,-34.831615,3.539386,-9.918861,10.438293,13.229889,0.618346,2.805597,-0.834142,-0.349505,8.361248,0.562603,-6.387178,5.835073,0.612908,3.083245,0.347304,6.379358,8064.000000,0.000000,4.000000,,,,0.000000,4.000000,4.000000,4.000000,4.000000,4.000000,4.000000,4.000000,4.000000,4.000000,4.000000,4.000000,4.000000,4.000000,4.000000,4.000000,4.000000,4.000000,4.000000,4.000000,2.000000,4.000000,4.000000,4.000000,4.000000,4.000000,4.000000,4.000000,4.000000,4.000000,4.000000,4.000000,4.000000,83.333336
1613870461.110054,124.000000,0.000000,1.685874,5.156998,15.826306,9.393308,22.513004,13.282755,-4.518184,-10.324318,7.226993,1.211416,-8.713927,2.917898,4.276470,-6.461982,-0.798950,-19.924990,5.587129,4.962852,12.479136,26.549992,12.412600,6.392535,0.192333,3.753409,7.327246,-0.463601,-5.867970,3.777956,-1.951808,0.516059,-0.165864,6.372979,8064.000000,0.000000,4.000000,,,,0.000000,4.000000,4.000000,4.000000,4.000000,4.000000,4.000000,4.000000,4.000000,4.000000,4.000000,4.000000,4.000000,4.000000,4.000000,4.000000,4.000000,4.000000,4.000000,4.000000,2.000000,4.000000,4.000000,4.000000,4.000000,4.000000,4.000000,4.000000,4.000000,4.000000,4.000000,4.000000,4.000000,83.333336
1613870461.117703,125.000000,0.000000,1.684188,5.151841,15.810480,9.383915,22.490490,13.782292,-4.513666,-10.826815,7.219766,6.338410,-6.141110,4.966262,4.272193,12.006018,1.253131,-15.802500,5.581542,9.060453,11.441016,33.702930,23.682238,6.898963,2.243423,8.877861,-4.987774,-3.540060,-6.374923,1.722896,-3.488318,-0.510098,0.859943,6.366606,8064.000000,0.000000,4.000000,,,,0.000000,4.000000,4.000000,4.000000,4.000000,4.000000,4.000000,4.000000,4.000000,4.000000,4.000000,4.000000,4.000000,4.000000,4.000000,4.000000,4.000000,4.000000,4.000000,4.000000,2.000000,4.000000,4.000000,4.000000,4.000000,4.000000,4.000000,4.000000,4.000000,4.000000,4.000000,4.000000,4.000000,83.333336
1613870461.125453,126.000000,0.000000,2.195325,5.146689,15.794669,9.374531,22.468000,13.768510,-4.509152,-10.815988,7.212546,7.870533,-6.647790,5.986938,3.242280,16.096577,0.739057,-16.812338,4.550319,5.974470,11.429575,20.848713,24.684196,5.866423,3.266820,7.843342,-15.239197,6.207070,-6.368548,1.208353,2.156196,-0.509588,3.423186,6.360239,8064.000000,0.000000,4.000000,,,,0.000000,4.000000,4.000000,4.000000,4.000000,4.000000,4.000000,4.000000,4.000000,4.000000,4.000000,4.000000,4.000000,4.000000,4.000000,4.000000,4.000000,4.000000,4.000000,4.000000,2.000000,4.000000,4.000000,4.000000,4.000000,4.000000,4.000000,4.000000,4.000000,4.000000,4.000000,4.000000,4.000000,83.333336
1613870461.133102,127.000000,0.000000,1.680309,5.141542,14.753234,8.852336,21.932713,13.754742,-4.504642,-8.753889,7.205333,7.862662,-7.153963,5.980950,4.264679,9.926634,2.789600,-17.308346,5.058589,9.045419,11.930966,12.109916,25.172333,4.834916,3.776374,6.297037,0.160658,19.021376,-5.849359,1.719965,7.795066,-0.509078,4.445404,6.353879,8064.000000,0.000000,4.000000,,,,0.000000,4.000000,4.000000,4.000000,4.000000,4.000000,4.000000,4.000000,4.000000,4.000000,4.000000,4.000000,4.000000,4.000000,4.000000,4.000000,4.000000,4.000000,4.000000,4.000000,2.000000,4.000000,4.000000,4.000000,4.000000,4.000000,4.000000,4.000000,4.000000,4.000000,4.000000,4.000000,4.000000,83.333336
1613870461.140851,0.000000,0.000000,1.678628,5.136401,15.764121,9.869124,22.423599,14.253807,-4.500138,-6.693853,7.198128,9.906082,-5.095527,5.462149,1.183491,4.788502,-5.418318,-23.957705,5.053531,0.831245,-1.414298,15.174729,22.070238,2.265978,3.772598,8.342022,14.519472,9.771585,-7.381971,1.718245,8.812912,-0.508569,3.928138,6.860345,0.000000,207.000000,4.000000,,,,0.000000,4.000000,4.000000,4.000000,4.000000,4.000000,4.000000,4.000000,4.000000,4.000000,4.000000,4.000000,4.000000,4.000000,4.000000,4.000000,4.000000,4.000000,4.000000,4.000000,2.000000,4.000000,4.000000,4.000000,4.000000,4.000000,4.000000,4.000000,4.000000,4.000000,4.000000,4.000000,4.000000,83.333336
1613870461.148500,1.000000,0.000000,1.676950,5.131264,16.773998,9.859255,21.375536,12.188272,-4.495638,-8.738441,7.190930,-3.949978,-12.269918,0.841302,-9.074102,-9.062441,-23.361618,-41.369644,0.945913,-24.297792,-24.489807,7.980067,4.612270,-4.915775,0.691902,5.256757,1.684440,-3.571520,-11.989974,1.716527,7.778458,-1.020881,3.924210,5.827844,0.000000,190.000000,4.000000,,,,0.000000,4.000000,4.000000,4.000000,4.000000,4.000000,4.000000,4.000000,4.000000,4.000000,4.000000,4.000000,4.000000,4.000000,4.000000,4.000000,4.000000,4.000000,4.000000,4.000000,2.000000,4.000000,4.000000,4.000000,4.000000,4.000000,4.000000,4.000000,4.000000,4.000000,4.000000,4.000000,4.000000,83.333336
1613870461.156249,2.000000,0.000000,1.675273,5.126133,11.629019,5.746832,15.200314,8.073520,-4.491142,-11.293806,5.132457,-25.484489,-26.616623,-5.313385,-18.808619,-31.104660,-31.543385,-60.815453,-5.208879,-41.196571,-38.824291,-3.822784,-12.828239,-14.141628,-3.924175,-8.081833,-12.676219,2.585897,-14.029266,1.714810,6.745038,-4.609604,3.920285,3.257914,0.000000,179.000000,4.000000,,,,0.000000,4.000000,4.000000,4.000000,4.000000,4.000000,4.000000,4.000000,4.000000,4.000000,4.000000,4.000000,4.000000,4.000000,4.000000,4.000000,4.000000,4.000000,4.000000,4.000000,2.000000,4.000000,4.000000,4.000000,4.000000,4.000000,4.000000,4.000000,4.000000,4.000000,4.000000,4.000000,4.000000,83.333336
1613870461.163898,3.000000,0.000000,1.160777,5.121006,8.540467,7.279547,10.056908,6.014163,-4.486651,-10.769691,3.076042,-19.305159,-28.128468,-6.333713,-20.841091,-39.791504,-30.486200,-70.498230,-8.793413,-43.719475,-39.811108,-5.357423,-15.892335,-18.742872,-4.433071,-16.791700,-12.150723,7.711517,-10.938313,1.713095,3.661370,-5.630635,3.916365,2.229015,0.000000,188.000000,4.000000,,,,0.000000,4.000000,4.000000,4.000000,4.000000,4.000000,4.000000,4.000000,4.000000,4.000000,4.000000,4.000000,4.000000,4.000000,4.000000,4.000000,4.000000,4.000000,4.000000,4.000000,2.000000,4.000000,4.000000,4.000000,4.000000,4.000000,4.000000,4.000000,4.000000,4.000000,4.000000,4.000000,4.000000,83.333336
1613870461.171647,4.000000,0.000000,2.185257,5.115886,15.711413,14.451755,15.175056,6.008150,-4.482164,-8.707640,3.072966,3.278249,-19.895210,-3.763277,-18.256147,-38.213253,-31.481354,-69.914909,-5.194877,-43.162937,-30.540527,-5.352066,-14.337981,-16.160027,-4.941459,-8.056960,-9.061648,4.626882,-9.388914,1.198562,3.144888,1.041662,3.399628,2.739606,0.000000,187.000000,4.000000,,,,0.000000,4.000000,4.000000,4.000000,4.000000,4.000000,4.000000,4.000000,4.000000,4.000000,4.000000,4.000000,4.000000,4.000000,4.000000,4.000000,4.000000,4.000000,4.000000,4.000000,2.000000,4.000000,4.000000,4.000000,4.000000,4.000000,4.000000,4.000000,4.000000,4.000000,4.000000,4.000000,4.000000,83.333336
1613870461.179297,5.000000,0.000000,4.234354,5.110770,19.285446,12.898841,21.826548,6.002141,-4.477682,-7.160470,3.069893,8.915997,-19.362495,2.907153,-15.160969,-39.713501,-26.321669,-69.844994,4.041088,-33.889004,-11.022808,-3.295432,-13.298002,-7.938738,-4.423697,-0.356595,-11.103869,3.083794,-10.405166,1.710184,5.193026,0.527800,3.396229,2.224046,0.000000,202.000000,4.000000,,,,0.000000,4.000000,4.000000,4.000000,4.000000,4.000000,4.000000,4.000000,4.000000,4.000000,4.000000,4.000000,4.000000,4.000000,4.000000,4.000000,4.000000,4.000000,4.000000,4.000000,2.000000,4.000000,4.000000,4.000000,4.000000,4.000000,4.000000,4.000000,4.000000,4.000000,4.000000,4.000000,4.000000,83.333336
1613870461.187046,6.000000,0.000000,5.255761,5.105659,14.137956,5.706455,20.779079,5.996139,-4.473205,-3.050746,3.066823,6.342978,-16.779030,11.109374,-7.966321,-36.084042,-13.987654,-67.723869,10.703713,-17.444859,3.347189,13.630940,-9.694961,0.787150,3.273035,-6.510085,-13.656868,-7.688521,-10.394761,1.195653,1.598089,-7.165036,3.905653,-0.342280,0.000000,206.000000,4.000000,,,,0.000000,4.000000,4.000000,4.000000,4.000000,4.000000,4.000000,4.000000,4.000000,4.000000,4.000000,4.000000,4.000000,4.000000,4.000000,4.000000,4.000000,4.000000,4.000000,4.000000,2.000000,4.000000,4.000000,4.000000,4.000000,4.000000,4.000000,4.000000,4.000000,4.000000,4.000000,4.000000,4.000000,83.333336
1613870461.194695,7.000000,0.000000,5.763326,5.100554,11.559715,4.162287,18.194199,5.990143,-5.494372,0.542048,5.627859,6.849455,-10.095585,13.149547,3.836518,-26.304369,-1.665974,-52.784348,11.718651,-9.735106,4.369483,33.617310,2.109607,7.965850,10.449249,-7.016395,-5.950903,-13.834679,-8.333084,1.194457,-3.531714,-4.080947,3.388927,-1.367579,0.000000,177.000000,4.000000,,,,0.000000,4.000000,4.000000,4.000000,4.000000,4.000000,4.000000,4.000000,4.000000,4.000000,4.000000,4.000000,4.000000,4.000000,4.000000,4.000000,4.000000,4.000000,4.000000,4.000000,2.000000,4.000000,4.000000,4.000000,4.000000,4.000000,4.000000,4.000000,4.000000,4.000000,4.000000,4.000000,4.000000,83.333336
1613870461.202544,8.000000,0.000000,7.808844,5.095453,11.548155,6.209407,21.252928,5.984153,-3.950417,0.541506,6.647872,7.355426,-7.008566,13.136397,12.550630,-16.021654,10.130564,-31.193104,16.835136,-12.289474,3.852293,33.583691,22.620317,15.650191,11.977262,6.323955,13.542227,2.589413,-5.760648,4.270186,1.600022,7.718005,3.385538,2.223532,0.000000,208.000000,4.000000,,,,0.000000,4.000000,4.000000,4.000000,4.000000,4.000000,4.000000,4.000000,4.000000,4.000000,4.000000,4.000000,4.000000,4.000000,4.000000,4.000000,4.000000,4.000000,4.000000,4.000000,2.000000,4.000000,4.000000,4.000000,4.000000,4.000000,4.000000,4.000000,4.000000,4.000000,4.000000,4.000000,4.000000,83.333336
1613870461.210293,9.000000,0.000000,9.339497,4.577537,13.075068,7.741659,26.359880,9.055092,-1.895184,0.028144,8.692507,19.655764,1.203571,15.687364,15.102181,6.558470,16.274279,-16.802937,22.459328,-12.790005,4.874082,21.755238,35.931030,18.711464,13.503745,16.061220,24.297916,17.971439,-6.267708,8.368480,13.393294,12.325672,9.023178,7.862334,0.000000,198.000000,4.000000,,,,0.000000,4.000000,4.000000,4.000000,4.000000,4.000000,4.000000,4.000000,4.000000,4.000000,4.000000,4.000000,4.000000,4.000000,4.000000,4.000000,4.000000,4.000000,4.000000,4.000000,2.000000,4.000000,4.000000,4.000000,4.000000,4.000000,4.000000,4.000000,4.000000,4.000000,4.000000,4.000000,4.000000,83.333336
1613870461.218142,10.000000,0.000000,8.817337,5.085780,19.215839,11.323661,28.384802,13.661422,-1.380468,0.028116,14.837660,38.097645,18.125444,16.184496,16.625542,33.731400,15.232365,-7.555364,19.872766,0.556118,3.843567,17.630919,36.407921,14.077369,12.977421,15.019518,23.247976,15.902185,-6.261440,9.385753,16.456823,14.877449,15.168001,10.418574,0.000000,193.000000,4.000000,,,,0.000000,4.000000,4.000000,4.000000,4.000000,4.000000,4.000000,4.000000,4.000000,4.000000,4.000000,4.000000,4.000000,4.000000,4.000000,4.000000,4.000000,4.000000,4.000000,4.000000,2.000000,4.000000,4.000000,4.000000,4.000000,4.000000,4.000000,4.000000,4.000000,4.000000,4.000000,4.000000,4.000000,83.333336
1613870461.225891,11.000000,0.000000,8.808519,7.131976,23.812008,13.363619,30.920519,16.724684,0.159374,0.028088,18.412565,42.162113,24.773985,16.681133,17.121737,41.902794,15.729953,-0.881142,15.750329,17.991459,4.352543,19.664568,36.371513,10.986368,11.425982,13.978858,23.737549,13.322181,-3.691077,8.863546,14.389085,18.452314,15.665653,10.920977,0.000000,196.000000,4.000000,,,,0.000000,4.000000,4.000000,4.000000,4.000000,4.000000,4.000000,4.000000,4.000000,4.000000,4.000000,4.000000,4.000000,4.000000,4.000000,4.000000,4.000000,4.000000,4.000000,4.000000,2.000000,4.000000,4.000000,4.000000,4.000000,4.000000,4.000000,4.000000,4.000000,4.000000,4.000000,4.000000,4.000000,83.333336
1613870461.233740,12.000000,0.000000,8.799711,9.176126,20.198452,12.837435,32.940880,17.220779,4.774599,0.028060,18.394154,41.094311,19.621006,16.151630,18.130255,36.219868,14.175761,-5.495645,14.196116,14.383724,0.758447,12.465417,30.181293,8.411279,11.414557,15.503341,21.149710,13.308858,-1.636103,8.854683,15.400337,16.382580,14.111526,8.858773,0.000000,213.000000,4.000000,,,,0.000000,4.000000,4.000000,4.000000,4.000000,4.000000,4.000000,4.000000,4.000000,4.000000,4.000000,4.000000,4.000000,4.000000,4.000000,4.000000,4.000000,4.000000,4.000000,4.000000,2.000000,4.000000,4.000000,4.000000,4.000000,4.000000,4.000000,4.000000,4.000000,4.000000,4.000000,4.000000,4.000000,83.333336
1613870461.241489,13.000000,0.000000,8.790912,8.654130,16.075689,12.824597,32.395119,17.716379,7.333927,-0.484789,17.862938,41.566036,16.524462,11.007275,16.573664,27.465698,3.392354,-17.797842,5.976792,-6.656300,-11.550003,-3.444484,8.099831,-0.827901,5.762116,14.975017,12.410611,9.705806,-3.172929,9.358648,15.897758,14.827737,15.635876,5.260171,0.000000,216.000000,4.000000,,,,0.000000,4.000000,4.000000,4.000000,4.000000,4.000000,4.000000,4.000000,4.000000,4.000000,4.000000,4.000000,4.000000,4.000000,4.000000,4.000000,4.000000,4.000000,4.000000,4.000000,2.000000,4.000000,4.000000,4.000000,4.000000,4.000000,4.000000,4.000000,4.000000,4.000000,4.000000,4.000000,4.000000,83.333336
1613870461.249338,14.000000,0.000000,8.782121,8.645475,17.085255,13.324594,30.824263,18.211483,6.300952,0.028517,18.357897,31.780880,16.507938,9.970626,11.428885,13.079259,-3.790525,-24.959532,-0.183030,-16.906054,-22.307684,-11.133348,-8.831346,-9.545022,-3.474415,10.344657,7.782815,6.619177,-5.733859,8.836469,11.779295,13.787268,15.107420,4.229270,0.000000,204.000000,4.000000,,,,0.000000,4.000000,4.000000,4.000000,4.000000,4.000000,4.000000,4.000000,4.000000,4.000000,4.000000,4.000000,4.000000,4.000000,4.000000,4.000000,4.000000,4.000000,4.000000,4.000000,2.000000,4.000000,4.000000,4.000000,4.000000,4.000000,4.000000,4.000000,4.000000,4.000000,4.000000,4.000000,4.000000,83.333336
1613870461.257087,15.000000,0.000000,8.773338,9.149651,15.016889,13.311269,28.742157,17.680450,6.294651,2.079770,18.339539,17.902945,14.952969,16.627321,11.417456,6.912333,-1.735453,-25.960213,4.432537,-15.863507,-25.362299,-4.455547,-11.386617,-10.561118,-1.932479,4.180466,4.698110,1.484353,-6.240945,8.827633,7.664952,5.055532,10.476928,1.660938,0.000000,179.000000,4.000000,,,,0.000000,4.000000,4.000000,4.000000,4.000000,4.000000,4.000000,4.000000,4.000000,4.000000,4.000000,4.000000,4.000000,4.000000,4.000000,4.000000,4.000000,4.000000,4.000000,4.000000,2.000000,4.000000,4.000000,4.000000,4.000000,4.000000,4.000000,4.000000,4.000000,4.000000,4.000000,4.000000,4.000000,83.333336
1613870461.264936,16.000000,0.000000,8.764565,8.627680,12.437769,12.785137,29.226234,17.149950,6.801177,3.616152,17.808378,16.859402,13.912374,20.713259,20.636808,13.572087,0.317565,-26.447073,8.017848,-16.360464,-20.208733,4.779677,-10.862410,-10.550557,3.710479,-0.439099,-0.947614,-4.670978,-6.234704,8.818805,7.144466,-1.103370,7.389528,-3.468928,0.000000,165.000000,4.000000,,,,0.000000,4.000000,4.000000,4.000000,4.000000,4.000000,4.000000,4.000000,4.000000,4.000000,4.000000,4.000000,4.000000,4.000000,4.000000,4.000000,4.000000,4.000000,4.000000,4.000000,2.000000,4.000000,4.000000,4.000000,4.000000,4.000000,4.000000,4.000000,4.000000,4.000000,4.000000,4.000000,4.000000,83.333336
1613870461.272685,17.000000,0.000000,8.755800,9.131873,13.450973,13.285172,31.248291,18.158442,6.281555,4.125356,18.303391,20.432285,15.949744,20.179726,25.744375,9.968772,-1.221214,-26.933447,8.009830,-17.369745,-11.470574,5.287718,-10.338727,-8.488725,3.193948,-3.515583,-6.074872,-4.153486,-6.228469,8.809986,8.162963,-1.102267,7.894958,-3.465459,0.000000,198.000000,4.000000,,,,0.000000,4.000000,4.000000,4.000000,4.000000,4.000000,4.000000,4.000000,4.000000,4.000000,4.000000,4.000000,4.000000,4.000000,4.000000,4.000000,4.000000,4.000000,4.000000,4.000000,2.000000,4.000000,4.000000,4.000000,4.000000,4.000000,4.000000,4.000000,4.000000,4.000000,4.000000,4.000000,4.000000,83.333336
1613870461.280534,18.000000,0.000000,8.747045,8.609921,3.693931,11.733426,22.499094,15.063359,6.275274,3.608410,18.285088,15.796468,12.344050,20.159546,22.128889,-5.938633,-1.219993,-26.393692,12.104384,-16.839554,-8.382181,2.205507,-13.405312,-3.352031,2.165113,-4.537708,-11.709823,-5.174974,-6.222241,9.313997,7.641980,-4.178088,5.835782,-6.026096,0.000000,157.000000,4.000000,,,,0.000000,4.000000,4.000000,4.000000,4.000000,4.000000,4.000000,4.000000,4.000000,4.000000,4.000000,4.000000,4.000000,4.000000,4.000000,4.000000,4.000000,4.000000,4.000000,4.000000,2.000000,4.000000,4.000000,4.000000,4.000000,4.000000,4.000000,4.000000,4.000000,4.000000,4.000000,4.000000,4.000000,83.333336
1613870461.288283,19.000000,0.000000,8.738297,7.062850,-15.796942,5.055026,4.015056,5.304706,6.268998,1.553520,15.189879,10.652467,1.049655,15.011181,20.055477,-14.650643,-0.705953,-26.367298,15.682024,-16.822714,-7.348158,3.741763,-17.494471,-2.835858,3.188589,-4.020350,-14.262216,-12.349286,-6.216019,7.766221,3.531774,-8.789294,1.214561,-21.404686,0.000000,214.000000,4.000000,,,,0.000000,4.000000,4.000000,4.000000,4.000000,4.000000,4.000000,4.000000,4.000000,4.000000,4.000000,4.000000,4.000000,4.000000,4.000000,4.000000,4.000000,4.000000,4.000000,4.000000,2.000000,4.000000,4.000000,4.000000,4.000000,4.000000,4.000000,4.000000,4.000000,4.000000,4.000000,4.000000,4.000000,83.333336
1613870461.296132,20.000000,0.000000,8.729559,5.517325,-22.447811,-1.616696,-1.629984,-1.880086,6.262729,0.013505,11.584946,10.641814,-5.105240,12.432067,20.548243,-12.584710,-0.192426,-25.828112,15.153522,-14.241790,-0.674143,7.327765,-7.733386,0.756721,3.698221,-6.580432,-13.222312,-16.439501,-6.209803,5.194353,-1.087143,-8.267684,-0.837935,-34.716614,0.000000,147.000000,4.000000,,,,0.000000,4.000000,4.000000,4.000000,4.000000,4.000000,4.000000,4.000000,4.000000,4.000000,4.000000,4.000000,4.000000,4.000000,4.000000,4.000000,4.000000,4.000000,4.000000,4.000000,2.000000,4.000000,4.000000,4.000000,4.000000,4.000000,4.000000,4.000000,4.000000,4.000000,4.000000,2.000000,4.000000,66.666664
1613870461.303881,21.000000,0.000000,8.720830,3.973346,-17.297159,-2.640720,5.551133,-1.878206,6.256466,0.013491,10.034899,8.579890,-4.074494,12.932455,20.527695,-8.982382,-0.705054,-26.827923,15.138368,-10.637804,2.916275,7.320437,9.197425,9.986733,5.745805,-7.599493,-17.311653,-14.884600,-5.690773,4.676338,-3.650158,-7.746596,0.188544,-34.681896,0.000000,174.000000,4.000000,,,,0.000000,4.000000,4.000000,4.000000,4.000000,4.000000,4.000000,4.000000,4.000000,4.000000,4.000000,4.000000,4.000000,4.000000,4.000000,4.000000,4.000000,4.000000,4.000000,4.000000,2.000000,4.000000,4.000000,4.000000,4.000000,4.000000,4.000000,4.000000,4.000000,4.000000,4.000000,2.000000,4.000000,66.666664
1613870461.311530,22.000000,0.000000,8.712109,1.918091,-17.792683,-1.612439,6.058402,-0.850686,6.250210,-0.499343,7.460762,-0.146638,-5.096061,5.740036,20.507166,-9.999041,-1.729990,-26.801096,14.610409,-7.550243,3.938999,6.800296,14.316432,13.566491,6.765700,-1.438047,-18.319983,-14.869716,-6.197902,5.184482,-3.133688,-7.738850,-0.324465,-33.621574,0.000000,180.000000,4.000000,,,,0.000000,4.000000,4.000000,4.000000,4.000000,4.000000,4.000000,4.000000,4.000000,4.000000,4.000000,4.000000,4.000000,4.000000,4.000000,4.000000,4.000000,4.000000,4.000000,4.000000,2.000000,4.000000,4.000000,4.000000,4.000000,4.000000,4.000000,4.000000,4.000000,4.000000,4.000000,2.000000,4.000000,66.666664
1613870461.319279,23.000000,0.000000,8.703397,0.890532,-19.826172,-2.636467,3.488241,-1.875477,6.243960,0.013977,5.914839,-1.684953,-3.039682,2.144552,19.973839,-8.963401,1.861483,-24.210192,15.108619,-2.927308,11.114548,7.306316,12.763654,13.040104,7.271755,2.153134,-5.481150,-15.367666,-6.191704,5.179297,-3.130554,-8.243931,-0.324141,-35.639236,0.000000,182.000000,4.000000,,,,0.000000,4.000000,4.000000,4.000000,4.000000,4.000000,4.000000,4.000000,4.000000,4.000000,4.000000,4.000000,4.000000,4.000000,4.000000,4.000000,4.000000,4.000000,4.000000,4.000000,2.000000,4.000000,4.000000,4.000000,4.000000,4.000000,4.000000,4.000000,4.000000,4.000000,4.000000,2.000000,4.000000,66.666664
1613870461.326929,24.000000,0.000000,8.694694,1.402462,-13.139679,-2.121010,8.100138,-0.335140,6.237716,2.578066,10.524309,10.624424,7.219768,12.911638,21.492327,5.917358,5.962186,-21.621880,17.657614,1.691004,12.641894,6.273369,12.238070,14.052705,7.777303,0.099699,-6.501310,-14.839478,-5.672692,5.174118,-3.640244,-10.286969,0.189004,-33.552315,0.000000,188.000000,4.000000,,,,0.000000,4.000000,4.000000,4.000000,4.000000,4.000000,4.000000,4.000000,4.000000,4.000000,4.000000,4.000000,4.000000,4.000000,4.000000,4.000000,4.000000,4.000000,4.000000,4.000000,2.000000,4.000000,4.000000,4.000000,4.000000,4.000000,4.000000,4.000000,4.000000,4.000000,4.000000,2.000000,4.000000,66.666664
1613870461.334678,25.000000,0.000000,9.198819,1.401059,-5.947052,-1.606069,11.681781,2.229298,6.231478,4.113949,14.616349,19.331749,13.879214,18.539753,24.034937,21.296055,7.494686,-21.087437,18.152777,2.202133,1.860022,3.702993,8.636088,5.833524,4.692603,-0.413221,-23.417887,-14.824638,-7.205481,5.168944,-3.123783,-11.815144,-2.375288,-35.057224,0.000000,198.000000,4.000000,,,,0.000000,4.000000,4.000000,4.000000,4.000000,4.000000,4.000000,4.000000,4.000000,4.000000,4.000000,4.000000,4.000000,4.000000,4.000000,4.000000,4.000000,4.000000,4.000000,4.000000,2.000000,4.000000,4.000000,4.000000,4.000000,4.000000,4.000000,4.000000,4.000000,4.000000,4.000000,2.000000,4.000000,66.666664
1613870461.342327,26.000000,0.000000,8.676800,1.399658,-6.966746,-3.655745,11.670099,3.252710,6.225247,3.597015,14.601732,18.286776,16.942259,17.495571,25.036543,23.838861,12.615396,-16.963785,19.673084,-0.364172,-4.295684,3.186470,2.473606,-1.351797,0.585346,-0.925628,-17.753443,-14.809813,-9.249557,5.163775,-3.120659,-11.290508,-2.885733,-35.534985,0.000000,156.000000,4.000000,,,,0.000000,4.000000,4.000000,4.000000,4.000000,4.000000,4.000000,4.000000,4.000000,4.000000,4.000000,4.000000,4.000000,4.000000,4.000000,4.000000,4.000000,4.000000,4.000000,4.000000,2.000000,4.000000,4.000000,4.000000,4.000000,4.000000,4.000000,4.000000,4.000000,4.000000,4.000000,2.000000,4.000000,66.666664
1613870461.350076,27.000000,0.000000,9.180943,1.398258,-4.395677,0.450475,13.709711,2.736637,6.219021,5.644700,14.074310,20.319771,21.540701,21.580641,25.524326,28.430408,21.833549,-4.639129,25.807259,-0.363807,0.323996,4.208924,0.932671,7.367504,1.610402,-4.514446,-0.812612,-14.795004,-9.753128,5.158611,-3.117539,-11.279218,-1.344386,-21.653297,0.000000,127.000000,4.000000,,,,0.000000,4.000000,4.000000,4.000000,4.000000,4.000000,4.000000,4.000000,4.000000,4.000000,4.000000,4.000000,4.000000,4.000000,4.000000,4.000000,4.000000,4.000000,4.000000,4.000000,2.000000,4.000000,4.000000,4.000000,4.000000,4.000000,4.000000,4.000000,4.000000,4.000000,4.000000,2.000000,4.000000,66.666664
1613870461.357725,28.000000,0.000000,9.171762,1.396860,9.454873,9.680794,14.721642,2.733900,6.212802,7.177516,14.060236,25.940477,23.570442,22.071880,24.473162,31.478901,23.350178,-3.096029,24.755810,-1.389085,3.913416,2.666254,2.983020,14.026803,3.660074,0.105453,-9.016928,-14.780209,-9.743375,5.153452,-3.114421,-11.267939,-0.317400,-4.708568,0.000000,200.000000,4.000000,,,,0.000000,4.000000,4.000000,4.000000,4.000000,4.000000,4.000000,4.000000,4.000000,4.000000,4.000000,4.000000,4.000000,4.000000,4.000000,4.000000,4.000000,4.000000,4.000000,4.000000,2.000000,4.000000,4.000000,4.000000,4.000000,4.000000,4.000000,4.000000,4.000000,4.000000,4.000000,2.000000,4.000000,66.666664
1613870461.365474,29.000000,0.000000,5.060027,1.395463,18.163366,13.260857,15.219742,2.731166,6.206590,8.195980,14.558996,24.888895,18.931486,17.434423,15.730740,13.498704,13.583238,-19.503189,18.064386,-7.541542,1.345400,2.663588,0.928755,8.884571,3.656414,7.284834,-20.802782,-14.765429,-9.733632,5.148299,-3.624127,-11.769491,1.734199,-0.601295,0.000000,202.000000,4.000000,,,,0.000000,4.000000,4.000000,4.000000,4.000000,4.000000,4.000000,4.000000,4.000000,4.000000,4.000000,4.000000,4.000000,4.000000,4.000000,4.000000,4.000000,4.000000,4.000000,4.000000,2.000000,4.000000,4.000000,4.000000,4.000000,4.000000,4.000000,4.000000,4.000000,4.000000,4.000000,2.000000,4.000000,66.666664
1613870461.373123,30.000000,0.000000,0.952403,1.394068,18.658024,13.760416,18.281445,2.728435,6.200383,6.136502,15.057258,16.658878,8.656145,14.852886,4.432957,-8.053256,-2.327781,-34.355480,14.456579,-19.328873,-7.373894,5.225027,-8.815763,2.721840,3.139937,3.687806,-15.140954,-14.750664,-9.723898,5.143151,-3.107683,-11.757722,5.835029,7.604435,0.000000,178.000000,4.000000,,,,0.000000,4.000000,4.000000,4.000000,4.000000,4.000000,4.000000,4.000000,4.000000,4.000000,4.000000,4.000000,4.000000,4.000000,4.000000,4.000000,4.000000,4.000000,4.000000,4.000000,2.000000,4.000000,4.000000,4.000000,4.000000,4.000000,4.000000,4.000000,4.000000,4.000000,4.000000,2.000000,4.000000,66.666664
1613870461.380873,31.000000,0.000000,0.951450,1.392674,27.357315,15.797938,16.724701,2.212886,6.194183,-1.049122,10.939636,8.949911,-4.173024,5.094444,-5.315065,-24.455460,-20.274172,-44.064716,6.749815,-29.565954,-16.597290,-4.523788,-17.012075,-3.947548,0.059874,-4.008190,-14.100172,-14.735912,-9.714174,5.138008,-3.104575,-10.720323,7.880476,25.545547,0.000000,196.000000,4.000000,,,,0.000000,4.000000,4.000000,4.000000,4.000000,4.000000,4.000000,4.000000,4.000000,4.000000,4.000000,4.000000,4.000000,4.000000,4.000000,4.000000,4.000000,4.000000,4.000000,4.000000,2.000000,4.000000,4.000000,4.000000,4.000000,4.000000,4.000000,4.000000,4.000000,4.000000,4.000000,2.000000,4.000000,66.666664
1613870461.388522,32.000000,0.000000,0.437678,1.391281,42.201752,15.269320,11.579772,2.723494,6.187989,-9.766021,4.262030,3.812756,-16.476543,-7.731164,-17.104622,-47.507927,-30.510307,-60.430908,-4.026166,-35.690235,-18.631975,-20.416700,-21.610449,-12.661550,-4.042750,-8.619566,-21.265558,-14.721177,-9.704460,5.132870,-4.127111,-12.248064,8.385416,30.648209,8064.000000,0.000000,4.000000,,,,0.000000,4.000000,4.000000,4.000000,4.000000,4.000000,4.000000,4.000000,4.000000,4.000000,4.000000,4.000000,4.000000,4.000000,4.000000,4.000000,4.000000,4.000000,4.000000,4.000000,2.000000,4.000000,4.000000,4.000000,4.000000,4.000000,4.000000,4.000000,4.000000,4.000000,4.000000,2.000000,4.000000,66.666664
1613870461.396371,33.000000,0.000000,-2.639683,0.877069,46.262115,13.715589,10.542551,4.772052,6.181800,-13.345999,1.693666,3.296123,-21.075451,-12.338817,-24.779825,-57.716831,-32.018257,-69.601242,-7.611883,-33.603260,-17.074881,-21.421925,-25.691402,-14.700171,-4.551528,-12.713511,-20.731472,-14.706455,-9.694756,5.127737,-0.020420,-10.697354,10.941133,28.053457,8064.000000,0.000000,4.000000,,,,0.000000,4.000000,4.000000,4.000000,4.000000,4.000000,4.000000,4.000000,4.000000,4.000000,4.000000,4.000000,4.000000,4.000000,4.000000,4.000000,4.000000,4.000000,4.000000,4.000000,2.000000,4.000000,4.000000,4.000000,4.000000,4.000000,4.000000,4.000000,4.000000,4.000000,4.000000,2.000000,4.000000,66.666664
1613870461.404120,34.000000,0.000000,-3.149863,1.389013,44.164570,17.804438,10.019188,6.818562,6.175619,-10.255730,3.743254,2.780006,-16.438992,-10.275196,-22.190943,-40.736034,-28.909317,-57.223953,-6.065810,-19.210684,-16.544985,-9.605631,-20.024685,-8.531624,-4.546977,-15.777720,-16.608177,-14.691750,-9.685061,5.122609,6.133446,-0.430247,11.443012,36.743351,8064.000000,0.000000,4.000000,,,,0.000000,4.000000,4.000000,4.000000,4.000000,4.000000,4.000000,4.000000,4.000000,4.000000,4.000000,4.000000,4.000000,4.000000,4.000000,4.000000,4.000000,4.000000,4.000000,4.000000,2.000000,4.000000,4.000000,4.000000,4.000000,4.000000,4.000000,4.000000,4.000000,4.000000,4.000000,2.000000,4.000000,66.666664
1613870461.411969,35.000000,0.000000,-0.069790,3.438906,45.146046,20.863556,11.034810,9.375846,6.169443,-4.604448,5.790793,2.264406,-5.140501,-0.008510,-5.758495,-16.079916,-12.470152,-34.089806,4.196666,-3.294037,-15.502800,-6.006282,-6.671327,-1.343605,-4.029609,-16.274763,-17.104389,-14.677057,-9.675376,5.117486,8.691416,8.288133,10.405929,44.911736,8064.000000,0.000000,4.000000,,,,0.000000,4.000000,4.000000,4.000000,4.000000,4.000000,4.000000,4.000000,4.000000,4.000000,4.000000,4.000000,4.000000,4.000000,4.000000,4.000000,4.000000,4.000000,4.000000,4.000000,2.000000,4.000000,4.000000,4.000000,4.000000,4.000000,4.000000,4.000000,4.000000,4.000000,4.000000,2.000000,4.000000,66.666664
1613870461.419718,36.000000,0.000000,1.468741,5.486749,45.613720,19.817051,17.177622,9.879291,6.163274,0.528361,6.810643,9.954450,7.172332,13.837652,18.862648,10.090011,13.696164,-10.465971,21.628366,0.811821,-16.512938,-9.077198,-2.562091,1.734662,-3.512759,-15.745667,-18.625748,-14.662380,-9.665701,5.112369,7.657083,3.664459,10.908343,40.251442,8064.000000,0.000000,4.000000,,,,0.000000,4.000000,4.000000,4.000000,4.000000,4.000000,4.000000,4.000000,4.000000,4.000000,4.000000,4.000000,4.000000,4.000000,4.000000,4.000000,4.000000,4.000000,4.000000,4.000000,2.000000,4.000000,4.000000,4.000000,4.000000,4.000000,4.000000,4.000000,4.000000,4.000000,4.000000,2.000000,4.000000,66.666664
1613870461.427567,37.000000,0.000000,0.954452,4.968441,43.516827,19.797234,21.263008,9.869411,6.157110,3.091935,6.291012,24.816290,17.934391,17.413557,35.254040,34.695305,27.015802,4.416290,24.683662,-1.240273,-14.957963,-7.016839,0.004573,1.220106,-5.047708,-11.114537,-17.581480,-15.160539,-9.656034,5.107256,7.649426,-0.954590,10.897434,35.082985,8064.000000,0.000000,4.000000,,,,0.000000,4.000000,4.000000,4.000000,4.000000,4.000000,4.000000,4.000000,4.000000,4.000000,4.000000,4.000000,4.000000,4.000000,4.000000,4.000000,4.000000,4.000000,4.000000,4.000000,2.000000,4.000000,4.000000,4.000000,4.000000,4.000000,4.000000,4.000000,4.000000,4.000000,4.000000,2.000000,4.000000,66.666664
1613870461.435316,38.000000,0.000000,2.491959,4.963473,45.011772,19.777437,21.754564,11.910824,6.150953,4.114485,6.797541,30.432499,26.634405,16.883324,37.270069,43.891380,26.988787,6.463156,19.530773,2.350711,-0.071210,-0.855976,11.799440,5.834271,-2.478558,-8.026500,-15.512616,-15.145378,-9.646379,5.102149,8.154597,3.148929,10.373716,37.099182,8064.000000,0.000000,4.000000,,,,0.000000,4.000000,4.000000,4.000000,4.000000,4.000000,4.000000,4.000000,4.000000,4.000000,4.000000,4.000000,4.000000,4.000000,4.000000,4.000000,4.000000,4.000000,4.000000,4.000000,2.000000,4.000000,4.000000,4.000000,4.000000,4.000000,4.000000,4.000000,4.000000,4.000000,4.000000,2.000000,4.000000,66.666664
1613870461.443165,39.000000,0.000000,5.053569,4.958509,43.428295,20.270479,25.835375,13.950195,6.144803,4.623190,9.867667,26.812323,26.607771,16.866440,37.745621,43.334667,28.500259,6.969513,24.639448,11.066309,17.364758,1.708982,21.531231,14.033565,4.703408,-6.992832,-14.471463,-14.617413,-9.636732,5.097047,7.120801,6.735524,12.414625,39.113365,8192.000000,0.000000,4.000000,,,,0.000000,4.000000,4.000000,4.000000,4.000000,4.000000,4.000000,4.000000,4.000000,4.000000,4.000000,4.000000,4.000000,4.000000,4.000000,4.000000,4.000000,4.000000,4.000000,4.000000,2.000000,4.000000,4.000000,4.000000,4.000000,4.000000,4.000000,4.000000,4.000000,4.000000,4.000000,2.000000,4.000000,66.666664
1613870461.450914,40.000000,0.000000,5.561337,4.953551,33.641277,19.737389,21.706976,12.397783,6.138658,3.080106,9.344978,25.247049,14.786291,11.208549,30.528387,36.624668,24.882015,4.398441,23.076345,11.055243,21.449957,-0.344009,22.535341,12.481070,4.698705,0.706468,-6.764684,-15.115615,-9.627095,5.091950,7.626501,7.241609,14.453492,38.561432,8064.000000,0.000000,4.000000,,,,0.000000,4.000000,4.000000,4.000000,4.000000,4.000000,4.000000,4.000000,4.000000,4.000000,4.000000,4.000000,4.000000,4.000000,4.000000,4.000000,4.000000,4.000000,4.000000,4.000000,2.000000,4.000000,4.000000,4.000000,4.000000,4.000000,4.000000,4.000000,4.000000,4.000000,4.000000,2.000000,4.000000,66.666664
1613870461.458763,41.000000,0.000000,5.042954,4.948597,24.889688,15.615088,9.377576,9.821283,6.132519,1.025744,6.258710,25.734623,3.489453,5.556314,8.446577,17.613682,9.472517,-11.503393,8.181475,-2.289146,13.736200,-1.882126,17.384600,4.776281,0.078621,8.398069,9.652337,-13.049217,-9.617469,4.574038,7.618875,9.285649,14.439039,36.984409,8064.000000,0.000000,4.000000,,,,0.000000,4.000000,4.000000,4.000000,4.000000,4.000000,4.000000,4.000000,4.000000,4.000000,4.000000,4.000000,4.000000,4.000000,4.000000,4.000000,4.000000,4.000000,4.000000,4.000000,2.000000,4.000000,4.000000,4.000000,4.000000,4.000000,4.000000,4.000000,4.000000,4.000000,4.000000,2.000000,4.000000,66.666664
1613870461.466512,42.000000,0.000000,5.037911,4.943649,24.864799,12.009728,9.881019,9.298641,6.126386,-0.513744,7.790914,25.708887,2.973143,4.525117,-5.920844,3.237095,-3.870288,-28.414967,2.019447,-15.107369,1.414771,-5.982808,3.008241,2.207402,-0.947098,6.851210,16.309351,-5.343861,-9.607851,5.082284,6.585615,10.302005,14.424600,33.357681,8064.000000,0.000000,4.000000,,,,0.000000,4.000000,4.000000,4.000000,4.000000,4.000000,4.000000,4.000000,4.000000,4.000000,4.000000,4.000000,4.000000,4.000000,4.000000,4.000000,4.000000,4.000000,4.000000,4.000000,2.000000,4.000000,4.000000,4.000000,4.000000,4.000000,4.000000,4.000000,4.000000,4.000000,4.000000,2.000000,4.000000,66.666664
1613870461.474361,43.000000,0.000000,5.032874,4.425885,26.378395,11.997719,19.614727,9.289343,6.120260,-0.000409,12.911327,25.683180,4.508632,-0.607613,-6.940565,-4.458450,-12.584367,-39.668602,0.478966,-21.758928,-12.945618,-17.771698,-12.379382,-5.999933,-2.484613,3.767436,6.036632,0.815329,-9.598244,5.077202,8.630311,10.804523,14.410175,28.708939,8064.000000,0.000000,4.000000,,,,0.000000,4.000000,4.000000,4.000000,4.000000,4.000000,4.000000,4.000000,4.000000,4.000000,4.000000,4.000000,4.000000,4.000000,4.000000,4.000000,4.000000,4.000000,4.000000,4.000000,2.000000,4.000000,4.000000,4.000000,4.000000,4.000000,4.000000,4.000000,4.000000,4.000000,4.000000,2.000000,4.000000,66.666664
1613870461.482110,44.000000,0.000000,5.027841,4.934279,24.813557,12.498542,22.159216,9.792874,6.114140,-0.000409,14.436878,22.580572,-1.649723,-6.760852,-13.600290,-21.889889,-30.520500,-51.423805,-6.701000,-28.916656,-19.086517,-28.010336,-16.469566,-23.429831,-8.635974,1.712386,1.415211,-0.211127,-9.588645,4.559304,13.237065,13.870642,14.908586,27.654589,8064.000000,0.000000,4.000000,,,,0.000000,4.000000,4.000000,4.000000,4.000000,4.000000,4.000000,4.000000,4.000000,4.000000,4.000000,4.000000,4.000000,4.000000,4.000000,4.000000,4.000000,4.000000,4.000000,4.000000,2.000000,4.000000,4.000000,4.000000,4.000000,4.000000,4.000000,4.000000,4.000000,4.000000,4.000000,2.000000,4.000000,66.666664
1613870461.489959,45.000000,0.000000,5.022813,7.493448,25.814384,12.486043,25.726799,12.347183,6.108026,-0.000408,13.396800,17.942608,-8.314740,-7.779732,-21.278997,-39.303898,-43.310493,-58.039051,-8.232760,-31.964663,-19.580252,-26.443863,-13.376175,-30.073069,-8.114517,-4.443172,6.542001,0.301905,-9.066236,6.093206,15.275110,17.446514,14.893677,27.626934,8064.000000,0.000000,4.000000,,,,0.000000,4.000000,4.000000,4.000000,4.000000,4.000000,4.000000,4.000000,4.000000,4.000000,4.000000,4.000000,4.000000,4.000000,4.000000,4.000000,4.000000,4.000000,4.000000,4.000000,2.000000,4.000000,4.000000,4.000000,4.000000,4.000000,4.000000,4.000000,4.000000,4.000000,4.000000,2.000000,4.000000,66.666664
1613870461.497708,46.000000,0.000000,5.017790,8.511596,26.814211,12.986378,31.854919,13.873298,6.101918,-0.513229,13.896224,16.899023,-7.793605,-5.720670,-17.667974,-45.931259,-36.087696,-55.929729,-3.096322,-32.445518,-22.124775,-20.776394,-14.388439,-18.760942,-2.978198,-8.028473,6.535459,3.891346,-7.005888,11.215319,14.747015,17.941889,13.853143,27.086487,8064.000000,0.000000,4.000000,,,,0.000000,4.000000,4.000000,4.000000,4.000000,4.000000,4.000000,4.000000,4.000000,4.000000,4.000000,4.000000,4.000000,4.000000,4.000000,4.000000,4.000000,4.000000,4.000000,4.000000,2.000000,4.000000,4.000000,4.000000,4.000000,4.000000,4.000000,4.000000,4.000000,4.000000,4.000000,2.000000,4.000000,66.666664
1613870461.505557,47.000000,0.000000,5.012773,9.015904,20.633551,11.434930,28.233320,13.346604,6.095816,-0.512715,13.369507,17.394945,-9.324273,-0.073924,-13.547743,-53.064816,-25.795197,-57.412262,4.599082,-31.900253,-15.435983,-20.242798,-16.938154,-2.844747,0.101703,-9.046085,3.964821,1.323352,-5.460420,12.742564,14.732268,17.411127,14.352110,21.931196,8064.000000,0.000000,4.000000,,,,0.000000,4.000000,4.000000,4.000000,4.000000,4.000000,4.000000,4.000000,4.000000,4.000000,4.000000,4.000000,4.000000,4.000000,4.000000,4.000000,4.000000,4.000000,4.000000,4.000000,2.000000,4.000000,4.000000,4.000000,4.000000,4.000000,4.000000,4.000000,4.000000,4.000000,4.000000,2.000000,4.000000,66.666664
1613870461.513306,48.000000,0.000000,5.007760,9.519709,15.484711,12.961957,24.615343,12.820437,6.089720,1.539079,13.356137,17.377550,-8.289308,9.156919,-4.816247,-49.422009,-14.487350,-55.816387,18.440636,-20.586302,6.630735,-12.530247,-3.587882,8.440149,3.691345,-8.524219,7.037779,-4.318996,-5.967780,9.652899,12.153433,15.342433,15.363399,10.627213,8064.000000,0.000000,4.000000,,,,0.000000,4.000000,4.000000,4.000000,4.000000,4.000000,4.000000,4.000000,4.000000,4.000000,4.000000,4.000000,4.000000,4.000000,4.000000,4.000000,4.000000,4.000000,4.000000,4.000000,2.000000,4.000000,4.000000,4.000000,4.000000,4.000000,4.000000,4.000000,4.000000,4.000000,4.000000,2.000000,4.000000,66.666664
1613870461.521155,49.000000,0.000000,5.002752,4.894804,14.956406,12.948995,25.103548,13.833258,6.083630,3.588822,15.906884,16.847353,5.052315,13.250326,16.214211,-20.654636,9.116880,-33.709290,29.704247,-1.591357,26.624104,6.969463,26.159296,14.072735,9.328679,2.253536,8.569202,-4.314678,-5.961812,8.617605,8.551536,13.788629,9.707009,2.411458,8064.000000,0.000000,4.000000,,,,0.000000,4.000000,4.000000,4.000000,4.000000,4.000000,4.000000,4.000000,4.000000,4.000000,4.000000,4.000000,4.000000,4.000000,4.000000,4.000000,4.000000,4.000000,4.000000,4.000000,2.000000,4.000000,4.000000,4.000000,4.000000,4.000000,4.000000,4.000000,4.000000,4.000000,4.000000,2.000000,4.000000,66.666664
1613870461.528904,50.000000,0.000000,4.997749,-1.776757,9.813245,2.679635,20.975882,13.306604,6.077547,4.098054,16.916618,17.856146,15.816494,12.724256,29.531330,6.032685,26.543661,-11.111476,29.674543,8.153825,30.700045,15.680442,41.004932,14.571483,11.370633,16.610256,8.560634,-3.284722,-5.443030,8.096167,7.004523,13.774840,3.030636,1.383405,8064.000000,0.000000,4.000000,,,,0.000000,4.000000,4.000000,4.000000,4.000000,4.000000,4.000000,4.000000,4.000000,4.000000,4.000000,4.000000,4.000000,4.000000,4.000000,4.000000,4.000000,4.000000,4.000000,4.000000,2.000000,4.000000,4.000000,4.000000,4.000000,4.000000,4.000000,4.000000,4.000000,4.000000,4.000000,2.000000,4.000000,66.666664
1613870461.536753,51.000000,0.000000,4.479931,-3.313442,3.649585,-5.528172,17.365162,12.780477,6.071469,3.068315,17.925343,22.453674,13.749395,12.198710,27.963337,19.359985,27.029938,-0.331134,26.055124,14.299517,29.643703,6.433992,35.322899,12.505630,10.333621,20.183390,13.680278,-4.819899,-5.950408,5.523968,7.510339,13.761065,3.540426,1.894842,8064.000000,0.000000,4.000000,,,,0.000000,4.000000,4.000000,4.000000,4.000000,4.000000,4.000000,4.000000,4.000000,4.000000,4.000000,4.000000,4.000000,4.000000,4.000000,4.000000,4.000000,4.000000,4.000000,4.000000,2.000000,4.000000,4.000000,4.000000,4.000000,4.000000,4.000000,4.000000,4.000000,4.000000,4.000000,2.000000,4.000000,66.666664
1613870461.544502,52.000000,0.000000,6.013912,-2.284487,6.210038,0.631202,21.963181,15.331799,6.065397,5.629349,21.497160,28.072247,21.427954,13.212153,32.037937,39.853447,33.156754,13.515351,26.029070,21.977526,31.152521,3.350635,37.851681,15.570046,10.323288,16.573463,20.333265,-2.250976,-5.944457,5.005624,7.502829,13.747305,7.126629,2.918588,8064.000000,0.000000,4.000000,,,,0.000000,4.000000,4.000000,4.000000,4.000000,4.000000,4.000000,4.000000,4.000000,4.000000,4.000000,4.000000,4.000000,4.000000,4.000000,4.000000,4.000000,4.000000,4.000000,4.000000,2.000000,4.000000,4.000000,4.000000,4.000000,4.000000,4.000000,4.000000,4.000000,4.000000,4.000000,2.000000,4.000000,66.666664
1613870461.552151,53.000000,0.000000,8.059180,-2.282203,6.716649,9.348519,25.530962,17.367748,6.059332,10.751925,25.065407,29.069815,36.278320,16.275864,37.646927,54.685387,39.277443,21.194143,27.541502,23.494009,30.095728,10.013951,44.480495,21.195501,11.338605,19.633814,19.287291,6.469223,-5.938513,8.077541,7.495326,14.246378,7.119503,1.890029,8064.000000,0.000000,4.000000,,,,0.000000,4.000000,4.000000,4.000000,4.000000,4.000000,4.000000,4.000000,4.000000,4.000000,4.000000,4.000000,4.000000,4.000000,4.000000,4.000000,4.000000,4.000000,4.000000,4.000000,2.000000,4.000000,4.000000,4.000000,4.000000,4.000000,4.000000,4.000000,4.000000,4.000000,4.000000,2.000000,4.000000,66.666664
1613870461.559901,54.000000,0.000000,9.076762,-2.792741,-0.982376,9.339170,24.992611,15.299099,6.053273,10.741173,25.040342,28.015104,31.113836,15.233947,26.327227,46.425575,27.443295,8.352437,24.437037,21.932055,24.424606,0.773168,29.564220,15.020460,9.275985,22.691103,11.575695,8.001216,-5.932574,9.095104,5.436548,10.642387,6.599562,-3.752887,8064.000000,0.000000,4.000000,,,,0.000000,4.000000,4.000000,4.000000,4.000000,4.000000,4.000000,4.000000,4.000000,4.000000,4.000000,4.000000,4.000000,4.000000,4.000000,4.000000,4.000000,4.000000,4.000000,4.000000,2.000000,4.000000,4.000000,4.000000,4.000000,4.000000,4.000000,4.000000,4.000000,4.000000,4.000000,2.000000,4.000000,66.666664
1613870461.567550,55.000000,0.000000,8.554865,-2.277128,-4.571137,8.817011,24.967617,12.719698,6.047219,7.140688,24.502481,31.064013,16.210928,10.090508,16.557310,34.584278,16.133799,-0.886685,17.233112,22.422941,14.656591,-20.253246,11.073117,1.159286,6.702606,15.488924,5.410274,1.326548,-5.926641,8.573189,3.892650,6.529181,7.105783,-8.877339,8064.000000,0.000000,4.000000,,,,0.000000,4.000000,4.000000,4.000000,4.000000,4.000000,4.000000,4.000000,4.000000,4.000000,4.000000,4.000000,4.000000,4.000000,4.000000,4.000000,4.000000,4.000000,4.000000,4.000000,2.000000,4.000000,4.000000,4.000000,4.000000,4.000000,4.000000,4.000000,4.000000,4.000000,4.000000,2.000000,4.000000,66.666664
1613870461.575299,56.000000,0.000000,8.546310,-2.274851,-2.515284,6.244092,24.942650,13.732619,6.553993,8.159188,24.477978,33.597050,13.630614,8.541956,16.027933,22.242001,13.040743,-6.014004,15.164598,8.041545,-2.793962,-21.771454,6.446660,-2.431617,6.183083,4.704205,4.892043,-0.213240,-5.920715,8.564616,3.888758,6.522652,7.611498,-7.842821,8064.000000,0.000000,4.000000,,,,0.000000,4.000000,4.000000,4.000000,4.000000,4.000000,4.000000,4.000000,4.000000,4.000000,4.000000,4.000000,4.000000,4.000000,4.000000,4.000000,4.000000,4.000000,4.000000,4.000000,2.000000,4.000000,4.000000,4.000000,4.000000,4.000000,4.000000,4.000000,4.000000,4.000000,4.000000,2.000000,4.000000,66.666664
1613870461.582948,57.000000,0.000000,8.537764,-2.272576,-3.538410,0.596822,20.815144,11.667604,6.547439,7.125389,24.453501,28.948069,11.565701,7.507773,4.729853,-4.959729,-3.895375,-30.623375,13.098151,-21.197266,-22.278347,-11.493273,-1.764915,-3.454826,6.689720,2.135398,5.399971,0.299794,-5.914794,8.556051,4.910510,7.028950,7.603887,-10.399080,8064.000000,0.000000,4.000000,,,,0.000000,4.000000,4.000000,4.000000,4.000000,4.000000,4.000000,4.000000,4.000000,4.000000,4.000000,4.000000,4.000000,4.000000,4.000000,4.000000,4.000000,4.000000,4.000000,4.000000,2.000000,4.000000,4.000000,4.000000,4.000000,4.000000,4.000000,4.000000,4.000000,4.000000,4.000000,2.000000,4.000000,66.666664
1613870461.590697,58.000000,0.000000,8.529226,-2.270303,-6.611794,-1.967878,16.691765,6.527731,5.515250,-2.112506,24.429047,21.739634,2.836188,4.423342,-11.172313,-24.954769,-24.404301,-53.156853,4.879925,-37.073505,-30.974018,-16.097164,-15.096484,-11.143679,6.170210,4.184544,0.266366,-4.828712,-5.908879,8.547495,3.879958,5.483459,7.083462,-14.491245,8064.000000,0.000000,4.000000,,,,0.000000,4.000000,4.000000,4.000000,4.000000,4.000000,4.000000,4.000000,4.000000,4.000000,4.000000,4.000000,4.000000,4.000000,4.000000,4.000000,4.000000,4.000000,4.000000,4.000000,2.000000,4.000000,4.000000,4.000000,4.000000,4.000000,4.000000,4.000000,4.000000,4.000000,4.000000,2.000000,4.000000,66.666664
1613870461.598346,59.000000,0.000000,8.520697,-1.755212,-6.605183,-2.478730,17.700714,6.521204,6.535376,-4.161676,22.866156,20.692253,1.807710,7.495842,-9.109859,-24.416994,-22.841434,-50.026772,4.362225,-30.369764,-24.276377,-23.260553,-16.619848,-11.132535,6.676860,1.616257,0.778920,-7.900805,-5.902971,9.051768,3.876078,3.939514,8.102019,-14.476754,8064.000000,0.000000,4.000000,,,,0.000000,4.000000,4.000000,4.000000,4.000000,4.000000,4.000000,4.000000,4.000000,4.000000,4.000000,4.000000,4.000000,4.000000,4.000000,4.000000,4.000000,4.000000,4.000000,4.000000,2.000000,4.000000,4.000000,4.000000,4.000000,4.000000,4.000000,4.000000,4.000000,4.000000,4.000000,2.000000,4.000000,66.666664
1613870461.606095,60.000000,0.000000,8.512177,-2.266278,-5.572937,-1.963431,18.708654,9.078785,7.041661,1.996332,20.792007,20.671560,1.805903,12.103730,-1.408441,-24.905397,-14.613464,-49.463924,12.562990,-22.647087,-17.072615,-12.980884,-14.551947,-3.429095,9.747107,2.640282,1.803782,-4.815982,-5.897068,7.504255,5.410664,0.345831,7.581097,-19.590483,8064.000000,0.000000,4.000000,,,,0.000000,4.000000,4.000000,4.000000,4.000000,4.000000,4.000000,4.000000,4.000000,4.000000,4.000000,4.000000,4.000000,4.000000,4.000000,4.000000,4.000000,4.000000,4.000000,4.000000,2.000000,4.000000,4.000000,4.000000,4.000000,4.000000,4.000000,4.000000,4.000000,4.000000,4.000000,2.000000,4.000000,66.666664
1613870461.613745,61.000000,0.000000,8.503664,-3.802473,-8.644286,-1.961468,14.074560,8.044065,1.393594,0.455874,20.771215,9.881659,-4.862570,9.527524,-3.971135,-37.701004,-17.675774,-56.081127,14.088889,-25.701363,-16.542721,-2.198672,-22.229702,-2.400025,10.763000,4.176103,-14.095457,-4.298345,-5.891171,5.445468,0.277048,-6.321181,1.932490,-30.852943,8064.000000,0.000000,4.000000,,,,0.000000,4.000000,4.000000,4.000000,4.000000,4.000000,4.000000,4.000000,4.000000,4.000000,4.000000,4.000000,4.000000,4.000000,4.000000,4.000000,4.000000,4.000000,4.000000,4.000000,2.000000,4.000000,4.000000,4.000000,4.000000,4.000000,4.000000,4.000000,4.000000,4.000000,4.000000,2.000000,4.000000,66.666664
1613870461.621494,62.000000,0.000000,8.495160,-5.849953,-14.789489,-5.549250,9.957922,4.959098,-4.761646,-2.621505,20.750444,2.179470,0.783318,10.543638,0.648221,-38.688946,-10.991432,-46.281460,15.100441,-24.137199,-11.397973,-4.760575,-24.771576,-0.859163,9.726597,-6.084483,-30.491619,-8.909431,-5.885280,4.414382,-8.441177,-10.930244,-3.197647,-35.437473,8064.000000,0.000000,4.000000,,,,0.000000,4.000000,4.000000,4.000000,4.000000,4.000000,4.000000,4.000000,4.000000,4.000000,4.000000,4.000000,4.000000,4.000000,4.000000,4.000000,4.000000,4.000000,4.000000,4.000000,2.000000,4.000000,4.000000,4.000000,4.000000,4.000000,4.000000,4.000000,4.000000,4.000000,4.000000,2.000000,4.000000,66.666664
1613870461.629143,63.000000,0.000000,8.486665,-5.844103,-16.313160,-9.133444,10.460784,5.979780,-3.218423,7.124707,21.242516,13.972162,17.192791,20.276684,19.109112,-21.214359,9.532380,-27.260818,26.880213,-6.677166,9.639066,-8.858379,-4.746804,9.910927,10.742511,-15.309168,-22.255999,-11.464624,-5.879394,4.922788,-11.509660,-10.919314,-3.707270,-33.350754,8064.000000,0.000000,4.000000,,,,0.000000,4.000000,4.000000,4.000000,4.000000,4.000000,4.000000,4.000000,4.000000,4.000000,4.000000,4.000000,4.000000,4.000000,4.000000,4.000000,4.000000,4.000000,4.000000,4.000000,2.000000,4.000000,4.000000,4.000000,4.000000,4.000000,4.000000,4.000000,4.000000,4.000000,4.000000,2.000000,4.000000,66.666664
1613870461.636892,64.000000,0.000000,8.478179,-5.838259,-18.860950,-9.637131,10.450323,6.486621,-0.651102,16.348351,20.195631,28.829985,23.329445,24.871792,29.859232,-4.782888,21.317720,-16.977146,35.058460,10.252588,28.090965,-3.721315,26.539993,17.593323,13.295871,-6.575910,-8.900410,-10.940340,-5.873515,4.917865,-10.472508,-11.421216,-5.754845,-33.317406,0.000000,184.000000,4.000000,,,,0.000000,4.000000,4.000000,4.000000,4.000000,4.000000,4.000000,4.000000,4.000000,4.000000,4.000000,4.000000,4.000000,4.000000,4.000000,4.000000,4.000000,4.000000,4.000000,4.000000,2.000000,4.000000,4.000000,4.000000,4.000000,4.000000,4.000000,4.000000,4.000000,4.000000,4.000000,2.000000,4.000000,66.666664
1613870461.644541,65.000000,0.000000,8.469701,-5.832420,-23.457474,-8.601852,5.824489,4.428852,-1.676092,13.255079,16.072872,28.801155,21.254833,22.795637,28.290913,1.888562,19.757940,-9.267861,31.946480,11.780798,29.601336,3.974714,40.359608,17.062910,14.308216,5.738358,-9.404329,-10.929399,-5.867641,4.912948,-10.462036,-11.409794,-7.287551,-34.309727,0.000000,197.000000,4.000000,,,,0.000000,4.000000,4.000000,4.000000,4.000000,4.000000,4.000000,4.000000,4.000000,4.000000,4.000000,4.000000,4.000000,4.000000,4.000000,4.000000,4.000000,4.000000,4.000000,4.000000,2.000000,4.000000,4.000000,4.000000,4.000000,4.000000,4.000000,4.000000,4.000000,4.000000,4.000000,2.000000,4.000000,66.666664
1613870461.652290,66.000000,0.000000,8.461230,-5.826588,-24.459658,-8.593251,3.254561,2.373141,-1.674415,10.677722,13.492696,28.772354,21.233578,23.285664,28.775442,12.655904,17.686901,-0.027825,27.811968,11.256196,24.443529,3.970739,33.652580,16.533026,13.781088,7.271081,-10.933387,-10.405649,-5.861773,4.908034,-10.964395,-10.372744,-7.280264,-33.249779,0.000000,189.000000,4.000000,,,,0.000000,4.000000,4.000000,4.000000,4.000000,4.000000,4.000000,4.000000,4.000000,4.000000,4.000000,4.000000,4.000000,4.000000,4.000000,4.000000,4.000000,4.000000,4.000000,4.000000,2.000000,4.000000,4.000000,4.000000,4.000000,4.000000,4.000000,4.000000,4.000000,4.000000,4.000000,2.000000,4.000000,66.666664
1613870461.659939,67.000000,0.000000,8.452769,-5.820761,-23.409555,-8.584658,3.764127,2.370768,-0.647100,10.667045,13.479203,30.794863,20.699524,22.749557,26.695385,18.284273,17.669214,-1.566258,24.707233,10.219299,17.239599,-0.648616,25.413801,14.465211,13.767306,6.238169,-8.358351,-11.420885,-5.855912,4.903127,-11.979072,-15.490576,-12.401189,-32.190887,0.000000,187.000000,4.000000,,,,0.000000,4.000000,4.000000,4.000000,4.000000,4.000000,4.000000,4.000000,4.000000,4.000000,4.000000,4.000000,4.000000,4.000000,4.000000,4.000000,4.000000,4.000000,4.000000,4.000000,2.000000,4.000000,4.000000,4.000000,4.000000,4.000000,4.000000,4.000000,4.000000,4.000000,4.000000,2.000000,4.000000,66.666664
1613870461.667788,68.000000,0.000000,8.444317,-5.814940,-28.514353,-11.140176,2.221902,0.829936,-2.184915,5.015352,11.414442,15.379453,17.601902,18.111422,12.309714,1.855733,7.907954,-17.974949,18.015860,-6.713997,3.376205,-3.212070,18.208900,10.348182,14.266359,7.770392,-10.401275,-13.973566,-5.850056,5.411044,-13.505554,-24.193033,-18.542633,-31.645876,0.000000,188.000000,4.000000,,,,0.000000,4.000000,4.000000,4.000000,4.000000,4.000000,4.000000,4.000000,4.000000,4.000000,4.000000,4.000000,4.000000,4.000000,4.000000,4.000000,4.000000,4.000000,4.000000,4.000000,2.000000,4.000000,4.000000,4.000000,4.000000,4.000000,4.000000,4.000000,4.000000,4.000000,4.000000,2.000000,4.000000,66.666664
1613870461.675537,69.000000,0.000000,8.435872,-5.809125,-31.562761,-14.205958,1.194039,-1.734997,-4.234012,-0.630689,9.351746,0.492279,17.071480,13.477926,-2.061570,-16.607662,-11.587133,-40.008255,12.356818,-25.168821,-11.498966,-5.260140,8.959922,7.260911,12.200811,7.762622,-12.954976,-14.985234,-5.844206,5.405633,-13.492048,-26.220123,-18.011271,-32.127048,0.000000,171.000000,4.000000,,,,0.000000,4.000000,4.000000,4.000000,4.000000,4.000000,4.000000,4.000000,4.000000,4.000000,4.000000,4.000000,4.000000,4.000000,4.000000,4.000000,4.000000,4.000000,4.000000,4.000000,2.000000,4.000000,4.000000,4.000000,4.000000,4.000000,4.000000,4.000000,4.000000,4.000000,4.000000,2.000000,4.000000,66.666664
1613870461.683386,70.000000,0.000000,8.427437,-5.803317,-30.505556,-15.730214,-2.396899,-1.733262,-5.255419,-1.142879,9.855214,3.568709,17.567228,11.925987,-6.162072,-20.180798,-24.396059,-51.250298,10.293180,-29.246218,-16.615671,-7.818983,3.822757,5.202368,10.137328,7.242039,-13.454842,-13.944608,-5.838362,4.887407,-13.991377,-25.168262,-17.480438,-31.582102,0.000000,185.000000,4.000000,,,,0.000000,4.000000,4.000000,4.000000,4.000000,4.000000,4.000000,4.000000,4.000000,4.000000,4.000000,4.000000,4.000000,4.000000,4.000000,4.000000,4.000000,4.000000,4.000000,4.000000,2.000000,4.000000,4.000000,4.000000,4.000000,4.000000,4.000000,4.000000,4.000000,4.000000,4.000000,2.000000,4.000000,66.666664
1613870461.691135,71.000000,0.000000,8.419009,-5.797513,-37.141720,-20.329868,-9.061169,-1.218708,-4.737343,-0.116095,6.768436,5.103602,17.036840,11.401240,-6.668731,-18.109335,-24.884483,-51.711868,9.770065,-27.165689,-17.624697,-8.323984,2.793293,4.171524,9.614370,6.721977,-14.979848,-14.956304,-5.832523,5.395340,-13.977386,-27.707195,-18.488600,-34.627445,0.000000,185.000000,4.000000,,,,0.000000,4.000000,4.000000,4.000000,4.000000,4.000000,4.000000,4.000000,4.000000,4.000000,4.000000,4.000000,4.000000,4.000000,4.000000,4.000000,4.000000,4.000000,4.000000,4.000000,2.000000,4.000000,4.000000,4.000000,4.000000,4.000000,4.000000,4.000000,4.000000,4.000000,4.000000,2.000000,4.000000,66.666664
1613870461.698984,72.000000,0.000000,8.410590,-5.791716,-44.796883,-25.437744,-14.180312,-1.217489,-4.732605,-0.628800,1.120642,-5.670732,17.019804,11.389839,-6.662062,-21.680969,-22.808317,-55.249901,9.760296,-28.676985,-17.094252,-7.290020,-6.440269,4.680173,10.117577,4.663972,-17.528971,-18.018270,-5.826691,5.389945,-12.424947,-29.730770,-17.444469,-48.438969,0.000000,170.000000,4.000000,,,,0.000000,4.000000,4.000000,4.000000,4.000000,4.000000,4.000000,4.000000,4.000000,4.000000,4.000000,4.000000,4.000000,4.000000,4.000000,4.000000,4.000000,4.000000,4.000000,4.000000,2.000000,4.000000,4.000000,4.000000,4.000000,4.000000,4.000000,4.000000,4.000000,4.000000,4.000000,2.000000,4.000000,66.666664
1613870461.706734,73.000000,0.000000,8.402180,-5.785924,-47.829010,-27.976408,-19.807158,-1.216272,-4.727873,-1.140991,-1.444581,-10.793266,17.002785,11.378449,-6.142580,-29.351595,-24.323971,-62.374138,10.776176,-29.161129,-11.948953,-8.308371,-16.177420,4.162673,10.107459,2.608027,-17.511442,-18.000252,-5.820864,1.794811,-18.566368,-31.239502,-18.965487,-67.364891,0.000000,197.000000,4.000000,,,,0.000000,4.000000,4.000000,4.000000,4.000000,4.000000,4.000000,4.000000,4.000000,4.000000,4.000000,4.000000,4.000000,4.000000,4.000000,4.000000,4.000000,4.000000,4.000000,4.000000,2.000000,4.000000,4.000000,4.000000,4.000000,4.000000,4.000000,4.000000,4.000000,4.000000,4.000000,2.000000,4.000000,66.666664
1613870461.714582,74.000000,0.000000,7.880957,-5.780138,-50.858105,-31.025354,-25.428377,-1.215055,-4.723145,0.398611,-1.443136,-8.218370,17.498602,11.879891,-7.162078,-35.988911,-24.299646,-63.850224,9.739758,-25.542223,-2.193414,-7.274421,-6.417652,4.158510,9.584531,1.066957,-16.981110,-18.495073,-5.815043,-2.309548,-29.829853,-35.310825,-26.126009,-74.477013,0.000000,192.000000,4.000000,,,,0.000000,4.000000,4.000000,4.000000,4.000000,4.000000,4.000000,4.000000,4.000000,4.000000,4.000000,4.000000,4.000000,4.000000,4.000000,4.000000,4.000000,4.000000,4.000000,4.000000,2.000000,4.000000,4.000000,4.000000,4.000000,4.000000,4.000000,4.000000,4.000000,4.000000,4.000000,2.000000,4.000000,66.666664
1613870461.722332,75.000000,0.000000,8.385897,-5.774358,-46.191860,-29.455868,-22.326025,-1.213840,-4.718422,2.449495,-0.928873,-5.646050,17.481104,11.355191,-2.539531,-28.260614,-12.480474,-51.991505,10.242840,-16.285912,10.116471,0.937982,19.229792,8.769736,10.600588,-1.498213,-17.989769,-22.066320,-5.809228,-2.820059,-31.338484,-37.326797,-29.176805,-71.325615,0.000000,200.000000,4.000000,,,,0.000000,4.000000,4.000000,4.000000,4.000000,4.000000,4.000000,4.000000,4.000000,4.000000,4.000000,4.000000,4.000000,4.000000,4.000000,4.000000,4.000000,4.000000,4.000000,4.000000,2.000000,4.000000,4.000000,4.000000,4.000000,4.000000,4.000000,4.000000,4.000000,4.000000,4.000000,2.000000,4.000000,66.666664
1613870461.730181,76.000000,0.000000,9.915972,-5.768583,-36.914902,-27.375130,-15.637033,-1.212626,-4.713703,3.985507,0.610518,-1.537840,16.950802,11.343836,13.873264,-8.745173,9.583288,-25.272844,16.386442,2.704733,23.952509,10.167813,37.159279,17.991735,13.154090,-0.471073,-16.433319,-18.967331,-5.803419,-2.304418,-28.743044,-35.751011,-26.070705,-70.228645,0.000000,182.000000,4.000000,,,,0.000000,4.000000,4.000000,4.000000,4.000000,4.000000,4.000000,4.000000,4.000000,4.000000,4.000000,4.000000,4.000000,4.000000,4.000000,4.000000,4.000000,4.000000,4.000000,4.000000,2.000000,4.000000,4.000000,4.000000,4.000000,4.000000,4.000000,4.000000,4.000000,4.000000,4.000000,2.000000,4.000000,66.666664
1613870461.737930,77.000000,0.000000,11.957338,-5.762815,-40.980549,-32.988781,-16.134216,-1.211414,-4.708990,3.468701,2.148369,4.617544,17.959492,14.409415,26.679905,6.135366,25.471140,1.931915,22.011082,22.702028,34.184967,12.208927,41.737503,25.153231,14.166576,5.683244,-10.263039,-12.281698,-5.797616,-2.814934,-29.227121,-32.638336,-24.506174,-70.671234,0.000000,176.000000,4.000000,,,,0.000000,4.000000,4.000000,4.000000,4.000000,4.000000,4.000000,4.000000,4.000000,4.000000,4.000000,4.000000,4.000000,4.000000,4.000000,4.000000,4.000000,4.000000,4.000000,4.000000,2.000000,4.000000,4.000000,4.000000,4.000000,4.000000,4.000000,4.000000,4.000000,4.000000,4.000000,2.000000,4.000000,66.666664
1613870461.745779,78.000000,0.000000,12.458201,-5.757052,-39.401108,-30.904510,-12.528337,-1.210202,-4.191460,3.465232,4.710323,10.253952,20.505634,18.497570,29.217327,17.924103,30.061054,14.750496,21.989071,32.422916,36.202065,10.658257,42.208588,27.692181,13.639589,12.344227,-3.073289,-10.730954,-6.304638,-2.812119,-21.505587,-25.426210,-25.507309,-63.421078,0.000000,202.000000,4.000000,,,,0.000000,4.000000,4.000000,4.000000,4.000000,4.000000,4.000000,4.000000,4.000000,4.000000,4.000000,4.000000,4.000000,4.000000,4.000000,4.000000,4.000000,4.000000,4.000000,4.000000,2.000000,4.000000,4.000000,4.000000,4.000000,4.000000,4.000000,4.000000,4.000000,4.000000,4.000000,2.000000,4.000000,66.666664
1613870461.753528,79.000000,0.000000,11.932922,-5.751295,-23.464270,-18.565914,-4.823502,-1.208992,-5.725730,3.461767,6.244074,13.320621,21.510771,19.504713,28.162468,30.726692,30.030993,14.735745,20.941441,32.390491,32.576118,11.160419,41.653561,27.151667,13.625950,13.870344,-2.044574,-8.156121,-5.272693,-2.296487,-11.227670,-16.682835,-24.968981,-55.665352,0.000000,192.000000,4.000000,,,,0.000000,4.000000,4.000000,4.000000,4.000000,4.000000,4.000000,4.000000,4.000000,4.000000,4.000000,4.000000,4.000000,4.000000,4.000000,4.000000,4.000000,4.000000,4.000000,4.000000,2.000000,4.000000,4.000000,4.000000,4.000000,4.000000,4.000000,4.000000,4.000000,4.000000,4.000000,2.000000,4.000000,66.666664
1613870461.761377,80.000000,0.000000,11.408169,-5.745544,-22.415165,-18.034527,-5.844319,-1.207783,-7.771286,3.458305,5.725009,13.820122,20.976439,18.972387,25.570204,26.080580,24.872757,6.515882,21.946140,29.281179,32.543541,11.662079,42.637547,27.124516,13.612324,13.856474,-4.093812,-1.481298,-2.703317,-2.294190,-11.216442,-15.127690,-22.379910,-55.609684,0.000000,186.000000,4.000000,,,,0.000000,4.000000,4.000000,4.000000,4.000000,4.000000,4.000000,4.000000,4.000000,4.000000,4.000000,4.000000,4.000000,4.000000,4.000000,4.000000,4.000000,4.000000,4.000000,4.000000,2.000000,4.000000,4.000000,4.000000,4.000000,4.000000,4.000000,4.000000,4.000000,4.000000,4.000000,2.000000,4.000000,66.666664
1613870461.769126,81.000000,0.000000,12.422402,-5.739798,-30.085058,-22.631878,-4.300014,-1.206575,-8.789156,3.454847,6.744925,16.883224,21.468283,18.953415,20.929249,11.182705,17.668398,-4.259865,21.411373,21.559591,33.536640,9.599134,45.671833,27.610212,13.598712,19.483643,1.038487,1.597106,-1.674973,-2.291896,-11.718046,-12.548460,-20.306248,-50.425869,0.000000,198.000000,4.000000,,,,0.000000,4.000000,4.000000,4.000000,4.000000,4.000000,4.000000,4.000000,4.000000,4.000000,4.000000,4.000000,4.000000,4.000000,4.000000,4.000000,4.000000,4.000000,4.000000,4.000000,2.000000,4.000000,4.000000,4.000000,4.000000,4.000000,4.000000,4.000000,4.000000,4.000000,4.000000,2.000000,4.000000,66.666664
1613870461.776875,82.000000,0.000000,12.409980,-5.734058,-18.260101,-15.942578,6.986338,-1.205369,-8.267547,3.451392,11.353565,20.968904,20.933994,18.934462,19.369858,9.120240,13.035344,-10.409451,21.389963,10.255980,24.272333,7.025433,41.523598,24.505678,13.585113,25.618006,10.268218,0.057047,-2.186119,-2.289604,-7.603765,-3.817963,-21.311583,-33.452366,0.000000,194.000000,4.000000,,,,0.000000,4.000000,4.000000,4.000000,4.000000,4.000000,4.000000,4.000000,4.000000,4.000000,4.000000,4.000000,4.000000,4.000000,4.000000,4.000000,4.000000,4.000000,4.000000,4.000000,2.000000,4.000000,4.000000,4.000000,4.000000,4.000000,4.000000,4.000000,4.000000,4.000000,4.000000,2.000000,4.000000,66.666664
1613870461.784624,83.000000,0.000000,8.807826,-5.728324,-6.959789,-10.798430,13.133198,-1.204163,-8.259279,3.447940,14.419135,20.947937,15.784855,18.915527,18.324846,9.111119,6.868463,-13.988786,20.855753,4.604698,10.914728,6.505587,33.276943,19.865788,13.058707,24.566748,13.334873,0.056990,-2.183933,-2.287315,-5.544878,1.314060,-22.828732,-23.162504,0.000000,184.000000,4.000000,,,,0.000000,4.000000,4.000000,4.000000,4.000000,4.000000,4.000000,4.000000,4.000000,4.000000,4.000000,4.000000,4.000000,4.000000,4.000000,4.000000,4.000000,4.000000,4.000000,4.000000,2.000000,4.000000,4.000000,4.000000,4.000000,4.000000,4.000000,4.000000,4.000000,4.000000,4.000000,2.000000,4.000000,66.666664
1613870461.792273,84.000000,0.000000,8.799018,-5.722596,-8.491291,-11.813273,10.555962,-1.202959,-8.251019,3.444492,13.379074,21.439810,12.692147,18.896612,15.742419,0.896880,-1.343534,-19.615822,21.347717,5.625734,7.826890,7.011902,28.628283,18.307461,13.045649,21.978077,11.270256,0.569754,-2.181749,-2.285028,-4.000872,0.287105,-14.087955,-24.164984,0.000000,158.000000,4.000000,,,,0.000000,4.000000,4.000000,4.000000,4.000000,4.000000,4.000000,4.000000,4.000000,4.000000,4.000000,4.000000,4.000000,4.000000,4.000000,4.000000,4.000000,4.000000,4.000000,4.000000,2.000000,4.000000,4.000000,4.000000,4.000000,4.000000,4.000000,4.000000,4.000000,4.000000,4.000000,4.000000,4.000000,83.333336
1613870461.800022,85.000000,0.000000,13.405603,-6.229694,-7.457159,-9.750178,10.545406,-1.201756,-8.242768,3.441048,13.365695,21.931190,13.705096,18.877716,15.213857,-2.180940,-6.470396,-21.647490,21.326368,5.620109,9.870345,6.492070,23.984270,19.314795,13.545424,19.904818,11.771806,0.056364,-2.179567,-2.795563,0.105693,-0.226003,-1.766174,-25.166460,0.000000,170.000000,4.000000,,,,0.000000,4.000000,4.000000,4.000000,4.000000,4.000000,4.000000,4.000000,4.000000,4.000000,4.000000,4.000000,4.000000,4.000000,4.000000,4.000000,4.000000,4.000000,4.000000,4.000000,2.000000,4.000000,4.000000,4.000000,4.000000,4.000000,4.000000,4.000000,4.000000,4.000000,4.000000,4.000000,4.000000,83.333336
1613870461.807671,86.000000,0.000000,14.930659,-5.197823,-5.911240,-9.227608,11.560501,-1.200555,-8.234526,3.437607,13.352329,14.216950,12.152929,18.858837,15.198643,-4.230041,-5.438284,-22.651482,20.792223,4.588848,8.322014,6.998398,17.293619,19.295479,13.019057,15.782349,12.272855,0.056307,-2.177387,-1.767126,1.644049,0.287044,0.286874,-24.115652,0.000000,172.000000,4.000000,,,,0.000000,4.000000,4.000000,4.000000,4.000000,4.000000,4.000000,4.000000,4.000000,4.000000,4.000000,4.000000,4.000000,4.000000,4.000000,4.000000,4.000000,4.000000,4.000000,4.000000,2.000000,4.000000,4.000000,4.000000,4.000000,4.000000,4.000000,4.000000,4.000000,4.000000,4.000000,4.000000,4.000000,83.333336
1613870461.815420,87.000000,0.000000,11.838806,-2.628523,-8.469432,-7.679918,10.523300,-1.199354,-8.226292,3.434169,12.826157,9.587349,9.063853,18.839979,16.209085,-8.328375,0.721000,-21.603189,21.284250,6.635541,12.929076,9.555502,12.148120,18.763363,13.518859,13.715284,9.183659,0.056251,-2.175210,0.798743,0.616764,0.286757,-3.303156,-24.091536,0.000000,193.000000,4.000000,,,,0.000000,4.000000,4.000000,4.000000,4.000000,4.000000,4.000000,4.000000,4.000000,4.000000,4.000000,4.000000,4.000000,4.000000,4.000000,4.000000,4.000000,4.000000,4.000000,4.000000,2.000000,4.000000,4.000000,4.000000,4.000000,4.000000,4.000000,4.000000,4.000000,4.000000,4.000000,4.000000,4.000000,83.333336
1613870461.823070,88.000000,0.000000,11.826967,-1.600253,-7.948142,-2.544033,10.512776,-1.198155,-8.218065,3.430735,13.326151,18.808531,12.131713,18.821138,19.782619,1.423543,9.438228,-11.837996,23.827068,9.193007,21.634096,11.084409,14.187254,19.257421,17.607904,13.188748,7.123193,0.056195,-2.173035,1.823586,0.616147,-0.226350,-3.299853,-22.016163,0.000000,218.000000,4.000000,,,,0.000000,4.000000,4.000000,4.000000,4.000000,4.000000,4.000000,4.000000,4.000000,4.000000,4.000000,4.000000,4.000000,4.000000,4.000000,4.000000,4.000000,4.000000,4.000000,4.000000,2.000000,4.000000,4.000000,4.000000,4.000000,4.000000,4.000000,4.000000,4.000000,4.000000,4.000000,4.000000,4.000000,83.333336
1613870461.830819,89.000000,0.000000,11.815140,-2.111474,-5.376091,-5.105592,10.502264,-1.709777,-8.209847,3.940125,13.312825,24.943569,16.734966,18.802319,19.762836,16.806736,14.044174,-3.108210,25.341703,9.696635,25.715025,10.560503,26.993580,19.750984,21.180040,12.149919,10.705813,0.056138,-2.170862,1.308942,1.128351,-0.226124,-2.783733,-20.968506,0.000000,173.000000,4.000000,,,,0.000000,4.000000,4.000000,4.000000,4.000000,4.000000,4.000000,4.000000,4.000000,4.000000,4.000000,4.000000,4.000000,4.000000,4.000000,4.000000,4.000000,4.000000,4.000000,4.000000,2.000000,4.000000,4.000000,4.000000,4.000000,4.000000,4.000000,4.000000,4.000000,4.000000,4.000000,4.000000,4.000000,83.333336
1613870461.838468,90.000000,0.000000,11.803325,-2.109362,-5.883535,-8.177409,10.491761,-1.195247,-7.688817,3.423364,12.273871,20.303240,16.718231,18.783516,19.230253,22.943775,14.542951,-2.079461,24.803541,9.686938,25.176491,10.549943,42.864021,19.218412,20.646040,17.778793,15.310493,0.056082,-2.168691,1.307633,0.614402,-0.225898,-2.780949,-21.973177,0.000000,189.000000,4.000000,,,,0.000000,4.000000,4.000000,4.000000,4.000000,4.000000,4.000000,4.000000,4.000000,4.000000,4.000000,4.000000,4.000000,4.000000,4.000000,4.000000,4.000000,4.000000,4.000000,4.000000,2.000000,4.000000,4.000000,4.000000,4.000000,4.000000,4.000000,4.000000,4.000000,4.000000,4.000000,4.000000,4.000000,83.333336
1613870461.846217,91.000000,0.000000,12.817163,-2.107253,-6.390472,0.548717,10.481270,0.344410,-8.193949,2.907120,14.312880,21.308578,20.804077,18.764732,24.852049,29.587498,15.554049,2.025183,25.291557,10.190072,23.612852,11.052214,46.923721,17.147911,20.625393,24.940502,15.295182,0.056026,-2.166522,1.306325,0.613788,-0.225672,1.324396,-20.412743,0.000000,110.000000,4.000000,,,,0.000000,4.000000,4.000000,4.000000,4.000000,4.000000,4.000000,4.000000,4.000000,4.000000,4.000000,4.000000,4.000000,4.000000,4.000000,4.000000,4.000000,4.000000,4.000000,4.000000,2.000000,4.000000,4.000000,4.000000,4.000000,4.000000,4.000000,4.000000,4.000000,4.000000,4.000000,4.000000,4.000000,83.333336
1613870461.853866,92.000000,0.000000,9.214602,-2.105145,-6.384082,5.676373,10.470789,2.395348,-8.185755,6.493957,18.913952,27.441116,28.475580,19.258787,28.416941,32.634834,13.487212,5.100080,25.266266,10.179882,22.050777,11.041162,42.774235,16.105124,21.630409,18.761717,12.202964,0.055970,-2.164356,1.305019,0.613174,-0.225446,4.399995,-16.289766,0.000000,200.000000,4.000000,,,,0.000000,4.000000,4.000000,4.000000,4.000000,4.000000,4.000000,4.000000,4.000000,4.000000,4.000000,4.000000,4.000000,4.000000,4.000000,4.000000,4.000000,4.000000,4.000000,4.000000,2.000000,4.000000,4.000000,4.000000,4.000000,4.000000,4.000000,4.000000,4.000000,4.000000,4.000000,4.000000,4.000000,83.333336
1613870461.861615,93.000000,0.000000,5.615644,-1.590220,-5.352057,-2.021611,10.460318,2.905773,-5.100646,7.513104,20.946320,27.413675,27.421463,19.239529,21.209036,22.345787,10.909623,-4.648609,23.189718,9.656881,22.028727,10.517300,36.577614,15.576198,20.583138,10.537827,11.165119,0.055914,-2.162191,1.303714,0.612561,0.287600,4.395595,-13.709373,0.000000,203.000000,4.000000,,,,0.000000,4.000000,4.000000,4.000000,4.000000,4.000000,4.000000,4.000000,4.000000,4.000000,4.000000,4.000000,4.000000,4.000000,4.000000,4.000000,4.000000,4.000000,4.000000,4.000000,2.000000,4.000000,4.000000,4.000000,4.000000,4.000000,4.000000,4.000000,4.000000,4.000000,4.000000,4.000000,4.000000,83.333336
1613870461.869264,94.000000,0.000000,7.148489,-3.127091,-6.372345,-6.634974,10.449858,1.877226,-4.069904,0.838924,20.412552,24.309338,19.701735,18.707470,16.572443,15.656775,11.924355,-13.361909,21.628067,10.160046,17.391314,10.506783,30.900011,12.996519,20.562553,12.065750,12.692416,0.055858,-1.647209,1.302410,0.611948,0.287312,3.878379,-13.695664,0.000000,197.000000,4.000000,,,,0.000000,4.000000,4.000000,4.000000,4.000000,4.000000,4.000000,4.000000,4.000000,4.000000,4.000000,4.000000,4.000000,4.000000,4.000000,4.000000,4.000000,4.000000,4.000000,4.000000,2.000000,4.000000,4.000000,4.000000,4.000000,4.000000,4.000000,4.000000,4.000000,4.000000,4.000000,4.000000,4.000000,83.333336
1613870461.877013,95.000000,0.000000,6.628520,-5.175246,-6.878794,-4.577057,9.926587,2.388169,-6.117116,-4.290120,20.392139,23.772207,16.605110,18.688761,16.043051,18.205221,6.784225,-13.861368,17.503876,9.124245,8.143153,10.496276,27.792187,11.957881,22.080454,13.079325,11.141262,0.568623,-2.158382,1.301108,0.611336,-0.225796,4.387321,-14.194790,0.000000,196.000000,4.000000,,,,0.000000,4.000000,4.000000,4.000000,4.000000,4.000000,4.000000,4.000000,4.000000,4.000000,4.000000,4.000000,4.000000,4.000000,4.000000,4.000000,4.000000,4.000000,4.000000,4.000000,2.000000,4.000000,4.000000,4.000000,4.000000,4.000000,4.000000,4.000000,4.000000,4.000000,4.000000,4.000000,4.000000,83.333336
1613870461.884663,96.000000,0.000000,1.493687,-6.195712,2.358854,-4.572480,10.429482,2.385781,-8.162281,-4.285830,20.884569,25.286898,17.614145,15.080329,6.796238,15.110093,-8.094355,-18.975712,10.819704,2.961274,4.545267,6.383215,18.533627,10.407462,16.417347,11.014964,4.463454,-0.457587,-3.694685,1.812627,1.123546,1.312891,5.408575,-12.642133,8064.000000,0.000000,4.000000,,,,0.000000,4.000000,4.000000,4.000000,4.000000,4.000000,4.000000,4.000000,4.000000,4.000000,4.000000,4.000000,4.000000,4.000000,4.000000,4.000000,4.000000,4.000000,4.000000,4.000000,2.000000,4.000000,4.000000,4.000000,4.000000,4.000000,4.000000,4.000000,4.000000,4.000000,4.000000,4.000000,4.000000,83.333336
1613870461.892412,97.000000,0.000000,-0.046268,-5.676696,12.612906,-5.593548,10.419051,1.870575,-9.692580,-4.281544,20.350863,23.210329,16.058069,6.347300,-3.466969,10.992419,-17.829849,-26.136223,6.193500,-4.733995,5.566362,-0.802655,1.592015,4.243208,5.631699,7.414205,0.356427,-2.508411,-5.742272,0.272353,1.635243,-0.226883,4.377525,-13.142311,8064.000000,0.000000,4.000000,,,,0.000000,4.000000,4.000000,4.000000,4.000000,4.000000,4.000000,4.000000,4.000000,4.000000,4.000000,4.000000,4.000000,4.000000,4.000000,4.000000,4.000000,4.000000,4.000000,4.000000,2.000000,4.000000,4.000000,4.000000,4.000000,4.000000,4.000000,4.000000,4.000000,4.000000,4.000000,4.000000,4.000000,83.333336
1613870461.900061,98.000000,0.000000,0.979419,-5.671019,8.497728,-5.587955,9.382992,2.894345,-11.734170,-4.277263,20.330513,18.571733,11.939447,0.187107,-3.463502,2.263478,-16.273558,-26.110086,6.187306,-5.242082,1.458232,-0.289032,-8.153167,0.649221,1.010683,-2.336799,0.356070,-4.044364,-5.736530,-1.779202,0.607966,-9.457425,3.860327,-13.641990,8064.000000,0.000000,4.000000,,,,0.000000,4.000000,4.000000,4.000000,4.000000,4.000000,4.000000,4.000000,4.000000,4.000000,4.000000,4.000000,4.000000,4.000000,4.000000,4.000000,4.000000,4.000000,4.000000,4.000000,2.000000,4.000000,4.000000,4.000000,4.000000,4.000000,4.000000,4.000000,4.000000,4.000000,4.000000,4.000000,4.000000,83.333336
1613870461.907910,99.000000,0.000000,0.465619,-5.665348,5.925128,-5.069546,11.937711,4.942733,-12.235256,-4.272985,20.310183,15.989059,4.235200,-0.838721,-3.972859,-21.841351,-15.231644,-27.622438,5.668299,-5.236839,-2.132970,5.865103,-9.683475,-0.377069,2.548134,-11.565231,1.381355,-2.501858,-5.217973,-2.290243,1.632999,-14.576173,5.907749,-12.602707,8064.000000,0.000000,4.000000,,,,0.000000,4.000000,4.000000,4.000000,4.000000,4.000000,4.000000,4.000000,4.000000,4.000000,4.000000,4.000000,4.000000,4.000000,4.000000,4.000000,4.000000,4.000000,4.000000,4.000000,2.000000,4.000000,4.000000,4.000000,4.000000,4.000000,4.000000,4.000000,4.000000,4.000000,4.000000,4.000000,4.000000,83.333336
1613870461.915659,100.000000,0.000000,2.516436,-5.146862,11.047408,-4.551656,18.592440,6.476252,-12.223021,-8.371276,20.289871,17.511532,-1.922881,0.700579,-7.045809,-35.152843,-18.293335,-33.748661,6.175451,-6.770064,0.433265,6.884879,-7.109689,0.136129,2.545585,-11.553666,0.867153,-3.012177,-5.725575,-2.287953,0.092905,-15.074417,1.286456,-13.615745,8064.000000,0.000000,4.000000,,,,0.000000,4.000000,4.000000,4.000000,4.000000,4.000000,4.000000,4.000000,4.000000,4.000000,4.000000,4.000000,4.000000,4.000000,4.000000,4.000000,4.000000,4.000000,4.000000,4.000000,2.000000,4.000000,4.000000,4.000000,4.000000,4.000000,4.000000,4.000000,4.000000,4.000000,4.000000,4.000000,4.000000,83.333336
1613870461.923508,101.000000,0.000000,4.565201,-5.141715,0.267130,-6.085566,22.163591,5.956955,-11.185157,-6.824443,20.269581,15.955559,1.668785,3.776801,-0.884917,-13.066407,-8.018632,-27.561068,11.810301,-0.609448,6.586679,6.365174,6.743575,8.341121,1.517399,-10.516471,-2.210637,-11.727114,-5.719850,-2.285665,-10.676419,-20.187548,-14.099445,-25.397001,8064.000000,0.000000,4.000000,,,,0.000000,4.000000,4.000000,4.000000,4.000000,4.000000,4.000000,4.000000,4.000000,4.000000,4.000000,4.000000,4.000000,4.000000,4.000000,4.000000,4.000000,4.000000,4.000000,4.000000,2.000000,4.000000,4.000000,4.000000,4.000000,4.000000,4.000000,4.000000,4.000000,4.000000,4.000000,4.000000,4.000000,83.333336
1613870461.931257,102.000000,0.000000,4.560636,-7.187856,-14.604932,-8.130762,20.602966,5.950998,-9.122689,2.925971,19.736492,15.426783,8.846603,8.901230,12.962122,18.741531,14.553490,-7.020686,18.465157,11.186033,15.810861,15.589578,23.659908,18.589190,2.028702,-4.352108,-3.746888,-21.458977,-5.201310,-1.770559,-20.922153,-29.398130,-22.803295,-38.704937,8064.000000,0.000000,4.000000,,,,0.000000,4.000000,4.000000,4.000000,4.000000,4.000000,4.000000,4.000000,4.000000,4.000000,4.000000,4.000000,4.000000,4.000000,4.000000,4.000000,4.000000,4.000000,4.000000,4.000000,2.000000,4.000000,4.000000,4.000000,4.000000,4.000000,4.000000,4.000000,4.000000,4.000000,4.000000,4.000000,4.000000,83.333336
1613870461.939106,103.000000,0.000000,4.556076,-9.231950,-8.949302,-6.584170,21.095184,5.945047,-7.575105,8.564071,20.229576,25.667767,10.376219,11.969252,22.692749,32.056122,27.359449,8.883771,18.446692,14.764591,20.923256,25.317577,25.174709,18.057779,2.539494,4.883013,-1.691859,-22.463158,-5.708929,-4.845711,-21.926872,-33.984116,-21.754850,-42.768795,8064.000000,0.000000,4.000000,,,,0.000000,4.000000,4.000000,4.000000,4.000000,4.000000,4.000000,4.000000,4.000000,4.000000,4.000000,4.000000,4.000000,4.000000,4.000000,4.000000,4.000000,4.000000,4.000000,4.000000,2.000000,4.000000,4.000000,4.000000,4.000000,4.000000,4.000000,4.000000,4.000000,4.000000,4.000000,4.000000,4.000000,83.333336
1613870461.946855,104.000000,0.000000,4.551519,-9.222717,-2.786506,-5.551945,21.586908,5.939102,-8.080351,7.529865,21.234987,33.847225,9.340201,11.444462,24.208519,31.511246,24.767986,9.387708,14.325682,11.672903,19.876692,22.728157,23.098253,15.988441,2.536954,4.878129,-6.305552,-20.902233,-8.267323,-8.943430,-20.366484,-36.514236,-21.733095,-44.264488,8064.000000,0.000000,4.000000,,,,0.000000,4.000000,4.000000,4.000000,4.000000,4.000000,4.000000,4.000000,4.000000,4.000000,4.000000,4.000000,4.000000,4.000000,4.000000,4.000000,4.000000,4.000000,4.000000,4.000000,2.000000,4.000000,4.000000,4.000000,4.000000,4.000000,4.000000,4.000000,4.000000,4.000000,4.000000,4.000000,4.000000,83.333336
1613870461.954704,105.000000,0.000000,4.546968,-9.213495,-7.911924,-8.623316,20.539680,5.933163,-8.072270,7.009515,19.162470,24.582609,10.356503,11.433018,23.158669,34.556660,21.153475,5.275756,15.336997,17.815077,28.061943,17.064404,30.767462,19.562195,2.534417,-0.254954,-11.427451,-21.906973,-9.284697,-9.960127,-21.371758,-36.477722,-20.685722,-47.297150,8064.000000,0.000000,4.000000,,,,0.000000,4.000000,4.000000,4.000000,4.000000,4.000000,4.000000,4.000000,4.000000,4.000000,4.000000,4.000000,4.000000,4.000000,4.000000,4.000000,4.000000,4.000000,4.000000,4.000000,2.000000,4.000000,4.000000,4.000000,4.000000,4.000000,4.000000,4.000000,4.000000,4.000000,4.000000,4.000000,4.000000,83.333336
1613870461.962453,106.000000,0.000000,6.080883,-9.204282,-5.339910,-9.127513,24.108885,5.927230,-8.064198,8.028147,20.681768,21.993925,10.346146,11.934404,27.238073,44.778511,23.183603,10.398685,23.013968,29.592133,42.905674,23.714006,37.403362,20.055454,2.531883,3.335045,-1.159613,-21.885065,-9.275412,-9.437346,-21.350386,-33.877140,-17.588114,-46.224209,8192.000000,0.000000,4.000000,,,,0.000000,4.000000,4.000000,4.000000,4.000000,4.000000,4.000000,4.000000,4.000000,4.000000,4.000000,4.000000,4.000000,4.000000,4.000000,4.000000,4.000000,4.000000,4.000000,4.000000,2.000000,4.000000,4.000000,4.000000,4.000000,4.000000,4.000000,4.000000,4.000000,4.000000,4.000000,4.000000,4.000000,83.333336
1613870461.970302,107.000000,0.000000,8.126083,-9.195077,-3.796108,-5.528642,28.187340,5.921302,-5.492032,8.020118,29.379036,40.433468,10.335799,11.922470,28.236477,48.836296,24.698881,18.593414,25.555056,28.024080,41.324306,37.023624,39.417240,20.035398,2.529351,7.434274,12.687700,-21.350359,-8.753316,-9.427909,-20.816216,-31.791981,-18.596167,-46.177986,8192.000000,0.000000,4.000000,,,,0.000000,4.000000,4.000000,4.000000,4.000000,4.000000,4.000000,4.000000,4.000000,4.000000,4.000000,4.000000,4.000000,4.000000,4.000000,4.000000,4.000000,4.000000,4.000000,4.000000,2.000000,4.000000,4.000000,4.000000,4.000000,4.000000,4.000000,4.000000,4.000000,4.000000,4.000000,4.000000,4.000000,83.333336
1613870461.978051,108.000000,0.000000,8.117957,-9.185883,-15.074364,-5.010293,26.107870,6.428202,-3.948078,6.986457,28.836836,45.008419,10.838284,11.397727,23.080036,42.120796,16.981874,13.446616,19.888475,17.226824,30.000933,35.448139,37.326542,20.015364,2.526822,7.426840,11.136551,-20.816189,-8.744562,-9.418481,-20.282578,-30.734549,-19.603210,-52.285652,8064.000000,0.000000,4.000000,,,,0.000000,4.000000,4.000000,4.000000,4.000000,4.000000,4.000000,4.000000,4.000000,4.000000,4.000000,4.000000,4.000000,4.000000,4.000000,4.000000,4.000000,4.000000,4.000000,4.000000,2.000000,4.000000,4.000000,4.000000,4.000000,4.000000,4.000000,4.000000,4.000000,4.000000,4.000000,4.000000,4.000000,83.333336
1613870461.985900,109.000000,0.000000,8.109839,-9.176697,-21.213135,-8.082206,21.466379,6.421773,-4.456950,3.902548,15.987487,27.014694,8.776164,11.899150,21.005672,33.360725,7.221303,3.689580,18.330126,15.158316,20.740162,17.976795,24.981522,13.328681,2.524295,7.932233,4.971568,-20.282553,-9.248638,-9.409062,-20.262295,-31.216635,-18.557966,-55.823112,8192.000000,0.000000,4.000000,,,,0.000000,4.000000,4.000000,4.000000,4.000000,4.000000,4.000000,4.000000,4.000000,4.000000,4.000000,4.000000,4.000000,4.000000,4.000000,4.000000,4.000000,4.000000,4.000000,4.000000,2.000000,4.000000,4.000000,4.000000,4.000000,4.000000,4.000000,4.000000,4.000000,4.000000,4.000000,4.000000,4.000000,83.333336
1613870461.993649,110.000000,0.000000,8.101729,-9.167520,-19.653461,-9.099765,21.444912,5.902531,-4.452493,3.898645,11.356114,15.705628,5.690465,11.374431,17.907745,17.942749,8.239723,-4.006417,15.747693,13.091875,1.232243,8.728048,7.007823,5.110224,2.521770,4.847378,5.479417,-20.775089,-9.239389,-9.399653,-20.242033,-32.211060,-17.000946,-53.716007,8064.000000,0.000000,4.000000,,,,0.000000,4.000000,4.000000,4.000000,4.000000,4.000000,4.000000,4.000000,4.000000,4.000000,4.000000,4.000000,4.000000,4.000000,4.000000,4.000000,4.000000,4.000000,4.000000,4.000000,2.000000,4.000000,4.000000,4.000000,4.000000,4.000000,4.000000,4.000000,4.000000,4.000000,4.000000,4.000000,4.000000,83.333336
1613870462.001498,111.000000,0.000000,8.093628,-8.645532,-19.633808,-6.526562,21.423468,6.409449,-3.935220,4.407567,13.908861,16.202744,3.633492,6.234851,3.530862,-6.690578,4.641740,-20.412668,5.475535,-6.408396,-24.410015,11.283423,-10.435082,0.489729,2.519249,-1.311315,-0.679909,-20.754314,-8.204509,-9.390254,-20.221792,-29.614744,-15.958305,-51.098186,8064.000000,0.000000,4.000000,,,,0.000000,4.000000,4.000000,4.000000,4.000000,4.000000,4.000000,4.000000,4.000000,4.000000,4.000000,4.000000,4.000000,4.000000,4.000000,4.000000,4.000000,4.000000,4.000000,4.000000,2.000000,4.000000,4.000000,4.000000,4.000000,4.000000,4.000000,4.000000,4.000000,4.000000,4.000000,4.000000,4.000000,83.333336
1613870462.009247,112.000000,0.000000,8.085534,-9.149707,-19.614174,-9.084138,17.299479,4.864578,-6.495388,-2.776328,8.766747,14.135259,-2.011167,0.074770,-10.318822,-26.171068,-17.414185,-41.417896,-2.222249,-25.376347,-32.077911,4.092653,-27.860544,-7.715889,2.516730,-4.386927,-18.115126,-20.733561,-10.247586,-9.380864,-20.201571,-32.662052,-19.019270,-53.098373,8064.000000,0.000000,4.000000,,,,0.000000,4.000000,4.000000,4.000000,4.000000,4.000000,4.000000,4.000000,4.000000,4.000000,4.000000,4.000000,4.000000,4.000000,4.000000,4.000000,4.000000,4.000000,4.000000,4.000000,2.000000,4.000000,4.000000,4.000000,4.000000,4.000000,4.000000,4.000000,4.000000,4.000000,4.000000,4.000000,4.000000,83.333336
1613870462.016897,113.000000,0.000000,8.077449,-9.140557,-22.158663,-19.331465,8.564231,-0.268491,-8.540174,-11.491500,1.578493,10.531380,-10.214284,-0.438125,-12.872606,-44.606434,-35.345486,-58.812374,-2.732847,-30.991997,-27.430450,-10.270414,-43.217300,-15.400480,2.514213,-10.536386,-30.404703,-27.379494,-16.904005,-9.371483,-22.232651,-48.526825,-28.231020,-60.737579,8064.000000,0.000000,4.000000,,,,0.000000,4.000000,4.000000,4.000000,4.000000,4.000000,4.000000,4.000000,4.000000,4.000000,4.000000,4.000000,4.000000,4.000000,4.000000,4.000000,4.000000,4.000000,4.000000,4.000000,2.000000,4.000000,4.000000,4.000000,4.000000,4.000000,4.000000,4.000000,4.000000,4.000000,4.000000,4.000000,4.000000,83.333336
1613870462.024646,114.000000,0.000000,8.069371,-8.618596,-29.828812,-27.517262,-3.239205,-4.883607,-6.480352,-11.992829,0.551274,2.828540,-13.280993,0.587954,-10.295630,-66.613113,-37.874245,-77.215103,-1.191652,-37.114849,-33.044044,-6.670400,-47.276646,-15.385080,2.511698,-20.782261,-32.425579,-38.121346,-20.989666,-9.362111,-25.800161,-61.811634,-32.818172,-72.471718,8064.000000,0.000000,4.000000,,,,0.000000,4.000000,4.000000,4.000000,4.000000,4.000000,4.000000,4.000000,4.000000,4.000000,4.000000,4.000000,4.000000,4.000000,4.000000,4.000000,4.000000,4.000000,4.000000,4.000000,2.000000,4.000000,4.000000,4.000000,4.000000,4.000000,4.000000,4.000000,4.000000,4.000000,4.000000,4.000000,4.000000,83.333336
1613870462.032295,115.000000,0.000000,8.061302,-9.635618,-35.440006,-26.976923,-8.876991,-5.391544,-4.422590,-10.442375,2.089184,-16.148647,-17.370275,-0.438275,-10.285336,-78.854187,-40.913292,-92.522499,-1.190461,-49.385426,-40.703308,3.079860,-37.998600,-14.344054,1.483546,-23.838402,-31.880335,-43.211430,-19.943035,-9.352749,-27.825644,-61.749821,-31.246893,-78.553093,7936.000000,0.000000,4.000000,,,,0.000000,4.000000,4.000000,4.000000,4.000000,4.000000,4.000000,4.000000,4.000000,4.000000,4.000000,4.000000,4.000000,4.000000,4.000000,4.000000,4.000000,4.000000,4.000000,4.000000,2.000000,4.000000,4.000000,4.000000,4.000000,4.000000,4.000000,4.000000,4.000000,4.000000,4.000000,4.000000,4.000000,83.333336
1613870462.040044,116.000000,0.000000,8.053241,-12.190085,-35.404568,-26.437126,-9.380935,-4.873333,-4.418167,-11.457574,1.574274,-27.414549,-21.455469,-0.437837,-12.326332,-73.647133,-42.410843,-91.917160,-3.240552,-52.412964,-29.380554,-0.512964,-18.986242,-12.278428,-0.569220,-22.788921,-32.874096,-43.168217,-19.923092,-9.343396,-27.797817,-60.149609,-32.754108,-78.474533,8064.000000,0.000000,4.000000,,,,0.000000,4.000000,4.000000,4.000000,4.000000,4.000000,4.000000,4.000000,4.000000,4.000000,4.000000,4.000000,4.000000,4.000000,4.000000,4.000000,4.000000,4.000000,4.000000,4.000000,2.000000,4.000000,4.000000,4.000000,4.000000,4.000000,4.000000,4.000000,4.000000,4.000000,4.000000,4.000000,4.000000,83.333336
1613870462.047693,117.000000,0.000000,8.045187,-13.203536,-34.343521,-28.461971,-9.884375,-5.894100,-4.413749,-11.446116,1.059880,-14.053802,-7.587860,5.716447,-6.160160,-43.317074,-21.342791,-67.722679,2.916534,-33.386192,0.905236,3.590113,4.109666,-2.009739,-2.619933,-23.791775,-32.328400,-43.125050,-20.415989,-9.334053,-27.770020,-62.140743,-35.285458,-78.908882,8064.000000,0.000000,4.000000,,,,0.000000,4.000000,4.000000,4.000000,4.000000,4.000000,4.000000,4.000000,4.000000,4.000000,4.000000,4.000000,4.000000,4.000000,4.000000,4.000000,4.000000,4.000000,4.000000,4.000000,2.000000,4.000000,4.000000,4.000000,4.000000,4.000000,4.000000,4.000000,4.000000,4.000000,4.000000,4.000000,4.000000,83.333336
1613870462.055442,118.000000,0.000000,8.037142,-12.677512,-34.821999,-26.895048,-6.284747,-5.375385,-4.922156,-8.357747,3.110102,11.088457,17.035112,11.351756,18.461386,-10.453243,10.473425,-34.834442,18.298233,-0.532294,30.135099,30.253189,23.592735,10.299963,0.972431,-18.126957,-28.706329,-42.569103,-19.882753,-9.324719,-27.742249,-61.052959,-33.198891,-77.291512,7936.000000,0.000000,4.000000,,,,0.000000,4.000000,4.000000,4.000000,4.000000,4.000000,4.000000,4.000000,4.000000,4.000000,4.000000,4.000000,4.000000,4.000000,4.000000,4.000000,4.000000,4.000000,4.000000,4.000000,2.000000,4.000000,4.000000,4.000000,4.000000,4.000000,4.000000,4.000000,4.000000,4.000000,4.000000,4.000000,4.000000,83.333336
1613870462.063091,119.000000,0.000000,8.029105,-12.152014,-35.812817,-26.355331,0.388205,-4.857190,-3.891593,-5.272466,6.696735,21.333778,27.787308,12.366046,39.468563,22.377724,27.898849,-1.979095,28.536345,24.596443,41.387016,46.633194,30.235809,19.520432,8.663766,-8.878060,-24.062239,-39.449612,-19.862871,-8.802574,-27.714508,-59.966267,-31.114408,-74.137299,7936.000000,0.000000,4.000000,,,,0.000000,4.000000,4.000000,4.000000,4.000000,4.000000,4.000000,4.000000,4.000000,4.000000,4.000000,4.000000,4.000000,4.000000,4.000000,4.000000,4.000000,4.000000,4.000000,4.000000,2.000000,4.000000,4.000000,4.000000,4.000000,4.000000,4.000000,4.000000,4.000000,4.000000,4.000000,4.000000,4.000000,83.333336
1613870462.070840,120.000000,0.000000,8.533896,-12.652682,-31.674440,-28.380259,4.490381,-5.877974,-1.836419,-3.215911,9.254141,19.261164,25.195417,11.328038,37.890636,21.329704,27.870951,1.612628,24.405245,26.110308,35.704605,35.817329,26.103010,20.013733,11.219205,-5.279438,-22.499714,-38.384521,-19.843008,-8.793772,-29.225254,-60.931942,-31.596115,-75.088799,8192.000000,0.000000,4.000000,,,,0.000000,4.000000,4.000000,4.000000,4.000000,4.000000,4.000000,4.000000,4.000000,4.000000,4.000000,4.000000,4.000000,4.000000,4.000000,4.000000,4.000000,4.000000,4.000000,4.000000,2.000000,4.000000,4.000000,4.000000,4.000000,4.000000,4.000000,4.000000,4.000000,4.000000,4.000000,4.000000,4.000000,83.333336
1613870462.078490,121.000000,0.000000,8.012542,-13.665670,-19.847895,-20.659571,9.614096,-2.282352,-0.808941,-3.725516,9.244887,24.370108,24.657402,11.316710,31.698898,16.180170,23.227694,-7.106933,17.201353,20.955994,26.950951,25.012281,22.999985,14.865513,9.669524,-7.325441,-25.041317,-38.858955,-19.823164,-9.810618,-31.760132,-60.871010,-32.077339,-72.449608,8064.000000,0.000000,4.000000,,,,0.000000,4.000000,4.000000,4.000000,4.000000,4.000000,4.000000,4.000000,4.000000,4.000000,4.000000,4.000000,4.000000,4.000000,4.000000,4.000000,4.000000,4.000000,4.000000,4.000000,2.000000,4.000000,4.000000,4.000000,4.000000,4.000000,4.000000,4.000000,4.000000,4.000000,4.000000,4.000000,4.000000,83.333336
1613870462.086239,122.000000,0.000000,8.004530,-11.087903,-11.622919,-4.741475,15.245507,4.386597,-0.295312,-3.721791,11.286924,29.473942,25.658386,12.331035,26.538994,9.497323,16.537800,-5.048544,15.645690,15.806831,18.718872,26.525730,17.848780,11.773725,11.198317,-7.318116,-22.964993,-36.768814,-19.803341,-9.800808,-31.728371,-52.605011,-31.532440,-61.095108,8064.000000,0.000000,4.000000,,,,0.000000,4.000000,4.000000,4.000000,4.000000,4.000000,4.000000,4.000000,4.000000,4.000000,4.000000,4.000000,4.000000,4.000000,4.000000,4.000000,4.000000,4.000000,4.000000,4.000000,2.000000,4.000000,4.000000,4.000000,4.000000,4.000000,4.000000,4.000000,4.000000,4.000000,4.000000,4.000000,4.000000,83.333336
1613870462.093888,123.000000,0.000000,9.022166,-8.512712,-12.636937,0.904292,14.204620,6.946313,2.269086,-3.718069,13.326920,18.675238,16.914778,11.293063,9.589378,-15.640380,0.623826,-13.761444,11.014659,0.406410,0.238614,20.345358,-1.656249,3.044002,9.648657,-5.259516,-22.942028,-34.167946,-19.783539,-8.252545,-31.183823,-47.937019,-31.500908,-55.392990,8064.000000,0.000000,4.000000,,,,0.000000,4.000000,4.000000,4.000000,4.000000,4.000000,4.000000,4.000000,4.000000,4.000000,4.000000,4.000000,4.000000,4.000000,4.000000,4.000000,4.000000,4.000000,4.000000,4.000000,2.000000,4.000000,4.000000,4.000000,4.000000,4.000000,4.000000,4.000000,4.000000,4.000000,4.000000,4.000000,4.000000,83.333336
1613870462.101737,124.000000,0.000000,4.910580,-13.632404,-12.624300,-5.250458,13.677595,5.913726,3.292458,-3.714351,12.800772,6.348870,1.513248,7.179205,-6.317647,-38.188843,-16.812695,-44.516914,0.234414,-14.465792,-17.710342,4.940398,-25.244337,-16.959042,-3.181505,-10.382462,-32.662678,-34.646599,-19.763754,-12.346857,-32.178280,-53.530109,-31.982227,-56.363235,8064.000000,0.000000,4.000000,,,,0.000000,4.000000,4.000000,4.000000,4.000000,4.000000,4.000000,4.000000,4.000000,4.000000,4.000000,4.000000,4.000000,4.000000,4.000000,4.000000,4.000000,4.000000,4.000000,4.000000,2.000000,4.000000,4.000000,4.000000,4.000000,4.000000,4.000000,4.000000,4.000000,4.000000,4.000000,4.000000,4.000000,83.333336
1613870462.109486,125.000000,0.000000,-2.273818,-20.285439,-4.406548,-6.783669,17.766481,5.907812,2.776345,-3.710636,12.787971,7.368162,-6.693393,3.582283,-7.849791,-47.381424,-27.052292,-64.472397,-8.483769,-17.528250,-21.282375,-2.244030,-38.552425,-30.788237,-13.434733,-22.679771,-37.758217,-36.150414,-19.231171,-16.949894,-30.607639,-50.912476,-30.924604,-50.153027,7936.000000,0.000000,4.000000,,,,0.000000,4.000000,4.000000,4.000000,4.000000,4.000000,4.000000,4.000000,4.000000,4.000000,4.000000,4.000000,4.000000,4.000000,4.000000,4.000000,4.000000,4.000000,4.000000,4.000000,2.000000,4.000000,4.000000,4.000000,4.000000,4.000000,4.000000,4.000000,4.000000,4.000000,4.000000,4.000000,4.000000,83.333336
1613870462.117335,126.000000,0.000000,-3.810006,-15.649769,2.777346,-3.699963,15.184613,6.414725,3.286389,-3.706926,12.775183,10.437716,-5.148238,3.578701,-5.790659,-59.128914,-31.640625,-65.946388,-9.500927,-22.126106,-23.312376,-1.728965,-42.616436,-29.218987,-12.908479,-30.862219,-29.515331,-32.524517,-20.237579,-11.291920,-24.423185,-36.502590,-27.303936,-42.410564,8064.000000,0.000000,4.000000,,,,0.000000,4.000000,4.000000,4.000000,4.000000,4.000000,4.000000,4.000000,4.000000,4.000000,4.000000,4.000000,4.000000,4.000000,4.000000,4.000000,4.000000,4.000000,4.000000,4.000000,2.000000,4.000000,4.000000,4.000000,4.000000,4.000000,4.000000,4.000000,4.000000,4.000000,4.000000,4.000000,4.000000,83.333336
1613870462.125084,127.000000,0.000000,-0.729273,-9.480273,1.748928,-4.209083,6.964300,5.895490,2.770282,-3.703219,12.762408,6.837535,-4.630270,4.087942,-7.323330,-69.326195,-34.173088,-75.111206,-8.465785,-38.514236,-30.468550,-4.291339,-47.189205,-29.189768,-12.382750,-30.318537,-24.357613,-25.312506,-19.704521,-2.049858,-18.244917,-30.825062,-24.712530,-40.829693,8064.000000,0.000000,4.000000,,,,0.000000,4.000000,4.000000,4.000000,4.000000,4.000000,4.000000,4.000000,4.000000,4.000000,4.000000,4.000000,4.000000,4.000000,4.000000,4.000000,4.000000,4.000000,4.000000,4.000000,2.000000,4.000000,4.000000,4.000000,4.000000,4.000000,4.000000,4.000000,4.000000,4.000000,4.000000,4.000000,4.000000,83.333336
