title:11, start timestamp:1613870538.297947, stop timestamp:1613870583.613972, headset type:EPOCFLEX, headset serial:F00001ED, headset firmware:f12, subject name:s02, channels:75, sampling rate:128, samples:5849      , version:2.0
Timestamp,EEG.Counter,EEG.Interpolated,EEG.Cz,EEG.Fz,EEG.Fp1,EEG.AF3,EEG.F7,EEG.F3,EEG.FC1,EEG.C3,EEG.FC5,EEG.T7,EEG.CP5,EEG.CP1,EEG.P3,EEG.P7,EEG.PO3,EEG.O1,EEG.Pz,EEG.Oz,EEG.O2,EEG.PO4,EEG.P8,EEG.P4,EEG.CP2,EEG.CP6,EEG.T8,EEG.FC6,EEG.C4,EEG.FC2,EEG.F4,EEG.F8,EEG.AF4,EEG.Fp2,EEG.HighBitFlex,EEG.RawCq,EEG.Battery,MarkerIndex,MarkerType,MarkerValueInt,EEG.MarkerHardware,CQ.Cz,CQ.Fz,CQ.Fp1,CQ.AF3,CQ.F7,CQ.F3,CQ.FC1,CQ.C3,CQ.FC5,CQ.T7,CQ.CP5,CQ.CP1,CQ.P3,CQ.P7,CQ.PO3,CQ.O1,CQ.Pz,CQ.Oz,CQ.O2,CQ.PO4,CQ.P8,CQ.P4,CQ.CP2,CQ.CP6,CQ.T8,CQ.FC6,CQ.C4,CQ.FC2,CQ.F4,CQ.F8,CQ.AF4,CQ.Fp2,CQ.Overall
1613870538.297947,101.000000,0.000000,-2.723193,-13.287941,4.061412,8.438187,16.159149,5.703794,-8.294810,-11.217944,6.668391,1.615468,-11.579112,-2.820520,-0.464045,-31.361536,22.314854,8.909814,-2.693568,48.642483,11.490918,0.354038,-26.840866,-9.542366,-8.043708,-14.967041,-17.615194,-10.960718,-22.322905,-9.493608,5.513072,-17.722582,4.684888,-16.584585,8064.000000,0.000000,4.000000,,,,0.000000,4.000000,4.000000,4.000000,4.000000,4.000000,4.000000,4.000000,4.000000,4.000000,4.000000,4.000000,4.000000,4.000000,4.000000,4.000000,4.000000,4.000000,4.000000,4.000000,2.000000,4.000000,4.000000,4.000000,4.000000,4.000000,4.000000,4.000000,4.000000,4.000000,4.000000,4.000000,4.000000,83.333336
1613870538.305796,102.000000,0.000000,-1.182008,-13.274653,-1.583675,7.916928,14.091707,4.159628,-8.286515,-10.181085,5.123261,2.126673,-10.541892,-2.817700,3.638983,-33.894276,20.241257,5.311161,-4.742157,39.875889,7.889683,-9.389906,-42.711460,-19.276413,-8.035665,-19.054638,-19.136042,-13.001040,-22.300583,-9.484114,5.507559,-19.756142,1.090459,-23.234667,8064.000000,0.000000,4.000000,,,,0.000000,4.000000,4.000000,4.000000,4.000000,4.000000,4.000000,4.000000,4.000000,4.000000,4.000000,4.000000,4.000000,4.000000,4.000000,4.000000,4.000000,4.000000,4.000000,4.000000,2.000000,4.000000,4.000000,4.000000,4.000000,4.000000,4.000000,4.000000,4.000000,4.000000,4.000000,4.000000,4.000000,83.333336
1613870538.313546,103.000000,0.000000,-0.668006,-12.748558,-0.556450,8.421832,11.000692,2.104187,-8.278229,-10.170904,2.554035,-0.439556,-14.633914,-3.327703,-4.056963,-53.347561,2.785119,-14.694151,-4.224594,26.502682,2.240768,-13.995901,-43.181568,-24.898163,-8.027629,-30.830456,-21.168188,-15.039320,-22.278282,-9.474629,5.502051,-20.249207,1.089369,-22.185791,8064.000000,0.000000,4.000000,,,,0.000000,4.000000,4.000000,4.000000,4.000000,4.000000,4.000000,4.000000,4.000000,4.000000,4.000000,4.000000,4.000000,4.000000,4.000000,4.000000,4.000000,4.000000,4.000000,4.000000,2.000000,4.000000,4.000000,4.000000,4.000000,4.000000,4.000000,4.000000,4.000000,4.000000,4.000000,4.000000,4.000000,83.333336
1613870538.321394,104.000000,0.000000,-1.180158,-12.735809,3.033850,7.900589,11.502512,1.589262,-8.269950,-10.673553,2.038661,-4.541681,-26.926971,-4.862836,-18.411880,-73.807037,-24.397154,-40.320480,-4.220369,11.091563,2.751348,-11.930623,-24.164030,-16.668137,-8.019601,-37.979111,-22.172661,-15.537102,-22.256002,-9.465155,5.496549,-20.228956,1.601100,-22.163605,8064.000000,0.000000,4.000000,,,,0.000000,4.000000,4.000000,4.000000,4.000000,4.000000,4.000000,4.000000,4.000000,4.000000,4.000000,4.000000,4.000000,4.000000,4.000000,4.000000,4.000000,4.000000,4.000000,4.000000,2.000000,4.000000,4.000000,4.000000,4.000000,4.000000,4.000000,4.000000,4.000000,4.000000,4.000000,4.000000,4.000000,83.333336
1613870538.329144,105.000000,0.000000,-1.178978,-12.723074,2.005175,8.405509,10.978189,0.562032,-8.261681,-12.714162,2.549443,-7.614062,-34.592354,-8.447717,-22.496033,-82.451180,-38.218910,-55.664776,-13.959739,5.439445,3.261417,-11.918693,-8.242430,-15.113007,-8.011581,-35.889851,-19.586386,-15.008744,-22.233747,-9.455690,5.491053,-20.208727,1.086679,-22.654263,8064.000000,0.000000,4.000000,,,,0.000000,4.000000,4.000000,4.000000,4.000000,4.000000,4.000000,4.000000,4.000000,4.000000,4.000000,4.000000,4.000000,4.000000,4.000000,4.000000,4.000000,4.000000,4.000000,4.000000,2.000000,4.000000,4.000000,4.000000,4.000000,4.000000,4.000000,4.000000,4.000000,4.000000,4.000000,4.000000,4.000000,83.333336
1613870538.336793,106.000000,0.000000,-1.177799,-12.710351,-0.048112,8.909925,2.762083,-2.002633,-8.253419,-14.239909,2.546893,-11.196192,-34.557762,-14.593116,-23.499178,-85.445648,-42.283257,-65.352699,-25.227831,2.357083,-0.331588,-13.445235,-13.875213,-25.354303,-8.003571,-33.289860,-18.028337,-14.993735,-22.211514,-9.446235,5.485562,-20.188519,1.085592,-22.118788,7936.000000,0.000000,4.000000,,,,0.000000,4.000000,4.000000,4.000000,4.000000,4.000000,4.000000,4.000000,4.000000,4.000000,4.000000,4.000000,4.000000,4.000000,4.000000,4.000000,4.000000,4.000000,4.000000,4.000000,2.000000,4.000000,4.000000,4.000000,4.000000,4.000000,4.000000,4.000000,4.000000,4.000000,4.000000,4.000000,4.000000,83.333336
1613870538.344542,107.000000,0.000000,-1.176621,-12.697640,-0.560885,6.849732,-6.984269,-2.513451,-8.245165,-14.225670,2.544346,-13.749098,-34.010384,-18.168266,-29.116705,-74.078156,-46.343536,-66.825813,-20.074398,-2.773479,3.771307,-10.354867,-18.476723,-25.328949,-7.995566,-35.307850,-18.523129,-14.978742,-22.189302,-9.436788,5.480076,-20.168331,1.597327,-21.583849,7936.000000,0.000000,4.000000,,,,0.000000,4.000000,4.000000,4.000000,4.000000,4.000000,4.000000,4.000000,4.000000,4.000000,4.000000,4.000000,4.000000,4.000000,4.000000,4.000000,4.000000,4.000000,4.000000,4.000000,2.000000,4.000000,4.000000,4.000000,4.000000,4.000000,4.000000,4.000000,4.000000,4.000000,4.000000,4.000000,4.000000,83.333336
1613870538.352191,108.000000,0.000000,-1.175445,-12.684942,0.465317,4.791601,-8.515746,-1.998117,-8.236920,-14.211444,2.541802,-14.248170,-33.463551,-18.662918,-24.985023,-50.927151,-30.399757,-44.194881,-4.669708,10.562628,16.075228,-11.370153,-5.124912,-13.508748,-7.987571,-32.708439,-19.017427,-14.963762,-22.167112,-9.427351,5.474596,-20.148163,1.595729,-22.075085,8064.000000,0.000000,4.000000,,,,0.000000,4.000000,4.000000,4.000000,4.000000,4.000000,4.000000,4.000000,4.000000,4.000000,4.000000,4.000000,4.000000,4.000000,4.000000,4.000000,4.000000,4.000000,4.000000,4.000000,2.000000,4.000000,4.000000,4.000000,4.000000,4.000000,4.000000,4.000000,4.000000,4.000000,4.000000,4.000000,4.000000,83.333336
1613870538.359940,109.000000,0.000000,-1.174269,-12.672257,0.464852,4.786809,-6.968769,-2.508939,-8.228683,-14.197232,2.539260,-13.721101,-24.712139,-17.618614,-10.088243,-37.030071,0.912694,-11.330174,0.975988,39.782833,24.777102,-10.845963,6.675085,-7.341393,-7.979583,-25.496244,-17.459948,-14.948799,-22.144945,-9.417924,5.469121,-18.076733,1.594134,-21.027369,8064.000000,0.000000,4.000000,,,,0.000000,4.000000,4.000000,4.000000,4.000000,4.000000,4.000000,4.000000,4.000000,4.000000,4.000000,4.000000,4.000000,4.000000,4.000000,4.000000,4.000000,4.000000,4.000000,4.000000,2.000000,4.000000,4.000000,4.000000,4.000000,4.000000,4.000000,4.000000,4.000000,4.000000,4.000000,4.000000,4.000000,83.333336
1613870538.367589,110.000000,0.000000,-1.173095,-12.659585,-2.612536,4.269202,-7.474621,-1.993610,-8.220454,-14.183035,2.536721,-10.117636,-15.456658,-15.036893,1.203896,-28.275091,16.809217,5.604232,1.487832,52.563564,26.803606,7.626422,4.104307,-6.821231,-7.971604,-21.881004,-15.391206,-14.933850,-22.122801,-9.408506,5.463652,-16.520193,1.592540,-18.955059,8064.000000,0.000000,4.000000,,,,0.000000,4.000000,4.000000,4.000000,4.000000,4.000000,4.000000,4.000000,4.000000,4.000000,4.000000,4.000000,4.000000,4.000000,4.000000,4.000000,4.000000,4.000000,4.000000,4.000000,2.000000,4.000000,4.000000,4.000000,4.000000,4.000000,4.000000,4.000000,4.000000,4.000000,4.000000,4.000000,4.000000,83.333336
1613870538.375338,111.000000,0.000000,-1.171922,-12.646926,-7.738129,1.188009,-7.979967,-1.991616,-8.212234,-14.681672,2.534184,-6.004954,-14.415560,-13.483395,3.253974,-17.477585,15.766768,6.624269,4.050447,49.946899,23.699881,28.131617,-4.104926,-5.788769,-7.963632,-22.371944,-14.350173,-15.431737,-22.613499,-9.399097,5.458189,-16.503674,1.590947,-17.910463,8064.000000,0.000000,4.000000,,,,0.000000,4.000000,4.000000,4.000000,4.000000,4.000000,4.000000,4.000000,4.000000,4.000000,4.000000,4.000000,4.000000,4.000000,4.000000,4.000000,4.000000,4.000000,4.000000,4.000000,2.000000,4.000000,4.000000,4.000000,4.000000,4.000000,4.000000,4.000000,4.000000,4.000000,4.000000,4.000000,4.000000,83.333336
1613870538.382988,112.000000,0.000000,-1.683570,-12.634279,-7.730391,0.674001,-7.971987,-4.553727,-8.204021,-14.154170,2.531650,-5.998950,-15.939607,-15.521194,2.737900,-14.383184,15.751000,6.104825,3.020756,50.409771,16.496693,25.026562,-15.895693,-8.347083,-7.955668,-23.375214,-15.874285,-14.903484,-22.590885,-9.389698,5.452731,-16.487169,1.589356,-17.892553,8064.000000,0.000000,4.000000,,,,0.000000,4.000000,4.000000,4.000000,4.000000,4.000000,4.000000,4.000000,4.000000,4.000000,4.000000,4.000000,4.000000,4.000000,4.000000,4.000000,4.000000,4.000000,4.000000,4.000000,2.000000,4.000000,4.000000,4.000000,4.000000,4.000000,4.000000,4.000000,4.000000,4.000000,4.000000,4.000000,4.000000,83.333336
1613870538.390737,113.000000,0.000000,-1.169066,-12.621645,-7.722660,1.698968,-6.425553,-5.061994,-8.195818,-14.140017,2.529118,-4.967309,-13.872385,-16.531313,3.247982,-15.907263,16.248070,7.124361,-3.136111,50.872181,12.890453,6.027176,-30.751591,-15.518223,-7.947713,-22.839018,-15.345590,-14.888581,-21.542652,-9.380309,5.447278,-16.983503,1.074946,-18.900301,8064.000000,0.000000,4.000000,,,,0.000000,4.000000,4.000000,4.000000,4.000000,4.000000,4.000000,4.000000,4.000000,4.000000,4.000000,4.000000,4.000000,4.000000,4.000000,4.000000,4.000000,4.000000,4.000000,4.000000,2.000000,4.000000,4.000000,4.000000,4.000000,4.000000,4.000000,4.000000,4.000000,4.000000,4.000000,4.000000,4.000000,83.333336
1613870538.398386,114.000000,0.000000,-1.167897,-12.609023,-8.227758,0.671628,-5.393486,-3.005650,-8.187622,-15.151517,2.013769,-0.346958,-11.294410,-14.463500,2.731914,-18.968279,16.231823,6.604416,-5.184258,45.180286,14.416024,-15.517313,-44.566994,-20.118090,-8.452586,-22.303358,-14.817424,-15.899334,-23.059572,-9.370929,5.441831,-13.889597,1.586692,-16.830118,8064.000000,0.000000,4.000000,,,,0.000000,4.000000,4.000000,4.000000,4.000000,4.000000,4.000000,4.000000,4.000000,4.000000,4.000000,4.000000,4.000000,4.000000,4.000000,4.000000,4.000000,4.000000,4.000000,4.000000,2.000000,4.000000,4.000000,4.000000,4.000000,4.000000,4.000000,4.000000,4.000000,4.000000,4.000000,4.000000,4.000000,83.333336
1613870538.406135,115.000000,0.000000,-2.192370,-13.109235,-0.527223,0.670956,-3.336811,-3.002644,-8.179435,-13.085084,2.524575,1.704672,-12.308756,-13.936215,2.216361,-29.718540,13.138667,-0.068855,-4.666253,39.494080,7.222121,-31.912052,-41.958324,-18.046690,-8.444133,-24.332336,-16.853888,-12.293691,-22.523691,-9.361557,5.436388,-4.644938,3.636387,-10.146622,8064.000000,0.000000,4.000000,,,,0.000000,4.000000,4.000000,4.000000,4.000000,4.000000,4.000000,4.000000,4.000000,4.000000,4.000000,4.000000,4.000000,4.000000,4.000000,4.000000,4.000000,4.000000,4.000000,4.000000,2.000000,4.000000,4.000000,4.000000,4.000000,4.000000,4.000000,4.000000,4.000000,4.000000,4.000000,4.000000,4.000000,83.333336
1613870538.413784,116.000000,0.000000,-0.651716,-12.583304,10.242536,6.311311,2.820372,0.590102,-8.171255,-7.943793,5.598974,1.190146,-11.783627,-13.922279,0.162863,-38.406773,2.356298,-11.350838,-4.148766,38.428944,2.086694,-30.341679,-16.788160,-14.438899,-7.410048,-23.795183,-12.734470,-4.589089,-14.808860,-9.352196,5.430952,2.026374,5.684033,-6.033911,8064.000000,0.000000,4.000000,,,,0.000000,4.000000,4.000000,4.000000,4.000000,4.000000,4.000000,4.000000,4.000000,4.000000,4.000000,4.000000,4.000000,4.000000,4.000000,4.000000,4.000000,4.000000,4.000000,4.000000,2.000000,4.000000,4.000000,4.000000,4.000000,4.000000,4.000000,4.000000,4.000000,4.000000,4.000000,4.000000,4.000000,83.333336
1613870538.421533,117.000000,0.000000,1.913038,-10.519440,11.257934,8.869102,7.945756,4.179255,-8.163084,-5.884568,6.619016,1.188956,-11.259023,-13.908358,-7.016787,-44.522209,-8.415289,-24.672821,-4.657437,36.852055,8.751273,-14.413900,3.228627,-10.834717,-8.428279,-16.079081,1.124418,0.030884,-7.101744,-9.342844,5.425521,1.511527,5.165528,-7.566339,8064.000000,0.000000,4.000000,,,,0.000000,4.000000,4.000000,4.000000,4.000000,4.000000,4.000000,4.000000,4.000000,4.000000,4.000000,4.000000,4.000000,4.000000,4.000000,4.000000,4.000000,4.000000,4.000000,4.000000,2.000000,4.000000,4.000000,4.000000,4.000000,4.000000,4.000000,4.000000,4.000000,4.000000,4.000000,4.000000,4.000000,83.333336
1613870538.429182,118.000000,0.000000,1.911125,-8.457638,7.144112,2.706387,7.937811,-1.465949,-8.667741,-7.929965,2.509833,1.187767,-14.837507,-14.920090,-14.189258,-53.195637,-13.535079,-36.955841,-5.678421,32.199818,18.486113,1.497949,10.917706,-2.618754,-7.907030,-9.396336,11.379704,-0.994787,-8.120283,-9.333501,5.420096,3.561297,5.160363,-6.533132,8064.000000,0.000000,4.000000,,,,0.000000,4.000000,4.000000,4.000000,4.000000,4.000000,4.000000,4.000000,4.000000,4.000000,4.000000,4.000000,4.000000,4.000000,4.000000,4.000000,4.000000,4.000000,4.000000,4.000000,2.000000,4.000000,4.000000,4.000000,4.000000,4.000000,4.000000,4.000000,4.000000,4.000000,4.000000,4.000000,4.000000,83.333336
1613870538.436931,119.000000,0.000000,3.447675,-8.449181,7.136968,0.139578,7.417053,-5.567048,-8.146253,-5.870753,1.994503,1.699400,-14.822670,-10.289785,-8.534042,-43.911671,-13.521544,-35.380421,-1.057358,35.244541,29.749678,14.829784,29.881147,12.255660,-2.258097,-7.848477,10.855503,0.544669,-6.060881,-9.836987,4.901855,8.685942,7.206484,-3.449675,8064.000000,0.000000,4.000000,,,,0.000000,4.000000,4.000000,4.000000,4.000000,4.000000,4.000000,4.000000,4.000000,4.000000,4.000000,4.000000,4.000000,4.000000,4.000000,4.000000,4.000000,4.000000,4.000000,4.000000,2.000000,4.000000,4.000000,4.000000,4.000000,4.000000,4.000000,4.000000,4.000000,4.000000,4.000000,4.000000,4.000000,83.333336
1613870538.444581,120.000000,0.000000,10.623714,-8.953551,8.668292,3.729182,7.922456,2.130827,-5.574004,1.827425,8.659175,5.287444,-4.038617,-1.048726,6.859107,-16.175453,-2.738792,-18.421965,8.687289,51.106731,43.566082,17.891878,46.774342,25.063917,3.898007,2.415781,10.331827,3.108227,1.637488,-8.801510,6.435415,10.215717,9.250560,-4.984687,8064.000000,0.000000,4.000000,,,,0.000000,4.000000,4.000000,4.000000,4.000000,4.000000,4.000000,4.000000,4.000000,4.000000,4.000000,4.000000,4.000000,4.000000,4.000000,4.000000,4.000000,4.000000,4.000000,4.000000,2.000000,4.000000,4.000000,4.000000,4.000000,4.000000,4.000000,4.000000,4.000000,4.000000,4.000000,4.000000,4.000000,83.333336
1613870538.452430,121.000000,0.000000,14.202835,-8.431778,5.582701,3.212632,7.914534,6.744081,-4.029968,5.415341,13.778721,8.359079,4.170550,2.029245,14.544556,-6.415688,13.674204,-1.480466,12.268346,60.799213,48.650719,8.643217,38.522442,26.577314,3.894109,16.772339,12.372778,3.617939,2.148671,-6.741426,8.480262,7.128578,8.728489,-7.030984,8064.000000,0.000000,4.000000,,,,0.000000,4.000000,4.000000,4.000000,4.000000,4.000000,4.000000,4.000000,4.000000,4.000000,4.000000,4.000000,4.000000,4.000000,4.000000,4.000000,4.000000,4.000000,4.000000,4.000000,2.000000,4.000000,4.000000,4.000000,4.000000,4.000000,4.000000,4.000000,4.000000,4.000000,4.000000,4.000000,4.000000,83.333336
1613870538.460179,122.000000,0.000000,13.162991,-8.936166,-1.089548,-1.918785,7.393798,4.686055,-4.538759,2.333003,13.764942,8.863542,3.140739,1.001575,12.991549,-12.050298,23.404119,9.290245,9.691975,60.738415,47.063606,6.070471,28.227509,23.986635,2.351753,18.806850,10.821943,3.614321,-2.468862,-5.196223,8.984602,5.070168,8.719760,-7.023953,8192.000000,0.000000,4.000000,,,,0.000000,4.000000,4.000000,4.000000,4.000000,4.000000,4.000000,4.000000,4.000000,4.000000,4.000000,4.000000,4.000000,4.000000,4.000000,4.000000,4.000000,4.000000,4.000000,4.000000,2.000000,4.000000,4.000000,4.000000,4.000000,4.000000,4.000000,4.000000,4.000000,4.000000,4.000000,4.000000,4.000000,83.333336
1613870538.468028,123.000000,0.000000,13.149828,-8.927230,-4.165382,-3.455328,7.386405,5.194189,-4.534220,0.279388,13.238357,8.854677,4.676060,2.026215,15.029840,-6.397222,29.021740,20.050186,11.220744,64.267418,49.067825,15.807990,30.763384,23.962648,4.400683,13.659838,11.323942,5.661989,-0.927932,-3.652565,10.001258,6.090738,8.711040,-7.016930,8064.000000,0.000000,4.000000,,,,0.000000,4.000000,4.000000,4.000000,4.000000,4.000000,4.000000,4.000000,4.000000,4.000000,4.000000,4.000000,4.000000,4.000000,4.000000,4.000000,4.000000,4.000000,4.000000,4.000000,2.000000,4.000000,4.000000,4.000000,4.000000,4.000000,4.000000,4.000000,4.000000,4.000000,4.000000,4.000000,4.000000,83.333336
1613870538.475777,124.000000,0.000000,13.649498,-8.918303,-4.161217,-2.426232,7.379018,5.701816,-4.529686,0.791929,13.737939,8.845823,3.645742,0.485727,15.014810,-6.390824,31.044001,22.081417,12.235165,69.844177,44.403374,19.894747,27.655697,23.425865,3.883462,14.671819,20.543386,7.707609,-0.927004,-1.597631,12.555360,8.135930,8.702330,-7.009912,8064.000000,0.000000,4.000000,,,,0.000000,4.000000,4.000000,4.000000,4.000000,4.000000,4.000000,4.000000,4.000000,4.000000,4.000000,4.000000,4.000000,4.000000,4.000000,4.000000,4.000000,4.000000,4.000000,4.000000,2.000000,4.000000,4.000000,4.000000,4.000000,4.000000,4.000000,4.000000,4.000000,4.000000,4.000000,4.000000,4.000000,83.333336
1613870538.483626,125.000000,0.000000,13.123029,-8.909385,-3.131414,-2.423806,7.884460,5.183293,-4.525156,1.303958,13.724200,8.836977,-9.178416,-2.591682,6.281847,-21.256227,23.320648,14.367028,4.017801,68.748695,34.615379,18.849211,15.320349,17.248592,-0.222985,15.169968,23.599768,9.238363,-4.003000,-1.596033,13.055625,9.666255,8.693627,-7.002903,8064.000000,0.000000,4.000000,,,,0.000000,4.000000,4.000000,4.000000,4.000000,4.000000,4.000000,4.000000,4.000000,4.000000,4.000000,4.000000,4.000000,4.000000,4.000000,4.000000,4.000000,4.000000,4.000000,4.000000,2.000000,4.000000,4.000000,4.000000,4.000000,4.000000,4.000000,4.000000,4.000000,4.000000,4.000000,4.000000,4.000000,83.333336
1613870538.491375,126.000000,0.000000,13.109905,-8.900476,-3.128283,-2.934202,7.876575,5.690930,-4.520631,-0.235808,13.710477,9.853781,-15.835904,-2.076270,-0.391102,-30.978561,17.656303,8.711636,-3.678524,68.167122,32.529484,13.702156,-1.105228,3.385190,-3.812506,7.462490,8.704372,9.741945,-3.486176,-2.107258,12.529749,8.630948,8.684934,-8.021541,8064.000000,0.000000,4.000000,,,,0.000000,4.000000,4.000000,4.000000,4.000000,4.000000,4.000000,4.000000,4.000000,4.000000,4.000000,4.000000,4.000000,4.000000,4.000000,4.000000,4.000000,4.000000,4.000000,4.000000,2.000000,4.000000,4.000000,4.000000,4.000000,4.000000,4.000000,4.000000,4.000000,4.000000,4.000000,4.000000,4.000000,83.333336
1613870538.499224,127.000000,0.000000,13.096795,-9.404395,-6.202078,-2.418448,5.304596,4.146778,-4.516110,0.277249,11.132664,5.741364,-14.281607,-6.176757,-3.980455,-43.768097,11.997621,-1.553486,-4.700487,60.919468,24.804646,-3.747443,-23.668224,-13.028451,-5.859975,-1.262921,-6.688948,7.680921,-5.533972,-2.105150,13.030039,3.494112,8.676249,-10.577621,8064.000000,0.000000,4.000000,,,,0.000000,4.000000,4.000000,4.000000,4.000000,4.000000,4.000000,4.000000,4.000000,4.000000,4.000000,4.000000,4.000000,4.000000,4.000000,4.000000,4.000000,4.000000,4.000000,4.000000,2.000000,4.000000,4.000000,4.000000,4.000000,4.000000,4.000000,4.000000,4.000000,4.000000,4.000000,4.000000,4.000000,83.333336
1613870538.506973,0.000000,0.000000,11.545238,-8.882171,-10.298440,-2.416029,3.760830,2.091349,-4.511594,1.302612,4.967685,-5.033609,-22.985273,-17.452633,-13.720064,-68.339714,-7.501556,-24.116035,-6.747068,35.217525,2.728560,-23.743696,-42.106094,-22.759012,-11.495141,-5.877043,-8.733541,5.621958,-12.707926,-2.103045,12.504189,0.926515,8.667572,-11.592686,0.000000,192.000000,4.000000,,,,0.000000,4.000000,4.000000,4.000000,4.000000,4.000000,4.000000,4.000000,4.000000,4.000000,4.000000,4.000000,4.000000,4.000000,4.000000,4.000000,4.000000,4.000000,4.000000,4.000000,2.000000,4.000000,4.000000,4.000000,4.000000,4.000000,4.000000,4.000000,4.000000,4.000000,4.000000,4.000000,4.000000,83.333336
1613870538.514822,1.000000,0.000000,9.482409,-6.822006,-10.800961,-2.413613,4.269890,1.063617,-4.507083,-2.801254,1.885794,-11.182422,-36.295624,-22.563385,-23.962753,-80.066246,-22.878670,-46.143200,-11.868526,10.054102,-10.094682,-29.360977,-49.243477,-22.736254,-16.099031,-14.076294,-8.211987,2.539413,-15.772141,-2.100942,13.004505,2.976871,8.658905,-9.016990,0.000000,191.000000,4.000000,,,,0.000000,4.000000,4.000000,4.000000,4.000000,4.000000,4.000000,4.000000,4.000000,4.000000,4.000000,4.000000,4.000000,4.000000,4.000000,4.000000,4.000000,4.000000,4.000000,4.000000,2.000000,4.000000,4.000000,4.000000,4.000000,4.000000,4.000000,4.000000,4.000000,4.000000,4.000000,4.000000,4.000000,83.333336
1613870538.522571,2.000000,0.000000,8.960107,-5.276722,-13.354263,-2.924020,1.188697,1.575374,-4.502576,-9.977941,1.883908,-10.145597,-38.823429,-20.489538,-24.451612,-76.909256,-23.881432,-54.815006,-12.369478,3.377381,-10.084587,-22.664949,-45.604488,-21.687876,-15.570111,-24.318628,-12.306338,-0.540049,-14.730727,-2.098841,12.478680,-4.718414,9.163067,-11.059255,0.000000,193.000000,4.000000,,,,0.000000,4.000000,4.000000,4.000000,4.000000,4.000000,4.000000,4.000000,4.000000,4.000000,4.000000,4.000000,4.000000,4.000000,4.000000,4.000000,4.000000,4.000000,4.000000,4.000000,2.000000,4.000000,4.000000,4.000000,4.000000,4.000000,4.000000,4.000000,4.000000,4.000000,4.000000,4.000000,4.000000,83.333336
1613870538.530420,3.000000,0.000000,9.463967,-4.245805,-18.469114,-2.408276,-3.427876,1.573798,-4.498073,-11.506424,2.394845,-10.648273,-38.271786,-21.494690,-22.888699,-77.345169,-28.985756,-56.298653,-11.331469,2.348363,-10.587323,-7.770491,-26.071705,-22.691830,-14.528900,-27.884054,-16.396597,-1.052330,-14.715997,-2.096743,8.363637,-18.559849,8.641083,-22.330248,0.000000,181.000000,4.000000,,,,0.000000,4.000000,4.000000,4.000000,4.000000,4.000000,4.000000,4.000000,4.000000,4.000000,4.000000,4.000000,4.000000,4.000000,4.000000,4.000000,4.000000,4.000000,4.000000,4.000000,2.000000,4.000000,4.000000,4.000000,4.000000,4.000000,4.000000,4.000000,4.000000,4.000000,4.000000,4.000000,4.000000,83.333336
1613870538.538169,4.000000,0.000000,9.454503,-2.190277,-18.450645,-0.354585,-1.373167,1.572224,-4.493575,-10.469276,3.930911,-11.150445,-34.130951,-21.473196,-23.891451,-73.678078,-33.572155,-54.703892,-11.832957,4.397296,-0.833146,8.647536,0.108212,-20.617855,-16.052834,-25.804888,-17.405840,-0.538457,-15.214102,-2.094646,5.278350,-18.028469,9.145263,-28.461763,0.000000,205.000000,4.000000,,,,0.000000,4.000000,4.000000,4.000000,4.000000,4.000000,4.000000,4.000000,4.000000,4.000000,4.000000,4.000000,4.000000,4.000000,4.000000,4.000000,4.000000,4.000000,4.000000,4.000000,2.000000,4.000000,4.000000,4.000000,4.000000,4.000000,4.000000,4.000000,4.000000,4.000000,4.000000,4.000000,4.000000,83.333336
1613870538.546018,5.000000,0.000000,9.445049,-1.162446,-14.842451,1.697051,3.243591,1.570652,-3.976261,-10.458807,5.978262,-8.062371,-24.353228,-17.861979,-23.867559,-57.706963,-23.282173,-45.931240,-11.308304,18.751873,18.654867,13.767094,14.467078,-14.443392,-15.011139,-22.189339,-10.721768,-1.050739,-14.686067,-2.092551,7.324354,-9.292492,9.648937,-21.766634,0.000000,193.000000,4.000000,,,,0.000000,4.000000,4.000000,4.000000,4.000000,4.000000,4.000000,4.000000,4.000000,4.000000,4.000000,4.000000,4.000000,4.000000,4.000000,4.000000,4.000000,4.000000,4.000000,4.000000,2.000000,4.000000,4.000000,4.000000,4.000000,4.000000,4.000000,4.000000,4.000000,4.000000,4.000000,4.000000,4.000000,83.333336
1613870538.553767,6.000000,0.000000,9.435604,-1.674104,-14.314788,1.182534,3.240348,1.569082,-6.023567,-11.473989,5.972284,-7.541489,-17.662209,-19.895399,-23.330872,-41.751820,-15.566583,-31.013514,-11.296995,31.040813,27.866982,4.522558,15.991073,-9.813563,-14.483307,-13.449201,0.571005,-0.536868,-14.671381,-2.090459,9.368312,-8.770379,5.023904,-21.744867,0.000000,189.000000,4.000000,,,,0.000000,4.000000,4.000000,4.000000,4.000000,4.000000,4.000000,4.000000,4.000000,4.000000,4.000000,4.000000,4.000000,4.000000,4.000000,4.000000,4.000000,4.000000,4.000000,4.000000,2.000000,4.000000,4.000000,4.000000,4.000000,4.000000,4.000000,4.000000,4.000000,4.000000,4.000000,4.000000,4.000000,83.333336
1613870538.561416,7.000000,0.000000,9.426168,-1.672430,-14.813293,1.181351,3.237107,1.567513,-9.607286,-11.462515,5.966312,-4.969845,-18.670187,-24.490889,-22.794720,-31.966480,-14.525375,-17.649168,-11.798519,31.522593,25.275011,-9.840940,14.949441,-10.316570,-17.545748,-6.769085,4.672998,-0.536331,-14.656710,-2.088368,8.846123,-10.812890,-1.647786,-30.953892,0.000000,186.000000,4.000000,,,,0.000000,4.000000,4.000000,4.000000,4.000000,4.000000,4.000000,4.000000,4.000000,4.000000,4.000000,4.000000,4.000000,4.000000,4.000000,4.000000,4.000000,4.000000,4.000000,4.000000,2.000000,4.000000,4.000000,4.000000,4.000000,4.000000,4.000000,4.000000,4.000000,4.000000,4.000000,4.000000,4.000000,83.333336
1613870538.569165,8.000000,0.000000,9.416742,-1.670757,-13.772840,1.692991,4.259511,1.565945,-11.136141,-9.912591,5.960346,2.727433,-18.138697,-22.415115,-21.746284,-26.293488,-3.741619,-7.887928,-10.761080,34.567993,24.736916,-13.420842,12.370389,-7.229331,-17.015381,-11.377700,3.129863,-0.535795,-14.129232,-2.086280,8.324456,-6.699513,-3.184600,-30.922939,0.000000,207.000000,4.000000,,,,0.000000,4.000000,4.000000,4.000000,4.000000,4.000000,4.000000,4.000000,4.000000,4.000000,4.000000,4.000000,4.000000,4.000000,4.000000,4.000000,4.000000,4.000000,4.000000,4.000000,2.000000,4.000000,4.000000,4.000000,4.000000,4.000000,4.000000,4.000000,4.000000,4.000000,4.000000,4.000000,4.000000,83.333336
1613870538.576814,9.000000,0.000000,9.407326,-1.669086,-13.759067,1.691298,3.742431,2.077200,-11.637825,-8.877038,6.980026,7.340090,-16.582096,-20.854239,-15.057872,-24.215912,9.082636,-3.264656,-8.186215,42.225735,27.276281,-4.176652,11.332377,0.983027,-10.844519,-14.956066,3.639554,-0.535259,-14.627923,-2.084193,8.828953,-5.154352,-2.155775,-24.738169,0.000000,198.000000,4.000000,,,,0.000000,4.000000,4.000000,4.000000,4.000000,4.000000,4.000000,4.000000,4.000000,4.000000,4.000000,4.000000,4.000000,4.000000,4.000000,4.000000,4.000000,4.000000,4.000000,4.000000,2.000000,4.000000,4.000000,4.000000,4.000000,4.000000,4.000000,4.000000,4.000000,4.000000,4.000000,4.000000,4.000000,83.333336
1613870538.584564,10.000000,0.000000,9.397918,-1.667417,-13.745308,1.176786,6.302791,3.100764,-12.139009,-11.432263,8.511508,9.896852,-14.514233,-20.833385,-5.812044,-26.755798,9.586373,-3.774212,-7.152389,42.183510,21.607981,3.007012,6.705660,4.058967,-6.731111,-10.325726,4.148735,-1.560365,-15.126116,-2.082109,8.307303,-5.662018,-2.153619,-24.200611,0.000000,192.000000,4.000000,,,,0.000000,4.000000,4.000000,4.000000,4.000000,4.000000,4.000000,4.000000,4.000000,4.000000,4.000000,4.000000,4.000000,4.000000,4.000000,4.000000,4.000000,4.000000,4.000000,4.000000,2.000000,4.000000,4.000000,4.000000,4.000000,4.000000,4.000000,4.000000,4.000000,4.000000,4.000000,4.000000,4.000000,83.333336
1613870538.592213,11.000000,0.000000,9.388520,-1.665750,-11.680280,1.175609,18.091360,5.148945,-8.537126,-6.805446,11.579920,17.579264,-5.268949,-12.094603,0.860434,-26.729042,7.012684,-5.308899,-7.658057,41.115685,9.791500,0.952723,-7.660019,-0.047656,-7.237200,-7.751297,1.580484,-1.045984,-14.085349,-2.080027,8.298996,-4.630715,-2.664286,-23.663589,0.000000,209.000000,4.000000,,,,0.000000,4.000000,4.000000,4.000000,4.000000,4.000000,4.000000,4.000000,4.000000,4.000000,4.000000,4.000000,4.000000,4.000000,4.000000,4.000000,4.000000,4.000000,4.000000,4.000000,2.000000,4.000000,4.000000,4.000000,4.000000,4.000000,4.000000,4.000000,4.000000,4.000000,4.000000,4.000000,4.000000,83.333336
1613870538.599962,12.000000,0.000000,9.379131,-1.664084,-8.078856,2.200074,25.765577,6.169437,-4.938845,7.047513,16.183723,17.561684,0.890166,-2.338918,2.910856,-27.215134,5.980031,-8.380513,-7.650399,40.048927,1.063760,-7.766179,-25.601078,-8.765557,-7.742783,-10.820469,-0.472379,-0.019297,-15.609725,-1.565127,9.316338,-2.061982,-2.148801,-20.563004,0.000000,195.000000,4.000000,,,,0.000000,4.000000,4.000000,4.000000,4.000000,4.000000,4.000000,4.000000,4.000000,4.000000,4.000000,4.000000,4.000000,4.000000,4.000000,4.000000,4.000000,4.000000,4.000000,4.000000,2.000000,4.000000,4.000000,4.000000,4.000000,4.000000,4.000000,4.000000,4.000000,4.000000,4.000000,4.000000,4.000000,83.333336
1613870538.607611,13.000000,0.000000,9.369753,-1.662420,-13.711803,0.146592,15.483400,3.599165,-9.549291,4.989183,7.962412,6.262071,-10.392776,-2.849400,-2.733081,-38.469971,-0.179795,-20.167006,-7.642748,28.214006,-1.501407,-19.040464,-34.293427,-16.449099,-9.273502,-11.322469,-0.984727,-3.096201,-18.158218,-1.563562,8.281381,-1.547100,-2.146652,-25.157824,0.000000,196.000000,4.000000,,,,0.000000,4.000000,4.000000,4.000000,4.000000,4.000000,4.000000,4.000000,4.000000,4.000000,4.000000,4.000000,4.000000,4.000000,4.000000,4.000000,4.000000,4.000000,4.000000,4.000000,2.000000,4.000000,4.000000,4.000000,4.000000,4.000000,4.000000,4.000000,4.000000,4.000000,4.000000,4.000000,4.000000,83.333336
1613870538.615360,14.000000,0.000000,9.360383,-1.660758,-26.005783,-5.494580,-0.429519,-1.019819,-15.180767,-15.015806,-11.532730,-0.410858,-32.433666,-5.923473,-16.576502,-63.046886,-11.974487,-41.172478,-8.147926,12.288356,7.730864,-15.431680,-19.387337,-9.765984,-9.777049,-13.875249,-0.470922,-4.118745,-15.063136,-2.074818,8.785919,-3.596835,-2.144506,-32.312153,0.000000,206.000000,4.000000,,,,0.000000,4.000000,4.000000,4.000000,4.000000,4.000000,4.000000,4.000000,4.000000,4.000000,4.000000,4.000000,4.000000,4.000000,4.000000,4.000000,4.000000,4.000000,4.000000,4.000000,2.000000,4.000000,4.000000,4.000000,4.000000,4.000000,4.000000,4.000000,4.000000,4.000000,4.000000,4.000000,4.000000,83.333336
1613870538.623009,15.000000,0.000000,9.351023,-1.659097,-28.031059,-6.001906,-5.044474,-2.557261,-15.678407,-23.718739,-16.136581,1.128015,-45.221745,-5.917550,-24.765053,-80.932556,-22.218924,-56.003101,-4.550035,16.378632,30.800056,9.711957,13.452563,10.756603,-5.664708,-11.297272,3.632113,5.116143,-7.355766,-1.559923,15.443800,-0.516315,-2.142361,-31.767021,0.000000,193.000000,4.000000,,,,0.000000,4.000000,4.000000,4.000000,4.000000,4.000000,4.000000,4.000000,4.000000,4.000000,4.000000,4.000000,4.000000,4.000000,4.000000,4.000000,4.000000,4.000000,4.000000,4.000000,2.000000,4.000000,4.000000,4.000000,4.000000,4.000000,4.000000,4.000000,4.000000,4.000000,4.000000,4.000000,4.000000,83.333336
1613870538.630758,16.000000,0.000000,9.341671,-1.144617,-23.387644,-2.406160,-2.988147,-1.529062,-14.637087,-18.566814,-2.274291,1.639707,-34.920113,-5.911633,-18.073622,-65.979828,-16.042858,-43.126587,-1.468561,43.028919,49.230793,32.779167,42.157059,25.617641,-3.607761,8.714026,9.269506,14.341796,-3.245846,-1.558363,21.069382,10.253432,-2.140219,-27.632690,0.000000,190.000000,4.000000,,,,0.000000,4.000000,4.000000,4.000000,4.000000,4.000000,4.000000,4.000000,4.000000,4.000000,4.000000,4.000000,4.000000,4.000000,4.000000,4.000000,4.000000,4.000000,4.000000,4.000000,2.000000,4.000000,4.000000,4.000000,4.000000,4.000000,4.000000,4.000000,4.000000,4.000000,4.000000,4.000000,4.000000,83.333336
1613870538.638408,17.000000,0.000000,7.281047,-2.681934,-30.543743,-4.455036,-4.010800,-3.578815,-15.135271,-17.009787,3.881829,0.099606,-10.782627,-6.418541,-2.670932,-33.093334,7.562928,-10.262946,-1.467093,64.524353,50.720024,38.387413,46.217468,26.617664,-4.116974,25.115568,10.285878,12.788992,-5.293882,-7.197831,18.484211,17.422667,-2.138078,-27.605057,0.000000,186.000000,4.000000,,,,0.000000,4.000000,4.000000,4.000000,4.000000,4.000000,4.000000,4.000000,4.000000,4.000000,4.000000,4.000000,4.000000,4.000000,4.000000,4.000000,4.000000,4.000000,4.000000,4.000000,2.000000,4.000000,4.000000,4.000000,4.000000,4.000000,4.000000,4.000000,4.000000,4.000000,4.000000,4.000000,4.000000,83.333336
1613870538.646157,18.000000,0.000000,5.735305,-5.243355,-42.308071,-9.578787,-5.032430,-6.139339,-15.632956,-18.531239,1.313845,0.612327,4.612771,-6.412123,10.152251,-8.957679,25.504084,14.875523,2.124118,67.536751,49.643665,36.297745,46.684071,26.078226,-4.112857,22.013529,10.788413,10.212101,-6.827050,-12.831658,13.337521,15.353962,-2.135940,-29.628735,0.000000,188.000000,4.000000,,,,0.000000,4.000000,4.000000,4.000000,4.000000,4.000000,4.000000,4.000000,4.000000,4.000000,4.000000,4.000000,4.000000,4.000000,4.000000,4.000000,4.000000,4.000000,4.000000,4.000000,2.000000,4.000000,4.000000,4.000000,4.000000,4.000000,4.000000,4.000000,4.000000,4.000000,4.000000,4.000000,4.000000,83.333336
1613870538.653806,19.000000,0.000000,5.216749,-5.750932,-41.240124,-10.594849,-3.488936,-6.133200,-15.104503,-17.999886,1.825351,1.124535,4.095337,-6.405711,14.244663,-12.538465,25.478579,16.911928,6.737379,65.930756,51.645302,29.594782,44.586102,27.077789,-3.595923,18.401773,10.264804,10.714709,-6.820223,-13.844468,12.298542,12.774505,-2.133804,-31.650387,0.000000,200.000000,4.000000,,,,0.000000,4.000000,4.000000,4.000000,4.000000,4.000000,4.000000,4.000000,4.000000,4.000000,4.000000,4.000000,4.000000,4.000000,4.000000,4.000000,4.000000,4.000000,4.000000,4.000000,2.000000,4.000000,4.000000,4.000000,4.000000,4.000000,4.000000,4.000000,4.000000,4.000000,4.000000,4.000000,4.000000,83.333336
1613870538.661555,20.000000,0.000000,5.724353,-5.232360,-37.609138,-9.045793,-3.485447,-5.614246,-15.089398,-17.469067,3.361988,1.123411,3.065601,-6.399305,13.717598,-12.525926,25.453100,15.356555,6.217821,68.428925,48.516735,15.719032,28.131262,24.999430,-4.105148,14.280807,4.613513,7.114251,-8.864684,-13.317802,12.286243,12.761730,-2.131671,-31.618738,0.000000,174.000000,4.000000,,,,0.000000,4.000000,4.000000,4.000000,4.000000,4.000000,4.000000,4.000000,4.000000,4.000000,4.000000,4.000000,4.000000,4.000000,4.000000,4.000000,4.000000,4.000000,4.000000,4.000000,2.000000,4.000000,4.000000,4.000000,4.000000,4.000000,4.000000,4.000000,4.000000,4.000000,4.000000,4.000000,4.000000,83.333336
1613870538.669204,21.000000,0.000000,5.718628,-5.227128,-41.161274,-9.036746,-3.481962,-5.608632,-15.074308,-17.451597,2.845805,1.122287,6.652279,-6.392906,14.729522,-3.282631,34.658417,18.930943,11.339808,68.360497,47.442577,7.498185,15.795437,23.435968,-3.588222,0.420372,5.121720,2.491752,-10.394281,-12.791664,12.273957,10.184866,-2.129539,-31.074299,0.000000,205.000000,4.000000,,,,0.000000,4.000000,4.000000,4.000000,4.000000,4.000000,4.000000,4.000000,4.000000,4.000000,4.000000,4.000000,4.000000,4.000000,4.000000,4.000000,4.000000,4.000000,4.000000,4.000000,2.000000,4.000000,4.000000,4.000000,4.000000,4.000000,4.000000,4.000000,4.000000,4.000000,4.000000,4.000000,4.000000,83.333336
1613870538.676953,22.000000,0.000000,5.712910,-5.221901,-41.120113,-10.053350,-2.965659,-5.603023,-15.059235,-17.434145,2.842959,2.659626,1.517422,-6.386513,15.740433,-8.920374,34.110939,20.450474,21.072058,67.779312,46.369492,10.054790,15.779642,22.899712,-3.584634,-2.656971,15.373009,4.027722,-7.819785,-10.214770,12.261683,9.149040,-1.614589,-30.530403,0.000000,175.000000,4.000000,,,,0.000000,4.000000,4.000000,4.000000,4.000000,4.000000,4.000000,4.000000,4.000000,4.000000,4.000000,4.000000,4.000000,4.000000,4.000000,4.000000,4.000000,4.000000,4.000000,4.000000,2.000000,4.000000,4.000000,4.000000,4.000000,4.000000,4.000000,4.000000,4.000000,4.000000,4.000000,4.000000,4.000000,83.333336
1613870538.684602,23.000000,0.000000,5.707197,-5.216679,-33.899506,-9.530477,-2.449873,-5.084599,-15.044175,-17.416712,2.327296,2.144146,-9.766147,-6.380126,13.160590,-21.219147,20.230673,15.301817,16.435600,67.711533,39.143635,10.557555,9.097196,21.851171,-4.093870,8.627737,18.434559,6.074976,-6.786324,-9.178914,11.736601,8.627070,-1.612974,-31.012693,0.000000,180.000000,4.000000,,,,0.000000,4.000000,4.000000,4.000000,4.000000,4.000000,4.000000,4.000000,4.000000,4.000000,4.000000,4.000000,4.000000,4.000000,4.000000,4.000000,4.000000,4.000000,4.000000,4.000000,2.000000,4.000000,4.000000,4.000000,4.000000,4.000000,4.000000,4.000000,4.000000,4.000000,4.000000,4.000000,4.000000,83.333336
1613870538.692451,24.000000,0.000000,8.265593,-5.211462,-30.788683,-6.444023,-5.011526,-5.592336,-11.952208,-16.373653,2.837789,0.603541,-11.807663,-6.373746,14.173071,-25.813311,14.056596,6.055747,7.188396,63.541260,32.950645,10.546998,-4.245235,20.803679,-3.576956,11.696033,11.749458,7.094542,-7.292358,-8.656915,12.237685,7.079982,-2.124182,-31.494501,0.000000,200.000000,4.000000,,,,0.000000,4.000000,4.000000,4.000000,4.000000,4.000000,4.000000,4.000000,4.000000,4.000000,4.000000,4.000000,4.000000,4.000000,4.000000,4.000000,4.000000,4.000000,4.000000,4.000000,2.000000,4.000000,4.000000,4.000000,4.000000,4.000000,4.000000,4.000000,4.000000,4.000000,4.000000,4.000000,4.000000,83.333336
1613870538.700200,25.000000,0.000000,10.308609,-5.206251,-35.373280,-6.950400,-6.544976,-5.586743,-8.350512,-12.254716,2.322131,3.167040,-6.667650,-5.341731,14.671718,-41.684933,14.042540,-8.309284,7.181208,52.708488,23.686926,11.049272,-22.702528,11.552106,-4.086199,6.556131,1.994119,7.087448,-5.746604,-6.084156,12.738268,5.534441,-1.096417,-31.975826,0.000000,200.000000,4.000000,,,,0.000000,4.000000,4.000000,4.000000,4.000000,4.000000,4.000000,4.000000,4.000000,4.000000,4.000000,4.000000,4.000000,4.000000,4.000000,4.000000,4.000000,4.000000,4.000000,4.000000,2.000000,4.000000,4.000000,4.000000,4.000000,4.000000,4.000000,4.000000,4.000000,4.000000,4.000000,4.000000,4.000000,83.333336
1613870538.708049,26.000000,0.000000,6.708557,-5.201045,-40.978931,-12.071654,-8.076893,-4.555515,-7.316521,-8.652718,-4.346858,-0.425871,-13.840469,-6.874851,3.374995,-73.950943,-0.330477,-28.300974,4.097104,30.604498,2.637599,-1.782291,-50.884953,-13.587651,-10.748779,-2.681194,-10.828388,0.413694,-9.330601,-5.052430,9.648606,2.964803,-2.120961,-37.072056,0.000000,156.000000,4.000000,,,,0.000000,4.000000,4.000000,4.000000,4.000000,4.000000,4.000000,4.000000,4.000000,4.000000,4.000000,4.000000,4.000000,4.000000,4.000000,4.000000,4.000000,4.000000,4.000000,4.000000,2.000000,4.000000,4.000000,4.000000,4.000000,4.000000,4.000000,4.000000,4.000000,4.000000,4.000000,4.000000,4.000000,83.333336
1613870538.715798,27.000000,0.000000,2.086463,-5.195844,-46.066158,-13.598044,-14.735482,-7.627883,-7.822024,-10.182527,-11.521998,-16.835701,-29.211245,-9.944900,-14.064278,-93.364166,-18.278864,-46.221390,-4.112122,5.958508,-15.313757,-21.267689,-70.834068,-32.035603,-17.917519,-22.165693,-22.099611,-9.843130,-19.064859,-5.560198,5.023573,-5.243289,-8.272686,-49.855495,0.000000,129.000000,4.000000,,,,0.000000,4.000000,4.000000,4.000000,4.000000,4.000000,4.000000,4.000000,4.000000,4.000000,4.000000,4.000000,4.000000,4.000000,4.000000,4.000000,4.000000,4.000000,4.000000,4.000000,2.000000,4.000000,4.000000,4.000000,4.000000,4.000000,4.000000,4.000000,4.000000,4.000000,4.000000,4.000000,4.000000,83.333336
1613870538.723647,28.000000,0.000000,1.571556,-5.190648,-49.609833,-12.558805,-24.464336,-12.235640,-7.301382,-16.839010,-12.536118,-32.203480,-34.310238,-9.422133,-18.152777,-93.783623,-19.799047,-52.841835,-4.620830,-5.329502,-14.272802,-23.810522,-66.147850,-25.336899,-18.925241,-40.092243,-23.615973,-12.910211,-23.148359,-5.554638,4.505729,-12.417533,-13.392619,-56.985130,0.000000,183.000000,4.000000,,,,0.000000,4.000000,4.000000,4.000000,4.000000,4.000000,4.000000,4.000000,4.000000,4.000000,4.000000,4.000000,4.000000,4.000000,4.000000,4.000000,4.000000,4.000000,4.000000,4.000000,2.000000,4.000000,4.000000,4.000000,4.000000,4.000000,4.000000,4.000000,4.000000,4.000000,4.000000,4.000000,4.000000,83.333336
1613870538.731396,29.000000,0.000000,2.595626,-5.185457,-50.073044,-14.597528,-27.516796,-13.249045,-7.294081,-21.437555,-12.523582,-34.735382,-33.763107,-9.925532,-15.057701,-91.125740,-21.830530,-54.327457,-7.693132,-5.836993,-11.694427,-12.504662,-44.030422,-16.080793,-18.906317,-44.667538,-23.079536,-11.358839,-21.586750,-5.036263,5.014044,-13.943578,-13.379227,-56.928143,0.000000,185.000000,4.000000,,,,0.000000,4.000000,4.000000,4.000000,4.000000,4.000000,4.000000,4.000000,4.000000,4.000000,4.000000,4.000000,4.000000,4.000000,4.000000,4.000000,4.000000,4.000000,4.000000,4.000000,2.000000,4.000000,4.000000,4.000000,4.000000,4.000000,4.000000,4.000000,4.000000,4.000000,4.000000,4.000000,4.000000,83.333336
1613870538.739245,30.000000,0.000000,1.567389,-5.180272,-49.510151,-17.147034,-23.386715,-12.722976,-9.850889,-20.903297,-11.998237,-28.546799,-33.729343,-17.095095,-18.632387,-79.752563,-26.936905,-54.785950,-15.377747,-2.754233,-9.118629,-5.312669,-17.832544,-16.577534,-19.400230,-41.545948,-24.594919,-12.373121,-23.616446,-5.544047,4.496210,-14.442454,-14.904308,-60.460960,0.000000,212.000000,4.000000,,,,0.000000,4.000000,4.000000,4.000000,4.000000,4.000000,4.000000,4.000000,4.000000,4.000000,4.000000,4.000000,4.000000,4.000000,4.000000,4.000000,4.000000,4.000000,4.000000,4.000000,2.000000,4.000000,4.000000,4.000000,4.000000,4.000000,4.000000,4.000000,4.000000,4.000000,4.000000,4.000000,4.000000,83.333336
1613870538.746995,31.000000,0.000000,2.078642,-5.175091,-49.973461,-16.617065,-16.696661,-12.710253,-11.379499,-20.369574,-7.370854,-18.774662,-23.952026,-20.667742,-13.998370,-49.929222,-14.089456,-39.346550,-10.746984,15.197240,14.993053,-2.230434,1.159648,-1.689161,-13.226984,-33.299271,-16.878016,-10.822287,-18.464622,-5.538503,5.004534,-11.863910,-17.453506,-56.810753,0.000000,196.000000,4.000000,,,,0.000000,4.000000,4.000000,4.000000,4.000000,4.000000,4.000000,4.000000,4.000000,4.000000,4.000000,4.000000,4.000000,4.000000,4.000000,4.000000,4.000000,4.000000,4.000000,4.000000,2.000000,4.000000,4.000000,4.000000,4.000000,4.000000,4.000000,4.000000,4.000000,4.000000,4.000000,4.000000,4.000000,83.333336
1613870538.754844,32.000000,0.000000,4.640666,-4.657096,-49.410667,-16.600449,-13.603042,-13.210362,-11.368120,-21.374846,-3.773740,-12.602041,-11.620381,-15.518869,2.425884,-23.212626,9.001557,-12.127714,1.058634,43.387169,42.157547,0.848720,7.312334,20.876631,-4.495809,-14.804435,-1.989343,-4.657618,-1.523082,-5.532965,8.076452,-5.698199,-16.923233,-46.497532,8064.000000,0.000000,4.000000,,,,0.000000,4.000000,4.000000,4.000000,4.000000,4.000000,4.000000,4.000000,4.000000,4.000000,4.000000,4.000000,4.000000,4.000000,4.000000,4.000000,4.000000,4.000000,4.000000,4.000000,2.000000,4.000000,4.000000,4.000000,4.000000,4.000000,4.000000,4.000000,4.000000,4.000000,4.000000,4.000000,4.000000,83.333336
1613870538.762593,33.000000,0.000000,4.636026,-6.703721,-49.361256,-17.096668,-14.102259,-12.684332,-11.356752,-20.840651,-7.359710,-13.615080,-10.070299,-11.913607,8.064485,-20.112490,17.197683,-0.320715,4.134499,55.138657,40.576927,-5.305975,7.305022,23.932678,-2.440031,5.210370,5.192133,-0.550396,5.145108,-5.527431,9.094017,-1.589937,-16.906309,-50.040779,8064.000000,0.000000,4.000000,,,,0.000000,4.000000,4.000000,4.000000,4.000000,4.000000,4.000000,4.000000,4.000000,4.000000,4.000000,4.000000,4.000000,4.000000,4.000000,4.000000,4.000000,4.000000,4.000000,4.000000,2.000000,4.000000,4.000000,4.000000,4.000000,4.000000,4.000000,4.000000,4.000000,4.000000,4.000000,4.000000,4.000000,83.333336
1613870538.770442,34.000000,0.000000,2.067287,-8.748300,-49.824715,-17.079573,-13.575336,-12.671648,-11.345395,-20.819809,-11.967734,-12.063004,-10.060229,-13.952975,1.902574,-26.246223,14.103563,-3.397317,3.104723,50.468132,28.741480,-17.608362,7.810537,12.626694,-4.488873,12.384646,3.648480,-0.037025,0.524578,-5.521904,8.572103,-1.588347,-16.889402,-55.631763,8064.000000,0.000000,4.000000,,,,0.000000,4.000000,4.000000,4.000000,4.000000,4.000000,4.000000,4.000000,4.000000,4.000000,4.000000,4.000000,4.000000,4.000000,4.000000,4.000000,4.000000,4.000000,4.000000,4.000000,2.000000,4.000000,4.000000,4.000000,4.000000,4.000000,4.000000,4.000000,4.000000,4.000000,4.000000,4.000000,4.000000,83.333336
1613870538.778191,35.000000,0.000000,1.552399,-8.739551,-48.236431,-16.036852,-10.484838,-12.658976,-11.334050,-20.798990,-8.878843,-4.871453,-3.383502,-13.426202,6.003235,-21.091772,16.140741,-1.855458,3.614439,48.879204,30.251200,-13.488189,6.777086,11.075605,-5.510025,8.782518,4.157652,-0.036988,-2.552869,-5.516382,9.076351,0.977344,-14.308412,-46.345364,8064.000000,0.000000,4.000000,,,,0.000000,4.000000,4.000000,4.000000,4.000000,4.000000,4.000000,4.000000,4.000000,4.000000,4.000000,4.000000,4.000000,4.000000,4.000000,4.000000,4.000000,4.000000,4.000000,4.000000,2.000000,4.000000,4.000000,4.000000,4.000000,4.000000,4.000000,4.000000,4.000000,4.000000,4.000000,4.000000,4.000000,83.333336
1613870538.786040,36.000000,0.000000,2.576488,-8.730811,-43.059990,-17.559277,-9.961533,-12.646317,-11.322716,-19.752550,-4.767401,-0.764018,-0.816016,-11.874314,12.151078,-20.045038,16.637421,-1.853603,1.559542,49.855965,22.528641,6.525300,4.206206,14.654273,-10.119900,5.696813,4.666315,-0.036951,-7.165701,-5.510866,8.554454,2.514828,-13.268462,-41.683632,8064.000000,0.000000,4.000000,,,,0.000000,4.000000,4.000000,4.000000,4.000000,4.000000,4.000000,4.000000,4.000000,4.000000,4.000000,4.000000,4.000000,4.000000,4.000000,4.000000,4.000000,4.000000,4.000000,4.000000,2.000000,4.000000,4.000000,4.000000,4.000000,4.000000,4.000000,4.000000,4.000000,4.000000,4.000000,4.000000,4.000000,83.333336
1613870538.793789,37.000000,0.000000,2.061091,-8.722080,-38.914364,-16.003256,-10.464391,-12.633671,-10.798573,-19.732798,-4.762633,-2.301715,-7.481867,-13.913722,-0.681586,-40.537815,1.236169,-20.826109,-0.493299,39.549698,-1.083632,14.211082,-1.439026,6.434491,-13.699523,2.614193,0.559084,-2.088196,-13.312382,-5.505355,8.545899,-0.564610,-12.229552,-44.206051,8064.000000,0.000000,4.000000,,,,0.000000,4.000000,4.000000,4.000000,4.000000,4.000000,4.000000,4.000000,4.000000,4.000000,4.000000,4.000000,4.000000,4.000000,4.000000,4.000000,4.000000,4.000000,4.000000,4.000000,2.000000,4.000000,4.000000,4.000000,4.000000,4.000000,4.000000,4.000000,4.000000,4.000000,4.000000,4.000000,4.000000,83.333336
1613870538.801438,38.000000,0.000000,2.059030,-8.713359,-38.362629,-9.320586,-10.453927,-12.621037,-11.300594,-20.738705,-4.757871,-1.786593,-11.064129,-16.976732,-15.552699,-66.651123,-16.713785,-44.907845,-0.492806,21.048609,-13.390241,1.376358,-19.899124,-12.033483,-15.224285,-7.132011,-3.544039,-4.137390,-15.350351,-5.499850,9.562995,-1.589686,-7.601938,-36.982361,8064.000000,0.000000,4.000000,,,,0.000000,4.000000,4.000000,4.000000,4.000000,4.000000,4.000000,4.000000,4.000000,4.000000,4.000000,4.000000,4.000000,4.000000,4.000000,4.000000,4.000000,4.000000,4.000000,4.000000,2.000000,4.000000,4.000000,4.000000,4.000000,4.000000,4.000000,4.000000,4.000000,4.000000,4.000000,4.000000,4.000000,83.333336
1613870538.809187,39.000000,0.000000,2.569791,-8.704645,-38.324268,-4.695880,-10.956293,-12.608416,-11.289294,-20.205147,-5.778754,-2.297627,-11.053064,-17.472574,-16.562788,-79.404984,-22.338097,-55.632168,-1.005134,8.719869,-11.838388,-11.445531,-47.571533,-22.790680,-21.362907,-18.406931,-6.617418,-5.158894,-23.027308,-5.494350,4.938047,-2.613738,-4.517413,-35.406914,8064.000000,0.000000,4.000000,,,,0.000000,4.000000,4.000000,4.000000,4.000000,4.000000,4.000000,4.000000,4.000000,4.000000,4.000000,4.000000,4.000000,4.000000,4.000000,4.000000,4.000000,4.000000,4.000000,4.000000,2.000000,4.000000,4.000000,4.000000,4.000000,4.000000,4.000000,4.000000,4.000000,4.000000,4.000000,4.000000,4.000000,83.333336
1613870538.816836,40.000000,0.000000,1.541581,-8.695940,-37.773121,-5.204005,-10.432516,-12.595808,-10.765184,-22.236223,-10.388360,-10.500458,-20.785601,-19.506384,-21.161610,-81.889679,-20.264477,-54.550896,-2.029769,6.659867,-10.800909,-15.536650,-57.267551,-23.280710,-29.546673,-28.132113,-10.200544,-7.205017,-33.773514,-5.488855,-1.733558,-7.226509,-6.564178,-45.627918,8064.000000,0.000000,4.000000,,,,0.000000,4.000000,4.000000,4.000000,4.000000,4.000000,4.000000,4.000000,4.000000,4.000000,4.000000,4.000000,4.000000,4.000000,4.000000,4.000000,4.000000,4.000000,4.000000,4.000000,2.000000,4.000000,4.000000,4.000000,4.000000,4.000000,4.000000,4.000000,4.000000,4.000000,4.000000,4.000000,4.000000,83.333336
1613870538.824585,41.000000,0.000000,-1.024064,-8.174424,-38.248169,-5.711622,-9.909264,-12.583212,-12.805701,-33.496037,-15.506177,-20.233547,-36.662251,-26.153545,-34.986603,-81.294968,-19.731392,-49.368141,-1.002099,10.755771,-8.226006,-20.136497,-37.723106,-23.770248,-32.081226,-38.360390,-12.241626,-8.736274,-33.226917,-5.483366,-2.244645,-8.244923,-9.121716,-43.531010,8064.000000,0.000000,4.000000,,,,0.000000,4.000000,4.000000,4.000000,4.000000,4.000000,4.000000,4.000000,4.000000,4.000000,4.000000,4.000000,4.000000,4.000000,4.000000,4.000000,4.000000,4.000000,4.000000,4.000000,2.000000,4.000000,4.000000,4.000000,4.000000,4.000000,4.000000,4.000000,4.000000,4.000000,4.000000,4.000000,4.000000,83.333336
1613870538.832234,42.000000,0.000000,-2.048681,-8.166249,-37.184280,-4.680269,-11.437816,-12.570628,-17.921101,-47.821518,-18.054773,-22.777416,-44.317898,-35.870979,-41.618282,-73.008545,-20.737303,-38.549541,-1.513917,21.001425,5.115554,-17.552259,-12.557177,-16.566992,-28.972223,-42.424595,-9.665281,-5.650614,-24.475742,-5.477883,1.347344,-3.108473,-9.112595,-33.231068,8064.000000,0.000000,4.000000,,,,0.000000,4.000000,4.000000,4.000000,4.000000,4.000000,4.000000,4.000000,4.000000,4.000000,4.000000,4.000000,4.000000,4.000000,4.000000,4.000000,4.000000,4.000000,4.000000,4.000000,2.000000,4.000000,4.000000,4.000000,4.000000,4.000000,4.000000,4.000000,4.000000,4.000000,4.000000,4.000000,4.000000,83.333336
1613870538.839984,43.000000,0.000000,-1.533811,-8.670904,-33.044533,-5.188409,-9.887917,-12.558058,-19.441641,-48.799335,-12.395693,-15.062331,-37.094093,-36.860752,-31.833073,-49.858616,-16.614000,-20.562273,-2.025224,39.954784,28.700182,4.003755,6.942560,2.423934,-18.174021,-28.536016,-1.963309,-1.029579,-17.271780,-5.472405,1.345996,-1.054082,-8.590661,-34.223476,8064.000000,0.000000,4.000000,,,,0.000000,4.000000,4.000000,4.000000,4.000000,4.000000,4.000000,4.000000,4.000000,4.000000,4.000000,4.000000,4.000000,4.000000,4.000000,4.000000,4.000000,4.000000,4.000000,4.000000,2.000000,4.000000,4.000000,4.000000,4.000000,4.000000,4.000000,4.000000,4.000000,4.000000,4.000000,4.000000,4.000000,83.333336
1613870538.847633,44.000000,0.000000,-2.045098,-8.149412,-30.447384,-5.696042,-3.211362,-13.058320,-16.858097,-29.263357,-0.075605,1.362988,-12.954433,-21.952095,-7.185856,-19.039528,8.530819,9.714699,8.233212,68.632774,61.491993,28.102316,31.551003,23.447151,0.818512,-4.404916,9.833527,-0.002908,-9.049379,-5.466933,1.344650,-2.591490,-8.582070,-36.753357,8064.000000,0.000000,4.000000,,,,0.000000,4.000000,4.000000,4.000000,4.000000,4.000000,4.000000,4.000000,4.000000,4.000000,4.000000,4.000000,4.000000,4.000000,4.000000,4.000000,4.000000,4.000000,4.000000,4.000000,2.000000,4.000000,4.000000,4.000000,4.000000,4.000000,4.000000,4.000000,4.000000,4.000000,4.000000,4.000000,4.000000,83.333336
1613870538.855382,45.000000,0.000000,-1.017412,-8.654083,-30.929758,-5.177525,1.407234,-12.532441,-14.789956,-4.105889,7.616779,14.694958,13.212367,-4.494246,23.590561,0.466692,41.342800,39.961395,24.122414,95.230812,80.404861,35.766521,48.442528,36.244217,14.663848,15.086668,11.874975,-0.515726,-1.348022,-5.461466,1.343306,-1.563257,-10.624771,-38.767887,8192.000000,0.000000,4.000000,,,,0.000000,4.000000,4.000000,4.000000,4.000000,4.000000,4.000000,4.000000,4.000000,4.000000,4.000000,4.000000,4.000000,4.000000,4.000000,4.000000,4.000000,4.000000,4.000000,4.000000,2.000000,4.000000,4.000000,4.000000,4.000000,4.000000,4.000000,4.000000,4.000000,4.000000,4.000000,4.000000,4.000000,83.333336
1613870538.863031,46.000000,0.000000,1.547708,-12.747993,-34.488571,-5.685168,0.893006,-12.519909,-14.775167,6.154627,6.070701,17.244366,21.404284,-0.387188,37.925945,4.568789,50.532227,44.023998,30.252138,97.699684,70.068047,28.551268,39.163315,36.207973,16.187645,23.789530,-1.983054,-0.515210,-1.346674,-5.456005,-5.324704,-2.587335,-12.665428,-48.985527,8064.000000,0.000000,4.000000,,,,0.000000,4.000000,4.000000,4.000000,4.000000,4.000000,4.000000,4.000000,4.000000,4.000000,4.000000,4.000000,4.000000,4.000000,4.000000,4.000000,4.000000,4.000000,4.000000,4.000000,2.000000,4.000000,4.000000,4.000000,4.000000,4.000000,4.000000,4.000000,4.000000,4.000000,4.000000,4.000000,4.000000,83.333336
1613870538.870780,47.000000,0.000000,2.571801,-16.324989,-39.069469,-9.269226,0.892113,-13.020209,-15.273211,6.148473,3.500527,17.227121,17.280315,-2.950903,34.811096,1.487297,36.122719,29.108179,29.196245,84.781471,51.023621,20.317587,23.739538,30.017918,10.530432,20.688818,-11.724661,-0.001874,-8.011994,-5.450549,-9.421944,-5.661671,-13.165583,-57.141670,8064.000000,0.000000,4.000000,,,,0.000000,4.000000,4.000000,4.000000,4.000000,4.000000,4.000000,4.000000,4.000000,4.000000,4.000000,4.000000,4.000000,4.000000,4.000000,4.000000,4.000000,4.000000,4.000000,4.000000,2.000000,4.000000,4.000000,4.000000,4.000000,4.000000,4.000000,4.000000,4.000000,4.000000,4.000000,4.000000,4.000000,83.333336
1613870538.878429,48.000000,0.000000,2.056409,-15.795843,-41.594501,-13.362521,0.891221,-11.981548,-13.719478,6.655145,3.497027,17.209894,16.237392,-0.383850,35.289104,-2.103934,30.445572,22.925224,26.090126,77.004379,43.280289,16.707527,19.613234,25.372517,6.930158,12.463000,-6.584731,-0.514693,-9.542444,-5.445098,-6.848419,-5.143188,-12.639597,-56.058887,8064.000000,0.000000,4.000000,,,,0.000000,4.000000,4.000000,4.000000,4.000000,4.000000,4.000000,4.000000,4.000000,4.000000,4.000000,4.000000,4.000000,4.000000,4.000000,4.000000,4.000000,4.000000,4.000000,4.000000,2.000000,4.000000,4.000000,4.000000,4.000000,4.000000,4.000000,4.000000,4.000000,4.000000,4.000000,4.000000,4.000000,83.333336
1613870538.886178,49.000000,0.000000,2.054353,-15.267227,-41.040085,-12.836338,0.890330,-7.354182,-11.654475,6.648489,5.031991,17.192684,17.246798,2.693457,33.715355,-4.153112,31.440767,21.363836,17.346087,69.747887,39.134445,14.639537,14.465416,18.167656,4.871946,5.271050,-2.475582,-2.052640,-10.558542,-4.926833,-5.303109,-2.061122,-12.114137,-54.977188,8064.000000,0.000000,4.000000,,,,0.000000,4.000000,4.000000,4.000000,4.000000,4.000000,4.000000,4.000000,4.000000,4.000000,4.000000,4.000000,4.000000,4.000000,4.000000,4.000000,4.000000,4.000000,4.000000,4.000000,2.000000,4.000000,4.000000,4.000000,4.000000,4.000000,4.000000,4.000000,4.000000,4.000000,4.000000,4.000000,4.000000,83.333336
1613870538.893827,50.000000,0.000000,2.052298,-15.764780,-40.486225,-12.310681,2.427901,-4.269905,-10.617180,6.641841,8.103882,18.201132,14.152627,2.177943,21.373947,-12.354087,24.229839,12.111704,8.610792,63.524296,34.479923,15.137718,5.220181,8.918719,-1.799593,-2.939349,-5.550029,-4.101869,-19.265932,-6.973188,-8.374729,-1.033420,-12.614843,-55.947853,8064.000000,0.000000,4.000000,,,,0.000000,4.000000,4.000000,4.000000,4.000000,4.000000,4.000000,4.000000,4.000000,4.000000,4.000000,4.000000,4.000000,4.000000,4.000000,4.000000,4.000000,4.000000,4.000000,4.000000,2.000000,4.000000,4.000000,4.000000,4.000000,4.000000,4.000000,4.000000,4.000000,4.000000,4.000000,4.000000,4.000000,83.333336
1613870538.901577,51.000000,0.000000,2.050246,-15.749016,-41.984200,-12.811192,-1.677091,-4.778456,-10.606563,4.583917,5.531676,11.516265,4.394885,1.150124,12.121803,-33.880196,14.462020,1.330362,6.550899,61.409489,31.368521,14.096939,-5.554270,3.781595,-7.438819,-11.654359,-7.595761,-4.610588,-26.426153,-9.530317,-9.904816,-3.596489,-12.602228,-55.379082,8064.000000,0.000000,4.000000,,,,0.000000,4.000000,4.000000,4.000000,4.000000,4.000000,4.000000,4.000000,4.000000,4.000000,4.000000,4.000000,4.000000,4.000000,4.000000,4.000000,4.000000,4.000000,4.000000,4.000000,2.000000,4.000000,4.000000,4.000000,4.000000,4.000000,4.000000,4.000000,4.000000,4.000000,4.000000,4.000000,4.000000,83.333336
1613870538.909226,52.000000,0.000000,2.048196,-15.733267,-39.890934,-12.798380,-7.829260,-5.286498,-12.134418,-9.266821,-2.678984,-4.392687,-11.506947,-2.953590,4.930194,-59.487339,1.627045,-14.055584,3.467425,46.476284,23.132025,-3.865876,-20.420511,-1.350391,-8.969842,-16.258089,-8.613807,-3.580336,-20.758701,-9.007966,-9.382091,-5.131354,-12.076806,-56.862167,8064.000000,0.000000,4.000000,,,,0.000000,4.000000,4.000000,4.000000,4.000000,4.000000,4.000000,4.000000,4.000000,4.000000,4.000000,4.000000,4.000000,4.000000,4.000000,4.000000,4.000000,4.000000,4.000000,4.000000,2.000000,4.000000,4.000000,4.000000,4.000000,4.000000,4.000000,4.000000,4.000000,4.000000,4.000000,4.000000,4.000000,83.333336
1613870538.917075,53.000000,0.000000,2.046148,-15.717533,-41.389503,-12.272761,-9.872712,-4.768391,-15.712028,-23.103708,-9.342972,-13.619063,-25.854414,-15.258328,-13.023454,-74.812469,-16.836121,-33.528709,-3.202709,18.737501,8.237098,-30.015856,-33.733425,-9.554169,-11.012154,-18.293112,-12.194937,-4.602397,-13.558456,-5.922035,-9.372708,-7.177505,-13.603190,-58.856586,8064.000000,0.000000,4.000000,,,,0.000000,4.000000,4.000000,4.000000,4.000000,4.000000,4.000000,4.000000,4.000000,4.000000,4.000000,4.000000,4.000000,4.000000,4.000000,4.000000,4.000000,4.000000,4.000000,4.000000,2.000000,4.000000,4.000000,4.000000,4.000000,4.000000,4.000000,4.000000,4.000000,4.000000,4.000000,4.000000,4.000000,83.333336
1613870538.924824,54.000000,0.000000,2.044101,-15.701816,-51.604527,-13.286129,-13.965404,-4.250802,-18.773237,-25.131886,-12.923372,-15.656727,-34.033688,-27.037943,-29.420687,-81.404320,-29.126976,-42.213127,-9.866173,1.282866,-3.566011,-39.729431,-38.315075,-15.185640,-14.590885,-19.813282,-14.746844,-8.187538,-14.057718,-4.890472,-9.363336,-13.324174,-18.204971,-58.797729,8064.000000,0.000000,4.000000,,,,0.000000,4.000000,4.000000,4.000000,4.000000,4.000000,4.000000,4.000000,4.000000,4.000000,4.000000,4.000000,4.000000,4.000000,4.000000,4.000000,4.000000,4.000000,4.000000,4.000000,2.000000,4.000000,4.000000,4.000000,4.000000,4.000000,4.000000,4.000000,4.000000,4.000000,4.000000,4.000000,4.000000,83.333336
1613870538.932673,55.000000,0.000000,2.042057,-15.686114,-62.834972,-17.888227,-23.182207,-7.323474,-18.241644,-25.106754,-19.064295,-23.333378,-42.204781,-30.087828,-33.493832,-82.348557,-37.815800,-44.222198,-15.497333,-8.974828,-7.665009,-34.561497,-37.251118,-16.708916,-15.601935,-19.280647,-15.244918,-11.256273,-14.556481,-5.398402,-9.866793,-20.490337,-20.238049,-58.226112,7936.000000,0.000000,4.000000,,,,0.000000,4.000000,4.000000,4.000000,4.000000,4.000000,4.000000,4.000000,4.000000,4.000000,4.000000,4.000000,4.000000,4.000000,4.000000,4.000000,4.000000,4.000000,4.000000,4.000000,2.000000,4.000000,4.000000,4.000000,4.000000,4.000000,4.000000,4.000000,4.000000,4.000000,4.000000,4.000000,4.000000,83.333336
1613870538.940422,56.000000,0.000000,2.040015,-15.670428,-64.823418,-22.998545,-26.235949,-12.957176,-18.736223,-25.594467,-22.122154,-24.848505,-42.162579,-26.980816,-30.896235,-67.394417,-40.854904,-46.229256,-20.097219,-14.094058,-7.144524,-21.193600,-25.931816,-12.589643,-15.073513,-20.287008,-15.229672,-11.757838,-13.516283,-5.393004,-8.831285,-19.444206,-19.704990,-58.680706,7936.000000,0.000000,4.000000,,,,0.000000,4.000000,4.000000,4.000000,4.000000,4.000000,4.000000,4.000000,4.000000,4.000000,4.000000,4.000000,4.000000,4.000000,4.000000,4.000000,4.000000,4.000000,4.000000,4.000000,2.000000,4.000000,4.000000,4.000000,4.000000,4.000000,4.000000,4.000000,4.000000,4.000000,4.000000,4.000000,4.000000,83.333336
1613870538.948271,57.000000,0.000000,2.037975,-15.654757,-60.143211,-25.026829,-23.132790,-11.918578,-18.717487,-17.363745,-13.894903,-9.951862,-20.581953,-20.287169,-18.044825,-37.583431,-22.352512,-29.772772,-15.974558,5.407216,2.606211,3.442978,-7.444346,-1.807823,-13.007157,-17.702618,-12.137520,-12.258901,-13.502768,-5.387611,-6.771172,-13.270915,-20.710926,-59.134846,8064.000000,0.000000,4.000000,,,,0.000000,4.000000,4.000000,4.000000,4.000000,4.000000,4.000000,4.000000,4.000000,4.000000,4.000000,4.000000,4.000000,4.000000,4.000000,4.000000,4.000000,4.000000,4.000000,4.000000,2.000000,4.000000,4.000000,4.000000,4.000000,4.000000,4.000000,4.000000,4.000000,4.000000,4.000000,4.000000,4.000000,83.333336
1613870538.956020,58.000000,0.000000,2.035937,-15.639103,-53.416401,-21.924879,-21.571196,-6.265634,-16.134666,-6.577150,-3.624599,1.852961,6.618116,-11.548933,1.973220,-16.520206,7.926250,0.513412,-5.189353,36.171040,23.629246,20.362612,4.870791,6.399113,-7.353125,-7.941326,-5.971536,-9.169719,-14.002085,-5.895044,-6.251580,-9.155080,-18.638933,-59.075710,8064.000000,0.000000,4.000000,,,,0.000000,4.000000,4.000000,4.000000,4.000000,4.000000,4.000000,4.000000,4.000000,4.000000,4.000000,4.000000,4.000000,4.000000,4.000000,4.000000,4.000000,4.000000,4.000000,4.000000,2.000000,4.000000,4.000000,4.000000,4.000000,4.000000,4.000000,4.000000,4.000000,4.000000,4.000000,4.000000,4.000000,83.333336
1613870538.963869,59.000000,0.000000,2.033901,-15.623464,-52.337345,-19.338850,-21.549623,-7.285009,-16.118532,-4.519291,-0.031230,2.363929,11.739703,-8.460461,11.202016,-15.990866,21.251657,14.359053,3.533785,48.955379,37.451771,14.701223,7.430023,7.931176,-3.243207,0.271744,-2.888642,-4.032344,-13.988083,-5.376328,-5.219687,-9.145925,-12.979269,-60.555096,8064.000000,0.000000,4.000000,,,,0.000000,4.000000,4.000000,4.000000,4.000000,4.000000,4.000000,4.000000,4.000000,4.000000,4.000000,4.000000,4.000000,4.000000,4.000000,4.000000,4.000000,4.000000,4.000000,4.000000,2.000000,4.000000,4.000000,4.000000,4.000000,4.000000,4.000000,4.000000,4.000000,4.000000,4.000000,4.000000,4.000000,83.333336
1613870538.971618,60.000000,0.000000,2.031867,-16.120661,-57.413212,-20.857973,-22.553715,-12.918750,-16.102413,-6.053234,-1.056840,1.335924,3.522835,-9.477641,11.190814,-21.615900,20.717585,11.267770,7.119995,48.393604,28.696369,5.968573,4.858490,7.923244,-3.239964,0.784293,-3.398574,-4.541132,-14.486916,-6.396593,-6.240109,-10.675241,-12.453469,-62.545822,8064.000000,0.000000,4.000000,,,,0.000000,4.000000,4.000000,4.000000,4.000000,4.000000,4.000000,4.000000,4.000000,4.000000,4.000000,4.000000,4.000000,4.000000,4.000000,4.000000,4.000000,4.000000,4.000000,4.000000,2.000000,4.000000,4.000000,4.000000,4.000000,4.000000,4.000000,4.000000,4.000000,4.000000,4.000000,4.000000,4.000000,83.333336
1613870538.979467,61.000000,0.000000,2.029835,-15.591720,-52.740414,-19.811474,-19.967060,-12.905831,-13.009388,-5.534360,-1.055783,1.334588,0.955210,-9.468163,11.179624,-25.696848,19.671227,8.179580,7.112875,47.832390,19.949724,4.424143,1.263888,8.940962,-3.749545,-2.293415,-3.907995,-3.510950,-12.933967,-5.364555,-6.746689,-6.562001,-12.441015,-60.431995,8064.000000,0.000000,4.000000,,,,0.000000,4.000000,4.000000,4.000000,4.000000,4.000000,4.000000,4.000000,4.000000,4.000000,4.000000,4.000000,4.000000,4.000000,4.000000,4.000000,4.000000,4.000000,4.000000,4.000000,2.000000,4.000000,4.000000,4.000000,4.000000,4.000000,4.000000,4.000000,4.000000,4.000000,4.000000,4.000000,4.000000,83.333336
1613870538.987216,62.000000,0.000000,2.027806,-13.012025,-36.277416,-11.073714,-7.639400,-9.816002,-10.432277,-5.528825,0.483734,7.487099,1.979896,-8.433055,11.681264,-26.183973,21.190018,10.222682,7.618583,48.810200,21.981056,4.932539,3.826727,7.906380,-3.232975,-3.829583,-2.878447,4.184869,-10.356931,1.820297,0.439545,3.188151,-5.761908,-48.063869,8064.000000,0.000000,4.000000,,,,0.000000,4.000000,4.000000,4.000000,4.000000,4.000000,4.000000,4.000000,4.000000,4.000000,4.000000,4.000000,4.000000,4.000000,4.000000,4.000000,4.000000,4.000000,4.000000,4.000000,2.000000,4.000000,4.000000,4.000000,4.000000,4.000000,4.000000,4.000000,4.000000,4.000000,4.000000,4.000000,4.000000,83.333336
1613870538.995065,63.000000,0.000000,1.512957,-9.409269,-27.523191,-4.395974,2.111829,-7.242084,-10.421844,-6.036117,2.534533,16.197561,1.977916,-6.886160,11.156762,-26.670609,21.168827,7.648356,7.610964,49.787029,16.318050,4.927607,-0.792485,8.411294,-3.229742,-3.312933,-3.388389,11.360171,-9.833753,8.997963,10.695516,10.364450,-0.627941,-34.682472,8064.000000,0.000000,4.000000,,,,0.000000,4.000000,4.000000,4.000000,4.000000,4.000000,4.000000,4.000000,4.000000,4.000000,4.000000,4.000000,4.000000,4.000000,4.000000,4.000000,4.000000,4.000000,4.000000,4.000000,2.000000,4.000000,4.000000,4.000000,4.000000,4.000000,4.000000,4.000000,4.000000,4.000000,4.000000,4.000000,4.000000,83.333336
1613870539.002814,64.000000,0.000000,3.049906,-5.297297,-26.470028,-4.904398,0.571256,-5.696380,-8.360140,-6.030081,3.044818,12.078799,-2.639447,-5.340812,6.017401,-41.515732,6.788684,-10.308010,4.013609,38.455193,0.404296,-2.256808,-24.381435,7.377242,-3.739332,-4.848082,-6.461923,11.861631,-10.336740,10.014606,12.223281,9.328444,-1.652954,-29.519587,0.000000,193.000000,4.000000,,,,0.000000,4.000000,4.000000,4.000000,4.000000,4.000000,4.000000,4.000000,4.000000,4.000000,4.000000,4.000000,4.000000,4.000000,4.000000,4.000000,4.000000,4.000000,4.000000,4.000000,2.000000,4.000000,4.000000,4.000000,4.000000,4.000000,4.000000,4.000000,4.000000,4.000000,4.000000,4.000000,4.000000,83.333336
1613870539.010663,65.000000,0.000000,5.610959,-4.266358,-19.264071,-5.925135,-2.506238,-4.665042,-6.300498,-6.024051,3.041774,1.297490,-14.944500,-5.335472,-4.757848,-71.730629,-18.859131,-34.400265,-1.631430,16.365456,-5.237134,-14.049422,-43.331413,1.216019,-3.735593,-11.509900,-10.045205,7.747206,-10.326403,8.978951,8.108494,6.755013,-1.651301,-29.490067,0.000000,186.000000,4.000000,,,,0.000000,4.000000,4.000000,4.000000,4.000000,4.000000,4.000000,4.000000,4.000000,4.000000,4.000000,4.000000,4.000000,4.000000,4.000000,4.000000,4.000000,4.000000,4.000000,4.000000,2.000000,4.000000,4.000000,4.000000,4.000000,4.000000,4.000000,4.000000,4.000000,4.000000,4.000000,4.000000,4.000000,83.333336
1613870539.018412,66.000000,0.000000,6.118168,-4.262092,-14.629421,-4.893569,-2.503732,-5.173198,-7.319839,-6.018027,3.038732,-4.344833,-25.185965,-6.868598,-15.522321,-95.248642,-33.199245,-49.750481,-4.706721,5.067039,-3.180614,-19.163578,-41.236801,-4.426223,-3.219037,-16.113775,-11.060801,4.149715,-9.803256,9.482793,8.613206,5.722617,-1.136829,-30.486217,0.000000,214.000000,4.000000,,,,0.000000,4.000000,4.000000,4.000000,4.000000,4.000000,4.000000,4.000000,4.000000,4.000000,4.000000,4.000000,4.000000,4.000000,4.000000,4.000000,4.000000,4.000000,4.000000,4.000000,2.000000,4.000000,4.000000,4.000000,4.000000,4.000000,4.000000,4.000000,4.000000,4.000000,4.000000,4.000000,4.000000,83.333336
1613870539.026261,67.000000,0.000000,5.599229,-4.257830,-14.614792,-5.914316,-4.552511,-5.168025,-7.312519,-6.012009,-2.605333,-10.494335,-26.699242,-8.913011,-21.147823,-94.127754,-35.730148,-54.316116,-5.214835,3.523510,-4.715896,-20.170055,-35.041718,-4.934618,-4.241459,-16.097662,-12.075381,3.119924,-10.306273,9.473310,9.630234,5.716895,-2.674154,-27.378807,0.000000,184.000000,4.000000,,,,0.000000,4.000000,4.000000,4.000000,4.000000,4.000000,4.000000,4.000000,4.000000,4.000000,4.000000,4.000000,4.000000,4.000000,4.000000,4.000000,4.000000,4.000000,4.000000,4.000000,2.000000,4.000000,4.000000,4.000000,4.000000,4.000000,4.000000,4.000000,4.000000,4.000000,4.000000,4.000000,4.000000,83.333336
1613870539.034010,68.000000,0.000000,5.593630,-4.253572,-1.779664,-5.395582,-7.112061,-5.162857,-7.305206,-6.518817,-11.320676,-13.047943,-25.646900,-9.416919,-18.562572,-74.033623,-32.617496,-44.005390,-4.696800,5.058448,-0.608616,-18.611423,-25.263086,-3.904042,-8.852602,-16.081564,-14.114588,3.629625,-10.295967,8.951015,8.594962,5.711177,1.431084,-12.479634,0.000000,192.000000,4.000000,,,,0.000000,4.000000,4.000000,4.000000,4.000000,4.000000,4.000000,4.000000,4.000000,4.000000,4.000000,4.000000,4.000000,4.000000,4.000000,4.000000,4.000000,4.000000,4.000000,4.000000,2.000000,4.000000,4.000000,4.000000,4.000000,4.000000,4.000000,4.000000,4.000000,4.000000,4.000000,4.000000,4.000000,83.333336
1613870539.041659,69.000000,0.000000,5.588037,-4.249318,17.709295,0.250840,-7.104949,-5.157694,-7.297901,-5.486658,-12.847816,-4.829767,-21.518690,-8.894681,-10.338882,-48.831383,-14.636160,-20.371639,-3.666462,20.950825,10.674045,-2.182556,-6.263463,-1.336035,-10.895032,-15.552661,-15.638934,3.625995,-9.772850,9.454885,9.099188,5.705466,10.660422,5.481564,0.000000,182.000000,4.000000,,,,0.000000,4.000000,4.000000,4.000000,4.000000,4.000000,4.000000,4.000000,4.000000,4.000000,4.000000,4.000000,4.000000,4.000000,4.000000,4.000000,4.000000,4.000000,4.000000,4.000000,2.000000,4.000000,4.000000,4.000000,4.000000,4.000000,4.000000,4.000000,4.000000,4.000000,4.000000,4.000000,4.000000,83.333336
1613870539.049408,70.000000,0.000000,5.582448,-4.757889,23.332611,5.378794,-6.585023,-5.152536,-6.777782,-4.455530,-9.245225,2.354550,-14.830504,-8.885786,-7.251621,-33.397938,3.327194,-0.864089,-4.688437,42.468334,21.432602,16.281164,5.024851,0.716583,-11.396957,-13.998647,-14.597654,3.109549,-10.275898,9.445431,9.090089,5.186940,14.239506,12.142749,0.000000,193.000000,4.000000,,,,0.000000,4.000000,4.000000,4.000000,4.000000,4.000000,4.000000,4.000000,4.000000,4.000000,4.000000,4.000000,4.000000,4.000000,4.000000,4.000000,4.000000,4.000000,4.000000,4.000000,2.000000,4.000000,4.000000,4.000000,4.000000,4.000000,4.000000,4.000000,4.000000,4.000000,4.000000,4.000000,4.000000,83.333336
1613870539.057058,71.000000,0.000000,5.576866,-4.753131,20.232355,5.886236,-6.578438,-5.147384,-7.283825,-8.553638,-8.210340,1.839375,-13.790032,-9.902542,-9.295651,-29.774796,4.349508,6.829083,-3.658107,50.630997,35.770142,16.777704,15.789057,4.305610,-10.359920,-13.984649,-9.967672,2.593619,-10.265622,8.923164,8.055358,5.181754,12.686805,10.592144,0.000000,186.000000,4.000000,,,,0.000000,4.000000,4.000000,4.000000,4.000000,4.000000,4.000000,4.000000,4.000000,4.000000,4.000000,4.000000,4.000000,4.000000,4.000000,4.000000,4.000000,4.000000,4.000000,4.000000,2.000000,4.000000,4.000000,4.000000,4.000000,4.000000,4.000000,4.000000,4.000000,4.000000,4.000000,4.000000,4.000000,83.333336
1613870539.064807,72.000000,0.000000,5.571289,-4.748378,20.724943,5.367529,-6.571860,-5.142236,-7.276541,-9.057905,-8.714950,1.324715,-11.724960,-8.354177,-5.183791,-29.232201,9.986184,13.488921,3.525038,58.272671,52.657448,12.145541,35.773270,16.096176,-6.246995,-4.227074,-5.342320,4.129487,-7.691254,9.427062,9.585764,6.202213,13.186938,11.094373,0.000000,181.000000,4.000000,,,,0.000000,4.000000,4.000000,4.000000,4.000000,4.000000,4.000000,4.000000,4.000000,4.000000,4.000000,4.000000,4.000000,4.000000,4.000000,4.000000,4.000000,4.000000,4.000000,4.000000,2.000000,4.000000,4.000000,4.000000,4.000000,4.000000,4.000000,4.000000,4.000000,4.000000,4.000000,4.000000,4.000000,83.333336
1613870539.072456,73.000000,0.000000,5.565718,-4.230809,21.729860,5.874982,-6.565288,-5.137094,-6.243624,-3.407822,-8.706234,-0.727892,-5.559390,-8.858644,2.513700,-28.177328,20.745428,15.526714,8.649718,62.829784,52.091972,8.543653,35.224674,22.746746,-3.676646,12.700230,-6.875439,2.074075,-6.145101,9.417635,8.550537,3.119087,12.660931,12.621739,0.000000,196.000000,4.000000,,,,0.000000,4.000000,4.000000,4.000000,4.000000,4.000000,4.000000,4.000000,4.000000,4.000000,4.000000,4.000000,4.000000,4.000000,4.000000,4.000000,4.000000,4.000000,4.000000,4.000000,2.000000,4.000000,4.000000,4.000000,4.000000,4.000000,4.000000,4.000000,4.000000,4.000000,4.000000,4.000000,4.000000,83.333336
1613870539.080205,74.000000,0.000000,5.560152,-6.790681,19.656849,5.869107,-6.558722,-5.131957,-9.827124,-9.558260,-7.671887,-4.829728,-10.169215,-16.542093,-0.052916,-31.738894,9.955452,6.280418,0.948761,48.407982,29.988598,-5.311045,9.035604,8.877846,-9.826815,9.610606,-11.483949,-7.671589,-7.677418,4.280012,1.875320,-5.089160,9.571347,8.506554,0.000000,191.000000,4.000000,,,,0.000000,4.000000,4.000000,4.000000,4.000000,4.000000,4.000000,4.000000,4.000000,4.000000,4.000000,4.000000,4.000000,4.000000,4.000000,4.000000,4.000000,4.000000,4.000000,4.000000,2.000000,4.000000,4.000000,4.000000,4.000000,4.000000,4.000000,4.000000,4.000000,4.000000,4.000000,4.000000,4.000000,83.333336
1613870539.087854,75.000000,0.000000,5.554592,-7.809532,17.585909,5.863238,-6.552164,-5.126825,-13.919861,-24.933317,-8.177035,-5.850539,-26.569302,-24.217859,-7.745171,-37.348183,-11.080144,-8.084837,-9.821419,29.898033,13.035532,-11.459580,-3.793945,-3.951545,-15.458014,-11.424645,-10.446823,-10.228020,-10.233843,-2.390935,-1.716299,-10.212276,9.048955,3.369842,0.000000,190.000000,4.000000,,,,0.000000,4.000000,4.000000,4.000000,4.000000,4.000000,4.000000,4.000000,4.000000,4.000000,4.000000,4.000000,4.000000,4.000000,4.000000,4.000000,4.000000,4.000000,4.000000,4.000000,2.000000,4.000000,4.000000,4.000000,4.000000,4.000000,4.000000,4.000000,4.000000,4.000000,4.000000,4.000000,4.000000,83.333336
1613870539.095603,76.000000,0.000000,5.549037,-5.237619,17.055502,5.857375,-6.545611,-5.121698,-12.880300,-28.498127,-8.681679,-7.895970,-34.235039,-24.706461,-9.275887,-37.823654,-16.197269,-16.794701,-11.862880,26.791212,10.971214,1.885213,-4.815792,-3.434772,-14.416915,-20.643990,-9.923556,-2.525484,-10.223609,-2.901364,0.849520,-9.689243,9.039907,4.904934,0.000000,190.000000,4.000000,,,,0.000000,4.000000,4.000000,4.000000,4.000000,4.000000,4.000000,4.000000,4.000000,4.000000,4.000000,4.000000,4.000000,4.000000,4.000000,4.000000,4.000000,4.000000,4.000000,4.000000,2.000000,4.000000,4.000000,4.000000,4.000000,4.000000,4.000000,4.000000,4.000000,4.000000,4.000000,4.000000,4.000000,83.333336
1613870539.103252,77.000000,0.000000,5.030668,-3.693920,18.576908,5.851517,-6.539066,-5.116577,-10.816137,-22.828604,-7.134536,-9.426537,-29.072599,-24.168934,-7.728150,-38.811470,-14.129790,-18.829187,-11.338196,26.764421,11.985885,7.524353,-13.016105,-4.969800,-13.889677,-18.059242,-23.759787,-0.471676,-9.700564,-1.360001,1.874311,-9.166733,9.030867,3.361567,0.000000,174.000000,4.000000,,,,0.000000,4.000000,4.000000,4.000000,4.000000,4.000000,4.000000,4.000000,4.000000,4.000000,4.000000,4.000000,4.000000,4.000000,4.000000,4.000000,4.000000,4.000000,4.000000,4.000000,2.000000,4.000000,4.000000,4.000000,4.000000,4.000000,4.000000,4.000000,4.000000,4.000000,4.000000,4.000000,4.000000,83.333336
1613870539.111002,78.000000,0.000000,5.538458,-4.715868,16.507050,6.358486,-6.532527,-5.111460,-10.292500,-19.728851,-4.563299,-5.314546,-23.915323,-23.119123,-8.746062,-49.541889,-16.166943,-21.887281,-11.839678,26.737658,9.922616,-1.201120,-19.669754,-7.528932,-15.414249,-18.554005,-35.530899,-4.060948,-10.203685,-3.409924,0.846796,-9.670387,9.534656,-7.411025,0.000000,193.000000,4.000000,,,,0.000000,4.000000,4.000000,4.000000,4.000000,4.000000,4.000000,4.000000,4.000000,4.000000,4.000000,4.000000,4.000000,4.000000,4.000000,4.000000,4.000000,4.000000,4.000000,4.000000,2.000000,4.000000,4.000000,4.000000,4.000000,4.000000,4.000000,4.000000,4.000000,4.000000,4.000000,4.000000,4.000000,83.333336
1613870539.118651,79.000000,0.000000,7.584201,-4.711152,5.208491,4.813666,-6.525994,-5.106349,-8.743747,-14.580918,-4.045915,-4.796411,-21.840126,-15.403697,-9.250137,-69.492348,-15.125134,-33.147446,-8.238095,24.146816,10.425514,-4.789662,-20.675726,-1.880378,-13.347553,-20.073912,-25.751778,-2.518426,-10.193481,-1.355231,1.871590,-9.660717,7.986660,-16.634382,0.000000,204.000000,4.000000,,,,0.000000,4.000000,4.000000,4.000000,4.000000,4.000000,4.000000,4.000000,4.000000,4.000000,4.000000,4.000000,4.000000,4.000000,4.000000,4.000000,4.000000,4.000000,4.000000,4.000000,2.000000,4.000000,4.000000,4.000000,4.000000,4.000000,4.000000,4.000000,4.000000,4.000000,4.000000,4.000000,4.000000,83.333336
1613870539.126400,80.000000,0.000000,9.115079,-4.193620,-14.283896,2.244750,-6.519468,-5.101242,-6.683721,-8.925311,-4.554689,-8.381357,-21.818285,-8.721627,-8.215246,-86.345932,-15.622829,-45.421989,-2.076011,11.814978,11.953550,-4.272052,-17.065308,4.275349,-10.770103,-20.053839,-11.367052,0.048195,-10.696108,4.799970,-1.207204,-9.138235,1.824827,-26.361338,0.000000,164.000000,4.000000,,,,0.000000,4.000000,4.000000,4.000000,4.000000,4.000000,4.000000,4.000000,4.000000,4.000000,4.000000,4.000000,4.000000,4.000000,4.000000,4.000000,4.000000,4.000000,4.000000,4.000000,2.000000,4.000000,4.000000,4.000000,4.000000,4.000000,4.000000,4.000000,4.000000,4.000000,4.000000,4.000000,4.000000,83.333336
1613870539.134049,81.000000,0.000000,9.105964,-7.779170,-31.705509,-3.911341,-6.512949,-5.096141,-7.189858,-8.916387,-4.550135,-11.449900,-22.309288,-8.712906,-8.719851,-85.746765,-15.607206,-46.915031,-0.022653,5.136496,10.403135,1.886066,-4.740549,3.758253,-10.246512,-18.495323,-11.868505,-0.464674,-10.685412,4.282350,-8.385485,-9.129097,-3.305203,-43.770874,0.000000,194.000000,4.000000,,,,0.000000,4.000000,4.000000,4.000000,4.000000,4.000000,4.000000,4.000000,4.000000,4.000000,4.000000,4.000000,4.000000,4.000000,4.000000,4.000000,4.000000,4.000000,4.000000,4.000000,2.000000,4.000000,4.000000,4.000000,4.000000,4.000000,4.000000,4.000000,4.000000,4.000000,4.000000,4.000000,4.000000,83.333336
1613870539.141798,82.000000,0.000000,9.096858,-12.386775,-38.340469,-12.625379,-6.506436,-5.091045,-7.182668,-8.907470,-4.545585,-9.899988,-17.158773,-8.704192,-6.147029,-62.584095,0.818657,-28.406576,-0.535451,23.080078,13.982475,22.397001,6.546243,3.241674,-10.749086,-13.861443,-11.343816,-0.464209,-10.161906,-1.362959,-10.428381,-9.632789,-4.840360,-56.034798,0.000000,196.000000,4.000000,,,,0.000000,4.000000,4.000000,4.000000,4.000000,4.000000,4.000000,4.000000,4.000000,4.000000,4.000000,4.000000,4.000000,4.000000,4.000000,4.000000,4.000000,4.000000,4.000000,4.000000,2.000000,4.000000,4.000000,4.000000,4.000000,4.000000,4.000000,4.000000,4.000000,4.000000,4.000000,4.000000,4.000000,83.333336
1613870539.149447,83.000000,0.000000,9.600581,-11.861567,-37.789310,-17.228138,-6.499929,-5.085954,-7.175486,-5.308819,-4.541039,-1.684960,-6.885204,-8.182668,2.577067,-33.290745,20.305017,2.903881,-0.534915,48.698025,22.686441,34.682297,12.180722,3.751253,-10.738338,-10.770658,0.975220,-1.489386,-10.664565,-2.900057,-7.853850,-8.597515,-5.861160,-55.465942,0.000000,198.000000,4.000000,,,,0.000000,4.000000,4.000000,4.000000,4.000000,4.000000,4.000000,4.000000,4.000000,4.000000,4.000000,4.000000,4.000000,4.000000,4.000000,4.000000,4.000000,4.000000,4.000000,4.000000,2.000000,4.000000,4.000000,4.000000,4.000000,4.000000,4.000000,4.000000,4.000000,4.000000,4.000000,4.000000,4.000000,83.333336
1613870539.157296,84.000000,0.000000,9.078160,-8.772783,-40.828445,-16.698090,-7.006250,-5.080868,-7.168310,-7.867612,-4.536498,10.111597,-2.262934,-9.200127,12.830900,-18.898478,24.387278,22.388157,-0.021560,60.444199,27.791960,21.314280,22.424952,4.260323,-10.214778,-12.298349,8.153732,0.563386,-9.628259,-1.358696,-5.281894,-3.973533,-5.855299,-55.923294,0.000000,142.000000,4.000000,,,,0.000000,4.000000,4.000000,4.000000,4.000000,4.000000,4.000000,4.000000,4.000000,4.000000,4.000000,4.000000,4.000000,4.000000,4.000000,4.000000,4.000000,4.000000,4.000000,4.000000,2.000000,4.000000,4.000000,4.000000,4.000000,4.000000,4.000000,4.000000,4.000000,4.000000,4.000000,2.000000,4.000000,66.666664
1613870539.165045,85.000000,0.000000,9.581903,-8.251190,-45.403000,-16.168570,-5.973603,-5.075787,-7.161141,-12.987950,-4.531962,12.665588,-2.773492,-9.190927,14.869351,-17.853939,23.337248,23.904230,2.029744,61.922215,27.251348,3.857069,32.146118,9.897088,-10.717384,-8.183487,8.658399,7.229489,-4.490426,-1.870157,-2.712509,-1.405457,-5.336623,-57.918655,0.000000,167.000000,4.000000,,,,0.000000,4.000000,4.000000,4.000000,4.000000,4.000000,4.000000,4.000000,4.000000,4.000000,4.000000,4.000000,4.000000,4.000000,4.000000,4.000000,4.000000,4.000000,4.000000,4.000000,2.000000,4.000000,4.000000,4.000000,4.000000,4.000000,4.000000,4.000000,4.000000,4.000000,4.000000,2.000000,4.000000,66.666664
1613870539.172894,86.000000,0.000000,9.572321,-8.242939,-44.844776,-16.665222,-3.916347,-4.557891,-7.153980,-13.487782,-4.527430,12.652923,-2.257898,-9.694555,8.700636,-16.810444,21.775450,22.854685,4.078996,61.347473,27.224096,-4.864738,32.626789,16.041037,-10.706667,3.106748,15.316407,11.324823,0.642270,-2.381108,-1.684156,-1.404051,-6.356927,-58.373554,0.000000,192.000000,4.000000,,,,0.000000,4.000000,4.000000,4.000000,4.000000,4.000000,4.000000,4.000000,4.000000,4.000000,4.000000,4.000000,4.000000,4.000000,4.000000,4.000000,4.000000,4.000000,4.000000,4.000000,2.000000,4.000000,4.000000,4.000000,4.000000,4.000000,4.000000,4.000000,4.000000,4.000000,4.000000,2.000000,4.000000,66.666664
1613870539.180643,87.000000,0.000000,5.460184,-7.721875,-43.774292,-16.135736,-2.373969,-5.578974,-7.146826,-12.448654,-4.522902,13.665911,-3.794101,-14.813066,-0.538834,-19.870556,6.881879,17.703625,3.562097,58.722023,27.196873,-8.449616,32.594166,14.999354,-10.183140,12.334411,22.480577,11.313498,2.180089,-1.865906,-2.195292,-1.915468,-8.401853,-63.443386,0.000000,196.000000,4.000000,,,,0.000000,4.000000,4.000000,4.000000,4.000000,4.000000,4.000000,4.000000,4.000000,4.000000,4.000000,4.000000,4.000000,4.000000,4.000000,4.000000,4.000000,4.000000,4.000000,4.000000,2.000000,4.000000,4.000000,4.000000,4.000000,4.000000,4.000000,4.000000,4.000000,4.000000,4.000000,2.000000,4.000000,66.666664
1613870539.188492,88.000000,0.000000,1.352160,-9.765435,-46.807438,-16.119600,-2.884416,-8.650318,-7.139679,-13.974667,-4.518379,8.524039,-6.867230,-16.336714,-5.666501,-25.491711,-5.432695,5.378229,2.020073,57.124840,27.169676,3.353705,28.459005,15.497176,-10.685777,14.373359,21.945276,10.276545,0.639447,-1.864040,-1.680276,-1.400732,-9.419092,-68.508148,0.000000,226.000000,4.000000,,,,0.000000,4.000000,4.000000,4.000000,4.000000,4.000000,4.000000,4.000000,4.000000,4.000000,4.000000,4.000000,4.000000,4.000000,4.000000,4.000000,4.000000,4.000000,4.000000,4.000000,2.000000,4.000000,4.000000,4.000000,4.000000,4.000000,4.000000,4.000000,4.000000,4.000000,4.000000,2.000000,4.000000,66.666664
1613870539.196241,89.000000,0.000000,1.350808,-11.806952,-47.786274,-16.103481,-3.394352,-8.641667,-7.132540,-12.422231,-4.513861,10.566797,-5.321901,-7.602429,-0.019808,-24.953400,-0.299057,-1.293816,5.607797,55.529251,23.039942,21.299070,15.097214,14.968859,-10.675091,13.333344,16.282307,6.676524,-3.976577,-1.862176,-1.678596,-1.399331,-8.896852,-67.926819,0.000000,219.000000,4.000000,,,,0.000000,4.000000,4.000000,4.000000,4.000000,4.000000,4.000000,4.000000,4.000000,4.000000,4.000000,4.000000,4.000000,4.000000,4.000000,4.000000,4.000000,4.000000,4.000000,4.000000,2.000000,4.000000,4.000000,4.000000,4.000000,4.000000,4.000000,4.000000,4.000000,4.000000,4.000000,2.000000,4.000000,66.666664
1613870539.204090,90.000000,0.000000,1.862278,-11.795145,-47.225666,-16.087378,-2.878137,-6.068923,-7.125407,-8.820065,-4.509347,21.325462,-4.803759,-0.415340,3.569955,-34.672035,-2.350040,-13.087394,7.653471,41.114750,11.222031,14.611104,-0.302499,1.107736,-10.151595,10.755908,4.983972,3.080104,-10.126446,-1.860314,-6.805122,-2.423573,-8.887956,-70.422997,0.000000,148.000000,4.000000,,,,0.000000,4.000000,4.000000,4.000000,4.000000,4.000000,4.000000,4.000000,4.000000,4.000000,4.000000,4.000000,4.000000,4.000000,4.000000,4.000000,4.000000,4.000000,4.000000,2.000000,2.000000,4.000000,4.000000,4.000000,4.000000,4.000000,4.000000,4.000000,4.000000,4.000000,4.000000,2.000000,4.000000,50.000000
1613870539.211839,91.000000,0.000000,1.347595,-12.296170,-48.716904,-16.071291,-2.362438,-5.037213,-7.631103,-10.349706,-4.504838,15.663111,-9.414340,-3.491848,-9.254128,-63.868134,-25.424612,-40.766613,-1.072131,11.330044,-5.712269,-5.916328,-23.891941,-17.354910,-11.679906,3.565665,-8.354345,1.538562,-10.629140,-1.858454,-9.875240,-6.010892,-8.879067,-76.506416,0.000000,127.000000,4.000000,,,,0.000000,4.000000,4.000000,4.000000,4.000000,4.000000,4.000000,4.000000,4.000000,4.000000,4.000000,4.000000,4.000000,4.000000,4.000000,4.000000,4.000000,4.000000,4.000000,2.000000,2.000000,4.000000,4.000000,4.000000,4.000000,4.000000,4.000000,4.000000,4.000000,4.000000,4.000000,2.000000,4.000000,50.000000
1613870539.219688,92.000000,0.000000,3.397529,-11.771054,-51.232288,-16.055220,-3.898537,-5.544997,-7.110651,-8.288074,-5.013154,1.288473,-12.481849,-6.565279,-18.475643,-81.240158,-41.296623,-54.572002,-9.789008,-6.630004,-11.860402,-14.115540,-46.944973,-22.465761,-14.745149,-13.360977,-14.499837,-2.052720,-9.592870,-2.369416,-6.788442,-9.594625,-8.870189,-78.994019,0.000000,200.000000,4.000000,,,,0.000000,4.000000,4.000000,4.000000,4.000000,4.000000,4.000000,4.000000,4.000000,4.000000,4.000000,4.000000,4.000000,4.000000,4.000000,4.000000,4.000000,4.000000,4.000000,2.000000,2.000000,4.000000,4.000000,4.000000,4.000000,4.000000,4.000000,4.000000,4.000000,4.000000,4.000000,2.000000,4.000000,50.000000
1613870539.227438,93.000000,0.000000,5.958234,-9.195180,-51.693874,-16.039164,-2.868998,-5.026631,-4.539438,1.463804,-4.495320,3.338466,-9.905264,-5.020252,-4.611013,-70.902512,-29.973276,-38.107174,-5.163834,4.145856,3.023253,-12.050142,-40.744179,-14.238167,-14.730404,-28.219412,-9.357132,-4.101949,-11.634560,-1.341405,-5.243192,-10.097851,-8.861319,-81.479126,0.000000,187.000000,4.000000,,,,0.000000,4.000000,4.000000,4.000000,4.000000,4.000000,4.000000,4.000000,4.000000,4.000000,4.000000,4.000000,4.000000,4.000000,4.000000,4.000000,4.000000,4.000000,4.000000,2.000000,2.000000,4.000000,4.000000,4.000000,4.000000,4.000000,4.000000,4.000000,4.000000,4.000000,4.000000,2.000000,4.000000,50.000000
1613870539.235287,94.000000,0.000000,4.926635,-7.647523,-50.103722,-16.023125,3.800538,-5.021605,-2.996437,5.052083,-5.003645,8.976153,-10.921000,-5.015232,7.188469,-55.959812,-9.430483,-17.556246,-0.030465,27.731455,25.584332,1.295241,-7.882924,-0.890595,-13.690032,-22.037346,5.524020,2.568820,-9.058822,0.711218,-6.263590,-5.985189,-8.339637,-81.910469,0.000000,193.000000,4.000000,,,,0.000000,4.000000,4.000000,4.000000,4.000000,4.000000,4.000000,4.000000,4.000000,4.000000,4.000000,4.000000,4.000000,4.000000,4.000000,4.000000,4.000000,4.000000,4.000000,2.000000,2.000000,4.000000,4.000000,4.000000,4.000000,4.000000,4.000000,4.000000,4.000000,4.000000,4.000000,2.000000,4.000000,50.000000
1613870539.243036,95.000000,0.000000,6.460170,-8.152697,-48.002335,-16.007101,7.899301,-5.016583,-3.506261,-1.106815,-4.998641,7.428716,-11.422899,-5.523037,5.129999,-43.596161,8.014845,-3.179715,-2.081717,48.216541,38.379261,22.832407,24.945473,15.520552,-14.189162,-6.117873,18.339008,9.745738,-1.357456,2.248969,-3.180403,-0.338178,-8.844117,-73.110603,0.000000,196.000000,4.000000,,,,0.000000,4.000000,4.000000,4.000000,4.000000,4.000000,4.000000,4.000000,4.000000,4.000000,4.000000,4.000000,4.000000,4.000000,4.000000,4.000000,4.000000,4.000000,4.000000,2.000000,2.000000,4.000000,4.000000,4.000000,4.000000,4.000000,4.000000,4.000000,4.000000,4.000000,4.000000,2.000000,4.000000,50.000000
1613870539.250885,96.000000,0.000000,10.556273,-7.118903,-46.928692,-16.503916,7.891402,-1.421823,-3.502754,-3.156990,-1.916720,16.652056,-0.642246,-1.927770,17.432562,-22.014105,27.494011,16.310644,6.638314,67.142685,44.494728,37.168549,43.894886,33.453751,-8.021127,7.221579,19.346312,10.761633,1.720825,1.733899,1.438162,2.226262,-8.835273,-68.422112,8064.000000,0.000000,4.000000,,,,0.000000,4.000000,4.000000,4.000000,4.000000,4.000000,4.000000,4.000000,4.000000,4.000000,4.000000,4.000000,4.000000,4.000000,4.000000,4.000000,4.000000,4.000000,4.000000,2.000000,2.000000,4.000000,4.000000,4.000000,4.000000,4.000000,4.000000,4.000000,4.000000,4.000000,4.000000,2.000000,4.000000,50.000000
1613870539.258634,97.000000,0.000000,13.622641,-4.547681,-46.368942,-15.461770,10.447613,2.169343,-3.499252,0.948731,3.726223,29.968739,13.204551,3.715183,38.953590,0.572013,42.338310,33.730232,22.016291,85.537079,56.757927,37.644203,52.568939,43.163883,5.320227,23.111794,16.762861,10.750872,0.693463,1.732165,2.462365,1.711216,-8.313618,-71.943436,8192.000000,0.000000,4.000000,,,,0.000000,4.000000,4.000000,4.000000,4.000000,4.000000,4.000000,4.000000,4.000000,4.000000,4.000000,4.000000,4.000000,4.000000,4.000000,4.000000,4.000000,4.000000,4.000000,2.000000,2.000000,4.000000,4.000000,4.000000,4.000000,4.000000,4.000000,4.000000,4.000000,4.000000,4.000000,2.000000,4.000000,50.000000
1613870539.266483,98.000000,0.000000,13.609018,-4.030313,-48.373856,-16.471949,9.411525,2.679994,-3.495753,1.973423,6.286599,29.938768,14.216987,6.275570,35.837715,5.699646,42.808792,35.747784,28.148121,93.143852,66.957581,27.350147,55.080475,39.530979,9.930291,34.370731,20.335842,9.714479,1.205590,1.730433,0.921441,1.709504,-10.356586,-74.435593,8064.000000,0.000000,4.000000,,,,0.000000,4.000000,4.000000,4.000000,4.000000,4.000000,4.000000,4.000000,4.000000,4.000000,4.000000,4.000000,4.000000,4.000000,4.000000,4.000000,4.000000,4.000000,4.000000,2.000000,2.000000,4.000000,4.000000,4.000000,4.000000,4.000000,4.000000,4.000000,4.000000,4.000000,4.000000,2.000000,4.000000,50.000000
1613870539.274232,99.000000,0.000000,10.518486,-4.539104,-53.453686,-19.532400,3.761087,2.164493,-4.005077,1.458629,5.767492,25.806267,8.048923,2.679551,19.391619,-4.049644,33.022396,23.404343,22.478947,82.281479,56.121387,5.271515,45.794624,30.773499,-2.900151,34.336361,19.289865,6.115022,-0.334077,2.241523,-1.130763,2.220615,-14.448793,-80.002182,8064.000000,0.000000,4.000000,,,,0.000000,4.000000,4.000000,4.000000,4.000000,4.000000,4.000000,4.000000,4.000000,4.000000,4.000000,4.000000,4.000000,4.000000,4.000000,4.000000,4.000000,4.000000,4.000000,2.000000,2.000000,4.000000,4.000000,4.000000,4.000000,4.000000,4.000000,4.000000,4.000000,4.000000,4.000000,2.000000,4.000000,50.000000
1613870539.281881,100.000000,0.000000,6.405403,-4.021744,-53.913055,-17.461586,7.859890,2.162329,-3.488252,1.457171,6.787365,27.318922,8.553696,-2.451333,15.782484,-11.737902,23.758602,6.457862,13.225698,62.199196,32.475525,-11.656834,25.748829,19.973494,-18.794687,30.712282,7.988525,2.519163,-4.949128,0.700820,-2.155273,1.705574,-16.485626,-88.127304,8064.000000,0.000000,4.000000,,,,0.000000,4.000000,4.000000,4.000000,4.000000,4.000000,4.000000,4.000000,4.000000,4.000000,4.000000,4.000000,4.000000,4.000000,4.000000,4.000000,4.000000,4.000000,4.000000,2.000000,2.000000,4.000000,4.000000,4.000000,4.000000,4.000000,4.000000,4.000000,4.000000,4.000000,4.000000,2.000000,4.000000,50.000000
1613870539.289630,101.000000,0.000000,4.860536,-4.017722,-50.269398,-11.803099,16.057159,2.672987,-2.971943,1.455714,7.293399,27.804422,8.545141,-5.525805,18.843624,-14.290266,19.119459,-3.292186,7.058627,51.367767,21.673819,-7.542613,10.338465,6.620187,-22.878456,19.912338,4.390792,2.516644,-6.482640,-1.351163,-1.640297,1.703869,-16.469141,-81.885338,8064.000000,0.000000,4.000000,,,,0.000000,4.000000,4.000000,4.000000,4.000000,4.000000,4.000000,4.000000,4.000000,4.000000,4.000000,4.000000,4.000000,4.000000,4.000000,4.000000,4.000000,4.000000,4.000000,2.000000,2.000000,4.000000,4.000000,4.000000,4.000000,4.000000,4.000000,4.000000,4.000000,4.000000,4.000000,2.000000,4.000000,50.000000
1613870539.297279,102.000000,0.000000,5.368496,-4.526525,-50.219128,-12.304116,13.989820,2.670314,-4.507432,2.992719,5.747643,26.238157,8.023776,-5.520279,17.286320,-13.763156,17.561878,-4.827355,6.025927,51.829220,22.677786,2.721340,10.840947,-1.591562,-17.214552,1.430888,15.155633,4.052588,-6.988978,-2.375453,-2.664298,3.753447,-15.939851,-73.598320,8064.000000,0.000000,4.000000,,,,0.000000,4.000000,4.000000,4.000000,4.000000,4.000000,4.000000,4.000000,4.000000,4.000000,4.000000,4.000000,4.000000,4.000000,4.000000,4.000000,4.000000,4.000000,4.000000,2.000000,2.000000,4.000000,4.000000,4.000000,4.000000,4.000000,4.000000,4.000000,4.000000,4.000000,4.000000,2.000000,4.000000,50.000000
1613870539.305028,103.000000,0.000000,5.363128,-2.470716,-50.681728,-10.753350,13.463009,2.154823,-1.938823,5.041008,10.870101,28.776022,15.195239,-3.463477,16.243393,-7.595546,18.057137,-3.796887,6.532722,52.803032,20.091005,6.308362,10.830106,-1.589970,-12.069133,-5.237210,18.217400,5.074177,-5.956348,-1.860257,-2.148813,5.288155,-13.872629,-73.524719,7936.000000,0.000000,4.000000,,,,0.000000,4.000000,4.000000,4.000000,4.000000,4.000000,4.000000,4.000000,4.000000,4.000000,4.000000,4.000000,4.000000,4.000000,4.000000,4.000000,4.000000,4.000000,4.000000,2.000000,2.000000,4.000000,4.000000,4.000000,4.000000,4.000000,4.000000,4.000000,4.000000,4.000000,4.000000,2.000000,4.000000,50.000000
1613870539.312677,104.000000,0.000000,4.844944,0.095857,-49.092587,-2.024648,19.603392,2.665489,3.191321,5.548788,20.090000,31.311348,18.256968,-1.408731,16.227148,-3.998207,18.039080,0.309474,5.500548,48.647663,14.942709,6.302054,-2.514058,-3.126842,-10.518602,-1.642229,7.942772,7.120385,-2.873468,-1.858397,0.930259,6.308508,-11.807475,-72.425560,8064.000000,0.000000,4.000000,,,,0.000000,4.000000,4.000000,4.000000,4.000000,4.000000,4.000000,4.000000,4.000000,4.000000,4.000000,4.000000,4.000000,4.000000,4.000000,4.000000,4.000000,4.000000,4.000000,2.000000,2.000000,4.000000,4.000000,4.000000,4.000000,4.000000,4.000000,4.000000,4.000000,4.000000,4.000000,2.000000,4.000000,50.000000
1613870539.320427,105.000000,0.000000,5.352920,-1.955521,-55.197338,-4.586726,13.429943,2.150003,2.162489,5.030419,15.454526,21.536448,6.956659,-2.945784,12.621179,-20.404465,9.815913,-0.203656,4.982227,36.804142,9.799561,-0.370915,-20.973082,-9.277561,-11.020905,-3.691869,1.780983,7.626085,-5.947518,-1.856538,-1.121953,5.789379,-11.795668,-76.455696,8064.000000,0.000000,4.000000,,,,0.000000,4.000000,4.000000,4.000000,4.000000,4.000000,4.000000,4.000000,4.000000,4.000000,4.000000,4.000000,4.000000,4.000000,4.000000,4.000000,4.000000,4.000000,4.000000,2.000000,2.000000,4.000000,4.000000,4.000000,4.000000,4.000000,4.000000,4.000000,4.000000,4.000000,4.000000,2.000000,4.000000,50.000000
1613870539.328076,106.000000,0.000000,5.347567,-7.081770,-66.937012,-18.428293,-2.993744,-0.416250,-5.019161,1.948465,-0.971185,6.643116,-7.409272,-8.583864,2.864967,-50.640472,-3.014416,-11.998324,2.413142,22.921186,0.558992,-15.242338,-34.285442,-13.883668,-14.599627,-8.303561,1.266382,4.541536,-13.121058,-1.341861,-7.787498,-0.883077,-11.783872,-92.276672,8064.000000,0.000000,4.000000,,,,0.000000,4.000000,4.000000,4.000000,4.000000,4.000000,4.000000,4.000000,4.000000,4.000000,4.000000,4.000000,4.000000,4.000000,4.000000,4.000000,4.000000,4.000000,4.000000,2.000000,2.000000,4.000000,4.000000,4.000000,4.000000,4.000000,4.000000,4.000000,4.000000,4.000000,4.000000,2.000000,4.000000,50.000000
1613870539.335825,107.000000,0.000000,5.342219,-8.613151,-68.408539,-24.563711,-9.144596,-4.005577,-7.578244,-5.232970,-9.175343,0.482626,-15.094171,-12.677844,-8.419949,-70.589828,-9.678068,-22.755556,-2.204656,21.359802,-5.082593,-19.329660,-39.892181,-15.408246,-18.174770,-10.859361,-0.273346,-0.078390,-14.646399,-2.366160,-10.343813,-8.574502,-12.284908,-101.415169,8064.000000,0.000000,4.000000,,,,0.000000,4.000000,4.000000,4.000000,4.000000,4.000000,4.000000,4.000000,4.000000,4.000000,4.000000,4.000000,4.000000,4.000000,4.000000,4.000000,4.000000,4.000000,4.000000,2.000000,2.000000,4.000000,4.000000,4.000000,4.000000,4.000000,4.000000,4.000000,4.000000,4.000000,4.000000,2.000000,4.000000,50.000000
1613870539.343474,108.000000,0.000000,5.336877,-7.578896,-62.186283,-22.487865,-6.571349,-5.540033,-6.545025,-9.843122,-8.140526,0.482144,-18.668819,-13.177987,-8.924350,-69.493599,-9.155569,-20.681519,-0.151169,25.953829,1.589157,0.176849,-28.057419,-7.700530,-16.618134,-14.951065,-1.298714,-1.103953,-13.093290,-1.850974,-8.795008,-10.104389,-11.759803,-100.288109,8064.000000,0.000000,4.000000,,,,0.000000,4.000000,4.000000,4.000000,4.000000,4.000000,4.000000,4.000000,4.000000,4.000000,4.000000,4.000000,4.000000,4.000000,4.000000,4.000000,4.000000,4.000000,4.000000,2.000000,2.000000,4.000000,4.000000,4.000000,4.000000,4.000000,4.000000,4.000000,4.000000,4.000000,4.000000,2.000000,4.000000,50.000000
1613870539.351323,109.000000,0.000000,5.331540,-7.571317,-60.072815,-22.465378,-6.564777,-5.021672,-7.051300,-9.833279,-8.645205,-0.031159,-14.547587,-12.651988,-1.735938,-58.654877,-0.428465,-9.891606,9.592572,29.004797,16.459362,21.202312,0.175767,6.153325,-9.934850,-14.936114,-0.784594,-0.077208,-13.593018,-1.336302,-9.299033,-9.068644,-12.260863,-99.675003,8064.000000,0.000000,4.000000,,,,0.000000,4.000000,4.000000,4.000000,4.000000,4.000000,4.000000,4.000000,4.000000,4.000000,4.000000,4.000000,4.000000,4.000000,4.000000,4.000000,4.000000,4.000000,4.000000,2.000000,2.000000,4.000000,4.000000,4.000000,4.000000,4.000000,4.000000,4.000000,4.000000,4.000000,4.000000,2.000000,4.000000,50.000000
1613870539.359072,110.000000,0.000000,5.326209,-9.102207,-61.551205,-25.007015,-8.096674,-5.016651,-7.557069,-10.336267,-9.149382,-0.031128,-5.815091,-10.075233,1.342721,-49.878273,11.879656,-2.189407,15.224005,37.180920,29.263416,20.668291,19.149950,11.788197,-6.335171,-9.792973,-0.270989,-2.128413,-14.092245,-5.950350,-9.802555,-9.572395,-15.325525,-99.062508,8064.000000,0.000000,4.000000,,,,0.000000,4.000000,4.000000,4.000000,4.000000,4.000000,4.000000,4.000000,4.000000,4.000000,4.000000,4.000000,4.000000,4.000000,4.000000,4.000000,4.000000,4.000000,4.000000,2.000000,2.000000,4.000000,4.000000,4.000000,4.000000,4.000000,4.000000,4.000000,4.000000,4.000000,4.000000,2.000000,4.000000,50.000000
1613870539.366921,111.000000,0.000000,5.320882,-11.144387,-60.976833,-26.520470,-6.550116,-5.524455,-7.036692,-7.761827,-6.576129,2.020185,-2.732352,-6.475415,2.879840,-45.725830,15.970340,-0.648756,14.183140,49.964252,33.336716,7.314289,18.105160,11.776408,-6.328836,-5.167795,-0.270718,-4.690387,-13.565332,-8.508503,-9.279932,-10.075644,-18.899944,-100.501907,8064.000000,0.000000,4.000000,,,,0.000000,4.000000,4.000000,4.000000,4.000000,4.000000,4.000000,4.000000,4.000000,4.000000,4.000000,4.000000,4.000000,4.000000,4.000000,4.000000,4.000000,4.000000,4.000000,2.000000,2.000000,4.000000,4.000000,4.000000,4.000000,4.000000,4.000000,4.000000,4.000000,4.000000,4.000000,2.000000,4.000000,50.000000
1613870539.374670,112.000000,0.000000,5.315561,-12.158884,-60.403034,-27.006769,-3.979463,-5.006110,-7.029655,-0.574578,-4.518271,4.582268,-3.242441,-4.930478,10.056447,-45.167282,14.415908,-0.135287,14.168957,54.016853,33.816200,0.127487,15.522952,12.277452,-6.835328,2.529680,-0.270448,-4.685697,-13.551766,-2.346148,-9.270652,-8.527106,-19.906685,-99.375763,8064.000000,0.000000,4.000000,,,,0.000000,4.000000,4.000000,4.000000,4.000000,4.000000,4.000000,4.000000,4.000000,4.000000,4.000000,4.000000,4.000000,4.000000,4.000000,4.000000,4.000000,4.000000,4.000000,2.000000,2.000000,4.000000,4.000000,4.000000,4.000000,4.000000,4.000000,4.000000,4.000000,4.000000,4.000000,2.000000,4.000000,50.000000
1613870539.382519,113.000000,0.000000,5.823067,-11.633904,-60.855453,-25.954123,-2.437022,-5.001103,-6.509805,2.502919,-4.513753,7.141788,-2.726378,-5.438368,15.687416,-42.045193,15.427134,1.403310,13.641968,51.398731,36.346485,-0.385461,18.071531,8.162611,-6.315672,10.732279,-0.270177,-4.168190,-13.538215,2.784403,-8.748561,-6.467297,-18.861137,-85.430237,8064.000000,0.000000,4.000000,,,,0.000000,4.000000,4.000000,4.000000,4.000000,4.000000,4.000000,4.000000,4.000000,4.000000,4.000000,4.000000,4.000000,4.000000,4.000000,4.000000,4.000000,4.000000,4.000000,2.000000,2.000000,4.000000,4.000000,4.000000,4.000000,4.000000,4.000000,4.000000,4.000000,4.000000,4.000000,2.000000,4.000000,50.000000
1613870539.390268,114.000000,0.000000,4.278782,-11.622271,-60.281776,-26.953808,-2.434585,-4.996102,-7.528936,1.987596,-4.509239,9.185928,-1.698010,-4.920109,13.620447,-28.156994,13.360424,1.914727,11.064222,50.834515,28.617832,2.179027,15.489357,0.462141,-6.309356,6.618982,-0.269907,-4.164022,-13.524677,1.755978,-8.739812,-4.922368,-19.355097,-72.524292,8064.000000,0.000000,4.000000,,,,0.000000,4.000000,4.000000,4.000000,4.000000,4.000000,4.000000,4.000000,4.000000,4.000000,4.000000,4.000000,4.000000,4.000000,4.000000,4.000000,4.000000,4.000000,4.000000,2.000000,2.000000,4.000000,4.000000,4.000000,4.000000,4.000000,4.000000,4.000000,4.000000,4.000000,4.000000,2.000000,4.000000,50.000000
1613870539.398117,115.000000,0.000000,2.223221,-11.610648,-59.195854,-25.901215,-3.457792,-4.991107,-10.085510,1.985608,-3.991909,9.176743,-1.183492,-4.915189,13.094006,-12.744222,9.244499,1.399992,7.976235,45.655476,10.640496,10.381976,10.858483,-0.563962,-5.790226,0.458517,-0.269637,-4.159858,-13.511152,1.241401,-11.295175,-5.430266,-19.848562,-77.067154,8064.000000,0.000000,4.000000,,,,0.000000,4.000000,4.000000,4.000000,4.000000,4.000000,4.000000,4.000000,4.000000,4.000000,4.000000,4.000000,4.000000,4.000000,4.000000,4.000000,4.000000,4.000000,4.000000,2.000000,2.000000,4.000000,4.000000,4.000000,4.000000,4.000000,4.000000,4.000000,4.000000,4.000000,4.000000,2.000000,4.000000,50.000000
1613870539.405866,116.000000,0.000000,1.195357,-11.599037,-57.085377,-21.259928,-6.018436,-4.986115,-11.101066,1.470802,-4.500738,8.654745,-3.233590,-5.423094,15.132194,-12.218657,6.671153,0.885771,2.840054,41.507256,1.399087,13.961338,6.745060,0.462243,-8.348538,-0.054762,0.243453,-4.155698,-13.497641,2.265801,-12.822341,-5.424836,-18.290253,-78.015724,8064.000000,0.000000,4.000000,,,,0.000000,4.000000,4.000000,4.000000,4.000000,4.000000,4.000000,4.000000,4.000000,4.000000,4.000000,4.000000,4.000000,4.000000,4.000000,4.000000,4.000000,4.000000,4.000000,2.000000,2.000000,4.000000,4.000000,4.000000,4.000000,4.000000,4.000000,4.000000,4.000000,4.000000,4.000000,2.000000,4.000000,50.000000
1613870539.413715,117.000000,0.000000,1.706982,-11.587439,-51.900085,-18.161745,-7.038059,-4.981129,-10.577144,-0.581951,-4.496237,9.671731,-2.717536,-4.904851,9.476036,-21.950027,5.638840,-0.653576,-1.265350,40.952927,3.448970,3.690966,-10.697582,-3.640784,-10.391472,-4.157271,-1.808072,-3.638722,-13.484143,1.750715,-10.758237,-4.906591,-15.707859,-69.732582,8064.000000,0.000000,4.000000,,,,0.000000,4.000000,4.000000,4.000000,4.000000,4.000000,4.000000,4.000000,4.000000,4.000000,4.000000,4.000000,4.000000,4.000000,4.000000,4.000000,4.000000,4.000000,4.000000,2.000000,2.000000,4.000000,4.000000,4.000000,4.000000,4.000000,4.000000,4.000000,4.000000,4.000000,4.000000,2.000000,4.000000,50.000000
1613870539.421464,118.000000,0.000000,1.705275,-11.575851,-50.309723,-18.656404,-6.005380,-4.976148,-10.566566,-3.145471,-5.004561,5.559495,-2.201998,-5.412766,-1.815491,-37.825512,4.607561,-9.883692,-1.264085,31.168385,2.419880,-5.030674,-36.840729,-8.252527,-9.868260,-10.306960,-5.396008,-5.686366,-13.470659,2.261785,-8.696197,-5.414505,-15.692151,-72.739769,8064.000000,0.000000,4.000000,,,,0.000000,4.000000,4.000000,4.000000,4.000000,4.000000,4.000000,4.000000,4.000000,4.000000,4.000000,4.000000,4.000000,4.000000,4.000000,4.000000,4.000000,4.000000,4.000000,2.000000,2.000000,4.000000,4.000000,4.000000,4.000000,4.000000,4.000000,4.000000,4.000000,4.000000,4.000000,2.000000,4.000000,50.000000
1613870539.429313,119.000000,0.000000,1.703570,-11.564276,-49.233772,-19.150568,-7.537836,-4.458351,-10.556000,-7.244890,-7.563660,-5.728115,-14.507488,-7.971457,-6.941881,-64.454353,-5.140637,-30.386629,-1.262821,12.162857,-1.685104,-4.512822,-49.624401,-8.244275,-10.884033,-14.912038,-6.929073,-10.296063,-13.457189,1.746702,-9.200321,-5.409090,-18.753382,-80.359337,7936.000000,0.000000,4.000000,,,,0.000000,4.000000,4.000000,4.000000,4.000000,4.000000,4.000000,4.000000,4.000000,4.000000,4.000000,4.000000,4.000000,4.000000,4.000000,4.000000,4.000000,4.000000,4.000000,2.000000,2.000000,4.000000,4.000000,4.000000,4.000000,4.000000,4.000000,4.000000,4.000000,4.000000,4.000000,2.000000,4.000000,50.000000
1613870539.437062,120.000000,0.000000,1.701866,-11.552711,-43.543514,-18.618597,-9.581580,-6.505175,-10.545444,-11.853029,-11.145840,-15.978797,-38.082726,-9.501946,-4.883657,-95.159134,-24.622675,-52.920345,-3.825660,-0.156998,-4.760342,-5.021130,-38.805546,-7.723210,-16.001354,-25.153536,-9.999067,-11.824229,-13.443731,-0.306327,-9.191121,-5.403681,-19.247450,-79.766159,8064.000000,0.000000,4.000000,,,,0.000000,4.000000,4.000000,4.000000,4.000000,4.000000,4.000000,4.000000,4.000000,4.000000,4.000000,4.000000,4.000000,4.000000,4.000000,4.000000,4.000000,4.000000,4.000000,2.000000,2.000000,4.000000,4.000000,4.000000,4.000000,4.000000,4.000000,4.000000,4.000000,4.000000,4.000000,2.000000,4.000000,50.000000
1613870539.444911,121.000000,0.000000,1.700164,-11.541159,-38.371765,-19.112799,-10.597640,-8.549952,-10.534899,-13.379638,-13.185976,-18.526920,-44.711308,-8.979624,-5.391594,-107.371666,-32.803181,-57.482807,-4.847476,3.432902,-4.755582,-2.452006,-18.766743,-7.715487,-17.010994,-30.769407,-11.527530,-9.248302,-13.430287,-1.331661,-8.669109,-5.398277,-19.741022,-76.096649,8064.000000,0.000000,4.000000,,,,0.000000,4.000000,4.000000,4.000000,4.000000,4.000000,4.000000,4.000000,4.000000,4.000000,4.000000,4.000000,4.000000,4.000000,4.000000,4.000000,4.000000,4.000000,4.000000,2.000000,2.000000,4.000000,4.000000,4.000000,4.000000,4.000000,4.000000,4.000000,4.000000,4.000000,4.000000,2.000000,4.000000,50.000000
1613870539.452660,122.000000,0.000000,1.698464,-11.529617,-38.333393,-19.093685,-10.587042,-8.541402,-10.524364,-13.366259,-9.583046,-16.969933,-32.358906,-8.970644,-5.899023,-91.366859,-17.898582,-37.425327,-4.842628,23.429470,6.531225,9.345318,-4.901821,-3.605207,-13.917060,-23.046331,-6.387797,-7.700593,-13.929678,-2.355971,-9.173261,-5.392879,-19.208460,-74.994911,8064.000000,0.000000,4.000000,,,,0.000000,4.000000,4.000000,4.000000,4.000000,4.000000,4.000000,4.000000,4.000000,4.000000,4.000000,4.000000,4.000000,4.000000,4.000000,4.000000,4.000000,4.000000,4.000000,2.000000,2.000000,4.000000,4.000000,4.000000,4.000000,4.000000,4.000000,4.000000,4.000000,4.000000,4.000000,2.000000,4.000000,50.000000
1613870539.460509,123.000000,0.000000,2.209586,-11.518087,-37.782238,-20.100233,-9.550815,-9.045681,-10.513840,-13.352892,-2.906796,-14.901681,-23.095778,-8.961674,-3.841841,-61.531898,2.632136,-14.823798,-3.812145,46.482964,23.960590,18.053921,-2.845637,2.552244,-13.903143,-14.818156,-0.227563,-8.205712,-12.377287,-4.917717,-9.676908,-5.900307,-17.137970,-72.355812,8064.000000,0.000000,4.000000,,,,0.000000,4.000000,4.000000,4.000000,4.000000,4.000000,4.000000,4.000000,4.000000,4.000000,4.000000,4.000000,4.000000,4.000000,4.000000,4.000000,4.000000,4.000000,4.000000,2.000000,2.000000,4.000000,4.000000,4.000000,4.000000,4.000000,4.000000,4.000000,4.000000,4.000000,4.000000,2.000000,4.000000,50.000000
1613870539.468258,124.000000,0.000000,1.694556,-11.506570,-32.103432,-18.541672,-4.925879,-8.523815,-9.990505,-11.288258,-0.339787,-9.758574,-16.918835,-8.952712,-2.812359,-37.367805,10.834632,-9.680769,-1.757050,53.103146,34.705860,18.548687,-3.868433,7.677897,-13.889239,-9.675133,-0.227336,-6.659045,-10.313627,-4.399979,-10.180051,-5.381586,-17.120832,-63.565510,8064.000000,0.000000,4.000000,,,,0.000000,4.000000,4.000000,4.000000,4.000000,4.000000,4.000000,4.000000,4.000000,4.000000,4.000000,4.000000,4.000000,4.000000,4.000000,4.000000,4.000000,4.000000,4.000000,2.000000,2.000000,4.000000,4.000000,4.000000,4.000000,4.000000,4.000000,4.000000,4.000000,4.000000,4.000000,2.000000,4.000000,50.000000
1613870539.476107,125.000000,0.000000,1.692861,-11.495063,-22.327738,-14.420566,-2.356850,-5.951189,-7.416412,-9.225687,-0.852268,-2.056508,-5.107044,-8.943759,1.293018,-25.022743,11.336617,-11.209550,-0.729652,48.434658,34.671154,17.504498,-2.326103,11.259962,-10.798428,-0.947509,-0.739929,-3.575463,-9.277673,0.732626,-9.144230,-2.299281,-15.052429,-49.142971,8064.000000,0.000000,4.000000,,,,0.000000,4.000000,4.000000,4.000000,4.000000,4.000000,4.000000,4.000000,4.000000,4.000000,4.000000,4.000000,4.000000,4.000000,4.000000,4.000000,4.000000,4.000000,4.000000,2.000000,2.000000,4.000000,4.000000,4.000000,4.000000,4.000000,4.000000,4.000000,4.000000,4.000000,4.000000,2.000000,4.000000,50.000000
1613870539.483856,126.000000,0.000000,2.716810,-11.483568,-15.638743,-12.867683,-2.867314,-4.406776,-6.383355,-8.703641,-0.338595,1.535293,2.590370,-8.934815,7.445571,-18.843876,12.863743,-9.147058,-0.216102,48.386223,28.995459,15.948532,-2.836597,10.223062,-9.761988,4.694464,-0.226369,-4.084708,-9.781216,1.244714,-9.647906,-1.784162,-8.883531,-42.427162,8064.000000,0.000000,4.000000,,,,0.000000,4.000000,4.000000,4.000000,4.000000,4.000000,4.000000,4.000000,4.000000,4.000000,4.000000,4.000000,4.000000,4.000000,4.000000,4.000000,4.000000,4.000000,4.000000,2.000000,2.000000,4.000000,4.000000,4.000000,4.000000,4.000000,4.000000,4.000000,4.000000,4.000000,4.000000,2.000000,4.000000,50.000000
1613870539.491705,127.000000,0.000000,-0.362830,-11.984905,-14.597464,-12.341995,-2.864447,-5.428010,-8.428253,-9.207758,-0.851077,1.020937,2.074960,-8.925880,8.463766,-18.825031,10.799597,-9.650732,-0.728707,49.876301,23.838259,14.394122,-3.859402,8.161556,-10.265046,4.176949,-0.226142,-6.131906,-9.771435,-1.833454,-11.689541,-3.320839,-5.797724,-41.871914,8064.000000,0.000000,4.000000,,,,0.000000,4.000000,4.000000,4.000000,4.000000,4.000000,4.000000,4.000000,4.000000,4.000000,4.000000,4.000000,4.000000,4.000000,4.000000,4.000000,4.000000,4.000000,4.000000,2.000000,2.000000,4.000000,4.000000,4.000000,4.000000,4.000000,4.000000,4.000000,4.000000,4.000000,4.000000,2.000000,4.000000,50.000000
1613870539.499455,0.000000,0.000000,-4.977852,-11.460099,-2.275174,-5.662987,-2.348762,-4.396941,-10.471107,-8.685729,0.175415,3.071198,1.560064,-8.916955,6.404020,-19.319027,5.147772,-8.615440,-4.830542,48.287960,21.763138,15.918189,-2.829901,8.153395,-10.254781,3.147131,5.415110,0.028073,-9.248842,-2.344441,-3.985543,1.810687,-2.202183,-23.881323,0.000000,194.000000,4.000000,,,,0.000000,4.000000,4.000000,4.000000,4.000000,4.000000,4.000000,4.000000,4.000000,4.000000,4.000000,4.000000,4.000000,4.000000,4.000000,4.000000,4.000000,4.000000,4.000000,2.000000,2.000000,4.000000,4.000000,4.000000,4.000000,4.000000,4.000000,4.000000,4.000000,4.000000,4.000000,2.000000,4.000000,50.000000
1613870539.507104,1.000000,0.000000,-5.998515,-10.422998,20.804024,3.573446,-1.833592,1.761302,-10.460636,-8.677044,6.329086,8.709152,2.584145,-8.908038,7.423257,-11.607400,3.604162,-1.940158,-8.415455,46.701214,22.254196,10.774066,-3.339892,4.042677,-9.731706,3.656804,10.025079,11.310096,-7.188312,-1.316455,9.351775,16.167850,9.594892,3.322045,0.000000,191.000000,4.000000,,,,0.000000,4.000000,4.000000,4.000000,4.000000,4.000000,4.000000,4.000000,4.000000,4.000000,4.000000,4.000000,4.000000,4.000000,4.000000,4.000000,4.000000,4.000000,4.000000,2.000000,2.000000,4.000000,4.000000,4.000000,4.000000,4.000000,4.000000,4.000000,4.000000,4.000000,4.000000,2.000000,4.000000,50.000000
1613870539.514853,2.000000,0.000000,-5.479696,-7.848473,30.526810,10.236539,-1.831759,6.374926,-9.424534,-8.668366,5.809937,10.238905,2.581561,-8.899130,3.313270,-11.595793,4.113379,2.164346,-8.407040,49.218613,17.103737,-2.057221,-5.387834,-5.192134,-10.234795,3.653147,10.527875,14.888530,-5.642662,-1.827959,13.444988,26.408092,17.790424,10.498210,0.000000,181.000000,4.000000,,,,0.000000,4.000000,4.000000,4.000000,4.000000,4.000000,4.000000,4.000000,4.000000,4.000000,4.000000,4.000000,4.000000,4.000000,4.000000,4.000000,4.000000,4.000000,4.000000,2.000000,2.000000,4.000000,4.000000,4.000000,4.000000,4.000000,4.000000,4.000000,4.000000,4.000000,4.000000,2.000000,4.000000,50.000000
1613870539.522502,3.000000,0.000000,-5.474216,-3.225240,26.393719,12.790405,-2.855568,6.368550,-9.927930,-9.172519,-0.862540,8.177383,0.527697,-8.890231,-4.382351,-30.045734,-2.557401,-3.478843,-8.398632,46.092472,9.394324,-11.798754,-4.869626,-9.802327,-10.224560,3.136674,11.030168,13.848000,-6.149839,-2.338952,13.431542,25.868864,17.772635,9.974892,0.000000,167.000000,4.000000,,,,0.000000,4.000000,4.000000,4.000000,4.000000,4.000000,4.000000,4.000000,4.000000,4.000000,4.000000,4.000000,4.000000,4.000000,4.000000,4.000000,4.000000,4.000000,4.000000,2.000000,2.000000,4.000000,4.000000,4.000000,4.000000,4.000000,4.000000,4.000000,4.000000,4.000000,4.000000,2.000000,4.000000,50.000000
1613870539.530251,4.000000,0.000000,-5.981563,-0.145091,29.444248,14.316076,-0.801431,7.387823,-10.943644,-8.650526,0.676784,9.707668,-5.113856,-8.881340,-5.403609,-46.938766,-8.708690,-12.706134,-8.390234,30.661764,6.308007,-19.992083,-5.890397,-8.254064,-10.727156,1.595076,7.429393,16.398254,-7.169331,-2.336613,20.084778,29.432739,21.857426,24.836712,0.000000,191.000000,4.000000,,,,0.000000,4.000000,4.000000,4.000000,4.000000,4.000000,4.000000,4.000000,4.000000,4.000000,4.000000,4.000000,4.000000,4.000000,4.000000,4.000000,4.000000,4.000000,4.000000,2.000000,2.000000,4.000000,4.000000,4.000000,4.000000,4.000000,4.000000,4.000000,4.000000,4.000000,4.000000,2.000000,4.000000,50.000000
1613870539.537900,5.000000,0.000000,-5.462761,-0.144946,28.389164,15.840221,-3.877552,5.841974,-9.394238,-9.667516,-1.887995,7.646678,-14.852332,-8.872459,-8.475129,-57.148239,-9.725622,-22.949839,-8.381844,19.349051,5.276058,-24.587475,-17.679379,-8.758630,-10.203609,1.593480,3.832221,17.920317,-6.136520,-1.821456,24.680079,43.249462,24.912491,34.042645,0.000000,192.000000,4.000000,,,,0.000000,4.000000,4.000000,4.000000,4.000000,4.000000,4.000000,4.000000,4.000000,4.000000,4.000000,4.000000,4.000000,4.000000,4.000000,4.000000,4.000000,4.000000,4.000000,2.000000,2.000000,4.000000,4.000000,4.000000,4.000000,4.000000,4.000000,4.000000,4.000000,4.000000,4.000000,2.000000,4.000000,50.000000
1613870539.545649,6.000000,0.000000,-5.970119,-0.657622,6.822312,12.747458,-17.719828,-3.907458,-10.410485,-14.273233,-19.834826,-11.848148,-28.683634,-8.863586,-14.620500,-78.116730,-12.280000,-31.644836,-9.911923,19.842522,6.296423,-10.716734,-27.405289,-8.237050,-10.193404,3.130348,11.007875,16.876757,-6.643204,-1.819634,23.629757,49.872879,18.733732,19.649628,0.000000,177.000000,4.000000,,,,0.000000,4.000000,4.000000,4.000000,4.000000,4.000000,4.000000,4.000000,4.000000,4.000000,4.000000,4.000000,4.000000,4.000000,4.000000,4.000000,4.000000,4.000000,4.000000,2.000000,2.000000,4.000000,4.000000,4.000000,4.000000,4.000000,4.000000,4.000000,4.000000,4.000000,4.000000,2.000000,4.000000,50.000000
1613870539.553299,7.000000,0.000000,-5.451328,-0.144144,-12.671689,0.427018,-32.573902,-12.108679,-19.630844,-19.899986,-32.122684,-31.836300,-40.449821,-8.854723,-17.169983,-103.166817,-17.395924,-37.767036,-6.825089,19.822680,15.520896,16.473469,-12.506088,-2.074967,-10.696032,-0.462525,16.125072,17.372700,-6.636561,-2.843456,22.580486,47.258904,12.561152,2.706900,0.000000,186.000000,4.000000,,,,0.000000,4.000000,4.000000,4.000000,4.000000,4.000000,4.000000,4.000000,4.000000,4.000000,4.000000,4.000000,4.000000,4.000000,4.000000,4.000000,4.000000,4.000000,4.000000,2.000000,2.000000,4.000000,4.000000,4.000000,4.000000,4.000000,4.000000,4.000000,4.000000,4.000000,4.000000,2.000000,4.000000,50.000000
1613870539.561048,8.000000,0.000000,-5.445877,-0.656820,-18.300043,-8.291357,-36.131073,-13.122211,-25.765059,-20.905727,-26.962355,-30.266003,-39.383732,-8.845868,-17.665632,-110.243141,-12.250323,-38.242092,-1.177238,27.495165,31.915632,29.790329,20.326931,12.286082,-9.146874,-2.000524,17.134588,18.380968,-1.501719,-0.789330,23.583546,48.237286,13.574232,1.678552,0.000000,192.000000,4.000000,,,,0.000000,4.000000,4.000000,4.000000,4.000000,4.000000,4.000000,4.000000,4.000000,4.000000,4.000000,4.000000,4.000000,4.000000,4.000000,4.000000,4.000000,4.000000,4.000000,2.000000,2.000000,4.000000,4.000000,4.000000,4.000000,4.000000,4.000000,4.000000,4.000000,4.000000,4.000000,2.000000,4.000000,50.000000
1613870539.568697,9.000000,0.000000,-5.953251,-0.656163,-31.615076,-7.770246,-35.069302,-12.083448,-23.175192,-18.833538,-22.320007,-19.979326,-22.421270,-8.837023,-9.442839,-90.645714,7.249106,-21.280773,1.900863,50.544594,45.729870,28.734898,44.921989,30.735334,-2.471061,14.924553,31.989248,21.952332,10.294654,5.878126,23.559963,56.394176,13.047837,-4.476972,0.000000,201.000000,4.000000,,,,0.000000,4.000000,4.000000,4.000000,4.000000,4.000000,4.000000,4.000000,4.000000,4.000000,4.000000,4.000000,4.000000,4.000000,4.000000,4.000000,4.000000,4.000000,4.000000,2.000000,2.000000,4.000000,4.000000,4.000000,4.000000,4.000000,4.000000,4.000000,4.000000,4.000000,4.000000,2.000000,4.000000,50.000000
1613870539.576446,10.000000,0.000000,-3.383195,-0.655507,-49.019360,-10.839398,-35.547050,-12.584185,-20.587914,-16.763424,-21.272047,-16.369602,-1.886028,-8.828185,15.181989,-57.734558,33.395702,10.535379,10.616911,69.981224,52.350807,27.680523,53.082195,43.012291,3.685257,39.012192,52.982903,29.622686,19.002308,9.461991,22.510761,65.568550,8.932226,-25.498137,0.000000,166.000000,4.000000,,,,0.000000,4.000000,4.000000,4.000000,4.000000,4.000000,4.000000,4.000000,4.000000,4.000000,4.000000,4.000000,4.000000,4.000000,4.000000,4.000000,4.000000,4.000000,4.000000,2.000000,2.000000,4.000000,4.000000,4.000000,4.000000,4.000000,4.000000,4.000000,4.000000,4.000000,4.000000,2.000000,4.000000,50.000000
1613870539.584095,11.000000,0.000000,0.722752,-0.654851,-51.534443,-16.982405,-36.024326,-12.571601,-21.592966,-16.233839,-16.635391,-10.712208,10.423550,-8.819357,33.115524,-24.856312,48.746922,35.140228,23.426807,75.039452,52.298454,26.627201,52.003471,43.994919,4.707212,49.229591,56.006840,37.798191,19.496126,9.452529,23.001072,74.220932,7.384832,-34.703407,0.000000,204.000000,4.000000,,,,0.000000,4.000000,4.000000,4.000000,4.000000,4.000000,4.000000,4.000000,4.000000,4.000000,4.000000,4.000000,4.000000,4.000000,4.000000,4.000000,4.000000,4.000000,4.000000,2.000000,2.000000,4.000000,4.000000,4.000000,4.000000,4.000000,4.000000,4.000000,4.000000,4.000000,4.000000,2.000000,4.000000,50.000000
1613870539.591844,12.000000,0.000000,1.747670,-0.654197,-53.021370,-19.016705,-34.962662,-12.046208,-21.571373,-16.730427,-14.054652,-0.957906,13.490049,-8.810538,30.518307,-11.498121,43.057152,38.182011,22.377739,77.015694,48.143593,26.087753,51.438648,39.335541,4.702505,48.154720,52.873913,39.298855,19.476631,12.007179,25.542173,77.736450,7.377447,-32.104603,0.000000,179.000000,4.000000,,,,0.000000,4.000000,4.000000,4.000000,4.000000,4.000000,4.000000,4.000000,4.000000,4.000000,4.000000,4.000000,4.000000,4.000000,4.000000,4.000000,4.000000,4.000000,4.000000,2.000000,2.000000,4.000000,4.000000,4.000000,4.000000,4.000000,4.000000,4.000000,4.000000,4.000000,4.000000,2.000000,4.000000,50.000000
1613870539.599493,13.000000,0.000000,1.745923,-0.653542,-61.686298,-25.664354,-34.414879,-11.521342,-21.036982,-16.200874,-14.553418,2.632796,11.938098,-8.801727,24.333942,-9.435341,27.629478,30.451523,15.175874,76.425858,45.018528,26.061665,54.464130,33.142361,5.210623,42.978359,55.897961,38.746735,19.457153,11.995172,26.029451,76.633072,-0.322238,-46.944290,0.000000,210.000000,4.000000,,,,0.000000,4.000000,4.000000,4.000000,4.000000,4.000000,4.000000,4.000000,4.000000,4.000000,4.000000,4.000000,4.000000,4.000000,4.000000,4.000000,4.000000,4.000000,4.000000,2.000000,2.000000,4.000000,4.000000,4.000000,4.000000,4.000000,4.000000,4.000000,4.000000,4.000000,4.000000,2.000000,4.000000,50.000000
