title:16, start timestamp:1613870922.671141, stop timestamp:1613870968.599542, headset type:EPOCFLEX, headset serial:F00001ED, headset firmware:f12, subject name:s02, channels:75, sampling rate:128, samples:5928      , version:2.0
Timestamp,EEG.Counter,EEG.Interpolated,EEG.Cz,EEG.Fz,EEG.Fp1,EEG.AF3,EEG.F7,EEG.F3,EEG.FC1,EEG.C3,EEG.FC5,EEG.T7,EEG.CP5,EEG.CP1,EEG.P3,EEG.P7,EEG.PO3,EEG.O1,EEG.Pz,EEG.Oz,EEG.O2,EEG.PO4,EEG.P8,EEG.P4,EEG.CP2,EEG.CP6,EEG.T8,EEG.FC6,EEG.C4,EEG.FC2,EEG.F4,EEG.F8,EEG.AF4,EEG.Fp2,EEG.HighBitFlex,EEG.RawCq,EEG.Battery,MarkerIndex,MarkerType,MarkerValueInt,EEG.MarkerHardware,CQ.Cz,CQ.Fz,CQ.Fp1,CQ.AF3,CQ.F7,CQ.F3,CQ.FC1,CQ.C3,CQ.FC5,CQ.T7,CQ.CP5,CQ.CP1,CQ.P3,CQ.P7,CQ.PO3,CQ.O1,CQ.Pz,CQ.Oz,CQ.O2,CQ.PO4,CQ.P8,CQ.P4,CQ.CP2,CQ.CP6,CQ.T8,CQ.FC6,CQ.C4,CQ.FC2,CQ.F4,CQ.F8,CQ.AF4,CQ.Fp2,CQ.Overall
1613870922.671141,40.000000,0.000000,-7.212580,0.223687,-17.750488,-5.882981,-10.475904,-2.426199,-2.797058,-10.800448,-13.715540,-7.959875,3.259247,-9.275679,-19.170103,-35.416721,6.540964,-43.546505,8.269087,41.493523,8.984837,1.237509,2.108188,-3.951135,-4.273946,-8.296503,4.429640,9.216249,1.561158,8.844814,8.914258,26.375137,5.143672,-6.578422,8064.000000,0.000000,4.000000,,,,0.000000,4.000000,4.000000,4.000000,4.000000,4.000000,4.000000,4.000000,4.000000,4.000000,4.000000,4.000000,4.000000,4.000000,4.000000,4.000000,4.000000,4.000000,4.000000,2.000000,2.000000,4.000000,4.000000,4.000000,4.000000,4.000000,4.000000,4.000000,4.000000,4.000000,4.000000,2.000000,4.000000,50.000000
1613870922.678990,41.000000,0.000000,-7.205368,2.274746,-16.194275,-6.389919,1.329444,-1.910952,-2.794261,-9.251186,-6.522337,8.971162,9.409834,2.528469,-5.304779,-23.073612,11.662628,-32.220909,10.312100,46.580235,33.591236,0.210631,25.183002,5.283585,4.448277,-8.801027,19.809826,21.514725,4.123699,9.348789,18.648933,40.707737,7.189810,7.274311,8064.000000,0.000000,4.000000,,,,0.000000,4.000000,4.000000,4.000000,4.000000,4.000000,4.000000,4.000000,4.000000,4.000000,4.000000,4.000000,4.000000,4.000000,4.000000,4.000000,4.000000,4.000000,4.000000,2.000000,2.000000,4.000000,4.000000,4.000000,4.000000,4.000000,4.000000,4.000000,4.000000,4.000000,4.000000,2.000000,4.000000,50.000000
1613870922.686739,42.000000,0.000000,-7.198162,4.836574,-17.203722,-5.357888,12.097345,1.680702,-2.791467,0.501654,-5.490174,17.167318,15.554270,18.936197,18.803091,-10.230026,32.163784,-8.598943,17.481276,54.225964,44.326878,-4.404964,33.362949,9.893686,5.982290,0.951364,21.841299,25.595774,8.734960,9.852262,19.655926,48.359337,7.182621,10.343960,8192.000000,0.000000,4.000000,,,,0.000000,4.000000,4.000000,4.000000,4.000000,4.000000,4.000000,4.000000,4.000000,4.000000,4.000000,4.000000,4.000000,4.000000,4.000000,4.000000,4.000000,4.000000,4.000000,2.000000,2.000000,4.000000,4.000000,4.000000,4.000000,4.000000,4.000000,4.000000,4.000000,4.000000,4.000000,2.000000,4.000000,50.000000
1613870922.694588,43.000000,0.000000,-7.190964,2.267634,-17.186518,-5.865350,5.418581,-0.885081,-2.275855,3.578076,-11.125710,16.637331,10.923331,19.942902,20.835569,-16.373642,33.670082,-6.539062,20.027897,61.864044,40.179985,7.907133,32.303944,10.396613,4.950667,19.924770,19.768175,24.031717,8.213405,3.175742,15.533706,45.746876,7.175438,6.231051,8192.000000,0.000000,4.000000,,,,0.000000,4.000000,4.000000,4.000000,4.000000,4.000000,4.000000,4.000000,4.000000,4.000000,4.000000,4.000000,4.000000,4.000000,4.000000,4.000000,4.000000,4.000000,4.000000,2.000000,2.000000,4.000000,4.000000,4.000000,4.000000,4.000000,4.000000,4.000000,4.000000,4.000000,4.000000,2.000000,4.000000,50.000000
1613870922.702337,44.000000,0.000000,-7.183773,-2.350018,-16.656511,-10.474870,-7.407350,-10.627786,-3.812041,-6.169092,-12.140224,5.338642,0.143177,10.179369,1.327554,-39.947014,6.456926,-34.224831,18.982227,53.597050,33.473137,19.181276,30.220358,10.386216,5.458537,16.827923,20.774048,23.494865,6.666729,-4.519741,15.005352,44.675488,7.681083,2.635077,8064.000000,0.000000,4.000000,,,,0.000000,4.000000,4.000000,4.000000,4.000000,4.000000,4.000000,4.000000,4.000000,4.000000,4.000000,4.000000,4.000000,4.000000,4.000000,4.000000,4.000000,4.000000,4.000000,2.000000,2.000000,4.000000,4.000000,4.000000,4.000000,4.000000,4.000000,4.000000,4.000000,4.000000,4.000000,2.000000,4.000000,50.000000
1613870922.710186,45.000000,0.000000,-7.176589,-4.398950,-16.639854,-12.515676,-10.476866,-14.719722,-6.372331,-10.265487,-10.589622,-7.487209,-2.421069,5.553805,-8.417363,-55.804501,-7.908505,-52.652145,18.963245,42.774223,25.747358,17.110813,30.702959,10.888651,5.965899,6.041865,21.778915,25.522652,9.224166,-1.951119,15.503167,45.143631,7.160581,2.119621,8064.000000,0.000000,4.000000,,,,0.000000,4.000000,4.000000,4.000000,4.000000,4.000000,4.000000,4.000000,4.000000,4.000000,4.000000,4.000000,4.000000,4.000000,4.000000,4.000000,4.000000,4.000000,4.000000,2.000000,2.000000,4.000000,4.000000,4.000000,4.000000,4.000000,4.000000,4.000000,4.000000,4.000000,4.000000,2.000000,4.000000,50.000000
1613870922.717935,46.000000,0.000000,-7.169413,-2.343269,-16.623215,-7.374956,-9.440747,-12.653720,-6.878779,-6.665478,-11.604674,-6.454081,-0.367366,6.061072,-8.921766,-58.825619,-12.003160,-55.676414,18.431461,42.218628,22.644688,14.016780,28.620974,8.313660,4.934292,13.728130,24.321238,27.035591,9.727762,2.666217,14.974843,44.072845,7.153421,1.604681,8064.000000,0.000000,4.000000,,,,0.000000,4.000000,4.000000,4.000000,4.000000,4.000000,4.000000,4.000000,4.000000,4.000000,4.000000,4.000000,4.000000,4.000000,4.000000,4.000000,4.000000,4.000000,4.000000,2.000000,2.000000,4.000000,4.000000,4.000000,4.000000,4.000000,4.000000,4.000000,4.000000,4.000000,4.000000,2.000000,4.000000,50.000000
1613870922.725784,47.000000,0.000000,-7.162243,-0.802464,-16.606592,-4.803478,-9.944127,-13.153887,-6.359080,-6.145992,-11.080249,-3.370704,-12.674690,4.516549,-18.656435,-73.638588,-28.914234,-73.056633,18.413031,40.125130,24.160503,9.900199,24.489788,5.741243,4.929358,16.791325,27.886662,27.521376,10.230855,1.637910,14.447048,48.131336,9.710370,2.115897,8064.000000,0.000000,4.000000,,,,0.000000,4.000000,4.000000,4.000000,4.000000,4.000000,4.000000,4.000000,4.000000,4.000000,4.000000,4.000000,4.000000,4.000000,4.000000,4.000000,4.000000,4.000000,4.000000,2.000000,2.000000,4.000000,4.000000,4.000000,4.000000,4.000000,4.000000,4.000000,4.000000,4.000000,4.000000,2.000000,4.000000,50.000000
1613870922.733533,48.000000,0.000000,-6.642261,0.736800,-16.589985,-5.824316,-10.959825,-13.653554,-6.352721,-4.601385,-11.581989,-10.546821,-34.200478,1.435110,-29.407009,-101.770081,-40.680191,-91.957939,14.292053,33.931156,18.495317,-0.366111,16.260170,0.607297,5.437249,13.184791,28.371595,28.006674,14.323188,1.123451,14.945421,51.672951,11.239121,2.113781,8064.000000,0.000000,4.000000,,,,0.000000,4.000000,4.000000,4.000000,4.000000,4.000000,4.000000,4.000000,4.000000,4.000000,4.000000,4.000000,4.000000,4.000000,4.000000,4.000000,4.000000,4.000000,4.000000,2.000000,2.000000,4.000000,4.000000,4.000000,4.000000,4.000000,4.000000,4.000000,4.000000,4.000000,4.000000,2.000000,4.000000,50.000000
1613870922.741382,49.000000,0.000000,-8.174080,0.736063,-17.599037,-5.818491,-11.461685,-12.101439,-6.346368,-9.724988,-17.724253,-17.202940,-43.909866,-4.720171,-38.608372,-123.206772,-42.690792,-92.891624,1.457248,28.256201,6.681951,-5.493950,-2.730448,-12.213823,5.431811,19.325453,25.779119,28.491489,10.719121,2.147969,15.956117,43.928970,9.176600,0.060385,8064.000000,0.000000,4.000000,,,,0.000000,4.000000,4.000000,4.000000,4.000000,4.000000,4.000000,4.000000,4.000000,4.000000,4.000000,4.000000,4.000000,4.000000,4.000000,4.000000,4.000000,4.000000,4.000000,2.000000,2.000000,4.000000,4.000000,4.000000,4.000000,4.000000,4.000000,4.000000,4.000000,4.000000,4.000000,2.000000,4.000000,50.000000
1613870922.749131,50.000000,0.000000,-10.217188,-1.315955,-21.171181,-5.812673,-14.527146,-14.653440,-6.340022,-24.587059,-22.834734,-25.390865,-45.917240,-12.920580,-51.903095,-133.852798,-48.801949,-94.337189,-10.339081,15.920252,2.572705,-5.488457,-24.778999,-26.047764,2.862277,12.639460,22.163597,26.924536,0.964812,1.633000,14.914519,35.679913,7.116141,-0.452496,8064.000000,0.000000,4.000000,,,,0.000000,4.000000,4.000000,4.000000,4.000000,4.000000,4.000000,4.000000,4.000000,4.000000,4.000000,4.000000,4.000000,4.000000,4.000000,4.000000,4.000000,4.000000,4.000000,2.000000,2.000000,4.000000,4.000000,4.000000,4.000000,4.000000,4.000000,4.000000,4.000000,4.000000,4.000000,2.000000,4.000000,50.000000
1613870922.756980,51.000000,0.000000,-11.232612,-2.853101,-26.278215,-7.858142,-22.717747,-19.766991,-6.333682,-26.100933,-22.811899,-38.185986,-45.358501,-14.446120,-51.338371,-132.180481,-46.189045,-99.883881,-12.892844,3.596639,4.621414,-10.098352,-32.446529,-30.124279,0.808133,-8.398821,15.474768,27.410431,0.451027,1.631367,14.899605,36.157051,7.109025,-4.041787,8192.000000,0.000000,4.000000,,,,0.000000,4.000000,4.000000,4.000000,4.000000,4.000000,4.000000,4.000000,4.000000,4.000000,4.000000,4.000000,4.000000,4.000000,4.000000,4.000000,4.000000,4.000000,4.000000,2.000000,2.000000,4.000000,4.000000,4.000000,4.000000,4.000000,4.000000,4.000000,4.000000,4.000000,4.000000,2.000000,4.000000,50.000000
1613870922.764729,52.000000,0.000000,-10.708558,-3.363068,-30.354500,-10.414387,-29.874517,-20.772865,-6.327348,-12.741498,-22.789087,-40.711903,-33.005451,-7.765008,-31.287033,-110.509834,-33.322342,-87.989128,-10.315849,6.157145,4.616793,-13.165177,-31.901262,-26.504412,1.832966,-8.903242,7.254165,29.434303,3.014678,2.142557,16.423166,34.582436,5.563455,-16.345438,8064.000000,0.000000,4.000000,,,,0.000000,4.000000,4.000000,4.000000,4.000000,4.000000,4.000000,4.000000,4.000000,4.000000,4.000000,4.000000,4.000000,4.000000,4.000000,4.000000,4.000000,4.000000,4.000000,2.000000,2.000000,4.000000,4.000000,4.000000,4.000000,4.000000,4.000000,4.000000,4.000000,4.000000,4.000000,2.000000,4.000000,50.000000
1613870922.772378,53.000000,0.000000,-10.697850,-4.898167,-31.862608,-12.455255,-27.793360,-20.752092,-6.321021,-7.600552,-22.253477,-31.953243,-15.536548,-2.629038,-15.871132,-78.091637,-24.571072,-72.003700,-6.202969,14.868937,4.612176,-12.126371,-32.382179,-27.503548,-0.732970,-2.227672,0.580244,17.609997,-3.142182,0.601952,11.278539,29.419647,-0.083135,-25.047041,8064.000000,0.000000,4.000000,,,,0.000000,4.000000,4.000000,4.000000,4.000000,4.000000,4.000000,4.000000,4.000000,4.000000,4.000000,4.000000,4.000000,4.000000,4.000000,4.000000,4.000000,4.000000,4.000000,2.000000,2.000000,4.000000,4.000000,4.000000,4.000000,4.000000,4.000000,4.000000,4.000000,4.000000,4.000000,2.000000,4.000000,50.000000
1613870922.780128,54.000000,0.000000,-10.687152,-6.944551,-31.317924,-13.468440,-22.637362,-20.218519,-6.314700,-10.157054,-22.744045,-23.716162,-8.341523,-1.600768,-12.778337,-51.346878,-7.623424,-66.803490,-3.632663,15.366888,5.120384,-13.652706,-21.580568,-29.527327,-5.860442,-11.456214,0.579663,-0.356331,-9.292887,-1.962752,-0.014791,27.851765,-4.185616,-24.509172,8064.000000,0.000000,4.000000,,,,0.000000,4.000000,4.000000,4.000000,4.000000,4.000000,4.000000,4.000000,4.000000,4.000000,4.000000,4.000000,4.000000,4.000000,4.000000,4.000000,4.000000,4.000000,4.000000,2.000000,2.000000,4.000000,4.000000,4.000000,4.000000,4.000000,4.000000,4.000000,4.000000,4.000000,4.000000,2.000000,4.000000,50.000000
1613870922.787777,55.000000,0.000000,-10.676465,-7.450427,-31.286606,-12.942151,-20.563442,-17.121378,-6.308385,-9.634076,-22.721300,-13.948856,-7.820362,-1.599167,-8.662995,-36.423737,13.409841,-52.377712,-3.629031,17.402803,4.089622,-5.946746,-4.635911,-22.318312,-5.854582,-19.649885,5.194468,3.233769,-8.770773,-2.473610,-4.117341,29.362375,-4.181430,-23.459023,8064.000000,0.000000,4.000000,,,,0.000000,4.000000,4.000000,4.000000,4.000000,4.000000,4.000000,4.000000,4.000000,4.000000,4.000000,4.000000,4.000000,4.000000,4.000000,4.000000,4.000000,4.000000,4.000000,2.000000,2.000000,4.000000,4.000000,4.000000,4.000000,4.000000,4.000000,4.000000,4.000000,4.000000,4.000000,2.000000,4.000000,50.000000
1613870922.795526,56.000000,0.000000,-10.665789,-6.930155,-31.768141,-12.929210,-21.568520,-13.001693,-6.302077,-10.137262,-18.083195,-6.242599,-8.325362,-1.597568,-7.628691,-38.438595,12.370790,-35.915077,-3.112581,23.026426,6.649636,16.623302,1.522572,-10.501122,-2.771804,-15.014852,8.779017,18.615150,-7.736361,-1.958316,-0.010659,29.333014,-3.664428,-24.461205,8064.000000,0.000000,4.000000,,,,0.000000,4.000000,4.000000,4.000000,4.000000,4.000000,4.000000,4.000000,4.000000,4.000000,4.000000,4.000000,4.000000,4.000000,4.000000,4.000000,4.000000,4.000000,4.000000,2.000000,2.000000,4.000000,4.000000,4.000000,4.000000,4.000000,4.000000,4.000000,4.000000,4.000000,4.000000,2.000000,4.000000,50.000000
1613870922.803175,57.000000,0.000000,-10.655123,-6.923225,-31.223553,-12.916280,-21.034130,-12.475871,-6.295774,-12.691228,-11.911265,-8.800459,-8.317037,-1.083150,-10.185164,-51.733490,-1.487735,-47.161217,-4.135110,23.516220,2.540422,25.837450,1.521049,-8.952160,-3.281853,-7.820350,9.283059,20.134996,-8.754266,-1.956357,0.502172,29.303680,-4.173584,-23.923923,8064.000000,0.000000,4.000000,,,,0.000000,4.000000,4.000000,4.000000,4.000000,4.000000,4.000000,4.000000,4.000000,4.000000,4.000000,4.000000,4.000000,4.000000,4.000000,4.000000,4.000000,4.000000,4.000000,2.000000,2.000000,4.000000,4.000000,4.000000,4.000000,4.000000,4.000000,4.000000,4.000000,4.000000,4.000000,2.000000,4.000000,50.000000
1613870922.810924,58.000000,0.000000,-10.644467,-6.916302,-31.192327,-12.903364,-20.500277,-12.976215,-5.776659,-13.191358,-11.899354,-12.894223,-6.770258,-2.107708,-13.764723,-57.835602,-11.229836,-66.601234,-10.284821,17.851679,-13.359554,9.914176,-2.583036,-17.661156,-5.842673,-3.709965,9.273776,16.012299,-8.745512,-1.954401,-0.523971,28.761557,-4.169411,-23.387178,8064.000000,0.000000,4.000000,,,,0.000000,4.000000,4.000000,4.000000,4.000000,4.000000,4.000000,4.000000,4.000000,4.000000,4.000000,4.000000,4.000000,4.000000,4.000000,4.000000,4.000000,4.000000,4.000000,2.000000,2.000000,4.000000,4.000000,4.000000,4.000000,4.000000,4.000000,4.000000,4.000000,4.000000,4.000000,2.000000,4.000000,50.000000
1613870922.818573,59.000000,0.000000,-10.633823,-6.909386,-31.161137,-12.377640,-20.992596,-12.963239,-6.283702,-14.203807,-13.938737,-9.291585,-12.404513,-7.233805,-24.007368,-61.880329,-27.628864,-70.124374,-14.889920,10.141519,-25.141068,-6.505995,-13.862504,-24.822983,-7.375292,-3.193434,9.777323,15.483465,-8.223946,-1.952447,0.502194,29.245615,-3.139600,-23.363791,8064.000000,0.000000,4.000000,,,,0.000000,4.000000,4.000000,4.000000,4.000000,4.000000,4.000000,4.000000,4.000000,4.000000,4.000000,4.000000,4.000000,4.000000,4.000000,4.000000,4.000000,4.000000,4.000000,2.000000,2.000000,4.000000,4.000000,4.000000,4.000000,4.000000,4.000000,4.000000,4.000000,4.000000,4.000000,2.000000,4.000000,50.000000
1613870922.826322,60.000000,0.000000,-10.623189,-7.415297,-30.617155,-12.365262,-20.971603,-11.924635,-8.841521,-16.753706,-14.437619,-10.820755,-26.238262,-14.406058,-36.803875,-78.741524,-47.088413,-80.823479,-15.387851,2.439070,-24.090284,-10.089232,-19.489668,-28.900724,-9.932019,-2.677421,10.280366,14.442341,-8.728542,-1.950494,-0.011129,30.242010,-3.136461,-22.827606,8064.000000,0.000000,4.000000,,,,0.000000,4.000000,4.000000,4.000000,4.000000,4.000000,4.000000,4.000000,4.000000,4.000000,4.000000,4.000000,4.000000,4.000000,4.000000,4.000000,4.000000,4.000000,4.000000,2.000000,2.000000,4.000000,4.000000,4.000000,4.000000,4.000000,4.000000,4.000000,4.000000,4.000000,4.000000,2.000000,4.000000,50.000000
1613870922.833972,61.000000,0.000000,-10.612566,-6.895061,-30.586536,-12.865718,-20.950632,-9.861428,-10.371141,-17.249773,-15.448822,-16.963781,-32.878693,-17.468575,-41.895275,-93.534576,-55.759274,-98.691376,-15.885283,-1.153113,-22.014912,-8.027861,-21.008640,-32.461567,-10.434908,-2.161923,9.244445,15.453539,-8.206993,-1.948544,1.527344,26.622025,-3.133324,-23.317600,8064.000000,0.000000,4.000000,,,,0.000000,4.000000,4.000000,4.000000,4.000000,4.000000,4.000000,4.000000,4.000000,4.000000,4.000000,4.000000,4.000000,4.000000,4.000000,4.000000,4.000000,4.000000,4.000000,2.000000,2.000000,4.000000,4.000000,4.000000,4.000000,4.000000,4.000000,4.000000,4.000000,4.000000,4.000000,2.000000,4.000000,50.000000
1613870922.841721,62.000000,0.000000,-10.601954,-4.324063,-31.068771,-12.340032,-20.929682,-8.825926,-9.847949,-17.745342,-11.843630,-18.485279,-29.256069,-17.963926,-39.802097,-93.953865,-55.190693,-99.618324,-14.843758,1.412143,-23.531359,-10.583936,-33.808144,-39.095772,-8.886011,-6.262325,7.696738,14.925265,-8.198786,-1.946595,3.577099,22.492838,-2.104550,-22.781462,8064.000000,0.000000,4.000000,,,,0.000000,4.000000,4.000000,4.000000,4.000000,4.000000,4.000000,4.000000,4.000000,4.000000,4.000000,4.000000,4.000000,4.000000,4.000000,4.000000,4.000000,4.000000,4.000000,2.000000,2.000000,4.000000,4.000000,4.000000,4.000000,4.000000,4.000000,4.000000,4.000000,4.000000,4.000000,2.000000,4.000000,50.000000
1613870922.849370,63.000000,0.000000,-10.591352,-2.781278,-30.524881,-11.814871,-20.908752,-9.329920,-9.838101,-16.701958,-11.831786,-21.543716,-30.252453,-16.920322,-38.736656,-108.218887,-53.084221,-105.159737,-15.854555,-7.820039,-26.584751,-23.906685,-49.158951,-49.313087,-12.466869,-12.409908,10.253144,8.243673,-8.703408,-1.944649,4.086342,24.008806,-3.640907,-23.271502,8064.000000,0.000000,4.000000,,,,0.000000,4.000000,4.000000,4.000000,4.000000,4.000000,4.000000,4.000000,4.000000,4.000000,4.000000,4.000000,4.000000,4.000000,4.000000,4.000000,4.000000,4.000000,4.000000,2.000000,2.000000,4.000000,4.000000,4.000000,4.000000,4.000000,4.000000,4.000000,4.000000,4.000000,4.000000,2.000000,4.000000,50.000000
1613870922.857119,64.000000,0.000000,-10.580760,-3.291317,-30.494356,-15.905620,-20.887844,-8.807770,-9.828263,-16.172434,-22.589186,-30.240122,-38.940151,-17.416222,-45.364586,-139.392715,-55.595242,-125.567390,-18.915623,-26.273758,-30.147909,-39.780216,-52.186714,-50.289413,-18.095428,-15.474422,5.627507,4.645686,-7.669064,-1.942704,4.595077,23.984798,-10.816753,-27.350794,0.000000,174.000000,4.000000,,,,0.000000,4.000000,4.000000,4.000000,4.000000,4.000000,4.000000,4.000000,4.000000,4.000000,4.000000,4.000000,4.000000,4.000000,4.000000,4.000000,4.000000,4.000000,4.000000,2.000000,2.000000,4.000000,4.000000,4.000000,4.000000,4.000000,4.000000,4.000000,4.000000,4.000000,4.000000,2.000000,4.000000,50.000000
1613870922.864768,65.000000,0.000000,-10.570179,-3.288026,-35.079247,-22.043560,-20.866955,-10.337423,-9.818435,-19.746006,-29.233263,-38.415009,-44.542236,-18.424448,-47.370502,-144.381531,-51.949902,-119.800804,-11.204400,-15.991073,-13.194685,-31.022486,-36.749912,-29.726303,-11.923487,-15.971768,-7.711454,5.666681,-3.046010,-1.940761,4.077661,19.858250,-19.523886,-30.400366,0.000000,203.000000,4.000000,,,,0.000000,4.000000,4.000000,4.000000,4.000000,4.000000,4.000000,4.000000,4.000000,4.000000,4.000000,4.000000,4.000000,4.000000,4.000000,4.000000,4.000000,4.000000,4.000000,2.000000,2.000000,4.000000,4.000000,4.000000,4.000000,4.000000,4.000000,4.000000,4.000000,4.000000,4.000000,2.000000,4.000000,50.000000
1613870922.872517,66.000000,0.000000,-10.559609,-3.284738,-40.685192,-24.072800,-21.358910,-12.378368,-10.321437,-18.700619,-22.537363,-36.838131,-34.754105,-10.713716,-27.323132,-111.416634,-19.590260,-86.860489,9.319625,16.845430,19.639023,-0.735053,-4.918291,1.585474,3.473053,-9.801950,-5.139640,4.635374,0.033959,-1.938820,-0.028981,17.787109,-25.658207,-29.857145,0.000000,197.000000,4.000000,,,,0.000000,4.000000,4.000000,4.000000,4.000000,4.000000,4.000000,4.000000,4.000000,4.000000,4.000000,4.000000,4.000000,4.000000,4.000000,4.000000,4.000000,4.000000,4.000000,2.000000,2.000000,4.000000,4.000000,4.000000,4.000000,4.000000,4.000000,4.000000,4.000000,4.000000,4.000000,2.000000,4.000000,50.000000
1613870922.880166,67.000000,0.000000,-10.549049,-3.281453,-43.208611,-23.535906,-19.799089,-10.827528,-9.285475,-8.425508,-17.386620,-18.852577,-4.975760,5.707255,5.524704,-78.484711,13.249844,-53.953114,24.694921,49.136276,43.721947,16.701580,22.778934,21.071068,10.649067,0.977083,15.378320,8.220482,-0.478895,-1.936882,-3.105875,17.769321,-29.222292,-31.365749,0.000000,177.000000,4.000000,,,,0.000000,4.000000,4.000000,4.000000,4.000000,4.000000,4.000000,4.000000,4.000000,4.000000,4.000000,4.000000,4.000000,4.000000,4.000000,4.000000,4.000000,4.000000,4.000000,2.000000,2.000000,4.000000,4.000000,4.000000,4.000000,4.000000,4.000000,4.000000,4.000000,4.000000,4.000000,2.000000,4.000000,50.000000
1613870922.888015,68.000000,0.000000,-10.538501,-3.278172,-41.114120,-23.512369,-17.728008,-9.278239,-7.224907,-0.724774,-15.830772,1.679097,19.131781,14.419497,22.955076,-45.585709,26.569927,-31.847879,23.644585,47.035858,28.806431,17.710520,30.448463,23.101278,8.587135,4.053029,26.132172,15.391748,-0.991237,-1.934945,-1.051487,18.264374,-30.218712,-29.283102,0.000000,211.000000,4.000000,,,,0.000000,4.000000,4.000000,4.000000,4.000000,4.000000,4.000000,4.000000,4.000000,4.000000,4.000000,4.000000,4.000000,4.000000,4.000000,4.000000,4.000000,4.000000,4.000000,2.000000,2.000000,4.000000,4.000000,4.000000,4.000000,4.000000,4.000000,4.000000,4.000000,4.000000,4.000000,2.000000,4.000000,50.000000
1613870922.895764,69.000000,0.000000,-10.527962,-3.274893,-36.457623,-24.001678,-16.684639,-9.268961,-5.679221,-1.749691,-11.712378,9.882545,14.497264,11.840975,18.316736,-51.693970,19.876692,-36.944237,12.338889,40.322155,14.931471,23.846655,31.956476,16.411510,9.604190,6.100258,24.054758,13.837895,-0.477425,-1.933010,1.000846,21.323032,-28.137211,-21.048691,0.000000,187.000000,4.000000,,,,0.000000,4.000000,4.000000,4.000000,4.000000,4.000000,4.000000,4.000000,4.000000,4.000000,4.000000,4.000000,4.000000,4.000000,4.000000,4.000000,4.000000,4.000000,4.000000,2.000000,2.000000,4.000000,4.000000,4.000000,4.000000,4.000000,4.000000,4.000000,4.000000,4.000000,4.000000,2.000000,4.000000,50.000000
1613870922.903613,70.000000,0.000000,-10.517434,-3.271618,-36.421165,-23.464855,-17.180775,-8.234051,-6.186362,-2.260761,-10.162204,8.847022,2.687895,9.265031,4.965087,-60.360226,9.087584,-48.702164,5.147063,45.922859,21.583206,25.874090,29.360418,5.113048,10.107406,16.863388,21.979422,8.695852,-0.476948,-1.931077,-0.025796,20.788889,-30.673176,-22.053282,0.000000,209.000000,4.000000,,,,0.000000,4.000000,4.000000,4.000000,4.000000,4.000000,4.000000,4.000000,4.000000,4.000000,4.000000,4.000000,4.000000,4.000000,4.000000,4.000000,4.000000,4.000000,4.000000,2.000000,2.000000,4.000000,4.000000,4.000000,4.000000,4.000000,4.000000,4.000000,4.000000,4.000000,4.000000,2.000000,4.000000,50.000000
1613870922.911362,71.000000,0.000000,-10.506917,-3.268347,-41.512947,-23.441391,-17.163593,-11.815560,-6.180176,-1.232860,-11.177682,6.274073,3.198027,6.691663,-4.270648,-60.299866,-9.895864,-52.243206,3.603454,41.774372,16.433418,9.437960,6.766954,-8.738219,2.404991,15.308064,16.316416,8.687157,-3.040573,-1.929146,-0.025770,13.588613,-38.334812,-34.851742,0.000000,186.000000,4.000000,,,,0.000000,4.000000,4.000000,4.000000,4.000000,4.000000,4.000000,4.000000,4.000000,4.000000,4.000000,4.000000,4.000000,4.000000,4.000000,4.000000,4.000000,4.000000,4.000000,2.000000,2.000000,4.000000,4.000000,4.000000,4.000000,4.000000,4.000000,4.000000,4.000000,4.000000,4.000000,2.000000,4.000000,50.000000
1613870922.919211,72.000000,0.000000,-10.496409,-3.777899,-40.958614,-23.417950,-17.146429,-16.419130,-6.173995,-1.744447,-10.653684,2.165234,-0.907735,1.043946,-8.881762,-79.726746,-26.296225,-68.601219,0.522928,19.168497,-6.147118,-5.956093,-14.778274,-17.447430,-3.751261,0.420960,6.556510,10.216930,-5.088815,-2.440037,0.487077,10.498100,-39.322117,-37.893814,0.000000,170.000000,4.000000,,,,0.000000,4.000000,4.000000,4.000000,4.000000,4.000000,4.000000,4.000000,4.000000,4.000000,4.000000,4.000000,4.000000,4.000000,4.000000,4.000000,4.000000,4.000000,4.000000,2.000000,2.000000,4.000000,4.000000,4.000000,4.000000,4.000000,4.000000,4.000000,4.000000,4.000000,4.000000,2.000000,4.000000,50.000000
1613870922.926961,73.000000,0.000000,-10.485913,-3.261301,-35.276630,-23.394531,-15.078001,-11.274506,-6.167821,-1.742703,-10.643030,1.137428,-11.676058,-3.059662,-15.026726,-105.288040,-30.885313,-98.276207,-1.016057,5.815995,-14.346099,-3.386035,-16.301958,-16.404341,-1.696227,-5.220486,4.498672,9.181073,-5.083726,-1.924777,0.999410,13.051705,-31.590487,-30.163612,0.000000,191.000000,4.000000,,,,0.000000,4.000000,4.000000,4.000000,4.000000,4.000000,4.000000,4.000000,4.000000,4.000000,4.000000,4.000000,4.000000,4.000000,4.000000,4.000000,4.000000,4.000000,4.000000,2.000000,2.000000,4.000000,4.000000,4.000000,4.000000,4.000000,4.000000,4.000000,4.000000,4.000000,4.000000,2.000000,4.000000,50.000000
1613870922.934809,74.000000,0.000000,-10.475428,-1.206757,-33.190071,-23.371138,-13.011642,-5.109385,-6.161654,-3.279422,-11.145207,1.136291,-14.741304,-2.543782,-22.704006,-112.875061,-34.444172,-106.383057,-1.015041,7.348640,-10.229189,0.207095,-16.798475,-17.413578,-3.745813,-2.138343,5.519814,8.146251,-4.565822,0.128430,3.049693,14.577115,-27.456331,-25.518064,0.000000,194.000000,4.000000,,,,0.000000,4.000000,4.000000,4.000000,4.000000,4.000000,4.000000,4.000000,4.000000,4.000000,4.000000,4.000000,4.000000,4.000000,4.000000,4.000000,4.000000,4.000000,4.000000,2.000000,2.000000,4.000000,4.000000,4.000000,4.000000,4.000000,4.000000,4.000000,4.000000,4.000000,4.000000,2.000000,4.000000,50.000000
1613870922.942559,75.000000,0.000000,-10.464952,0.845732,-34.182522,-23.347767,-12.998630,-7.668378,-6.155492,-5.840245,-11.134063,-5.018692,-13.188102,-2.541238,-29.347969,-124.557060,-43.127674,-107.302315,-8.193513,-5.992042,-19.449730,-13.126446,-28.576550,-28.678215,-13.485657,-3.161845,5.001473,10.189386,-5.586897,2.179584,4.585104,15.588179,-28.454517,-24.466904,0.000000,180.000000,4.000000,,,,0.000000,4.000000,4.000000,4.000000,4.000000,4.000000,4.000000,4.000000,4.000000,4.000000,4.000000,4.000000,4.000000,4.000000,4.000000,4.000000,4.000000,4.000000,4.000000,2.000000,2.000000,4.000000,4.000000,4.000000,4.000000,4.000000,4.000000,4.000000,4.000000,4.000000,4.000000,2.000000,4.000000,50.000000
1613870922.950408,76.000000,0.000000,-10.454487,0.332065,-34.148338,-23.324419,-13.498451,-8.686351,-6.149336,-6.347225,-11.635749,-15.782904,-17.277477,-3.051517,-32.908363,-149.047882,-52.315315,-133.348862,-12.287884,-30.088614,-28.148228,-37.728703,-33.163357,-35.316204,-11.420889,-4.697145,3.970831,12.743299,-4.042849,1.664584,4.067699,17.623873,-28.426062,-23.416796,0.000000,202.000000,4.000000,,,,0.000000,4.000000,4.000000,4.000000,4.000000,4.000000,4.000000,4.000000,4.000000,4.000000,4.000000,4.000000,4.000000,4.000000,4.000000,4.000000,4.000000,4.000000,4.000000,2.000000,2.000000,4.000000,4.000000,4.000000,4.000000,4.000000,4.000000,4.000000,4.000000,4.000000,4.000000,2.000000,4.000000,50.000000
1613870922.958157,77.000000,0.000000,-10.444033,0.331733,-33.601372,-23.301094,-12.972133,-5.087921,-6.143187,-5.828057,-11.111293,-21.920967,-22.388405,0.541278,-28.260073,-158.642426,-49.186077,-142.959106,-0.480724,-25.443140,-16.838028,-45.383282,-32.104553,-24.511658,1.923865,-3.666807,4.479681,9.653633,1.089400,1.662919,4.063631,18.119070,-27.884815,-22.367739,0.000000,195.000000,4.000000,,,,0.000000,4.000000,4.000000,4.000000,4.000000,4.000000,4.000000,4.000000,4.000000,4.000000,4.000000,4.000000,4.000000,4.000000,4.000000,4.000000,4.000000,4.000000,4.000000,2.000000,2.000000,4.000000,4.000000,4.000000,4.000000,4.000000,4.000000,4.000000,4.000000,4.000000,4.000000,2.000000,4.000000,50.000000
1613870922.966006,78.000000,0.000000,-10.433589,0.844222,-34.080589,-23.277792,-13.471981,-6.621294,-6.137044,-5.822229,-11.100182,-20.360584,-18.263453,5.668941,-17.462582,-143.099167,-25.034328,-109.995628,13.365911,5.351533,-5.026319,-23.799438,-34.636551,-13.205094,7.050146,-3.150320,5.500842,5.028595,3.139592,1.661256,4.059567,18.100950,-27.856932,-22.858192,0.000000,201.000000,4.000000,,,,0.000000,4.000000,4.000000,4.000000,4.000000,4.000000,4.000000,4.000000,4.000000,4.000000,4.000000,4.000000,4.000000,4.000000,4.000000,4.000000,4.000000,4.000000,4.000000,2.000000,2.000000,4.000000,4.000000,4.000000,4.000000,4.000000,4.000000,4.000000,4.000000,4.000000,4.000000,2.000000,4.000000,50.000000
1613870922.973755,79.000000,0.000000,-10.423155,-0.695084,-34.046509,-23.767336,-13.458508,-9.691596,-6.130907,-6.329227,-11.601902,-18.801762,-7.475959,8.740195,-11.291272,-113.212486,1.144553,-77.065125,14.891006,27.910284,-1.944369,2.378208,-33.063454,-12.679069,3.966173,-3.659990,4.469700,5.536387,2.623632,1.659595,4.055508,18.595671,-28.341894,-23.348154,0.000000,181.000000,4.000000,,,,0.000000,4.000000,4.000000,4.000000,4.000000,4.000000,4.000000,4.000000,4.000000,4.000000,4.000000,4.000000,4.000000,4.000000,4.000000,4.000000,4.000000,4.000000,4.000000,2.000000,2.000000,4.000000,4.000000,4.000000,4.000000,4.000000,4.000000,4.000000,4.000000,4.000000,4.000000,2.000000,4.000000,50.000000
1613870922.981604,80.000000,0.000000,-10.412732,-3.258491,-34.525284,-22.205107,-13.445050,-9.681905,-6.124776,-6.322898,-9.539018,-13.141935,-1.314637,8.731456,-12.818442,-86.432602,7.297254,-71.347031,14.363295,30.446476,4.724242,11.093778,-16.620132,-9.076646,5.500669,-3.656330,4.978051,4.505209,2.621008,1.145115,4.051453,17.038612,-29.339193,-21.786345,0.000000,174.000000,4.000000,,,,0.000000,4.000000,4.000000,4.000000,4.000000,4.000000,4.000000,4.000000,4.000000,4.000000,4.000000,4.000000,4.000000,4.000000,4.000000,4.000000,4.000000,4.000000,4.000000,2.000000,2.000000,4.000000,4.000000,4.000000,4.000000,4.000000,4.000000,4.000000,4.000000,4.000000,4.000000,2.000000,4.000000,50.000000
1613870922.989353,81.000000,0.000000,-10.402319,-3.768053,-33.977940,-19.618799,-13.431605,-9.159402,-6.118651,-1.701191,-4.914094,2.768643,-1.313322,8.722724,-12.292804,-74.038475,7.289957,-72.301323,15.374573,28.877569,11.899005,9.544223,7.499052,0.676021,9.084911,1.475532,14.203842,3.987884,3.131208,1.656790,3.534580,18.047215,-27.771393,-17.661993,0.000000,198.000000,4.000000,,,,0.000000,4.000000,4.000000,4.000000,4.000000,4.000000,4.000000,4.000000,4.000000,4.000000,4.000000,4.000000,4.000000,4.000000,4.000000,4.000000,4.000000,4.000000,4.000000,2.000000,2.000000,4.000000,4.000000,4.000000,4.000000,4.000000,4.000000,4.000000,4.000000,4.000000,4.000000,2.000000,4.000000,50.000000
1613870922.997102,82.000000,0.000000,-10.391916,-3.764285,-31.379858,-20.112001,-12.905354,-8.637422,-6.112533,2.403075,-2.857898,15.586387,-1.824829,9.226822,-10.229229,-64.220848,8.821129,-65.562355,12.282275,36.028179,13.425567,12.098782,20.312065,5.803550,9.588647,7.627903,23.933228,17.317230,2.615256,1.655134,4.043867,23.157373,-25.179520,-15.080229,0.000000,196.000000,4.000000,,,,0.000000,4.000000,4.000000,4.000000,4.000000,4.000000,4.000000,4.000000,4.000000,4.000000,4.000000,4.000000,4.000000,4.000000,4.000000,4.000000,4.000000,4.000000,4.000000,2.000000,2.000000,4.000000,4.000000,4.000000,4.000000,4.000000,4.000000,4.000000,4.000000,4.000000,4.000000,2.000000,4.000000,50.000000
1613870923.004851,83.000000,0.000000,-10.381525,-3.247700,-29.810017,-19.066248,-13.405269,-9.654426,-6.106420,1.375030,-3.880681,15.057980,-0.797363,8.704775,-12.270282,-56.977142,0.094359,-64.983971,7.141788,41.633175,12.899321,14.137964,16.189190,3.233644,9.066237,8.645915,25.447756,27.556322,2.612641,0.627837,4.039823,23.134216,-25.154339,-15.577970,0.000000,180.000000,4.000000,,,,0.000000,4.000000,4.000000,4.000000,4.000000,4.000000,4.000000,4.000000,4.000000,4.000000,4.000000,4.000000,4.000000,4.000000,4.000000,4.000000,4.000000,4.000000,4.000000,2.000000,2.000000,4.000000,4.000000,4.000000,4.000000,4.000000,4.000000,4.000000,4.000000,4.000000,4.000000,2.000000,4.000000,50.000000
1613870923.012500,84.000000,0.000000,-10.371143,-1.193171,-30.293026,-14.431797,-13.391863,-9.644772,-6.100314,1.886476,-2.851160,11.965999,-1.822207,9.208890,-13.283652,-67.689392,-10.674967,-69.021553,6.621825,35.950516,6.732575,8.482800,7.455051,0.153487,7.518710,7.611629,22.345387,21.887741,2.610029,2.165671,3.010142,21.059799,-22.565083,-16.075212,0.000000,155.000000,4.000000,,,,0.000000,4.000000,4.000000,4.000000,4.000000,4.000000,4.000000,4.000000,4.000000,4.000000,4.000000,4.000000,4.000000,4.000000,4.000000,4.000000,4.000000,4.000000,4.000000,2.000000,2.000000,4.000000,4.000000,4.000000,4.000000,4.000000,4.000000,4.000000,4.000000,4.000000,4.000000,4.000000,4.000000,66.666664
1613870923.020249,85.000000,0.000000,-10.360772,0.346484,-29.749912,-11.340442,-10.814369,-3.994101,-6.094213,5.474333,0.741435,12.979674,-1.307564,11.250963,-8.654984,-77.365295,-9.125830,-68.439713,7.128024,33.350464,0.571997,6.423036,5.396314,0.153333,8.536832,7.604017,24.374323,23.404314,2.607418,6.778890,6.596875,28.731047,-15.875851,-14.007854,0.000000,189.000000,4.000000,,,,0.000000,4.000000,4.000000,4.000000,4.000000,4.000000,4.000000,4.000000,4.000000,4.000000,4.000000,4.000000,4.000000,4.000000,4.000000,4.000000,4.000000,4.000000,4.000000,2.000000,2.000000,4.000000,4.000000,4.000000,4.000000,4.000000,4.000000,4.000000,4.000000,4.000000,4.000000,4.000000,4.000000,66.666664
1613870923.027898,86.000000,0.000000,-10.350411,0.858958,-29.207342,-11.841922,-8.752273,0.112457,-6.088119,1.879115,0.740694,11.428233,-1.306257,13.290995,-10.184791,-78.313568,-14.757730,-75.550758,3.018332,32.291473,0.571425,4.365331,0.262713,-3.949384,10.066757,8.109234,25.888409,31.586039,2.604811,9.336214,11.718483,36.907444,-12.270231,-8.865642,0.000000,171.000000,4.000000,,,,0.000000,4.000000,4.000000,4.000000,4.000000,4.000000,4.000000,4.000000,4.000000,4.000000,4.000000,4.000000,4.000000,4.000000,4.000000,4.000000,4.000000,4.000000,4.000000,2.000000,2.000000,4.000000,4.000000,4.000000,4.000000,4.000000,4.000000,4.000000,4.000000,4.000000,4.000000,4.000000,4.000000,66.666664
1613870923.035647,87.000000,0.000000,-10.340061,0.345279,-32.255058,-12.342900,-12.846085,-5.528681,-6.082031,-5.302251,-4.388252,3.211676,-4.894694,9.687960,-31.200247,-96.183975,-41.922459,-104.705978,-5.189815,8.156616,-10.711198,-15.126214,-13.583704,-18.304409,3.902844,8.101124,16.631752,22.323683,2.602206,8.814057,10.681124,34.306435,-13.796423,-7.318315,0.000000,195.000000,4.000000,,,,0.000000,4.000000,4.000000,4.000000,4.000000,4.000000,4.000000,4.000000,4.000000,4.000000,4.000000,4.000000,4.000000,4.000000,4.000000,4.000000,4.000000,4.000000,4.000000,2.000000,2.000000,4.000000,4.000000,4.000000,4.000000,4.000000,4.000000,4.000000,4.000000,4.000000,4.000000,4.000000,4.000000,66.666664
1613870923.043297,88.000000,0.000000,-10.329720,0.344933,-32.735622,-11.817737,-17.448622,-8.600075,-6.075949,-6.835411,-7.460787,-3.971023,-8.992364,4.037246,-43.989559,-115.574974,-59.316433,-128.703842,-10.312830,-15.441283,-25.572281,-43.829037,-21.262428,-25.978413,-2.254905,7.067382,5.333069,13.070590,2.599604,8.805243,7.593520,32.220844,-13.782626,-9.362278,0.000000,175.000000,4.000000,,,,0.000000,4.000000,4.000000,4.000000,4.000000,4.000000,4.000000,4.000000,4.000000,4.000000,4.000000,4.000000,4.000000,4.000000,4.000000,4.000000,4.000000,4.000000,4.000000,2.000000,2.000000,4.000000,4.000000,4.000000,4.000000,4.000000,4.000000,4.000000,4.000000,4.000000,4.000000,4.000000,4.000000,66.666664
1613870923.051046,89.000000,0.000000,-8.268109,0.857409,-32.190067,-11.293098,-16.405533,-2.950449,-6.069873,-5.290113,-7.453326,-7.043974,-8.983371,8.135773,-25.484032,-104.690163,-40.795578,-115.754616,-2.610209,-0.041227,-16.315941,-47.887772,-20.215525,-14.670382,5.439658,7.060315,6.866197,18.698545,2.597004,9.309258,10.150029,33.214268,-13.256023,-9.352916,0.000000,176.000000,4.000000,,,,0.000000,4.000000,4.000000,4.000000,4.000000,4.000000,4.000000,4.000000,4.000000,4.000000,4.000000,4.000000,4.000000,4.000000,4.000000,4.000000,4.000000,4.000000,4.000000,2.000000,2.000000,4.000000,4.000000,4.000000,4.000000,4.000000,4.000000,4.000000,4.000000,4.000000,4.000000,4.000000,4.000000,66.666664
1613870923.058695,90.000000,0.000000,-6.208559,0.856552,-37.286083,-12.307446,-16.901949,-3.460320,-6.063803,-5.797644,-8.471514,-9.088213,-7.435926,18.384048,-3.920086,-87.662399,-9.472733,-87.433739,12.264195,25.087019,2.674735,-22.198858,-19.682487,-0.296738,16.716269,10.642998,12.500357,15.090103,2.594407,8.787128,10.652699,25.488745,-13.755588,-13.958948,0.000000,170.000000,4.000000,,,,0.000000,4.000000,4.000000,4.000000,4.000000,4.000000,4.000000,4.000000,4.000000,4.000000,4.000000,4.000000,4.000000,4.000000,4.000000,4.000000,4.000000,4.000000,4.000000,4.000000,2.000000,4.000000,4.000000,4.000000,4.000000,4.000000,4.000000,4.000000,4.000000,4.000000,4.000000,4.000000,4.000000,83.333336
1613870923.066444,91.000000,0.000000,-6.202351,-1.195587,-40.325718,-16.910524,-22.526072,-11.661987,-6.057739,-5.791846,-11.027144,-10.104766,-8.966951,20.929766,-4.428987,-90.651657,-0.232490,-80.679634,19.431419,24.036291,4.723342,7.566930,-11.457678,-0.809262,16.699553,11.145175,11.975036,5.844244,2.591813,8.778341,4.488200,16.745306,-13.741832,-23.175758,0.000000,116.000000,4.000000,,,,0.000000,4.000000,4.000000,4.000000,4.000000,4.000000,4.000000,4.000000,4.000000,4.000000,4.000000,4.000000,4.000000,4.000000,4.000000,4.000000,4.000000,4.000000,4.000000,4.000000,2.000000,4.000000,4.000000,4.000000,4.000000,4.000000,4.000000,4.000000,4.000000,4.000000,4.000000,4.000000,4.000000,83.333336
1613870923.074093,92.000000,0.000000,-7.221789,-3.245673,-36.695652,-19.457716,-24.554829,-14.214428,-6.051682,-6.811696,-12.041759,-8.043379,-9.983626,19.370375,-5.963019,-92.099472,-2.283540,-85.214340,19.411987,17.858410,4.718619,24.995260,4.964036,-1.834093,14.631572,7.031466,14.527164,11.479424,2.589221,8.769563,3.458071,19.292664,-13.728090,-24.178223,0.000000,175.000000,4.000000,,,,0.000000,4.000000,4.000000,4.000000,4.000000,4.000000,4.000000,4.000000,4.000000,4.000000,4.000000,4.000000,4.000000,4.000000,4.000000,4.000000,4.000000,4.000000,4.000000,4.000000,2.000000,4.000000,4.000000,4.000000,4.000000,4.000000,4.000000,4.000000,4.000000,4.000000,4.000000,4.000000,4.000000,83.333336
1613870923.081842,93.000000,0.000000,-6.188926,-3.755248,-32.556389,-19.951078,-21.453350,-12.148932,-5.532809,-8.343346,-10.491256,-5.984053,-6.896719,19.863825,0.709611,-84.315063,1.821308,-76.411179,17.341293,24.507217,12.919028,22.406162,14.702662,4.321587,17.181042,9.075717,19.640841,16.083330,2.586632,8.760794,7.044357,24.914396,-13.714362,-22.102762,0.000000,201.000000,4.000000,,,,0.000000,4.000000,4.000000,4.000000,4.000000,4.000000,4.000000,4.000000,4.000000,4.000000,4.000000,4.000000,4.000000,4.000000,4.000000,4.000000,4.000000,4.000000,4.000000,4.000000,2.000000,4.000000,4.000000,4.000000,4.000000,4.000000,4.000000,4.000000,4.000000,4.000000,4.000000,4.000000,4.000000,83.333336
1613870923.089491,94.000000,0.000000,-6.182737,-3.238672,-32.523834,-24.546513,-22.970358,-12.649603,-7.065738,-9.873464,-10.993585,-6.490890,-12.530849,11.126013,-7.496227,-86.282028,-5.360001,-67.103996,9.631644,29.610914,17.521494,9.563244,14.687960,0.214701,14.599759,14.707666,20.646841,9.913401,2.584045,8.752032,6.011671,23.351021,-13.700647,-30.798609,0.000000,200.000000,4.000000,,,,0.000000,4.000000,4.000000,4.000000,4.000000,4.000000,4.000000,4.000000,4.000000,4.000000,4.000000,4.000000,4.000000,4.000000,4.000000,4.000000,4.000000,4.000000,4.000000,4.000000,2.000000,4.000000,4.000000,4.000000,4.000000,4.000000,4.000000,4.000000,4.000000,4.000000,4.000000,4.000000,4.000000,83.333336
1613870923.097240,95.000000,0.000000,-9.253478,-3.235434,-38.132336,-30.675812,-28.588413,-13.149774,-9.622775,-13.966154,-19.700541,-6.484399,-32.005497,-3.244088,-28.514372,-100.041901,-30.995667,-80.883049,-2.685680,23.427458,14.939870,4.938296,10.057887,-16.195770,5.354390,11.103215,20.113375,6.826564,0.530179,8.743280,3.441557,18.712286,-14.199768,-40.511398,0.000000,204.000000,4.000000,,,,0.000000,4.000000,4.000000,4.000000,4.000000,4.000000,4.000000,4.000000,4.000000,4.000000,4.000000,4.000000,4.000000,4.000000,4.000000,4.000000,4.000000,4.000000,4.000000,4.000000,2.000000,4.000000,4.000000,4.000000,4.000000,4.000000,4.000000,4.000000,4.000000,4.000000,4.000000,4.000000,4.000000,83.333336
1613870923.104890,96.000000,0.000000,-10.782685,-3.745019,-44.760872,-32.183598,-27.534184,-13.136624,-10.125973,-18.054752,-25.834686,-6.477914,-38.640160,-7.856228,-36.690987,-110.711090,-47.887749,-100.289345,-8.324019,13.147620,9.796725,6.984640,0.304239,-24.897522,0.220830,3.399805,18.041979,8.871019,-1.521633,8.734537,3.438116,17.155111,-13.672748,-38.932426,8064.000000,0.000000,4.000000,,,,0.000000,4.000000,4.000000,4.000000,4.000000,4.000000,4.000000,4.000000,4.000000,4.000000,4.000000,4.000000,4.000000,4.000000,4.000000,4.000000,4.000000,4.000000,4.000000,4.000000,2.000000,4.000000,4.000000,4.000000,4.000000,4.000000,4.000000,4.000000,4.000000,4.000000,4.000000,4.000000,4.000000,83.333336
1613870923.112739,97.000000,0.000000,-8.720621,-2.715633,-42.664829,-26.510387,-21.865623,-12.097846,-9.603026,-15.985415,-19.655005,-5.958616,-24.755363,-3.745808,-29.474808,-109.574738,-41.686012,-99.676231,-7.802875,12.621653,7.222826,5.952014,-6.875552,-23.334164,0.733430,2.370764,13.921372,9.374969,-1.007291,8.725802,4.460319,18.163597,-13.659075,-36.842213,8064.000000,0.000000,4.000000,,,,0.000000,4.000000,4.000000,4.000000,4.000000,4.000000,4.000000,4.000000,4.000000,4.000000,4.000000,4.000000,4.000000,4.000000,4.000000,4.000000,4.000000,4.000000,4.000000,4.000000,2.000000,4.000000,4.000000,4.000000,4.000000,4.000000,4.000000,4.000000,4.000000,4.000000,4.000000,4.000000,4.000000,83.333336
1613870923.120488,98.000000,0.000000,-6.147798,-0.148815,-36.981136,-20.330032,-19.279655,-7.983184,-9.593423,-13.405328,-11.430222,-5.952657,-14.987019,0.360502,-23.804308,-104.336960,-33.952019,-93.935532,-7.795073,16.711596,8.241244,2.869139,-5.843036,-23.310829,1.245517,4.419675,11.856169,8.852774,-1.006284,8.717077,3.430217,17.632614,-14.158237,-37.318192,8064.000000,0.000000,4.000000,,,,0.000000,4.000000,4.000000,4.000000,4.000000,4.000000,4.000000,4.000000,4.000000,4.000000,4.000000,4.000000,4.000000,4.000000,4.000000,4.000000,4.000000,4.000000,4.000000,4.000000,2.000000,4.000000,4.000000,4.000000,4.000000,4.000000,4.000000,4.000000,4.000000,4.000000,4.000000,4.000000,4.000000,83.333336
1613870923.128337,99.000000,0.000000,-6.654470,0.876975,-38.995438,-18.771240,-20.286016,-4.898278,-10.096650,-13.391922,-10.393150,-7.997987,-16.510494,0.872962,-26.857426,-114.489029,-38.533451,-103.072365,-9.838559,9.515396,4.130438,-5.851678,-6.350013,-24.313160,-0.807010,3.389614,11.331492,7.305459,-1.518098,8.708360,3.939607,16.589340,-12.605617,-37.280872,8064.000000,0.000000,4.000000,,,,0.000000,4.000000,4.000000,4.000000,4.000000,4.000000,4.000000,4.000000,4.000000,4.000000,4.000000,4.000000,4.000000,4.000000,4.000000,4.000000,4.000000,4.000000,4.000000,4.000000,2.000000,4.000000,4.000000,4.000000,4.000000,4.000000,4.000000,4.000000,4.000000,4.000000,4.000000,4.000000,4.000000,83.333336
1613870923.136086,100.000000,0.000000,-6.647816,0.363278,-39.982082,-19.778111,-21.291372,-4.893380,-9.573733,-10.814427,-11.408398,-10.041271,-16.493982,0.359268,-27.343390,-126.169411,-39.007740,-110.148781,-6.238977,-0.237709,-2.540359,-24.307365,-9.420587,-23.263206,1.245079,2.360584,12.345802,12.939179,0.534702,8.699652,6.499770,21.188135,-7.977626,-37.756413,8064.000000,0.000000,4.000000,,,,0.000000,4.000000,4.000000,4.000000,4.000000,4.000000,4.000000,4.000000,4.000000,4.000000,4.000000,4.000000,4.000000,4.000000,4.000000,4.000000,4.000000,4.000000,4.000000,4.000000,2.000000,4.000000,4.000000,4.000000,4.000000,4.000000,4.000000,4.000000,4.000000,4.000000,4.000000,4.000000,4.000000,83.333336
1613870923.143935,101.000000,0.000000,-6.641168,0.362914,-35.326717,-17.194229,-17.680338,-5.401307,-5.974416,-6.701049,-10.884169,-11.056870,-15.451848,3.435832,-20.649380,-116.299652,-29.225142,-106.961708,1.972390,-0.750292,-4.589100,-38.129211,-7.872704,-24.265583,4.320756,4.409505,12.846277,19.592907,2.585450,8.690952,8.031732,24.756691,-5.405546,-35.667374,8064.000000,0.000000,4.000000,,,,0.000000,4.000000,4.000000,4.000000,4.000000,4.000000,4.000000,4.000000,4.000000,4.000000,4.000000,4.000000,4.000000,4.000000,4.000000,4.000000,4.000000,4.000000,4.000000,4.000000,2.000000,4.000000,4.000000,4.000000,4.000000,4.000000,4.000000,4.000000,4.000000,4.000000,4.000000,4.000000,4.000000,83.333336
1613870923.151684,102.000000,0.000000,-6.634527,0.362551,-32.727287,-14.612932,-10.995990,-4.883085,-1.865877,-4.643066,-10.360464,-10.020173,-15.436396,7.534960,-16.013346,-107.465408,-26.118994,-108.906029,3.508879,-2.288003,-4.584511,-27.834673,-8.890472,-19.625933,3.803615,10.046122,8.218046,13.932288,3.095685,8.682261,7.510880,19.090908,-6.425781,-31.016321,8064.000000,0.000000,4.000000,,,,0.000000,4.000000,4.000000,4.000000,4.000000,4.000000,4.000000,4.000000,4.000000,4.000000,4.000000,4.000000,4.000000,4.000000,4.000000,4.000000,4.000000,4.000000,4.000000,4.000000,2.000000,4.000000,4.000000,4.000000,4.000000,4.000000,4.000000,4.000000,4.000000,4.000000,4.000000,4.000000,4.000000,83.333336
1613870923.159533,103.000000,0.000000,-6.627892,0.362189,-33.207382,-15.111140,-11.497815,-5.391023,-1.864011,-5.664064,-10.350104,-10.010153,-15.933780,8.553066,-15.484511,-115.050247,-27.118517,-103.156097,5.043832,7.457874,-2.528645,0.911111,-8.368761,-8.324256,7.902376,12.087358,5.645725,5.713228,1.554127,8.673578,7.503369,13.943612,-6.419355,-30.472485,8064.000000,0.000000,4.000000,,,,0.000000,4.000000,4.000000,4.000000,4.000000,4.000000,4.000000,4.000000,4.000000,4.000000,4.000000,4.000000,4.000000,4.000000,4.000000,4.000000,4.000000,4.000000,4.000000,4.000000,2.000000,4.000000,4.000000,4.000000,4.000000,4.000000,4.000000,4.000000,4.000000,4.000000,4.000000,4.000000,4.000000,83.333336
1613870923.167282,104.000000,0.000000,-6.621264,0.361827,-34.712635,-16.121670,-16.101702,-5.385632,-4.939071,-5.658400,-11.365395,-11.538604,-16.430666,8.544514,-9.315181,-109.294174,-12.219603,-81.514481,12.731095,34.629902,4.653371,25.525585,3.947300,-3.700547,17.125242,10.023988,13.845208,8.784438,4.629497,8.664906,7.495865,17.519411,-6.412936,-28.903551,8064.000000,0.000000,4.000000,,,,0.000000,4.000000,4.000000,4.000000,4.000000,4.000000,4.000000,4.000000,4.000000,4.000000,4.000000,4.000000,4.000000,4.000000,4.000000,4.000000,4.000000,4.000000,4.000000,4.000000,2.000000,4.000000,4.000000,4.000000,4.000000,4.000000,4.000000,4.000000,4.000000,4.000000,4.000000,4.000000,4.000000,83.333336
1613870923.175131,105.000000,0.000000,-6.614644,-0.151356,-32.626640,-15.592728,-17.624062,-5.380246,-5.959773,-5.139921,-10.841208,-8.450142,-13.850134,10.587251,-3.664840,-90.723343,1.125950,-70.150917,14.256826,43.313221,7.212821,29.602623,12.661301,-3.696847,21.723501,14.629349,19.985209,13.391038,11.804354,9.169061,7.488370,21.091637,-6.919344,-22.207981,8064.000000,0.000000,4.000000,,,,0.000000,4.000000,4.000000,4.000000,4.000000,4.000000,4.000000,4.000000,4.000000,4.000000,4.000000,4.000000,4.000000,4.000000,4.000000,4.000000,4.000000,4.000000,4.000000,4.000000,2.000000,4.000000,4.000000,4.000000,4.000000,4.000000,4.000000,4.000000,4.000000,4.000000,4.000000,4.000000,4.000000,83.333336
1613870923.182880,106.000000,0.000000,-6.608029,0.874437,-24.901707,-15.064315,-16.580797,-5.374866,-3.902531,-5.134781,-6.214983,0.789077,-9.220899,12.627946,-5.712457,-84.991592,-7.080304,-78.798714,9.114364,27.372473,2.590223,19.829432,7.520435,-4.205970,18.112036,22.819847,19.452402,11.839186,14.356652,7.621430,7.480881,21.583364,-5.886784,-18.596029,8064.000000,0.000000,4.000000,,,,0.000000,4.000000,4.000000,4.000000,4.000000,4.000000,4.000000,4.000000,4.000000,4.000000,4.000000,4.000000,4.000000,4.000000,4.000000,4.000000,4.000000,4.000000,4.000000,4.000000,2.000000,4.000000,4.000000,4.000000,4.000000,4.000000,4.000000,4.000000,4.000000,4.000000,4.000000,4.000000,4.000000,83.333336
1613870923.190729,107.000000,0.000000,-6.601421,3.437665,-17.184496,-17.100533,-13.487292,-5.369491,-1.847346,-5.642467,-3.131845,5.916493,-8.186037,12.102497,-8.270846,-83.880959,-15.278352,-82.309654,6.541147,20.678434,4.126094,11.604473,1.871889,-11.894072,14.504179,17.156002,20.458591,12.852987,11.265372,5.049706,7.473401,24.125885,-7.419358,-17.551792,8064.000000,0.000000,4.000000,,,,0.000000,4.000000,4.000000,4.000000,4.000000,4.000000,4.000000,4.000000,4.000000,4.000000,4.000000,4.000000,4.000000,4.000000,4.000000,4.000000,4.000000,4.000000,4.000000,4.000000,2.000000,4.000000,4.000000,4.000000,4.000000,4.000000,4.000000,4.000000,4.000000,4.000000,4.000000,4.000000,4.000000,83.333336
1613870923.198478,108.000000,0.000000,-6.594820,4.459868,-13.577568,-14.006509,-7.832779,-5.364121,-2.358319,-5.124004,-3.128713,4.372115,-8.690671,12.090395,-8.775396,-80.207336,-12.698971,-78.637604,3.970504,22.709038,1.557866,10.567227,2.895658,-19.061665,11.925572,6.882435,18.899672,15.917057,9.715646,4.531836,7.465927,24.614578,-6.899118,-7.790651,8064.000000,0.000000,4.000000,,,,0.000000,4.000000,4.000000,4.000000,4.000000,4.000000,4.000000,4.000000,4.000000,4.000000,4.000000,4.000000,4.000000,4.000000,4.000000,4.000000,4.000000,4.000000,4.000000,4.000000,2.000000,4.000000,4.000000,4.000000,4.000000,4.000000,4.000000,4.000000,4.000000,4.000000,4.000000,4.000000,4.000000,83.333336
1613870923.206327,109.000000,0.000000,-6.075404,4.455408,-9.974247,-5.274553,-5.260844,-5.358757,-2.355961,-5.118880,-3.638405,4.367743,-8.169160,11.052663,-14.407647,-84.742508,-18.327297,-88.815376,-0.648852,11.404278,-12.289846,11.582301,3.918403,-17.504143,11.913647,8.414015,19.393593,16.413961,10.218751,5.040124,7.458461,26.128426,2.338550,0.422268,8064.000000,0.000000,4.000000,,,,0.000000,4.000000,4.000000,4.000000,4.000000,4.000000,4.000000,4.000000,4.000000,4.000000,4.000000,4.000000,4.000000,4.000000,4.000000,4.000000,4.000000,4.000000,4.000000,4.000000,2.000000,4.000000,4.000000,4.000000,4.000000,4.000000,4.000000,4.000000,4.000000,4.000000,4.000000,4.000000,4.000000,83.333336
1613870923.214076,110.000000,0.000000,-6.582149,3.938132,-6.887350,0.371747,-5.768404,-5.353399,-2.353605,-8.190684,-3.121946,5.389016,-8.673812,8.990329,-20.034266,-91.324432,-27.539740,-101.547073,-0.648203,3.700566,-12.277556,5.416873,4.940125,-15.948176,12.414554,14.559446,29.117788,15.884727,10.208531,5.035084,7.451003,30.717682,11.566980,0.421846,8064.000000,0.000000,4.000000,,,,0.000000,4.000000,4.000000,4.000000,4.000000,4.000000,4.000000,4.000000,4.000000,4.000000,4.000000,4.000000,4.000000,4.000000,4.000000,4.000000,4.000000,4.000000,4.000000,4.000000,2.000000,4.000000,4.000000,4.000000,4.000000,4.000000,4.000000,4.000000,4.000000,4.000000,4.000000,4.000000,4.000000,83.333336
1613870923.221725,111.000000,0.000000,-8.626849,2.395733,-7.393283,-0.654266,-5.762635,-5.348045,-2.351251,-12.797878,-3.118824,5.383627,-7.639497,7.955697,-19.501410,-89.181831,-27.512199,-98.368607,-0.134734,17.030199,9.273183,-7.409057,6.473647,-15.419408,10.863678,14.544888,26.524569,15.868841,9.172682,5.030049,7.443552,28.122862,11.042593,-0.091397,8064.000000,0.000000,4.000000,,,,0.000000,4.000000,4.000000,4.000000,4.000000,4.000000,4.000000,4.000000,4.000000,4.000000,4.000000,4.000000,4.000000,4.000000,4.000000,4.000000,4.000000,4.000000,4.000000,4.000000,2.000000,4.000000,4.000000,4.000000,4.000000,4.000000,4.000000,4.000000,4.000000,4.000000,4.000000,4.000000,4.000000,83.333336
1613870923.229474,112.000000,0.000000,-10.156684,0.342055,-7.898710,-1.166432,-5.244052,-5.342697,-2.348900,-13.297900,-3.115705,4.865423,-5.067755,8.460562,-18.969088,-89.092644,-25.946226,-92.629211,0.378221,32.910603,23.110064,-17.658058,6.979994,-8.224501,9.314353,14.017522,7.010864,15.852973,7.112227,5.025019,7.436108,21.428072,7.441807,-2.142587,8064.000000,0.000000,4.000000,,,,0.000000,4.000000,4.000000,4.000000,4.000000,4.000000,4.000000,4.000000,4.000000,4.000000,4.000000,4.000000,4.000000,4.000000,4.000000,4.000000,4.000000,4.000000,4.000000,4.000000,2.000000,4.000000,4.000000,4.000000,4.000000,4.000000,4.000000,4.000000,4.000000,4.000000,4.000000,4.000000,4.000000,83.333336
1613870923.237124,113.000000,0.000000,-10.146527,-0.171108,-7.377991,-0.139625,-5.751629,-5.337355,-2.346551,-12.258962,-3.625410,3.834917,-5.062687,8.452102,-16.898836,-91.054840,-20.279255,-89.972481,3.967587,31.852053,18.984390,-17.640400,6.973014,-3.088071,8.279397,15.541965,1.362828,15.837120,5.566654,5.019994,7.428672,19.868183,8.460007,-2.653265,8064.000000,0.000000,4.000000,,,,0.000000,4.000000,4.000000,4.000000,4.000000,4.000000,4.000000,4.000000,4.000000,4.000000,4.000000,4.000000,4.000000,4.000000,4.000000,4.000000,4.000000,4.000000,4.000000,4.000000,2.000000,4.000000,4.000000,4.000000,4.000000,4.000000,4.000000,4.000000,4.000000,4.000000,4.000000,4.000000,4.000000,83.333336
1613870923.244873,114.000000,0.000000,-10.649201,0.341884,-7.370613,-0.652306,-5.745877,-5.332017,-2.344205,-12.759523,-3.108964,5.369544,-3.006342,8.443649,-7.138348,-85.835579,-3.335898,-73.985069,8.066183,30.281738,18.452585,-8.904811,4.914759,-3.597804,7.758297,15.013603,11.105055,16.334103,6.073907,5.014974,7.934064,21.386776,8.964367,2.477593,8064.000000,0.000000,4.000000,,,,0.000000,4.000000,4.000000,4.000000,4.000000,4.000000,4.000000,4.000000,4.000000,4.000000,4.000000,4.000000,4.000000,4.000000,4.000000,4.000000,4.000000,4.000000,4.000000,4.000000,2.000000,4.000000,4.000000,4.000000,4.000000,4.000000,4.000000,4.000000,4.000000,4.000000,4.000000,4.000000,4.000000,83.333336
1613870923.252522,115.000000,0.000000,-9.612911,0.341542,-6.850422,-0.651653,-5.740131,-5.326685,-1.829040,-12.746763,-2.593035,4.851353,-4.028977,8.435205,-2.003005,-87.801025,3.846925,-59.039288,8.570937,35.379662,19.972593,2.386145,3.371383,-1.030103,8.263359,14.998590,13.145231,15.292128,6.067834,5.009959,7.413309,21.365389,7.929761,2.475116,8064.000000,0.000000,4.000000,,,,0.000000,4.000000,4.000000,4.000000,4.000000,4.000000,4.000000,4.000000,4.000000,4.000000,4.000000,4.000000,4.000000,4.000000,4.000000,4.000000,4.000000,4.000000,4.000000,4.000000,2.000000,4.000000,4.000000,4.000000,4.000000,4.000000,4.000000,4.000000,4.000000,4.000000,4.000000,4.000000,4.000000,83.333336
1613870923.260271,116.000000,0.000000,-7.039195,0.341201,-8.382033,-1.163822,-5.734391,-5.321358,-2.340031,-12.734016,-7.205826,-4.897088,-18.896742,6.375488,-14.308694,-109.764503,-14.618461,-74.364868,1.382879,25.600693,6.106467,7.511964,3.368011,-0.516253,8.255096,16.009232,12.106445,16.815298,6.061766,5.004950,7.405896,20.831203,7.921832,-3.168385,8064.000000,0.000000,4.000000,,,,0.000000,4.000000,4.000000,4.000000,4.000000,4.000000,4.000000,4.000000,4.000000,4.000000,4.000000,4.000000,4.000000,4.000000,4.000000,4.000000,4.000000,4.000000,4.000000,4.000000,2.000000,4.000000,4.000000,4.000000,4.000000,4.000000,4.000000,4.000000,4.000000,4.000000,4.000000,4.000000,4.000000,83.333336
1613870923.267920,117.000000,0.000000,-6.006515,0.340859,-8.373652,-1.162658,-5.728657,-5.316037,-4.901794,-12.721283,-14.378108,-14.635780,-33.749641,4.317831,-35.320026,-129.654739,-39.219227,-101.982811,-9.900555,5.062272,-10.822717,5.965991,-1.763562,-8.720864,5.169918,9.839376,11.068698,17.311302,6.568524,4.999944,7.911311,18.759090,7.913910,-3.678037,8064.000000,0.000000,4.000000,,,,0.000000,4.000000,4.000000,4.000000,4.000000,4.000000,4.000000,4.000000,4.000000,4.000000,4.000000,4.000000,4.000000,4.000000,4.000000,4.000000,4.000000,4.000000,4.000000,4.000000,2.000000,4.000000,4.000000,4.000000,4.000000,4.000000,4.000000,4.000000,4.000000,4.000000,4.000000,4.000000,4.000000,83.333336
1613870923.275669,118.000000,0.000000,-6.513329,0.340519,-5.288354,-0.135855,-5.210107,-5.310721,-6.435354,-12.708562,-15.389371,-14.108324,-35.254353,4.313513,-45.541115,-131.576370,-51.487701,-111.111595,-15.531680,-2.635098,-11.837535,5.447204,-9.454106,-15.378811,0.036543,-4.529437,-0.737243,9.088863,5.023495,4.994945,6.877758,17.714689,8.418817,-5.725641,8064.000000,0.000000,4.000000,,,,0.000000,4.000000,4.000000,4.000000,4.000000,4.000000,4.000000,4.000000,4.000000,4.000000,4.000000,4.000000,4.000000,4.000000,4.000000,4.000000,4.000000,4.000000,4.000000,4.000000,2.000000,4.000000,4.000000,4.000000,4.000000,4.000000,4.000000,4.000000,4.000000,4.000000,4.000000,4.000000,4.000000,83.333336
1613870923.283318,119.000000,0.000000,-6.506816,0.340178,-13.488194,-3.212642,-7.256179,-5.305410,-5.916098,-12.695853,-14.348340,-13.581395,-35.731918,4.822020,-44.982754,-130.931976,-52.461853,-108.436378,-15.003327,-0.581181,-8.235953,3.903296,-13.034395,-16.389072,0.036506,-13.242856,-10.480095,4.464390,2.454368,4.989950,2.768316,16.158514,6.871936,-15.976326,8064.000000,0.000000,4.000000,,,,0.000000,4.000000,4.000000,4.000000,4.000000,4.000000,4.000000,4.000000,4.000000,4.000000,4.000000,4.000000,4.000000,4.000000,4.000000,4.000000,4.000000,4.000000,4.000000,4.000000,2.000000,4.000000,4.000000,4.000000,4.000000,4.000000,4.000000,4.000000,4.000000,4.000000,4.000000,4.000000,4.000000,83.333336
1613870923.291167,120.000000,0.000000,-6.500309,0.339838,-28.346500,-7.824814,-9.813025,-5.300105,-5.910182,-12.683157,-15.359632,-18.696018,-33.132084,4.304378,-42.886490,-130.288223,-46.255547,-110.379227,-14.475504,-4.170343,-12.330282,1.848110,-11.995720,-15.347043,5.164675,-10.665511,-5.854230,10.613771,2.451914,4.984960,-0.311375,9.475689,2.249680,-23.652657,8064.000000,0.000000,4.000000,,,,0.000000,4.000000,4.000000,4.000000,4.000000,4.000000,4.000000,4.000000,4.000000,4.000000,4.000000,4.000000,4.000000,4.000000,4.000000,4.000000,4.000000,4.000000,4.000000,4.000000,2.000000,4.000000,4.000000,4.000000,4.000000,4.000000,4.000000,4.000000,4.000000,4.000000,4.000000,4.000000,4.000000,83.333336
1613870923.298916,121.000000,0.000000,-6.493809,0.339498,-24.215590,-6.791348,-8.777572,-5.294805,-5.904272,-12.670474,-10.728889,-15.600400,-19.765619,4.812894,-34.125656,-117.850235,-36.978519,-112.320129,-11.384106,-10.832840,-15.907695,3.897544,-11.983725,-15.844516,8.236433,-7.577922,1.331111,2.910850,2.962283,4.979975,-0.311064,5.363649,0.196148,-22.603363,8064.000000,0.000000,4.000000,,,,0.000000,4.000000,4.000000,4.000000,4.000000,4.000000,4.000000,4.000000,4.000000,4.000000,4.000000,4.000000,4.000000,4.000000,4.000000,4.000000,4.000000,4.000000,4.000000,4.000000,2.000000,4.000000,4.000000,4.000000,4.000000,4.000000,4.000000,4.000000,4.000000,4.000000,4.000000,4.000000,4.000000,83.333336
1613870923.306665,122.000000,0.000000,-6.487315,0.339158,-12.396502,-4.220454,-6.204692,-5.289510,-5.898367,-12.657804,-4.051493,-5.328389,-11.540725,7.372183,-23.835119,-102.860596,-33.351799,-109.643707,-7.782978,-16.975853,-16.917429,-0.208918,-12.997381,-16.854313,8.228197,-8.595985,1.329780,-12.989497,1.933679,4.974995,0.202068,6.896747,0.708772,-21.555119,8064.000000,0.000000,4.000000,,,,0.000000,4.000000,4.000000,4.000000,4.000000,4.000000,4.000000,4.000000,4.000000,4.000000,4.000000,4.000000,4.000000,4.000000,4.000000,4.000000,4.000000,4.000000,4.000000,4.000000,2.000000,4.000000,4.000000,4.000000,4.000000,4.000000,4.000000,4.000000,4.000000,4.000000,4.000000,4.000000,4.000000,83.333336
1613870923.314315,123.000000,0.000000,-6.480827,-1.712463,-18.537952,-5.754695,-5.172846,-5.284220,-5.892469,-10.593863,-2.508980,-1.220497,-10.503544,8.903273,-22.785643,-97.116707,-33.831268,-109.021240,-6.749554,-14.394774,-11.772305,-17.644606,-11.445923,-14.786177,8.219969,-7.561748,-0.210012,-3.745738,3.470207,4.970020,-0.310955,5.864209,0.708063,-25.636127,8064.000000,0.000000,4.000000,,,,0.000000,4.000000,4.000000,4.000000,4.000000,4.000000,4.000000,4.000000,4.000000,4.000000,4.000000,4.000000,4.000000,4.000000,4.000000,4.000000,4.000000,4.000000,4.000000,4.000000,2.000000,4.000000,4.000000,4.000000,4.000000,4.000000,4.000000,4.000000,4.000000,4.000000,4.000000,4.000000,4.000000,83.333336
1613870923.322064,124.000000,0.000000,-6.474347,-3.249212,-27.750183,-7.800223,-3.629212,-5.278936,-5.886576,-8.531988,-3.532112,-2.757738,-4.339194,8.381549,-20.198755,-94.455490,-32.258972,-107.373756,-6.742804,2.542697,4.136902,-27.883371,-5.793451,-6.566262,8.724569,-0.374699,-1.235443,12.668264,6.030839,5.477870,0.202177,1.242960,0.194535,-29.713057,8064.000000,0.000000,4.000000,,,,0.000000,4.000000,4.000000,4.000000,4.000000,4.000000,4.000000,4.000000,4.000000,4.000000,4.000000,4.000000,4.000000,4.000000,4.000000,4.000000,4.000000,4.000000,4.000000,4.000000,2.000000,4.000000,4.000000,4.000000,4.000000,4.000000,4.000000,4.000000,4.000000,4.000000,4.000000,4.000000,4.000000,83.333336
1613870923.329713,125.000000,0.000000,-6.467872,-3.245963,-24.132690,-9.330884,-1.574300,-5.273657,-5.880690,-9.036276,-3.015759,-2.242160,1.818992,9.398808,-10.434966,-86.668724,-26.585690,-93.420235,-7.248882,18.950411,16.440458,-20.676001,-0.659453,-2.969952,9.228665,5.779521,-0.721387,1.373545,2.947886,3.933931,0.714795,1.754538,0.707161,-29.683344,8064.000000,0.000000,4.000000,,,,0.000000,4.000000,4.000000,4.000000,4.000000,4.000000,4.000000,4.000000,4.000000,4.000000,4.000000,4.000000,4.000000,4.000000,4.000000,4.000000,4.000000,4.000000,4.000000,4.000000,2.000000,4.000000,4.000000,4.000000,4.000000,4.000000,4.000000,4.000000,4.000000,4.000000,4.000000,4.000000,4.000000,83.333336
1613870923.337462,126.000000,0.000000,-6.461404,-3.242717,-21.031633,-11.885655,-1.572726,-5.268384,-5.874809,-9.027240,-3.012744,-2.239918,-0.234109,8.876589,-5.809147,-80.428207,-19.379616,-74.352455,-5.703171,23.546844,15.398376,-9.886094,0.366848,-4.505444,8.193795,1.671178,-1.746306,-11.448341,-1.670447,1.878715,-0.824381,1.752783,0.706454,-29.140839,8064.000000,0.000000,4.000000,,,,0.000000,4.000000,4.000000,4.000000,4.000000,4.000000,4.000000,4.000000,4.000000,4.000000,4.000000,4.000000,4.000000,4.000000,4.000000,4.000000,4.000000,4.000000,4.000000,4.000000,2.000000,4.000000,4.000000,4.000000,4.000000,4.000000,4.000000,4.000000,4.000000,4.000000,4.000000,4.000000,4.000000,83.333336
1613870923.345111,127.000000,0.000000,-6.454943,-3.239474,-22.036243,-10.335308,-2.083974,-5.263115,-5.868934,-9.018212,-3.522552,-2.237678,-0.233875,6.303610,-6.316158,-78.809319,-13.719212,-66.072975,-2.620545,26.087400,17.434259,2.431484,6.007507,1.140087,8.185602,1.156686,-2.257380,-0.667663,-1.155956,0.851195,-3.387659,-0.813072,0.705747,-29.624519,8064.000000,0.000000,4.000000,,,,0.000000,4.000000,4.000000,4.000000,4.000000,4.000000,4.000000,4.000000,4.000000,4.000000,4.000000,4.000000,4.000000,4.000000,4.000000,4.000000,4.000000,4.000000,4.000000,4.000000,2.000000,4.000000,4.000000,4.000000,4.000000,4.000000,4.000000,4.000000,4.000000,4.000000,4.000000,4.000000,4.000000,83.333336
1613870923.352960,0.000000,0.000000,-6.448488,-3.236234,-22.527027,-8.273691,-2.081890,-4.745032,-5.863065,-9.009194,-3.519029,-1.209799,0.279179,6.297307,-9.386765,-79.243332,-13.192672,-63.955616,-5.182027,28.625416,15.878365,10.121360,13.180986,2.677409,9.203057,12.437581,2.873082,8.563774,-0.641979,1.363164,-2.871451,-0.299439,0.705041,-28.569254,0.000000,191.000000,4.000000,,,,0.000000,4.000000,4.000000,4.000000,4.000000,4.000000,4.000000,4.000000,4.000000,4.000000,4.000000,4.000000,4.000000,4.000000,4.000000,4.000000,4.000000,4.000000,4.000000,4.000000,2.000000,4.000000,4.000000,4.000000,4.000000,4.000000,4.000000,4.000000,4.000000,4.000000,4.000000,4.000000,4.000000,83.333336
1613870923.360709,1.000000,0.000000,-6.442039,-5.284280,-23.530142,-10.829520,-2.079808,-6.791569,-5.857203,-9.000185,-3.515510,-5.311153,-7.926229,3.726907,-22.710712,-90.958961,-25.487171,-71.071152,-12.356333,18.853201,-4.137514,-5.273376,-2.216810,-13.735525,5.604111,14.989245,-0.719535,0.862903,-3.205440,1.361801,-3.381400,-0.811960,0.704336,-28.540684,0.000000,175.000000,4.000000,,,,0.000000,4.000000,4.000000,4.000000,4.000000,4.000000,4.000000,4.000000,4.000000,4.000000,4.000000,4.000000,4.000000,4.000000,4.000000,4.000000,4.000000,4.000000,4.000000,4.000000,2.000000,4.000000,4.000000,4.000000,4.000000,4.000000,4.000000,4.000000,4.000000,4.000000,4.000000,4.000000,4.000000,83.333336
1613870923.368558,2.000000,0.000000,-6.435597,-6.817458,-24.532253,-12.357152,-2.077728,-8.836060,-5.851345,-8.991185,-3.511994,-10.434047,-20.738815,-6.020410,-38.585438,-112.406464,-47.000145,-97.666740,-16.959360,1.398450,-21.569275,-27.319386,-31.445362,-27.055122,-1.068160,-2.461641,-21.231636,-7.343089,-5.253517,1.360439,-5.429301,-9.529097,0.703632,-33.127529,0.000000,197.000000,4.000000,,,,0.000000,4.000000,4.000000,4.000000,4.000000,4.000000,4.000000,4.000000,4.000000,4.000000,4.000000,4.000000,4.000000,4.000000,4.000000,4.000000,4.000000,4.000000,4.000000,4.000000,2.000000,4.000000,4.000000,4.000000,4.000000,4.000000,4.000000,4.000000,4.000000,4.000000,4.000000,4.000000,4.000000,83.333336
1613870923.376307,3.000000,0.000000,-6.429162,-4.759358,-22.456438,-9.780692,-2.075650,-6.775941,-5.845494,-8.982194,-3.508482,-8.885152,-26.871922,-9.091312,-41.110954,-126.140205,-56.696735,-121.158821,-17.968042,-11.423461,-25.650269,-28.317707,-45.772892,-27.540888,-3.631195,-17.843794,-33.518097,-5.284463,-4.735443,1.359079,-4.398231,-12.083670,0.702928,-31.555939,0.000000,184.000000,4.000000,,,,0.000000,4.000000,4.000000,4.000000,4.000000,4.000000,4.000000,4.000000,4.000000,4.000000,4.000000,4.000000,4.000000,4.000000,4.000000,4.000000,4.000000,4.000000,4.000000,4.000000,2.000000,4.000000,4.000000,4.000000,4.000000,4.000000,4.000000,4.000000,4.000000,4.000000,4.000000,4.000000,4.000000,83.333336
1613870923.384156,4.000000,0.000000,-6.422733,-2.703317,-21.408340,-7.719630,-2.073575,-4.717883,-5.839648,-8.973212,-3.504974,-11.953190,-27.870691,-3.954016,-42.095486,-138.834579,-54.075935,-128.729965,-18.462894,-20.642807,-34.855389,-22.648363,-47.265579,-29.564629,-2.601923,-17.825951,-22.715347,-1.689435,-4.730707,1.357720,-3.368191,-5.404920,0.702226,-28.447460,0.000000,193.000000,4.000000,,,,0.000000,4.000000,4.000000,4.000000,4.000000,4.000000,2.000000,4.000000,4.000000,4.000000,4.000000,4.000000,4.000000,4.000000,4.000000,4.000000,4.000000,4.000000,4.000000,4.000000,2.000000,4.000000,4.000000,4.000000,4.000000,4.000000,4.000000,4.000000,4.000000,4.000000,4.000000,4.000000,4.000000,66.666664
1613870923.391905,5.000000,0.000000,-6.416310,-3.213434,-21.386932,-7.711910,-1.558681,-5.225986,-5.833808,-8.964238,-3.501469,-27.325851,-33.996666,-6.514165,-50.258518,-163.823944,-63.252628,-143.985855,-18.444431,-34.981140,-46.615406,-24.676996,-52.859341,-34.663269,-3.112141,-14.218381,-14.487504,-5.790310,-5.238797,1.356362,-7.980208,-7.450797,0.701523,-36.624142,0.000000,145.000000,4.000000,,,,0.000000,4.000000,4.000000,4.000000,4.000000,4.000000,2.000000,4.000000,4.000000,4.000000,4.000000,4.000000,4.000000,4.000000,4.000000,4.000000,4.000000,4.000000,4.000000,4.000000,2.000000,4.000000,4.000000,4.000000,4.000000,4.000000,4.000000,4.000000,4.000000,4.000000,4.000000,4.000000,4.000000,66.666664
1613870923.399754,6.000000,0.000000,-6.409894,-3.210220,-22.904007,-9.242660,-3.095583,-5.220760,-5.827975,-8.955275,-2.985147,-34.990833,-38.065235,-10.610215,-53.798000,-180.070389,-72.932968,-159.226486,-18.938808,-47.766670,-46.568790,-21.575397,-54.857761,-35.654247,-3.621849,-18.819548,-19.601221,-10.399904,-5.746378,1.355006,-10.536330,-11.545910,-0.324819,-42.228542,0.000000,168.000000,4.000000,,,,0.000000,4.000000,4.000000,4.000000,4.000000,4.000000,2.000000,4.000000,4.000000,4.000000,4.000000,4.000000,4.000000,4.000000,4.000000,4.000000,4.000000,4.000000,4.000000,4.000000,2.000000,4.000000,4.000000,4.000000,4.000000,4.000000,4.000000,4.000000,4.000000,4.000000,4.000000,4.000000,4.000000,66.666664
1613870923.407503,7.000000,0.000000,-6.403484,-3.207010,-24.932384,-11.284699,-5.143770,-5.215539,-5.822147,-8.946319,-3.494982,-23.673792,-32.898964,-3.420117,-49.128819,-165.018524,-62.090801,-150.349304,-17.381407,-41.052238,-39.855553,-22.579462,-47.110596,-32.541672,-2.592587,-24.441753,-20.607262,-7.312581,-4.714991,1.353651,-7.448871,-2.303595,0.701147,-33.468365,0.000000,188.000000,4.000000,,,,0.000000,4.000000,4.000000,4.000000,4.000000,4.000000,2.000000,4.000000,4.000000,4.000000,4.000000,4.000000,4.000000,4.000000,4.000000,4.000000,4.000000,4.000000,4.000000,4.000000,2.000000,4.000000,4.000000,4.000000,4.000000,4.000000,4.000000,4.000000,4.000000,4.000000,4.000000,4.000000,4.000000,66.666664
1613870923.415352,8.000000,0.000000,-6.397080,-3.203803,-25.933094,-11.786235,-6.164267,-5.210323,-5.816325,-8.937373,-2.978667,-14.932169,-25.686577,2.737149,-44.977127,-134.084274,-52.797943,-134.814346,-17.364027,-24.088108,-31.097750,-36.915859,-35.781437,-29.945026,-3.102814,-18.776287,-12.894346,-5.766807,-4.710276,1.352297,-6.415781,6.929478,3.264548,-26.768230,0.000000,170.000000,4.000000,,,,0.000000,4.000000,4.000000,4.000000,4.000000,4.000000,2.000000,4.000000,4.000000,4.000000,4.000000,4.000000,4.000000,4.000000,4.000000,4.000000,4.000000,4.000000,4.000000,4.000000,2.000000,4.000000,4.000000,4.000000,4.000000,4.000000,4.000000,4.000000,4.000000,4.000000,4.000000,4.000000,4.000000,66.666664
1613870923.423101,9.000000,0.000000,-6.390683,-3.200599,-25.394341,-11.774448,-5.645282,-5.205113,-5.810508,-8.928435,-2.975688,-14.917236,-21.558327,0.683130,-39.291122,-102.668137,-50.181042,-123.397476,-20.423586,-12.269148,-14.143575,-38.417404,-19.848219,-28.376619,-2.586891,-12.090843,-5.189144,-6.273861,-5.731207,1.350945,-6.922185,7.435369,3.261283,-28.792744,0.000000,196.000000,4.000000,,,,0.000000,4.000000,4.000000,4.000000,4.000000,4.000000,2.000000,4.000000,4.000000,4.000000,4.000000,4.000000,4.000000,4.000000,4.000000,4.000000,4.000000,4.000000,4.000000,4.000000,2.000000,4.000000,4.000000,4.000000,4.000000,4.000000,4.000000,4.000000,4.000000,4.000000,4.000000,4.000000,4.000000,66.666664
1613870923.430950,10.000000,0.000000,-6.384293,-3.197399,-25.368946,-11.762674,-5.126817,-5.199908,-5.804698,-8.919507,-7.075276,-6.184371,-9.741897,1.195267,-24.380037,-75.898796,-26.028297,-90.453568,-13.736495,10.307223,10.998775,-13.250781,0.684451,-17.579012,2.031080,-11.053111,-2.107032,-2.165023,-0.084450,1.349594,-4.863981,9.479216,6.334945,-29.276772,0.000000,191.000000,4.000000,,,,0.000000,4.000000,4.000000,4.000000,4.000000,4.000000,2.000000,4.000000,4.000000,4.000000,4.000000,4.000000,4.000000,4.000000,4.000000,4.000000,4.000000,4.000000,4.000000,4.000000,2.000000,4.000000,4.000000,4.000000,4.000000,4.000000,4.000000,4.000000,4.000000,4.000000,4.000000,4.000000,4.000000,66.666664
1613870923.438700,11.000000,0.000000,-6.377908,-3.194201,-24.830757,-11.750912,-6.660151,-5.194708,-5.286073,-8.397767,-10.657945,7.155147,-1.014206,4.783815,-8.971042,-60.438286,1.690039,-57.542603,0.123395,42.604610,30.987776,11.377854,12.991458,-0.125536,5.618793,1.265634,-1.079284,3.990988,9.659225,1.348244,-2.807835,9.982557,10.943995,-27.709034,0.000000,181.000000,4.000000,,,,0.000000,4.000000,4.000000,4.000000,4.000000,4.000000,2.000000,4.000000,4.000000,4.000000,4.000000,4.000000,4.000000,4.000000,4.000000,4.000000,4.000000,4.000000,4.000000,4.000000,2.000000,4.000000,4.000000,4.000000,4.000000,4.000000,4.000000,4.000000,4.000000,4.000000,4.000000,4.000000,4.000000,66.666664
1613870923.446349,12.000000,0.000000,-6.371531,-3.191007,-24.805925,-11.739161,-8.704773,-5.189513,-5.793607,-10.440651,-10.647286,4.071069,-10.756782,4.266211,-9.987712,-62.941948,-7.542420,-59.023521,-3.979292,36.408157,17.623455,11.366477,7.337441,-1.151051,5.100354,18.187445,-1.078205,6.551100,8.623924,1.346896,-2.805027,7.408472,8.881769,-28.194145,0.000000,203.000000,4.000000,,,,0.000000,4.000000,4.000000,4.000000,4.000000,4.000000,2.000000,4.000000,4.000000,4.000000,4.000000,4.000000,4.000000,4.000000,4.000000,4.000000,4.000000,4.000000,4.000000,4.000000,2.000000,4.000000,4.000000,4.000000,4.000000,4.000000,4.000000,4.000000,4.000000,4.000000,4.000000,4.000000,4.000000,66.666664
1613870923.454098,13.000000,0.000000,-6.365159,-3.187816,-25.293940,-11.727422,-9.721709,-5.184324,-5.787814,-12.481493,-10.636640,-3.112489,-22.540897,0.672201,-22.285416,-75.186699,-27.534878,-84.605522,-16.795826,4.064058,-11.624938,-4.542325,-1.387845,-14.996054,4.582433,12.015411,-0.564306,8.595831,3.487095,1.345549,-2.802222,13.042089,4.257503,-27.653130,0.000000,192.000000,4.000000,,,,0.000000,4.000000,4.000000,4.000000,4.000000,4.000000,2.000000,4.000000,4.000000,4.000000,4.000000,4.000000,4.000000,4.000000,4.000000,4.000000,4.000000,4.000000,4.000000,4.000000,2.000000,4.000000,4.000000,4.000000,4.000000,4.000000,4.000000,4.000000,4.000000,4.000000,4.000000,4.000000,4.000000,66.666664
1613870923.461747,14.000000,0.000000,-6.358794,-3.184628,-23.730185,-11.715693,-8.686347,-4.666319,-5.269205,-12.469011,-10.626003,3.044469,-17.902971,1.184350,-24.314413,-82.803818,-24.430420,-90.161942,-11.138004,10.726660,-9.562032,-14.281373,-0.360816,-13.442596,6.116312,-2.355578,1.487540,7.561594,2.970787,1.344204,-3.312241,18.670073,6.304527,-28.651117,0.000000,202.000000,4.000000,,,,0.000000,4.000000,4.000000,4.000000,4.000000,4.000000,2.000000,4.000000,4.000000,4.000000,4.000000,4.000000,4.000000,4.000000,4.000000,4.000000,4.000000,4.000000,4.000000,4.000000,2.000000,4.000000,4.000000,4.000000,4.000000,4.000000,4.000000,4.000000,4.000000,4.000000,4.000000,4.000000,4.000000,66.666664
1613870923.469496,15.000000,0.000000,-6.352435,-3.181444,-26.270557,-11.191157,-9.703301,-5.687294,-6.289577,-12.456542,-10.102556,4.067066,-15.320966,2.208806,-20.187534,-87.336403,-26.970091,-91.610245,-6.511482,28.151831,1.729582,-13.241450,-8.052763,-13.429153,3.033273,1.236521,0.973232,2.425827,-1.134748,1.342859,-2.796108,15.061659,7.836684,-29.135288,0.000000,192.000000,4.000000,,,,0.000000,4.000000,4.000000,4.000000,4.000000,4.000000,2.000000,4.000000,4.000000,4.000000,4.000000,4.000000,4.000000,4.000000,4.000000,4.000000,4.000000,4.000000,4.000000,4.000000,2.000000,4.000000,4.000000,4.000000,4.000000,4.000000,4.000000,4.000000,4.000000,4.000000,4.000000,4.000000,4.000000,66.666664
1613870923.477145,16.000000,0.000000,-6.346083,-3.178262,-37.013519,-13.231249,-11.744881,-8.245709,-10.385852,-12.444085,-13.169377,-10.295976,-25.562056,-2.408787,-30.936579,-108.274704,-48.481583,-114.082733,-21.376764,-1.107090,-19.810610,-16.305132,-35.224197,-34.441364,-3.636427,1.748105,-6.207228,2.423401,-10.364382,1.341516,-2.793312,9.405572,4.239104,-27.054871,0.000000,190.000000,4.000000,,,,0.000000,4.000000,4.000000,4.000000,4.000000,4.000000,2.000000,4.000000,4.000000,4.000000,4.000000,4.000000,4.000000,4.000000,4.000000,4.000000,4.000000,4.000000,4.000000,4.000000,2.000000,4.000000,4.000000,4.000000,4.000000,4.000000,4.000000,4.000000,4.000000,4.000000,4.000000,4.000000,4.000000,66.666664
1613870923.484894,17.000000,0.000000,-6.339736,-2.662263,-44.155991,-15.269300,-12.245955,-9.263104,-13.452389,-12.431642,-17.771593,-19.003628,-31.690340,-6.508943,-43.726154,-137.397202,-57.151051,-132.430191,-30.073338,-32.388035,-39.277977,-23.981134,-53.650513,-46.201797,-7.222535,-14.151079,-16.457432,-1.681586,-13.943762,1.340175,-8.431544,4.780781,3.722044,-32.668842,0.000000,183.000000,4.000000,,,,0.000000,4.000000,4.000000,4.000000,4.000000,4.000000,2.000000,4.000000,4.000000,4.000000,4.000000,4.000000,4.000000,4.000000,4.000000,4.000000,4.000000,4.000000,4.000000,4.000000,2.000000,4.000000,4.000000,4.000000,4.000000,4.000000,4.000000,4.000000,4.000000,4.000000,4.000000,4.000000,4.000000,66.666664
1613870923.492544,18.000000,0.000000,-6.333397,-3.685242,-44.111835,-15.254030,-14.284992,-8.741020,-13.438936,-12.419209,-18.779461,-18.471804,-31.145828,-6.502434,-39.579865,-145.977753,-49.914413,-130.246475,-25.427879,-25.176159,-30.007931,-21.393051,-51.545578,-39.488926,-6.189671,-23.367697,-23.620461,-14.500418,-11.878535,1.338835,-14.576959,-2.403487,4.231143,-42.379761,0.000000,177.000000,4.000000,,,,0.000000,4.000000,4.000000,4.000000,4.000000,4.000000,2.000000,4.000000,4.000000,4.000000,4.000000,4.000000,4.000000,4.000000,4.000000,4.000000,4.000000,4.000000,4.000000,4.000000,2.000000,4.000000,4.000000,4.000000,4.000000,4.000000,4.000000,4.000000,4.000000,4.000000,4.000000,4.000000,4.000000,66.666664
1613870923.500293,19.000000,0.000000,-6.327063,-6.758480,-44.067722,-15.238776,-16.834810,-9.245100,-12.912677,-12.406791,-18.247862,-18.453333,-31.114683,-5.983111,-32.873619,-137.113831,-46.787575,-128.064957,-20.787066,-17.971497,-26.900999,-17.781914,-49.955570,-37.910976,-4.132199,-22.831509,-17.955814,-14.998737,-9.302554,1.337496,-14.562382,-5.478006,4.226912,-39.773281,0.000000,193.000000,4.000000,,,,0.000000,4.000000,4.000000,4.000000,4.000000,4.000000,2.000000,4.000000,4.000000,4.000000,4.000000,4.000000,4.000000,4.000000,4.000000,4.000000,4.000000,4.000000,4.000000,4.000000,2.000000,4.000000,4.000000,4.000000,4.000000,4.000000,4.000000,4.000000,4.000000,4.000000,4.000000,4.000000,4.000000,66.666664
1613870923.507942,20.000000,0.000000,-6.320736,-7.264542,-37.869808,-15.223537,-14.253872,-8.210214,-13.412584,-12.394383,-18.229614,-11.768212,-24.416901,-5.977128,-33.353565,-130.310043,-45.715145,-131.526627,-14.612433,-24.107370,-27.899740,-30.071825,-45.803051,-34.283321,-3.102426,-21.270216,-3.578885,-4.727328,-5.703508,1.336159,-11.470897,-0.857144,4.222684,-29.989916,0.000000,171.000000,4.000000,,,,0.000000,4.000000,4.000000,4.000000,4.000000,4.000000,2.000000,4.000000,4.000000,4.000000,4.000000,4.000000,4.000000,4.000000,4.000000,4.000000,4.000000,4.000000,4.000000,4.000000,2.000000,4.000000,4.000000,4.000000,4.000000,4.000000,4.000000,4.000000,4.000000,4.000000,4.000000,4.000000,4.000000,66.666664
1613870923.515691,21.000000,0.000000,-6.314415,-4.693175,-25.011427,-15.208314,-9.111413,-3.586619,-13.399172,-12.381989,-16.160103,-3.038496,-14.648894,-2.894227,-26.653543,-115.307938,-33.361740,-119.600227,-7.418334,-11.262751,-10.435943,-38.246880,-28.321352,-22.454168,-2.586503,-16.633560,6.168284,-1.132857,-4.159343,1.334822,-10.433784,5.297560,3.705641,-27.908644,0.000000,205.000000,4.000000,,,,0.000000,4.000000,4.000000,4.000000,4.000000,4.000000,2.000000,4.000000,4.000000,4.000000,4.000000,4.000000,4.000000,4.000000,4.000000,4.000000,4.000000,4.000000,4.000000,4.000000,2.000000,4.000000,4.000000,4.000000,4.000000,4.000000,4.000000,4.000000,4.000000,4.000000,4.000000,4.000000,4.000000,66.666664
1613870923.523340,22.000000,0.000000,-6.308101,-2.637200,-19.858210,-15.193106,-9.102302,-1.018930,-13.385773,-12.369608,-14.092660,-3.548278,-8.480399,1.211231,-15.857659,-82.884941,-15.379659,-86.660118,-5.359633,15.415179,1.882186,-19.234276,-12.908415,-17.303509,-2.583917,-12.001543,5.649295,0.406737,-4.668005,1.846308,-10.423350,6.317903,4.727577,-27.880735,0.000000,191.000000,4.000000,,,,0.000000,4.000000,4.000000,4.000000,4.000000,4.000000,2.000000,4.000000,4.000000,4.000000,4.000000,4.000000,4.000000,4.000000,4.000000,4.000000,4.000000,4.000000,4.000000,4.000000,2.000000,4.000000,4.000000,4.000000,4.000000,4.000000,4.000000,4.000000,4.000000,4.000000,4.000000,4.000000,4.000000,66.666664
1613870923.531089,23.000000,0.000000,-6.301793,-3.147383,-21.376814,-15.177913,-8.580379,-2.043552,-9.269823,-12.357238,-11.001644,2.096296,0.758850,1.722840,-9.687956,-56.135387,-3.569407,-61.958073,-4.328632,29.758738,3.931585,6.938805,-1.100635,-12.670820,-2.581333,-9.425439,5.130826,5.021715,-3.637696,1.331641,-10.925748,6.311585,6.774131,-24.775932,0.000000,196.000000,4.000000,,,,0.000000,4.000000,4.000000,4.000000,4.000000,4.000000,2.000000,4.000000,4.000000,4.000000,4.000000,4.000000,4.000000,4.000000,4.000000,4.000000,4.000000,4.000000,4.000000,4.000000,2.000000,4.000000,4.000000,4.000000,4.000000,4.000000,4.000000,4.000000,4.000000,4.000000,4.000000,4.000000,4.000000,66.666664
1613870923.538738,24.000000,0.000000,-6.295491,-3.144236,-20.842617,-16.188375,-2.417952,-0.503047,-3.619528,-12.344881,-5.862437,16.453175,9.988860,1.208297,-4.550063,-50.438229,-2.027376,-58.819191,-2.273022,34.344364,14.696884,17.701097,14.285081,-1.376098,-2.578751,-4.287808,6.664156,5.529514,-1.582776,1.330310,-9.376361,7.330914,8.305819,-24.238335,0.000000,213.000000,4.000000,,,,0.000000,4.000000,4.000000,4.000000,4.000000,4.000000,2.000000,4.000000,4.000000,4.000000,4.000000,4.000000,4.000000,4.000000,4.000000,4.000000,4.000000,4.000000,4.000000,4.000000,2.000000,4.000000,4.000000,4.000000,4.000000,4.000000,4.000000,4.000000,4.000000,4.000000,4.000000,4.000000,4.000000,66.666664
1613870923.546487,25.000000,0.000000,-6.289196,-3.141091,-20.308952,-15.659367,2.199850,2.574379,-1.564626,-12.332536,-2.779652,20.539286,7.927589,1.207089,-4.545513,-50.387791,-1.512529,-56.709091,-2.783569,46.617714,29.041162,19.734678,19.911821,1.702201,0.500750,0.844685,5.631851,7.062446,-0.555552,1.841800,-7.315702,7.323584,7.784692,-24.214098,0.000000,197.000000,4.000000,,,,0.000000,4.000000,4.000000,4.000000,4.000000,4.000000,2.000000,4.000000,4.000000,4.000000,4.000000,4.000000,4.000000,4.000000,4.000000,4.000000,4.000000,4.000000,4.000000,4.000000,2.000000,4.000000,4.000000,4.000000,4.000000,4.000000,4.000000,4.000000,4.000000,4.000000,4.000000,4.000000,4.000000,66.666664
1613870923.554137,26.000000,0.000000,-6.282907,-3.137950,-20.801464,-12.566784,2.197650,2.571805,-2.075882,-12.320203,-2.776872,15.903361,3.304277,1.718702,-10.694814,-52.388683,-2.023837,-55.626740,-2.267965,54.776222,28.499300,16.638020,16.814987,1.700499,4.602814,1.356661,5.626219,10.132306,-0.042176,-0.724145,-6.795566,6.290619,7.776907,-21.625780,0.000000,183.000000,4.000000,,,,0.000000,4.000000,4.000000,4.000000,4.000000,4.000000,2.000000,4.000000,4.000000,4.000000,4.000000,4.000000,4.000000,4.000000,4.000000,4.000000,4.000000,4.000000,4.000000,4.000000,2.000000,4.000000,4.000000,4.000000,4.000000,4.000000,4.000000,4.000000,4.000000,4.000000,4.000000,4.000000,4.000000,66.666664
1613870923.561886,27.000000,0.000000,-6.276624,-3.134812,-21.293484,-12.041397,1.682632,2.056412,-2.073806,-12.307883,-3.286916,15.887458,0.224050,1.204163,-13.761042,-71.823471,-14.329505,-76.596756,-4.316979,36.259907,9.496442,4.826510,12.182787,-0.865304,5.111032,4.945047,4.594952,2.429866,-2.606236,-5.338805,-6.788770,7.822790,7.769131,-20.578514,0.000000,123.000000,4.000000,,,,0.000000,4.000000,4.000000,4.000000,4.000000,4.000000,2.000000,4.000000,4.000000,4.000000,4.000000,4.000000,4.000000,4.000000,4.000000,4.000000,4.000000,4.000000,4.000000,4.000000,2.000000,4.000000,4.000000,4.000000,4.000000,4.000000,4.000000,4.000000,4.000000,4.000000,4.000000,4.000000,4.000000,66.666664
1613870923.569535,28.000000,0.000000,-6.270347,-3.131678,-21.785011,-11.003715,1.680950,2.054356,-1.558912,-12.295575,-2.770808,13.307468,-9.519764,1.202959,-19.388306,-97.392677,-37.904919,-103.699646,-12.517791,5.454417,-21.282286,-5.434726,-8.855037,-21.377258,4.593100,2.376000,-0.025028,-8.341794,-7.219015,-6.359107,-6.269161,3.712403,7.761362,-21.070755,0.000000,199.000000,4.000000,,,,0.000000,4.000000,4.000000,4.000000,4.000000,4.000000,2.000000,4.000000,4.000000,4.000000,4.000000,4.000000,4.000000,4.000000,4.000000,4.000000,4.000000,4.000000,4.000000,4.000000,2.000000,4.000000,4.000000,4.000000,4.000000,4.000000,4.000000,4.000000,4.000000,4.000000,4.000000,4.000000,4.000000,66.666664
1613870923.577384,29.000000,0.000000,-6.776897,-3.128546,-20.224764,-1.249121,1.166448,1.539481,-2.070173,-12.796100,-1.229576,3.037750,-15.151270,1.201756,-29.625328,-106.526054,-51.200348,-111.801071,-19.171940,-6.858729,-38.184078,-3.890830,-34.487206,-40.330242,4.075686,-15.062273,-3.101926,-10.897555,-9.263078,-6.352748,-8.314174,-6.547719,7.753600,-21.049685,0.000000,214.000000,4.000000,,,,0.000000,4.000000,4.000000,4.000000,4.000000,4.000000,2.000000,4.000000,4.000000,4.000000,4.000000,4.000000,4.000000,4.000000,4.000000,4.000000,4.000000,4.000000,4.000000,4.000000,2.000000,4.000000,4.000000,4.000000,4.000000,4.000000,4.000000,4.000000,4.000000,4.000000,4.000000,4.000000,4.000000,66.666664
1613870923.585133,30.000000,0.000000,-6.770120,-3.125417,-18.153257,6.957256,0.652461,1.537942,-2.580924,-13.296124,-0.202706,-1.067852,-11.033554,0.687733,-28.570063,-105.906708,-41.405556,-109.125168,-20.178408,-3.774948,-33.530510,-6.963862,-35.478359,-35.674526,4.584431,-22.226698,-2.586003,-9.348196,-8.228173,-5.833575,-9.331501,-13.207838,7.745847,-22.054276,0.000000,212.000000,4.000000,,,,0.000000,4.000000,4.000000,4.000000,4.000000,4.000000,2.000000,4.000000,4.000000,4.000000,4.000000,4.000000,4.000000,4.000000,4.000000,4.000000,4.000000,4.000000,4.000000,4.000000,2.000000,4.000000,4.000000,4.000000,4.000000,4.000000,4.000000,4.000000,4.000000,4.000000,4.000000,4.000000,4.000000,66.666664
1613870923.592982,31.000000,0.000000,-6.250530,-3.122292,-17.622284,4.899017,1.164629,2.049224,-2.065522,-12.257187,0.310318,0.471678,-7.432777,0.687046,-19.310722,-104.775162,-24.953896,-109.016045,-15.542846,-5.309634,-30.420057,-19.264591,-30.827497,-29.485004,5.605488,-12.460882,-2.070597,-9.851668,-8.219945,-3.263639,-7.783708,-12.168989,7.738101,-19.980940,0.000000,196.000000,4.000000,,,,0.000000,4.000000,4.000000,4.000000,4.000000,4.000000,2.000000,4.000000,4.000000,4.000000,4.000000,4.000000,4.000000,4.000000,4.000000,4.000000,4.000000,4.000000,4.000000,4.000000,2.000000,4.000000,4.000000,4.000000,4.000000,4.000000,4.000000,4.000000,4.000000,4.000000,4.000000,4.000000,4.000000,66.666664
1613870923.600731,32.000000,0.000000,-6.757100,-3.119170,-16.579020,2.842836,1.676285,0.508713,-2.063457,-12.757751,0.310007,-0.041614,-8.450985,1.712000,-17.752951,-99.029358,-20.826378,-110.958313,-8.860636,-7.355607,-29.363997,-23.860710,-36.950516,-29.968340,2.522959,-13.986882,-2.581347,-9.841817,-9.237367,-2.234734,-6.237463,-12.156820,7.730362,-17.396856,8064.000000,0.000000,4.000000,,,,0.000000,4.000000,4.000000,4.000000,4.000000,4.000000,2.000000,4.000000,4.000000,4.000000,4.000000,4.000000,4.000000,4.000000,4.000000,4.000000,4.000000,4.000000,4.000000,4.000000,2.000000,4.000000,4.000000,4.000000,4.000000,4.000000,4.000000,4.000000,4.000000,4.000000,4.000000,4.000000,4.000000,66.666664
1613870923.608580,33.000000,0.000000,-7.263163,-3.628871,-15.536800,2.839993,2.187429,3.072307,-3.087034,-13.257813,-1.228764,0.471248,-8.442534,2.223108,-18.760838,-93.289299,-21.831192,-108.796066,-3.210750,-0.168764,-14.975658,-16.657364,-30.246899,-19.681963,0.981975,-22.690844,-3.091586,-10.857615,-8.202488,-2.232499,-7.256866,-13.170305,7.209812,-18.917921,8064.000000,0.000000,4.000000,,,,0.000000,4.000000,4.000000,4.000000,4.000000,4.000000,2.000000,4.000000,4.000000,4.000000,4.000000,4.000000,4.000000,4.000000,4.000000,4.000000,4.000000,4.000000,4.000000,4.000000,2.000000,4.000000,4.000000,4.000000,4.000000,4.000000,4.000000,4.000000,4.000000,4.000000,4.000000,4.000000,4.000000,66.666664
1613870923.616329,34.000000,0.000000,-2.127695,-3.112422,-15.008443,2.837153,11.416011,12.812825,-2.058306,-5.552248,6.464772,9.188725,-4.844348,6.836270,-13.101052,-92.683189,-17.193975,-100.994965,8.074512,10.600636,-0.088887,-6.897116,-13.806396,-6.841767,7.647659,-12.411743,-0.524392,-8.282656,-4.604542,-0.178985,-6.736789,-7.516109,7.715423,-14.796439,8064.000000,0.000000,4.000000,,,,0.000000,4.000000,4.000000,4.000000,4.000000,4.000000,2.000000,4.000000,4.000000,4.000000,4.000000,4.000000,4.000000,4.000000,4.000000,4.000000,4.000000,4.000000,4.000000,4.000000,2.000000,4.000000,4.000000,4.000000,4.000000,4.000000,4.000000,4.000000,4.000000,4.000000,4.000000,4.000000,4.000000,66.666664
1613870923.624178,35.000000,0.000000,4.028279,-0.545207,-7.813947,6.936880,30.378954,21.005140,3.071957,7.273817,21.842922,19.948767,2.339983,14.008921,-5.908463,-89.513588,-10.510116,-90.124741,23.451054,16.231060,2.988124,6.955935,-8.664385,-5.809285,13.281037,3.498104,4.091517,-2.633348,-1.523014,1.872476,-6.730052,0.696535,9.758989,-2.986771,8192.000000,0.000000,4.000000,,,,0.000000,4.000000,4.000000,4.000000,4.000000,4.000000,2.000000,4.000000,4.000000,4.000000,4.000000,4.000000,4.000000,4.000000,4.000000,4.000000,4.000000,4.000000,4.000000,4.000000,2.000000,4.000000,4.000000,4.000000,4.000000,4.000000,4.000000,4.000000,4.000000,4.000000,4.000000,4.000000,4.000000,66.666664
1613870923.631927,36.000000,0.000000,5.562712,0.480980,-5.754851,13.596610,37.015244,20.984135,5.632988,9.830646,25.410824,23.518562,7.978669,16.046194,-6.928196,-84.808685,-8.961144,-87.470512,23.427603,14.163548,1.446675,15.666928,-9.681361,-6.829116,8.652371,5.545888,5.625887,-2.630714,-0.495850,1.357783,-7.236142,6.849685,11.287692,0.093139,8064.000000,0.000000,4.000000,,,,0.000000,4.000000,4.000000,4.000000,4.000000,4.000000,2.000000,4.000000,4.000000,4.000000,4.000000,4.000000,4.000000,4.000000,4.000000,4.000000,4.000000,4.000000,4.000000,4.000000,2.000000,4.000000,4.000000,4.000000,4.000000,4.000000,4.000000,4.000000,4.000000,4.000000,4.000000,4.000000,4.000000,66.666664
1613870923.639776,37.000000,0.000000,4.531508,-0.032322,-17.543968,13.583014,24.670534,19.424690,5.114534,3.666969,17.180285,22.469402,5.406588,12.440404,-15.126396,-84.211060,-9.977824,-90.459969,6.993918,16.200666,0.419587,4.882030,-8.133219,-6.309467,4.541155,3.489060,5.107441,-4.679366,1.555928,1.356425,-5.177624,6.842835,11.276404,-6.060800,8064.000000,0.000000,4.000000,,,,0.000000,4.000000,4.000000,4.000000,4.000000,4.000000,2.000000,4.000000,4.000000,4.000000,4.000000,4.000000,4.000000,4.000000,4.000000,4.000000,4.000000,4.000000,4.000000,4.000000,2.000000,4.000000,4.000000,4.000000,4.000000,4.000000,4.000000,4.000000,4.000000,4.000000,4.000000,4.000000,4.000000,66.666664
1613870923.647525,38.000000,0.000000,5.039798,2.531813,-16.500784,13.569430,24.645864,20.943726,6.135061,2.637661,14.599002,22.959753,3.349899,11.915143,-17.162552,-77.460182,-8.942205,-83.190018,-0.705384,34.646004,10.162757,-0.763877,-1.458418,-5.790337,7.613537,5.024033,8.179256,5.068904,3.092833,1.355069,-1.069882,6.323172,11.265127,-7.080380,8192.000000,0.000000,4.000000,,,,0.000000,4.000000,4.000000,4.000000,4.000000,4.000000,2.000000,4.000000,4.000000,4.000000,4.000000,4.000000,4.000000,4.000000,4.000000,4.000000,4.000000,4.000000,4.000000,4.000000,2.000000,4.000000,4.000000,4.000000,4.000000,4.000000,4.000000,4.000000,4.000000,4.000000,4.000000,4.000000,4.000000,66.666664
1613870923.655374,39.000000,0.000000,5.034758,7.144666,0.951615,19.196886,42.057114,22.974064,8.693028,8.276049,19.199787,22.936794,7.961934,12.416048,-9.965902,-67.639130,-3.805058,-67.209396,5.961988,57.175461,26.562851,13.083040,14.953297,-2.194803,12.221308,5.531829,12.786462,13.268963,2.576920,1.353714,0.982469,8.368131,11.253862,-6.047659,8064.000000,0.000000,4.000000,,,,0.000000,4.000000,4.000000,4.000000,4.000000,4.000000,2.000000,4.000000,4.000000,4.000000,4.000000,4.000000,4.000000,4.000000,4.000000,4.000000,4.000000,4.000000,4.000000,4.000000,2.000000,4.000000,4.000000,4.000000,4.000000,4.000000,4.000000,4.000000,4.000000,4.000000,4.000000,4.000000,4.000000,66.666664
1613870923.663123,40.000000,0.000000,4.516902,8.163162,0.437843,20.716150,38.425316,20.899809,9.197156,10.831876,19.180588,22.401037,10.005254,11.890812,-7.391834,-69.109955,-2.775612,-70.219109,9.032949,53.528542,19.356800,19.223803,23.656292,0.371495,12.721908,7.064759,13.799316,7.614668,3.087163,1.352360,0.981487,5.282840,11.242609,-6.041611,8064.000000,0.000000,4.000000,,,,0.000000,4.000000,4.000000,4.000000,4.000000,4.000000,2.000000,4.000000,4.000000,4.000000,4.000000,4.000000,4.000000,4.000000,4.000000,4.000000,4.000000,4.000000,4.000000,4.000000,2.000000,4.000000,4.000000,4.000000,4.000000,4.000000,4.000000,4.000000,4.000000,4.000000,4.000000,4.000000,4.000000,66.666664
1613870923.670972,41.000000,0.000000,4.512386,7.642179,-15.972852,13.515947,15.822786,16.263523,8.675138,8.256941,17.110125,22.378635,4.867043,12.391742,-14.563929,-81.861359,-12.516426,-93.738632,-0.206853,21.167320,-9.893325,5.358426,7.735199,-7.834005,7.580980,11.673079,8.657312,1.966028,2.571256,1.351008,-0.557956,-4.978853,11.231366,-5.009929,8064.000000,0.000000,4.000000,,,,0.000000,4.000000,4.000000,4.000000,4.000000,4.000000,2.000000,4.000000,4.000000,4.000000,4.000000,4.000000,4.000000,4.000000,4.000000,4.000000,4.000000,4.000000,4.000000,4.000000,2.000000,4.000000,4.000000,4.000000,4.000000,4.000000,4.000000,4.000000,4.000000,4.000000,4.000000,4.000000,4.000000,66.666664
1613870923.678721,42.000000,0.000000,4.507874,7.634536,-19.546621,8.887047,10.678759,15.221620,8.666463,5.684582,19.144297,22.356256,1.785253,10.840888,-18.651930,-91.010262,-23.785961,-105.439766,-7.898953,-4.494873,-23.729586,-13.621292,-13.298177,-20.646685,1.419553,9.097303,1.981988,-0.087220,0.517402,1.349657,-2.608680,-8.563618,11.220135,-10.645945,8064.000000,0.000000,4.000000,,,,0.000000,4.000000,4.000000,4.000000,4.000000,4.000000,2.000000,4.000000,4.000000,4.000000,4.000000,4.000000,4.000000,4.000000,4.000000,4.000000,4.000000,4.000000,4.000000,4.000000,2.000000,4.000000,4.000000,4.000000,4.000000,4.000000,4.000000,4.000000,4.000000,4.000000,4.000000,4.000000,4.000000,66.666664
1613870923.686570,43.000000,0.000000,4.503366,8.139722,-17.475794,9.903801,18.873209,16.744860,8.657797,6.191718,16.561050,22.333900,3.321930,6.727483,-18.120457,-95.534637,-28.890379,-103.283043,-6.865414,-12.182685,-21.654573,-35.146133,-23.028469,-26.779884,-0.120328,-1.681025,-2.635379,-8.805081,-1.534397,1.861128,-3.631712,-2.914029,11.208915,-16.789145,8064.000000,0.000000,4.000000,,,,0.000000,4.000000,4.000000,4.000000,4.000000,4.000000,2.000000,4.000000,4.000000,4.000000,4.000000,4.000000,4.000000,4.000000,4.000000,4.000000,4.000000,4.000000,4.000000,4.000000,2.000000,4.000000,4.000000,4.000000,4.000000,4.000000,4.000000,4.000000,4.000000,4.000000,4.000000,4.000000,4.000000,66.666664
1613870923.694319,44.000000,0.000000,4.498862,7.618762,-17.971138,10.406718,19.879976,16.215294,9.161960,4.134244,5.262437,22.311567,3.318608,4.156653,-18.102337,-96.464745,-29.887131,-105.231041,-7.371368,-14.221785,-23.171381,-44.854576,-26.595182,-29.317205,0.905433,-10.910113,-3.145564,-14.950123,-1.020042,0.320805,-3.115260,-0.347012,11.710526,-14.721073,8064.000000,0.000000,4.000000,,,,0.000000,4.000000,4.000000,4.000000,4.000000,4.000000,2.000000,4.000000,4.000000,4.000000,4.000000,4.000000,4.000000,4.000000,4.000000,4.000000,4.000000,4.000000,4.000000,4.000000,2.000000,4.000000,4.000000,4.000000,4.000000,4.000000,4.000000,4.000000,4.000000,4.000000,4.000000,4.000000,4.000000,66.666664
1613870923.701968,45.000000,0.000000,4.494363,7.611143,-13.337783,6.806568,18.834455,15.686258,8.127156,2.078828,-0.896671,22.289255,2.802469,4.665317,-16.032951,-90.727257,-19.088013,-96.920685,-3.261433,-3.438332,-13.917440,-25.835361,-22.978844,-28.262247,-0.633933,-11.924844,-2.116777,-11.345428,-1.019022,-1.730798,-3.112145,-2.910768,10.160354,-15.731994,8064.000000,0.000000,4.000000,,,,0.000000,4.000000,4.000000,4.000000,4.000000,4.000000,2.000000,4.000000,4.000000,4.000000,4.000000,4.000000,4.000000,4.000000,4.000000,4.000000,4.000000,4.000000,4.000000,4.000000,2.000000,4.000000,4.000000,4.000000,4.000000,4.000000,4.000000,4.000000,4.000000,4.000000,4.000000,4.000000,4.000000,66.666664
1613870923.709718,46.000000,0.000000,4.489869,7.603532,-12.298803,2.697197,15.738697,16.183392,5.554926,1.563928,2.181149,22.266966,2.286846,4.660652,-9.863072,-83.457039,0.418255,-73.234016,14.690546,23.744593,9.686221,-1.706962,-15.263558,-14.387832,1.930803,-10.374457,-1.089019,-10.308442,-1.018003,-2.754708,-3.109033,-5.471960,7.586091,-25.972672,8064.000000,0.000000,4.000000,,,,0.000000,4.000000,4.000000,4.000000,4.000000,4.000000,2.000000,4.000000,4.000000,4.000000,4.000000,4.000000,4.000000,4.000000,4.000000,4.000000,4.000000,4.000000,4.000000,4.000000,2.000000,4.000000,4.000000,4.000000,4.000000,4.000000,4.000000,4.000000,4.000000,4.000000,4.000000,4.000000,4.000000,66.666664
1613870923.717367,47.000000,0.000000,4.485379,7.595929,-16.901890,2.181679,7.005010,16.167210,5.036551,2.075185,2.691788,22.244699,2.797379,4.143170,-4.725005,-80.296661,5.033221,-67.006935,23.393805,37.054184,20.958586,3.935770,-7.555987,2.036812,9.621180,-8.825622,1.988993,-9.272493,-1.016985,-2.751953,-3.618744,-4.953667,7.065684,-30.049263,8064.000000,0.000000,4.000000,,,,0.000000,4.000000,4.000000,4.000000,4.000000,4.000000,2.000000,4.000000,4.000000,4.000000,4.000000,4.000000,4.000000,4.000000,4.000000,4.000000,4.000000,4.000000,4.000000,4.000000,2.000000,4.000000,4.000000,4.000000,4.000000,4.000000,4.000000,4.000000,4.000000,4.000000,4.000000,4.000000,4.000000,66.666664
1613870923.725116,48.000000,0.000000,4.480894,7.588333,-11.243962,3.205139,3.921082,14.099760,4.005874,2.073110,0.637814,22.222454,3.307402,4.651848,-10.361305,-80.729187,-12.920530,-80.786087,8.498616,23.683794,14.270961,4.444655,0.143877,5.624519,12.688481,-6.765514,9.679312,1.506010,-1.015968,-1.723560,-3.102305,4.282056,7.571439,-25.916649,8064.000000,0.000000,4.000000,,,,0.000000,4.000000,4.000000,4.000000,4.000000,4.000000,2.000000,4.000000,4.000000,4.000000,4.000000,4.000000,4.000000,4.000000,4.000000,4.000000,4.000000,4.000000,4.000000,4.000000,2.000000,4.000000,4.000000,4.000000,4.000000,4.000000,4.000000,4.000000,4.000000,4.000000,4.000000,4.000000,4.000000,66.666664
1613870923.732765,49.000000,0.000000,4.476413,7.580744,-0.976308,2.176292,6.994084,12.034378,1.950586,2.071037,4.739740,22.200232,0.227172,4.647196,-19.581713,-81.161278,-22.138378,-85.320686,-2.791934,16.480623,10.666945,8.029954,5.784759,3.567613,11.137332,-3.681825,16.336298,10.222453,-1.014952,0.329445,-0.022280,15.559825,7.563868,-23.326630,8064.000000,0.000000,4.000000,,,,0.000000,4.000000,4.000000,4.000000,4.000000,4.000000,2.000000,4.000000,4.000000,4.000000,4.000000,4.000000,4.000000,4.000000,4.000000,4.000000,4.000000,4.000000,4.000000,4.000000,2.000000,4.000000,4.000000,4.000000,4.000000,4.000000,4.000000,4.000000,4.000000,4.000000,4.000000,4.000000,4.000000,66.666664
1613870923.740514,50.000000,0.000000,4.471936,7.573164,-4.052255,2.174116,8.525552,12.022344,1.435814,2.068965,7.811924,21.665211,-0.798696,4.642549,-17.510849,-75.951912,-10.321368,-72.927673,4.390345,38.002605,21.425510,9.560386,13.984102,6.128148,12.664656,4.014164,16.832783,9.699410,-1.013937,1.867577,1.516204,18.621189,7.556304,-24.328945,8064.000000,0.000000,4.000000,,,,0.000000,4.000000,4.000000,4.000000,4.000000,4.000000,2.000000,4.000000,4.000000,4.000000,4.000000,4.000000,4.000000,4.000000,4.000000,4.000000,4.000000,4.000000,4.000000,4.000000,2.000000,4.000000,4.000000,4.000000,4.000000,4.000000,4.000000,4.000000,4.000000,4.000000,4.000000,4.000000,4.000000,66.666664
1613870923.748163,51.000000,0.000000,4.980285,7.565590,-16.355894,3.197583,8.004206,12.523142,0.408738,2.066896,5.240009,21.643545,3.817487,4.125086,-8.262569,-68.183647,3.022286,-61.572693,9.001339,60.015884,32.173313,11.089287,27.303452,8.173302,15.216094,14.779381,15.790309,8.151249,-1.012923,1.352889,-0.536594,17.064106,7.548748,-26.868719,8064.000000,0.000000,4.000000,,,,0.000000,4.000000,4.000000,4.000000,4.000000,4.000000,2.000000,4.000000,4.000000,4.000000,4.000000,4.000000,4.000000,4.000000,4.000000,4.000000,4.000000,4.000000,4.000000,4.000000,2.000000,4.000000,4.000000,4.000000,4.000000,4.000000,4.000000,4.000000,4.000000,4.000000,4.000000,4.000000,4.000000,66.666664
1613870923.755912,52.000000,0.000000,2.924022,7.558025,-23.006205,1.655924,6.457740,11.997798,-2.155774,2.064830,3.183487,22.647543,6.890593,4.120961,-7.228666,-64.525719,4.557725,-65.100861,5.915415,49.186638,23.936014,12.616659,33.942814,8.677949,15.713698,19.892807,16.287340,9.681560,-1.011910,1.351536,1.002404,17.559862,7.541199,-27.867491,8064.000000,0.000000,4.000000,,,,0.000000,4.000000,4.000000,4.000000,4.000000,4.000000,2.000000,4.000000,4.000000,4.000000,4.000000,4.000000,4.000000,4.000000,4.000000,4.000000,4.000000,4.000000,4.000000,4.000000,2.000000,4.000000,4.000000,4.000000,4.000000,4.000000,4.000000,4.000000,4.000000,4.000000,4.000000,4.000000,4.000000,66.666664
1613870923.763562,53.000000,0.000000,0.869816,7.550467,-25.034481,-0.397014,4.912820,11.985801,-2.666438,2.062765,3.693124,20.573614,6.370882,4.629660,-8.247078,-67.538116,1.989065,-78.881912,6.935141,24.522066,4.424898,15.680965,27.755026,6.105168,15.697985,18.847273,16.271051,9.159058,-1.010898,1.350185,2.027043,18.055122,7.533658,-26.301163,8064.000000,0.000000,4.000000,,,,0.000000,4.000000,4.000000,4.000000,4.000000,4.000000,2.000000,4.000000,4.000000,4.000000,4.000000,4.000000,4.000000,4.000000,4.000000,4.000000,4.000000,4.000000,4.000000,4.000000,2.000000,4.000000,4.000000,4.000000,4.000000,4.000000,4.000000,4.000000,4.000000,4.000000,4.000000,4.000000,4.000000,66.666664
1613870923.771311,54.000000,0.000000,0.356126,7.542916,-28.086370,-1.422258,4.395087,12.486635,-2.150951,2.060702,3.689431,18.501759,5.851690,4.112210,-7.213190,-70.547508,-2.628309,-84.444061,7.441026,19.369339,-1.733373,10.024259,19.522142,-2.618886,13.118184,16.777143,15.229140,7.611437,-1.009887,1.348835,-7.205754,15.472965,7.526124,-31.403067,8064.000000,0.000000,4.000000,,,,0.000000,4.000000,4.000000,4.000000,4.000000,4.000000,2.000000,4.000000,4.000000,4.000000,4.000000,4.000000,4.000000,4.000000,4.000000,4.000000,4.000000,4.000000,4.000000,4.000000,2.000000,4.000000,4.000000,4.000000,4.000000,4.000000,4.000000,4.000000,4.000000,4.000000,4.000000,4.000000,4.000000,66.666664
1613870923.778960,55.000000,0.000000,0.868591,7.535373,-29.083925,-0.908015,4.903512,12.986969,-2.148800,2.571462,6.249845,20.021717,6.358659,4.108098,-8.231618,-65.861572,-8.266706,-80.769875,3.843841,22.426893,-0.193178,-14.601151,11.297492,-11.334215,6.951220,14.196263,15.726731,5.039723,-1.008878,1.347486,-12.839574,13.406210,7.518598,-35.474228,8064.000000,0.000000,4.000000,,,,0.000000,4.000000,4.000000,4.000000,4.000000,4.000000,2.000000,4.000000,4.000000,4.000000,4.000000,4.000000,4.000000,4.000000,4.000000,4.000000,4.000000,4.000000,4.000000,4.000000,2.000000,4.000000,4.000000,4.000000,4.000000,4.000000,4.000000,4.000000,4.000000,4.000000,4.000000,4.000000,4.000000,66.666664
1613870923.786709,56.000000,0.000000,0.867722,7.527838,-28.542021,-0.394287,6.949891,12.461162,-2.146652,1.543249,7.269236,22.052979,10.454865,7.693733,-2.069540,-55.539299,-5.181516,-79.663460,8.455382,17.276260,-1.731447,-32.022446,5.645169,-12.861342,2.841704,6.489760,15.198184,4.009042,-2.033510,1.346138,-5.134426,12.879983,7.511079,-28.259266,8064.000000,0.000000,4.000000,,,,0.000000,4.000000,4.000000,4.000000,4.000000,4.000000,2.000000,4.000000,4.000000,4.000000,4.000000,4.000000,4.000000,4.000000,4.000000,4.000000,4.000000,4.000000,4.000000,4.000000,2.000000,4.000000,4.000000,4.000000,4.000000,4.000000,4.000000,4.000000,4.000000,4.000000,4.000000,4.000000,4.000000,66.666664
1613870923.794358,57.000000,0.000000,0.866854,7.520310,-28.000658,-0.906713,8.994224,11.935880,-2.144505,2.567347,4.697864,22.030926,16.598255,11.275784,11.265862,-49.329914,6.105717,-70.865845,17.164875,27.002575,6.475413,-14.554526,9.229267,-10.797199,4.890145,2.380706,14.670165,4.517853,-1.005835,1.344792,2.050195,13.379924,7.503568,-25.154083,8064.000000,0.000000,4.000000,,,,0.000000,4.000000,4.000000,4.000000,4.000000,4.000000,2.000000,4.000000,4.000000,4.000000,4.000000,4.000000,4.000000,4.000000,4.000000,4.000000,4.000000,4.000000,4.000000,4.000000,2.000000,4.000000,4.000000,4.000000,4.000000,4.000000,4.000000,4.000000,4.000000,4.000000,4.000000,4.000000,4.000000,66.666664
1613870923.802107,58.000000,0.000000,0.865987,7.512790,-27.972656,-1.418627,8.472408,12.949585,-2.142360,5.128882,3.154704,22.008894,18.120119,12.802969,16.382803,-49.793407,13.279099,-52.846264,20.224634,46.975571,22.366373,8.536951,13.322602,-12.324863,7.449357,8.532171,16.706778,7.590259,2.584914,1.343447,0.509684,13.366544,7.496065,-33.334057,8192.000000,0.000000,4.000000,,,,0.000000,4.000000,4.000000,4.000000,4.000000,4.000000,2.000000,4.000000,4.000000,4.000000,4.000000,4.000000,4.000000,4.000000,4.000000,4.000000,4.000000,4.000000,4.000000,4.000000,2.000000,4.000000,4.000000,4.000000,4.000000,4.000000,4.000000,4.000000,4.000000,4.000000,4.000000,4.000000,4.000000,66.666664
1613870923.809756,59.000000,0.000000,0.865121,5.966815,-27.431864,0.121253,8.976756,12.423815,-2.140218,4.098113,3.664370,20.961245,16.563538,14.841448,16.366419,-53.333355,11.727358,-54.331879,17.640306,42.826031,25.420931,11.092517,13.309279,-9.235616,7.954728,14.677485,19.766994,10.146771,2.582329,1.342104,-0.516467,13.353177,8.001390,-32.787903,8064.000000,0.000000,4.000000,,,,0.000000,4.000000,4.000000,4.000000,4.000000,4.000000,2.000000,4.000000,4.000000,4.000000,4.000000,4.000000,4.000000,4.000000,4.000000,4.000000,4.000000,4.000000,4.000000,4.000000,2.000000,4.000000,4.000000,4.000000,4.000000,4.000000,4.000000,4.000000,4.000000,4.000000,4.000000,4.000000,4.000000,66.666664
1613870923.817605,60.000000,0.000000,0.864256,3.909567,-26.891611,-0.391688,9.993421,6.257545,-2.138078,-1.034191,3.660706,18.889002,13.470051,15.339427,12.247489,-64.562073,6.587425,-71.200623,16.597025,30.988335,23.344227,8.517322,19.449816,5.645415,7.946774,14.149987,19.747227,7.572522,2.066926,1.340762,1.535331,13.852645,8.506208,-26.601269,8064.000000,0.000000,4.000000,,,,0.000000,4.000000,4.000000,4.000000,4.000000,4.000000,2.000000,4.000000,4.000000,4.000000,4.000000,4.000000,4.000000,4.000000,4.000000,4.000000,4.000000,4.000000,4.000000,4.000000,2.000000,4.000000,4.000000,4.000000,4.000000,4.000000,4.000000,4.000000,4.000000,4.000000,4.000000,4.000000,4.000000,66.666664
1613870923.825354,61.000000,0.000000,0.863392,3.905657,-27.890360,-6.032322,5.368043,1.123082,-2.135940,-2.571618,3.144225,18.357292,7.302734,16.349730,0.440369,-76.292381,1.452633,-72.667885,16.067608,42.239399,30.500370,11.072906,31.225239,18.460281,7.938827,15.674299,20.240299,11.667513,9.244347,1.339421,1.020976,13.325972,6.959240,-32.215694,8192.000000,0.000000,4.000000,,,,0.000000,4.000000,4.000000,4.000000,4.000000,4.000000,2.000000,4.000000,4.000000,4.000000,4.000000,4.000000,4.000000,4.000000,4.000000,4.000000,4.000000,4.000000,4.000000,4.000000,2.000000,4.000000,4.000000,4.000000,4.000000,4.000000,4.000000,4.000000,4.000000,4.000000,4.000000,4.000000,4.000000,66.666664
1613870923.833203,62.000000,0.000000,0.862529,3.901752,-27.349649,-8.077572,1.772931,1.121959,-2.133804,-1.543406,4.679542,17.313293,2.680047,15.820559,-10.329302,-82.369934,-8.292410,-73.620857,12.461797,45.786900,34.059612,12.600295,34.783756,17.929001,7.930888,20.786829,27.912367,25.501999,14.876128,1.338082,0.507134,13.825466,7.977922,-31.157837,8064.000000,0.000000,4.000000,,,,0.000000,4.000000,4.000000,4.000000,4.000000,4.000000,2.000000,4.000000,4.000000,4.000000,4.000000,4.000000,4.000000,4.000000,4.000000,4.000000,4.000000,4.000000,4.000000,4.000000,2.000000,4.000000,4.000000,4.000000,4.000000,4.000000,4.000000,4.000000,4.000000,4.000000,4.000000,4.000000,4.000000,66.666664
1613870923.840952,63.000000,0.000000,0.861666,4.410670,-26.809479,-4.992571,4.848081,1.633658,-2.131670,-2.567503,7.238965,14.731877,1.138906,9.650892,-13.395895,-86.902954,-20.591810,-90.470314,5.782668,27.279575,26.846067,11.049233,30.133589,12.270046,7.922957,23.330145,33.012661,23.938036,10.758688,1.336744,1.532268,14.324461,8.482765,-23.947191,8064.000000,0.000000,4.000000,,,,0.000000,4.000000,4.000000,4.000000,4.000000,4.000000,2.000000,4.000000,4.000000,4.000000,4.000000,4.000000,4.000000,4.000000,4.000000,4.000000,4.000000,4.000000,4.000000,4.000000,2.000000,4.000000,4.000000,4.000000,4.000000,4.000000,4.000000,4.000000,4.000000,4.000000,4.000000,4.000000,4.000000,66.666664
1613870923.848801,64.000000,0.000000,0.860804,3.380619,-31.910875,-7.038861,2.279131,1.119203,-2.129539,-0.513654,6.206085,14.204325,3.189049,4.513036,-12.356858,-83.739128,-18.007114,-87.302917,1.674321,26.739475,21.691015,10.012544,23.949608,8.155212,7.915034,22.793995,22.723238,7.503841,5.619724,1.335407,-0.007726,10.207572,0.269154,-35.718117,0.000000,168.000000,4.000000,,,,0.000000,4.000000,4.000000,4.000000,4.000000,4.000000,2.000000,4.000000,4.000000,4.000000,4.000000,4.000000,4.000000,4.000000,4.000000,4.000000,4.000000,4.000000,4.000000,4.000000,2.000000,4.000000,4.000000,4.000000,4.000000,4.000000,4.000000,4.000000,4.000000,4.000000,4.000000,4.000000,4.000000,66.666664
1613870923.856551,65.000000,0.000000,0.859944,-1.238147,-40.596912,-12.160028,-5.928277,1.118084,-2.127409,4.102245,3.635776,14.702941,9.339705,7.072625,-2.088091,-63.655388,-1.578852,-61.574593,5.775211,39.533249,19.618042,10.515351,18.797455,4.557313,7.907119,19.694277,5.777437,-0.708790,6.126925,1.334071,-6.674385,3.017878,-11.013166,-53.118294,0.000000,190.000000,4.000000,,,,0.000000,4.000000,4.000000,4.000000,4.000000,4.000000,2.000000,4.000000,4.000000,4.000000,4.000000,4.000000,4.000000,4.000000,4.000000,4.000000,4.000000,4.000000,4.000000,4.000000,2.000000,4.000000,4.000000,4.000000,4.000000,4.000000,4.000000,4.000000,4.000000,4.000000,4.000000,4.000000,4.000000,66.666664
1613870923.864399,66.000000,0.000000,0.859084,-3.801011,-44.146061,-12.147867,-5.409528,1.116966,-2.125282,6.662245,3.119320,13.662598,13.945751,8.091194,5.606304,-50.771217,1.499650,-64.589943,7.820718,24.621922,16.008680,8.966374,17.240194,3.014295,7.899212,15.572020,-1.407828,0.830380,6.633618,1.332737,-11.795916,0.450757,-11.514974,-52.552357,0.000000,197.000000,4.000000,,,,0.000000,4.000000,4.000000,4.000000,4.000000,4.000000,2.000000,4.000000,4.000000,4.000000,4.000000,4.000000,4.000000,4.000000,4.000000,4.000000,4.000000,4.000000,4.000000,4.000000,2.000000,4.000000,4.000000,4.000000,4.000000,4.000000,4.000000,4.000000,4.000000,4.000000,4.000000,4.000000,4.000000,66.666664
1613870923.872149,67.000000,0.000000,0.858225,-3.284389,-41.537811,-11.110078,0.749728,1.628670,-2.123156,5.629942,3.629021,15.700216,13.418984,7.570282,-2.604430,-55.848652,-10.296721,-92.217659,3.197512,3.571658,13.428570,-3.350284,17.735775,3.524101,7.891313,14.017985,0.132042,-2.247374,5.601344,1.331405,-10.758478,3.014409,-7.400895,-47.884418,0.000000,192.000000,4.000000,,,,0.000000,4.000000,4.000000,4.000000,4.000000,4.000000,2.000000,4.000000,4.000000,4.000000,4.000000,4.000000,4.000000,4.000000,4.000000,4.000000,4.000000,4.000000,4.000000,4.000000,2.000000,4.000000,4.000000,4.000000,4.000000,4.000000,4.000000,4.000000,4.000000,4.000000,4.000000,4.000000,4.000000,66.666664
1613870923.879998,68.000000,0.000000,0.857366,-4.306746,-39.444992,-11.611789,1.261799,2.139862,-2.121033,5.624312,3.625392,20.812721,14.431207,11.665276,2.526379,-47.587677,-3.106937,-87.510056,5.245597,16.388599,13.927961,-17.705908,18.230860,3.520577,7.883421,14.516788,3.721653,-3.783588,5.595742,1.330073,-9.722079,3.011395,-6.880673,-49.887817,0.000000,190.000000,4.000000,,,,0.000000,4.000000,4.000000,4.000000,4.000000,4.000000,4.000000,4.000000,4.000000,4.000000,4.000000,4.000000,4.000000,4.000000,4.000000,4.000000,4.000000,4.000000,4.000000,4.000000,2.000000,4.000000,4.000000,4.000000,4.000000,4.000000,4.000000,4.000000,4.000000,4.000000,4.000000,4.000000,4.000000,83.333336
1613870923.887747,69.000000,0.000000,0.856509,-6.866542,-39.405548,-11.600177,1.260537,0.599260,-2.118912,6.131508,3.621767,22.330370,21.596262,16.268995,27.139238,-23.950344,25.101297,-54.602036,19.599325,41.500416,14.426854,-17.175383,16.674168,4.029877,7.875538,14.502272,1.666650,-2.241343,6.102967,1.328743,-11.763639,-2.119822,-7.899434,-47.273827,0.000000,189.000000,4.000000,,,,0.000000,4.000000,4.000000,4.000000,4.000000,4.000000,4.000000,4.000000,4.000000,4.000000,4.000000,4.000000,4.000000,4.000000,4.000000,4.000000,4.000000,4.000000,4.000000,4.000000,2.000000,4.000000,4.000000,4.000000,4.000000,4.000000,4.000000,4.000000,4.000000,4.000000,4.000000,4.000000,4.000000,83.333336
1613870923.895596,70.000000,0.000000,0.855652,-7.372496,-37.827679,-12.101398,4.336199,3.162763,-2.116793,6.125376,3.618145,22.820860,25.677231,15.739905,34.291584,-17.259727,37.896709,-35.573074,27.272034,47.099941,17.489349,-3.312053,14.093390,4.025847,7.867662,14.487769,-0.899120,-3.777563,6.096864,1.327414,-9.187773,-4.168984,-7.378714,-42.098347,0.000000,200.000000,4.000000,,,,0.000000,4.000000,4.000000,4.000000,4.000000,4.000000,4.000000,4.000000,4.000000,4.000000,4.000000,4.000000,4.000000,4.000000,4.000000,4.000000,4.000000,4.000000,4.000000,4.000000,2.000000,4.000000,4.000000,4.000000,4.000000,4.000000,4.000000,4.000000,4.000000,4.000000,4.000000,4.000000,4.000000,83.333336
1613870923.903345,71.000000,0.000000,0.854797,-6.852303,-32.661648,-11.576475,6.383145,8.287806,-2.114676,5.606431,3.614527,23.310860,22.574631,15.724166,24.513704,-26.473238,27.602402,-39.127243,22.116556,45.514381,19.010323,7.973310,15.617759,4.021821,7.859795,13.447640,9.871010,-1.209683,6.090767,1.326087,-1.486277,2.501852,-6.345694,-40.517788,0.000000,186.000000,4.000000,,,,0.000000,4.000000,4.000000,4.000000,4.000000,4.000000,4.000000,4.000000,4.000000,4.000000,4.000000,4.000000,4.000000,4.000000,4.000000,4.000000,4.000000,4.000000,4.000000,4.000000,2.000000,4.000000,4.000000,4.000000,4.000000,4.000000,4.000000,4.000000,4.000000,4.000000,4.000000,4.000000,4.000000,83.333336
1613870923.911194,72.000000,0.000000,0.853942,-6.845451,-30.064882,-11.052078,5.351121,6.228236,-2.112562,3.036721,3.610912,15.595242,15.885388,15.195621,16.796883,-38.754456,15.267108,-44.216320,14.402133,47.007328,16.427210,9.503798,13.550859,4.530620,7.851935,11.382911,22.681652,6.996655,6.084677,1.324761,1.079311,7.627555,-6.339348,-40.990089,0.000000,198.000000,4.000000,,,,0.000000,4.000000,4.000000,4.000000,4.000000,4.000000,4.000000,4.000000,4.000000,4.000000,4.000000,4.000000,4.000000,4.000000,4.000000,4.000000,4.000000,4.000000,4.000000,4.000000,2.000000,4.000000,4.000000,4.000000,4.000000,4.000000,4.000000,4.000000,4.000000,4.000000,4.000000,4.000000,4.000000,83.333336
1613870923.918943,73.000000,0.000000,0.853088,-6.838605,-30.547638,-13.605129,3.807308,2.119444,-2.110449,1.495223,3.607301,8.400159,6.125914,11.077862,-1.168632,-62.305447,-0.132775,-58.018257,3.618500,39.268013,15.385141,3.853269,0.203975,0.423525,8.356904,10.345887,15.479484,8.015300,6.078592,1.323436,-2.511511,6.081466,-7.871470,-41.974743,0.000000,199.000000,4.000000,,,,0.000000,4.000000,4.000000,4.000000,4.000000,4.000000,4.000000,4.000000,4.000000,4.000000,4.000000,4.000000,4.000000,4.000000,4.000000,4.000000,4.000000,4.000000,4.000000,4.000000,2.000000,4.000000,4.000000,4.000000,4.000000,4.000000,4.000000,4.000000,4.000000,4.000000,4.000000,4.000000,4.000000,83.333336
1613870923.926592,74.000000,0.000000,0.852235,-6.831767,-27.440166,-14.104344,5.854783,3.142965,-2.108339,2.006549,4.116515,6.853298,-8.752007,4.912937,-28.346951,-91.986732,-27.824949,-86.678192,-8.692811,21.792847,11.267192,-1.791610,-9.026999,-10.346129,6.810085,10.848361,4.181952,1.853438,6.072513,1.322113,-3.534641,6.588205,-4.273856,-40.394306,0.000000,202.000000,4.000000,,,,0.000000,4.000000,4.000000,4.000000,4.000000,4.000000,4.000000,4.000000,4.000000,4.000000,4.000000,4.000000,4.000000,4.000000,4.000000,4.000000,4.000000,4.000000,4.000000,4.000000,2.000000,4.000000,4.000000,4.000000,4.000000,4.000000,4.000000,4.000000,4.000000,4.000000,4.000000,4.000000,4.000000,83.333336
1613870923.934341,75.000000,0.000000,0.851383,-6.824935,-26.899906,-9.987676,3.797646,5.703925,-2.106230,2.004542,3.086757,-0.845863,-18.999666,-0.220181,-37.036552,-114.458847,-47.797127,-108.642792,-12.786682,9.976182,-2.590229,-3.841100,-9.017971,-18.028091,4.751993,11.350333,3.664950,0.825944,6.066441,1.320791,-1.992645,7.094437,2.909906,-35.738525,0.000000,220.000000,4.000000,,,,0.000000,4.000000,4.000000,4.000000,4.000000,4.000000,4.000000,4.000000,4.000000,4.000000,4.000000,4.000000,4.000000,4.000000,4.000000,4.000000,4.000000,4.000000,4.000000,4.000000,2.000000,4.000000,4.000000,4.000000,4.000000,4.000000,4.000000,4.000000,4.000000,4.000000,4.000000,4.000000,4.000000,83.333336
1613870923.941990,76.000000,0.000000,0.850531,-6.818110,-32.514030,-7.926406,-9.026665,4.672580,-2.104124,2.002537,0.519568,-11.101428,-20.519127,0.292860,-33.409771,-129.216187,-49.800610,-113.149536,-12.261075,7.402103,-13.356870,-4.350080,-14.137158,-18.522882,3.208780,9.287702,5.199747,2.363579,6.060374,1.319470,-3.016293,1.959137,1.881355,-35.702789,0.000000,198.000000,4.000000,,,,0.000000,4.000000,4.000000,4.000000,4.000000,4.000000,4.000000,4.000000,4.000000,4.000000,4.000000,4.000000,4.000000,4.000000,4.000000,4.000000,4.000000,4.000000,4.000000,4.000000,2.000000,4.000000,4.000000,4.000000,4.000000,4.000000,4.000000,4.000000,4.000000,4.000000,4.000000,4.000000,4.000000,83.333336
1613870923.949739,77.000000,0.000000,0.849681,-6.811292,-35.045620,-8.431300,-15.684304,4.667907,-2.102020,2.000535,-0.506593,-13.654429,-21.524250,2.856670,-34.914825,-134.215164,-48.725166,-117.651772,-11.223173,3.804957,-11.805051,-4.345729,-15.148663,-19.530001,4.231212,7.227131,3.656085,-2.254169,6.054314,1.318150,-5.577379,-1.632565,-3.761552,-40.282471,0.000000,211.000000,4.000000,,,,0.000000,4.000000,4.000000,4.000000,4.000000,4.000000,4.000000,4.000000,4.000000,4.000000,4.000000,4.000000,4.000000,4.000000,4.000000,4.000000,4.000000,4.000000,4.000000,4.000000,2.000000,4.000000,4.000000,4.000000,4.000000,4.000000,4.000000,4.000000,4.000000,4.000000,4.000000,4.000000,4.000000,83.333336
1613870923.957388,78.000000,0.000000,0.848831,-6.804481,-31.420832,-7.910048,-2.335287,4.663239,-2.099918,1.485714,0.006734,-11.076672,-17.912981,3.366633,-30.777346,-119.721977,-44.061058,-119.585403,-11.724771,-0.814232,-3.588118,-4.854204,-3.338642,-18.484831,4.226981,7.732725,4.165250,-5.841659,6.048260,1.316832,-7.110263,-1.118112,-3.757791,-41.780647,0.000000,242.000000,4.000000,,,,0.000000,4.000000,4.000000,4.000000,4.000000,4.000000,4.000000,4.000000,4.000000,4.000000,4.000000,4.000000,4.000000,4.000000,4.000000,4.000000,4.000000,4.000000,4.000000,4.000000,2.000000,4.000000,4.000000,4.000000,4.000000,4.000000,4.000000,4.000000,4.000000,4.000000,4.000000,4.000000,4.000000,83.333336
1613870923.965138,79.000000,0.000000,1.360803,-7.310496,-31.389410,-8.414959,8.949100,5.684217,-2.610639,3.022690,-0.506093,-1.834826,-3.023273,7.465831,-13.310670,-86.781746,-25.555458,-102.029915,-12.225866,6.366069,8.210342,-9.464735,6.408287,-10.261217,3.197113,7.724992,4.161085,-6.348637,6.042212,1.315515,-6.590333,-4.706738,-3.241213,-42.251690,0.000000,169.000000,4.000000,,,,0.000000,4.000000,4.000000,4.000000,4.000000,4.000000,4.000000,4.000000,4.000000,4.000000,4.000000,4.000000,4.000000,4.000000,4.000000,4.000000,4.000000,4.000000,4.000000,4.000000,2.000000,4.000000,4.000000,4.000000,4.000000,4.000000,4.000000,4.000000,4.000000,4.000000,4.000000,4.000000,4.000000,83.333336
1613870923.972787,80.000000,0.000000,0.846622,-6.277545,-32.383663,-7.380903,7.401689,10.293918,-1.582387,5.583770,0.520054,11.500342,10.825904,14.637853,1.574435,-58.489838,-7.581185,-80.389427,-5.034153,23.795601,21.022644,-15.096295,9.991622,-2.558648,5.758018,6.691626,5.695385,-6.855109,6.036169,1.314200,-6.583743,-9.317415,-3.750792,-39.132515,0.000000,190.000000,4.000000,,,,0.000000,4.000000,4.000000,4.000000,4.000000,4.000000,4.000000,4.000000,4.000000,4.000000,4.000000,4.000000,4.000000,4.000000,4.000000,4.000000,4.000000,4.000000,4.000000,4.000000,2.000000,4.000000,4.000000,4.000000,4.000000,4.000000,4.000000,4.000000,4.000000,4.000000,4.000000,4.000000,4.000000,83.333336
1613870923.980536,81.000000,0.000000,0.845775,-3.707165,-21.582048,3.395709,15.599416,15.411829,0.983298,5.578186,3.083637,16.104227,11.327898,16.161676,7.213887,-50.739040,-1.419758,-75.180832,4.714471,32.489754,24.078545,-14.568378,14.597014,-3.068910,10.367644,11.300319,13.381997,-1.720049,6.030133,1.312886,-6.577158,-4.179893,1.893985,-28.836971,0.000000,194.000000,4.000000,,,,0.000000,4.000000,4.000000,4.000000,4.000000,4.000000,4.000000,4.000000,4.000000,4.000000,4.000000,4.000000,4.000000,4.000000,4.000000,4.000000,4.000000,4.000000,4.000000,4.000000,2.000000,4.000000,4.000000,4.000000,4.000000,4.000000,4.000000,4.000000,4.000000,4.000000,4.000000,4.000000,4.000000,83.333336
