title:35, start timestamp:1613872725.809073, stop timestamp:1613872771.814666, headset type:EPOCFLEX, headset serial:F00001ED, headset firmware:f12, subject name:s02, channels:75, sampling rate:128, samples:5938      , version:2.0
Timestamp,EEG.Counter,EEG.Interpolated,EEG.Cz,EEG.Fz,EEG.Fp1,EEG.AF3,EEG.F7,EEG.F3,EEG.FC1,EEG.C3,EEG.FC5,EEG.T7,EEG.CP5,EEG.CP1,EEG.P3,EEG.P7,EEG.PO3,EEG.O1,EEG.Pz,EEG.Oz,EEG.O2,EEG.PO4,EEG.P8,EEG.P4,EEG.CP2,EEG.CP6,EEG.T8,EEG.FC6,EEG.C4,EEG.FC2,EEG.F4,EEG.F8,EEG.AF4,EEG.Fp2,EEG.HighBitFlex,EEG.RawCq,EEG.Battery,MarkerIndex,MarkerType,MarkerValueInt,EEG.MarkerHardware,CQ.Cz,CQ.Fz,CQ.Fp1,CQ.AF3,CQ.F7,CQ.F3,CQ.FC1,CQ.C3,CQ.FC5,CQ.T7,CQ.CP5,CQ.CP1,CQ.P3,CQ.P7,CQ.PO3,CQ.O1,CQ.Pz,CQ.Oz,CQ.O2,CQ.PO4,CQ.P8,CQ.P4,CQ.CP2,CQ.CP6,CQ.T8,CQ.FC6,CQ.C4,CQ.FC2,CQ.F4,CQ.F8,CQ.AF4,CQ.Fp2,CQ.Overall
1613872725.809073,29.000000,0.000000,-6.288028,-2.915524,-4.088626,-8.284764,-42.574760,-8.796391,-7.103487,-5.318357,-14.864826,-17.421154,-0.362829,-7.945150,-0.127732,-45.889690,4.753802,-18.309376,10.549637,15.834143,45.733849,17.117390,-8.206505,-15.427310,-7.425595,-14.180033,-20.532444,-1.451495,19.906239,5.180047,17.394632,-3.332427,-1.272438,-73.099648,0.000000,222.000000,4.000000,,,,0.000000,4.000000,4.000000,4.000000,4.000000,4.000000,4.000000,4.000000,4.000000,4.000000,4.000000,4.000000,4.000000,4.000000,4.000000,4.000000,4.000000,2.000000,4.000000,4.000000,4.000000,4.000000,4.000000,4.000000,4.000000,4.000000,4.000000,4.000000,4.000000,4.000000,4.000000,4.000000,4.000000,83.333336
1613872725.816722,30.000000,0.000000,-5.768919,-1.374147,-4.597358,-8.276480,-41.506542,-6.223492,-7.096383,-5.313038,-13.311500,-14.839631,4.252919,-4.347461,5.000601,-40.202778,5.774689,-13.675682,23.359600,23.510616,53.380421,29.920786,8.211958,-8.232395,-7.930990,-3.396622,-9.742681,0.601239,21.937614,8.251790,16.864418,0.260649,-0.758345,-72.000908,0.000000,219.000000,4.000000,,,,0.000000,4.000000,4.000000,4.000000,4.000000,4.000000,4.000000,4.000000,4.000000,4.000000,4.000000,4.000000,4.000000,4.000000,4.000000,4.000000,4.000000,2.000000,4.000000,4.000000,4.000000,4.000000,4.000000,4.000000,4.000000,4.000000,4.000000,4.000000,4.000000,4.000000,4.000000,4.000000,4.000000,83.333336
1613872725.824472,31.000000,0.000000,-3.711869,1.704150,-4.592761,-8.268203,-34.798370,-6.730089,-7.089287,-5.307725,-11.246906,-9.183766,7.325589,-1.779011,8.072523,-37.598473,8.333017,-10.072263,20.772139,25.538387,53.839863,30.403685,13.331951,-0.019035,-7.923059,14.042672,-2.553450,0.600638,22.428497,14.910205,17.360374,3.337311,-0.757587,-66.800697,0.000000,195.000000,4.000000,,,,0.000000,4.000000,4.000000,4.000000,4.000000,4.000000,4.000000,4.000000,4.000000,4.000000,4.000000,4.000000,4.000000,4.000000,4.000000,4.000000,4.000000,2.000000,4.000000,4.000000,4.000000,4.000000,4.000000,4.000000,4.000000,4.000000,4.000000,4.000000,4.000000,4.000000,4.000000,4.000000,4.000000,83.333336
1613872725.832121,32.000000,0.000000,-1.144054,-0.348836,-4.075347,-7.747114,-30.148188,-6.723359,-7.082198,-5.302417,-11.235660,-5.072018,7.318263,-2.290053,3.961887,-36.535233,8.837504,-9.036550,18.700085,25.000029,52.247562,25.757896,9.216056,2.032266,-7.915136,20.695295,-4.089358,0.600037,22.918888,15.408115,17.343014,4.359615,-0.756830,-64.682617,8064.000000,0.000000,4.000000,,,,0.000000,4.000000,4.000000,4.000000,4.000000,4.000000,4.000000,4.000000,4.000000,4.000000,4.000000,4.000000,4.000000,4.000000,4.000000,4.000000,4.000000,2.000000,4.000000,4.000000,4.000000,4.000000,4.000000,4.000000,4.000000,4.000000,4.000000,4.000000,4.000000,4.000000,4.000000,4.000000,4.000000,83.333336
1613872725.839870,33.000000,0.000000,0.395551,-1.374128,-4.071272,-7.739367,-31.143681,-7.229455,-7.075115,-5.297115,-11.737245,-6.092587,6.285304,-2.287762,-0.144639,-46.242287,-4.504666,-16.719820,20.219845,23.949389,45.015827,28.296242,-1.049571,0.491773,-5.855939,19.648960,-4.085269,1.112257,25.460073,16.418348,16.300030,4.355256,-0.756073,-64.617935,8064.000000,0.000000,4.000000,,,,0.000000,4.000000,4.000000,4.000000,4.000000,4.000000,4.000000,4.000000,4.000000,4.000000,4.000000,4.000000,4.000000,4.000000,4.000000,4.000000,4.000000,2.000000,4.000000,4.000000,4.000000,4.000000,4.000000,4.000000,4.000000,4.000000,4.000000,4.000000,4.000000,4.000000,4.000000,4.000000,4.000000,83.333336
1613872725.847519,34.000000,0.000000,1.933617,3.242630,-4.067201,-8.244449,-30.599716,-7.222226,-7.068040,-5.291818,-11.725507,-6.599315,7.304659,-2.798295,-1.682956,-60.555019,-20.910418,-34.139000,7.891933,15.720310,36.252861,26.729485,-4.125444,1.004101,-3.798801,20.654951,-0.491440,0.598325,26.973074,23.068596,17.822191,2.812439,-0.242496,-58.399467,8064.000000,0.000000,4.000000,,,,0.000000,4.000000,4.000000,4.000000,4.000000,4.000000,4.000000,4.000000,4.000000,4.000000,4.000000,4.000000,4.000000,4.000000,4.000000,4.000000,4.000000,2.000000,4.000000,4.000000,4.000000,4.000000,4.000000,4.000000,4.000000,4.000000,4.000000,4.000000,4.000000,4.000000,4.000000,4.000000,4.000000,83.333336
1613872725.855268,35.000000,0.000000,1.418863,5.290670,-4.575954,-7.723383,-26.979372,-4.138081,-7.060972,-5.799346,-11.713781,-6.079895,5.246073,-2.282676,-6.809478,-66.648308,-26.017714,-50.515114,1.217375,3.909719,33.652508,21.574549,-3.095678,1.515918,-3.282182,20.121477,0.534692,0.597726,26.433281,15.353220,24.471035,5.373729,-0.755074,-52.187222,8064.000000,0.000000,4.000000,,,,0.000000,4.000000,4.000000,4.000000,4.000000,4.000000,4.000000,4.000000,4.000000,4.000000,4.000000,4.000000,4.000000,4.000000,4.000000,4.000000,4.000000,2.000000,4.000000,4.000000,4.000000,4.000000,4.000000,4.000000,4.000000,4.000000,4.000000,4.000000,4.000000,4.000000,4.000000,4.000000,4.000000,83.333336
1613872725.862917,36.000000,0.000000,1.417444,1.695635,-3.545737,-7.202839,-26.439571,-3.108302,-7.053911,-5.280726,-11.702067,-6.586636,-0.913019,-1.767573,-12.443695,-74.786789,-28.555798,-62.772293,9.421286,-2.760858,26.439367,20.014513,-15.400274,-2.075342,-4.304541,18.050074,-1.004304,1.109949,26.919668,3.542995,29.574770,11.009380,-0.754319,-53.673496,8064.000000,0.000000,4.000000,,,,0.000000,4.000000,4.000000,4.000000,4.000000,4.000000,4.000000,4.000000,4.000000,4.000000,4.000000,4.000000,4.000000,4.000000,4.000000,4.000000,4.000000,2.000000,4.000000,4.000000,4.000000,4.000000,4.000000,4.000000,4.000000,4.000000,4.000000,4.000000,4.000000,4.000000,4.000000,4.000000,4.000000,83.333336
1613872725.870666,37.000000,0.000000,1.416027,1.181119,-5.080653,-8.734098,-26.925953,-5.156476,-7.046857,-5.275446,-11.690366,-6.580049,-6.040311,-4.329908,-12.944072,-80.865852,-33.655445,-67.324905,2.232377,-3.783738,8.464210,15.891934,-41.538719,-7.201471,-3.787416,15.980741,-4.080223,-0.429622,23.815825,8.667657,28.519554,6.895807,-0.240744,-57.209568,8064.000000,0.000000,4.000000,,,,0.000000,4.000000,4.000000,4.000000,4.000000,4.000000,4.000000,4.000000,4.000000,4.000000,4.000000,4.000000,4.000000,4.000000,4.000000,4.000000,4.000000,2.000000,4.000000,4.000000,4.000000,4.000000,4.000000,4.000000,4.000000,4.000000,4.000000,4.000000,4.000000,4.000000,4.000000,4.000000,4.000000,83.333336
1613872725.878315,38.000000,0.000000,1.414611,2.205579,-11.742239,-10.776647,-26.899027,-6.689781,-7.039810,-6.295812,-11.678676,-6.573469,-5.521451,-0.735835,-11.905486,-70.528572,-26.442305,-57.513988,-2.898060,-3.267134,6.404463,14.337581,-57.907436,-7.194270,-3.783628,7.759632,-9.717168,-2.993295,17.638163,11.223092,27.978214,-4.393140,-1.778965,-59.203640,8064.000000,0.000000,4.000000,,,,0.000000,4.000000,4.000000,4.000000,4.000000,4.000000,4.000000,4.000000,4.000000,4.000000,4.000000,4.000000,4.000000,4.000000,4.000000,4.000000,4.000000,2.000000,4.000000,4.000000,4.000000,4.000000,4.000000,4.000000,4.000000,4.000000,4.000000,4.000000,4.000000,4.000000,4.000000,4.000000,4.000000,83.333336
1613872725.886065,39.000000,0.000000,1.413196,0.152092,-15.833061,-11.791511,-28.410589,-9.247193,-7.032771,-3.725413,-11.666997,-6.566895,-1.413365,9.008491,-6.765376,-62.765736,-10.518426,-39.507759,15.053555,4.941261,31.013443,18.425808,-50.157223,-7.699896,-4.292665,-4.555820,-14.835656,-3.503123,15.056422,5.058022,29.488697,-8.491311,-4.341289,-62.734180,8064.000000,0.000000,4.000000,,,,0.000000,4.000000,4.000000,4.000000,4.000000,4.000000,4.000000,4.000000,4.000000,4.000000,4.000000,4.000000,4.000000,4.000000,4.000000,4.000000,4.000000,2.000000,4.000000,4.000000,4.000000,4.000000,4.000000,4.000000,4.000000,4.000000,4.000000,4.000000,4.000000,4.000000,4.000000,4.000000,4.000000,83.333336
1613872725.893714,40.000000,0.000000,1.411783,-2.412163,-15.304407,-13.318181,-30.946281,-13.340510,-7.025738,0.893697,-11.655330,-6.560329,0.639330,11.563585,2.472159,-60.651688,-1.789959,-22.545174,21.192348,18.782475,49.956787,19.945843,-31.645527,-8.205017,-3.775552,-8.653829,-15.333641,-2.986799,14.528545,8.129888,25.869465,-6.431538,-4.336947,-64.722725,8192.000000,0.000000,4.000000,,,,0.000000,4.000000,4.000000,4.000000,4.000000,4.000000,4.000000,4.000000,4.000000,4.000000,4.000000,4.000000,4.000000,4.000000,4.000000,4.000000,4.000000,2.000000,4.000000,4.000000,4.000000,4.000000,4.000000,4.000000,4.000000,4.000000,4.000000,4.000000,4.000000,4.000000,4.000000,4.000000,4.000000,83.333336
1613872725.901463,41.000000,0.000000,1.410371,-1.896930,-16.314745,-15.356145,-31.428156,-15.378451,-7.018712,2.944085,-11.643674,-6.553769,3.202794,8.987919,9.649174,-38.539757,6.929780,-5.086731,15.530130,26.455999,52.470936,25.566923,-14.177984,1.546778,-1.207674,-4.029790,-15.318307,-2.983812,15.539658,12.224322,20.715391,-6.937926,-4.332611,-64.658005,8064.000000,0.000000,4.000000,,,,0.000000,4.000000,4.000000,4.000000,4.000000,4.000000,4.000000,4.000000,4.000000,4.000000,4.000000,4.000000,4.000000,4.000000,4.000000,4.000000,4.000000,2.000000,4.000000,4.000000,4.000000,4.000000,4.000000,4.000000,4.000000,4.000000,4.000000,4.000000,4.000000,4.000000,4.000000,4.000000,4.000000,83.333336
1613872725.909112,42.000000,0.000000,1.408961,-1.895033,-14.247148,-15.853609,-30.883907,-14.337432,-7.011693,1.915500,-11.632030,-6.547215,10.379078,11.543034,10.665166,-17.988396,19.230543,7.226048,24.232550,27.968004,57.033848,36.310585,2.759271,16.929846,1.870457,0.076804,-15.302989,-3.493649,20.652323,14.263380,20.181854,-7.443809,-4.328278,-64.080528,8192.000000,0.000000,4.000000,,,,0.000000,4.000000,4.000000,4.000000,4.000000,4.000000,4.000000,4.000000,4.000000,4.000000,4.000000,4.000000,4.000000,4.000000,4.000000,4.000000,4.000000,2.000000,4.000000,4.000000,4.000000,4.000000,4.000000,4.000000,4.000000,4.000000,4.000000,4.000000,4.000000,4.000000,4.000000,4.000000,4.000000,83.333336
1613872725.916861,43.000000,0.000000,1.407552,-1.893138,-9.104695,-14.812114,-30.853024,-14.323095,-7.004682,1.913585,-11.620399,-6.540668,14.984083,11.018670,10.654501,-26.688354,23.313875,5.680360,28.823702,33.068241,64.669121,38.838379,13.525743,21.528301,4.945509,0.589547,-15.287686,-2.977334,25.759876,19.377321,20.674494,-8.974827,-4.323949,-65.042084,8192.000000,0.000000,4.000000,,,,0.000000,4.000000,4.000000,4.000000,4.000000,4.000000,4.000000,4.000000,4.000000,4.000000,4.000000,4.000000,4.000000,4.000000,4.000000,4.000000,4.000000,2.000000,4.000000,4.000000,4.000000,4.000000,4.000000,4.000000,4.000000,4.000000,4.000000,4.000000,4.000000,4.000000,4.000000,4.000000,4.000000,83.333336
1613872725.924510,44.000000,0.000000,1.406144,-1.891245,-11.146873,-15.310122,-30.822170,-14.821592,-6.997677,2.424492,-11.608778,-6.021307,10.353715,5.366626,11.156667,-38.969360,17.136715,-1.504807,24.179493,36.624916,64.091629,37.773899,13.512217,18.942671,6.991846,1.101778,-14.246758,-2.974357,26.759758,10.639996,18.089716,-12.555595,-4.319625,-67.541145,8192.000000,0.000000,4.000000,,,,0.000000,4.000000,4.000000,4.000000,4.000000,4.000000,4.000000,4.000000,4.000000,4.000000,4.000000,4.000000,4.000000,4.000000,4.000000,4.000000,4.000000,2.000000,4.000000,4.000000,4.000000,4.000000,4.000000,4.000000,4.000000,4.000000,4.000000,4.000000,4.000000,4.000000,4.000000,4.000000,4.000000,83.333336
1613872725.932259,45.000000,0.000000,1.404738,-1.889354,-14.725469,-15.294812,-30.791348,-14.293950,-6.990679,1.909247,-11.597169,-5.502464,6.753617,4.335618,11.145510,-38.417568,14.042656,-6.118687,22.616852,34.024189,64.027542,38.761768,9.396140,19.949369,7.497675,1.613497,-13.719690,-2.971383,26.732998,-0.139875,16.533165,-14.594322,-4.315306,-67.986427,8192.000000,0.000000,4.000000,,,,0.000000,4.000000,4.000000,4.000000,4.000000,4.000000,4.000000,4.000000,4.000000,4.000000,4.000000,4.000000,4.000000,4.000000,4.000000,4.000000,4.000000,2.000000,4.000000,4.000000,4.000000,4.000000,4.000000,4.000000,4.000000,4.000000,4.000000,4.000000,4.000000,4.000000,4.000000,4.000000,4.000000,83.333336
1613872725.939909,46.000000,0.000000,1.403334,-1.887465,-13.172282,-15.279518,-30.247736,-14.279656,-6.983689,1.907337,-11.585572,-6.522603,6.746864,4.844103,10.621544,-36.840691,15.567075,-7.138209,15.414747,32.451706,61.399410,36.158901,7.335462,20.442240,8.002997,1.611884,-14.731611,-2.968411,26.706264,6.014111,17.029451,-14.579728,-4.310991,-67.405617,8064.000000,0.000000,4.000000,,,,0.000000,4.000000,4.000000,4.000000,4.000000,4.000000,4.000000,4.000000,4.000000,4.000000,4.000000,4.000000,4.000000,4.000000,4.000000,4.000000,4.000000,2.000000,4.000000,4.000000,4.000000,4.000000,4.000000,4.000000,4.000000,4.000000,4.000000,4.000000,4.000000,4.000000,4.000000,4.000000,4.000000,83.333336
1613872725.947758,47.000000,0.000000,1.401930,-1.885577,-11.107828,-15.264238,-30.217489,-14.265376,-6.976705,1.905430,-11.061166,-6.003260,6.740117,4.839259,11.123743,-37.316669,10.936123,-7.131071,12.835230,30.367970,46.466217,34.071461,0.661460,13.755131,7.994995,1.097451,-14.716880,-2.965443,26.679558,4.469635,17.012423,-14.052327,-4.306680,-68.363853,8064.000000,0.000000,4.000000,,,,0.000000,4.000000,4.000000,4.000000,4.000000,4.000000,4.000000,4.000000,4.000000,4.000000,4.000000,4.000000,4.000000,4.000000,4.000000,4.000000,4.000000,2.000000,4.000000,4.000000,4.000000,4.000000,4.000000,4.000000,4.000000,4.000000,4.000000,4.000000,4.000000,4.000000,4.000000,4.000000,4.000000,83.333336
1613872725.955507,48.000000,0.000000,1.913349,-1.883692,-11.096720,-15.248974,-30.700092,-14.251111,-6.969728,1.903525,-11.562925,-5.997257,7.759018,5.347240,8.548516,-45.997303,-3.433787,-18.405991,14.873677,17.004269,28.471031,23.780979,-17.800739,-1.643239,1.833153,2.121995,-13.676522,-2.962478,26.652878,-3.227142,16.995411,-14.038275,-4.302373,-67.782669,8064.000000,0.000000,4.000000,,,,0.000000,4.000000,4.000000,4.000000,4.000000,4.000000,4.000000,4.000000,4.000000,4.000000,4.000000,4.000000,4.000000,4.000000,4.000000,4.000000,4.000000,2.000000,4.000000,4.000000,4.000000,4.000000,4.000000,4.000000,4.000000,4.000000,4.000000,4.000000,4.000000,4.000000,4.000000,4.000000,4.000000,83.333336
1613872725.963356,49.000000,0.000000,0.372974,-1.881808,-8.521521,-15.233725,-30.156570,-14.236860,-6.962759,1.901621,-11.551362,-14.196387,2.623054,2.777790,-1.716442,-67.489769,-24.455994,-43.002972,-2.577094,-0.961453,18.186152,-0.345366,-44.449608,-17.539032,-5.860987,-1.469871,-19.816692,-2.959515,25.087765,1.904290,16.978415,-15.049878,-4.298070,-67.202065,8064.000000,0.000000,4.000000,,,,0.000000,4.000000,4.000000,4.000000,4.000000,4.000000,4.000000,4.000000,4.000000,4.000000,4.000000,4.000000,4.000000,4.000000,4.000000,4.000000,4.000000,2.000000,4.000000,4.000000,4.000000,4.000000,4.000000,4.000000,4.000000,4.000000,4.000000,4.000000,4.000000,4.000000,4.000000,4.000000,4.000000,83.333336
1613872725.971105,50.000000,0.000000,-2.191502,-1.879926,-8.000178,-15.218492,-30.639235,-14.222623,-6.955796,1.899719,-11.026991,-25.464243,-10.200082,-3.891654,-14.022418,-89.986382,-41.354614,-61.421505,-12.318107,-12.242543,12.014118,-8.550148,-59.789772,-23.675339,-8.419229,-10.186350,-33.130207,-2.956556,17.883190,3.953668,16.961437,-17.598930,-4.293773,-69.186150,8064.000000,0.000000,4.000000,,,,0.000000,4.000000,4.000000,4.000000,4.000000,4.000000,4.000000,4.000000,4.000000,4.000000,4.000000,4.000000,4.000000,4.000000,4.000000,4.000000,4.000000,2.000000,4.000000,4.000000,4.000000,4.000000,4.000000,4.000000,4.000000,4.000000,4.000000,4.000000,4.000000,4.000000,4.000000,4.000000,4.000000,83.333336
1613872725.978954,51.000000,0.000000,-2.189310,-1.878046,-7.479358,-15.203273,-34.198338,-14.208401,-6.948840,1.897820,-13.067245,-29.541342,-17.882191,-6.964686,-20.162241,-108.357933,-46.441467,-70.078033,-0.510917,-21.461069,8.412361,1.201991,-60.242802,-22.113203,-7.897989,-14.278728,-39.250923,-2.953599,11.198640,3.436893,16.944475,-18.094152,-4.289479,-66.040039,8064.000000,0.000000,4.000000,,,,0.000000,4.000000,4.000000,4.000000,4.000000,4.000000,4.000000,4.000000,4.000000,4.000000,4.000000,4.000000,4.000000,4.000000,4.000000,4.000000,4.000000,2.000000,4.000000,4.000000,4.000000,4.000000,4.000000,4.000000,4.000000,4.000000,4.000000,4.000000,4.000000,4.000000,4.000000,4.000000,4.000000,83.333336
1613872725.986703,52.000000,0.000000,-3.212762,-1.876168,-4.394956,-14.675249,-37.753883,-14.194192,-6.941891,1.895922,-17.156742,-30.024622,-15.813025,-6.444901,-22.706182,-119.531624,-47.933487,-80.777184,-5.125791,-30.670378,8.916769,1.200789,-61.208202,-22.603910,-7.890091,-13.751628,-33.057827,-2.950645,10.674621,16.766790,16.927530,-18.076057,-4.285189,-56.230408,8064.000000,0.000000,4.000000,,,,0.000000,4.000000,4.000000,4.000000,4.000000,4.000000,4.000000,4.000000,4.000000,4.000000,4.000000,4.000000,4.000000,4.000000,4.000000,4.000000,4.000000,2.000000,4.000000,4.000000,4.000000,4.000000,4.000000,4.000000,4.000000,4.000000,4.000000,4.000000,4.000000,4.000000,4.000000,4.000000,4.000000,83.333336
1613872725.994552,53.000000,0.000000,-5.260831,-1.361472,-1.313637,-14.660574,-37.716129,-13.667177,-6.934949,1.894026,-19.190868,-32.045879,-16.310034,-5.925635,-22.683475,-109.155685,-46.347092,-80.696411,-10.761690,-27.049963,12.497596,9.404716,-57.044430,-23.606947,-7.882201,-14.763517,-25.845282,-3.460515,11.689587,24.955151,16.910603,-17.545162,-4.793725,-52.071613,8064.000000,0.000000,4.000000,,,,0.000000,4.000000,4.000000,4.000000,4.000000,4.000000,4.000000,4.000000,4.000000,4.000000,4.000000,4.000000,4.000000,4.000000,4.000000,4.000000,4.000000,2.000000,4.000000,4.000000,4.000000,4.000000,4.000000,4.000000,4.000000,4.000000,4.000000,4.000000,4.000000,4.000000,4.000000,4.000000,4.000000,83.333336
1613872726.002301,54.000000,0.000000,-6.281211,-1.872931,0.226138,-15.158733,-37.165592,-14.166331,-6.928014,1.892132,-18.658857,-32.013832,-16.293722,-6.432530,-14.968485,-79.302940,-28.352026,-55.487507,3.608046,-5.997273,26.844072,34.523518,-31.346359,-12.814109,-8.387139,-12.184651,-25.819437,-2.944234,11.165076,18.776350,16.893692,-15.476335,-3.763290,-50.993900,8064.000000,0.000000,4.000000,,,,0.000000,4.000000,4.000000,4.000000,4.000000,4.000000,4.000000,4.000000,4.000000,4.000000,4.000000,4.000000,4.000000,4.000000,4.000000,4.000000,4.000000,2.000000,4.000000,4.000000,4.000000,4.000000,4.000000,4.000000,4.000000,4.000000,4.000000,4.000000,4.000000,4.000000,4.000000,4.000000,4.000000,83.333336
1613872726.010150,55.000000,0.000000,-5.762110,-1.871058,2.790014,-14.630754,-37.641251,-14.152164,-6.921086,1.890240,-18.640198,-28.392076,-9.097942,-5.913277,-3.158644,-54.608250,-2.169828,-25.175610,5.142899,17.598469,46.304409,41.155659,-2.597063,4.634603,-6.840291,-0.890415,-26.819258,-2.941290,11.153912,16.706291,16.876799,-13.922397,-1.708245,-44.276241,7936.000000,0.000000,4.000000,,,,0.000000,4.000000,4.000000,4.000000,4.000000,4.000000,4.000000,4.000000,4.000000,4.000000,4.000000,4.000000,4.000000,4.000000,4.000000,4.000000,4.000000,2.000000,4.000000,4.000000,4.000000,4.000000,4.000000,4.000000,4.000000,4.000000,4.000000,4.000000,4.000000,4.000000,4.000000,4.000000,4.000000,83.333336
1613872726.017899,56.000000,0.000000,-5.756348,-1.356366,3.300045,-14.616123,-37.090786,-13.625192,-6.914165,1.888350,-19.134378,-25.286760,-0.883716,-5.907364,5.562463,-44.297230,8.088753,-11.304279,3.599295,33.478306,56.514515,32.909378,6.636303,12.835096,-2.218066,6.289962,-21.151413,-3.451169,11.655579,13.612662,16.859922,-13.908474,-0.168075,-41.667862,8192.000000,0.000000,4.000000,,,,0.000000,4.000000,4.000000,4.000000,4.000000,4.000000,4.000000,4.000000,4.000000,4.000000,4.000000,4.000000,4.000000,4.000000,4.000000,4.000000,4.000000,2.000000,4.000000,4.000000,4.000000,4.000000,4.000000,4.000000,4.000000,4.000000,4.000000,4.000000,4.000000,4.000000,4.000000,4.000000,4.000000,83.333336
1613872726.025748,57.000000,0.000000,-5.237771,-2.893471,2.783924,-15.627149,-38.079338,-15.150028,-6.907251,2.399282,-18.602423,-24.235832,2.706911,-2.824533,9.146644,-39.637550,8.593484,-9.241693,20.005951,37.034569,56.970821,34.414928,6.116846,12.822261,0.348255,5.258031,-11.899493,-2.934898,11.643923,8.470844,16.843061,-13.894566,-0.680727,-47.267220,8064.000000,0.000000,4.000000,,,,0.000000,4.000000,4.000000,4.000000,4.000000,4.000000,4.000000,4.000000,4.000000,4.000000,4.000000,4.000000,4.000000,4.000000,4.000000,4.000000,4.000000,2.000000,4.000000,4.000000,4.000000,4.000000,4.000000,4.000000,4.000000,4.000000,4.000000,4.000000,4.000000,4.000000,4.000000,4.000000,4.000000,83.333336
1613872726.033497,58.000000,0.000000,-6.770994,-4.941860,4.832422,-18.175625,-40.605362,-17.186161,-6.900344,2.396883,-18.583820,-23.698776,3.217025,-1.283247,7.599036,-38.572269,8.584890,-10.258093,15.883382,28.279587,53.324104,34.893333,5.085088,12.296618,0.347907,4.739953,-9.323491,-0.367860,11.632278,5.898271,16.826220,-13.880671,-0.680046,-49.784054,8192.000000,0.000000,4.000000,,,,0.000000,4.000000,4.000000,4.000000,4.000000,4.000000,4.000000,4.000000,4.000000,4.000000,4.000000,4.000000,4.000000,4.000000,4.000000,4.000000,4.000000,2.000000,4.000000,4.000000,4.000000,4.000000,4.000000,4.000000,4.000000,4.000000,4.000000,4.000000,4.000000,4.000000,4.000000,4.000000,4.000000,83.333336
1613872726.041346,59.000000,0.000000,-9.328326,-5.449739,6.878872,-18.670269,-41.077576,-17.681795,-6.893444,1.881665,-18.565237,-23.675077,3.213808,-5.384528,2.976052,-46.226006,1.909639,-16.401680,-3.106861,16.969257,46.091293,29.217415,-2.099484,7.668937,0.347559,5.760854,-10.852629,1.170969,11.620646,0.251347,16.809393,-13.866790,-0.679366,-49.221451,8064.000000,0.000000,4.000000,,,,0.000000,4.000000,4.000000,4.000000,4.000000,4.000000,4.000000,4.000000,4.000000,4.000000,4.000000,4.000000,4.000000,4.000000,4.000000,4.000000,4.000000,2.000000,4.000000,4.000000,4.000000,4.000000,4.000000,4.000000,4.000000,4.000000,4.000000,4.000000,4.000000,4.000000,4.000000,4.000000,4.000000,83.333336
1613872726.049095,60.000000,0.000000,-8.293357,-5.444289,6.871993,-18.138779,-40.523678,-17.664112,-6.886550,1.879783,-18.546671,-21.600121,4.236235,-9.481708,0.408974,-55.410549,-3.733296,-24.590406,3.562913,16.439466,43.481102,27.136915,-6.199949,0.994601,-0.165609,5.242272,-9.816135,0.656978,11.609026,4.866480,16.792583,-11.801641,-0.678687,-47.633766,8064.000000,0.000000,4.000000,,,,0.000000,4.000000,4.000000,4.000000,4.000000,4.000000,4.000000,4.000000,4.000000,4.000000,4.000000,4.000000,4.000000,4.000000,4.000000,4.000000,4.000000,2.000000,4.000000,4.000000,4.000000,4.000000,4.000000,4.000000,4.000000,4.000000,4.000000,4.000000,4.000000,4.000000,4.000000,4.000000,4.000000,83.333336
1613872726.056744,61.000000,0.000000,-5.720961,-5.438844,6.352301,-18.633459,-40.995975,-17.646448,-6.366843,2.390724,-18.528126,-19.014418,1.667896,-9.472226,-4.719641,-63.560268,-6.293665,-30.719664,11.764479,15.397387,43.950439,22.494394,-6.706569,0.993607,0.860197,4.724209,-10.831960,0.656321,11.597417,14.605204,16.775791,-10.251378,-0.678008,-45.534851,8192.000000,0.000000,4.000000,,,,0.000000,4.000000,4.000000,4.000000,4.000000,4.000000,4.000000,4.000000,4.000000,4.000000,4.000000,4.000000,4.000000,4.000000,4.000000,4.000000,4.000000,2.000000,4.000000,4.000000,4.000000,4.000000,4.000000,4.000000,4.000000,4.000000,4.000000,4.000000,4.000000,4.000000,4.000000,4.000000,4.000000,83.333336
1613872726.064493,62.000000,0.000000,-7.766522,-5.433405,6.345948,-18.614826,-40.954979,-17.628801,-7.898938,-1.201410,-18.509596,-21.559505,-8.590181,-12.026856,-21.125177,-80.419785,-22.697628,-44.022278,1.496304,-3.079550,33.650078,13.753951,-16.443453,-3.622772,-0.679125,5.232306,-15.949333,0.655664,11.585819,7.411111,16.759014,-10.241127,-1.190151,-46.002136,8064.000000,0.000000,4.000000,,,,0.000000,4.000000,4.000000,4.000000,4.000000,4.000000,4.000000,4.000000,4.000000,4.000000,4.000000,4.000000,4.000000,4.000000,4.000000,4.000000,4.000000,2.000000,4.000000,4.000000,4.000000,4.000000,4.000000,4.000000,4.000000,4.000000,4.000000,4.000000,4.000000,4.000000,4.000000,4.000000,4.000000,83.333336
1613872726.072142,63.000000,0.000000,-9.810038,-5.427972,6.339602,-18.596212,-40.401203,-17.611174,-9.942321,-7.866876,-18.491087,-28.204613,-17.299540,-16.630215,-38.027130,-99.826546,-48.828777,-72.183380,-4.659039,-29.230316,16.180531,5.535069,-35.401367,-15.414021,-7.857933,3.688612,-17.471846,0.655009,11.574233,7.403700,16.742256,-10.230886,-0.163320,-44.930496,8064.000000,0.000000,4.000000,,,,0.000000,4.000000,4.000000,4.000000,4.000000,4.000000,4.000000,4.000000,4.000000,4.000000,4.000000,4.000000,4.000000,4.000000,4.000000,4.000000,4.000000,2.000000,4.000000,4.000000,4.000000,4.000000,4.000000,4.000000,4.000000,4.000000,4.000000,4.000000,4.000000,4.000000,4.000000,4.000000,4.000000,83.333336
1613872726.079891,64.000000,0.000000,-9.800227,-5.422544,6.333262,-18.577616,-43.437725,-17.593563,-10.958019,-9.397470,-18.472595,-32.791794,-17.282240,-18.152046,-36.963459,-102.290817,-60.062000,-89.034279,-3.628739,-35.354931,6.933581,-2.162774,-51.776222,-22.578094,-16.055202,-2.981743,-18.992836,0.654354,11.049839,26.370655,16.725513,-10.220654,2.400946,-37.706078,0.000000,192.000000,4.000000,,,,0.000000,4.000000,4.000000,4.000000,4.000000,4.000000,4.000000,4.000000,4.000000,4.000000,4.000000,4.000000,4.000000,4.000000,4.000000,4.000000,4.000000,2.000000,4.000000,4.000000,4.000000,4.000000,4.000000,4.000000,4.000000,4.000000,4.000000,4.000000,4.000000,4.000000,4.000000,4.000000,4.000000,83.333336
1613872726.087541,65.000000,0.000000,-9.277607,-5.417122,5.814109,-18.046217,-44.932747,-17.575968,-10.434241,-6.311150,-18.454123,-32.246181,-15.213676,-17.621073,-25.131626,-92.444939,-45.642963,-70.483704,2.528736,-16.345219,13.593315,2.454774,-55.827011,-23.581156,-16.039148,-7.594146,-25.127689,-1.397583,11.551609,23.780182,16.708788,-10.210434,3.424186,-33.052986,0.000000,190.000000,4.000000,,,,0.000000,4.000000,4.000000,4.000000,4.000000,4.000000,4.000000,4.000000,4.000000,4.000000,4.000000,4.000000,4.000000,4.000000,4.000000,4.000000,4.000000,2.000000,4.000000,4.000000,4.000000,4.000000,4.000000,4.000000,4.000000,4.000000,4.000000,4.000000,4.000000,4.000000,4.000000,4.000000,4.000000,83.333336
1613872726.095290,66.000000,0.000000,-7.729867,-5.411705,3.244192,-19.053812,-43.862175,-17.045572,-10.423806,-5.279197,-18.948490,-30.675472,-15.711284,-13.500888,-14.850083,-80.557625,-17.905012,-40.156811,12.782618,7.773691,28.964336,17.836935,-43.463493,-18.429371,-10.894903,-6.560911,-28.692305,-2.934647,11.540058,2.217941,16.692080,-10.200224,2.907942,-35.584034,0.000000,201.000000,4.000000,,,,0.000000,4.000000,4.000000,4.000000,4.000000,4.000000,4.000000,4.000000,4.000000,4.000000,4.000000,4.000000,4.000000,4.000000,4.000000,4.000000,4.000000,2.000000,4.000000,4.000000,4.000000,4.000000,4.000000,4.000000,4.000000,4.000000,4.000000,4.000000,4.000000,4.000000,4.000000,4.000000,4.000000,83.333336
1613872726.102939,67.000000,0.000000,-6.183676,-5.406293,2.215307,-18.009117,-45.869595,-18.054167,-10.413383,-5.786739,-17.903900,-33.208900,-10.054546,-6.307899,-0.476259,-60.477066,5.189816,-25.757679,15.846758,24.176174,43.294346,27.562687,-24.445669,-3.539146,-7.807086,-6.554350,-28.150791,-3.444532,10.502876,0.164441,16.675386,-10.190023,2.905034,-38.112553,0.000000,189.000000,4.000000,,,,0.000000,4.000000,4.000000,4.000000,4.000000,4.000000,4.000000,4.000000,4.000000,4.000000,4.000000,4.000000,4.000000,4.000000,4.000000,4.000000,4.000000,2.000000,4.000000,4.000000,4.000000,4.000000,4.000000,4.000000,4.000000,4.000000,4.000000,4.000000,4.000000,4.000000,4.000000,4.000000,4.000000,83.333336
1613872726.110688,68.000000,0.000000,-5.151851,-5.400887,3.238733,-13.888544,-43.772442,-17.010473,-10.402969,-3.216849,-15.834715,-31.124409,6.365765,-2.199028,14.396011,-37.339664,16.466677,-9.321664,18.907835,31.331486,49.917721,34.714611,-11.087890,10.823367,-4.722355,-8.086257,-24.020077,-3.441088,12.543656,7.343763,16.658712,-10.179833,3.414949,-37.561623,0.000000,186.000000,4.000000,,,,0.000000,4.000000,4.000000,4.000000,4.000000,4.000000,4.000000,4.000000,4.000000,4.000000,4.000000,4.000000,4.000000,4.000000,4.000000,4.000000,4.000000,2.000000,4.000000,4.000000,4.000000,4.000000,4.000000,4.000000,4.000000,4.000000,4.000000,4.000000,4.000000,4.000000,4.000000,4.000000,4.000000,83.333336
1613872726.118337,69.000000,0.000000,-1.044135,-5.395486,5.286776,-10.284912,-28.344055,-12.378078,-10.392567,-1.162351,-14.280418,-18.272772,21.231194,2.931377,18.997000,-28.071556,24.655338,8.123555,21.965849,32.838615,51.406261,44.423489,0.205249,12.863826,2.461854,0.126957,-14.765287,-1.386365,19.197779,7.336420,16.642054,-10.169654,2.898714,-37.524059,0.000000,190.000000,4.000000,,,,0.000000,4.000000,4.000000,4.000000,4.000000,4.000000,4.000000,4.000000,4.000000,4.000000,4.000000,4.000000,4.000000,4.000000,4.000000,4.000000,4.000000,2.000000,4.000000,4.000000,4.000000,4.000000,4.000000,4.000000,4.000000,4.000000,4.000000,4.000000,4.000000,4.000000,4.000000,4.000000,4.000000,83.333336
1613872726.126086,70.000000,0.000000,2.546652,-5.390090,6.307130,-10.787447,-17.546480,-9.288776,-10.382174,-1.674009,-14.778958,-8.510909,21.722782,8.569471,18.978003,-29.581945,27.194786,5.038508,13.225935,32.292957,52.380497,44.891884,5.333249,11.312501,7.074777,13.460163,-6.032573,3.230406,23.281145,5.277801,16.112591,-10.672304,2.895815,-37.999355,0.000000,202.000000,4.000000,,,,0.000000,4.000000,4.000000,4.000000,4.000000,4.000000,4.000000,4.000000,4.000000,4.000000,4.000000,4.000000,4.000000,4.000000,4.000000,4.000000,4.000000,2.000000,4.000000,4.000000,4.000000,4.000000,4.000000,4.000000,4.000000,4.000000,4.000000,4.000000,4.000000,4.000000,4.000000,4.000000,4.000000,83.333336
1613872726.133735,71.000000,0.000000,1.518465,-5.384700,6.300823,-11.289480,-23.682779,-10.305128,-10.371792,-1.672335,-14.764179,-8.502398,18.111317,6.509619,18.959026,-29.552364,20.500925,-5.222940,11.674248,32.773483,51.302475,40.231606,-0.313110,13.352470,7.580523,17.036448,-7.565002,4.252817,22.232224,1.169959,17.634939,-10.661633,2.380099,-37.961357,0.000000,185.000000,4.000000,,,,0.000000,4.000000,4.000000,4.000000,4.000000,4.000000,4.000000,4.000000,4.000000,4.000000,4.000000,4.000000,4.000000,4.000000,4.000000,4.000000,4.000000,4.000000,4.000000,4.000000,4.000000,4.000000,4.000000,4.000000,4.000000,4.000000,4.000000,4.000000,4.000000,4.000000,4.000000,4.000000,4.000000,100.000000
1613872726.141485,72.000000,0.000000,1.516946,-5.379315,6.294522,-10.765370,-26.736021,-10.294824,-10.361420,-1.670662,-13.723774,-8.493896,19.631666,1.887725,10.734939,-34.651016,14.839398,-8.294641,21.918983,30.689428,50.225533,37.114452,-1.338438,11.287836,8.598583,15.480949,-10.121540,4.761384,22.209991,9.373918,20.181408,-10.138150,2.890539,-37.410576,0.000000,157.000000,4.000000,,,,0.000000,4.000000,4.000000,4.000000,4.000000,4.000000,4.000000,4.000000,4.000000,4.000000,4.000000,4.000000,4.000000,4.000000,4.000000,4.000000,4.000000,4.000000,4.000000,4.000000,4.000000,4.000000,4.000000,4.000000,4.000000,4.000000,4.000000,4.000000,4.000000,4.000000,4.000000,4.000000,4.000000,100.000000
1613872726.149134,73.000000,0.000000,2.028250,-5.373936,6.288228,-10.754605,-21.581079,-9.258887,-10.351059,-1.668992,-15.248512,-8.998222,12.945369,1.373017,-0.045028,-49.488159,6.106610,-21.619678,18.307322,19.889507,51.713768,24.256824,0.201362,4.097061,3.461780,15.978289,-10.111419,5.269444,22.187780,22.697876,20.674046,-10.640832,2.887649,-37.885986,0.000000,199.000000,4.000000,,,,0.000000,4.000000,4.000000,4.000000,4.000000,4.000000,4.000000,4.000000,4.000000,4.000000,4.000000,4.000000,4.000000,4.000000,4.000000,4.000000,4.000000,4.000000,4.000000,4.000000,4.000000,4.000000,4.000000,4.000000,4.000000,4.000000,4.000000,4.000000,4.000000,4.000000,4.000000,4.000000,4.000000,100.000000
1613872726.156883,74.000000,0.000000,-0.025060,-5.368562,6.281940,-11.256671,-25.662062,-11.300911,-10.340708,-1.667323,-19.848648,-15.143071,-2.965013,-1.705279,-2.096265,-61.233543,-14.412317,-43.649342,9.058245,4.485003,45.508209,11.412056,-12.619352,-0.522421,-8.336554,14.936669,-12.665409,1.674431,22.165592,14.982871,19.627731,-10.117371,1.859120,-37.848099,0.000000,203.000000,4.000000,,,,0.000000,4.000000,4.000000,4.000000,4.000000,4.000000,4.000000,4.000000,4.000000,4.000000,4.000000,4.000000,4.000000,4.000000,4.000000,4.000000,4.000000,4.000000,4.000000,4.000000,4.000000,4.000000,4.000000,4.000000,4.000000,4.000000,4.000000,4.000000,4.000000,4.000000,4.000000,4.000000,4.000000,100.000000
1613872726.164532,75.000000,0.000000,-1.563497,-5.363194,6.275658,-11.245415,-33.841530,-13.853712,-10.330367,-1.665655,-22.392902,-16.666389,-10.141535,-5.293317,-0.555707,-60.659489,-29.269699,-51.298000,11.613289,-4.237431,29.052444,11.400643,-27.991348,-0.009078,-10.892320,11.844810,-12.139923,1.672756,24.194710,3.685837,22.172207,-7.543151,4.934184,-35.246147,0.000000,211.000000,4.000000,,,,0.000000,4.000000,4.000000,4.000000,4.000000,4.000000,4.000000,4.000000,4.000000,4.000000,4.000000,4.000000,4.000000,4.000000,4.000000,4.000000,4.000000,4.000000,4.000000,4.000000,4.000000,4.000000,4.000000,4.000000,4.000000,4.000000,4.000000,4.000000,4.000000,4.000000,4.000000,4.000000,4.000000,100.000000
1613872726.172281,76.000000,0.000000,1.002169,-5.357831,6.269382,-11.234169,-34.320507,-14.352679,-10.320036,-1.663990,-21.857689,-15.624082,-8.080112,-2.723922,-1.067972,-60.598831,-28.214788,-49.195419,11.088855,-7.310117,17.741341,12.414884,-30.527460,-0.009069,-2.676300,11.832965,-6.999578,6.799289,25.708977,9.323177,26.252598,-6.509967,12.108737,-31.108337,0.000000,214.000000,4.000000,,,,0.000000,4.000000,4.000000,4.000000,4.000000,4.000000,4.000000,4.000000,4.000000,4.000000,4.000000,4.000000,4.000000,4.000000,4.000000,4.000000,4.000000,4.000000,4.000000,4.000000,4.000000,4.000000,4.000000,4.000000,4.000000,4.000000,4.000000,4.000000,4.000000,4.000000,4.000000,4.000000,4.000000,100.000000
1613872726.179930,77.000000,0.000000,2.026808,-5.352472,5.750292,-11.735755,-32.747726,-13.825506,-10.309716,-1.662326,-21.835831,-23.813585,-9.610493,-3.746839,-3.118186,-69.768997,-28.699394,-49.659046,6.462381,-8.328447,20.800522,12.915290,-29.984112,0.503761,0.403300,11.821132,-7.505399,3.715566,25.683268,13.929238,28.277628,-5.990636,14.660730,-30.051588,0.000000,195.000000,4.000000,,,,0.000000,4.000000,4.000000,4.000000,4.000000,4.000000,4.000000,4.000000,4.000000,4.000000,4.000000,4.000000,4.000000,4.000000,4.000000,4.000000,4.000000,4.000000,4.000000,4.000000,4.000000,4.000000,4.000000,4.000000,4.000000,4.000000,4.000000,4.000000,4.000000,4.000000,4.000000,4.000000,4.000000,100.000000
1613872726.187779,78.000000,0.000000,1.511961,-5.347120,5.744542,-11.211199,-34.766258,-13.811681,-10.299407,-1.660663,-23.865276,-34.046181,-13.190626,-6.307194,-5.166349,-78.930000,-28.157875,-49.096565,7.994380,-0.627811,29.497671,20.081861,-29.954126,3.067359,-1.135565,11.296490,-13.138920,-6.031739,25.657583,10.325565,27.223709,-5.984646,13.620429,-31.047178,0.000000,218.000000,4.000000,,,,0.000000,4.000000,4.000000,4.000000,4.000000,4.000000,4.000000,4.000000,4.000000,4.000000,4.000000,4.000000,4.000000,4.000000,4.000000,4.000000,4.000000,4.000000,4.000000,4.000000,4.000000,4.000000,4.000000,4.000000,4.000000,4.000000,4.000000,4.000000,4.000000,4.000000,4.000000,4.000000,4.000000,100.000000
1613872726.195528,79.000000,0.000000,1.510449,-5.341773,5.738797,-11.199987,-37.808418,-14.823510,-10.289107,-1.659003,-25.892694,-37.089058,-13.177435,-1.685503,-4.135542,-79.363892,-14.796384,-46.996185,6.960745,10.142047,37.673302,27.241266,-26.334429,4.602754,-0.108788,11.285193,-16.715525,-8.076989,24.093466,6.725496,23.606741,-10.081225,13.606809,-29.990490,0.000000,221.000000,4.000000,,,,0.000000,4.000000,4.000000,4.000000,4.000000,4.000000,4.000000,4.000000,4.000000,4.000000,4.000000,4.000000,4.000000,4.000000,4.000000,4.000000,4.000000,4.000000,4.000000,4.000000,4.000000,4.000000,4.000000,4.000000,4.000000,4.000000,4.000000,4.000000,4.000000,4.000000,4.000000,4.000000,4.000000,100.000000
1613872726.203377,80.000000,0.000000,0.996118,-5.336431,5.220238,-12.214429,-37.257790,-13.270225,-10.278818,-2.170164,-25.866800,-35.513508,-11.625796,1.393106,-4.644227,-69.540939,-5.037998,-40.795345,1.825579,12.183187,39.174088,28.239666,-25.795275,4.085330,0.404141,10.761087,-19.262911,-8.068913,22.018089,1.590566,19.480570,-16.224991,14.106022,-30.986139,0.000000,187.000000,4.000000,,,,0.000000,4.000000,4.000000,4.000000,4.000000,4.000000,4.000000,4.000000,4.000000,4.000000,4.000000,4.000000,4.000000,4.000000,4.000000,4.000000,4.000000,4.000000,4.000000,4.000000,4.000000,4.000000,4.000000,4.000000,4.000000,4.000000,4.000000,4.000000,4.000000,4.000000,4.000000,4.000000,4.000000,100.000000
1613872726.211126,81.000000,0.000000,-1.568981,-5.331095,7.779120,-8.099650,-32.605145,-8.641570,-10.268539,-1.142353,-21.225550,-28.298508,-12.639812,-2.198031,-5.665224,-55.112423,-1.443216,-28.959677,-0.227528,13.709466,38.622093,26.672966,-23.718197,3.568424,-0.621904,8.699045,-21.807751,-10.624947,21.483252,3.640257,20.486731,-18.772867,13.579096,-29.929514,0.000000,198.000000,4.000000,,,,0.000000,4.000000,4.000000,4.000000,4.000000,4.000000,4.000000,4.000000,4.000000,4.000000,4.000000,4.000000,4.000000,4.000000,4.000000,4.000000,4.000000,4.000000,4.000000,4.000000,4.000000,4.000000,4.000000,4.000000,4.000000,4.000000,4.000000,4.000000,4.000000,4.000000,4.000000,4.000000,4.000000,100.000000
1613872726.218975,82.000000,0.000000,-2.593053,-5.325764,15.463649,1.139219,-27.957155,-5.556005,-8.206988,0.910071,-17.614580,-14.424056,-12.114351,-1.683012,4.084031,-43.262440,8.301817,-17.648666,2.849622,22.413704,47.814243,28.697575,-5.232941,5.103318,2.455641,6.639064,-19.221840,-4.973296,21.974588,11.841745,23.543167,-17.215633,13.565516,-23.232916,0.000000,210.000000,4.000000,,,,0.000000,4.000000,4.000000,4.000000,4.000000,4.000000,4.000000,4.000000,4.000000,4.000000,4.000000,4.000000,4.000000,4.000000,4.000000,4.000000,4.000000,4.000000,4.000000,4.000000,4.000000,4.000000,4.000000,4.000000,4.000000,4.000000,4.000000,4.000000,4.000000,4.000000,4.000000,4.000000,4.000000,100.000000
1613872726.226724,83.000000,0.000000,-2.077639,-5.320438,22.627672,3.702182,-25.877916,-6.063270,-6.147500,2.447623,-17.596966,-8.255786,-2.871468,3.446876,16.387640,-39.629433,14.960182,-12.502812,7.974978,28.545137,60.586941,33.284260,18.362036,7.662317,7.068570,9.196527,-11.510311,4.262447,21.952614,12.342724,23.519625,-15.147136,13.551951,-17.055838,0.000000,195.000000,4.000000,,,,0.000000,4.000000,4.000000,4.000000,4.000000,4.000000,4.000000,4.000000,4.000000,4.000000,4.000000,4.000000,4.000000,4.000000,4.000000,4.000000,4.000000,4.000000,4.000000,4.000000,4.000000,4.000000,4.000000,4.000000,4.000000,4.000000,4.000000,4.000000,4.000000,4.000000,4.000000,4.000000,4.000000,100.000000
1613872726.234573,84.000000,0.000000,-2.075562,-5.315117,24.656326,0.108736,-23.800756,-6.570027,-6.654173,1.932355,-18.092190,-8.247530,6.874994,5.494711,15.858431,-39.589802,12.381119,-14.028771,10.018285,28.516592,61.039173,35.302258,21.933418,8.680296,7.574322,16.366817,-3.806493,4.771005,21.930660,12.843202,23.496105,-13.593527,13.538399,-13.961859,0.000000,177.000000,4.000000,,,,0.000000,4.000000,4.000000,4.000000,4.000000,4.000000,4.000000,4.000000,4.000000,4.000000,4.000000,4.000000,4.000000,4.000000,4.000000,4.000000,4.000000,4.000000,4.000000,4.000000,4.000000,4.000000,4.000000,4.000000,4.000000,4.000000,4.000000,4.000000,4.000000,4.000000,4.000000,4.000000,4.000000,100.000000
1613872726.242322,85.000000,0.000000,-2.073486,-5.309803,24.118851,-0.404193,-21.725674,-6.050636,-6.647519,1.930422,-17.561277,-7.726462,7.893760,4.976396,9.688726,-38.524570,11.343097,-15.553204,13.085190,25.411152,52.260185,32.702854,11.655074,6.620333,6.541106,19.940195,-3.289866,4.253414,21.908730,21.035486,23.985430,-13.579933,13.524860,-12.409435,0.000000,189.000000,4.000000,,,,0.000000,4.000000,4.000000,4.000000,4.000000,4.000000,4.000000,4.000000,4.000000,4.000000,4.000000,4.000000,4.000000,4.000000,4.000000,4.000000,4.000000,4.000000,4.000000,4.000000,4.000000,4.000000,4.000000,4.000000,4.000000,4.000000,4.000000,4.000000,4.000000,4.000000,4.000000,4.000000,4.000000,100.000000
1613872726.250171,86.000000,0.000000,-2.071413,-5.304492,24.607552,0.621852,-21.703947,-6.044586,-6.640871,1.928492,-17.543716,-12.334120,7.373045,4.971419,10.704679,-40.024509,5.177907,-15.024830,18.200310,12.565228,41.951515,31.131691,3.951111,4.562431,7.047386,18.894613,-6.876320,5.274801,21.886822,26.655478,22.935802,-13.566354,13.511335,-11.884206,0.000000,214.000000,4.000000,,,,0.000000,4.000000,4.000000,4.000000,4.000000,4.000000,4.000000,4.000000,4.000000,4.000000,4.000000,4.000000,4.000000,4.000000,4.000000,4.000000,4.000000,4.000000,4.000000,4.000000,4.000000,4.000000,4.000000,4.000000,4.000000,4.000000,4.000000,4.000000,4.000000,4.000000,4.000000,4.000000,4.000000,100.000000
1613872726.257921,87.000000,0.000000,-2.069341,-5.299188,24.582945,-1.430052,-21.682243,-6.551362,-6.634230,1.926564,-17.526173,-18.475632,7.878493,5.479269,11.719615,-44.087048,-9.699065,-22.702112,4.848776,-6.934516,29.089050,27.510815,-11.950275,2.506586,7.553159,20.927000,-7.895084,3.218244,22.377756,25.090361,20.348764,-12.527146,13.497825,-13.923603,0.000000,217.000000,4.000000,,,,0.000000,4.000000,4.000000,4.000000,4.000000,4.000000,4.000000,4.000000,4.000000,4.000000,4.000000,4.000000,4.000000,4.000000,4.000000,4.000000,4.000000,4.000000,4.000000,4.000000,4.000000,4.000000,4.000000,4.000000,4.000000,4.000000,4.000000,4.000000,4.000000,4.000000,4.000000,4.000000,4.000000,100.000000
1613872726.265770,88.000000,0.000000,-2.067272,-5.293889,24.045540,-3.992724,-21.147741,-6.544810,-6.627596,1.924637,-18.021465,-19.482798,6.332153,4.960969,8.630973,-52.248089,-17.894495,-39.089668,-12.591970,-18.209633,17.777910,19.790997,-39.630634,-4.162587,7.545606,17.316330,-14.041036,-1.913179,20.816916,23.013987,19.302774,-15.078722,13.484326,-20.063526,0.000000,188.000000,4.000000,,,,0.000000,4.000000,4.000000,4.000000,4.000000,4.000000,4.000000,4.000000,4.000000,4.000000,4.000000,4.000000,4.000000,4.000000,4.000000,4.000000,4.000000,4.000000,4.000000,4.000000,4.000000,4.000000,4.000000,4.000000,4.000000,4.000000,4.000000,4.000000,4.000000,4.000000,4.000000,4.000000,4.000000,100.000000
1613872726.273519,89.000000,0.000000,-2.578025,-5.288595,23.508675,-4.501552,-23.690697,-6.025445,-6.620968,1.922712,-18.003445,-24.591520,2.223257,4.956008,6.571060,-68.606094,-16.338139,-46.230064,0.241135,-18.191423,14.170389,16.181461,-53.949978,-11.337912,6.512419,3.452860,-25.821867,-3.962548,18.231997,23.503794,19.796291,-17.114925,13.470842,-26.710129,0.000000,199.000000,4.000000,,,,0.000000,4.000000,4.000000,4.000000,4.000000,4.000000,4.000000,4.000000,4.000000,4.000000,4.000000,4.000000,4.000000,4.000000,4.000000,4.000000,4.000000,4.000000,4.000000,4.000000,4.000000,4.000000,4.000000,4.000000,4.000000,4.000000,4.000000,4.000000,4.000000,4.000000,4.000000,4.000000,4.000000,100.000000
1613872726.281368,90.000000,0.000000,-2.062627,-5.283306,23.997986,-3.984230,-25.718287,-7.045061,-6.614347,1.920790,-16.959801,-32.259235,-7.009736,4.951052,2.974745,-86.486206,-17.347441,-44.645374,13.061406,-15.609129,15.694680,18.729383,-46.716541,-11.839394,7.018727,-4.242900,-29.385788,-1.907303,18.213764,21.429008,20.289316,-16.584990,13.457372,-28.221880,0.000000,180.000000,4.000000,,,,0.000000,4.000000,4.000000,4.000000,4.000000,4.000000,4.000000,4.000000,4.000000,4.000000,4.000000,4.000000,4.000000,4.000000,4.000000,4.000000,4.000000,4.000000,4.000000,4.000000,4.000000,4.000000,4.000000,4.000000,4.000000,4.000000,4.000000,4.000000,4.000000,4.000000,4.000000,4.000000,4.000000,100.000000
1613872726.289117,91.000000,0.000000,-2.060564,-5.278023,23.973988,-3.467425,-25.179749,-10.114939,-6.607733,1.918869,-20.019764,-34.791080,-20.848881,4.433280,-3.694896,-94.604851,-21.945478,-55.369957,-1.823450,-13.542238,16.704626,19.736294,-44.105721,-9.776273,7.524529,-3.213017,-29.869223,-3.443858,18.195551,9.612707,19.243385,-19.645329,13.443914,-26.142376,0.000000,165.000000,4.000000,,,,0.000000,4.000000,4.000000,4.000000,4.000000,4.000000,4.000000,4.000000,4.000000,4.000000,4.000000,4.000000,4.000000,4.000000,4.000000,4.000000,4.000000,4.000000,4.000000,4.000000,4.000000,4.000000,4.000000,4.000000,4.000000,4.000000,4.000000,4.000000,4.000000,4.000000,4.000000,4.000000,4.000000,100.000000
1613872726.296766,92.000000,0.000000,-3.084145,-5.272745,23.437193,-4.489599,-27.718672,-10.104824,-7.113946,1.404129,-24.615128,-38.346031,-29.545980,0.326283,-8.819407,-96.048706,-25.000456,-65.058182,-6.949831,-15.579978,14.123819,18.178097,-45.600075,-11.817779,1.363158,-7.312368,-35.480381,-10.619901,15.100432,0.885146,17.172861,-24.241066,13.430470,-27.654696,0.000000,187.000000,4.000000,,,,0.000000,4.000000,4.000000,4.000000,4.000000,4.000000,4.000000,4.000000,4.000000,4.000000,4.000000,4.000000,4.000000,4.000000,4.000000,4.000000,4.000000,4.000000,4.000000,4.000000,4.000000,4.000000,4.000000,4.000000,4.000000,4.000000,4.000000,4.000000,4.000000,4.000000,4.000000,4.000000,4.000000,100.000000
1613872726.304515,93.000000,0.000000,-1.029778,-5.267472,23.926577,-3.972289,-32.306335,-7.530616,-5.568370,2.428366,-25.616154,-40.871788,-25.413870,-2.750967,-8.297767,-92.875740,-21.898533,-50.121326,5.364810,-13.513116,17.699440,20.211201,-30.169861,-9.241858,-4.279231,-12.433261,-34.419258,-14.199024,14.572511,9.602209,16.130047,-22.678364,13.417040,-27.114220,0.000000,204.000000,4.000000,,,,0.000000,4.000000,4.000000,4.000000,4.000000,4.000000,4.000000,4.000000,4.000000,4.000000,4.000000,4.000000,4.000000,4.000000,4.000000,4.000000,4.000000,4.000000,4.000000,4.000000,4.000000,4.000000,4.000000,4.000000,4.000000,4.000000,4.000000,4.000000,4.000000,4.000000,4.000000,4.000000,4.000000,100.000000
1613872726.312164,94.000000,0.000000,3.586636,-5.262205,26.466753,2.698350,-30.222750,-5.984624,-3.511520,4.990040,-25.077717,-31.600147,-13.593584,-1.722574,-3.161264,-78.423889,-9.056121,-29.045563,11.000471,2.397833,32.553535,25.319195,-11.165332,4.100717,-1.198028,-7.805443,-23.615608,-11.107903,17.634861,15.746453,18.678019,-20.091583,13.403623,-17.856337,0.000000,188.000000,4.000000,,,,0.000000,4.000000,4.000000,4.000000,4.000000,4.000000,4.000000,4.000000,4.000000,4.000000,4.000000,4.000000,4.000000,4.000000,4.000000,4.000000,4.000000,4.000000,4.000000,4.000000,4.000000,4.000000,4.000000,4.000000,4.000000,4.000000,4.000000,4.000000,4.000000,4.000000,4.000000,4.000000,4.000000,100.000000
1613872726.319913,95.000000,0.000000,6.147152,-5.256943,27.978748,8.336678,-25.064322,-6.491460,-2.482367,6.010692,-25.052639,-22.850599,-3.323580,0.843251,0.944461,-61.935207,3.773448,-23.888313,21.245880,18.805691,43.803032,27.857979,-7.564424,13.327386,3.931375,-0.105329,-19.489428,-9.558333,18.642868,13.679425,20.197803,-21.097134,13.390219,-11.171814,0.000000,195.000000,4.000000,,,,0.000000,4.000000,4.000000,4.000000,4.000000,4.000000,4.000000,4.000000,4.000000,4.000000,4.000000,4.000000,4.000000,4.000000,4.000000,4.000000,4.000000,4.000000,4.000000,4.000000,4.000000,4.000000,4.000000,4.000000,4.000000,4.000000,4.000000,4.000000,4.000000,4.000000,4.000000,4.000000,4.000000,100.000000
1613872726.327562,96.000000,0.000000,5.115364,-5.251686,27.437948,5.764238,-25.039257,-6.484969,-2.992705,5.491860,-25.540407,-22.827747,2.833589,1.355228,2.994799,-55.206604,8.385059,-25.402885,28.916943,21.350988,43.246410,26.804480,-10.120961,7.673033,3.414623,3.997340,-21.008400,-10.574416,18.111404,20.332413,19.664785,-20.563215,13.376829,-11.160643,8064.000000,0.000000,4.000000,,,,0.000000,4.000000,4.000000,4.000000,4.000000,4.000000,4.000000,4.000000,4.000000,4.000000,4.000000,4.000000,4.000000,4.000000,4.000000,4.000000,4.000000,4.000000,4.000000,4.000000,4.000000,4.000000,4.000000,4.000000,4.000000,4.000000,4.000000,4.000000,4.000000,4.000000,4.000000,4.000000,4.000000,100.000000
1613872726.335311,97.000000,0.000000,5.110249,-5.246434,27.410511,3.194371,-26.039858,-5.965663,-2.989713,5.999189,-25.002047,-23.317741,3.856397,1.353873,3.504625,-53.612938,7.351033,-24.864662,19.144436,19.791176,42.690342,26.777674,-8.059559,0.998693,2.898388,4.506163,-20.987392,-9.538200,18.093292,21.337721,19.645121,-17.465729,13.363452,-12.175122,8064.000000,0.000000,4.000000,,,,0.000000,4.000000,4.000000,4.000000,4.000000,4.000000,4.000000,4.000000,4.000000,4.000000,4.000000,4.000000,4.000000,4.000000,4.000000,4.000000,4.000000,4.000000,4.000000,4.000000,4.000000,4.000000,4.000000,4.000000,4.000000,4.000000,4.000000,4.000000,4.000000,4.000000,4.000000,4.000000,4.000000,100.000000
1613872726.342961,98.000000,0.000000,5.617959,-5.241188,27.383101,3.703998,-24.988178,-6.472518,-2.473902,5.480369,-24.977045,-23.294422,2.826900,0.326878,2.475479,-52.533684,2.215477,-22.275696,15.535548,22.335487,44.698933,28.289358,-7.025858,2.023335,4.433951,5.527298,-19.427942,-10.041483,18.588020,10.547153,20.138294,-16.422623,13.350088,-11.137306,8064.000000,0.000000,4.000000,,,,0.000000,4.000000,4.000000,4.000000,4.000000,4.000000,4.000000,4.000000,4.000000,4.000000,4.000000,4.000000,4.000000,4.000000,4.000000,4.000000,4.000000,4.000000,4.000000,4.000000,4.000000,4.000000,4.000000,4.000000,4.000000,4.000000,4.000000,4.000000,4.000000,4.000000,4.000000,4.000000,4.000000,100.000000
1613872726.350710,99.000000,0.000000,4.073879,-5.235946,27.355717,3.700294,-24.963190,-6.466045,-2.984249,2.910786,-24.952068,-25.835232,0.772790,-1.724731,0.421722,-52.993969,-2.402123,-23.279060,18.596935,19.749050,43.115772,27.235428,-8.557294,1.508491,3.916697,6.034591,-19.921335,-9.518620,18.056612,8.998143,18.579695,-16.919020,13.336739,-11.638989,8064.000000,0.000000,4.000000,,,,0.000000,4.000000,4.000000,4.000000,4.000000,4.000000,4.000000,4.000000,4.000000,4.000000,4.000000,4.000000,4.000000,4.000000,4.000000,4.000000,4.000000,4.000000,4.000000,4.000000,4.000000,4.000000,4.000000,4.000000,4.000000,4.000000,4.000000,4.000000,4.000000,4.000000,4.000000,4.000000,4.000000,100.000000
1613872726.358359,100.000000,0.000000,1.505703,-5.230711,26.815540,2.670952,-25.451046,-6.459579,-2.981265,1.369414,-24.414295,-26.835037,-0.253623,-2.748647,-0.091521,-52.428154,-3.938183,-29.922447,7.296288,17.678019,43.585480,27.208193,-8.548737,0.994162,3.912780,5.002915,-22.465517,-8.996282,18.038555,8.989145,16.509834,-16.902102,13.323401,-12.140171,8064.000000,0.000000,4.000000,,,,0.000000,4.000000,4.000000,4.000000,4.000000,4.000000,4.000000,4.000000,4.000000,4.000000,4.000000,4.000000,4.000000,4.000000,4.000000,4.000000,4.000000,4.000000,4.000000,4.000000,4.000000,4.000000,4.000000,4.000000,4.000000,4.000000,4.000000,4.000000,4.000000,4.000000,4.000000,4.000000,4.000000,100.000000
1613872726.366108,101.000000,0.000000,0.991377,-5.225480,27.301546,3.181102,-25.425596,-6.453120,-2.465463,1.880865,-25.415522,-26.295382,-0.766190,-1.207437,-0.091429,-53.401367,-5.985527,-33.995090,-0.916137,16.121880,42.003429,27.693806,-11.617110,1.505989,4.421688,5.510733,-25.519974,-13.089849,18.020517,0.775028,14.954863,-16.372379,13.310079,-12.128031,8064.000000,0.000000,4.000000,,,,0.000000,4.000000,4.000000,4.000000,4.000000,4.000000,4.000000,4.000000,4.000000,4.000000,4.000000,4.000000,4.000000,4.000000,4.000000,4.000000,4.000000,4.000000,4.000000,4.000000,4.000000,4.000000,4.000000,4.000000,4.000000,4.000000,4.000000,4.000000,4.000000,4.000000,4.000000,4.000000,4.000000,100.000000
1613872726.373757,102.000000,0.000000,1.503206,-5.220254,27.274244,3.177921,-25.400169,-6.446667,-4.514280,1.878984,-24.877285,-27.294727,-1.278244,-2.231871,-1.116979,-61.553093,-11.620566,-38.576481,1.648882,1.233962,27.089632,22.025085,-26.477289,-9.264748,-0.710939,5.505222,-29.084198,-19.230606,15.951214,-0.764208,12.888625,-16.356007,13.296768,-12.115903,8064.000000,0.000000,4.000000,,,,0.000000,4.000000,4.000000,4.000000,4.000000,4.000000,4.000000,4.000000,4.000000,4.000000,4.000000,4.000000,4.000000,4.000000,4.000000,4.000000,4.000000,4.000000,4.000000,4.000000,4.000000,4.000000,4.000000,4.000000,4.000000,4.000000,4.000000,4.000000,4.000000,4.000000,4.000000,4.000000,4.000000,100.000000
1613872726.381606,103.000000,0.000000,1.501703,-5.215034,26.221329,2.661922,-25.374769,-6.440220,-6.561048,1.877105,-20.749844,-25.728971,-3.841069,-9.921947,-3.167144,-73.286415,-22.378178,-53.409698,1.134412,-22.869837,7.062543,9.182548,-54.143120,-27.204201,-9.940997,-4.756693,-36.234600,-21.775478,14.396801,-1.276265,11.850096,-16.852470,13.283471,-12.103787,8064.000000,0.000000,4.000000,,,,0.000000,4.000000,4.000000,4.000000,4.000000,4.000000,4.000000,4.000000,4.000000,4.000000,4.000000,4.000000,4.000000,4.000000,4.000000,4.000000,4.000000,4.000000,4.000000,4.000000,4.000000,4.000000,4.000000,4.000000,4.000000,4.000000,4.000000,4.000000,4.000000,4.000000,4.000000,4.000000,4.000000,100.000000
1613872726.389355,104.000000,0.000000,1.500201,-5.209819,27.733570,3.684901,-25.349396,-6.946600,-7.067307,1.875228,-17.139351,-22.626318,-12.042356,-17.091513,-12.394746,-82.443893,-38.253235,-68.228081,-1.430825,-34.641838,-2.175289,-2.108686,-75.627434,-34.356483,-15.059261,-21.675013,-42.865032,-24.317804,14.382404,-4.351912,12.351066,-16.322798,13.270188,-12.091683,8064.000000,0.000000,4.000000,,,,0.000000,4.000000,4.000000,4.000000,4.000000,4.000000,4.000000,4.000000,4.000000,4.000000,4.000000,4.000000,4.000000,4.000000,4.000000,4.000000,4.000000,4.000000,4.000000,4.000000,4.000000,4.000000,4.000000,4.000000,4.000000,4.000000,4.000000,4.000000,4.000000,4.000000,4.000000,4.000000,4.000000,100.000000
1613872726.397204,105.000000,0.000000,1.498701,-5.204609,32.321220,6.245319,-24.811226,-4.375551,-6.547419,1.873353,-17.122211,-24.654974,-19.209801,-17.587240,-22.638762,-92.105042,-46.420109,-72.262421,-7.070419,-35.632839,-3.198755,-6.721962,-73.500526,-32.270847,-15.044203,-29.858467,-42.822166,-23.780666,14.368022,5.396030,12.338715,-16.306475,13.256918,-12.592412,8064.000000,0.000000,4.000000,,,,0.000000,4.000000,4.000000,4.000000,4.000000,4.000000,4.000000,4.000000,4.000000,4.000000,4.000000,4.000000,4.000000,4.000000,4.000000,4.000000,4.000000,4.000000,4.000000,4.000000,4.000000,4.000000,4.000000,4.000000,4.000000,4.000000,4.000000,4.000000,4.000000,4.000000,4.000000,4.000000,4.000000,100.000000
1613872726.404953,106.000000,0.000000,1.497202,-3.148123,34.340179,6.751894,-24.786413,-0.781432,-6.540872,2.384300,-17.617910,-29.758524,-19.703411,-16.031193,-26.718687,-97.653961,-44.835228,-73.728615,-9.114631,-36.622845,0.394188,-6.715240,-65.221901,-30.700113,-14.516337,-28.290146,-43.804985,-21.705605,14.353654,15.647044,11.813556,-22.444014,12.730841,-12.579820,8064.000000,0.000000,4.000000,,,,0.000000,4.000000,4.000000,4.000000,4.000000,4.000000,4.000000,4.000000,4.000000,4.000000,4.000000,4.000000,4.000000,4.000000,4.000000,4.000000,4.000000,4.000000,4.000000,4.000000,4.000000,4.000000,4.000000,4.000000,4.000000,4.000000,4.000000,4.000000,4.000000,4.000000,4.000000,4.000000,4.000000,100.000000
1613872726.412802,107.000000,0.000000,1.495705,-1.093692,33.280201,6.745142,-25.274448,1.270632,-6.534331,0.843454,-17.087471,-30.754406,-18.658068,-17.553623,-26.691969,-94.479385,-39.149368,-65.962578,3.714996,-31.458017,6.547640,-0.041858,-61.054111,-25.028387,-15.014642,-28.774677,-46.838104,-25.273642,14.339300,15.631397,11.801743,-28.062595,12.718109,-12.054420,8064.000000,0.000000,4.000000,,,,0.000000,4.000000,4.000000,4.000000,4.000000,4.000000,4.000000,4.000000,4.000000,4.000000,4.000000,4.000000,4.000000,4.000000,4.000000,4.000000,4.000000,4.000000,4.000000,4.000000,4.000000,4.000000,4.000000,4.000000,4.000000,4.000000,4.000000,4.000000,4.000000,4.000000,4.000000,4.000000,4.000000,100.000000
1613872726.420551,108.000000,0.000000,1.494209,-1.605419,34.272560,7.251218,-24.736353,1.269361,-6.527796,-1.721492,-17.070385,-29.698011,-18.639408,-16.510427,-25.126814,-89.769524,-24.751244,-48.460720,11.916409,-19.631687,10.130836,9.701773,-49.198189,-15.772590,-14.486807,-29.258722,-46.278446,-25.248367,14.837782,19.718330,12.815581,-28.034533,13.731032,-12.555185,8064.000000,0.000000,4.000000,,,,0.000000,4.000000,4.000000,4.000000,4.000000,4.000000,4.000000,4.000000,4.000000,4.000000,4.000000,4.000000,4.000000,4.000000,4.000000,4.000000,4.000000,4.000000,4.000000,4.000000,4.000000,4.000000,4.000000,4.000000,4.000000,4.000000,4.000000,4.000000,4.000000,4.000000,4.000000,4.000000,4.000000,100.000000
1613872726.428400,109.000000,0.000000,2.005535,-2.629455,33.212646,6.218326,-24.711617,-0.783191,-6.521269,-1.719770,-17.053314,-30.181133,-16.056667,-12.904174,-19.973482,-89.679749,-8.316236,-40.207134,1.648083,-12.432569,10.120705,13.794636,-34.277195,-11.654253,-13.959499,-21.024336,-46.232166,-17.530811,15.335764,20.211432,12.289946,-26.980858,12.691660,-13.055450,8064.000000,0.000000,4.000000,,,,0.000000,4.000000,4.000000,4.000000,4.000000,4.000000,4.000000,4.000000,4.000000,4.000000,4.000000,4.000000,4.000000,4.000000,4.000000,4.000000,4.000000,4.000000,4.000000,4.000000,4.000000,4.000000,4.000000,4.000000,4.000000,4.000000,4.000000,4.000000,4.000000,4.000000,4.000000,4.000000,4.000000,100.000000
1613872726.436149,110.000000,0.000000,1.490709,-0.575543,33.692253,7.237748,-28.789469,-2.833689,-6.514748,-1.718051,-19.087542,-30.663773,-14.502149,-12.378449,-14.825304,-90.615715,-7.795099,-42.218208,-2.456129,-11.907316,10.623405,11.729559,-33.217278,-14.206701,-14.458361,-10.746902,-46.185936,-20.077383,12.756326,14.550195,10.739194,-28.492338,12.166148,-7.401370,8064.000000,0.000000,4.000000,,,,0.000000,4.000000,4.000000,4.000000,4.000000,4.000000,4.000000,4.000000,4.000000,4.000000,4.000000,4.000000,4.000000,4.000000,4.000000,4.000000,4.000000,4.000000,4.000000,4.000000,4.000000,4.000000,4.000000,4.000000,4.000000,4.000000,4.000000,4.000000,4.000000,4.000000,4.000000,4.000000,4.000000,100.000000
1613872726.443998,111.000000,0.000000,1.489218,4.040417,41.863689,13.897177,-31.324783,0.246067,-6.508233,-1.716333,-21.119738,-30.120289,-15.000467,-12.878891,-14.297658,-89.499458,-13.428329,-41.150349,2.674532,-11.895409,9.587140,13.769112,-32.671238,-16.243776,-13.931082,-8.684873,-40.498726,-22.108589,10.179467,17.099747,19.446404,-26.412563,18.307829,2.862442,8064.000000,0.000000,4.000000,,,,0.000000,4.000000,4.000000,4.000000,4.000000,4.000000,4.000000,4.000000,4.000000,4.000000,4.000000,4.000000,4.000000,4.000000,4.000000,4.000000,4.000000,4.000000,4.000000,4.000000,4.000000,4.000000,4.000000,4.000000,4.000000,4.000000,4.000000,4.000000,4.000000,4.000000,4.000000,4.000000,4.000000,100.000000
1613872726.451747,112.000000,0.000000,2.513370,6.600479,53.616699,18.498665,-29.242176,4.861206,-6.501724,-1.201796,-21.098618,-30.090168,-14.985467,-12.353191,-14.796181,-88.384315,-12.902081,-43.673302,1.133396,-11.883513,11.116014,19.909189,-24.946259,-12.124969,-13.917150,-9.189008,-34.304379,-12.855710,11.707749,13.492904,29.683367,-23.309229,24.956186,10.039066,8064.000000,0.000000,4.000000,,,,0.000000,4.000000,4.000000,4.000000,4.000000,4.000000,4.000000,4.000000,4.000000,4.000000,4.000000,4.000000,4.000000,4.000000,4.000000,4.000000,4.000000,4.000000,4.000000,4.000000,4.000000,4.000000,4.000000,4.000000,4.000000,4.000000,4.000000,4.000000,4.000000,4.000000,4.000000,4.000000,4.000000,100.000000
1613872726.459596,113.000000,0.000000,-0.566066,5.568238,56.640007,17.967346,-28.187292,4.856345,-6.495223,-3.251876,-20.564697,-30.060078,-13.944840,-12.853659,-16.832666,-89.321571,-19.043024,-52.860397,-2.457481,-12.384450,12.643360,16.299536,-31.075159,-14.164126,-17.492977,-8.154178,-34.782894,-15.919778,9.644759,0.658898,25.038300,-25.337202,21.341488,10.541848,8064.000000,0.000000,4.000000,,,,0.000000,4.000000,4.000000,4.000000,4.000000,4.000000,4.000000,4.000000,4.000000,4.000000,4.000000,4.000000,4.000000,4.000000,4.000000,4.000000,4.000000,4.000000,4.000000,4.000000,4.000000,4.000000,4.000000,4.000000,4.000000,4.000000,4.000000,4.000000,4.000000,4.000000,4.000000,4.000000,4.000000,100.000000
1613872726.467346,114.000000,0.000000,-7.744987,5.562669,55.557724,17.436558,-29.184746,3.825847,-6.488728,-7.864009,-21.056953,-29.517199,-14.956536,-17.456190,-20.405579,-88.719429,-31.331675,-61.525486,-2.967844,-15.448989,5.964050,8.590928,-45.915878,-24.406372,-21.578049,-12.248588,-37.825035,-28.724371,2.455627,1.171060,16.295313,-30.952890,18.243223,8.480024,8064.000000,0.000000,4.000000,,,,0.000000,4.000000,4.000000,4.000000,4.000000,4.000000,4.000000,4.000000,4.000000,4.000000,4.000000,4.000000,4.000000,4.000000,4.000000,4.000000,4.000000,4.000000,4.000000,4.000000,4.000000,4.000000,4.000000,4.000000,4.000000,4.000000,4.000000,4.000000,4.000000,4.000000,4.000000,4.000000,4.000000,100.000000
1613872726.475195,115.000000,0.000000,-10.301345,6.069927,55.502167,17.931942,-27.104279,4.847662,-6.482239,-9.394607,-21.035896,-29.487680,-14.428760,-20.515657,-22.436455,-80.425583,-33.864445,-64.540886,-7.067441,-21.074566,-3.785504,4.992594,-50.485348,-28.484529,-22.069290,-21.979929,-38.300030,-26.644365,-1.136572,7.323735,19.868761,-31.434757,24.378826,11.035646,8064.000000,0.000000,4.000000,,,,0.000000,4.000000,4.000000,4.000000,4.000000,4.000000,4.000000,4.000000,4.000000,4.000000,4.000000,4.000000,4.000000,4.000000,4.000000,4.000000,4.000000,4.000000,4.000000,4.000000,4.000000,4.000000,4.000000,4.000000,4.000000,4.000000,4.000000,4.000000,4.000000,4.000000,4.000000,4.000000,4.000000,100.000000
1613872726.482944,116.000000,0.000000,-9.265403,5.551037,55.959484,17.914009,-24.513073,4.842815,-6.475757,-8.872391,-20.502041,-29.971014,-14.414330,-20.495142,-22.414019,-76.755417,-33.317760,-64.476341,-10.137296,-28.232979,-6.858641,-2.704706,-51.460503,-28.968866,-21.534401,-25.034872,-37.748909,-21.489515,-0.622615,7.829232,24.464277,-28.839220,28.969831,19.742559,8064.000000,0.000000,4.000000,,,,0.000000,4.000000,4.000000,4.000000,4.000000,4.000000,4.000000,4.000000,4.000000,4.000000,4.000000,4.000000,4.000000,4.000000,4.000000,4.000000,4.000000,4.000000,4.000000,4.000000,4.000000,4.000000,4.000000,4.000000,4.000000,4.000000,4.000000,4.000000,4.000000,4.000000,4.000000,4.000000,4.000000,100.000000
1613872726.490793,117.000000,0.000000,-10.281778,5.545485,55.903526,17.383274,-24.488560,4.325151,-6.469281,-9.376339,-22.532820,-30.453863,-19.015301,-20.474646,-22.391603,-84.883789,-39.951107,-66.975967,-9.614338,-31.281668,-5.313321,-13.471232,-59.614170,-35.606564,-23.051329,-25.009836,-38.736801,-24.032127,-0.109172,12.949608,20.850069,-27.271919,27.402401,25.876663,8064.000000,0.000000,4.000000,,,,0.000000,4.000000,4.000000,4.000000,4.000000,4.000000,4.000000,4.000000,4.000000,4.000000,4.000000,4.000000,4.000000,4.000000,4.000000,4.000000,4.000000,4.000000,4.000000,4.000000,4.000000,4.000000,4.000000,4.000000,4.000000,4.000000,4.000000,4.000000,4.000000,4.000000,4.000000,4.000000,4.000000,100.000000
1613872726.498542,118.000000,0.000000,-9.758676,5.539940,54.821980,17.365892,-25.489712,4.320827,-6.462811,-9.879784,-24.561569,-29.397768,-25.662952,-20.966991,-25.446135,-92.491211,-45.039364,-72.037193,-10.117544,-31.250387,-6.333649,-14.996222,-65.708405,-40.186340,-22.002636,-27.036110,-38.185246,-21.956814,-0.621883,14.987940,18.265116,-27.244648,27.374998,23.286684,8064.000000,0.000000,4.000000,,,,0.000000,4.000000,4.000000,4.000000,4.000000,4.000000,4.000000,4.000000,4.000000,4.000000,4.000000,4.000000,4.000000,4.000000,4.000000,4.000000,4.000000,4.000000,4.000000,4.000000,4.000000,4.000000,4.000000,4.000000,4.000000,4.000000,4.000000,4.000000,4.000000,4.000000,4.000000,4.000000,4.000000,100.000000
1613872726.506391,119.000000,0.000000,-9.236096,3.483118,52.203056,17.861347,-24.951401,4.829326,-6.456349,-10.382724,-25.049829,-33.983753,-30.765495,-20.433205,-34.651459,-98.039742,-45.507145,-76.580544,-9.081786,-33.270416,-7.352956,-14.981227,-66.155518,-41.171795,-21.467812,-28.034714,-38.147060,-21.934856,-0.621261,7.280644,19.272491,-27.217403,26.834803,20.699295,8064.000000,0.000000,4.000000,,,,0.000000,4.000000,4.000000,4.000000,4.000000,4.000000,4.000000,4.000000,4.000000,4.000000,4.000000,4.000000,4.000000,4.000000,4.000000,4.000000,4.000000,4.000000,4.000000,4.000000,4.000000,4.000000,4.000000,4.000000,4.000000,4.000000,4.000000,4.000000,4.000000,4.000000,4.000000,4.000000,4.000000,100.000000
1613872726.514140,120.000000,0.000000,-10.765322,1.941174,51.125214,17.330664,-24.413630,2.773215,-6.449893,-12.936444,-24.511959,-41.642078,-34.837292,-20.925592,-36.668091,-107.172478,-45.461636,-77.529602,-5.482961,-32.724327,-2.730218,-14.966246,-58.909874,-39.079342,-23.497627,-29.545141,-39.647373,-26.528307,-0.620640,7.786184,19.766039,-27.190186,24.243864,20.678596,8064.000000,0.000000,4.000000,,,,0.000000,4.000000,4.000000,4.000000,4.000000,4.000000,4.000000,4.000000,4.000000,4.000000,4.000000,4.000000,4.000000,4.000000,4.000000,4.000000,4.000000,4.000000,4.000000,4.000000,4.000000,4.000000,4.000000,4.000000,4.000000,4.000000,4.000000,4.000000,4.000000,4.000000,4.000000,4.000000,4.000000,100.000000
1613872726.521889,121.000000,0.000000,-7.164813,1.939232,51.074089,14.749231,-25.414858,0.719159,-6.443442,-14.461969,-25.000267,-39.036335,-28.648609,-18.853384,-22.785267,-100.398636,-32.595661,-63.605923,0.676369,-18.845449,9.067384,4.023080,-43.466347,-23.655647,-18.345924,-28.489954,-37.556446,-21.373573,3.482545,13.419424,19.233454,-27.162994,23.193979,17.580994,8064.000000,0.000000,4.000000,,,,0.000000,4.000000,4.000000,4.000000,4.000000,4.000000,4.000000,4.000000,4.000000,4.000000,4.000000,4.000000,4.000000,4.000000,4.000000,4.000000,4.000000,4.000000,4.000000,4.000000,4.000000,4.000000,4.000000,4.000000,4.000000,4.000000,4.000000,4.000000,4.000000,4.000000,4.000000,4.000000,4.000000,100.000000
1613872726.529638,122.000000,0.000000,2.585942,1.937293,47.433270,13.196020,-25.902264,0.205620,-6.436999,-5.729558,-21.385523,-30.279348,-8.619961,-8.578120,-7.890687,-72.605927,-7.434862,-35.337189,4.778256,2.199038,23.417290,27.608801,-30.602367,-1.580710,-2.942962,-15.128132,-32.390682,-13.147072,7.581626,13.918825,18.701399,-27.135832,23.683607,12.948029,8064.000000,0.000000,4.000000,,,,0.000000,4.000000,4.000000,4.000000,4.000000,4.000000,4.000000,4.000000,4.000000,4.000000,4.000000,4.000000,4.000000,4.000000,4.000000,4.000000,4.000000,4.000000,4.000000,4.000000,4.000000,4.000000,4.000000,4.000000,4.000000,4.000000,4.000000,4.000000,4.000000,4.000000,4.000000,4.000000,4.000000,100.000000
1613872726.537287,123.000000,0.000000,6.685920,1.935356,47.385838,13.182824,-20.748156,0.718235,-5.917741,8.122325,-14.697471,-22.043941,7.798915,2.199688,-5.318694,-49.456398,6.418727,-18.891594,4.773478,14.504531,34.675926,32.196575,-22.366636,6.113178,5.777929,-1.779670,-31.332651,-12.621104,6.548404,12.879265,19.195518,-27.108696,23.659924,11.396619,8064.000000,0.000000,4.000000,,,,0.000000,4.000000,4.000000,4.000000,4.000000,4.000000,4.000000,4.000000,4.000000,4.000000,4.000000,4.000000,4.000000,4.000000,4.000000,4.000000,4.000000,4.000000,4.000000,4.000000,4.000000,4.000000,4.000000,4.000000,4.000000,4.000000,4.000000,4.000000,4.000000,4.000000,4.000000,4.000000,4.000000,100.000000
1613872726.545036,124.000000,0.000000,5.653593,1.933421,50.415375,13.682462,-15.599202,0.204696,-6.937465,14.268049,-10.067389,-8.688564,11.380860,9.376976,-7.877478,-39.150532,6.925129,-18.872702,10.922551,19.618231,44.897659,35.754124,-10.549398,6.107065,4.233690,-1.777890,-29.762857,-10.557200,8.080317,8.763822,19.176323,-27.081587,23.123442,11.898043,8064.000000,0.000000,4.000000,,,,0.000000,4.000000,4.000000,4.000000,4.000000,4.000000,4.000000,4.000000,4.000000,4.000000,4.000000,4.000000,4.000000,4.000000,4.000000,4.000000,4.000000,4.000000,4.000000,4.000000,4.000000,4.000000,4.000000,4.000000,4.000000,4.000000,4.000000,4.000000,4.000000,4.000000,4.000000,4.000000,4.000000,100.000000
1613872726.552685,125.000000,0.000000,6.160759,1.931487,49.339317,13.668779,-14.045141,0.717312,-6.417707,14.766602,-9.544501,3.627816,14.959223,12.957342,-5.305498,-31.931896,10.507947,-11.674342,20.655218,23.188356,47.929684,42.897858,-2.333721,9.177881,5.255097,0.275169,-20.502325,-5.931259,15.251724,6.703776,18.644325,-27.054506,23.613140,13.424606,8192.000000,0.000000,4.000000,,,,0.000000,4.000000,4.000000,4.000000,4.000000,4.000000,4.000000,4.000000,4.000000,4.000000,4.000000,4.000000,4.000000,4.000000,4.000000,4.000000,4.000000,4.000000,4.000000,4.000000,4.000000,4.000000,4.000000,4.000000,4.000000,4.000000,4.000000,4.000000,4.000000,4.000000,4.000000,4.000000,4.000000,100.000000
1613872726.560434,126.000000,0.000000,3.590496,1.929556,48.777157,13.142290,-9.415711,0.716594,-5.385648,11.162091,-9.534956,2.085727,15.457084,4.226437,-5.813013,-35.489708,5.882055,-13.201129,14.480717,14.960040,35.061241,30.034445,-9.510875,4.040498,3.198560,11.044125,-14.327977,-4.386866,19.339037,8.748354,19.651323,-27.027452,24.102346,17.000925,8064.000000,0.000000,4.000000,,,,0.000000,4.000000,4.000000,4.000000,4.000000,4.000000,4.000000,4.000000,4.000000,4.000000,4.000000,4.000000,4.000000,4.000000,4.000000,4.000000,4.000000,4.000000,4.000000,4.000000,4.000000,4.000000,4.000000,4.000000,4.000000,4.000000,4.000000,4.000000,4.000000,4.000000,4.000000,4.000000,4.000000,100.000000
1613872726.568084,127.000000,0.000000,-4.105402,1.927626,53.343765,13.641969,-3.252450,0.715878,-9.482826,-0.643943,-9.012601,-6.121487,1.595473,-18.341892,-15.037969,-50.326012,-20.277674,-39.341774,-3.995303,-3.516458,19.641565,6.927488,-19.244953,-11.348158,-9.112330,13.084363,-15.852111,-5.408121,16.755594,7.201144,22.195774,-27.000423,23.565424,20.060848,8064.000000,0.000000,4.000000,,,,0.000000,4.000000,4.000000,4.000000,4.000000,4.000000,4.000000,4.000000,4.000000,4.000000,4.000000,4.000000,4.000000,4.000000,4.000000,4.000000,4.000000,4.000000,4.000000,4.000000,4.000000,4.000000,4.000000,4.000000,4.000000,4.000000,4.000000,4.000000,4.000000,4.000000,4.000000,4.000000,4.000000,100.000000
1613872726.575833,0.000000,0.000000,-6.665399,1.925698,54.828884,16.705250,-2.736377,2.766444,-13.063087,-9.874068,-10.029229,-8.166648,-13.277917,-32.682526,-24.766521,-56.429531,-42.821499,-56.738331,-10.657974,-11.205250,16.032181,-1.284568,-19.738529,-22.618860,-18.846807,3.327689,-16.349079,-5.915533,14.174736,7.706764,22.686399,-26.973423,23.541859,26.707453,0.000000,212.000000,4.000000,,,,0.000000,4.000000,4.000000,4.000000,4.000000,4.000000,4.000000,4.000000,4.000000,4.000000,4.000000,4.000000,4.000000,4.000000,4.000000,4.000000,4.000000,4.000000,4.000000,4.000000,4.000000,4.000000,4.000000,4.000000,4.000000,4.000000,4.000000,4.000000,4.000000,4.000000,4.000000,4.000000,4.000000,100.000000
1613872726.583482,1.000000,0.000000,-5.633093,1.923773,55.286873,20.278288,-1.707999,6.353421,-9.460280,-9.351374,-9.506379,-7.132840,-16.341562,-31.624201,-26.280216,-53.296181,-45.855598,-54.117489,-11.160136,-8.117121,13.452045,-0.770463,-17.667509,-24.647524,-18.315142,-3.855126,-14.281447,-4.371156,14.160562,14.365724,23.176533,-26.946451,24.543957,31.296131,0.000000,190.000000,4.000000,,,,0.000000,4.000000,4.000000,4.000000,4.000000,4.000000,4.000000,4.000000,4.000000,4.000000,4.000000,4.000000,4.000000,4.000000,4.000000,4.000000,4.000000,4.000000,4.000000,4.000000,4.000000,4.000000,4.000000,4.000000,4.000000,4.000000,4.000000,4.000000,4.000000,4.000000,4.000000,4.000000,4.000000,100.000000
1613872726.591231,2.000000,0.000000,-5.627460,1.921849,57.795689,21.283651,1.370632,8.911170,-5.348256,-8.829202,-9.496873,-7.638527,-14.786759,-31.592577,-25.741116,-58.883911,-44.784103,-60.730038,-12.687438,-11.698748,8.823209,-3.846615,-23.290867,-24.622877,-17.784006,-4.364091,-17.344090,-5.392426,14.659222,14.351357,22.640535,-26.919504,21.442492,23.572527,0.000000,196.000000,4.000000,,,,0.000000,4.000000,4.000000,4.000000,4.000000,4.000000,4.000000,4.000000,4.000000,4.000000,4.000000,4.000000,4.000000,4.000000,4.000000,4.000000,4.000000,4.000000,4.000000,4.000000,4.000000,4.000000,4.000000,4.000000,4.000000,4.000000,4.000000,4.000000,4.000000,4.000000,4.000000,4.000000,4.000000,100.000000
1613872726.598880,3.000000,0.000000,-6.134653,1.919927,57.225075,20.749546,-2.220483,7.363798,-6.368549,-9.846013,-12.564300,-10.194991,-16.310434,-32.586624,-26.228193,-70.619896,-44.739319,-70.925720,-5.495263,-18.353716,9.327206,-3.842769,-34.549625,-25.623896,-18.791862,-6.411009,-24.506233,-13.079341,14.131742,9.208801,19.028152,-26.892584,14.754381,12.779723,0.000000,184.000000,4.000000,,,,0.000000,4.000000,4.000000,4.000000,4.000000,4.000000,4.000000,4.000000,4.000000,4.000000,4.000000,4.000000,4.000000,4.000000,4.000000,4.000000,4.000000,4.000000,4.000000,4.000000,4.000000,4.000000,4.000000,4.000000,4.000000,4.000000,4.000000,4.000000,4.000000,4.000000,4.000000,4.000000,4.000000,100.000000
1613872726.606629,4.000000,0.000000,-5.615697,1.918007,54.603745,20.728798,-6.320826,4.279510,-6.875001,-9.836167,-17.167120,-13.774540,-16.806944,-22.297628,-22.612223,-75.677483,-33.925350,-58.547100,4.766642,-12.694336,12.907622,1.802100,-41.694565,-23.034168,-16.208967,-9.481522,-29.097111,-20.245749,14.117610,9.712413,15.419380,-26.865692,11.662704,11.228482,0.000000,205.000000,4.000000,,,,0.000000,4.000000,4.000000,4.000000,4.000000,4.000000,4.000000,4.000000,4.000000,4.000000,4.000000,4.000000,4.000000,4.000000,4.000000,4.000000,4.000000,4.000000,4.000000,4.000000,4.000000,4.000000,4.000000,4.000000,4.000000,4.000000,4.000000,4.000000,4.000000,4.000000,4.000000,4.000000,4.000000,100.000000
1613872726.614278,5.000000,0.000000,-5.610082,1.916089,54.549141,21.220888,-4.776044,4.275231,-5.842485,-8.800691,-17.662773,-15.299227,-15.251676,-9.967639,-17.461405,-80.217186,-21.583731,-44.129578,7.325978,-7.553437,12.894714,7.441323,-43.191330,-17.882929,-13.628656,-9.472040,-30.606476,-20.738323,14.616313,5.600137,14.891140,-26.326006,12.676682,13.268536,0.000000,191.000000,4.000000,,,,0.000000,4.000000,4.000000,4.000000,4.000000,4.000000,4.000000,4.000000,4.000000,4.000000,4.000000,4.000000,4.000000,4.000000,4.000000,4.000000,4.000000,4.000000,4.000000,4.000000,4.000000,4.000000,4.000000,4.000000,4.000000,4.000000,4.000000,4.000000,4.000000,4.000000,4.000000,4.000000,4.000000,100.000000
1613872726.622127,6.000000,0.000000,-5.604472,1.914173,52.443310,20.686848,-7.848191,3.758135,-6.349463,-9.304710,-17.132290,-17.848030,-16.262066,-8.932031,-18.469585,-92.444664,-21.562147,-50.752117,3.728909,-17.289473,10.830538,8.972343,-47.250706,-15.813764,-13.615027,-12.026670,-32.627151,-22.256046,14.088877,-4.149054,15.389070,-28.350962,12.664005,12.229626,0.000000,192.000000,4.000000,,,,0.000000,4.000000,4.000000,4.000000,4.000000,4.000000,4.000000,4.000000,4.000000,4.000000,4.000000,4.000000,4.000000,4.000000,4.000000,4.000000,4.000000,4.000000,4.000000,4.000000,4.000000,4.000000,4.000000,4.000000,4.000000,4.000000,4.000000,4.000000,4.000000,4.000000,4.000000,4.000000,4.000000,100.000000
1613872726.629876,7.000000,0.000000,-5.598867,1.912259,47.262661,20.153339,-15.019830,-0.861007,-6.343113,-9.295405,-17.627977,-22.445566,-20.348368,-7.897457,-17.938295,-94.916321,-21.540585,-57.880852,0.648257,-22.400389,8.768425,8.450551,-50.793198,-16.823591,-14.114233,-21.245413,-34.645805,-24.285072,14.074787,-7.734648,15.373680,-30.373892,12.138521,10.678935,0.000000,177.000000,4.000000,,,,0.000000,4.000000,4.000000,4.000000,4.000000,4.000000,4.000000,4.000000,4.000000,4.000000,4.000000,4.000000,4.000000,4.000000,4.000000,4.000000,4.000000,4.000000,4.000000,4.000000,4.000000,4.000000,4.000000,4.000000,4.000000,4.000000,4.000000,4.000000,4.000000,4.000000,4.000000,4.000000,4.000000,100.000000
1613872726.637725,8.000000,0.000000,-5.593268,1.910347,46.189758,20.646008,-12.440707,1.191136,-6.336771,-6.722007,-17.097530,-20.371840,-14.174172,0.315568,-9.715228,-71.744484,-10.236994,-42.438354,4.750173,-8.531835,9.785298,8.954921,-44.075737,-16.293947,-13.587298,-24.301090,-34.611160,-20.158224,14.573533,-6.188452,15.358307,-28.292236,12.126383,12.719538,0.000000,169.000000,4.000000,,,,0.000000,4.000000,4.000000,4.000000,4.000000,4.000000,4.000000,4.000000,4.000000,4.000000,4.000000,4.000000,4.000000,4.000000,4.000000,4.000000,4.000000,4.000000,4.000000,4.000000,4.000000,4.000000,4.000000,4.000000,4.000000,4.000000,4.000000,4.000000,4.000000,4.000000,4.000000,4.000000,4.000000,100.000000
1613872726.645474,9.000000,0.000000,-5.074854,1.908436,46.656391,20.625360,-6.787241,9.907893,-6.330434,-2.099901,-17.593252,-13.171981,4.814361,3.392176,-0.987564,-45.518894,0.542474,-22.908737,4.745422,2.758749,12.339615,8.945966,-34.800892,-16.790474,-13.573711,-18.122944,-34.063728,-16.035501,14.046139,-3.618161,15.342948,-26.212662,12.627077,17.835024,0.000000,205.000000,4.000000,,,,0.000000,4.000000,4.000000,4.000000,4.000000,4.000000,4.000000,4.000000,4.000000,4.000000,4.000000,4.000000,4.000000,4.000000,4.000000,4.000000,4.000000,4.000000,4.000000,4.000000,4.000000,4.000000,4.000000,4.000000,4.000000,4.000000,4.000000,4.000000,4.000000,4.000000,4.000000,4.000000,4.000000,100.000000
1613872726.653323,10.000000,0.000000,-7.121062,1.393707,45.584091,20.091915,-6.780454,9.385165,-6.836924,0.979122,-17.062840,-10.594706,16.091597,-2.252242,1.064705,-38.806705,1.567573,-23.398649,-7.567016,1.217528,12.327275,5.860097,-33.227631,-19.337786,-15.098599,-15.540718,-34.029663,-16.532286,9.929529,-4.127363,15.327605,-27.724911,12.614450,18.842829,0.000000,189.000000,4.000000,,,,0.000000,4.000000,4.000000,4.000000,4.000000,4.000000,4.000000,4.000000,4.000000,4.000000,4.000000,4.000000,4.000000,4.000000,4.000000,4.000000,4.000000,4.000000,4.000000,4.000000,4.000000,4.000000,4.000000,4.000000,4.000000,4.000000,4.000000,4.000000,4.000000,4.000000,4.000000,4.000000,4.000000,100.000000
1613872726.661073,11.000000,0.000000,-9.165223,2.417955,47.589790,22.123106,-3.183930,8.862959,-6.317266,2.516605,-12.430391,-12.122573,15.049865,-5.839733,0.038000,-40.306362,0.027544,-30.041918,-11.149192,2.754772,12.827768,4.828596,-33.194401,-20.856909,-17.647602,-17.576460,-33.995636,-17.028574,6.842676,-3.097595,15.312278,-24.620264,12.089015,15.747064,0.000000,200.000000,4.000000,,,,0.000000,4.000000,4.000000,4.000000,4.000000,4.000000,4.000000,4.000000,4.000000,4.000000,4.000000,4.000000,4.000000,4.000000,4.000000,4.000000,4.000000,4.000000,4.000000,4.000000,4.000000,4.000000,4.000000,4.000000,4.000000,4.000000,4.000000,4.000000,4.000000,4.000000,4.000000,4.000000,4.000000,100.000000
1613872726.668922,12.000000,0.000000,-9.156057,4.979640,51.644764,26.716368,2.973100,20.648968,-3.746846,2.514088,-9.341038,-11.597630,16.060455,-4.808252,2.089244,-37.701954,2.078798,-28.473413,-1.394453,0.700736,14.353402,4.823767,-29.571465,-19.810411,-17.629955,-16.533241,-33.961639,-15.985905,6.323013,11.264478,15.296966,-16.903336,12.589746,16.756958,0.000000,213.000000,4.000000,,,,0.000000,4.000000,4.000000,4.000000,4.000000,4.000000,4.000000,4.000000,4.000000,4.000000,4.000000,4.000000,4.000000,4.000000,4.000000,4.000000,4.000000,4.000000,4.000000,4.000000,4.000000,4.000000,4.000000,4.000000,4.000000,4.000000,4.000000,4.000000,4.000000,4.000000,4.000000,4.000000,4.000000,100.000000
1613872726.676671,13.000000,0.000000,-9.146901,5.487480,53.644402,28.228111,5.021409,25.243704,-2.204638,2.511574,-9.331697,-11.073212,16.557217,-3.777803,2.599975,-36.638611,3.102360,-27.932119,-0.880238,-9.556376,12.800588,4.306123,-29.029072,-17.226500,-17.612326,-16.003887,-33.927677,-15.969919,6.829511,17.919880,15.281669,-14.835150,15.141259,19.817123,0.000000,188.000000,4.000000,,,,0.000000,4.000000,4.000000,4.000000,4.000000,4.000000,4.000000,4.000000,4.000000,4.000000,4.000000,4.000000,4.000000,4.000000,4.000000,4.000000,4.000000,4.000000,4.000000,4.000000,4.000000,4.000000,4.000000,4.000000,4.000000,4.000000,4.000000,4.000000,4.000000,4.000000,4.000000,4.000000,4.000000,100.000000
1613872726.684520,14.000000,0.000000,-9.650575,5.994813,54.616398,27.687063,3.990747,16.500511,-3.228074,1.996242,-9.835186,-11.062139,8.848351,-5.312487,0.033273,-38.653252,0.535155,-32.006752,-1.392178,-8.008358,14.839069,7.378740,-29.000044,-17.209272,-17.594713,-15.987885,-33.893749,-16.979589,6.309861,5.594267,15.266387,-15.845956,16.664579,19.797306,0.000000,224.000000,4.000000,,,,0.000000,4.000000,4.000000,4.000000,4.000000,4.000000,4.000000,4.000000,4.000000,4.000000,4.000000,4.000000,4.000000,4.000000,4.000000,4.000000,4.000000,4.000000,4.000000,4.000000,4.000000,4.000000,4.000000,4.000000,4.000000,4.000000,4.000000,4.000000,4.000000,4.000000,4.000000,4.000000,4.000000,100.000000
1613872726.692269,15.000000,0.000000,-7.589643,8.040100,59.177166,27.659376,3.986756,13.407087,-2.199205,1.994246,-9.825351,-11.563896,3.198477,-6.332816,0.033239,-40.665882,0.021800,-29.923462,7.327163,5.845805,25.080641,13.525208,-26.406940,-17.192062,-16.038656,-15.971896,-34.372677,-16.962610,5.790730,6.614314,15.251121,-15.317289,16.135094,19.264688,0.000000,193.000000,4.000000,,,,0.000000,4.000000,4.000000,4.000000,4.000000,4.000000,4.000000,4.000000,4.000000,4.000000,4.000000,4.000000,4.000000,4.000000,4.000000,4.000000,4.000000,4.000000,4.000000,4.000000,4.000000,4.000000,4.000000,4.000000,4.000000,4.000000,4.000000,4.000000,4.000000,4.000000,4.000000,4.000000,4.000000,100.000000
1613872726.700118,16.000000,0.000000,-5.530771,9.570522,62.194912,28.144537,4.495590,15.957783,0.367096,2.505072,-9.815525,-12.065153,0.118356,-4.275200,-0.479615,-50.368805,-1.516684,-28.867899,3.730092,10.455343,25.568380,13.511682,-29.970278,-17.174871,-13.971336,-14.417462,-33.312664,-15.920007,6.810580,17.376930,15.235869,-16.327614,16.118959,19.758245,0.000000,165.000000,4.000000,,,,0.000000,4.000000,4.000000,4.000000,4.000000,4.000000,4.000000,4.000000,4.000000,4.000000,4.000000,4.000000,4.000000,4.000000,4.000000,4.000000,4.000000,4.000000,4.000000,4.000000,4.000000,4.000000,4.000000,4.000000,4.000000,4.000000,4.000000,4.000000,4.000000,4.000000,4.000000,4.000000,4.000000,100.000000
1613872726.707867,17.000000,0.000000,-5.012420,9.560951,61.107075,27.603573,4.491094,15.429005,1.392370,0.451285,-9.292889,-12.053088,-14.753557,-8.886310,-19.966314,-77.497925,-21.515167,-46.787746,-6.530048,-3.401266,5.029991,7.344324,-42.248001,-26.901285,-14.470185,-11.326122,-34.817810,-17.442549,6.290949,7.615964,15.220634,-18.875387,16.102840,19.738487,0.000000,204.000000,4.000000,,,,0.000000,4.000000,4.000000,4.000000,4.000000,4.000000,4.000000,4.000000,4.000000,4.000000,4.000000,4.000000,4.000000,4.000000,4.000000,4.000000,4.000000,4.000000,4.000000,4.000000,4.000000,4.000000,4.000000,4.000000,4.000000,4.000000,4.000000,4.000000,4.000000,4.000000,4.000000,4.000000,4.000000,100.000000
1613872726.715716,18.000000,0.000000,-5.520227,9.551391,61.045971,28.088789,2.435321,14.387935,0.878157,-4.164551,-10.822058,-15.630778,-39.867008,-23.749218,-51.741219,-109.728119,-53.801346,-79.048653,-11.138904,-30.064531,-16.000679,-1.380969,-55.026264,-43.284641,-18.558279,-16.443001,-37.347095,-21.014849,5.259017,-1.622421,15.205413,-19.369333,16.086737,21.257210,0.000000,205.000000,4.000000,,,,0.000000,4.000000,4.000000,4.000000,4.000000,4.000000,4.000000,4.000000,4.000000,4.000000,4.000000,4.000000,4.000000,4.000000,4.000000,4.000000,4.000000,4.000000,4.000000,4.000000,4.000000,4.000000,4.000000,4.000000,4.000000,4.000000,4.000000,4.000000,4.000000,4.000000,4.000000,4.000000,4.000000,100.000000
1613872726.723465,19.000000,0.000000,-6.027528,9.029018,60.984924,27.547880,-0.131217,14.886368,0.877279,-4.673207,-13.375339,-22.794636,-47.519451,-27.828033,-57.330505,-126.028648,-68.619339,-102.046524,-17.281610,-47.470364,-13.420576,-3.430870,-51.894314,-40.677254,-18.026901,-26.170149,-34.745647,-17.404091,10.894784,-0.595158,15.190207,-19.349964,16.070650,22.261593,0.000000,174.000000,4.000000,,,,0.000000,4.000000,4.000000,4.000000,4.000000,4.000000,4.000000,4.000000,4.000000,4.000000,4.000000,4.000000,4.000000,4.000000,4.000000,4.000000,4.000000,4.000000,4.000000,4.000000,4.000000,4.000000,4.000000,4.000000,4.000000,4.000000,4.000000,4.000000,4.000000,4.000000,4.000000,4.000000,4.000000,100.000000
1613872726.731314,20.000000,0.000000,-4.483039,9.532810,61.436760,28.033154,2.433017,14.871481,0.876402,-2.104431,-12.336322,-20.207737,-25.420649,-13.441231,-28.042404,-93.082108,-42.396873,-76.816277,-10.597662,-31.525457,11.208229,11.444356,-31.842421,-13.969910,-8.265284,-21.528593,-28.557055,-7.130277,19.601837,-1.620204,15.175017,-19.330614,16.054581,23.777794,0.000000,176.000000,4.000000,,,,0.000000,4.000000,4.000000,4.000000,4.000000,4.000000,4.000000,4.000000,4.000000,4.000000,4.000000,4.000000,4.000000,4.000000,4.000000,4.000000,4.000000,4.000000,4.000000,4.000000,4.000000,4.000000,4.000000,4.000000,4.000000,4.000000,4.000000,4.000000,4.000000,4.000000,4.000000,4.000000,4.000000,100.000000
1613872726.739063,21.000000,0.000000,-1.914453,9.523277,60.862503,28.005119,4.481866,15.369431,0.875526,-1.076686,-7.708601,-6.854197,3.835541,0.418364,0.190766,-60.168510,-9.533962,-43.918945,16.079601,1.326581,35.812405,32.971375,-13.861860,7.582522,0.973751,-6.122449,-25.451574,-4.559044,22.659159,8.637827,15.159842,-18.798462,16.038525,24.779655,0.000000,188.000000,4.000000,,,,0.000000,4.000000,4.000000,4.000000,4.000000,4.000000,4.000000,4.000000,4.000000,4.000000,4.000000,4.000000,4.000000,4.000000,4.000000,4.000000,4.000000,4.000000,4.000000,4.000000,4.000000,4.000000,4.000000,4.000000,4.000000,4.000000,4.000000,4.000000,4.000000,4.000000,4.000000,4.000000,4.000000,100.000000
1613872726.746712,22.000000,0.000000,-2.425359,5.924010,56.699074,24.387371,1.913282,13.815599,1.387471,-2.101250,-5.649610,-0.180676,14.088117,2.469228,8.908524,-35.492958,12.014033,-11.054515,28.371216,22.863716,46.033005,40.117889,-9.232614,10.651862,1.998418,-0.475301,-25.938944,-10.195510,21.610859,11.706112,15.144683,-21.856586,16.022488,17.062569,0.000000,195.000000,4.000000,,,,0.000000,4.000000,4.000000,4.000000,4.000000,4.000000,4.000000,4.000000,4.000000,4.000000,4.000000,4.000000,4.000000,4.000000,4.000000,4.000000,4.000000,4.000000,4.000000,4.000000,4.000000,4.000000,4.000000,4.000000,4.000000,4.000000,4.000000,4.000000,4.000000,4.000000,4.000000,4.000000,4.000000,100.000000
1613872726.754461,23.000000,0.000000,-4.987036,1.815522,52.539810,20.260420,-0.139914,11.750502,0.873263,-1.586328,-6.669601,0.332325,16.125311,2.979579,11.976539,-34.944645,16.104584,-10.017819,22.188997,25.917774,46.499790,38.539310,-5.633637,9.615569,0.457958,-1.500467,-26.938646,-13.262238,21.589249,-3.690210,15.129538,-26.450115,16.006464,5.763455,0.000000,178.000000,4.000000,,,,0.000000,4.000000,4.000000,4.000000,4.000000,4.000000,4.000000,4.000000,4.000000,4.000000,4.000000,4.000000,4.000000,4.000000,4.000000,4.000000,4.000000,4.000000,4.000000,4.000000,4.000000,4.000000,4.000000,4.000000,4.000000,4.000000,4.000000,4.000000,4.000000,4.000000,4.000000,4.000000,4.000000,100.000000
1613872726.762110,24.000000,0.000000,-6.007690,1.300886,52.487270,19.727339,0.373047,11.738751,1.385210,1.492181,-5.637291,5.460198,22.263031,6.053523,17.092768,-30.294315,16.088478,-10.007801,22.679628,26.404678,47.478931,37.987949,-1.525440,11.144415,1.483141,2.090777,-24.860426,-12.223334,21.567659,2.980147,15.114408,-26.423666,15.990458,3.706410,0.000000,181.000000,4.000000,,,,0.000000,4.000000,4.000000,4.000000,4.000000,4.000000,4.000000,4.000000,4.000000,4.000000,4.000000,4.000000,4.000000,4.000000,4.000000,4.000000,4.000000,4.000000,4.000000,4.000000,4.000000,4.000000,4.000000,4.000000,4.000000,4.000000,4.000000,4.000000,4.000000,4.000000,4.000000,4.000000,4.000000,100.000000
1613872726.769859,25.000000,0.000000,-5.488862,1.812406,53.460426,20.220432,0.885494,10.188551,1.383825,5.080432,-3.067551,6.480379,20.702307,7.585930,18.101315,-28.212738,16.585211,-11.536255,25.733873,27.916735,47.431454,38.975601,-2.549555,9.594810,1.994478,3.114327,-22.271461,-12.211111,22.058912,18.361782,15.099294,-23.320318,15.974467,7.805267,0.000000,199.000000,4.000000,,,,0.000000,4.000000,4.000000,4.000000,4.000000,4.000000,4.000000,4.000000,4.000000,4.000000,4.000000,4.000000,4.000000,4.000000,4.000000,4.000000,4.000000,4.000000,4.000000,4.000000,4.000000,4.000000,4.000000,4.000000,4.000000,4.000000,4.000000,4.000000,4.000000,4.000000,4.000000,4.000000,4.000000,100.000000
1613872726.777509,26.000000,0.000000,-5.483373,1.297773,52.894146,19.687391,-0.141032,8.127080,-1.181662,6.100993,-2.038843,3.909796,14.014937,5.527062,11.416548,-35.364014,10.927600,-24.345232,23.656857,25.837536,46.358379,39.962269,-2.034185,6.508292,-1.084439,2.598392,-24.813293,-13.224542,20.498392,3.984447,15.084194,-22.784178,15.958493,8.310283,0.000000,188.000000,4.000000,,,,0.000000,4.000000,4.000000,4.000000,4.000000,4.000000,4.000000,4.000000,4.000000,4.000000,4.000000,4.000000,4.000000,4.000000,4.000000,4.000000,4.000000,4.000000,4.000000,4.000000,2.000000,4.000000,4.000000,4.000000,4.000000,4.000000,4.000000,4.000000,4.000000,4.000000,4.000000,4.000000,4.000000,83.333336
1613872726.785258,27.000000,0.000000,-5.477890,1.296475,52.841251,19.667704,0.371929,7.606133,-5.795865,4.043610,-2.036804,4.418707,9.385538,-2.683593,-2.441023,-44.559418,-9.083328,-37.141399,15.940892,20.170673,45.799202,28.640255,-6.134715,0.860758,-7.237201,6.185538,-28.891045,-12.698496,12.272765,-6.788769,15.069110,-23.274214,15.942534,7.276331,0.000000,146.000000,4.000000,,,,0.000000,4.000000,4.000000,4.000000,4.000000,4.000000,4.000000,4.000000,4.000000,4.000000,4.000000,4.000000,4.000000,4.000000,4.000000,4.000000,4.000000,4.000000,4.000000,4.000000,2.000000,4.000000,4.000000,4.000000,4.000000,4.000000,4.000000,4.000000,4.000000,4.000000,4.000000,4.000000,4.000000,83.333336
1613872726.792907,28.000000,0.000000,-5.472412,1.807999,52.788410,20.160856,1.397198,5.034424,-8.354172,-0.062998,-2.034767,-3.790840,-5.495642,-18.065525,-19.361658,-64.002037,-34.202450,-54.027336,-1.510946,3.740245,34.984173,7.585973,-21.000376,-11.960616,-13.383810,0.538327,-31.939075,-12.172977,5.593825,2.448789,15.054041,-22.738119,15.926592,8.294696,0.000000,200.000000,4.000000,,,,0.000000,4.000000,4.000000,4.000000,4.000000,4.000000,4.000000,4.000000,4.000000,4.000000,4.000000,4.000000,4.000000,4.000000,4.000000,4.000000,4.000000,4.000000,4.000000,4.000000,2.000000,4.000000,4.000000,4.000000,4.000000,4.000000,4.000000,4.000000,4.000000,4.000000,4.000000,4.000000,4.000000,83.333336
1613872726.800656,29.000000,0.000000,-5.466940,1.806191,52.735622,20.140696,-2.706763,0.414005,-10.397099,-4.678319,-4.596835,-18.658844,-29.079891,-28.816690,-33.188450,-94.707268,-48.527222,-83.716896,-16.381229,-24.468622,12.897905,-1.652382,-36.363991,-23.230707,-16.960169,-14.846828,-36.009701,-12.673625,6.101052,-2.169044,15.038987,-22.715382,15.910666,8.799222,0.000000,208.000000,4.000000,,,,0.000000,4.000000,4.000000,4.000000,4.000000,4.000000,4.000000,4.000000,4.000000,4.000000,4.000000,4.000000,4.000000,4.000000,4.000000,4.000000,4.000000,4.000000,4.000000,4.000000,2.000000,4.000000,4.000000,4.000000,4.000000,4.000000,4.000000,4.000000,4.000000,4.000000,4.000000,4.000000,4.000000,83.333336
1613872726.808305,30.000000,0.000000,-5.974293,1.291564,52.682884,19.094913,-10.909184,-0.612050,-9.873881,-6.212102,-8.694802,-25.306852,-36.743118,-27.249411,-38.283466,-117.176659,-51.042797,-106.710106,-19.954592,-42.905693,-3.012429,-1.650730,-46.071217,-26.284399,-18.481670,-22.011467,-41.101898,-15.225054,6.607771,-9.346362,15.023948,-23.205486,15.894754,8.277602,0.000000,173.000000,4.000000,,,,0.000000,4.000000,4.000000,4.000000,4.000000,4.000000,4.000000,4.000000,4.000000,4.000000,4.000000,4.000000,4.000000,4.000000,4.000000,4.000000,4.000000,4.000000,4.000000,4.000000,2.000000,4.000000,4.000000,4.000000,4.000000,4.000000,4.000000,4.000000,4.000000,4.000000,4.000000,4.000000,4.000000,83.333336
1613872726.816054,31.000000,0.000000,-5.968319,2.315914,52.630203,20.614281,-11.411096,-0.611438,-7.299905,-5.693070,-9.711748,-25.281546,-33.629452,-24.658060,-37.219543,-136.033844,-49.453293,-109.680313,-17.883356,-43.888428,-3.522237,-3.700361,-51.153351,-25.232473,-18.463190,-20.963816,-42.599255,-17.261110,5.575522,-5.234452,15.008924,-22.669460,15.878860,9.807786,0.000000,181.000000,4.000000,,,,0.000000,4.000000,4.000000,4.000000,4.000000,4.000000,4.000000,4.000000,4.000000,4.000000,4.000000,4.000000,4.000000,4.000000,4.000000,4.000000,4.000000,4.000000,4.000000,4.000000,2.000000,4.000000,4.000000,4.000000,4.000000,4.000000,4.000000,4.000000,4.000000,4.000000,4.000000,4.000000,4.000000,83.333336
1613872726.823703,32.000000,0.000000,-5.449530,6.928983,52.577572,23.670589,-7.297121,-0.098006,-6.266964,-5.687377,-10.727677,-29.871649,-38.211208,-23.607761,-39.233604,-159.487549,-50.429482,-114.698845,-12.737267,-45.895821,-6.595638,-4.722302,-52.640659,-24.694420,-17.931906,-20.430031,-39.992554,-16.218208,6.082767,-1.126653,14.993916,-20.082687,15.350161,15.951824,8064.000000,0.000000,4.000000,,,,0.000000,4.000000,4.000000,4.000000,4.000000,4.000000,4.000000,4.000000,4.000000,4.000000,4.000000,4.000000,4.000000,4.000000,4.000000,4.000000,4.000000,4.000000,4.000000,4.000000,2.000000,4.000000,4.000000,4.000000,4.000000,4.000000,4.000000,4.000000,4.000000,4.000000,4.000000,4.000000,4.000000,83.333336
1613872726.831452,33.000000,0.000000,-5.956901,9.998977,52.524994,23.134098,-9.853926,2.979015,-6.773518,-6.194510,-13.793873,-31.893059,-37.147354,-18.455948,-36.117451,-155.738327,-50.379051,-119.712349,-8.621966,-52.003773,-19.922375,-5.743220,-57.203403,-26.208187,-17.913973,-20.922421,-42.003845,-16.714811,6.076685,9.130883,14.978921,-18.524143,16.360451,21.576899,8064.000000,0.000000,4.000000,,,,0.000000,4.000000,4.000000,4.000000,4.000000,4.000000,4.000000,4.000000,4.000000,4.000000,4.000000,4.000000,4.000000,4.000000,4.000000,4.000000,4.000000,4.000000,4.000000,4.000000,2.000000,4.000000,4.000000,4.000000,4.000000,4.000000,4.000000,4.000000,4.000000,4.000000,4.000000,4.000000,4.000000,83.333336
1613872726.839102,34.000000,0.000000,-5.438124,8.963337,52.472469,23.623785,-10.869713,2.463215,-4.715462,-4.137033,-10.703156,-21.091934,-15.571746,-12.283646,-12.491588,-122.762070,-34.431236,-94.464432,-4.510780,-39.131256,-17.338350,-1.122093,-54.069275,-21.053774,-17.896059,-21.414320,-42.474659,-17.210917,6.583429,13.224317,14.451122,-19.531261,18.908194,23.093782,8064.000000,0.000000,4.000000,,,,0.000000,4.000000,4.000000,4.000000,4.000000,4.000000,4.000000,4.000000,4.000000,4.000000,4.000000,4.000000,4.000000,4.000000,4.000000,4.000000,4.000000,4.000000,4.000000,4.000000,2.000000,4.000000,4.000000,4.000000,4.000000,4.000000,4.000000,4.000000,4.000000,4.000000,4.000000,4.000000,4.000000,83.333336
1613872726.846851,35.000000,0.000000,-2.355762,8.954373,52.419998,29.754007,-1.115254,5.024855,-2.659465,2.020950,-3.512966,2.518901,11.623313,-9.707259,15.213211,-89.818794,-5.166035,-61.549454,8.827065,-6.784432,15.499501,20.930311,-26.322899,-3.596823,-15.826881,-18.828802,-29.611673,-13.091142,8.628127,9.108528,15.462312,-18.998909,19.914927,23.070688,8064.000000,0.000000,4.000000,,,,0.000000,4.000000,4.000000,4.000000,4.000000,4.000000,4.000000,4.000000,4.000000,4.000000,4.000000,4.000000,4.000000,4.000000,4.000000,4.000000,4.000000,4.000000,4.000000,4.000000,2.000000,4.000000,4.000000,4.000000,4.000000,4.000000,4.000000,4.000000,4.000000,4.000000,4.000000,4.000000,4.000000,83.333336
1613872726.854500,36.000000,0.000000,1.236337,11.509521,52.367577,34.852459,8.629452,16.301882,-1.631164,8.172775,-1.458171,18.413818,22.893742,-7.133450,21.351845,-69.728981,12.275028,-32.257133,21.638750,23.478764,48.304516,40.909382,6.011117,12.817030,-9.657208,-9.579205,-12.658985,-7.437025,10.670781,16.278908,18.523773,-15.390166,19.382191,23.560438,8064.000000,0.000000,4.000000,,,,0.000000,4.000000,4.000000,4.000000,4.000000,4.000000,4.000000,4.000000,4.000000,4.000000,4.000000,4.000000,4.000000,4.000000,4.000000,4.000000,4.000000,4.000000,4.000000,4.000000,2.000000,4.000000,4.000000,4.000000,4.000000,4.000000,4.000000,4.000000,4.000000,4.000000,4.000000,4.000000,4.000000,83.333336
1613872726.862249,37.000000,0.000000,2.260741,13.036473,52.315208,34.817604,8.620822,23.977886,-0.091072,9.703064,-2.995174,14.292840,20.306744,-4.562213,19.279211,-70.684891,13.288394,-29.147953,19.565828,36.275795,59.538261,43.432575,14.723054,15.368316,-6.057807,-3.928599,-9.056582,-4.865485,10.147290,17.801090,21.582172,-12.297853,19.362808,22.511238,8064.000000,0.000000,4.000000,,,,0.000000,4.000000,4.000000,4.000000,4.000000,4.000000,4.000000,4.000000,4.000000,4.000000,4.000000,4.000000,4.000000,4.000000,4.000000,4.000000,4.000000,4.000000,4.000000,4.000000,2.000000,4.000000,4.000000,4.000000,4.000000,4.000000,4.000000,4.000000,4.000000,4.000000,4.000000,4.000000,4.000000,83.333336
1613872726.869898,38.000000,0.000000,1.745660,12.510616,52.262894,34.269966,7.073740,22.415447,1.447481,9.180540,-2.479358,7.099060,19.773617,-4.044831,20.798393,-66.511642,11.736644,-28.605986,11.341135,37.777981,57.940262,42.876320,12.144229,12.788845,-6.051750,-4.437491,-12.124449,-5.373440,10.137142,4.449955,22.073410,-11.772735,19.343447,23.514368,8064.000000,0.000000,4.000000,,,,0.000000,4.000000,4.000000,4.000000,4.000000,4.000000,4.000000,4.000000,4.000000,4.000000,4.000000,4.000000,4.000000,4.000000,4.000000,4.000000,4.000000,4.000000,4.000000,4.000000,2.000000,4.000000,4.000000,4.000000,4.000000,4.000000,4.000000,4.000000,4.000000,4.000000,4.000000,4.000000,4.000000,83.333336
1613872726.877747,39.000000,0.000000,2.256735,12.498106,52.210632,34.748516,8.092307,22.393032,0.933213,10.197001,-1.451238,8.117601,20.779484,-4.553607,13.598107,-69.522049,5.571062,-30.115841,6.201589,39.278667,57.369499,39.756523,14.696187,12.776056,-6.558518,-4.945874,-10.061042,-5.368067,10.127006,4.958326,22.051336,-11.760962,19.324102,28.106237,8192.000000,0.000000,4.000000,,,,0.000000,4.000000,4.000000,4.000000,4.000000,4.000000,4.000000,4.000000,4.000000,4.000000,4.000000,4.000000,4.000000,4.000000,4.000000,4.000000,4.000000,4.000000,4.000000,4.000000,2.000000,4.000000,4.000000,4.000000,4.000000,4.000000,4.000000,4.000000,4.000000,4.000000,4.000000,4.000000,4.000000,83.333336
1613872726.885496,40.000000,0.000000,1.741658,12.485608,52.158421,34.713768,9.109856,22.370640,0.419459,9.161162,-1.962607,8.622305,9.989474,-5.061873,-0.774465,-93.042274,-6.229382,-42.393417,4.144105,37.188107,51.158283,29.460356,6.989183,2.506870,-8.090422,-4.940928,-9.538160,-4.849878,10.116879,4.440547,22.029285,-9.185099,19.304779,31.155054,8064.000000,0.000000,4.000000,,,,0.000000,4.000000,4.000000,4.000000,4.000000,4.000000,4.000000,4.000000,4.000000,4.000000,4.000000,4.000000,4.000000,4.000000,4.000000,4.000000,4.000000,4.000000,4.000000,4.000000,2.000000,4.000000,4.000000,4.000000,4.000000,4.000000,4.000000,4.000000,4.000000,4.000000,4.000000,4.000000,4.000000,83.333336
1613872726.893345,41.000000,0.000000,1.739916,12.473123,52.106262,34.166237,7.562284,19.271345,0.931860,4.536617,-2.473465,5.023939,-5.405130,-4.543991,-6.927537,-112.436409,-14.941101,-56.709999,-0.988244,19.202200,30.081486,17.123203,-16.607550,-18.008457,-10.133614,-4.423167,-10.554263,-5.357849,10.106762,-7.358766,21.494436,-7.124632,18.772654,29.585438,8064.000000,0.000000,4.000000,,,,0.000000,4.000000,4.000000,4.000000,4.000000,4.000000,4.000000,4.000000,4.000000,4.000000,4.000000,4.000000,4.000000,4.000000,4.000000,4.000000,4.000000,4.000000,4.000000,4.000000,2.000000,4.000000,4.000000,4.000000,4.000000,4.000000,4.000000,4.000000,4.000000,4.000000,4.000000,4.000000,4.000000,83.333336
1613872726.901094,42.000000,0.000000,2.250997,12.460649,52.054157,34.132069,6.016260,17.713612,2.982211,1.967978,-1.958171,3.480453,-7.963828,-4.539447,-8.971891,-115.400902,-24.156929,-72.037903,-10.730845,-5.945208,4.923199,1.208643,-42.744789,-31.836603,-10.123480,-4.418744,-9.518068,-4.839670,10.096655,4.956285,25.575506,-7.630328,20.292341,29.555853,8064.000000,0.000000,4.000000,,,,0.000000,4.000000,4.000000,4.000000,4.000000,4.000000,4.000000,4.000000,4.000000,4.000000,4.000000,4.000000,4.000000,4.000000,4.000000,4.000000,4.000000,4.000000,4.000000,4.000000,2.000000,4.000000,4.000000,4.000000,4.000000,4.000000,4.000000,4.000000,4.000000,4.000000,4.000000,4.000000,4.000000,83.333336
1613872726.908943,43.000000,0.000000,0.710284,12.448189,52.002102,34.097939,4.984603,18.721540,5.030510,1.966010,-1.956213,-0.112771,-8.981505,-6.073369,-15.629586,-126.567551,-35.927643,-92.991508,-12.771397,-24.400801,-8.415058,-14.177180,-59.625122,-32.317589,-10.113357,-11.080992,-12.585473,-4.834831,10.086558,19.823124,31.703775,-8.648338,22.836153,33.116039,8064.000000,0.000000,4.000000,,,,0.000000,4.000000,4.000000,4.000000,4.000000,4.000000,4.000000,4.000000,4.000000,4.000000,4.000000,4.000000,4.000000,4.000000,4.000000,4.000000,4.000000,4.000000,4.000000,4.000000,2.000000,4.000000,4.000000,4.000000,4.000000,4.000000,4.000000,4.000000,4.000000,4.000000,4.000000,4.000000,4.000000,83.333336
1613872726.916692,44.000000,0.000000,-1.854529,12.948561,51.950100,34.576660,0.877054,16.138716,4.512660,0.425582,-7.595283,-10.881888,-18.716114,-8.631398,-23.819084,-147.979446,-44.096844,-105.206207,-7.117600,-37.709732,-8.919463,-17.239927,-67.257805,-31.772449,-10.103243,-19.787859,-21.290836,-6.368457,10.076471,10.059711,33.723354,-7.101228,23.326136,32.570103,8064.000000,0.000000,4.000000,,,,0.000000,4.000000,4.000000,4.000000,4.000000,4.000000,4.000000,4.000000,4.000000,4.000000,4.000000,4.000000,4.000000,4.000000,4.000000,4.000000,4.000000,4.000000,4.000000,4.000000,2.000000,4.000000,4.000000,4.000000,4.000000,4.000000,4.000000,4.000000,4.000000,4.000000,4.000000,4.000000,4.000000,83.333336
1613872726.924541,45.000000,0.000000,-2.365494,12.422791,51.898151,34.029263,-5.790489,11.507193,4.508147,-2.138946,-13.741533,-19.588955,-24.338423,-9.135588,-28.410650,-155.010956,-49.693771,-110.229210,-9.161764,-46.902794,-6.859262,-14.145763,-74.882851,-32.253498,-10.093140,-21.306534,-36.141342,-7.900550,10.066395,7.998370,33.176811,-7.606947,22.789989,27.409328,8064.000000,0.000000,4.000000,,,,0.000000,4.000000,4.000000,4.000000,4.000000,4.000000,4.000000,4.000000,4.000000,4.000000,4.000000,4.000000,4.000000,4.000000,4.000000,4.000000,4.000000,4.000000,4.000000,4.000000,2.000000,4.000000,4.000000,4.000000,4.000000,4.000000,4.000000,4.000000,4.000000,4.000000,4.000000,4.000000,4.000000,83.333336
1613872726.932290,46.000000,0.000000,-1.850309,12.923189,51.846252,33.995232,-8.348802,9.957224,4.503639,-2.649628,-14.753432,-20.082188,-23.288443,-8.613631,-29.407881,-153.830292,-54.772285,-122.426666,-13.767987,-54.035378,-8.903685,-16.182899,-85.577202,-32.734066,-10.083047,-19.233944,-53.541096,-10.969573,9.543509,10.554474,32.117992,-17.342930,22.767200,25.330637,8064.000000,0.000000,4.000000,,,,0.000000,4.000000,4.000000,4.000000,4.000000,4.000000,4.000000,4.000000,4.000000,4.000000,4.000000,4.000000,4.000000,4.000000,4.000000,4.000000,4.000000,4.000000,4.000000,4.000000,2.000000,4.000000,4.000000,4.000000,4.000000,4.000000,4.000000,4.000000,4.000000,4.000000,4.000000,4.000000,4.000000,83.333336
1613872726.940139,47.000000,0.000000,-1.848458,12.910266,51.794407,34.986877,-6.801991,11.485728,4.499135,-2.134157,-13.200218,-19.036465,-22.239513,-9.117838,-29.378473,-157.779037,-57.281616,-129.483734,-10.164475,-56.032623,-8.894781,-14.628256,-86.517265,-35.778252,-10.072964,-23.317274,-60.154221,-17.112450,10.046785,-2.789414,28.496132,-27.069178,22.744432,26.843767,8064.000000,0.000000,4.000000,,,,0.000000,4.000000,4.000000,4.000000,4.000000,4.000000,4.000000,4.000000,4.000000,4.000000,4.000000,4.000000,4.000000,4.000000,4.000000,4.000000,4.000000,4.000000,4.000000,4.000000,2.000000,4.000000,4.000000,4.000000,4.000000,4.000000,4.000000,4.000000,4.000000,4.000000,4.000000,4.000000,4.000000,83.333336
1613872726.947888,48.000000,0.000000,-1.846610,9.820433,51.742611,31.874969,-6.795189,10.448601,4.494636,-1.619203,-13.699838,-19.530249,-22.217274,-8.595900,-29.861916,-160.698181,-55.685871,-118.585014,-10.154311,-39.053516,2.396165,-1.280294,-65.917931,-32.665550,-10.062890,-28.934982,-52.914581,-20.685081,10.036738,-7.914830,25.390713,-27.042109,22.721689,24.765642,8064.000000,0.000000,4.000000,,,,0.000000,4.000000,4.000000,4.000000,4.000000,4.000000,4.000000,4.000000,4.000000,4.000000,4.000000,4.000000,4.000000,4.000000,4.000000,4.000000,4.000000,4.000000,4.000000,4.000000,2.000000,4.000000,4.000000,4.000000,4.000000,4.000000,4.000000,4.000000,4.000000,4.000000,4.000000,4.000000,4.000000,83.333336
1613872726.955737,49.000000,0.000000,-1.844763,5.195228,51.690868,25.176428,-7.814035,7.874050,3.977321,-2.130404,-14.711780,-20.023539,-23.733519,-8.587304,-28.293592,-154.383636,-45.373775,-100.004890,-13.221080,-13.373436,18.291204,14.105602,-33.031498,-19.812374,-10.052828,-25.316305,-48.759102,-19.638754,9.513882,-6.368454,24.852501,-26.502245,22.698967,22.176773,8064.000000,0.000000,4.000000,,,,0.000000,4.000000,4.000000,4.000000,4.000000,4.000000,4.000000,4.000000,4.000000,4.000000,4.000000,4.000000,4.000000,4.000000,4.000000,4.000000,4.000000,4.000000,4.000000,4.000000,2.000000,4.000000,4.000000,4.000000,4.000000,4.000000,4.000000,4.000000,4.000000,4.000000,4.000000,4.000000,4.000000,83.333336
1613872726.963486,50.000000,0.000000,-1.842918,4.677212,51.126358,23.099968,-6.780580,6.840535,3.973343,-2.128274,-11.107324,-16.926592,-20.120041,-9.091537,-18.521708,-136.793350,-26.866863,-78.366425,-6.541192,-1.565191,23.913939,21.270983,-9.921541,-9.536151,-10.042775,-16.060219,-45.633419,-18.080654,10.530008,-10.977469,25.340469,-26.988564,22.676268,22.154596,8064.000000,0.000000,4.000000,,,,0.000000,4.000000,4.000000,4.000000,4.000000,4.000000,4.000000,4.000000,4.000000,4.000000,4.000000,4.000000,4.000000,4.000000,4.000000,4.000000,4.000000,4.000000,4.000000,4.000000,2.000000,4.000000,4.000000,4.000000,4.000000,4.000000,4.000000,4.000000,4.000000,4.000000,4.000000,4.000000,4.000000,83.333336
1613872726.971335,51.000000,0.000000,-1.841075,5.185356,51.588051,26.153791,-4.209697,7.346515,7.046293,1.976419,-4.429550,-6.653255,-2.151204,-7.543984,-5.682674,-106.912964,-9.916920,-57.775238,-2.432087,7.154324,26.966949,22.788174,-4.783415,-7.475333,-10.545552,-10.403133,-31.228811,-15.498471,13.083581,-6.351108,25.315128,-21.833370,22.653591,22.645264,8064.000000,0.000000,4.000000,,,,0.000000,4.000000,4.000000,4.000000,4.000000,4.000000,4.000000,4.000000,4.000000,4.000000,4.000000,4.000000,4.000000,4.000000,4.000000,4.000000,4.000000,4.000000,4.000000,4.000000,2.000000,4.000000,4.000000,4.000000,4.000000,4.000000,4.000000,4.000000,4.000000,4.000000,4.000000,4.000000,4.000000,83.333336
1613872726.979085,52.000000,0.000000,-1.839234,4.667349,51.536465,27.153278,-2.667026,7.339169,8.064888,8.128288,-1.348197,2.071347,11.697102,-4.972337,-1.574427,-86.293236,-3.240336,-48.999516,-10.634783,18.942041,35.657928,24.303848,-4.778632,-7.980678,-10.022186,-5.264525,-17.351429,-10.867588,14.096138,-1.216551,25.289812,-15.657690,22.630938,22.109797,8064.000000,0.000000,4.000000,,,,0.000000,4.000000,4.000000,4.000000,4.000000,4.000000,4.000000,4.000000,4.000000,4.000000,4.000000,4.000000,4.000000,4.000000,4.000000,4.000000,4.000000,4.000000,4.000000,4.000000,2.000000,4.000000,4.000000,4.000000,4.000000,4.000000,4.000000,4.000000,4.000000,4.000000,4.000000,4.000000,4.000000,83.333336
1613872726.986734,53.000000,0.000000,-1.837395,4.662682,50.972107,26.100485,-3.690000,6.819009,4.979900,10.684262,-2.372490,4.633379,9.121302,-4.454545,-3.624135,-92.360786,-6.314019,-48.437695,-18.316456,15.846176,32.545349,22.228262,-4.773853,-10.023979,-10.012164,1.920227,-16.308437,-8.292618,13.056401,-1.215335,25.264523,-14.616392,22.608307,22.087687,8064.000000,0.000000,4.000000,,,,0.000000,4.000000,4.000000,4.000000,4.000000,4.000000,4.000000,4.000000,4.000000,4.000000,4.000000,4.000000,4.000000,4.000000,4.000000,4.000000,4.000000,4.000000,4.000000,4.000000,2.000000,4.000000,4.000000,4.000000,4.000000,4.000000,4.000000,4.000000,4.000000,4.000000,4.000000,4.000000,4.000000,83.333336
1613872726.994483,54.000000,0.000000,-0.809917,4.658020,52.972416,26.587204,-1.635028,8.350651,4.974920,10.160758,-2.370118,5.141565,4.496796,-4.450090,-5.158972,-103.550476,-14.512833,-53.004642,-12.144293,4.548278,20.717932,18.616289,-8.358823,-11.039597,-11.027793,2.943948,-18.343410,-7.771505,13.556166,9.042291,25.239258,-15.114596,22.585699,22.578421,8064.000000,0.000000,4.000000,,,,0.000000,4.000000,4.000000,4.000000,4.000000,4.000000,4.000000,4.000000,4.000000,4.000000,4.000000,4.000000,4.000000,4.000000,4.000000,4.000000,4.000000,4.000000,4.000000,4.000000,2.000000,4.000000,4.000000,4.000000,4.000000,4.000000,4.000000,4.000000,4.000000,4.000000,4.000000,4.000000,4.000000,83.333336
1613872727.002132,55.000000,0.000000,-2.347568,5.679003,57.022007,26.560617,1.956351,10.393582,10.098150,9.637776,-0.829286,4.110783,4.492299,-3.932819,-5.153813,-104.472565,-16.036781,-61.669586,5.303749,3.005269,19.671574,20.136135,-10.914566,-7.438813,-6.401381,-1.161560,-16.786606,-5.712451,16.106712,14.674274,25.214020,-14.586660,22.563112,25.119944,8192.000000,0.000000,4.000000,,,,0.000000,4.000000,4.000000,4.000000,4.000000,4.000000,4.000000,4.000000,4.000000,4.000000,4.000000,4.000000,4.000000,4.000000,4.000000,4.000000,4.000000,4.000000,4.000000,4.000000,2.000000,4.000000,4.000000,4.000000,4.000000,4.000000,4.000000,4.000000,4.000000,4.000000,4.000000,4.000000,4.000000,83.333336
1613872727.009881,56.000000,0.000000,-1.319580,8.237426,59.016270,26.534058,4.518497,10.896009,12.139334,11.679420,-0.315636,3.081031,3.974986,-2.390425,-5.661480,-107.445015,-17.559206,-71.864326,15.554855,1.463802,17.087799,17.551897,-21.160063,-5.892913,1.297328,-1.160399,-17.282640,-4.168277,17.629066,11.069857,25.188805,-14.572074,22.540550,26.633286,8064.000000,0.000000,4.000000,,,,0.000000,4.000000,4.000000,4.000000,4.000000,4.000000,4.000000,4.000000,4.000000,4.000000,4.000000,4.000000,4.000000,4.000000,4.000000,4.000000,4.000000,4.000000,4.000000,4.000000,2.000000,4.000000,4.000000,4.000000,4.000000,4.000000,4.000000,4.000000,4.000000,4.000000,4.000000,4.000000,4.000000,83.333336
1613872727.017530,57.000000,0.000000,2.271483,8.742009,59.470074,25.994701,4.513979,12.936396,11.101554,13.719024,0.710321,4.103591,3.971011,-1.875214,-12.322485,-121.183731,-36.003185,-90.253998,9.898274,-10.332534,0.660455,4.201011,-44.215824,-13.066507,0.270390,-2.184880,-21.880741,-6.728211,17.098618,19.263914,25.163616,-14.557502,22.518009,25.581011,8064.000000,0.000000,4.000000,,,,0.000000,4.000000,4.000000,4.000000,4.000000,4.000000,4.000000,4.000000,4.000000,4.000000,4.000000,4.000000,4.000000,4.000000,4.000000,4.000000,4.000000,4.000000,4.000000,4.000000,2.000000,4.000000,4.000000,4.000000,4.000000,4.000000,4.000000,4.000000,4.000000,4.000000,4.000000,4.000000,4.000000,83.333336
1613872727.025279,58.000000,0.000000,-0.807711,8.733267,57.359322,26.481527,1.945362,14.974741,12.116094,3.448894,2.248072,-5.644102,-3.212447,-4.950262,-27.694778,-143.626648,-59.556927,-115.291954,1.683248,-30.322201,-10.622257,-4.008318,-60.069046,-24.335491,-7.422188,-7.823720,-25.961426,-8.772765,17.081518,17.706190,25.138453,-15.055765,22.495491,26.068251,8064.000000,0.000000,4.000000,,,,0.000000,4.000000,4.000000,4.000000,4.000000,4.000000,4.000000,4.000000,4.000000,4.000000,4.000000,4.000000,4.000000,4.000000,4.000000,4.000000,4.000000,4.000000,4.000000,4.000000,2.000000,4.000000,4.000000,4.000000,4.000000,4.000000,4.000000,4.000000,4.000000,4.000000,4.000000,4.000000,4.000000,83.333336
1613872727.032929,59.000000,0.000000,-9.524852,8.724534,53.199398,25.942226,-4.723250,6.754638,6.975772,-16.554554,-4.933663,-31.279484,-23.209234,-17.253004,-47.667084,-171.175323,-69.240959,-128.509995,-8.574845,-50.291878,-12.662916,-5.029951,-60.521797,-31.490643,-11.004509,-11.918461,-27.473925,-8.763992,17.064436,0.252586,25.113314,-17.604813,20.421713,26.555004,8064.000000,0.000000,4.000000,,,,0.000000,4.000000,4.000000,4.000000,4.000000,4.000000,4.000000,4.000000,4.000000,4.000000,4.000000,4.000000,4.000000,4.000000,4.000000,4.000000,4.000000,4.000000,4.000000,4.000000,2.000000,4.000000,4.000000,4.000000,4.000000,4.000000,4.000000,4.000000,4.000000,4.000000,4.000000,4.000000,4.000000,83.333336
1613872727.040678,60.000000,0.000000,-14.643533,8.715810,51.607735,25.916285,-9.333911,-2.995706,-2.261973,-25.255949,-17.236422,-45.094357,-35.493717,-29.030622,-56.850185,-181.773376,-66.607613,-128.381485,-27.540630,-53.831329,-11.624613,-5.024921,-60.974094,-31.971973,-10.993505,-15.496285,-28.984913,-8.755229,17.047373,1.790795,25.088202,-18.612848,18.862831,23.964346,8064.000000,0.000000,4.000000,,,,0.000000,4.000000,4.000000,4.000000,4.000000,4.000000,4.000000,4.000000,4.000000,4.000000,4.000000,4.000000,4.000000,4.000000,4.000000,4.000000,4.000000,4.000000,4.000000,4.000000,2.000000,4.000000,4.000000,4.000000,4.000000,4.000000,4.000000,4.000000,4.000000,4.000000,4.000000,4.000000,4.000000,83.333336
1613872727.048327,61.000000,0.000000,-13.603248,9.219914,54.120232,28.967291,-5.734834,4.186777,-0.721250,-13.435822,-15.167904,-29.151829,-25.714634,-21.822105,-39.870258,-161.591614,-47.053829,-110.304382,-24.948986,-30.700577,5.310089,10.364719,-52.707993,-21.170771,-7.392768,-17.019251,-31.007210,-8.746473,17.543146,12.558234,25.063112,-18.594234,18.331146,22.401920,8064.000000,0.000000,4.000000,,,,0.000000,4.000000,4.000000,4.000000,4.000000,4.000000,4.000000,4.000000,4.000000,4.000000,4.000000,4.000000,4.000000,4.000000,4.000000,4.000000,4.000000,4.000000,4.000000,4.000000,2.000000,4.000000,4.000000,4.000000,4.000000,4.000000,4.000000,4.000000,4.000000,4.000000,4.000000,4.000000,4.000000,83.333336
1613872727.056076,62.000000,0.000000,-7.435799,11.261976,54.578930,33.040886,3.501670,19.054384,7.484600,3.500692,0.231880,-2.456009,-8.253022,0.250999,-7.522696,-128.609512,-14.186261,-77.373566,3.281091,1.637816,34.022728,36.508202,-24.962978,3.465785,0.306933,-11.874026,-23.283895,-8.737727,19.576885,11.520036,25.038050,-18.575642,18.825636,22.379519,8064.000000,0.000000,4.000000,,,,0.000000,4.000000,4.000000,4.000000,4.000000,4.000000,4.000000,4.000000,4.000000,4.000000,4.000000,4.000000,4.000000,4.000000,4.000000,4.000000,4.000000,4.000000,4.000000,4.000000,2.000000,4.000000,4.000000,4.000000,4.000000,4.000000,4.000000,4.000000,4.000000,4.000000,4.000000,4.000000,4.000000,83.333336
1613872727.063725,63.000000,0.000000,0.263945,12.789176,56.062813,34.033489,8.113553,23.137896,9.015577,11.702319,6.898314,11.905421,6.627026,12.045620,11.459187,-98.224487,8.904848,-44.475681,14.047041,18.559256,47.322037,45.189640,-0.322630,23.975140,4.922010,-2.631383,-10.952919,-8.728990,21.095770,10.995695,25.013012,-18.557066,18.806810,20.305857,8064.000000,0.000000,4.000000,,,,0.000000,4.000000,4.000000,4.000000,4.000000,4.000000,4.000000,4.000000,4.000000,4.000000,4.000000,4.000000,4.000000,4.000000,4.000000,4.000000,4.000000,4.000000,4.000000,4.000000,2.000000,4.000000,4.000000,4.000000,4.000000,4.000000,4.000000,4.000000,4.000000,4.000000,4.000000,4.000000,4.000000,83.333336
1613872727.071474,64.000000,0.000000,2.827784,12.263566,57.032391,32.973812,7.592619,21.063475,5.416818,12.716258,4.327313,14.457618,19.440912,10.495112,12.986189,-79.151901,11.460046,-40.328640,11.468891,18.027876,46.249077,41.041889,2.241795,21.387062,4.917089,2.499453,-12.480427,-8.720261,20.049032,6.882135,24.987999,-19.564150,18.788004,18.234268,0.000000,212.000000,4.000000,,,,0.000000,4.000000,4.000000,4.000000,4.000000,4.000000,4.000000,4.000000,4.000000,4.000000,4.000000,4.000000,4.000000,4.000000,4.000000,4.000000,4.000000,4.000000,4.000000,4.000000,2.000000,4.000000,4.000000,4.000000,4.000000,4.000000,4.000000,4.000000,4.000000,4.000000,4.000000,4.000000,4.000000,83.333336
1613872727.079123,65.000000,0.000000,1.799315,12.251303,55.436897,33.453659,7.072206,21.555231,4.385760,13.216362,4.835807,14.955981,23.524035,9.971797,12.973203,-71.893265,11.448586,-40.288311,19.662550,18.009848,44.151543,36.385460,-3.914293,7.519521,4.399351,2.496954,-23.237177,-9.224360,17.464880,1.234227,24.450190,-22.108688,18.769217,20.780136,0.000000,176.000000,4.000000,,,,0.000000,4.000000,4.000000,4.000000,4.000000,4.000000,4.000000,4.000000,4.000000,4.000000,4.000000,4.000000,4.000000,4.000000,4.000000,4.000000,4.000000,4.000000,4.000000,4.000000,2.000000,4.000000,4.000000,4.000000,4.000000,4.000000,4.000000,4.000000,4.000000,4.000000,4.000000,4.000000,4.000000,83.333336
1613872727.086872,66.000000,0.000000,2.310336,12.239051,53.842999,33.933025,8.090775,22.559317,4.381374,13.715966,5.856612,15.966666,23.500511,10.987467,15.011511,-70.795731,10.924316,-39.735203,17.078785,21.581581,40.517651,22.502922,-8.525763,2.896617,3.369310,0.443175,-25.778044,-9.215137,16.934595,9.438121,24.938560,-22.599400,18.750446,20.759357,0.000000,196.000000,4.000000,,,,0.000000,4.000000,4.000000,4.000000,4.000000,4.000000,4.000000,4.000000,4.000000,4.000000,4.000000,4.000000,4.000000,4.000000,4.000000,4.000000,4.000000,4.000000,4.000000,4.000000,2.000000,4.000000,4.000000,4.000000,4.000000,4.000000,4.000000,4.000000,4.000000,4.000000,4.000000,4.000000,4.000000,83.333336
1613872727.094522,67.000000,0.000000,2.820846,12.226812,54.301975,32.873451,8.082685,22.023937,4.376993,13.702250,5.850755,15.950700,25.015472,10.463658,13.970859,-70.212112,3.221084,-55.080082,4.241193,16.431795,36.374565,8.121445,-14.671083,3.406541,1.314659,-1.095730,-21.649700,-8.693100,16.917662,14.044067,24.913622,-22.576799,18.731697,18.687315,0.000000,184.000000,4.000000,,,,0.000000,4.000000,4.000000,4.000000,4.000000,4.000000,4.000000,4.000000,4.000000,4.000000,4.000000,4.000000,4.000000,4.000000,4.000000,4.000000,4.000000,4.000000,4.000000,4.000000,2.000000,4.000000,4.000000,4.000000,4.000000,4.000000,4.000000,4.000000,4.000000,4.000000,4.000000,4.000000,4.000000,83.333336
1613872727.102271,68.000000,0.000000,1.792384,12.214585,53.734856,33.353401,8.074601,21.489094,4.372616,13.175728,5.332084,13.370646,20.887892,10.966015,12.418427,-73.731644,-2.423162,-68.358337,7.313875,4.620492,30.697166,6.062041,-21.323078,1.864673,0.287703,-1.094634,-21.115231,-9.197227,16.900743,15.055665,24.375889,-22.041403,18.200144,20.719910,0.000000,188.000000,4.000000,,,,0.000000,4.000000,4.000000,4.000000,4.000000,4.000000,4.000000,4.000000,4.000000,4.000000,4.000000,4.000000,4.000000,4.000000,4.000000,4.000000,4.000000,4.000000,4.000000,4.000000,2.000000,4.000000,4.000000,4.000000,4.000000,4.000000,4.000000,4.000000,4.000000,4.000000,4.000000,4.000000,4.000000,83.333336
1613872727.109920,69.000000,0.000000,1.790592,12.202371,56.245224,35.371326,7.040886,21.467604,4.368243,12.649732,4.813931,10.793173,16.764441,8.903768,12.406008,-78.273300,-0.882278,-68.289978,11.409125,1.538948,21.435699,7.081620,-23.353039,1.862808,1.313057,-2.119181,-22.632576,-8.162390,16.883842,25.809839,25.377153,-20.480900,19.720406,21.724831,0.000000,179.000000,4.000000,,,,0.000000,4.000000,4.000000,4.000000,4.000000,4.000000,4.000000,4.000000,4.000000,4.000000,4.000000,4.000000,4.000000,4.000000,4.000000,4.000000,4.000000,4.000000,4.000000,4.000000,2.000000,4.000000,4.000000,4.000000,4.000000,4.000000,4.000000,4.000000,4.000000,4.000000,4.000000,4.000000,4.000000,83.333336
