title:4, start timestamp:1614943208.875907, stop timestamp:1614943254.928529, headset type:EPOCFLEX, headset serial:F00001ED, headset firmware:f12, subject name:s17, channels:75, sampling rate:128, samples:5949      , version:2.0
Timestamp,EEG.Counter,EEG.Interpolated,EEG.Cz,EEG.Fz,EEG.Fp1,EEG.AF3,EEG.F7,EEG.F3,EEG.FC1,EEG.C3,EEG.FC5,EEG.T7,EEG.CP5,EEG.CP1,EEG.P3,EEG.P7,EEG.PO3,EEG.O1,EEG.Pz,EEG.Oz,EEG.O2,EEG.PO4,EEG.P8,EEG.P4,EEG.CP2,EEG.CP6,EEG.T8,EEG.FC6,EEG.C4,EEG.FC2,EEG.F4,EEG.F8,EEG.AF4,EEG.Fp2,EEG.HighBitFlex,EEG.RawCq,EEG.Battery,MarkerIndex,MarkerType,MarkerValueInt,EEG.MarkerHardware,CQ.Cz,CQ.Fz,CQ.Fp1,CQ.AF3,CQ.F7,CQ.F3,CQ.FC1,CQ.C3,CQ.FC5,CQ.T7,CQ.CP5,CQ.CP1,CQ.P3,CQ.P7,CQ.PO3,CQ.O1,CQ.Pz,CQ.Oz,CQ.O2,CQ.PO4,CQ.P8,CQ.P4,CQ.CP2,CQ.CP6,CQ.T8,CQ.FC6,CQ.C4,CQ.FC2,CQ.F4,CQ.F8,CQ.AF4,CQ.Fp2,CQ.Overall
1614943208.875907,54.000000,0.000000,3.295668,-5.328944,-7.380969,-5.931828,3.072031,-0.838336,-6.014163,-8.713054,-6.073432,-12.963697,-19.062847,-4.955141,-34.294704,-68.347450,-58.310486,-39.211056,-22.491491,-30.950922,-13.467355,-17.465683,-66.538246,-74.768143,-17.473240,-17.785069,-18.128487,-9.925183,-10.769804,-2.260148,-6.044075,-3.561406,-7.793010,-44.944317,8064.000000,0.000000,4.000000,,,,0.000000,4.000000,4.000000,4.000000,4.000000,4.000000,4.000000,4.000000,4.000000,4.000000,4.000000,4.000000,4.000000,4.000000,4.000000,4.000000,4.000000,4.000000,4.000000,4.000000,4.000000,4.000000,4.000000,4.000000,4.000000,4.000000,4.000000,4.000000,4.000000,4.000000,4.000000,4.000000,4.000000,100.000000
1614943208.883557,55.000000,0.000000,2.779552,-5.323615,-6.860767,-5.925896,1.017677,-0.837497,-7.033790,-10.242803,-5.554538,-12.437913,-17.505323,-4.437365,-36.824512,-75.971413,-65.431664,-51.479538,-21.956179,-35.535355,-13.966707,-14.884115,-67.497345,-73.667732,-16.430126,-17.254463,-23.238562,-8.376797,-10.246214,-2.257888,-5.525211,-13.814255,-4.195474,-44.899372,8064.000000,0.000000,4.000000,,,,0.000000,4.000000,4.000000,4.000000,4.000000,4.000000,4.000000,4.000000,4.000000,4.000000,4.000000,4.000000,4.000000,4.000000,4.000000,4.000000,4.000000,4.000000,4.000000,4.000000,4.000000,4.000000,4.000000,4.000000,4.000000,4.000000,4.000000,4.000000,4.000000,4.000000,4.000000,4.000000,4.000000,100.000000
1614943208.891406,56.000000,0.000000,3.289593,-5.318292,-7.879547,-5.919970,-4.111546,-0.836660,-9.590859,-11.771021,-5.548984,-12.938295,-21.590382,-4.945748,-36.274868,-78.972366,-66.904694,-60.658825,-22.959864,-43.192127,-18.568125,-17.433334,-69.481133,-75.645348,-16.413696,-16.724388,-31.933273,-13.496625,-12.287250,-3.794092,-7.058147,-29.697876,-9.832304,-48.957039,7936.000000,0.000000,4.000000,,,,0.000000,4.000000,4.000000,4.000000,4.000000,4.000000,4.000000,4.000000,4.000000,4.000000,4.000000,4.000000,4.000000,4.000000,4.000000,4.000000,4.000000,4.000000,4.000000,4.000000,4.000000,4.000000,4.000000,4.000000,4.000000,4.000000,4.000000,4.000000,4.000000,4.000000,4.000000,4.000000,4.000000,100.000000
1614943208.899155,57.000000,0.000000,3.286303,-5.825794,-11.461411,-6.426870,-6.158716,-0.835823,-10.094089,-13.297711,-6.056255,-14.976640,-30.799561,-4.427982,-37.264236,-91.201080,-82.735222,-82.136627,-23.962545,-59.046371,-19.575199,-16.903080,-67.360367,-65.313293,-17.935743,-17.733305,-34.978264,-25.278000,-15.351885,-5.841579,-9.615191,-36.334846,-16.489138,-53.523468,8064.000000,0.000000,4.000000,,,,0.000000,4.000000,4.000000,4.000000,4.000000,4.000000,4.000000,4.000000,4.000000,4.000000,4.000000,4.000000,4.000000,4.000000,4.000000,4.000000,4.000000,4.000000,4.000000,4.000000,4.000000,4.000000,4.000000,4.000000,4.000000,4.000000,4.000000,4.000000,4.000000,4.000000,4.000000,4.000000,4.000000,100.000000
1614943208.906905,58.000000,0.000000,3.795837,-5.307148,-9.398667,-5.907623,-3.588455,-0.834987,-9.058353,-13.797235,-5.537378,-16.500124,-27.179018,0.704651,-24.919279,-88.032959,-66.755051,-64.618591,-12.143711,-46.679634,-9.299212,-0.988741,-53.446854,-38.068489,-13.815245,-17.202751,-33.917645,-28.842466,-13.798072,-6.348558,-9.605577,-34.247227,-8.780341,-52.957123,8064.000000,0.000000,4.000000,,,,0.000000,4.000000,4.000000,4.000000,4.000000,4.000000,4.000000,4.000000,4.000000,4.000000,4.000000,4.000000,4.000000,4.000000,4.000000,4.000000,4.000000,4.000000,4.000000,4.000000,4.000000,4.000000,4.000000,4.000000,4.000000,4.000000,4.000000,4.000000,4.000000,4.000000,4.000000,4.000000,4.000000,100.000000
1614943208.914554,59.000000,0.000000,3.279221,-2.737738,-2.722602,-4.876074,-1.533584,-0.834152,-9.562116,-13.270617,-3.480559,-13.406701,-9.715941,3.780869,-1.304615,-56.662876,-33.867786,-31.733463,2.740227,-13.812440,8.145984,20.037889,-35.957512,-21.620165,-4.057839,-13.082985,-35.422188,-25.736700,-11.220171,-6.342210,-9.595971,-29.597597,0.459208,-50.852882,8064.000000,0.000000,4.000000,,,,0.000000,4.000000,4.000000,4.000000,4.000000,4.000000,4.000000,4.000000,4.000000,4.000000,4.000000,4.000000,4.000000,4.000000,4.000000,4.000000,4.000000,4.000000,4.000000,4.000000,4.000000,4.000000,4.000000,4.000000,4.000000,4.000000,4.000000,4.000000,4.000000,4.000000,4.000000,4.000000,4.000000,100.000000
1614943208.922303,60.000000,0.000000,3.788762,-2.222180,0.357043,-2.307096,-2.044871,-0.833318,-9.552553,-14.795808,-2.451437,-10.316371,-2.526738,3.777089,10.491561,-37.119034,-12.808277,-10.163268,6.327231,1.073167,27.625017,28.735800,-23.101040,-23.137007,0.048783,-9.992979,-33.848305,-25.198143,-11.208951,-5.310227,-10.612016,-22.901333,-2.105354,-49.263569,8064.000000,0.000000,4.000000,,,,0.000000,4.000000,4.000000,4.000000,4.000000,4.000000,4.000000,4.000000,4.000000,4.000000,4.000000,4.000000,4.000000,4.000000,4.000000,4.000000,4.000000,4.000000,4.000000,4.000000,4.000000,4.000000,4.000000,4.000000,4.000000,4.000000,4.000000,4.000000,4.000000,4.000000,4.000000,4.000000,4.000000,100.000000
1614943208.929952,61.000000,0.000000,3.784974,-0.681496,4.459250,2.310596,2.059738,-0.832485,-6.466078,-13.755371,-1.936165,-8.254773,-3.549853,3.773311,8.429788,-36.569092,-23.564699,-21.435156,5.295262,2.097735,42.469189,29.732704,-12.308709,-21.062588,-0.976907,-9.470165,-21.506763,-19.531919,-8.633639,-2.740814,-7.011661,-15.698943,0.973675,-42.547638,8064.000000,0.000000,4.000000,,,,0.000000,4.000000,4.000000,4.000000,4.000000,4.000000,4.000000,4.000000,4.000000,4.000000,4.000000,4.000000,4.000000,4.000000,4.000000,4.000000,4.000000,4.000000,4.000000,4.000000,4.000000,4.000000,4.000000,4.000000,4.000000,4.000000,4.000000,4.000000,4.000000,4.000000,4.000000,4.000000,4.000000,100.000000
1614943208.937701,62.000000,0.000000,0.704266,3.934570,10.608637,7.436491,8.724344,-0.831653,-5.433971,-12.715974,1.142694,-1.067031,-2.007841,1.718256,3.293153,-30.891499,-24.566776,-23.977823,2.725865,3.121279,39.862614,32.267075,-15.373323,-17.451780,0.049711,-8.435054,-10.716025,-10.281618,-4.009621,-1.712432,0.174838,-8.503757,11.741932,-34.812782,8064.000000,0.000000,4.000000,,,,0.000000,4.000000,4.000000,4.000000,4.000000,4.000000,4.000000,4.000000,4.000000,4.000000,4.000000,4.000000,4.000000,4.000000,4.000000,4.000000,4.000000,4.000000,4.000000,4.000000,4.000000,4.000000,4.000000,4.000000,4.000000,4.000000,4.000000,4.000000,4.000000,4.000000,4.000000,4.000000,4.000000,100.000000
1614943208.945350,63.000000,0.000000,-3.911823,6.494738,12.649311,9.480336,10.766902,-0.830821,-7.479819,-17.318644,2.167192,3.036600,-8.159679,-2.898847,-6.453731,-29.322145,-24.029388,-20.364101,-10.097374,0.554055,25.463778,27.106602,-37.922054,-30.767662,-5.591365,-5.862516,-10.705309,-10.784157,-6.056894,-2.223540,2.225945,-4.392690,12.755831,-33.239510,8064.000000,0.000000,4.000000,,,,0.000000,4.000000,4.000000,4.000000,4.000000,4.000000,4.000000,4.000000,4.000000,4.000000,4.000000,4.000000,4.000000,4.000000,4.000000,4.000000,4.000000,4.000000,4.000000,4.000000,4.000000,4.000000,4.000000,4.000000,4.000000,4.000000,4.000000,4.000000,4.000000,4.000000,4.000000,4.000000,4.000000,100.000000
1614943208.953099,64.000000,0.000000,-4.420732,5.975423,11.098200,8.445215,9.730494,-0.829990,-9.523622,-20.378248,1.139384,-1.069000,-16.869469,-4.434410,-17.729328,-42.113338,-38.364334,-24.959124,-22.394968,-4.061884,18.258827,14.771804,-51.730286,-50.736897,-17.893465,-5.343833,-12.233066,-12.311834,-10.666222,-2.221317,1.198079,-3.875476,6.076408,-33.719090,0.000000,182.000000,4.000000,,,,0.000000,4.000000,4.000000,4.000000,4.000000,4.000000,4.000000,4.000000,4.000000,4.000000,4.000000,4.000000,4.000000,4.000000,4.000000,4.000000,4.000000,4.000000,4.000000,4.000000,4.000000,4.000000,4.000000,4.000000,4.000000,4.000000,4.000000,4.000000,4.000000,4.000000,4.000000,4.000000,4.000000,100.000000
1614943208.960748,65.000000,0.000000,-3.903491,5.456627,11.087102,8.949590,9.720764,-0.829160,-9.514097,-11.639920,4.727988,0.470530,-9.673112,-3.917155,-21.301342,-47.199429,-44.992638,-28.523907,-22.372574,-4.570642,20.291851,11.167288,-46.037529,-59.404106,-19.926855,-4.825669,-10.169550,-5.120036,-11.168376,-2.219095,1.709701,-3.871601,5.557511,-31.121267,0.000000,175.000000,4.000000,,,,0.000000,4.000000,4.000000,4.000000,4.000000,4.000000,4.000000,4.000000,4.000000,4.000000,4.000000,4.000000,4.000000,4.000000,4.000000,4.000000,4.000000,4.000000,4.000000,4.000000,4.000000,4.000000,4.000000,4.000000,4.000000,4.000000,4.000000,4.000000,4.000000,4.000000,4.000000,4.000000,4.000000,100.000000
1614943208.968597,66.000000,0.000000,-3.899587,3.912709,11.588835,8.940640,10.223864,-0.828331,-9.504583,-5.474434,7.800183,5.598265,-0.945490,-3.913237,-18.203117,-46.639408,-39.306618,-25.418461,-21.324560,-4.566072,15.143353,9.104839,-47.529953,-57.806240,-13.753081,-5.333664,-14.774765,-3.063633,-10.131566,-2.216876,0.682350,-4.893370,7.090415,-29.551685,0.000000,191.000000,4.000000,,,,0.000000,4.000000,4.000000,4.000000,4.000000,4.000000,4.000000,4.000000,4.000000,4.000000,4.000000,4.000000,4.000000,4.000000,4.000000,4.000000,4.000000,4.000000,4.000000,4.000000,4.000000,4.000000,4.000000,4.000000,4.000000,4.000000,4.000000,4.000000,4.000000,4.000000,4.000000,4.000000,4.000000,100.000000
1614943208.976347,67.000000,0.000000,-4.408508,1.857514,11.064425,6.880418,9.700819,-0.827503,-9.495079,-9.058703,4.202640,-0.048359,-8.124032,-4.422144,-16.646454,-58.387642,-43.369877,-27.957144,-22.328876,-7.638429,2.820518,-1.160676,-57.738834,-58.774075,-12.200867,-12.507817,-22.452299,-8.701595,-10.634255,-2.214659,-2.395255,-6.939759,6.057684,-30.034954,0.000000,182.000000,4.000000,,,,0.000000,4.000000,4.000000,4.000000,4.000000,4.000000,4.000000,4.000000,4.000000,4.000000,4.000000,4.000000,4.000000,4.000000,4.000000,4.000000,4.000000,4.000000,4.000000,4.000000,4.000000,4.000000,4.000000,4.000000,4.000000,4.000000,4.000000,4.000000,4.000000,4.000000,4.000000,4.000000,4.000000,100.000000
1614943208.984196,68.000000,0.000000,-3.891279,1.342836,11.566182,4.822256,9.691118,-0.826675,-9.485583,-10.588106,0.608693,-4.663695,-19.397959,-3.904902,-18.681089,-69.098480,-61.275223,-42.800983,-21.280907,-13.784636,-3.336149,-8.851823,-60.245197,-62.305046,-12.701487,-20.187616,-27.558050,-9.718534,-10.623621,-1.699624,-2.392860,-8.471281,6.051627,-30.004919,0.000000,154.000000,4.000000,,,,0.000000,4.000000,4.000000,4.000000,4.000000,4.000000,4.000000,4.000000,4.000000,4.000000,4.000000,4.000000,4.000000,4.000000,4.000000,4.000000,4.000000,4.000000,4.000000,4.000000,4.000000,4.000000,4.000000,4.000000,4.000000,4.000000,4.000000,4.000000,4.000000,4.000000,4.000000,4.000000,4.000000,100.000000
1614943208.991945,69.000000,0.000000,-3.887388,1.854314,10.016154,4.304613,9.168607,-1.338669,-9.476098,-10.577518,1.633726,-3.633391,-25.019587,-3.900997,-20.713690,-74.670410,-72.496002,-56.091515,-22.285267,-20.950338,-4.358454,-9.355792,-60.184952,-60.191460,-12.175964,-20.680250,-28.043314,-9.708817,-10.612997,-1.697925,-2.390467,-8.975630,6.045575,-31.000555,0.000000,164.000000,4.000000,,,,0.000000,4.000000,4.000000,4.000000,4.000000,4.000000,4.000000,4.000000,4.000000,4.000000,4.000000,4.000000,4.000000,4.000000,4.000000,4.000000,4.000000,4.000000,4.000000,4.000000,4.000000,4.000000,4.000000,4.000000,4.000000,4.000000,4.000000,4.000000,4.000000,4.000000,4.000000,4.000000,4.000000,100.000000
1614943208.999794,70.000000,0.000000,-3.883501,1.852459,10.518958,4.813128,8.133798,-1.850151,-9.466622,-13.643864,0.606451,-5.168219,-25.507387,-3.897096,-21.205797,-79.723946,-69.859398,-57.573883,-21.750162,-24.006311,-5.892557,-8.320795,-51.406818,-46.797932,-12.163788,-21.685211,-22.374245,-9.699107,-10.089564,-2.209047,-2.388077,-8.453834,6.039529,-30.969555,0.000000,198.000000,4.000000,,,,0.000000,4.000000,4.000000,4.000000,4.000000,4.000000,4.000000,4.000000,4.000000,4.000000,4.000000,4.000000,4.000000,4.000000,4.000000,4.000000,4.000000,4.000000,4.000000,4.000000,4.000000,4.000000,4.000000,4.000000,4.000000,4.000000,4.000000,4.000000,4.000000,4.000000,4.000000,4.000000,4.000000,100.000000
1614943209.007543,71.000000,0.000000,-3.879617,1.850607,13.072542,4.808315,10.176946,-0.822660,-9.457155,-11.578938,2.144306,-1.573307,-19.840855,-3.893199,-17.594847,-66.823708,-69.276718,-61.106052,-14.548923,-24.495127,2.318464,-0.107346,-27.252846,-26.238316,-10.100343,-17.048141,-14.146742,-4.048383,-8.028193,-1.694018,0.178414,-5.368457,7.571951,-28.887302,0.000000,190.000000,4.000000,,,,0.000000,4.000000,4.000000,4.000000,4.000000,4.000000,4.000000,4.000000,4.000000,4.000000,4.000000,4.000000,4.000000,4.000000,4.000000,4.000000,4.000000,4.000000,4.000000,4.000000,4.000000,4.000000,4.000000,4.000000,4.000000,4.000000,4.000000,4.000000,4.000000,4.000000,4.000000,4.000000,4.000000,100.000000
1614943209.015392,72.000000,0.000000,-3.875737,1.848756,5.879982,4.803507,12.218051,-1.334657,-8.934877,-6.439154,8.296008,7.146215,-14.692809,-3.376485,-14.500329,-43.167141,-71.258728,-69.250076,-15.047195,-27.034733,15.649479,10.149172,-15.943542,-14.417205,-8.038960,-0.620837,-10.542851,-4.557155,-8.020164,-2.205144,0.691056,-4.337447,3.974636,-32.960979,0.000000,186.000000,4.000000,,,,0.000000,4.000000,4.000000,4.000000,4.000000,4.000000,4.000000,4.000000,4.000000,4.000000,4.000000,4.000000,4.000000,4.000000,4.000000,4.000000,4.000000,4.000000,4.000000,4.000000,4.000000,4.000000,4.000000,4.000000,4.000000,4.000000,4.000000,4.000000,4.000000,4.000000,4.000000,4.000000,4.000000,100.000000
1614943209.023141,73.000000,0.000000,-3.871862,1.846908,-3.356667,4.285883,12.718653,-1.846143,-9.438764,-5.919894,8.800532,3.549325,-13.652475,-3.885929,-18.075573,-39.534229,-57.854134,-59.437237,-20.673174,-27.520519,12.556907,9.626202,-25.671188,-20.556633,-9.569383,7.072092,-11.557950,-14.296187,-11.601888,-7.843965,-1.873737,-7.410033,-3.208826,-37.543404,0.000000,154.000000,4.000000,,,,0.000000,4.000000,4.000000,4.000000,4.000000,4.000000,4.000000,4.000000,4.000000,4.000000,4.000000,4.000000,4.000000,4.000000,4.000000,4.000000,4.000000,4.000000,4.000000,4.000000,4.000000,4.000000,4.000000,4.000000,4.000000,4.000000,4.000000,4.000000,4.000000,4.000000,4.000000,4.000000,4.000000,100.000000
1614943209.030990,74.000000,0.000000,-3.867990,1.845061,6.390279,5.307238,19.885422,6.360831,-9.429325,-6.426795,9.817373,2.520135,-6.459335,-3.369223,-14.467753,-36.930595,-30.103973,-27.070107,-11.934552,-16.723768,7.928965,11.155037,-24.619877,-28.741205,-12.123916,-1.652929,-11.546391,-17.871635,-14.154388,-13.477146,-2.897505,-4.838521,-2.692797,-30.326372,0.000000,189.000000,4.000000,,,,0.000000,4.000000,4.000000,4.000000,4.000000,4.000000,4.000000,4.000000,4.000000,4.000000,4.000000,4.000000,4.000000,4.000000,4.000000,4.000000,4.000000,4.000000,4.000000,4.000000,4.000000,4.000000,4.000000,4.000000,4.000000,4.000000,4.000000,4.000000,4.000000,4.000000,4.000000,4.000000,4.000000,100.000000
1614943209.038739,75.000000,0.000000,-3.864122,2.356036,20.742863,7.866034,30.634768,19.174984,-6.342972,-4.881907,15.961402,15.338127,3.803534,0.223890,0.418509,-19.457766,-12.125151,-1.914832,1.923536,2.780135,26.895395,23.451574,-20.492693,-28.712463,-12.111792,-4.728199,-9.996384,-13.238379,-14.140234,-13.463669,-1.868966,1.832985,2.438101,-23.116560,0.000000,189.000000,4.000000,,,,0.000000,4.000000,4.000000,4.000000,4.000000,4.000000,4.000000,4.000000,4.000000,4.000000,4.000000,4.000000,4.000000,4.000000,4.000000,4.000000,4.000000,4.000000,4.000000,4.000000,4.000000,4.000000,4.000000,4.000000,4.000000,4.000000,4.000000,4.000000,4.000000,4.000000,4.000000,4.000000,4.000000,100.000000
1614943209.046588,76.000000,0.000000,-3.347437,0.815219,14.568274,7.858168,32.142593,20.181450,-5.823809,-10.005230,15.432620,13.271507,-1.328474,0.223666,-0.094730,-24.566513,-19.805334,-8.579583,-1.155310,11.495304,37.637730,27.017866,-35.856815,-32.786316,-11.586860,-3.185009,-11.524849,-12.712319,-13.613273,-12.937385,-1.354277,-0.732951,-0.128440,-28.221647,0.000000,152.000000,4.000000,,,,0.000000,4.000000,4.000000,4.000000,4.000000,4.000000,4.000000,4.000000,4.000000,4.000000,4.000000,4.000000,4.000000,2.000000,4.000000,4.000000,4.000000,4.000000,4.000000,4.000000,4.000000,4.000000,4.000000,4.000000,4.000000,4.000000,4.000000,4.000000,4.000000,4.000000,4.000000,4.000000,4.000000,83.333336
1614943209.054337,77.000000,0.000000,-4.882551,-1.236879,3.271655,5.286207,24.930964,12.468960,-10.946190,-19.225994,3.622315,-3.152021,-19.275864,-5.417583,-21.633097,-52.747074,-36.708607,-29.083824,-10.384924,-2.362345,16.574451,15.195977,-49.154293,-46.599682,-14.139376,-11.899773,-15.615889,-13.725248,-14.112480,-13.437268,-3.404204,-7.911705,-5.256516,-34.347271,0.000000,191.000000,4.000000,,,,0.000000,4.000000,4.000000,4.000000,4.000000,4.000000,4.000000,4.000000,4.000000,4.000000,4.000000,4.000000,4.000000,2.000000,4.000000,4.000000,4.000000,4.000000,4.000000,4.000000,4.000000,4.000000,4.000000,4.000000,4.000000,4.000000,4.000000,4.000000,4.000000,4.000000,4.000000,4.000000,4.000000,83.333336
1614943209.062186,78.000000,0.000000,-7.441772,-2.261283,3.268383,4.255280,20.803469,9.892388,-12.986526,-22.283691,-3.560794,-6.738612,-25.923254,-6.437807,-32.380695,-63.463558,-42.825741,-38.798332,-14.989923,-18.257420,-1.390841,-0.716655,-55.771805,-60.912060,-17.202160,-20.093002,-20.215656,-12.685883,-17.688112,-13.423831,-5.964903,-8.929435,-5.251260,-33.800106,0.000000,157.000000,4.000000,,,,0.000000,4.000000,4.000000,4.000000,4.000000,4.000000,4.000000,4.000000,4.000000,4.000000,4.000000,4.000000,4.000000,2.000000,4.000000,4.000000,4.000000,4.000000,4.000000,4.000000,4.000000,4.000000,4.000000,4.000000,4.000000,4.000000,4.000000,4.000000,4.000000,4.000000,4.000000,4.000000,4.000000,83.333336
1614943209.069935,79.000000,0.000000,-7.947150,-1.746201,4.803576,4.763845,17.192923,10.395316,-10.409437,-20.210125,-1.505951,-5.193412,-23.333229,-6.944190,-31.322672,-63.400097,-50.988045,-47.990303,-24.205704,-23.367367,-10.620219,-20.203117,-75.716034,-78.799866,-19.236238,-21.611370,-26.349287,-13.698837,-21.260166,-12.897587,-5.446117,-7.894864,-4.220367,-33.766304,0.000000,166.000000,4.000000,,,,0.000000,4.000000,4.000000,4.000000,4.000000,4.000000,4.000000,4.000000,4.000000,4.000000,4.000000,4.000000,4.000000,2.000000,4.000000,4.000000,4.000000,4.000000,4.000000,4.000000,4.000000,4.000000,4.000000,4.000000,4.000000,4.000000,4.000000,4.000000,4.000000,4.000000,4.000000,4.000000,4.000000,83.333336
1614943209.077784,80.000000,0.000000,-7.426383,-1.744455,3.260311,4.759081,13.073165,9.872101,-9.373386,-21.215555,-2.530086,-13.393347,-32.027843,-18.219297,-38.983658,-80.259773,-71.962700,-65.891029,-32.899445,-42.318359,-35.737804,-37.105991,-89.486473,-95.131317,-19.217003,-32.358990,-37.092171,-16.249241,-21.751728,-12.884689,-5.440671,-8.399790,-4.216147,-36.809460,0.000000,203.000000,4.000000,,,,0.000000,4.000000,4.000000,4.000000,4.000000,4.000000,4.000000,4.000000,4.000000,4.000000,4.000000,4.000000,4.000000,2.000000,4.000000,4.000000,4.000000,4.000000,4.000000,4.000000,4.000000,4.000000,4.000000,4.000000,4.000000,4.000000,4.000000,4.000000,4.000000,4.000000,4.000000,4.000000,4.000000,83.333336
1614943209.085533,81.000000,0.000000,-7.418956,-1.742710,2.744231,4.754322,12.034451,9.349408,-9.364013,-25.296904,-6.630120,-22.610723,-46.354790,-29.995949,-51.252365,-99.666695,-88.300995,-79.158470,-33.892189,-66.891426,-50.061039,-39.120167,-85.294418,-94.523369,-19.197786,-46.685604,-46.798668,-17.258633,-21.217155,-12.871804,-11.589077,-8.904210,-6.776033,-42.413677,0.000000,205.000000,4.000000,,,,0.000000,4.000000,4.000000,4.000000,4.000000,4.000000,4.000000,4.000000,4.000000,4.000000,4.000000,4.000000,4.000000,2.000000,4.000000,4.000000,4.000000,4.000000,4.000000,4.000000,4.000000,4.000000,4.000000,4.000000,4.000000,4.000000,4.000000,4.000000,4.000000,4.000000,4.000000,4.000000,4.000000,83.333336
1614943209.093182,82.000000,0.000000,-7.411537,-1.740968,3.767127,4.749568,12.535236,9.340058,-9.354649,-28.861351,-7.136311,-26.177856,-47.846897,-29.965954,-54.278038,-105.720871,-91.802437,-85.745979,-31.807014,-61.696327,-33.087902,-29.850279,-81.106560,-79.557053,-20.204229,-47.151741,-44.700584,-16.728554,-21.195938,-13.371753,-17.731335,-8.895306,-11.384642,-48.012291,0.000000,191.000000,4.000000,,,,0.000000,4.000000,4.000000,4.000000,4.000000,4.000000,4.000000,4.000000,4.000000,4.000000,4.000000,4.000000,4.000000,2.000000,4.000000,4.000000,4.000000,4.000000,4.000000,4.000000,4.000000,4.000000,4.000000,4.000000,4.000000,4.000000,4.000000,4.000000,4.000000,4.000000,4.000000,4.000000,4.000000,83.333336
1614943209.100931,83.000000,0.000000,-7.404126,-1.739227,3.763360,4.744818,12.522701,9.843539,-10.370935,-28.319670,-5.590713,-22.049114,-45.747768,-25.320602,-41.916065,-101.512589,-87.095245,-82.070488,-29.723925,-43.173092,-14.593276,-16.999916,-67.692123,-63.580059,-18.645563,-39.925102,-32.348194,-16.711824,-21.687563,-12.845561,-17.200783,-8.373590,-12.398898,-45.400173,0.000000,182.000000,4.000000,,,,0.000000,4.000000,4.000000,4.000000,4.000000,4.000000,4.000000,4.000000,4.000000,4.000000,4.000000,4.000000,4.000000,2.000000,4.000000,4.000000,4.000000,4.000000,4.000000,4.000000,4.000000,4.000000,4.000000,4.000000,4.000000,4.000000,4.000000,4.000000,4.000000,4.000000,4.000000,4.000000,4.000000,83.333336
1614943209.108580,84.000000,0.000000,-7.396721,-1.737487,4.272418,4.740073,13.022999,9.833695,-7.796462,-23.163145,-5.072302,-13.309115,-41.599457,-25.808102,-21.874151,-83.975174,-68.546616,-60.449959,-25.591637,-34.924793,-2.270991,-1.085479,-36.342377,-45.054939,-15.549994,-29.628765,-26.161999,-16.695114,-21.153055,-12.832715,-16.157940,-8.365216,-11.873679,-40.739391,0.000000,202.000000,4.000000,,,,0.000000,4.000000,4.000000,4.000000,4.000000,4.000000,4.000000,4.000000,4.000000,4.000000,4.000000,4.000000,4.000000,2.000000,4.000000,4.000000,4.000000,4.000000,4.000000,4.000000,4.000000,4.000000,4.000000,4.000000,4.000000,4.000000,4.000000,4.000000,4.000000,4.000000,4.000000,4.000000,4.000000,83.333336
1614943209.116329,85.000000,0.000000,-7.389325,-1.735750,3.242504,4.735333,12.497156,9.823862,-2.147640,-21.088699,-7.118511,-10.218884,-22.070679,-27.320755,-7.493302,-51.070690,-47.965248,-40.389507,-19.925018,-17.453970,18.244101,17.377144,-17.331676,-27.573986,-15.534445,-16.265802,-26.135838,-17.191238,-19.080620,-13.845524,-17.680244,-8.869672,-12.374626,-45.314034,0.000000,193.000000,4.000000,,,,0.000000,4.000000,4.000000,4.000000,4.000000,4.000000,4.000000,4.000000,4.000000,4.000000,4.000000,4.000000,4.000000,2.000000,4.000000,4.000000,4.000000,4.000000,4.000000,4.000000,4.000000,4.000000,4.000000,4.000000,4.000000,4.000000,4.000000,4.000000,4.000000,4.000000,4.000000,4.000000,4.000000,83.333336
1614943209.123979,86.000000,0.000000,-7.381935,-1.734014,3.239261,4.730598,13.510300,9.814038,-4.709595,-18.503508,-0.444726,-1.490716,-1.535787,-19.088306,4.309063,-22.301668,-35.609589,-31.118349,-13.238427,5.127587,32.072010,29.667459,-10.134857,-18.315643,-14.493269,-8.557230,-17.904573,-16.148407,-17.010256,-11.780396,-16.124102,-7.322340,-12.362251,-49.371284,0.000000,184.000000,4.000000,,,,0.000000,4.000000,4.000000,4.000000,4.000000,4.000000,4.000000,4.000000,4.000000,4.000000,4.000000,4.000000,4.000000,2.000000,4.000000,4.000000,4.000000,4.000000,4.000000,4.000000,4.000000,4.000000,4.000000,4.000000,4.000000,4.000000,4.000000,4.000000,4.000000,4.000000,4.000000,4.000000,4.000000,83.333336
1614943209.131728,87.000000,0.000000,-7.374553,-1.732280,4.774484,5.238688,16.573713,10.317044,-8.294629,-13.356799,11.863411,17.997953,5.132416,-3.684603,17.125267,-9.458855,-13.009876,-7.497487,-8.096984,11.276305,34.604042,32.714714,-4.483697,-15.733225,-8.837750,-7.010211,-10.194361,-11.004053,-16.993246,-6.640410,-10.979773,-2.699634,-12.349889,-43.680889,0.000000,192.000000,4.000000,,,,0.000000,4.000000,4.000000,4.000000,4.000000,4.000000,4.000000,4.000000,4.000000,4.000000,4.000000,4.000000,4.000000,2.000000,4.000000,4.000000,4.000000,4.000000,4.000000,4.000000,4.000000,4.000000,4.000000,4.000000,4.000000,4.000000,4.000000,4.000000,4.000000,4.000000,4.000000,4.000000,4.000000,83.333336
1614943209.139377,88.000000,0.000000,-7.367179,-1.217727,2.718427,5.233449,16.557138,7.742625,-5.722231,-13.343443,11.851547,17.467136,3.588822,0.934466,11.467116,-10.475037,4.951851,11.997190,-7.576066,9.213747,35.082256,31.143539,-16.786905,-17.255953,-7.290451,-3.926278,-14.799551,-8.428946,-17.489073,-4.582488,-8.404691,-0.132832,-11.824718,-39.021824,0.000000,198.000000,4.000000,,,,0.000000,4.000000,4.000000,4.000000,4.000000,4.000000,4.000000,4.000000,4.000000,4.000000,4.000000,4.000000,4.000000,2.000000,4.000000,4.000000,4.000000,4.000000,4.000000,4.000000,4.000000,4.000000,4.000000,4.000000,4.000000,4.000000,4.000000,4.000000,4.000000,4.000000,4.000000,4.000000,4.000000,83.333336
1614943209.147126,89.000000,0.000000,-7.872632,-2.242151,-2.925317,3.176934,10.386735,4.145139,-7.767791,-19.483946,0.044824,-3.575972,-6.158357,-6.245955,-10.595634,-21.746613,-13.514639,-9.040448,-13.209516,6.127610,29.406149,31.112396,-34.718838,-26.469467,-11.898545,-5.460813,-18.887316,-8.933338,-17.471584,-5.090726,-9.421926,-0.132699,-11.812894,-40.521263,0.000000,183.000000,4.000000,,,,0.000000,4.000000,4.000000,4.000000,4.000000,4.000000,4.000000,4.000000,4.000000,4.000000,4.000000,4.000000,4.000000,2.000000,4.000000,4.000000,4.000000,4.000000,4.000000,4.000000,4.000000,4.000000,4.000000,4.000000,4.000000,4.000000,4.000000,4.000000,4.000000,4.000000,4.000000,4.000000,4.000000,83.333336
1614943209.154775,90.000000,0.000000,-7.351939,-1.214267,-0.871110,1.635295,5.248144,2.602532,-12.888228,-21.002922,-3.032144,-6.649320,-20.511173,-10.855094,-19.815807,-37.109482,-37.090866,-31.595510,-21.401434,2.018919,18.607513,29.030001,-39.812325,-45.417355,-14.450749,-11.096377,-17.842787,-8.924404,-17.454113,-4.572814,-9.412505,-0.645387,-9.749799,-39.967922,0.000000,184.000000,4.000000,,,,0.000000,4.000000,4.000000,4.000000,4.000000,4.000000,4.000000,4.000000,4.000000,4.000000,4.000000,4.000000,4.000000,2.000000,4.000000,4.000000,4.000000,4.000000,4.000000,4.000000,4.000000,4.000000,4.000000,4.000000,4.000000,4.000000,4.000000,4.000000,4.000000,4.000000,4.000000,4.000000,4.000000,83.333336
1614943209.162524,91.000000,0.000000,-6.831767,1.863870,7.847710,2.146480,7.294178,2.599930,-10.311238,-19.443459,-0.465009,-1.514465,-25.618866,-10.331419,-23.898556,-54.508270,-37.566597,-24.384428,-26.508238,2.016900,4.742751,11.052253,-53.105843,-70.500145,-20.590145,-11.598102,-23.465969,-9.428301,-16.923838,-7.132344,-6.326169,-1.157562,-4.611844,-31.210005,0.000000,177.000000,4.000000,,,,0.000000,4.000000,4.000000,4.000000,4.000000,4.000000,4.000000,4.000000,4.000000,4.000000,4.000000,4.000000,4.000000,2.000000,4.000000,4.000000,4.000000,4.000000,4.000000,4.000000,4.000000,4.000000,4.000000,4.000000,4.000000,4.000000,4.000000,4.000000,4.000000,4.000000,4.000000,4.000000,4.000000,83.333336
1614943209.170173,92.000000,0.000000,-9.901858,0.836365,5.788580,-0.932589,4.209960,1.058868,-11.839388,-24.552219,-6.618390,-15.359104,-35.849659,-12.372369,-41.310555,-80.094788,-55.990570,-42.308762,-37.250961,-14.395373,-22.441479,-19.215210,-75.104019,-89.403999,-32.877247,-15.176248,-30.109171,-14.034257,-18.958197,-12.253417,-5.294202,0.894878,-1.017488,-27.589050,0.000000,202.000000,4.000000,,,,0.000000,4.000000,4.000000,4.000000,4.000000,4.000000,4.000000,4.000000,4.000000,4.000000,4.000000,4.000000,4.000000,2.000000,4.000000,4.000000,4.000000,4.000000,4.000000,4.000000,4.000000,4.000000,4.000000,4.000000,4.000000,4.000000,4.000000,4.000000,4.000000,4.000000,4.000000,4.000000,4.000000,83.333336
1614943209.178023,93.000000,0.000000,-10.404777,-1.215753,-4.986439,-5.034221,-10.666044,-3.044755,-19.519857,-32.732796,-13.278439,-28.677078,-54.788166,-18.001022,-52.551296,-108.732643,-88.242271,-74.574142,-47.982941,-46.175850,-42.419037,-36.119072,-79.131477,-96.494087,-33.870010,-29.520046,-30.591883,-17.097145,-20.477699,-13.266805,-5.801728,-3.721401,-0.503651,-38.330692,0.000000,180.000000,4.000000,,,,0.000000,4.000000,4.000000,4.000000,4.000000,4.000000,4.000000,4.000000,4.000000,4.000000,4.000000,4.000000,4.000000,2.000000,4.000000,4.000000,4.000000,4.000000,4.000000,4.000000,4.000000,4.000000,4.000000,4.000000,4.000000,4.000000,4.000000,4.000000,4.000000,4.000000,4.000000,4.000000,4.000000,83.333336
1614943209.185772,94.000000,0.000000,-3.727705,-0.701717,-12.673760,-6.054828,-20.911789,-6.118633,-17.449055,-32.187244,-13.777981,-29.161222,-50.117996,-18.495842,-37.114128,-111.700829,-83.025826,-71.935471,-38.191368,-48.180958,-35.709953,-34.544491,-77.001068,-92.807846,-18.964346,-35.644371,-29.022829,-16.567228,-18.918760,-12.740718,-5.283106,-17.051014,-1.015967,-48.035950,0.000000,179.000000,4.000000,,,,0.000000,4.000000,4.000000,4.000000,4.000000,4.000000,4.000000,4.000000,4.000000,4.000000,4.000000,4.000000,4.000000,2.000000,4.000000,4.000000,4.000000,4.000000,4.000000,4.000000,4.000000,4.000000,4.000000,4.000000,4.000000,4.000000,4.000000,4.000000,4.000000,4.000000,4.000000,4.000000,4.000000,83.333336
1614943209.193621,95.000000,0.000000,0.891407,-5.316400,-21.379036,-10.664158,-20.890877,-8.163796,-9.739298,-29.590954,-12.738562,-27.080778,-28.529415,-11.297859,-19.641117,-91.076309,-50.635105,-39.043018,-22.768560,-31.722519,-25.417831,-32.458664,-76.411247,-74.253502,-10.740252,-32.018982,-29.506626,-16.550661,-17.874201,-12.727977,-6.816285,-23.187809,-7.168797,-47.987915,0.000000,202.000000,4.000000,,,,0.000000,4.000000,4.000000,4.000000,4.000000,4.000000,4.000000,4.000000,4.000000,4.000000,4.000000,4.000000,4.000000,2.000000,4.000000,4.000000,4.000000,4.000000,4.000000,4.000000,4.000000,4.000000,4.000000,4.000000,4.000000,4.000000,4.000000,4.000000,4.000000,4.000000,4.000000,4.000000,4.000000,83.333336
1614943209.201371,96.000000,0.000000,0.377695,-11.977751,-30.588425,-17.832981,-19.331524,-9.181273,-8.191097,-29.048542,-13.238644,-17.822929,-20.808578,-3.081433,-20.647116,-76.113441,-44.430626,-37.465515,-21.207331,-37.844643,-17.187284,-21.144154,-56.847652,-42.897198,-12.267974,-32.499786,-31.015581,-17.046930,-16.317865,-13.228069,-13.476135,-18.549236,-16.392399,-47.427109,8064.000000,0.000000,4.000000,,,,0.000000,4.000000,4.000000,4.000000,4.000000,4.000000,4.000000,4.000000,4.000000,4.000000,4.000000,4.000000,4.000000,2.000000,4.000000,4.000000,4.000000,4.000000,4.000000,4.000000,4.000000,4.000000,4.000000,4.000000,4.000000,4.000000,4.000000,4.000000,4.000000,4.000000,4.000000,4.000000,4.000000,83.333336
1614943209.209220,97.000000,0.000000,-0.135503,-11.452952,-24.916811,-15.251045,-16.235270,-6.607990,-7.157265,-19.788723,-9.635661,-3.446131,-17.198027,0.511392,-18.062366,-63.729633,-45.411835,-46.658817,-14.519457,-34.217056,10.009389,9.646221,-25.508755,-14.649172,-10.717245,-24.262157,-29.446104,-16.517063,-11.173342,-12.702021,-16.539581,-14.940944,-17.401648,-47.892502,8064.000000,0.000000,4.000000,,,,0.000000,4.000000,4.000000,4.000000,4.000000,4.000000,4.000000,4.000000,4.000000,4.000000,4.000000,4.000000,4.000000,2.000000,4.000000,4.000000,4.000000,4.000000,4.000000,4.000000,4.000000,4.000000,4.000000,4.000000,4.000000,4.000000,4.000000,4.000000,4.000000,4.000000,4.000000,4.000000,4.000000,83.333336
1614943209.216969,98.000000,0.000000,0.377453,-8.364576,-9.507279,-7.543486,-8.526727,-1.473177,-4.586005,-4.384320,-3.472180,0.659879,-2.309033,0.510881,0.930055,-35.973595,-22.802320,-19.945494,2.930960,-1.362324,35.640404,32.713497,-12.149913,-4.890933,-7.116784,-3.212254,-23.262812,-16.500546,-8.598066,-12.689319,-13.446119,-13.387541,-12.256040,-47.331787,8064.000000,0.000000,4.000000,,,,0.000000,4.000000,4.000000,4.000000,4.000000,4.000000,4.000000,4.000000,4.000000,4.000000,4.000000,4.000000,4.000000,2.000000,4.000000,4.000000,4.000000,4.000000,4.000000,4.000000,4.000000,4.000000,4.000000,4.000000,4.000000,4.000000,4.000000,4.000000,4.000000,4.000000,4.000000,4.000000,4.000000,83.333336
1614943209.224818,99.000000,0.000000,-0.135745,-8.869032,-5.395207,-5.484661,-4.415636,-0.958883,-5.094240,0.235449,-0.904605,-0.879243,9.488148,1.536011,15.288099,-10.809417,-2.779518,10.843682,9.081875,18.126217,37.143227,36.270527,-15.214686,-4.886042,-6.596847,8.585830,-21.701088,-15.971225,-9.615109,-12.676629,-12.919852,-8.758769,-11.730964,-48.310097,8064.000000,0.000000,4.000000,,,,0.000000,4.000000,4.000000,4.000000,4.000000,4.000000,4.000000,4.000000,4.000000,4.000000,4.000000,4.000000,4.000000,2.000000,4.000000,4.000000,4.000000,4.000000,4.000000,4.000000,4.000000,4.000000,4.000000,4.000000,4.000000,4.000000,4.000000,4.000000,4.000000,4.000000,4.000000,4.000000,4.000000,83.333336
1614943209.232567,100.000000,0.000000,0.890032,-9.372984,-9.492376,-6.504817,-4.411221,-4.034847,-5.601966,-2.328889,-1.416521,-1.391184,6.401737,2.047295,11.170247,-8.234505,-2.263918,11.345659,6.508690,17.595270,38.131725,35.721436,-14.686651,-2.317053,-7.103070,7.551603,-22.192207,-13.903972,-8.067033,-12.663953,-12.906933,-3.621805,-10.693591,-45.697685,8064.000000,0.000000,4.000000,,,,0.000000,4.000000,4.000000,4.000000,4.000000,4.000000,4.000000,4.000000,4.000000,4.000000,4.000000,4.000000,4.000000,2.000000,4.000000,4.000000,4.000000,4.000000,4.000000,4.000000,4.000000,4.000000,4.000000,4.000000,4.000000,4.000000,4.000000,4.000000,4.000000,4.000000,4.000000,4.000000,4.000000,83.333336
1614943209.240416,101.000000,0.000000,-1.162140,-8.337970,-8.970063,-5.472671,-4.406809,-4.030813,-4.570723,-6.429124,-0.902284,-4.466716,-4.373896,-4.621418,0.902666,-18.995501,-12.518064,-4.563122,3.938079,12.962291,37.067951,33.634434,-12.620683,-6.417300,-7.608788,8.569693,-12.426425,-11.838786,-9.597427,-12.651289,-8.278642,-0.028439,-5.041872,-37.446857,8064.000000,0.000000,4.000000,,,,0.000000,4.000000,4.000000,4.000000,4.000000,4.000000,4.000000,4.000000,4.000000,4.000000,4.000000,4.000000,4.000000,2.000000,4.000000,4.000000,4.000000,4.000000,4.000000,4.000000,4.000000,4.000000,4.000000,4.000000,4.000000,4.000000,4.000000,4.000000,4.000000,4.000000,4.000000,4.000000,4.000000,83.333336
1614943209.248165,102.000000,0.000000,-7.827645,-8.842452,-9.986734,-4.954378,-4.915223,-3.513961,-6.104614,-17.704746,-0.901381,-7.026352,-17.702856,-15.898849,-13.970032,-31.797018,-35.069649,-20.455996,-11.450475,-2.435287,19.082167,21.805927,-26.454216,-29.487806,-13.755025,7.022661,-7.285793,-12.339767,-18.305779,-12.638638,-5.706260,-1.054052,-4.524010,-36.383770,8064.000000,0.000000,4.000000,,,,0.000000,4.000000,4.000000,4.000000,4.000000,4.000000,4.000000,4.000000,4.000000,4.000000,4.000000,4.000000,4.000000,2.000000,4.000000,4.000000,4.000000,4.000000,4.000000,4.000000,4.000000,4.000000,4.000000,4.000000,4.000000,4.000000,4.000000,4.000000,4.000000,4.000000,4.000000,4.000000,4.000000,83.333336
1614943209.256014,103.000000,0.000000,-11.409560,-8.833610,-18.694696,-5.975065,-7.474411,-4.536088,-8.662612,-28.456272,-2.438941,-8.044967,-29.480024,-22.549616,-41.135548,-47.662659,-61.188427,-37.358616,-35.028767,-16.791826,4.704109,6.912326,-54.120068,-60.227551,-23.484859,-2.215131,-19.073380,-13.353069,-22.902857,-12.625998,-8.777477,-6.694024,-7.596409,-40.962772,8064.000000,0.000000,4.000000,,,,0.000000,4.000000,4.000000,4.000000,4.000000,4.000000,4.000000,4.000000,4.000000,4.000000,4.000000,4.000000,4.000000,2.000000,4.000000,4.000000,4.000000,4.000000,4.000000,4.000000,4.000000,4.000000,4.000000,4.000000,4.000000,4.000000,4.000000,4.000000,4.000000,4.000000,4.000000,4.000000,4.000000,83.333336
1614943209.263763,104.000000,0.000000,-11.398151,-8.824776,-22.265745,-4.943449,-9.518218,-4.018732,-9.166769,-28.427816,-5.513426,-9.575383,-40.219776,-26.116810,-68.786720,-68.640633,-70.870827,-54.757156,-46.275791,-21.903240,-1.454441,-11.043304,-74.065948,-83.757065,-26.025478,-15.546248,-28.797895,-14.878178,-26.982519,-12.100553,-9.794340,-7.712971,-7.588812,-42.973091,7936.000000,0.000000,4.000000,,,,0.000000,4.000000,4.000000,4.000000,4.000000,4.000000,4.000000,4.000000,4.000000,4.000000,4.000000,4.000000,4.000000,2.000000,4.000000,4.000000,4.000000,4.000000,4.000000,4.000000,4.000000,4.000000,4.000000,4.000000,4.000000,4.000000,4.000000,4.000000,4.000000,4.000000,4.000000,4.000000,4.000000,83.333336
1614943209.271612,105.000000,0.000000,-10.873933,-8.815951,-19.679377,-5.964146,-7.457418,-4.527534,-9.157602,-28.399387,-11.661758,-8.027346,-52.487247,-31.731720,-81.025627,-93.187378,-71.312775,-64.958809,-49.306438,-35.727489,-20.940166,-30.519440,-81.171371,-102.647667,-28.050734,-34.505062,-32.358841,-18.453043,-40.801689,-12.088451,-8.246084,-7.192437,-9.119685,-48.571144,8064.000000,0.000000,4.000000,,,,0.000000,4.000000,4.000000,4.000000,4.000000,4.000000,4.000000,4.000000,4.000000,4.000000,4.000000,4.000000,4.000000,2.000000,4.000000,4.000000,4.000000,4.000000,4.000000,4.000000,4.000000,4.000000,4.000000,4.000000,4.000000,4.000000,4.000000,4.000000,4.000000,4.000000,4.000000,4.000000,4.000000,83.333336
1614943209.279361,106.000000,0.000000,-11.375879,-8.807136,-25.300724,-12.112028,-10.014063,-12.215314,-11.712547,-30.422270,-18.829584,-11.609062,-60.639889,-34.264091,-79.918961,-112.581375,-70.215820,-66.945129,-55.410976,-55.178944,-46.047432,-43.309433,-87.244041,-114.339890,-35.714993,-50.880814,-41.557251,-23.049974,-46.914734,-15.153286,-8.750659,-17.441654,-15.264412,-58.778980,7936.000000,0.000000,4.000000,,,,0.000000,4.000000,4.000000,4.000000,4.000000,4.000000,4.000000,4.000000,4.000000,4.000000,4.000000,4.000000,4.000000,2.000000,4.000000,4.000000,4.000000,4.000000,4.000000,4.000000,4.000000,4.000000,4.000000,4.000000,4.000000,4.000000,4.000000,4.000000,4.000000,4.000000,4.000000,4.000000,4.000000,83.333336
1614943209.287210,107.000000,0.000000,-11.364503,-8.798328,-38.608757,-17.228121,-23.337381,-19.382586,-13.239297,-32.443130,-23.426138,-31.084633,-63.143353,-31.665724,-71.121094,-124.263664,-71.171249,-73.544853,-54.329926,-69.482735,-57.283436,-50.958431,-88.182442,-110.122986,-37.217739,-54.419674,-48.182362,-24.052565,-34.560127,-15.650953,-9.254728,-26.654982,-19.351711,-62.822765,7936.000000,0.000000,4.000000,,,,0.000000,4.000000,4.000000,4.000000,4.000000,4.000000,4.000000,4.000000,4.000000,4.000000,4.000000,4.000000,4.000000,2.000000,4.000000,4.000000,4.000000,4.000000,4.000000,4.000000,4.000000,4.000000,4.000000,4.000000,4.000000,4.000000,4.000000,4.000000,4.000000,4.000000,4.000000,4.000000,4.000000,83.333336
1614943209.294959,108.000000,0.000000,-10.327497,-8.789530,-44.723995,-17.210894,-33.057636,-20.388844,-12.713237,-32.410686,-24.941174,-44.899700,-56.926361,-23.428930,-45.408947,-126.703499,-72.638535,-85.266182,-38.378159,-76.592743,-54.149227,-46.292088,-74.760925,-86.423119,-28.462570,-53.339615,-47.108536,-24.028513,-26.833260,-12.558379,-8.732654,-27.653969,-19.332359,-61.734303,7936.000000,0.000000,4.000000,,,,0.000000,4.000000,4.000000,4.000000,4.000000,4.000000,4.000000,4.000000,4.000000,4.000000,4.000000,4.000000,4.000000,2.000000,4.000000,4.000000,4.000000,4.000000,4.000000,4.000000,4.000000,4.000000,4.000000,4.000000,4.000000,4.000000,4.000000,4.000000,4.000000,4.000000,4.000000,4.000000,4.000000,83.333336
1614943209.302808,109.000000,0.000000,-8.265888,-8.780741,-43.653629,-16.680862,-24.819448,-17.291533,-12.700523,-22.634687,-22.352131,-28.444546,-33.279690,-7.508065,-12.543023,-102.474236,-57.694103,-73.898865,-15.775679,-60.105892,-29.479694,-17.015028,-51.096420,-53.516186,-19.203339,-48.158070,-45.010147,-24.004484,-28.344887,-15.622745,-9.236741,-28.651957,-19.313026,-61.672569,7936.000000,0.000000,4.000000,,,,0.000000,4.000000,4.000000,4.000000,4.000000,4.000000,4.000000,4.000000,4.000000,4.000000,4.000000,4.000000,4.000000,2.000000,4.000000,4.000000,4.000000,4.000000,4.000000,4.000000,4.000000,4.000000,4.000000,4.000000,4.000000,4.000000,4.000000,4.000000,4.000000,4.000000,4.000000,4.000000,4.000000,83.333336
1614943209.310557,110.000000,0.000000,-6.719161,-8.771959,-43.609974,-17.177002,-10.435655,-12.658855,-12.687823,-7.227437,-14.124650,-4.313537,-4.015643,5.832777,7.982340,-69.551247,-28.918463,-41.004452,0.650354,-27.738094,1.831836,10.694295,-28.994043,-27.821644,-14.568751,-27.597092,-36.247189,-22.954840,-25.239620,-20.222506,-13.330069,-22.982279,-18.780893,-61.610897,8064.000000,0.000000,4.000000,,,,0.000000,4.000000,4.000000,4.000000,4.000000,4.000000,4.000000,4.000000,4.000000,4.000000,4.000000,4.000000,4.000000,2.000000,4.000000,4.000000,4.000000,4.000000,4.000000,4.000000,4.000000,4.000000,4.000000,4.000000,4.000000,4.000000,4.000000,4.000000,4.000000,4.000000,4.000000,4.000000,4.000000,83.333336
1614943209.318206,111.000000,0.000000,-6.712441,-8.763187,-43.053543,-17.159824,-8.373938,-11.107736,-12.675136,-4.143286,-8.982321,0.306161,7.783245,5.826944,12.589743,-39.738106,-11.966467,-10.194215,3.726626,-9.248817,18.240261,16.324627,-15.118896,-21.127155,-11.477260,-11.159238,-27.492992,-23.957525,-23.675919,-17.638182,-17.419302,-11.164424,-19.274933,-62.062107,8064.000000,0.000000,4.000000,,,,0.000000,4.000000,4.000000,4.000000,4.000000,4.000000,4.000000,4.000000,4.000000,4.000000,4.000000,4.000000,4.000000,2.000000,4.000000,4.000000,4.000000,4.000000,4.000000,4.000000,4.000000,4.000000,4.000000,4.000000,4.000000,4.000000,4.000000,4.000000,4.000000,4.000000,4.000000,4.000000,4.000000,83.333336
1614943209.325955,112.000000,0.000000,-7.218550,-8.754424,-39.420746,-17.142664,-10.416845,-12.122269,-12.662460,-10.292989,-8.973338,-2.258248,6.237000,4.282656,11.551512,-28.416317,-4.262192,7.764697,3.722900,7.683508,35.145096,29.641636,-2.283264,-13.926540,-6.850398,-10.635259,-23.875755,-23.933567,-22.626602,-12.492338,-16.376242,-8.076337,-19.255659,-60.974403,8064.000000,0.000000,4.000000,,,,0.000000,4.000000,4.000000,4.000000,4.000000,4.000000,4.000000,4.000000,4.000000,4.000000,4.000000,4.000000,4.000000,2.000000,4.000000,4.000000,4.000000,4.000000,4.000000,4.000000,4.000000,4.000000,4.000000,4.000000,4.000000,4.000000,4.000000,4.000000,4.000000,4.000000,4.000000,4.000000,4.000000,83.333336
1614943209.333604,113.000000,0.000000,-7.211331,-8.745670,-30.150557,-15.074240,-0.150018,-10.058865,-12.649797,-5.667312,-3.323339,5.436318,12.384609,9.919398,13.078422,-16.080208,12.665147,27.756933,13.975587,36.393772,61.776619,57.304302,11.052353,0.446361,0.335940,-3.445136,-9.492906,-11.601942,-10.809103,-11.967025,-11.744482,-2.940055,-14.621018,-53.733940,8064.000000,0.000000,4.000000,,,,0.000000,4.000000,4.000000,4.000000,4.000000,4.000000,4.000000,4.000000,4.000000,4.000000,4.000000,4.000000,4.000000,2.000000,4.000000,4.000000,4.000000,4.000000,4.000000,4.000000,4.000000,4.000000,4.000000,4.000000,4.000000,4.000000,4.000000,4.000000,4.000000,4.000000,4.000000,4.000000,4.000000,83.333336
1614943209.341353,114.000000,0.000000,-7.204120,-8.736924,-17.812714,-10.443781,11.645003,-4.920600,-12.637148,-0.533439,3.346651,11.584728,14.423507,7.345376,9.475599,-12.474384,13.678123,30.293278,17.038534,46.613789,68.894333,62.375202,12.579762,-2.118188,0.848425,13.481386,5.901203,-1.333929,-7.208550,-12.980699,-8.655814,6.293654,-7.939730,-45.987900,8064.000000,0.000000,4.000000,,,,0.000000,4.000000,4.000000,4.000000,4.000000,4.000000,4.000000,4.000000,4.000000,4.000000,4.000000,4.000000,4.000000,2.000000,4.000000,4.000000,4.000000,4.000000,4.000000,4.000000,4.000000,4.000000,4.000000,4.000000,4.000000,4.000000,4.000000,4.000000,4.000000,4.000000,4.000000,4.000000,4.000000,83.333336
1614943209.349003,115.000000,0.000000,-6.684095,-8.728188,-11.641055,-7.869235,9.069256,-2.864398,-12.624511,-11.814957,-0.759260,8.496221,-7.642199,-10.097866,-11.559517,-32.461910,-14.027864,2.570677,-7.081068,22.977432,44.722870,36.671803,-8.971279,-28.269917,-11.460116,13.467905,-3.848288,-8.512083,-21.560316,-11.942078,-9.159979,1.159155,-6.906149,-44.403450,8064.000000,0.000000,4.000000,,,,0.000000,4.000000,4.000000,4.000000,4.000000,4.000000,4.000000,4.000000,4.000000,4.000000,4.000000,4.000000,4.000000,2.000000,4.000000,4.000000,4.000000,4.000000,4.000000,4.000000,4.000000,4.000000,4.000000,4.000000,4.000000,4.000000,4.000000,4.000000,4.000000,4.000000,4.000000,4.000000,4.000000,83.333336
1614943209.356752,116.000000,0.000000,-9.241513,-6.668177,-13.167876,-9.399827,2.393520,-4.399995,-12.611886,-24.110834,-8.450809,0.795416,-30.198660,-25.985205,-38.214622,-56.532013,-38.629219,-24.098560,-36.304756,-8.840417,12.370457,4.327437,-41.270000,-60.036518,-25.807631,-7.058383,-20.767517,-20.298443,-33.333630,-11.930135,-9.150819,-11.149696,-7.924884,-45.897507,8064.000000,0.000000,4.000000,,,,0.000000,4.000000,4.000000,4.000000,4.000000,4.000000,4.000000,4.000000,4.000000,4.000000,4.000000,4.000000,4.000000,2.000000,4.000000,4.000000,4.000000,4.000000,4.000000,4.000000,4.000000,4.000000,4.000000,4.000000,4.000000,4.000000,4.000000,4.000000,4.000000,4.000000,4.000000,4.000000,4.000000,83.333336
1614943209.364401,117.000000,0.000000,-11.796374,-4.610227,-12.641888,-8.877606,3.416768,-4.395595,-12.599275,-25.112364,-9.467999,-5.359225,-34.783844,-28.010502,-50.484100,-68.783173,-50.898281,-37.407795,-49.088963,-29.344397,-9.180376,-20.805096,-63.792831,-87.668793,-31.935669,-28.589787,-22.798031,-20.278145,-31.761833,-12.431026,-8.628847,-10.625726,-7.404139,-45.851612,8064.000000,0.000000,4.000000,,,,0.000000,4.000000,4.000000,4.000000,4.000000,4.000000,4.000000,4.000000,4.000000,4.000000,4.000000,4.000000,4.000000,2.000000,4.000000,4.000000,4.000000,4.000000,4.000000,4.000000,4.000000,4.000000,4.000000,4.000000,4.000000,4.000000,4.000000,4.000000,4.000000,4.000000,4.000000,4.000000,4.000000,83.333336
1614943209.372150,118.000000,0.000000,-9.733296,-5.118437,-12.116426,-8.355908,1.874889,-2.852738,-12.586675,-23.548790,-8.432890,-8.943609,-36.800343,-23.879927,-51.459259,-78.970802,-66.744820,-57.883209,-48.527054,-39.058643,-17.376324,-27.963778,-69.370064,-101.940094,-30.365273,-35.740685,-20.723951,-18.719404,-26.601866,-12.418594,-8.620218,-7.025356,-7.396735,-44.780117,8064.000000,0.000000,4.000000,,,,0.000000,4.000000,4.000000,4.000000,4.000000,4.000000,4.000000,4.000000,4.000000,4.000000,4.000000,4.000000,4.000000,2.000000,4.000000,4.000000,4.000000,4.000000,4.000000,4.000000,4.000000,4.000000,4.000000,4.000000,4.000000,4.000000,4.000000,4.000000,4.000000,4.000000,4.000000,4.000000,4.000000,83.333336
1614943209.379799,119.000000,0.000000,-7.159460,-5.113319,-19.796616,-11.937296,-7.870575,-5.926808,-12.574088,-24.038063,-9.450098,-9.447487,-44.968670,-19.240662,-50.382160,-93.763626,-77.447304,-76.799683,-36.683655,-41.070866,-17.871767,-18.705044,-66.736595,-85.427895,-19.565676,-32.115200,-22.241690,-20.239147,-19.395777,-12.406176,-9.124419,-8.043972,-7.902159,-47.299442,8064.000000,0.000000,4.000000,,,,0.000000,4.000000,4.000000,4.000000,4.000000,4.000000,4.000000,4.000000,4.000000,4.000000,4.000000,4.000000,4.000000,2.000000,4.000000,4.000000,4.000000,4.000000,4.000000,4.000000,4.000000,4.000000,4.000000,4.000000,4.000000,4.000000,4.000000,4.000000,4.000000,4.000000,4.000000,4.000000,4.000000,83.333336
1614943209.387548,120.000000,0.000000,-8.177942,-5.108205,-27.469128,-16.027924,-15.042192,-13.100368,-12.561514,-25.039665,-9.440647,-9.438039,-45.436523,-13.067575,-38.024082,-103.413452,-71.216011,-73.645958,-22.287998,-39.491333,-17.341076,-12.532494,-64.105751,-56.624523,-6.725597,-29.518982,-22.732267,-20.731728,-13.735355,-12.393769,-9.628115,-11.112851,-7.894257,-60.585476,7936.000000,0.000000,4.000000,,,,0.000000,4.000000,4.000000,4.000000,4.000000,4.000000,4.000000,4.000000,4.000000,4.000000,4.000000,4.000000,4.000000,2.000000,4.000000,4.000000,4.000000,4.000000,4.000000,4.000000,4.000000,4.000000,4.000000,4.000000,4.000000,4.000000,4.000000,4.000000,4.000000,4.000000,4.000000,4.000000,4.000000,83.333336
1614943209.395197,121.000000,0.000000,-4.067200,-5.103097,-29.492941,-17.037537,-17.078432,-15.138550,-13.061773,-24.501804,-9.431207,-8.915780,-30.519291,-3.823738,-14.909137,-95.104904,-61.914028,-61.777443,-16.624683,-39.451843,-16.810913,-12.519960,-50.708313,-46.311485,-2.616307,-26.925360,-22.709536,-20.198175,-12.695979,-12.894197,-9.105666,-15.717123,-7.886362,-70.268478,8064.000000,0.000000,4.000000,,,,0.000000,4.000000,4.000000,4.000000,4.000000,4.000000,4.000000,4.000000,4.000000,4.000000,4.000000,4.000000,4.000000,2.000000,4.000000,4.000000,4.000000,4.000000,4.000000,4.000000,4.000000,4.000000,4.000000,4.000000,4.000000,4.000000,4.000000,4.000000,4.000000,4.000000,4.000000,4.000000,4.000000,83.333336
1614943209.403047,122.000000,0.000000,3.116355,-5.097994,-28.950626,-18.046139,-16.548532,-9.482386,-12.023070,-17.297815,-8.396134,-5.829942,-6.899029,6.949316,4.080132,-71.420059,-48.005959,-45.305408,-8.402931,-32.232903,-2.947949,1.338713,-25.016581,-41.649792,-4.152153,-15.103563,-20.122723,-18.126696,-12.683283,-11.855661,-9.096560,-15.188585,-7.878476,-67.121284,8064.000000,0.000000,4.000000,,,,0.000000,4.000000,4.000000,4.000000,4.000000,4.000000,4.000000,4.000000,4.000000,4.000000,4.000000,4.000000,4.000000,2.000000,4.000000,4.000000,4.000000,4.000000,4.000000,4.000000,4.000000,4.000000,4.000000,4.000000,4.000000,4.000000,4.000000,4.000000,4.000000,4.000000,4.000000,4.000000,4.000000,83.333336
1614943209.410796,123.000000,0.000000,4.651700,-5.092896,-27.896036,-15.976811,-10.890959,-6.908801,-9.959765,-6.511288,-4.285174,0.329734,11.569408,12.583392,13.819641,-43.656330,-19.240005,-13.978052,7.502907,-7.072465,27.824230,32.106606,-7.555667,-16.992756,-3.122360,-1.755126,-16.000036,-16.570107,-12.670600,-9.279703,-9.600285,-7.481089,-7.870597,-62.438782,8064.000000,0.000000,4.000000,,,,0.000000,4.000000,4.000000,4.000000,4.000000,4.000000,4.000000,4.000000,4.000000,4.000000,4.000000,4.000000,4.000000,2.000000,4.000000,4.000000,4.000000,4.000000,4.000000,4.000000,4.000000,4.000000,4.000000,4.000000,4.000000,4.000000,4.000000,4.000000,4.000000,4.000000,4.000000,4.000000,4.000000,83.333336
1614943209.418545,124.000000,0.000000,4.134228,-5.087803,-26.842499,-8.781347,-5.239042,-8.440353,-8.411345,-3.427853,-0.691146,7.508892,17.198864,12.057988,17.395565,-23.099855,5.907440,13.728233,15.700533,23.703838,56.514355,55.151421,-6.522470,9.690903,-2.606417,0.297911,-13.419934,-16.040716,-13.170750,-8.244782,-8.052223,-0.294121,-7.862727,-56.735317,8192.000000,0.000000,4.000000,,,,0.000000,4.000000,4.000000,4.000000,4.000000,4.000000,4.000000,4.000000,4.000000,4.000000,4.000000,4.000000,4.000000,2.000000,4.000000,4.000000,4.000000,4.000000,4.000000,4.000000,4.000000,4.000000,4.000000,4.000000,4.000000,4.000000,4.000000,4.000000,4.000000,4.000000,4.000000,4.000000,4.000000,83.333336
1614943209.426194,125.000000,0.000000,3.617273,-4.569895,-23.738733,-5.182822,-4.720983,-7.919093,-6.351651,-7.014169,-1.716096,10.578306,18.207308,11.533110,19.429451,-11.794703,11.542558,17.304249,14.146371,32.398083,59.534763,49.455246,-6.515948,7.629930,-5.680733,-0.215208,-10.842411,-13.460573,-12.644758,-8.749358,-3.428786,2.270276,-7.342043,-46.934990,8064.000000,0.000000,4.000000,,,,0.000000,4.000000,4.000000,4.000000,4.000000,4.000000,4.000000,4.000000,4.000000,4.000000,4.000000,4.000000,4.000000,2.000000,4.000000,4.000000,4.000000,4.000000,4.000000,4.000000,4.000000,4.000000,4.000000,4.000000,4.000000,4.000000,4.000000,4.000000,4.000000,4.000000,4.000000,4.000000,4.000000,83.333336
1614943209.434044,126.000000,0.000000,-0.488909,-4.565325,-15.509866,-5.177639,-1.126518,-7.398354,-4.806838,-8.545616,-2.227200,9.029266,17.163458,11.521577,18.897202,-10.244447,7.941272,12.671559,10.542480,24.160557,45.629074,31.457071,-8.047894,-8.787956,-8.239155,3.374751,-10.831569,-9.344548,-14.683395,-8.740608,-0.861255,1.755185,-7.334702,-45.349594,8064.000000,0.000000,4.000000,,,,0.000000,4.000000,4.000000,4.000000,4.000000,4.000000,4.000000,4.000000,4.000000,4.000000,4.000000,4.000000,4.000000,2.000000,4.000000,4.000000,4.000000,4.000000,4.000000,4.000000,4.000000,4.000000,4.000000,4.000000,4.000000,4.000000,4.000000,4.000000,4.000000,4.000000,4.000000,4.000000,4.000000,83.333336
1614943209.441793,127.000000,0.000000,-3.565343,-5.586401,-7.802048,0.468564,7.592557,-7.903776,-5.314851,-8.537070,0.851950,11.071519,16.120655,10.997235,8.621894,-11.772664,5.369228,10.607606,7.455015,22.085114,39.429600,35.528179,-13.680871,-14.933015,-8.230916,0.807274,-12.359199,-8.822383,-17.745636,-8.731868,-1.886034,-0.810673,-7.840188,-44.791424,8064.000000,0.000000,4.000000,,,,0.000000,4.000000,4.000000,4.000000,4.000000,4.000000,4.000000,4.000000,4.000000,4.000000,4.000000,4.000000,4.000000,2.000000,4.000000,4.000000,4.000000,4.000000,4.000000,4.000000,4.000000,4.000000,4.000000,4.000000,4.000000,4.000000,4.000000,4.000000,4.000000,4.000000,4.000000,4.000000,4.000000,83.333336
1614943209.449642,0.000000,0.000000,-0.997675,-4.042353,-3.691682,6.109121,11.174708,-7.895872,-4.796716,-9.041354,4.953662,16.188652,17.642996,10.473417,-4.207241,-9.196789,5.363859,9.571358,5.909099,26.678413,42.979912,47.800343,-14.180011,-17.482183,-7.709865,-2.270457,-7.731455,-8.300740,-14.650967,-9.235957,-1.884148,0.215779,-7.319527,-34.490223,0.000000,179.000000,4.000000,,,,0.000000,4.000000,4.000000,4.000000,4.000000,4.000000,4.000000,4.000000,4.000000,4.000000,4.000000,4.000000,4.000000,2.000000,4.000000,4.000000,4.000000,4.000000,4.000000,4.000000,4.000000,4.000000,4.000000,4.000000,4.000000,4.000000,4.000000,4.000000,4.000000,4.000000,4.000000,4.000000,4.000000,83.333336
1614943209.457391,1.000000,0.000000,0.028964,-1.474208,-5.739273,5.590191,10.137893,-7.887976,-2.227817,-9.032312,5.974350,16.685284,11.471506,7.898841,-6.767136,-18.418362,6.896956,12.638709,-0.763477,25.113274,35.244625,32.880749,-24.935061,-35.413422,-8.214975,-0.729725,-7.210903,-8.292439,-10.020931,-5.124156,-1.369444,-0.810078,-7.312207,-39.583939,0.000000,175.000000,4.000000,,,,0.000000,4.000000,4.000000,4.000000,4.000000,4.000000,4.000000,4.000000,4.000000,4.000000,4.000000,4.000000,4.000000,2.000000,4.000000,4.000000,4.000000,4.000000,4.000000,4.000000,4.000000,4.000000,4.000000,4.000000,4.000000,4.000000,4.000000,4.000000,4.000000,4.000000,4.000000,4.000000,4.000000,83.333336
1614943209.465240,2.000000,0.000000,-0.483886,-4.549657,-14.451482,5.071780,8.076472,-8.392908,-1.199948,-9.536101,5.455555,13.078856,-4.950222,3.275558,-5.734728,-43.528149,-3.879171,4.420942,-13.070406,11.754827,19.824766,11.822226,-43.371666,-54.865185,-8.719581,-5.344379,-18.485744,-10.335429,-11.036551,-1.529289,-1.880895,-9.014396,-9.356177,-58.005894,0.000000,197.000000,4.000000,,,,0.000000,4.000000,4.000000,4.000000,4.000000,4.000000,4.000000,4.000000,4.000000,4.000000,4.000000,4.000000,4.000000,2.000000,4.000000,4.000000,4.000000,4.000000,4.000000,4.000000,4.000000,4.000000,4.000000,4.000000,4.000000,4.000000,4.000000,4.000000,4.000000,4.000000,4.000000,4.000000,4.000000,83.333336
1614943209.472989,3.000000,0.000000,1.567880,-7.622030,-24.180620,5.579529,6.017114,-7.871695,-1.711568,-9.013744,5.450099,12.552957,-8.535015,4.297923,-6.754634,-60.920517,-26.439394,-24.814247,-8.954771,-4.154364,16.215197,12.836044,-36.661625,-52.246220,-4.608297,-12.005702,-16.415976,-4.171248,-4.871668,-1.527760,-1.879014,-5.415638,-11.398103,-56.409424,0.000000,182.000000,4.000000,,,,0.000000,4.000000,4.000000,4.000000,4.000000,4.000000,4.000000,4.000000,4.000000,4.000000,4.000000,4.000000,4.000000,2.000000,4.000000,4.000000,4.000000,4.000000,4.000000,4.000000,4.000000,4.000000,4.000000,4.000000,4.000000,4.000000,4.000000,4.000000,4.000000,4.000000,4.000000,4.000000,4.000000,83.333336
1614943209.480838,4.000000,0.000000,4.130415,-6.075947,-23.130798,5.573950,6.011097,-3.248439,-1.709857,-6.953448,5.957470,13.566045,3.781212,10.960292,1.457249,-58.808315,-28.464237,-33.507381,10.028543,-6.201491,19.275906,17.951414,-13.035221,-34.245255,2.062978,-2.250106,3.600440,4.038052,9.492178,-0.500591,-1.877135,10.487214,-11.386704,-45.070965,0.000000,178.000000,4.000000,,,,0.000000,4.000000,4.000000,4.000000,4.000000,4.000000,4.000000,4.000000,4.000000,4.000000,4.000000,4.000000,4.000000,2.000000,4.000000,4.000000,4.000000,4.000000,4.000000,4.000000,4.000000,4.000000,4.000000,4.000000,4.000000,4.000000,4.000000,4.000000,4.000000,4.000000,4.000000,4.000000,4.000000,83.333336
1614943209.488587,5.000000,0.000000,4.126285,-6.069870,-20.543566,5.055555,6.517906,-0.168267,-1.708147,-5.408033,5.438692,13.039658,7.879995,15.564716,13.763484,-54.646942,-7.922953,-9.371311,17.710821,1.497018,19.769449,17.933462,-7.381160,-18.313572,4.112197,14.675220,11.289147,-0.581371,13.072430,2.064012,-2.900899,10.989547,-12.400959,-52.205379,0.000000,189.000000,4.000000,,,,0.000000,4.000000,4.000000,4.000000,4.000000,4.000000,4.000000,4.000000,4.000000,4.000000,4.000000,4.000000,4.000000,2.000000,4.000000,4.000000,4.000000,4.000000,4.000000,4.000000,4.000000,4.000000,4.000000,4.000000,4.000000,4.000000,4.000000,4.000000,4.000000,4.000000,4.000000,4.000000,4.000000,83.333336
1614943209.496436,6.000000,0.000000,3.609338,-8.627903,-22.061483,5.050499,3.434465,-0.168099,-1.706439,-5.402626,5.433253,12.513798,8.897756,14.523511,17.852283,-57.156399,-7.915030,-5.772196,15.641829,-2.607043,25.390705,30.736042,-8.912241,-5.474747,3.082444,18.763109,4.611192,-9.298738,9.469613,2.574769,-4.436460,-1.841955,-14.952661,-61.896767,0.000000,191.000000,4.000000,,,,0.000000,4.000000,4.000000,4.000000,4.000000,4.000000,4.000000,4.000000,4.000000,4.000000,4.000000,4.000000,4.000000,2.000000,4.000000,4.000000,4.000000,4.000000,4.000000,4.000000,4.000000,4.000000,4.000000,4.000000,4.000000,4.000000,4.000000,4.000000,4.000000,4.000000,4.000000,4.000000,4.000000,83.333336
1614943209.504185,7.000000,0.000000,3.605728,-9.132096,-21.013781,5.045449,2.918211,-0.680751,-1.191912,-3.345941,5.427820,13.014104,19.658089,14.508987,16.295971,-50.945396,-24.317371,-22.689501,16.651827,-7.219821,33.057621,44.038639,0.327441,3.761497,3.592182,16.180244,2.042478,-9.802260,8.947323,2.059374,-5.970484,-6.455498,-15.450528,-61.322048,0.000000,195.000000,4.000000,,,,0.000000,4.000000,4.000000,4.000000,4.000000,4.000000,4.000000,4.000000,4.000000,4.000000,4.000000,4.000000,4.000000,2.000000,4.000000,4.000000,4.000000,4.000000,4.000000,4.000000,4.000000,4.000000,4.000000,4.000000,4.000000,4.000000,4.000000,4.000000,4.000000,4.000000,4.000000,4.000000,4.000000,83.333336
1614943209.512034,8.000000,0.000000,3.602123,-11.174246,-18.941484,5.040404,7.530677,-0.167250,-3.242002,-1.804133,5.422392,13.001090,28.356379,15.520119,17.305315,-32.432911,-11.985361,-8.307837,16.635176,10.736116,35.588669,43.994598,4.429677,7.347480,3.588590,17.189705,4.091717,-9.279637,7.399914,1.544494,-6.990155,-4.910581,-14.922257,-60.747906,0.000000,184.000000,4.000000,,,,0.000000,4.000000,4.000000,4.000000,4.000000,4.000000,4.000000,4.000000,4.000000,4.000000,4.000000,4.000000,4.000000,2.000000,4.000000,4.000000,4.000000,4.000000,4.000000,4.000000,4.000000,4.000000,4.000000,4.000000,4.000000,4.000000,4.000000,4.000000,4.000000,4.000000,4.000000,4.000000,4.000000,83.333336
1614943209.519783,9.000000,0.000000,3.598521,-11.675892,-16.871262,5.035363,10.600069,-0.679903,-5.290042,-2.315150,5.416970,12.988090,27.302382,13.453317,17.800831,-17.528685,13.154829,19.392778,16.105721,30.725380,45.296669,43.950603,2.886786,8.365773,3.072181,18.198156,7.164549,-5.680614,5.854053,2.055770,-3.393421,-2.341568,-13.368874,-53.507671,0.000000,173.000000,4.000000,,,,0.000000,4.000000,4.000000,4.000000,4.000000,4.000000,4.000000,4.000000,4.000000,4.000000,4.000000,4.000000,4.000000,2.000000,4.000000,4.000000,4.000000,4.000000,4.000000,4.000000,4.000000,4.000000,4.000000,4.000000,4.000000,4.000000,4.000000,4.000000,4.000000,4.000000,4.000000,4.000000,4.000000,83.333336
1614943209.527632,10.000000,0.000000,3.594922,-9.100114,-8.649261,5.543149,9.563828,-0.679223,-5.284752,-1.287194,5.924373,12.975101,24.710978,11.901402,13.167645,-14.434232,9.039110,16.809284,16.602434,33.771580,57.559063,48.009220,4.935182,7.331766,3.581929,16.641497,13.311231,4.068656,7.899481,4.104996,5.327921,3.814620,-9.765761,-40.633652,0.000000,189.000000,4.000000,,,,0.000000,4.000000,4.000000,4.000000,4.000000,4.000000,4.000000,4.000000,4.000000,4.000000,4.000000,4.000000,4.000000,2.000000,4.000000,4.000000,4.000000,4.000000,4.000000,4.000000,4.000000,4.000000,4.000000,4.000000,4.000000,4.000000,4.000000,4.000000,4.000000,4.000000,4.000000,4.000000,4.000000,83.333336
1614943209.535381,11.000000,0.000000,3.591327,-9.091014,-1.461125,5.024785,10.067085,-0.165724,-5.279467,-2.311547,5.405628,12.962126,21.096523,8.299757,7.000631,-15.958260,-5.328903,8.074525,7.355063,36.814732,56.988686,45.909927,5.443067,-1.906335,1.014244,16.624855,14.323560,9.705613,4.301838,5.639352,10.450798,6.374908,-5.140611,-37.003273,0.000000,195.000000,4.000000,,,,0.000000,4.000000,4.000000,4.000000,4.000000,4.000000,4.000000,4.000000,4.000000,4.000000,4.000000,4.000000,4.000000,2.000000,4.000000,4.000000,4.000000,4.000000,4.000000,4.000000,4.000000,4.000000,4.000000,4.000000,4.000000,4.000000,4.000000,4.000000,4.000000,4.000000,4.000000,4.000000,4.000000,83.333336
1614943209.543130,12.000000,0.000000,3.587736,-7.030641,-1.459664,5.019760,14.159582,-0.678378,-5.274188,-6.411800,5.913043,12.949163,19.024143,3.163252,4.429528,-16.455122,0.830272,19.348501,-5.472805,46.521503,53.854774,43.299915,3.899162,-11.648018,-5.653437,16.608231,14.822057,10.208728,-2.881951,5.633713,9.414706,10.471097,-3.597009,-33.889347,0.000000,183.000000,4.000000,,,,0.000000,4.000000,4.000000,4.000000,4.000000,4.000000,4.000000,4.000000,4.000000,4.000000,4.000000,4.000000,4.000000,4.000000,4.000000,4.000000,4.000000,4.000000,4.000000,4.000000,4.000000,4.000000,4.000000,4.000000,4.000000,4.000000,4.000000,4.000000,4.000000,4.000000,4.000000,4.000000,4.000000,100.000000
1614943209.550880,13.000000,0.000000,3.584148,0.668698,-0.945384,6.040381,19.273628,-0.677700,-3.217631,-2.302824,9.496874,13.449035,23.107683,2.647268,5.450740,-12.336102,10.573031,27.021461,-4.954511,47.500626,54.313740,43.256615,1.843981,-17.277395,-8.211885,15.565981,18.909800,12.762622,-3.391890,7.679361,9.405292,19.691395,-3.593412,-27.188789,0.000000,198.000000,4.000000,,,,0.000000,4.000000,4.000000,4.000000,4.000000,4.000000,4.000000,4.000000,4.000000,4.000000,4.000000,4.000000,4.000000,4.000000,4.000000,4.000000,4.000000,4.000000,4.000000,4.000000,4.000000,4.000000,4.000000,4.000000,4.000000,4.000000,4.000000,4.000000,4.000000,4.000000,4.000000,4.000000,4.000000,100.000000
1614943209.558529,14.000000,0.000000,3.580564,3.744952,-3.508541,1.931777,16.177431,-0.164202,-1.163132,4.878966,10.000197,12.409945,26.674320,8.285646,5.445289,-13.862228,7.485535,16.738029,0.178648,38.735176,45.541477,35.521049,-6.362991,-28.029348,-8.716495,12.986312,15.301146,14.288321,-2.362857,10.235785,9.908707,19.158884,-3.589818,-31.264166,0.000000,178.000000,4.000000,,,,0.000000,4.000000,4.000000,4.000000,4.000000,4.000000,4.000000,4.000000,4.000000,4.000000,4.000000,4.000000,4.000000,4.000000,4.000000,4.000000,4.000000,4.000000,4.000000,4.000000,4.000000,4.000000,4.000000,4.000000,4.000000,4.000000,4.000000,4.000000,4.000000,4.000000,4.000000,4.000000,4.000000,100.000000
1614943209.566278,15.000000,0.000000,3.064163,1.177105,-16.325546,-6.275283,3.340740,-2.728140,-1.674789,-0.254118,1.785069,7.782151,24.596363,10.841464,4.414203,-32.309906,-0.727078,4.413599,0.178470,24.850286,30.624140,22.152197,-13.536116,-33.642345,-9.220598,12.460505,2.978152,12.735571,-1.847674,9.199908,8.873158,8.883314,-5.124690,-41.489311,0.000000,188.000000,4.000000,,,,0.000000,4.000000,4.000000,4.000000,4.000000,4.000000,4.000000,4.000000,4.000000,4.000000,4.000000,4.000000,4.000000,4.000000,4.000000,4.000000,4.000000,4.000000,4.000000,4.000000,4.000000,4.000000,4.000000,4.000000,4.000000,4.000000,4.000000,4.000000,4.000000,4.000000,4.000000,4.000000,4.000000,100.000000
1614943209.573927,16.000000,0.000000,4.086740,-1.388175,-25.539989,-10.371572,-5.893370,-7.853617,-1.673114,-4.356428,-5.396203,4.697445,22.007664,10.317801,5.435430,-51.764774,-4.316095,3.383545,8.896240,15.081846,25.978130,20.078762,-13.522579,-16.685627,-1.519070,11.935225,-2.153031,13.235656,1.743918,9.703528,9.889925,5.284687,-7.683668,-41.960644,0.000000,202.000000,4.000000,,,,0.000000,4.000000,4.000000,4.000000,4.000000,4.000000,4.000000,4.000000,4.000000,4.000000,4.000000,4.000000,4.000000,4.000000,4.000000,4.000000,4.000000,4.000000,4.000000,4.000000,4.000000,4.000000,4.000000,4.000000,4.000000,4.000000,4.000000,4.000000,4.000000,4.000000,4.000000,4.000000,4.000000,100.000000
1614943209.581676,17.000000,0.000000,6.133935,-2.925248,-24.488808,-9.335560,-5.374656,-8.358584,-1.671441,5.391518,-5.903627,5.205568,22.498478,13.384407,7.994097,-50.174549,-2.260497,6.969904,24.271959,15.579585,26.464973,27.750992,-14.534698,4.356700,11.302962,13.461751,-0.612416,13.222421,4.819097,11.745107,7.315932,6.817864,-7.675984,-40.380222,0.000000,203.000000,4.000000,,,,0.000000,4.000000,4.000000,4.000000,4.000000,4.000000,4.000000,4.000000,4.000000,4.000000,4.000000,4.000000,4.000000,4.000000,4.000000,4.000000,4.000000,4.000000,4.000000,4.000000,4.000000,4.000000,4.000000,4.000000,4.000000,4.000000,4.000000,4.000000,4.000000,4.000000,4.000000,4.000000,4.000000,100.000000
1614943209.589325,18.000000,0.000000,7.666263,-4.973605,-23.951498,-9.839045,-4.856461,-7.837405,-1.669770,10.514332,-4.872083,5.713183,22.475979,17.986406,9.011744,-41.406425,-3.796698,-1.242193,28.350252,12.999903,25.412867,31.825804,-11.443240,5.890805,15.907043,16.012392,-1.124624,9.106634,5.327098,10.194901,0.641950,6.298225,-9.206770,-43.929585,0.000000,192.000000,4.000000,,,,0.000000,4.000000,4.000000,4.000000,4.000000,4.000000,4.000000,4.000000,4.000000,4.000000,4.000000,4.000000,4.000000,4.000000,4.000000,4.000000,4.000000,4.000000,4.000000,4.000000,4.000000,4.000000,4.000000,4.000000,4.000000,4.000000,4.000000,4.000000,4.000000,4.000000,4.000000,4.000000,4.000000,100.000000
1614943209.597074,19.000000,0.000000,7.145776,-5.481452,-24.953188,-12.906129,-6.902886,-8.342388,-1.668100,5.888433,-5.892852,4.681829,21.940683,18.481241,8.489911,-40.339378,-8.408286,-13.035823,23.193695,10.422800,35.131042,35.896542,0.363075,5.884914,13.839854,15.483559,0.414962,5.507783,5.321771,6.082141,-2.948436,5.779107,-11.761665,-45.936935,0.000000,204.000000,4.000000,,,,0.000000,4.000000,4.000000,4.000000,4.000000,4.000000,4.000000,4.000000,4.000000,4.000000,4.000000,4.000000,4.000000,4.000000,4.000000,4.000000,4.000000,4.000000,4.000000,4.000000,4.000000,4.000000,4.000000,4.000000,4.000000,4.000000,4.000000,4.000000,4.000000,4.000000,4.000000,4.000000,4.000000,100.000000
1614943209.604724,20.000000,0.000000,7.138630,-4.963150,-22.364132,-13.406043,-2.280599,-5.769943,-1.666432,5.369724,-5.886959,7.241250,21.918741,17.949940,10.019883,-32.093910,0.830892,1.336187,22.657682,23.232891,50.993351,43.040134,6.003737,15.109799,14.851656,17.519358,4.517111,4.989455,5.316449,5.050418,-1.919846,6.286148,-11.237083,-44.865360,0.000000,223.000000,4.000000,,,,0.000000,4.000000,4.000000,4.000000,4.000000,4.000000,4.000000,4.000000,4.000000,4.000000,4.000000,4.000000,4.000000,4.000000,4.000000,4.000000,4.000000,4.000000,4.000000,4.000000,4.000000,4.000000,4.000000,4.000000,4.000000,4.000000,4.000000,4.000000,4.000000,4.000000,4.000000,4.000000,4.000000,100.000000
1614943209.612473,21.000000,0.000000,7.131492,-4.958187,-20.290487,-12.879816,4.901169,-1.148789,-1.664765,4.851533,-5.368251,11.849393,22.409643,18.444811,12.573966,-14.113097,19.804420,32.616901,24.173485,39.619915,56.070560,46.074017,7.536195,16.633150,14.323983,25.194145,8.102337,5.497286,5.311133,5.558188,-1.917926,6.279862,-8.148923,-44.820492,0.000000,185.000000,4.000000,,,,0.000000,4.000000,4.000000,4.000000,4.000000,4.000000,4.000000,4.000000,4.000000,4.000000,4.000000,4.000000,4.000000,4.000000,4.000000,4.000000,4.000000,4.000000,4.000000,4.000000,4.000000,4.000000,4.000000,4.000000,4.000000,4.000000,4.000000,4.000000,4.000000,4.000000,4.000000,4.000000,4.000000,100.000000
1614943209.620122,22.000000,0.000000,7.124360,-4.953229,-19.757376,-12.866937,6.947550,-0.121999,-1.663101,-2.845626,-5.362883,13.376005,22.387234,16.887903,12.561392,-6.406676,22.861538,37.712490,20.046747,44.195679,60.117054,49.104866,12.656864,9.437031,9.181455,26.194592,13.222440,4.978969,5.305822,6.578271,-2.428829,6.273582,-7.115133,-45.288494,0.000000,185.000000,4.000000,,,,0.000000,4.000000,4.000000,4.000000,4.000000,4.000000,4.000000,4.000000,4.000000,4.000000,4.000000,4.000000,4.000000,4.000000,4.000000,4.000000,4.000000,4.000000,4.000000,4.000000,4.000000,4.000000,4.000000,4.000000,4.000000,4.000000,4.000000,4.000000,4.000000,4.000000,4.000000,4.000000,4.000000,100.000000
1614943209.627971,23.000000,0.000000,7.117236,-4.435455,-17.686337,-12.854070,5.914961,-0.634697,-1.661438,-6.432524,-5.357521,13.362629,22.364847,12.255631,12.036010,-8.451551,12.582267,20.238880,11.308753,43.125843,65.697960,53.158325,9.054464,4.812209,7.120991,24.117115,14.747679,5.486810,3.762054,3.494770,-1.913580,6.267309,-7.620839,-44.730385,0.000000,215.000000,4.000000,,,,0.000000,4.000000,4.000000,4.000000,4.000000,4.000000,4.000000,4.000000,4.000000,4.000000,4.000000,4.000000,4.000000,4.000000,4.000000,4.000000,4.000000,4.000000,4.000000,4.000000,4.000000,4.000000,4.000000,4.000000,4.000000,4.000000,4.000000,4.000000,4.000000,4.000000,4.000000,4.000000,4.000000,100.000000
1614943209.635720,24.000000,0.000000,7.110118,-4.943840,-16.130188,-12.328395,6.421867,-0.121242,-1.659776,-2.836348,-5.352163,12.836446,22.855303,9.679273,14.075256,-7.930280,8.467120,13.039154,6.169239,37.954510,54.350212,47.464142,-7.364847,-7.500296,4.036947,24.605820,10.117547,5.481323,-0.857092,-3.688212,-1.911666,6.261042,-7.613218,-44.172832,0.000000,191.000000,4.000000,,,,0.000000,4.000000,4.000000,4.000000,4.000000,4.000000,4.000000,4.000000,4.000000,4.000000,4.000000,4.000000,4.000000,4.000000,4.000000,4.000000,4.000000,4.000000,4.000000,4.000000,4.000000,4.000000,4.000000,4.000000,4.000000,4.000000,4.000000,4.000000,4.000000,4.000000,4.000000,4.000000,4.000000,100.000000
1614943209.643570,25.000000,0.000000,7.103008,-4.938896,-16.626879,-12.828887,6.415445,-0.121121,-1.658116,-1.807870,-5.346811,12.823609,21.806807,10.182414,15.599642,-9.460811,7.945833,16.615858,7.701531,34.326813,38.398426,39.211548,-14.536969,-19.287668,-0.582475,15.350444,6.517686,5.475842,-2.907517,-5.222985,-1.909754,6.254780,-7.092784,-45.154301,0.000000,183.000000,4.000000,,,,0.000000,4.000000,4.000000,4.000000,4.000000,4.000000,4.000000,4.000000,4.000000,4.000000,4.000000,4.000000,4.000000,4.000000,4.000000,4.000000,4.000000,4.000000,4.000000,4.000000,4.000000,4.000000,4.000000,4.000000,4.000000,4.000000,4.000000,4.000000,4.000000,4.000000,4.000000,4.000000,4.000000,100.000000
1614943209.651319,26.000000,0.000000,7.095905,-4.421137,-16.610252,-12.303238,6.409030,-1.146641,-1.656458,-1.806062,-5.341464,13.836427,22.297819,12.223514,15.584043,-16.630836,7.425066,19.676167,16.411777,42.497616,40.924133,40.710796,-5.291663,-3.883764,5.571954,6.617145,7.023989,5.470366,-2.391789,0.423263,-1.907845,6.248526,-7.598512,-44.083508,0.000000,186.000000,4.000000,,,,0.000000,4.000000,4.000000,4.000000,4.000000,4.000000,4.000000,4.000000,4.000000,4.000000,4.000000,4.000000,4.000000,4.000000,4.000000,4.000000,4.000000,4.000000,4.000000,4.000000,4.000000,4.000000,4.000000,4.000000,4.000000,4.000000,4.000000,4.000000,4.000000,4.000000,4.000000,4.000000,4.000000,100.000000
1614943209.659168,27.000000,0.000000,7.088809,-5.442357,-16.080820,-12.290935,4.351339,-0.632674,-1.654802,1.272667,-4.823302,12.284129,22.788342,13.749752,17.106920,-23.280872,7.417641,19.143669,26.651777,40.916656,45.498592,46.823933,4.970039,19.197042,18.386894,18.405399,7.016964,5.464896,-2.389397,2.986943,-1.905937,6.755097,-7.590913,-38.398396,0.000000,197.000000,4.000000,,,,0.000000,4.000000,4.000000,4.000000,4.000000,4.000000,4.000000,4.000000,4.000000,4.000000,4.000000,4.000000,4.000000,4.000000,4.000000,4.000000,4.000000,4.000000,4.000000,4.000000,4.000000,4.000000,4.000000,4.000000,4.000000,4.000000,4.000000,4.000000,4.000000,4.000000,4.000000,4.000000,4.000000,100.000000
1614943209.666917,28.000000,0.000000,7.081720,-9.539478,-18.116022,-14.329926,0.757244,-0.119220,-1.653147,-0.267067,-6.869761,5.092358,17.637348,14.248823,12.987249,-34.026825,-5.410289,0.150167,30.727690,13.696251,33.145401,45.751469,3.939428,15.588102,22.471071,31.207506,5.984307,5.459431,-2.899828,1.445494,-1.904031,5.209881,-7.583323,-37.334358,0.000000,190.000000,4.000000,,,,0.000000,4.000000,4.000000,4.000000,4.000000,4.000000,4.000000,4.000000,4.000000,4.000000,4.000000,4.000000,4.000000,4.000000,4.000000,4.000000,4.000000,4.000000,4.000000,4.000000,4.000000,4.000000,4.000000,4.000000,4.000000,4.000000,4.000000,4.000000,4.000000,4.000000,4.000000,4.000000,4.000000,100.000000
1614943209.674766,29.000000,0.000000,7.074639,-12.606862,-20.662008,-16.366879,-1.807616,-5.760127,-1.651494,-4.369364,-8.914173,2.010342,10.953045,14.234574,2.205031,-46.300488,-27.968981,-30.619215,28.132858,-4.778984,24.394308,41.090332,-1.705537,4.290462,20.397318,26.560915,5.978323,4.941151,-2.896929,1.956869,-2.414947,1.614927,-7.575739,-40.886768,0.000000,174.000000,4.000000,,,,0.000000,4.000000,4.000000,4.000000,4.000000,4.000000,4.000000,4.000000,4.000000,4.000000,4.000000,4.000000,4.000000,4.000000,4.000000,4.000000,4.000000,4.000000,4.000000,4.000000,4.000000,4.000000,4.000000,4.000000,4.000000,4.000000,4.000000,4.000000,4.000000,4.000000,4.000000,4.000000,4.000000,100.000000
1614943209.682515,30.000000,0.000000,7.067564,-10.030152,-20.641346,-16.863331,-2.318629,-8.318469,-1.649842,-3.339354,-6.853977,4.572435,9.916451,14.220339,3.228467,-42.151623,-26.402552,-29.562954,26.566265,8.046309,34.113503,40.023602,-1.191011,9.927197,21.402563,21.918970,6.997985,5.449030,-2.381211,2.467733,-1.899712,2.126133,-7.568163,-39.820240,0.000000,179.000000,4.000000,,,,0.000000,4.000000,4.000000,4.000000,4.000000,4.000000,4.000000,4.000000,4.000000,4.000000,4.000000,4.000000,4.000000,4.000000,4.000000,4.000000,4.000000,4.000000,4.000000,4.000000,4.000000,4.000000,4.000000,4.000000,4.000000,4.000000,4.000000,4.000000,4.000000,4.000000,4.000000,4.000000,4.000000,100.000000
1614943209.690364,31.000000,0.000000,7.060497,-5.404738,-20.620705,-16.333647,-1.803490,-1.643484,-1.648193,-1.284733,-3.257379,5.080683,14.521919,14.206119,16.558573,-30.827421,2.341800,3.287122,26.539698,24.448519,50.489647,43.060501,1.887103,15.045476,20.868340,22.922691,5.965346,5.443581,-2.378830,1.952444,-1.897812,2.124007,-7.560595,-37.729137,0.000000,180.000000,4.000000,,,,0.000000,4.000000,4.000000,4.000000,4.000000,4.000000,4.000000,4.000000,4.000000,4.000000,4.000000,4.000000,4.000000,4.000000,4.000000,4.000000,4.000000,4.000000,4.000000,4.000000,4.000000,4.000000,4.000000,4.000000,4.000000,4.000000,4.000000,4.000000,4.000000,4.000000,4.000000,4.000000,4.000000,100.000000
1614943209.698113,32.000000,0.000000,7.053436,-4.373692,-21.112906,-16.317314,1.275237,3.999185,-1.646544,-1.796268,-1.715660,8.152525,17.584320,14.191913,20.644577,-28.745312,17.211254,22.771013,24.461876,26.988173,54.541721,45.581543,2.398036,8.363764,17.770548,20.335667,6.472201,4.925317,-2.889272,1.950492,-2.408735,0.583421,-7.553035,-37.691406,8064.000000,0.000000,4.000000,,,,0.000000,4.000000,4.000000,4.000000,4.000000,4.000000,4.000000,4.000000,4.000000,4.000000,4.000000,4.000000,4.000000,4.000000,4.000000,4.000000,4.000000,4.000000,4.000000,4.000000,4.000000,4.000000,4.000000,4.000000,4.000000,4.000000,4.000000,4.000000,4.000000,4.000000,4.000000,4.000000,4.000000,100.000000
1614943209.705962,33.000000,0.000000,7.046383,-4.882139,-16.476408,-16.300997,6.402167,2.456724,-1.644898,0.256810,0.337337,17.887962,17.566736,14.177721,13.957266,-23.588362,2.835068,-0.328680,16.232286,25.935543,48.333332,46.048782,6.498202,4.765656,16.727137,19.802509,13.132396,6.971674,-1.860741,1.948541,-1.893506,7.762325,-8.058302,-29.448587,8064.000000,0.000000,4.000000,,,,0.000000,4.000000,4.000000,4.000000,4.000000,4.000000,4.000000,4.000000,4.000000,4.000000,4.000000,4.000000,4.000000,4.000000,4.000000,4.000000,4.000000,4.000000,4.000000,4.000000,4.000000,4.000000,4.000000,4.000000,4.000000,4.000000,4.000000,4.000000,4.000000,4.000000,4.000000,4.000000,4.000000,100.000000
1614943209.713711,34.000000,0.000000,7.039336,-4.877257,-7.229162,-16.284695,10.498328,3.479908,-1.643253,2.307835,4.439564,21.459818,20.626093,14.163543,11.379207,-8.692978,-8.962639,-13.148864,5.959644,26.935249,46.233715,45.489914,13.671191,3.735250,17.223230,22.346809,21.324392,11.580087,0.192401,1.946593,2.723773,22.626358,-4.973320,-19.675550,8064.000000,0.000000,4.000000,,,,0.000000,4.000000,4.000000,4.000000,4.000000,4.000000,4.000000,4.000000,4.000000,4.000000,4.000000,4.000000,4.000000,4.000000,4.000000,4.000000,4.000000,4.000000,4.000000,4.000000,4.000000,4.000000,4.000000,4.000000,4.000000,4.000000,4.000000,4.000000,4.000000,4.000000,4.000000,4.000000,4.000000,100.000000
1614943209.721560,35.000000,0.000000,7.032297,-4.359559,-1.580907,-16.268412,12.539112,9.117455,-1.641610,1.792707,5.973586,19.899897,29.836235,14.149380,12.906289,-3.043259,1.815554,9.428388,4.415223,30.498056,53.366970,45.957241,11.606238,0.141771,17.206007,23.350103,22.328709,13.619789,1.217850,1.944646,5.797972,29.270397,-0.352963,-20.168695,8064.000000,0.000000,4.000000,,,,0.000000,4.000000,4.000000,4.000000,4.000000,4.000000,4.000000,4.000000,4.000000,4.000000,4.000000,4.000000,4.000000,4.000000,4.000000,4.000000,4.000000,4.000000,4.000000,4.000000,4.000000,4.000000,4.000000,4.000000,4.000000,4.000000,4.000000,4.000000,4.000000,4.000000,4.000000,4.000000,4.000000,100.000000
1614943209.729309,36.000000,0.000000,7.025265,-4.868020,-1.579326,-16.252142,13.552215,11.672440,-1.639968,2.816555,6.480433,21.931278,35.447426,14.135230,15.457485,-4.065857,14.634252,28.906139,10.051833,34.570122,57.416168,46.936928,6.979247,-2.422474,15.137519,23.326754,20.767918,12.580528,0.703812,1.942702,5.792174,28.728308,0.160211,-22.712629,8064.000000,0.000000,4.000000,,,,0.000000,4.000000,4.000000,4.000000,4.000000,4.000000,4.000000,4.000000,4.000000,4.000000,4.000000,4.000000,4.000000,4.000000,4.000000,4.000000,4.000000,4.000000,4.000000,4.000000,4.000000,4.000000,4.000000,4.000000,4.000000,4.000000,4.000000,4.000000,4.000000,4.000000,4.000000,4.000000,4.000000,100.000000
1614943209.737158,37.000000,0.000000,7.018239,-4.863152,-1.064926,-16.235889,13.025842,9.609485,-1.638328,1.788098,6.473953,18.832424,32.335052,14.633916,16.980490,-4.061791,9.491412,19.646463,12.093063,35.048374,52.230545,44.325886,6.459447,-2.420051,13.583920,22.790607,21.772791,12.567947,1.728749,1.940759,5.786382,28.186758,-0.352770,-22.177095,8064.000000,0.000000,4.000000,,,,0.000000,4.000000,4.000000,4.000000,4.000000,4.000000,4.000000,4.000000,4.000000,4.000000,4.000000,4.000000,4.000000,4.000000,4.000000,4.000000,4.000000,4.000000,4.000000,4.000000,4.000000,4.000000,4.000000,4.000000,4.000000,4.000000,4.000000,4.000000,4.000000,4.000000,4.000000,4.000000,4.000000,100.000000
1614943209.744907,38.000000,0.000000,7.011221,-4.858289,-1.576682,-16.219654,13.012815,6.010132,-1.123869,-3.854716,1.339274,4.967438,25.636053,14.106462,15.425047,-15.852601,-2.825772,1.678099,11.055329,33.474865,48.588573,36.589252,2.863244,-1.904811,13.570335,20.716534,22.263838,13.581020,1.214200,2.451639,4.754954,24.568829,0.160403,-23.693380,8064.000000,0.000000,4.000000,,,,0.000000,4.000000,4.000000,4.000000,4.000000,4.000000,4.000000,4.000000,4.000000,4.000000,4.000000,4.000000,4.000000,4.000000,4.000000,4.000000,4.000000,4.000000,4.000000,4.000000,4.000000,4.000000,4.000000,4.000000,4.000000,4.000000,4.000000,4.000000,4.000000,4.000000,4.000000,4.000000,4.000000,100.000000
1614943209.752756,39.000000,0.000000,7.004210,-4.853431,-6.190490,-16.203434,12.999803,3.440019,-3.174027,-9.491887,-4.815912,-3.242657,20.995031,14.092355,16.435263,-34.298286,-3.335766,-1.913323,11.557095,29.338825,47.001522,33.475742,-2.267824,-1.902906,13.556766,19.157356,21.728754,11.003337,0.187344,1.936367,2.186097,20.441694,-1.378219,-26.233789,8064.000000,0.000000,4.000000,,,,0.000000,4.000000,4.000000,4.000000,4.000000,4.000000,4.000000,4.000000,4.000000,4.000000,4.000000,4.000000,4.000000,4.000000,4.000000,4.000000,4.000000,4.000000,4.000000,4.000000,4.000000,4.000000,4.000000,4.000000,4.000000,4.000000,4.000000,4.000000,4.000000,4.000000,4.000000,4.000000,4.000000,100.000000
1614943209.760505,40.000000,0.000000,6.997206,-4.848577,-9.261222,-16.187231,12.986803,2.923759,-5.222136,-9.482395,-5.836737,0.350329,18.922754,14.591083,17.957289,-38.879372,-2.819610,-0.885769,12.571178,14.437691,44.390419,33.955086,-1.239915,-2.413823,13.543208,19.651020,21.194204,8.941051,6.341003,1.934430,1.158270,19.395613,-3.940943,-27.233196,8064.000000,0.000000,4.000000,,,,0.000000,4.000000,4.000000,4.000000,4.000000,4.000000,4.000000,4.000000,4.000000,4.000000,4.000000,4.000000,4.000000,4.000000,4.000000,4.000000,4.000000,4.000000,4.000000,4.000000,4.000000,4.000000,4.000000,4.000000,4.000000,4.000000,4.000000,4.000000,4.000000,4.000000,4.000000,4.000000,4.000000,100.000000
1614943209.768354,41.000000,0.000000,6.990209,-4.843729,-8.739141,-16.171043,12.973816,2.920835,-5.729734,-8.447271,-6.343720,0.862799,14.801268,12.012389,9.221383,-42.430237,-25.380894,-23.961805,9.481684,-6.089568,33.576797,22.639080,-5.854060,-6.513974,14.042485,20.144188,21.685831,8.932111,10.950047,2.445316,1.669932,17.837755,-3.937002,-29.257246,8064.000000,0.000000,4.000000,,,,0.000000,4.000000,4.000000,4.000000,4.000000,4.000000,4.000000,4.000000,4.000000,4.000000,4.000000,4.000000,4.000000,4.000000,4.000000,4.000000,4.000000,4.000000,4.000000,4.000000,4.000000,4.000000,4.000000,4.000000,4.000000,4.000000,4.000000,4.000000,4.000000,4.000000,4.000000,4.000000,4.000000,100.000000
1614943209.776103,42.000000,0.000000,6.983218,-4.838885,-12.320145,-16.667694,12.960842,2.917914,-5.211184,-9.977286,-9.414300,-5.804730,7.606979,7.384992,-4.633992,-55.208321,-49.458076,-49.066048,2.805536,-11.211683,19.184246,9.283108,-16.104616,-9.584383,11.464340,20.124044,20.638504,7.897537,4.272430,-0.121232,1.668262,15.768636,-3.933065,-30.253630,8064.000000,0.000000,4.000000,,,,0.000000,4.000000,4.000000,4.000000,4.000000,4.000000,4.000000,4.000000,4.000000,4.000000,4.000000,4.000000,4.000000,4.000000,4.000000,4.000000,4.000000,4.000000,4.000000,4.000000,4.000000,4.000000,4.000000,4.000000,4.000000,4.000000,4.000000,4.000000,4.000000,4.000000,4.000000,4.000000,4.000000,100.000000
1614943209.783752,43.000000,0.000000,6.976235,-4.834046,-16.923210,-16.138205,12.947882,2.914996,-5.205972,-12.018591,-9.404885,-6.824567,6.060911,4.813505,-7.706281,-58.230034,-37.613747,-34.145187,-0.274193,-6.585087,23.780445,20.555876,-13.011588,-9.061978,6.837492,17.539818,13.438378,5.325537,-3.424150,-5.249316,1.666594,16.265688,-3.929132,-29.710554,8064.000000,0.000000,4.000000,,,,0.000000,4.000000,4.000000,4.000000,4.000000,4.000000,4.000000,4.000000,4.000000,4.000000,4.000000,4.000000,4.000000,4.000000,4.000000,4.000000,4.000000,4.000000,4.000000,4.000000,4.000000,4.000000,4.000000,4.000000,4.000000,4.000000,4.000000,4.000000,4.000000,4.000000,4.000000,4.000000,4.000000,100.000000
1614943209.791502,44.000000,0.000000,6.969259,-4.829212,-14.855004,-16.122066,12.934934,2.912081,-5.200767,-13.032213,-8.882660,-4.766460,7.080491,3.270230,-3.596011,-47.915394,-14.499209,-7.444376,0.751722,-3.501579,40.679741,40.022499,-2.229346,-9.052916,5.805013,15.983816,6.758274,4.807391,-2.395085,-5.756886,1.664927,16.762241,-3.925203,-29.680843,8064.000000,0.000000,4.000000,,,,0.000000,4.000000,4.000000,4.000000,4.000000,4.000000,4.000000,4.000000,4.000000,4.000000,4.000000,4.000000,4.000000,4.000000,4.000000,4.000000,4.000000,4.000000,4.000000,4.000000,4.000000,4.000000,4.000000,4.000000,4.000000,4.000000,4.000000,4.000000,4.000000,4.000000,4.000000,4.000000,4.000000,100.000000
1614943209.799151,45.000000,0.000000,6.962290,-5.337203,-12.276047,-17.131586,12.921999,2.909169,-5.708386,-13.019181,-8.873777,-3.736053,7.073411,2.754139,-3.592415,-40.175171,-17.561634,-8.975393,-0.787491,6.245513,41.664703,39.469658,-1.201476,-11.607965,6.312029,16.480654,5.725874,5.315404,-3.931151,-2.674207,1.663262,16.232658,-4.434098,-29.651163,8064.000000,0.000000,4.000000,,,,0.000000,4.000000,4.000000,4.000000,4.000000,4.000000,4.000000,4.000000,4.000000,4.000000,4.000000,4.000000,4.000000,4.000000,4.000000,4.000000,4.000000,4.000000,4.000000,4.000000,4.000000,4.000000,4.000000,4.000000,4.000000,4.000000,4.000000,4.000000,4.000000,4.000000,4.000000,4.000000,4.000000,100.000000
1614943209.806900,46.000000,0.000000,6.955328,-5.331866,-13.802232,-15.575993,12.909077,2.906260,-5.702678,-11.980521,-8.864903,1.908709,10.656081,2.751385,1.026562,-31.417048,-19.082533,-10.504880,-3.863627,25.213627,37.520473,34.814800,-1.200274,-13.134819,5.792896,12.874429,6.745790,5.310089,-5.978502,-1.645892,1.661599,16.729248,-3.916844,-29.621511,8064.000000,0.000000,4.000000,,,,0.000000,4.000000,4.000000,4.000000,4.000000,4.000000,4.000000,4.000000,4.000000,4.000000,4.000000,4.000000,4.000000,4.000000,4.000000,4.000000,4.000000,4.000000,4.000000,4.000000,4.000000,4.000000,4.000000,4.000000,4.000000,4.000000,4.000000,4.000000,4.000000,4.000000,4.000000,4.000000,4.000000,100.000000
1614943209.814549,47.000000,0.000000,7.461193,-4.300893,-11.224327,-10.945032,13.408988,3.416174,-4.158514,-9.917258,-8.856039,13.188851,17.312092,3.261454,10.769126,-19.590759,5.551934,12.069728,0.242801,36.470463,48.252186,43.497936,3.416311,-12.096044,6.299924,8.246170,7.251864,8.381701,-3.921242,-2.157066,2.172758,17.225338,-3.400106,-29.591890,8064.000000,0.000000,4.000000,,,,0.000000,4.000000,4.000000,4.000000,4.000000,4.000000,4.000000,4.000000,4.000000,4.000000,4.000000,4.000000,4.000000,4.000000,4.000000,4.000000,4.000000,4.000000,4.000000,4.000000,4.000000,4.000000,4.000000,4.000000,4.000000,4.000000,4.000000,4.000000,4.000000,4.000000,4.000000,4.000000,4.000000,100.000000
1614943209.822298,48.000000,0.000000,7.453732,-4.809412,-6.084898,-8.882805,13.908400,2.899937,-5.179996,-8.368879,-8.334362,18.816689,19.858881,3.258192,13.322459,-13.417322,18.879715,25.903812,3.832302,35.408352,49.742393,47.557003,2.900074,-12.083947,6.293624,11.314847,6.731792,9.398961,-3.404500,-2.154909,1.657765,17.720934,-4.422347,-29.049479,8064.000000,0.000000,4.000000,,,,0.000000,4.000000,4.000000,4.000000,4.000000,4.000000,4.000000,4.000000,4.000000,4.000000,4.000000,4.000000,4.000000,4.000000,4.000000,4.000000,4.000000,4.000000,4.000000,4.000000,4.000000,4.000000,4.000000,4.000000,4.000000,4.000000,4.000000,4.000000,4.000000,4.000000,4.000000,4.000000,4.000000,100.000000
1614943209.829947,49.000000,0.000000,6.933457,-5.830244,-5.053172,-7.848281,11.843209,2.897038,-6.713278,-8.873331,-8.838848,15.208128,18.813381,3.254934,12.796316,-13.403905,5.014682,11.518933,3.828470,32.296021,39.949062,42.894062,1.871533,-13.610325,5.774510,12.841993,5.699419,8.363921,-0.324172,-1.127113,1.656107,15.651931,-2.879463,-29.533249,8064.000000,0.000000,4.000000,,,,0.000000,4.000000,4.000000,4.000000,4.000000,4.000000,4.000000,4.000000,4.000000,4.000000,4.000000,4.000000,4.000000,4.000000,4.000000,4.000000,4.000000,4.000000,4.000000,4.000000,4.000000,4.000000,4.000000,4.000000,4.000000,4.000000,4.000000,4.000000,4.000000,4.000000,4.000000,4.000000,4.000000,100.000000
1614943209.837696,50.000000,0.000000,7.439344,-0.183388,-4.535298,-2.712228,13.369827,5.458243,0.472923,-8.864458,-8.830009,12.628818,18.794569,3.251679,13.296340,-17.493065,-8.836487,-11.569509,11.516949,30.212442,40.934753,44.902447,3.920943,-10.006971,8.845658,10.265049,7.745002,10.406839,9.419742,1.950937,4.731374,16.661921,2.251621,-30.016537,8064.000000,0.000000,4.000000,,,,0.000000,4.000000,4.000000,4.000000,4.000000,4.000000,4.000000,4.000000,4.000000,4.000000,4.000000,4.000000,4.000000,4.000000,4.000000,4.000000,4.000000,4.000000,4.000000,4.000000,4.000000,4.000000,4.000000,4.000000,4.000000,4.000000,4.000000,4.000000,4.000000,4.000000,4.000000,4.000000,4.000000,100.000000
1614943209.845346,51.000000,0.000000,6.919084,6.483462,-1.966660,-1.171054,14.382099,7.504067,8.677578,-8.342772,-8.308359,14.154650,19.801414,3.761248,8.154839,-33.373009,-11.904573,-22.839991,18.684919,25.054026,36.278435,40.754982,-5.313747,-9.484143,10.375274,18.459911,7.224436,7.319510,11.461604,5.538730,5.752284,17.670898,4.813472,-28.448059,8064.000000,0.000000,4.000000,,,,0.000000,4.000000,4.000000,4.000000,4.000000,4.000000,4.000000,4.000000,4.000000,4.000000,4.000000,4.000000,4.000000,4.000000,4.000000,4.000000,4.000000,4.000000,4.000000,4.000000,4.000000,4.000000,4.000000,4.000000,4.000000,4.000000,4.000000,4.000000,4.000000,4.000000,4.000000,4.000000,4.000000,100.000000
1614943209.853095,52.000000,0.000000,2.809601,3.400055,-5.041617,-6.298088,1.547204,3.906819,2.002234,-9.360071,-8.812871,9.525111,11.576486,2.219025,-0.571265,-53.339634,-8.302925,-15.124843,7.897003,13.234099,16.754976,21.227047,-24.795612,-21.782352,4.211053,22.031197,-6.628942,-9.098066,2.732193,6.046011,-0.407315,4.832715,0.706095,-30.470892,8064.000000,0.000000,4.000000,,,,0.000000,4.000000,4.000000,4.000000,4.000000,4.000000,4.000000,4.000000,4.000000,4.000000,4.000000,4.000000,4.000000,4.000000,4.000000,4.000000,4.000000,4.000000,4.000000,4.000000,4.000000,4.000000,4.000000,4.000000,4.000000,4.000000,4.000000,4.000000,4.000000,4.000000,4.000000,4.000000,4.000000,100.000000
1614943209.860744,53.000000,0.000000,-0.782952,-1.731550,-12.216063,-8.855893,-13.326138,-0.712472,-5.692076,-11.914814,-11.368161,0.797637,-4.845347,0.165524,-3.134796,-60.465782,-11.371546,-13.571256,-2.880124,-5.240673,5.968991,7.872487,-32.463123,-32.016979,-0.921363,5.598908,-15.340261,-18.319738,-3.424385,6.039966,-7.586395,-10.043913,-4.422816,-36.081448,8064.000000,0.000000,4.000000,,,,0.000000,4.000000,4.000000,4.000000,4.000000,4.000000,4.000000,4.000000,4.000000,4.000000,4.000000,4.000000,4.000000,4.000000,4.000000,4.000000,4.000000,4.000000,4.000000,4.000000,4.000000,4.000000,4.000000,4.000000,4.000000,4.000000,4.000000,4.000000,4.000000,4.000000,4.000000,4.000000,4.000000,100.000000
1614943209.868493,54.000000,0.000000,-0.782169,3.911207,-13.742308,-6.282934,-8.184607,-1.224580,-2.609461,-12.928539,-11.869614,-3.818545,-13.558451,-0.860282,-2.618841,-60.405315,-35.462738,-45.865376,-4.415706,-20.620049,5.450202,5.813333,-25.251175,-30.446501,-1.433263,-1.586178,-3.530050,-8.557828,-2.395319,7.572387,-3.989065,1.248183,-3.905573,-33.481262,8064.000000,0.000000,4.000000,,,,0.000000,4.000000,4.000000,4.000000,4.000000,4.000000,4.000000,4.000000,4.000000,4.000000,4.000000,4.000000,4.000000,4.000000,4.000000,4.000000,4.000000,4.000000,4.000000,4.000000,4.000000,4.000000,4.000000,4.000000,4.000000,4.000000,4.000000,4.000000,4.000000,4.000000,4.000000,4.000000,4.000000,100.000000
1614943209.876142,55.000000,0.000000,-0.268566,10.061142,-12.702925,-5.251010,2.079988,-1.223356,-0.555569,-12.915611,-9.806461,-3.301906,-7.391047,-0.859422,-2.103401,-61.883373,-54.401634,-67.357971,-9.539495,-13.932761,9.547316,8.884442,-17.533615,-28.364773,-3.483111,9.184639,7.242711,1.707140,0.171179,10.128918,4.220052,19.195652,-0.824745,-24.217012,8064.000000,0.000000,4.000000,,,,0.000000,4.000000,4.000000,4.000000,4.000000,4.000000,4.000000,4.000000,4.000000,4.000000,4.000000,4.000000,4.000000,4.000000,4.000000,4.000000,4.000000,4.000000,4.000000,4.000000,4.000000,4.000000,4.000000,4.000000,4.000000,4.000000,4.000000,4.000000,4.000000,4.000000,4.000000,4.000000,4.000000,100.000000
1614943209.883891,56.000000,0.000000,-0.781118,8.512619,-13.203042,-5.245759,2.590729,-1.222132,-2.093475,-11.877054,-8.258194,0.291139,1.334293,-0.345742,-0.050016,-53.103542,-30.757488,-34.470104,-7.478674,13.773479,25.948025,22.721712,-12.900698,-23.721024,-3.479628,7.124172,4.158545,1.705433,-0.341813,9.605968,4.215832,15.073893,-2.362381,-23.167154,8064.000000,0.000000,4.000000,,,,0.000000,4.000000,4.000000,4.000000,4.000000,4.000000,4.000000,4.000000,4.000000,4.000000,4.000000,4.000000,4.000000,4.000000,4.000000,4.000000,4.000000,4.000000,4.000000,4.000000,4.000000,4.000000,4.000000,4.000000,4.000000,4.000000,4.000000,4.000000,4.000000,4.000000,4.000000,4.000000,4.000000,100.000000
1614943209.891540,57.000000,0.000000,-0.267517,3.375902,-12.677018,-5.240514,1.049676,-1.220910,-1.578561,-12.377998,-9.275577,1.829310,3.897062,0.167424,2.001316,-35.101719,2.093781,-1.615120,2.785215,28.118681,37.716949,35.519501,-8.785233,-14.466533,1.139236,-3.652183,1.590284,1.190907,-3.418394,4.980977,-0.916589,4.802409,-7.488224,-28.785013,8064.000000,0.000000,4.000000,,,,0.000000,4.000000,4.000000,4.000000,4.000000,4.000000,4.000000,4.000000,4.000000,4.000000,4.000000,4.000000,4.000000,4.000000,4.000000,4.000000,4.000000,4.000000,4.000000,4.000000,4.000000,4.000000,4.000000,4.000000,4.000000,4.000000,4.000000,4.000000,4.000000,4.000000,4.000000,4.000000,4.000000,100.000000
1614943209.899390,58.000000,0.000000,-0.780070,-0.730038,-13.177162,-5.748094,2.587088,-1.732510,-3.628265,-13.391261,-9.266301,-0.223802,3.893165,-0.858384,1.486494,-28.399950,-2.010876,-5.203248,-0.807314,17.834152,31.525385,29.330137,-7.750806,-12.913605,1.650917,1.479675,4.152796,2.215357,-0.850873,1.386253,-1.941313,5.310427,-8.506377,-31.320332,8064.000000,0.000000,4.000000,,,,0.000000,4.000000,4.000000,4.000000,4.000000,4.000000,4.000000,4.000000,4.000000,4.000000,4.000000,4.000000,4.000000,4.000000,4.000000,4.000000,4.000000,4.000000,4.000000,4.000000,4.000000,4.000000,4.000000,4.000000,4.000000,4.000000,4.000000,4.000000,4.000000,4.000000,4.000000,4.000000,4.000000,100.000000
1614943209.907139,59.000000,0.000000,-0.266469,-0.729308,-12.138344,-4.203884,3.097322,0.320505,-4.137457,-8.762486,-4.128829,5.930268,7.991836,-0.344705,1.485008,-29.397192,-14.829378,-20.582661,-4.909070,16.790676,35.596424,29.300806,-5.691773,-13.413511,-1.427657,9.683323,3.635823,2.213142,4.278183,1.384866,1.650372,7.356398,-3.882486,-26.160805,8064.000000,0.000000,4.000000,,,,0.000000,4.000000,4.000000,4.000000,4.000000,4.000000,4.000000,4.000000,4.000000,4.000000,4.000000,4.000000,4.000000,4.000000,4.000000,4.000000,4.000000,4.000000,4.000000,4.000000,4.000000,4.000000,4.000000,4.000000,4.000000,4.000000,4.000000,4.000000,4.000000,4.000000,4.000000,4.000000,4.000000,100.000000
1614943209.914988,60.000000,0.000000,1.785079,1.835523,-6.485180,1.441346,5.658327,4.935569,0.482065,-1.574236,1.516325,18.232031,12.599228,5.809485,2.509164,-24.752411,-6.609421,-18.510796,5.352249,28.568758,46.842880,42.604839,-3.121979,-8.271894,-1.426229,9.160819,3.119367,1.698108,3.761084,1.896302,2.161542,8.887504,-0.288860,-19.467978,8064.000000,0.000000,4.000000,,,,0.000000,4.000000,4.000000,4.000000,4.000000,4.000000,4.000000,4.000000,4.000000,4.000000,4.000000,4.000000,4.000000,4.000000,4.000000,4.000000,4.000000,4.000000,4.000000,4.000000,4.000000,4.000000,4.000000,4.000000,4.000000,4.000000,4.000000,4.000000,4.000000,4.000000,4.000000,4.000000,4.000000,100.000000
1614943209.922737,61.000000,0.000000,3.834576,2.346509,-4.427413,2.465545,6.678309,7.494736,0.994403,-4.136764,1.514809,17.188158,11.048167,5.803676,1.993834,-27.291759,-10.705376,-25.671772,4.834076,23.411983,35.513985,34.869926,-8.759883,-11.853365,-0.911982,8.126018,3.629068,1.696410,0.680400,1.381585,1.133739,8.365795,-0.288571,-20.474152,8064.000000,0.000000,4.000000,,,,0.000000,4.000000,4.000000,4.000000,4.000000,4.000000,4.000000,4.000000,4.000000,4.000000,4.000000,4.000000,4.000000,4.000000,4.000000,4.000000,4.000000,4.000000,4.000000,4.000000,4.000000,4.000000,4.000000,4.000000,4.000000,4.000000,4.000000,4.000000,4.000000,4.000000,4.000000,4.000000,4.000000,100.000000
1614943209.930586,62.000000,0.000000,3.317921,-0.219941,-9.551190,-2.665125,1.030605,5.948780,-1.570693,-11.824935,-1.563629,6.401738,5.908914,-1.894435,-1.597903,-38.546520,-32.745953,-40.517895,-2.350245,7.491136,19.068214,16.373518,-17.981892,-22.610743,-0.398250,7.092250,2.086977,1.694713,1.192540,1.380204,1.645426,-0.873340,-0.288282,-27.633163,8064.000000,0.000000,4.000000,,,,0.000000,4.000000,4.000000,4.000000,4.000000,4.000000,4.000000,4.000000,4.000000,4.000000,4.000000,4.000000,4.000000,4.000000,4.000000,4.000000,4.000000,4.000000,4.000000,4.000000,4.000000,4.000000,4.000000,4.000000,4.000000,4.000000,4.000000,4.000000,4.000000,4.000000,4.000000,4.000000,4.000000,100.000000
1614943209.938335,63.000000,0.000000,3.314603,-1.758182,-13.131383,-5.739383,-5.124271,6.968472,-1.569123,-11.300289,-1.562066,4.344055,3.338903,-3.431003,-1.596305,-39.533615,-32.200386,-39.451736,4.831593,3.381080,23.664532,18.408426,-20.015192,-22.075312,4.217533,5.546697,0.033608,1.693019,1.704168,1.891644,1.643781,-6.000671,-0.287994,-30.169634,8064.000000,0.000000,4.000000,,,,0.000000,4.000000,4.000000,4.000000,4.000000,4.000000,4.000000,4.000000,4.000000,4.000000,4.000000,4.000000,4.000000,4.000000,4.000000,4.000000,4.000000,4.000000,4.000000,4.000000,4.000000,4.000000,4.000000,4.000000,4.000000,4.000000,4.000000,4.000000,4.000000,4.000000,4.000000,4.000000,4.000000,100.000000
1614943209.946184,64.000000,0.000000,3.311289,-1.756424,-12.605431,-5.220823,-5.631968,6.961504,-1.567554,-7.699245,-0.534863,6.903813,4.361205,-0.350648,-1.594709,-43.083824,-22.937416,-36.335361,5.339581,0.300776,24.153687,20.954121,-21.020819,-20.001953,6.777418,5.028329,-0.479246,2.204146,1.189643,1.889752,1.642137,-2.404927,0.225114,-30.652285,0.000000,159.000000,4.000000,,,,0.000000,4.000000,4.000000,4.000000,4.000000,4.000000,4.000000,4.000000,4.000000,4.000000,4.000000,4.000000,4.000000,4.000000,4.000000,4.000000,4.000000,4.000000,4.000000,4.000000,4.000000,4.000000,4.000000,4.000000,4.000000,4.000000,4.000000,4.000000,4.000000,4.000000,4.000000,4.000000,4.000000,100.000000
1614943209.953933,65.000000,0.000000,3.307977,-0.729026,-12.592826,-5.215603,-6.139156,3.877619,-1.053166,-9.230008,-2.585610,4.332807,1.792741,-2.401580,-10.823884,-64.579201,-34.709351,-45.529797,-8.511912,-5.853371,8.744918,8.112654,-26.128002,-27.674259,6.257820,3.997660,-1.504408,0.663481,1.188453,0.862222,1.640495,-2.915343,-0.287931,-32.672913,0.000000,169.000000,4.000000,,,,0.000000,4.000000,4.000000,4.000000,4.000000,4.000000,4.000000,4.000000,4.000000,4.000000,4.000000,4.000000,4.000000,4.000000,4.000000,4.000000,4.000000,4.000000,4.000000,4.000000,4.000000,4.000000,4.000000,4.000000,4.000000,4.000000,4.000000,4.000000,4.000000,4.000000,4.000000,4.000000,4.000000,100.000000
1614943209.961782,66.000000,0.000000,3.304669,1.322985,-12.580233,-5.723207,-8.697120,3.360921,4.076093,-9.220778,-5.147127,1.251551,-0.260334,-3.937640,-16.454086,-73.745392,-39.802845,-48.048367,-6.964939,-5.847517,2.582327,2.463516,-31.742901,-31.236328,6.251562,1.429560,-4.067006,-1.901286,1.187265,4.963923,1.638854,-3.425248,-0.287643,-31.101780,0.000000,209.000000,4.000000,,,,0.000000,4.000000,4.000000,4.000000,4.000000,4.000000,4.000000,4.000000,4.000000,4.000000,4.000000,4.000000,4.000000,4.000000,4.000000,4.000000,4.000000,4.000000,4.000000,4.000000,4.000000,4.000000,4.000000,4.000000,4.000000,4.000000,4.000000,4.000000,4.000000,4.000000,4.000000,4.000000,4.000000,100.000000
1614943209.969531,67.000000,0.000000,3.301365,2.860123,-12.567653,-5.204664,-9.714064,5.921662,4.584837,-8.185916,-5.141980,1.250299,-0.260073,-0.856779,-11.822247,-62.389595,-33.096378,-43.897755,-0.291307,-10.457054,4.118206,7.076437,-32.736797,-28.640989,6.758131,0.915310,-5.088580,-2.412205,1.186078,9.574344,1.637215,3.244844,-0.287356,-28.506575,0.000000,186.000000,4.000000,,,,0.000000,4.000000,4.000000,4.000000,4.000000,4.000000,4.000000,4.000000,4.000000,4.000000,4.000000,4.000000,4.000000,4.000000,4.000000,4.000000,4.000000,4.000000,4.000000,4.000000,4.000000,4.000000,4.000000,4.000000,4.000000,4.000000,4.000000,4.000000,4.000000,4.000000,4.000000,4.000000,4.000000,100.000000
1614943209.977380,68.000000,0.000000,3.298063,2.344443,-13.067905,-5.199459,-9.704350,3.864459,-0.547953,-10.741833,-5.649658,1.249049,-1.798275,-0.343102,-10.271963,-61.814384,-40.755589,-51.033344,-7.983324,-13.523520,1.549985,9.120643,-24.498934,-27.073887,6.238553,0.914395,-4.057850,-2.409793,1.184892,4.949385,1.635578,7.344163,-0.799889,-29.503710,0.000000,153.000000,4.000000,,,,0.000000,4.000000,4.000000,4.000000,4.000000,4.000000,4.000000,4.000000,4.000000,4.000000,4.000000,4.000000,4.000000,4.000000,4.000000,4.000000,4.000000,4.000000,4.000000,4.000000,4.000000,4.000000,4.000000,4.000000,4.000000,4.000000,4.000000,4.000000,4.000000,4.000000,4.000000,4.000000,4.000000,100.000000
1614943209.985129,69.000000,0.000000,3.294765,2.342098,-12.542017,-5.194260,-8.669004,4.373415,-2.598687,-11.243911,-5.131188,1.760620,2.818908,-0.342759,-6.159127,-57.650005,-36.612267,-48.931030,-7.975340,7.515644,16.420231,16.803829,-11.653921,-21.405788,6.232314,1.426301,-4.566613,-1.894562,1.183707,-1.209410,1.633943,4.259896,0.226552,-28.448565,0.000000,207.000000,4.000000,,,,0.000000,4.000000,4.000000,4.000000,4.000000,4.000000,4.000000,4.000000,4.000000,4.000000,4.000000,4.000000,4.000000,4.000000,4.000000,4.000000,4.000000,4.000000,4.000000,4.000000,4.000000,4.000000,4.000000,4.000000,4.000000,4.000000,4.000000,4.000000,4.000000,4.000000,4.000000,4.000000,4.000000,100.000000
1614943209.992978,70.000000,0.000000,3.291471,2.852576,-10.991014,-5.189065,-6.096232,9.497247,-1.057627,-6.104462,-0.510672,3.810142,15.123781,0.170405,8.206007,-29.900049,-8.370528,-23.241074,6.391610,26.482487,39.993553,29.607538,-6.001242,-12.666433,6.226082,1.424874,-4.049226,-1.892668,1.695343,3.407184,1.632309,1.691534,0.739146,-27.907295,0.000000,187.000000,4.000000,,,,0.000000,4.000000,4.000000,4.000000,4.000000,4.000000,4.000000,4.000000,4.000000,4.000000,4.000000,4.000000,4.000000,4.000000,4.000000,4.000000,4.000000,4.000000,4.000000,4.000000,4.000000,4.000000,4.000000,4.000000,4.000000,4.000000,4.000000,4.000000,4.000000,4.000000,4.000000,4.000000,4.000000,100.000000
1614943210.000727,71.000000,0.000000,3.288179,1.824083,-16.108227,-5.183877,-6.090136,7.436467,-1.569390,-4.047076,3.079582,5.344793,20.236862,-1.368227,14.864468,-16.023994,2.407073,-6.294755,8.949321,13.635492,34.312534,32.142033,-8.046522,-10.602485,6.219856,0.910629,0.570208,-2.403595,1.180828,5.455059,1.630676,2.202662,-1.825696,-31.469131,0.000000,191.000000,4.000000,,,,0.000000,4.000000,4.000000,4.000000,4.000000,4.000000,4.000000,4.000000,4.000000,4.000000,4.000000,4.000000,4.000000,4.000000,4.000000,4.000000,4.000000,4.000000,4.000000,4.000000,4.000000,4.000000,4.000000,4.000000,4.000000,4.000000,4.000000,4.000000,4.000000,4.000000,4.000000,4.000000,4.000000,100.000000
1614943210.008476,72.000000,0.000000,3.284891,2.335079,-20.194683,-5.178692,-2.494303,2.813646,-2.080641,-5.068670,2.050862,5.852269,18.165344,1.710064,13.311141,-24.725920,-2.723539,-6.288460,4.837807,5.929549,20.432068,29.545790,-8.551296,-11.104703,6.726456,2.961000,6.723484,1.188552,1.179647,5.449604,1.629046,2.713280,2.791515,-29.899200,0.000000,183.000000,4.000000,,,,0.000000,4.000000,4.000000,4.000000,4.000000,4.000000,4.000000,4.000000,4.000000,4.000000,4.000000,4.000000,4.000000,4.000000,4.000000,4.000000,4.000000,4.000000,4.000000,4.000000,4.000000,4.000000,4.000000,4.000000,4.000000,4.000000,4.000000,4.000000,4.000000,4.000000,4.000000,4.000000,4.000000,100.000000
1614943210.016225,73.000000,0.000000,3.281606,4.384026,-12.482181,-4.660693,7.251781,5.887755,-1.565740,-4.037960,2.561631,5.846417,21.224102,7.349380,14.323471,-27.265297,-2.720815,-8.846274,7.397072,21.821054,30.155226,32.080345,-4.953001,-11.606419,6.719730,7.060604,9.280863,6.315568,2.204108,13.649282,2.140237,1.684926,11.506672,-25.766739,0.000000,189.000000,4.000000,,,,0.000000,4.000000,4.000000,4.000000,4.000000,4.000000,4.000000,4.000000,4.000000,4.000000,4.000000,4.000000,4.000000,4.000000,4.000000,4.000000,4.000000,4.000000,4.000000,4.000000,4.000000,4.000000,4.000000,4.000000,4.000000,4.000000,4.000000,4.000000,4.000000,4.000000,4.000000,4.000000,4.000000,100.000000
1614943210.023875,74.000000,0.000000,3.791145,5.405283,-8.367135,-5.681674,8.270171,3.830585,-1.051353,-7.110845,3.071890,5.327750,16.587494,4.265107,8.155301,-32.366238,-15.538608,-24.222044,4.312752,20.773594,27.560968,32.048264,-10.589074,-19.287119,4.661728,10.643287,5.169018,3.232330,0.663443,15.174094,1.625276,-0.880861,7.905422,-31.381996,0.000000,190.000000,4.000000,,,,0.000000,4.000000,4.000000,4.000000,4.000000,4.000000,4.000000,4.000000,4.000000,4.000000,4.000000,4.000000,4.000000,4.000000,4.000000,4.000000,4.000000,4.000000,4.000000,4.000000,4.000000,4.000000,4.000000,4.000000,4.000000,4.000000,4.000000,4.000000,4.000000,4.000000,4.000000,4.000000,4.000000,100.000000
1614943210.031624,75.000000,0.000000,3.274533,2.835775,-17.589537,-7.727274,-3.532971,-7.968117,-1.563123,-14.283221,-1.033746,2.245499,-0.864992,-2.918645,-4.160546,-46.692844,-30.907684,-40.095257,-4.409510,-0.785642,4.969304,22.785448,-26.475922,-29.011423,2.605784,9.607002,-5.605381,-4.976031,-6.003888,2.338407,1.623651,-1.392801,-4.922997,-39.042923,0.000000,188.000000,4.000000,,,,0.000000,4.000000,4.000000,4.000000,4.000000,4.000000,4.000000,4.000000,4.000000,4.000000,4.000000,4.000000,4.000000,4.000000,4.000000,4.000000,4.000000,4.000000,4.000000,4.000000,4.000000,4.000000,4.000000,4.000000,4.000000,4.000000,4.000000,4.000000,4.000000,4.000000,4.000000,4.000000,4.000000,100.000000
1614943210.039273,76.000000,0.000000,3.271259,1.807299,-24.751434,-9.258008,-9.683285,-13.088354,-1.561559,-16.320221,-5.135276,1.217613,-8.556435,-2.402906,-10.310232,-50.235893,-31.902418,-42.619263,-7.482023,-6.938703,0.861771,15.070354,-34.141754,-30.520872,2.603179,1.905087,-12.266443,-5.996696,-10.100448,-0.740854,2.134848,1.685515,-8.507817,-37.465420,0.000000,171.000000,4.000000,,,,0.000000,4.000000,4.000000,4.000000,4.000000,4.000000,4.000000,4.000000,4.000000,4.000000,4.000000,4.000000,4.000000,4.000000,4.000000,4.000000,4.000000,4.000000,4.000000,4.000000,4.000000,4.000000,4.000000,4.000000,4.000000,4.000000,4.000000,4.000000,4.000000,4.000000,4.000000,4.000000,4.000000,100.000000
1614943210.047022,77.000000,0.000000,3.780808,2.318312,-23.701042,-8.735929,-8.135139,-11.536804,-1.047177,-16.303900,-5.642962,3.267677,-6.496596,-2.400503,-14.402486,-60.954891,-45.716667,-58.474079,-7.474541,-8.470225,3.937832,15.568105,-31.030687,-29.977531,3.113396,-5.276305,-11.228536,-4.452238,-9.577527,5.413733,1.619893,2.709470,-6.960848,-35.376671,0.000000,190.000000,4.000000,,,,0.000000,4.000000,4.000000,4.000000,4.000000,4.000000,4.000000,4.000000,4.000000,4.000000,4.000000,4.000000,4.000000,4.000000,4.000000,4.000000,4.000000,4.000000,4.000000,4.000000,4.000000,4.000000,4.000000,4.000000,4.000000,4.000000,4.000000,4.000000,4.000000,4.000000,4.000000,4.000000,4.000000,100.000000
1614943210.054671,78.000000,0.000000,2.751386,2.315994,-22.651699,-8.214374,-9.152645,-12.038088,-2.584592,-18.851698,-6.662960,-1.350975,-15.720869,-9.577590,-21.054750,-82.945221,-62.594028,-76.877144,-10.031169,-24.872011,-6.835337,10.937152,-36.640682,-31.998837,1.059000,-6.296669,-11.730127,-10.088811,-10.593591,1.818576,-2.484291,-0.370162,-7.979528,-36.366936,0.000000,194.000000,4.000000,,,,0.000000,4.000000,4.000000,4.000000,4.000000,4.000000,4.000000,4.000000,4.000000,4.000000,4.000000,4.000000,4.000000,4.000000,4.000000,4.000000,4.000000,4.000000,4.000000,4.000000,4.000000,4.000000,4.000000,4.000000,4.000000,4.000000,4.000000,4.000000,4.000000,4.000000,4.000000,4.000000,4.000000,100.000000
1614943210.062420,79.000000,0.000000,-1.866750,2.313678,-23.654690,-9.744620,-12.220416,-12.026050,-6.684571,-19.858488,-9.220399,-10.067574,-26.474379,-12.644936,-21.033695,-82.349449,-48.685280,-64.492577,-11.046780,-34.590729,-8.879784,0.156984,-42.757889,-34.018120,-0.993341,-7.828835,-15.308141,-14.181287,-9.557356,-3.311448,-6.071551,-1.908254,-8.484369,-35.817749,0.000000,183.000000,4.000000,,,,0.000000,4.000000,4.000000,4.000000,4.000000,4.000000,4.000000,4.000000,4.000000,4.000000,4.000000,4.000000,4.000000,4.000000,4.000000,4.000000,4.000000,4.000000,4.000000,4.000000,4.000000,4.000000,4.000000,4.000000,4.000000,4.000000,4.000000,4.000000,4.000000,4.000000,4.000000,4.000000,4.000000,100.000000
1614943210.070069,80.000000,0.000000,-4.428986,2.311364,-24.143854,-11.786158,-13.746657,-12.014024,-9.241989,-21.377090,-9.211179,-13.647249,-27.473545,-11.606649,-16.910097,-68.420952,-35.303261,-52.633213,-10.010092,-28.402292,-3.742698,-0.355993,-36.561283,-33.984100,-3.043629,-10.385108,-15.805654,-13.141464,-9.034978,-2.282496,-6.065479,-1.393525,-7.450243,-38.858852,0.000000,193.000000,4.000000,,,,0.000000,4.000000,4.000000,4.000000,4.000000,4.000000,4.000000,4.000000,4.000000,4.000000,4.000000,4.000000,4.000000,4.000000,4.000000,4.000000,4.000000,4.000000,4.000000,4.000000,4.000000,4.000000,4.000000,4.000000,4.000000,4.000000,4.000000,4.000000,4.000000,4.000000,4.000000,4.000000,4.000000,100.000000
1614943210.077818,81.000000,0.000000,-4.424557,2.309052,-22.581249,-12.800013,-11.168808,-13.027651,-9.232747,-23.406996,-9.201967,-13.633602,-25.907610,-11.595042,-17.406008,-64.762787,-34.755138,-55.657501,-10.000081,-22.220043,-3.738956,7.849491,-31.396519,-33.437298,-5.091868,-9.861902,-15.277027,-14.153964,-16.205429,-4.844316,-5.546593,-1.904952,-7.955614,-39.845634,0.000000,210.000000,4.000000,,,,0.000000,4.000000,4.000000,4.000000,4.000000,4.000000,4.000000,4.000000,4.000000,4.000000,4.000000,4.000000,4.000000,4.000000,4.000000,4.000000,4.000000,4.000000,4.000000,4.000000,4.000000,4.000000,4.000000,4.000000,4.000000,4.000000,4.000000,4.000000,4.000000,4.000000,4.000000,4.000000,4.000000,100.000000
1614943210.085468,82.000000,0.000000,-3.907312,1.793923,-16.917643,-12.274392,-6.542254,-9.424879,-9.223515,-20.819487,-8.679945,-12.081507,-17.676575,-6.968063,-13.286037,-53.928791,-18.822948,-40.730049,-9.990081,-7.326029,14.213501,12.457026,-24.185635,-33.403858,-4.573956,-10.364861,-15.261750,-11.575707,-18.753326,-5.865112,-6.053867,-0.877406,-7.947658,-30.062201,0.000000,187.000000,4.000000,,,,0.000000,4.000000,4.000000,4.000000,4.000000,4.000000,4.000000,4.000000,4.000000,4.000000,4.000000,4.000000,4.000000,4.000000,4.000000,4.000000,4.000000,4.000000,4.000000,4.000000,4.000000,4.000000,4.000000,4.000000,4.000000,4.000000,4.000000,4.000000,4.000000,4.000000,4.000000,4.000000,4.000000,100.000000
1614943210.093317,83.000000,0.000000,-4.416225,2.304950,-12.285340,-12.262118,-4.484430,-4.287249,-7.163009,-16.696102,-7.132804,-6.428400,-1.761462,-0.807249,-6.093264,-40.028706,-7.522074,-27.355986,-9.980091,14.732579,39.327492,12.444570,-7.751192,-33.370457,-1.492458,-8.816034,-11.143924,1.769202,-7.965343,0.807419,-5.534993,5.790138,-5.375608,-19.775728,0.000000,173.000000,4.000000,,,,0.000000,4.000000,4.000000,4.000000,4.000000,4.000000,4.000000,4.000000,4.000000,4.000000,4.000000,4.000000,4.000000,4.000000,4.000000,4.000000,4.000000,4.000000,4.000000,4.000000,4.000000,4.000000,4.000000,4.000000,4.000000,4.000000,4.000000,4.000000,4.000000,4.000000,4.000000,4.000000,4.000000,100.000000
1614943210.101066,84.000000,0.000000,-4.411808,2.302644,-11.760235,-12.249856,-4.992766,-5.308603,-5.104564,-14.628124,-6.100030,-0.780946,5.932607,-0.293621,-4.548709,-37.937397,-12.129936,-29.379911,-9.970111,24.974257,34.672779,12.432124,-1.589595,-33.337086,-0.465325,-1.627731,-2.414831,10.485381,-0.265070,5.421997,-5.529458,11.938194,-3.831771,-20.268772,0.000000,190.000000,4.000000,,,,0.000000,4.000000,4.000000,4.000000,4.000000,4.000000,4.000000,4.000000,4.000000,4.000000,4.000000,4.000000,4.000000,4.000000,4.000000,4.000000,4.000000,4.000000,4.000000,4.000000,4.000000,4.000000,4.000000,4.000000,4.000000,4.000000,4.000000,4.000000,4.000000,4.000000,4.000000,4.000000,4.000000,100.000000
1614943210.108915,85.000000,0.000000,-3.894576,1.787521,-12.261295,-12.237606,-4.987773,-2.739192,-5.099459,-13.075035,-1.991366,-1.805806,4.388213,0.219493,-5.569802,-30.207151,4.292450,-8.837711,-9.960141,25.462103,18.740673,11.906872,-11.844416,-34.329388,-1.490501,2.989281,0.151686,9.449255,-2.316087,6.955036,-5.523928,13.464718,-4.340760,-21.786964,0.000000,177.000000,4.000000,,,,0.000000,4.000000,4.000000,4.000000,4.000000,4.000000,4.000000,4.000000,4.000000,4.000000,4.000000,4.000000,4.000000,4.000000,4.000000,4.000000,4.000000,4.000000,4.000000,4.000000,4.000000,4.000000,4.000000,4.000000,4.000000,4.000000,4.000000,4.000000,4.000000,4.000000,4.000000,4.000000,4.000000,100.000000
1614943210.116665,86.000000,0.000000,-2.352220,4.349836,-11.736213,-12.225368,-4.469965,10.084060,-3.555898,-11.523499,4.677292,-1.804000,7.973568,3.296197,-2.487309,-24.023098,14.031748,3.991639,-9.950181,23.898180,21.798855,11.894965,-15.422315,-34.295059,-0.463369,0.935010,-0.361286,10.465446,-2.826591,11.563466,-5.518404,13.451253,-1.259496,-17.662613,0.000000,183.000000,4.000000,,,,0.000000,4.000000,4.000000,4.000000,4.000000,4.000000,4.000000,4.000000,4.000000,4.000000,4.000000,4.000000,4.000000,4.000000,4.000000,4.000000,4.000000,4.000000,4.000000,4.000000,4.000000,4.000000,4.000000,4.000000,4.000000,4.000000,4.000000,4.000000,4.000000,4.000000,4.000000,4.000000,4.000000,100.000000
1614943210.124514,87.000000,0.000000,-0.298586,8.448050,-11.724477,-12.213143,-4.978315,14.689361,-0.988240,-11.511975,6.211077,-0.776555,7.965595,3.292901,-3.510463,-39.896511,-18.289976,-28.320045,-9.940230,12.592230,25.366798,12.908711,-15.919713,-32.722301,-2.001367,0.934075,0.664716,6.865238,-0.772483,12.577543,-5.512886,13.437801,3.357148,-16.619310,0.000000,215.000000,4.000000,,,,0.000000,4.000000,4.000000,4.000000,4.000000,4.000000,4.000000,4.000000,4.000000,4.000000,4.000000,4.000000,4.000000,4.000000,4.000000,4.000000,4.000000,4.000000,4.000000,4.000000,4.000000,4.000000,4.000000,4.000000,4.000000,4.000000,4.000000,4.000000,4.000000,4.000000,4.000000,4.000000,4.000000,100.000000
1614943210.132263,88.000000,0.000000,-0.298287,9.978065,-11.712752,-12.200930,-4.973337,6.469543,-0.987252,-12.013284,2.615122,-2.827060,-1.273140,0.212684,-9.660798,-55.754051,-43.399891,-59.060955,-9.930290,-2.804978,14.572202,8.280417,-26.160204,-35.253681,-7.127571,1.958781,-4.464154,-5.962140,-3.335813,5.385478,-5.507373,11.373082,4.379432,-24.294998,0.000000,174.000000,4.000000,,,,0.000000,4.000000,4.000000,4.000000,4.000000,4.000000,4.000000,4.000000,4.000000,4.000000,4.000000,4.000000,4.000000,4.000000,4.000000,4.000000,4.000000,4.000000,4.000000,4.000000,4.000000,4.000000,4.000000,4.000000,4.000000,4.000000,4.000000,4.000000,4.000000,4.000000,4.000000,4.000000,4.000000,100.000000
1614943210.140112,89.000000,0.000000,-0.297989,9.455266,-13.752321,-12.188729,-4.968364,1.847689,-1.499085,-12.001270,2.099686,-4.875515,-6.912892,-1.325990,-10.163959,-55.698296,-31.561621,-46.181381,-9.920361,-7.930378,5.839681,0.067009,-30.749428,-37.782532,-8.658905,-5.222664,-11.639177,-6.981819,-4.870939,0.764708,-5.501865,9.823247,3.349412,-32.475830,0.000000,182.000000,4.000000,,,,0.000000,4.000000,4.000000,4.000000,4.000000,4.000000,4.000000,4.000000,4.000000,4.000000,4.000000,4.000000,4.000000,4.000000,4.000000,4.000000,4.000000,4.000000,4.000000,4.000000,4.000000,4.000000,4.000000,4.000000,4.000000,4.000000,4.000000,4.000000,4.000000,4.000000,4.000000,4.000000,4.000000,100.000000
1614943210.147861,90.000000,0.000000,-0.297691,9.445810,-15.789851,-12.176540,-4.963396,3.384303,-1.497586,-11.989269,2.610407,-3.332178,-4.854698,0.213798,-6.051230,-53.591316,-22.812109,-35.365971,-9.910439,-5.871165,6.346662,4.682327,-24.564833,-25.949877,-3.522041,-10.345647,-7.524973,0.717470,-3.327606,1.789585,-5.496364,9.300603,3.346062,-32.443356,0.000000,186.000000,4.000000,,,,0.000000,4.000000,4.000000,4.000000,4.000000,4.000000,4.000000,4.000000,4.000000,4.000000,4.000000,4.000000,4.000000,4.000000,4.000000,4.000000,4.000000,4.000000,4.000000,4.000000,4.000000,4.000000,4.000000,4.000000,4.000000,4.000000,4.000000,4.000000,4.000000,4.000000,4.000000,4.000000,4.000000,100.000000
1614943210.155710,91.000000,0.000000,-0.297393,9.949185,-16.286882,-12.164364,-4.958432,3.380919,-1.496088,-10.951638,2.094976,-1.277564,-2.798561,-0.299237,-6.557999,-53.024902,-33.045708,-48.663937,-9.900529,-5.865294,10.955700,17.498158,-21.976166,-9.513671,-0.441596,0.433929,-0.850782,2.255214,-1.785817,1.787795,-5.490868,8.778482,3.855537,-31.385271,0.000000,178.000000,4.000000,,,,0.000000,4.000000,4.000000,4.000000,4.000000,4.000000,4.000000,4.000000,4.000000,4.000000,4.000000,4.000000,4.000000,4.000000,4.000000,4.000000,4.000000,4.000000,4.000000,4.000000,4.000000,4.000000,4.000000,4.000000,4.000000,4.000000,4.000000,4.000000,4.000000,4.000000,4.000000,4.000000,4.000000,100.000000
1614943210.163459,92.000000,0.000000,-0.297096,9.939236,-15.757774,-12.152199,-4.953474,2.351897,-0.981772,-12.479149,2.092881,-1.789107,-3.821403,-1.324578,-9.628365,-56.048801,-42.756252,-61.435787,-9.377809,-8.423532,10.944744,19.531940,-22.467009,-8.991337,-0.953975,14.279650,0.175710,2.252959,-2.296852,1.273187,-4.972556,9.795344,3.338861,-32.379528,0.000000,175.000000,4.000000,,,,0.000000,4.000000,4.000000,4.000000,4.000000,4.000000,4.000000,4.000000,4.000000,4.000000,4.000000,4.000000,4.000000,4.000000,4.000000,4.000000,4.000000,4.000000,4.000000,4.000000,4.000000,4.000000,4.000000,4.000000,4.000000,4.000000,4.000000,4.000000,4.000000,4.000000,4.000000,4.000000,4.000000,100.000000
1614943210.171308,93.000000,0.000000,-0.296799,9.416476,-15.742017,-12.140047,-4.948520,2.862365,-1.493610,-12.466669,2.090788,-2.300138,-3.304761,1.240849,-5.003351,-54.454292,-30.405804,-49.066658,-9.881251,-5.851006,10.420979,19.512409,-22.444542,-15.136191,-0.953021,11.188447,-0.337286,0.199424,-2.294555,1.271914,-5.480404,9.272729,3.335522,-32.347149,0.000000,169.000000,4.000000,,,,0.000000,4.000000,4.000000,4.000000,4.000000,4.000000,4.000000,4.000000,4.000000,4.000000,4.000000,4.000000,4.000000,4.000000,4.000000,4.000000,4.000000,4.000000,4.000000,4.000000,4.000000,4.000000,4.000000,4.000000,4.000000,4.000000,4.000000,4.000000,4.000000,4.000000,4.000000,4.000000,4.000000,100.000000
1614943210.179057,94.000000,0.000000,-0.296502,9.919880,-15.726274,-12.127907,-4.943572,2.859503,-1.492117,-6.813177,2.088697,-1.272197,-0.224533,5.854992,2.693960,-34.399837,-0.631808,-16.197079,-9.358549,4.411256,17.077225,25.646744,-22.422098,-13.582594,-0.439247,0.408027,-1.875411,-10.570006,-2.292260,1.783462,-5.987744,2.596790,3.332186,-31.801981,0.000000,180.000000,4.000000,,,,0.000000,4.000000,4.000000,4.000000,4.000000,4.000000,4.000000,4.000000,4.000000,4.000000,4.000000,4.000000,4.000000,4.000000,4.000000,4.000000,4.000000,4.000000,4.000000,4.000000,4.000000,4.000000,4.000000,4.000000,4.000000,4.000000,4.000000,4.000000,4.000000,4.000000,4.000000,4.000000,4.000000,100.000000
