title:1, start timestamp:1614942977.500050, stop timestamp:1614943023.583353, headset type:EPOCFLEX, headset serial:F00001ED, headset firmware:f12, subject name:s17, channels:75, sampling rate:128, samples:5946      , version:2.0
Timestamp,EEG.Counter,EEG.Interpolated,EEG.Cz,EEG.Fz,EEG.Fp1,EEG.AF3,EEG.F7,EEG.F3,EEG.FC1,EEG.C3,EEG.FC5,EEG.T7,EEG.CP5,EEG.CP1,EEG.P3,EEG.P7,EEG.PO3,EEG.O1,EEG.Pz,EEG.Oz,EEG.O2,EEG.PO4,EEG.P8,EEG.P4,EEG.CP2,EEG.CP6,EEG.T8,EEG.FC6,EEG.C4,EEG.FC2,EEG.F4,EEG.F8,EEG.AF4,EEG.Fp2,EEG.HighBitFlex,EEG.RawCq,EEG.Battery,MarkerIndex,MarkerType,MarkerValueInt,EEG.MarkerHardware,CQ.Cz,CQ.Fz,CQ.Fp1,CQ.AF3,CQ.F7,CQ.F3,CQ.FC1,CQ.C3,CQ.FC5,CQ.T7,CQ.CP5,CQ.CP1,CQ.P3,CQ.P7,CQ.PO3,CQ.O1,CQ.Pz,CQ.Oz,CQ.O2,CQ.PO4,CQ.P8,CQ.P4,CQ.CP2,CQ.CP6,CQ.T8,CQ.FC6,CQ.C4,CQ.FC2,CQ.F4,CQ.F8,CQ.AF4,CQ.Fp2,CQ.Overall
1614942977.500050,20.000000,0.000000,9.044568,13.108360,3.795128,6.024063,15.937881,7.615442,13.244701,21.833023,15.364821,18.836994,14.500606,22.080256,14.238414,-42.331161,17.098480,12.636764,28.467222,17.385445,-3.887915,-27.674292,-19.520370,-49.787811,15.757937,4.733851,-3.676093,9.735697,17.415638,5.278137,3.939563,41.132084,9.686279,-25.700953,0.000000,185.000000,4.000000,,,,0.000000,4.000000,4.000000,4.000000,4.000000,4.000000,4.000000,4.000000,4.000000,4.000000,4.000000,4.000000,2.000000,4.000000,4.000000,4.000000,4.000000,4.000000,4.000000,4.000000,4.000000,4.000000,4.000000,4.000000,4.000000,4.000000,4.000000,4.000000,4.000000,4.000000,4.000000,4.000000,4.000000,83.333336
1614942977.507899,21.000000,0.000000,8.009883,13.095252,2.765691,2.941116,17.460405,7.607826,13.231457,19.247087,13.298175,16.766874,14.486105,20.519714,14.224175,-43.314472,17.594202,12.111306,24.849012,10.188573,-5.935309,-30.723539,-13.859824,-45.635460,15.742179,2.677836,-1.621134,9.213140,17.398222,5.785680,5.474085,40.578129,9.676593,-26.700891,0.000000,186.000000,4.000000,,,,0.000000,4.000000,4.000000,4.000000,4.000000,4.000000,4.000000,4.000000,4.000000,4.000000,4.000000,4.000000,2.000000,4.000000,4.000000,4.000000,4.000000,4.000000,4.000000,4.000000,4.000000,4.000000,4.000000,4.000000,4.000000,4.000000,4.000000,4.000000,4.000000,4.000000,4.000000,4.000000,4.000000,83.333336
1614942977.515647,22.000000,0.000000,8.514693,12.569336,-5.442203,-4.241313,14.366021,7.087398,13.218225,18.202198,11.233594,14.698826,14.471620,21.524836,14.722772,-42.245514,19.115070,11.073554,29.439547,9.665564,3.301395,-14.795381,1.025831,-26.102644,18.803360,3.187978,1.970230,9.716748,19.432106,10.908099,5.468611,38.999088,9.666917,-26.674191,0.000000,161.000000,4.000000,,,,0.000000,4.000000,4.000000,4.000000,4.000000,4.000000,4.000000,4.000000,4.000000,4.000000,4.000000,4.000000,2.000000,4.000000,4.000000,4.000000,4.000000,4.000000,4.000000,4.000000,4.000000,4.000000,4.000000,4.000000,4.000000,4.000000,4.000000,4.000000,4.000000,4.000000,4.000000,4.000000,4.000000,83.333336
1614942977.523396,23.000000,0.000000,11.070281,13.069588,-7.488042,-3.211430,16.402937,7.593131,14.743469,18.696817,10.196720,13.658486,14.969968,20.990490,14.708049,-36.049423,22.172878,19.780430,35.563953,19.399488,19.195530,4.193774,11.794035,-8.640643,22.374300,13.441200,0.429799,9.707031,21.463957,12.435653,5.463142,37.421631,9.657249,-26.134697,0.000000,193.000000,4.000000,,,,0.000000,4.000000,4.000000,4.000000,4.000000,4.000000,4.000000,4.000000,4.000000,4.000000,4.000000,4.000000,2.000000,4.000000,4.000000,4.000000,4.000000,4.000000,4.000000,4.000000,4.000000,4.000000,4.000000,4.000000,4.000000,4.000000,4.000000,4.000000,4.000000,4.000000,4.000000,4.000000,4.000000,83.333336
1614942977.531145,24.000000,0.000000,11.572031,13.056518,-5.942093,0.894345,18.950638,7.072718,16.780008,18.678120,11.724984,14.670468,14.954998,20.969500,13.154880,-26.269785,24.714808,37.196545,36.041210,33.226242,35.073769,21.625477,18.448908,-5.555080,22.351927,22.658529,-0.083452,9.697325,19.904030,7.807832,2.380756,36.871387,9.647593,-25.595741,0.000000,192.000000,4.000000,,,,0.000000,4.000000,4.000000,4.000000,4.000000,4.000000,4.000000,4.000000,4.000000,4.000000,4.000000,4.000000,2.000000,4.000000,4.000000,4.000000,4.000000,4.000000,4.000000,4.000000,4.000000,4.000000,4.000000,4.000000,4.000000,4.000000,4.000000,4.000000,4.000000,4.000000,4.000000,4.000000,4.000000,83.333336
1614942977.538793,25.000000,0.000000,8.996357,12.530641,-5.423330,-0.645011,18.418865,7.065645,16.763227,18.146622,11.713260,15.168619,17.504147,20.948530,15.705828,-15.987104,35.459324,49.979862,36.005169,48.064812,48.884850,36.475647,25.097126,-6.062345,19.765472,23.148691,10.685863,9.687627,17.320024,4.210281,2.378375,36.321693,9.637945,-26.082966,0.000000,191.000000,4.000000,,,,0.000000,4.000000,4.000000,4.000000,4.000000,4.000000,4.000000,4.000000,4.000000,4.000000,4.000000,4.000000,2.000000,4.000000,4.000000,4.000000,4.000000,4.000000,4.000000,4.000000,4.000000,4.000000,4.000000,4.000000,4.000000,4.000000,4.000000,4.000000,4.000000,4.000000,4.000000,4.000000,4.000000,83.333336
1614942977.546542,26.000000,0.000000,7.961720,14.569392,-0.802522,0.381275,17.887627,9.622682,16.233644,18.128475,10.163085,13.614988,24.153309,20.927582,22.356789,-8.791630,53.372581,57.109371,35.969166,60.324440,54.989811,41.567375,27.123310,-1.440898,19.232885,22.099901,24.008511,9.677939,17.302704,6.257353,7.504202,38.336655,9.628307,-26.569704,0.000000,186.000000,4.000000,,,,0.000000,4.000000,4.000000,4.000000,4.000000,4.000000,4.000000,4.000000,4.000000,4.000000,4.000000,4.000000,2.000000,4.000000,4.000000,4.000000,4.000000,4.000000,4.000000,4.000000,4.000000,4.000000,4.000000,4.000000,4.000000,4.000000,4.000000,4.000000,4.000000,4.000000,4.000000,4.000000,4.000000,83.333336
1614942977.554190,27.000000,0.000000,8.466578,19.170208,4.326486,7.047561,17.869740,14.741264,18.781513,19.648808,13.742665,17.191116,29.770180,20.906654,25.924175,-6.731556,58.960236,62.693287,36.958836,65.905136,54.934822,39.987347,25.044905,-0.413816,19.726473,23.616262,25.522963,9.668262,19.849504,10.866480,10.060801,44.964985,9.618679,-21.927750,0.000000,179.000000,4.000000,,,,0.000000,4.000000,4.000000,4.000000,4.000000,4.000000,4.000000,4.000000,4.000000,4.000000,4.000000,4.000000,2.000000,4.000000,4.000000,4.000000,4.000000,4.000000,4.000000,4.000000,4.000000,4.000000,4.000000,4.000000,4.000000,4.000000,4.000000,4.000000,4.000000,4.000000,4.000000,4.000000,4.000000,83.333336
1614942977.561938,28.000000,0.000000,8.458112,21.202320,5.860620,12.168718,18.877510,18.316267,20.301193,22.193262,19.369947,27.430336,30.766052,20.885748,27.436712,-6.724825,57.362812,64.681877,43.075722,68.403336,54.367065,39.434540,25.532681,-2.464684,19.193926,23.079826,22.933338,12.222695,20.855295,13.419716,9.025098,48.509766,10.121881,-18.316078,0.000000,197.000000,4.000000,,,,0.000000,4.000000,4.000000,4.000000,4.000000,4.000000,4.000000,4.000000,4.000000,4.000000,4.000000,4.000000,2.000000,4.000000,4.000000,4.000000,4.000000,4.000000,4.000000,4.000000,4.000000,4.000000,4.000000,4.000000,4.000000,4.000000,4.000000,4.000000,4.000000,4.000000,4.000000,4.000000,4.000000,83.333336
1614942977.569586,29.000000,0.000000,8.449654,20.155476,6.367580,10.618088,16.807350,19.323591,20.793713,22.171068,14.735193,29.454187,30.222466,20.864862,32.024662,-7.743741,60.895195,61.540272,52.263416,65.770828,48.671673,35.805363,21.917404,-0.923758,19.174732,22.031105,25.987328,13.748935,21.347260,12.893476,9.528893,47.435612,9.598938,-21.887505,0.000000,183.000000,4.000000,,,,0.000000,4.000000,4.000000,4.000000,4.000000,4.000000,4.000000,4.000000,4.000000,4.000000,4.000000,4.000000,2.000000,4.000000,4.000000,4.000000,4.000000,4.000000,4.000000,4.000000,4.000000,4.000000,4.000000,4.000000,4.000000,4.000000,4.000000,4.000000,4.000000,4.000000,4.000000,4.000000,4.000000,83.333336
1614942977.577334,30.000000,0.000000,8.441204,18.596859,0.207367,6.504906,7.046953,17.765806,20.772919,22.148897,4.976869,20.193964,26.602499,21.356817,31.992636,-22.094971,50.065067,46.606934,58.364998,46.730701,27.597361,18.846479,3.433949,-8.615142,19.668379,23.034716,18.781853,12.709545,20.813093,12.880582,7.468083,44.824074,7.538057,-28.019464,0.000000,185.000000,4.000000,,,,0.000000,4.000000,4.000000,4.000000,4.000000,4.000000,4.000000,4.000000,4.000000,4.000000,4.000000,4.000000,2.000000,4.000000,4.000000,4.000000,4.000000,4.000000,4.000000,4.000000,4.000000,4.000000,4.000000,4.000000,4.000000,4.000000,4.000000,4.000000,4.000000,4.000000,4.000000,4.000000,4.000000,83.333336
1614942977.584982,31.000000,0.000000,8.432763,16.526979,-10.562072,3.934299,1.398881,15.183938,20.239325,22.639568,2.407789,15.045566,17.857948,19.284180,20.165771,-48.739544,20.784235,19.380840,51.127148,14.376278,-3.712288,-10.915957,-23.236153,-32.709091,16.571787,19.934757,-1.749750,10.132732,18.740997,13.893343,2.845230,40.163868,5.992057,-29.529905,0.000000,193.000000,4.000000,,,,0.000000,4.000000,4.000000,4.000000,4.000000,4.000000,4.000000,4.000000,4.000000,4.000000,4.000000,4.000000,2.000000,4.000000,4.000000,4.000000,4.000000,4.000000,4.000000,4.000000,4.000000,4.000000,4.000000,4.000000,4.000000,4.000000,4.000000,4.000000,4.000000,4.000000,4.000000,4.000000,4.000000,83.333336
1614942977.592730,32.000000,0.000000,8.424330,16.510452,-12.602792,3.417544,6.525687,14.655933,20.731907,21.591288,4.456664,12.979238,8.096500,17.213612,5.786631,-71.254906,-4.364755,-3.715463,32.614483,-14.356047,-30.888063,-35.520428,-42.187275,-57.291767,11.939830,10.684053,-15.594153,8.071318,17.183794,13.366629,1.303923,34.482677,5.986065,-29.500376,8064.000000,0.000000,4.000000,,,,0.000000,4.000000,4.000000,4.000000,4.000000,4.000000,4.000000,4.000000,4.000000,4.000000,4.000000,4.000000,2.000000,4.000000,4.000000,4.000000,4.000000,4.000000,4.000000,4.000000,4.000000,4.000000,4.000000,4.000000,4.000000,4.000000,4.000000,4.000000,4.000000,4.000000,4.000000,4.000000,4.000000,83.333336
1614942977.600378,33.000000,0.000000,8.415906,16.493942,-10.026086,3.414126,10.621725,15.154098,21.223995,18.492775,3.939386,7.325233,2.960198,17.196400,-2.424284,-75.799034,-14.616800,-12.942517,19.248533,-23.059639,-36.498199,-39.074650,-40.093803,-60.824219,10.902249,2.468241,-13.527278,6.524785,17.166611,12.327621,1.815440,31.884092,6.492900,-29.470875,8064.000000,0.000000,4.000000,,,,0.000000,4.000000,4.000000,4.000000,4.000000,4.000000,4.000000,4.000000,4.000000,4.000000,4.000000,4.000000,2.000000,4.000000,4.000000,4.000000,4.000000,4.000000,4.000000,4.000000,4.000000,4.000000,4.000000,4.000000,4.000000,4.000000,4.000000,4.000000,4.000000,4.000000,4.000000,4.000000,4.000000,83.333336
1614942977.608126,34.000000,0.000000,8.407490,16.477449,-9.503240,3.410712,9.585463,13.087662,15.561745,17.961460,2.909806,5.779446,1.418777,16.153561,-3.960321,-62.902725,-8.961158,-11.391113,19.742105,-14.318631,-18.512985,-25.189421,-23.643456,-43.327496,11.916988,1.952952,-8.898366,5.492619,17.149445,13.853755,1.300804,31.339388,4.435125,-29.954226,8064.000000,0.000000,4.000000,,,,0.000000,4.000000,4.000000,4.000000,4.000000,4.000000,4.000000,4.000000,4.000000,4.000000,4.000000,4.000000,2.000000,4.000000,4.000000,4.000000,4.000000,4.000000,4.000000,4.000000,4.000000,4.000000,4.000000,4.000000,4.000000,4.000000,4.000000,4.000000,4.000000,4.000000,4.000000,4.000000,4.000000,83.333336
1614942977.615774,35.000000,0.000000,8.399082,16.460972,-8.468095,3.407301,13.165621,11.023293,8.879517,18.456320,3.419717,8.850590,5.519922,13.573305,-1.905079,-43.865463,9.509341,4.517714,22.286467,3.131585,3.556811,-5.677052,-10.799298,-24.309811,11.905071,6.566384,-7.863826,5.999947,16.619474,12.814260,1.299503,32.846508,0.840946,-29.411451,8064.000000,0.000000,4.000000,,,,0.000000,4.000000,4.000000,4.000000,4.000000,4.000000,4.000000,4.000000,4.000000,4.000000,4.000000,4.000000,2.000000,4.000000,4.000000,4.000000,4.000000,4.000000,4.000000,4.000000,4.000000,4.000000,4.000000,4.000000,4.000000,4.000000,4.000000,4.000000,4.000000,4.000000,4.000000,4.000000,4.000000,83.333336
1614942977.623623,36.000000,0.000000,8.390683,16.444510,-5.895525,3.403894,18.280661,10.499448,8.357817,17.925043,5.980400,9.354560,11.668248,12.534091,5.789134,-27.411341,25.397268,28.615761,21.238539,23.641273,18.937870,15.867087,-2.070551,-15.567552,10.867525,9.636741,-6.317501,5.993947,16.602856,5.109138,1.298204,32.300842,-1.211177,-29.382038,8064.000000,0.000000,4.000000,,,,0.000000,4.000000,4.000000,4.000000,4.000000,4.000000,4.000000,4.000000,4.000000,4.000000,4.000000,4.000000,2.000000,4.000000,4.000000,4.000000,4.000000,4.000000,4.000000,4.000000,4.000000,4.000000,4.000000,4.000000,4.000000,4.000000,4.000000,4.000000,4.000000,4.000000,4.000000,4.000000,4.000000,83.333336
1614942977.631372,37.000000,0.000000,8.382293,16.428066,-5.376809,3.400490,18.262379,10.488949,9.887920,18.419939,7.512881,15.499051,17.297606,13.034377,20.142319,-11.999314,36.653923,47.048683,25.319864,46.181736,35.842007,31.748655,15.880238,-9.398138,11.369478,10.652744,-6.824004,5.987953,17.099073,2.027106,1.809726,30.730080,-1.209966,-29.865477,8064.000000,0.000000,4.000000,,,,0.000000,4.000000,4.000000,4.000000,4.000000,4.000000,4.000000,4.000000,4.000000,4.000000,4.000000,4.000000,2.000000,4.000000,4.000000,4.000000,4.000000,4.000000,4.000000,4.000000,4.000000,4.000000,4.000000,4.000000,4.000000,4.000000,4.000000,4.000000,4.000000,4.000000,4.000000,4.000000,4.000000,83.333336
1614942977.639221,38.000000,0.000000,7.861090,16.411638,-2.807329,3.397089,17.218475,10.991281,8.339571,20.965622,8.018188,28.816885,24.972616,13.534163,31.404228,3.397301,52.514706,59.822147,35.550957,62.032990,52.729244,37.357933,30.223331,0.867670,15.973494,16.283117,-6.817180,5.981965,18.107615,6.640464,3.859198,38.904476,-1.721576,-28.809971,8064.000000,0.000000,4.000000,,,,0.000000,4.000000,4.000000,4.000000,4.000000,4.000000,4.000000,4.000000,4.000000,4.000000,4.000000,4.000000,2.000000,4.000000,4.000000,4.000000,4.000000,4.000000,4.000000,4.000000,4.000000,4.000000,4.000000,4.000000,4.000000,4.000000,4.000000,4.000000,4.000000,4.000000,4.000000,4.000000,4.000000,83.333336
1614942977.646970,39.000000,0.000000,8.366049,15.882405,0.272401,3.393692,19.765360,13.031571,8.844052,22.483116,9.548632,34.941914,32.639950,12.494988,33.936928,8.522109,64.769882,68.480270,43.720531,68.637627,55.240616,37.833397,29.167467,5.482187,19.034443,26.523245,6.010150,5.975983,20.140789,9.710747,7.957903,53.737370,-0.694214,-26.217058,8064.000000,0.000000,4.000000,,,,0.000000,4.000000,4.000000,4.000000,4.000000,4.000000,4.000000,4.000000,4.000000,4.000000,4.000000,4.000000,2.000000,4.000000,4.000000,4.000000,4.000000,4.000000,4.000000,4.000000,4.000000,4.000000,4.000000,4.000000,4.000000,4.000000,4.000000,4.000000,4.000000,4.000000,4.000000,4.000000,4.000000,83.333336
1614942977.654819,40.000000,0.000000,11.434607,16.892164,2.323411,3.390299,21.796877,13.531360,11.912131,21.947813,11.590365,33.368511,34.145771,12.995314,32.877350,7.487946,65.730751,70.975899,44.189632,69.081802,52.621273,39.846844,29.651121,5.476705,18.502588,30.086466,24.465679,5.970007,24.223213,8.675395,12.052509,59.837479,1.870583,-25.165201,8192.000000,0.000000,4.000000,,,,0.000000,4.000000,4.000000,4.000000,4.000000,4.000000,4.000000,4.000000,4.000000,4.000000,4.000000,4.000000,2.000000,4.000000,4.000000,4.000000,4.000000,4.000000,4.000000,4.000000,4.000000,4.000000,4.000000,4.000000,4.000000,4.000000,4.000000,4.000000,4.000000,4.000000,4.000000,4.000000,4.000000,83.333336
1614942977.662568,41.000000,0.000000,15.012915,18.926554,4.372369,3.386909,21.262260,16.081932,13.438681,21.925865,11.065954,31.796682,33.085987,20.674625,33.870113,9.018919,64.126564,69.879280,43.119801,63.884518,55.132755,38.268536,27.570187,8.035331,23.099470,31.594841,30.082239,5.964037,27.788733,11.230822,13.066098,58.751999,2.894354,-25.652855,8064.000000,0.000000,4.000000,,,,0.000000,4.000000,4.000000,4.000000,4.000000,4.000000,4.000000,4.000000,4.000000,4.000000,4.000000,4.000000,2.000000,4.000000,4.000000,4.000000,4.000000,4.000000,4.000000,4.000000,4.000000,4.000000,4.000000,4.000000,4.000000,4.000000,4.000000,4.000000,4.000000,4.000000,4.000000,4.000000,4.000000,83.333336
1614942977.670416,42.000000,0.000000,16.023542,20.446089,3.855177,3.383522,21.240997,20.681234,12.912421,21.903940,11.567709,33.816166,34.078541,27.833439,33.836243,0.804772,58.421410,60.065811,43.589500,50.487301,42.257111,21.307190,7.542617,-3.254756,29.743036,35.152988,24.411131,5.958073,28.786585,14.296514,12.540212,56.641964,2.378639,-25.627203,8192.000000,0.000000,4.000000,,,,0.000000,4.000000,4.000000,4.000000,4.000000,4.000000,4.000000,4.000000,4.000000,4.000000,4.000000,4.000000,2.000000,4.000000,4.000000,4.000000,4.000000,4.000000,4.000000,4.000000,4.000000,4.000000,4.000000,4.000000,4.000000,4.000000,4.000000,4.000000,4.000000,4.000000,4.000000,4.000000,4.000000,83.333336
1614942977.678165,43.000000,0.000000,15.494699,19.912823,1.800039,3.380138,21.219757,20.660553,12.899508,21.882036,11.043321,33.782352,30.454718,26.779964,28.161381,-21.247314,45.029655,36.928822,43.545914,29.411173,15.035365,-4.355143,-17.080311,-28.379705,26.123550,27.938349,19.258514,5.952115,26.706516,13.256577,12.527671,48.380196,2.376260,-25.601576,8192.000000,0.000000,4.000000,,,,0.000000,4.000000,4.000000,4.000000,4.000000,4.000000,4.000000,4.000000,4.000000,4.000000,4.000000,4.000000,2.000000,4.000000,4.000000,4.000000,4.000000,4.000000,4.000000,4.000000,4.000000,4.000000,4.000000,4.000000,4.000000,4.000000,4.000000,4.000000,4.000000,4.000000,4.000000,4.000000,4.000000,83.333336
1614942977.686014,44.000000,0.000000,15.479204,19.892910,2.311060,3.376758,21.198536,18.075790,12.886609,21.860153,10.519457,24.517799,24.783237,24.701902,18.902451,-37.123505,28.061546,19.968815,43.502365,10.407403,1.174176,-16.658480,-24.242718,-40.659019,18.917940,11.500154,15.649512,5.433342,24.628529,12.217679,12.515143,42.690788,2.886704,-26.088795,8064.000000,0.000000,4.000000,,,,0.000000,4.000000,4.000000,4.000000,4.000000,4.000000,4.000000,4.000000,4.000000,4.000000,4.000000,4.000000,2.000000,4.000000,4.000000,4.000000,4.000000,4.000000,4.000000,4.000000,4.000000,4.000000,4.000000,4.000000,4.000000,4.000000,4.000000,4.000000,4.000000,4.000000,4.000000,4.000000,4.000000,83.333336
1614942977.693763,45.000000,0.000000,15.976545,19.873016,4.872851,5.424663,20.664518,21.134638,12.873722,21.838293,14.098680,13.211230,25.271275,23.651560,14.268163,-35.547920,16.238613,18.410385,40.381943,4.243149,2.711463,-14.590539,-19.603090,-38.054256,18.386202,4.821987,15.633862,6.966371,24.091080,15.795205,11.989808,47.776302,2.370997,-24.524244,8064.000000,0.000000,4.000000,,,,0.000000,4.000000,4.000000,4.000000,4.000000,4.000000,4.000000,4.000000,4.000000,4.000000,4.000000,4.000000,2.000000,4.000000,4.000000,4.000000,4.000000,4.000000,4.000000,4.000000,4.000000,4.000000,4.000000,4.000000,4.000000,4.000000,4.000000,4.000000,4.000000,4.000000,4.000000,4.000000,4.000000,83.333336
1614942977.701611,46.000000,0.000000,15.960569,19.853144,5.380799,7.470520,21.156673,21.113503,12.860848,22.329275,14.597403,12.685198,23.194721,17.474062,13.741074,-33.973907,9.555708,14.802231,36.238995,4.751727,2.195931,-17.140051,-12.916820,-33.400818,19.393456,7.894088,16.131050,9.010686,24.066988,17.317871,13.003459,51.318272,2.368626,-21.422796,8064.000000,0.000000,4.000000,,,,0.000000,4.000000,4.000000,4.000000,4.000000,4.000000,4.000000,4.000000,4.000000,4.000000,4.000000,4.000000,2.000000,4.000000,4.000000,4.000000,4.000000,4.000000,4.000000,4.000000,4.000000,4.000000,4.000000,4.000000,4.000000,4.000000,4.000000,4.000000,4.000000,4.000000,4.000000,4.000000,4.000000,83.333336
1614942977.709360,47.000000,0.000000,15.431788,19.833290,4.349777,6.950230,20.622696,14.938542,12.847988,20.768484,8.428959,17.287897,17.017681,12.841203,12.188871,-37.529678,6.982050,11.197685,34.664295,4.234154,2.706556,-13.533168,-5.724416,-25.162289,18.348421,10.963118,13.037995,10.027317,24.042921,9.608246,12.990456,49.728489,2.366257,-21.914194,8064.000000,0.000000,4.000000,,,,0.000000,4.000000,4.000000,4.000000,4.000000,4.000000,4.000000,4.000000,4.000000,4.000000,4.000000,4.000000,2.000000,4.000000,4.000000,4.000000,4.000000,4.000000,4.000000,4.000000,4.000000,4.000000,4.000000,4.000000,4.000000,4.000000,4.000000,4.000000,4.000000,4.000000,4.000000,4.000000,4.000000,83.333336
1614942977.717208,48.000000,0.000000,15.416356,19.813457,4.345428,6.430459,21.114895,13.385142,12.835140,18.183615,7.907710,16.244968,20.590406,15.392465,19.356169,-29.287022,16.718658,24.519821,35.655273,14.486330,13.473080,7.506007,2.999257,-15.393538,18.330072,13.003436,12.512136,9.504469,24.018877,4.983253,11.439004,49.678761,2.363891,-22.405102,8064.000000,0.000000,4.000000,,,,0.000000,4.000000,4.000000,4.000000,4.000000,4.000000,4.000000,4.000000,4.000000,4.000000,4.000000,4.000000,2.000000,4.000000,4.000000,4.000000,4.000000,4.000000,4.000000,4.000000,4.000000,4.000000,4.000000,4.000000,4.000000,4.000000,4.000000,4.000000,4.000000,4.000000,4.000000,4.000000,4.000000,83.333336
1614942977.724957,49.000000,0.000000,15.913760,19.793644,7.418005,8.988131,24.683523,16.961500,12.822305,17.652609,15.592110,18.792826,33.390331,17.428354,33.182968,-9.770555,40.291683,45.008121,35.106796,37.035946,28.844223,24.421577,16.329592,-11.788401,18.824564,14.016074,17.115009,9.494965,24.507679,10.106475,15.017308,50.654724,2.361527,-18.280132,8064.000000,0.000000,4.000000,,,,0.000000,4.000000,4.000000,4.000000,4.000000,4.000000,4.000000,4.000000,4.000000,4.000000,4.000000,4.000000,2.000000,4.000000,4.000000,4.000000,4.000000,4.000000,4.000000,4.000000,4.000000,4.000000,4.000000,4.000000,4.000000,4.000000,4.000000,4.000000,4.000000,4.000000,4.000000,4.000000,4.000000,83.333336
1614942977.732805,50.000000,0.000000,14.359385,19.773849,12.538793,11.030425,28.248583,18.483002,12.809483,18.660599,19.679081,28.004803,37.972324,16.385284,37.765167,0.495627,57.174469,54.706703,35.071690,49.306602,37.533325,23.371515,26.056852,-6.648407,19.318560,14.514878,20.687637,11.023931,24.483171,12.660471,19.617676,51.116890,2.359166,-14.672108,8064.000000,0.000000,4.000000,,,,0.000000,4.000000,4.000000,4.000000,4.000000,4.000000,4.000000,4.000000,4.000000,4.000000,4.000000,4.000000,2.000000,4.000000,4.000000,4.000000,4.000000,4.000000,4.000000,4.000000,4.000000,4.000000,4.000000,4.000000,4.000000,4.000000,4.000000,4.000000,4.000000,4.000000,4.000000,4.000000,4.000000,83.333336
1614942977.740554,51.000000,0.000000,10.242462,19.754076,10.987792,10.506574,28.220335,17.438877,12.796673,15.565015,18.120941,33.617825,35.883068,16.881720,33.624840,0.495131,56.091652,53.626354,35.036617,47.718834,39.547077,23.348143,25.005154,-2.026374,19.299240,20.654209,19.128489,12.551369,23.433048,9.058066,14.982673,50.040131,2.356807,-16.195898,8064.000000,0.000000,4.000000,,,,0.000000,4.000000,4.000000,4.000000,4.000000,4.000000,4.000000,4.000000,4.000000,4.000000,4.000000,4.000000,2.000000,4.000000,4.000000,4.000000,4.000000,4.000000,4.000000,4.000000,4.000000,4.000000,4.000000,4.000000,4.000000,4.000000,4.000000,4.000000,4.000000,4.000000,4.000000,4.000000,4.000000,83.333336
1614942977.748202,52.000000,0.000000,7.668117,19.734322,9.438342,11.008888,28.704935,17.934259,12.783876,14.523808,17.590000,33.584206,36.360008,16.352018,32.565575,1.007456,56.035561,53.572731,35.514400,51.260860,42.584450,29.478642,26.005789,-0.998706,18.254301,25.761761,19.622181,13.564458,25.460897,8.536188,9.326665,50.502911,2.867270,-18.230984,8064.000000,0.000000,4.000000,,,,0.000000,4.000000,4.000000,4.000000,4.000000,4.000000,4.000000,4.000000,4.000000,4.000000,4.000000,4.000000,2.000000,4.000000,4.000000,4.000000,4.000000,4.000000,4.000000,4.000000,4.000000,4.000000,4.000000,4.000000,4.000000,4.000000,4.000000,4.000000,4.000000,4.000000,4.000000,4.000000,4.000000,83.333336
1614942977.755951,53.000000,0.000000,8.173269,19.714588,14.557109,13.561981,29.701870,18.429146,12.771092,19.637489,19.110870,31.499340,35.810825,17.874126,32.020187,-3.096115,59.056450,57.108902,37.530170,54.799343,42.029045,22.782495,24.954144,0.540754,19.261688,26.248819,20.115379,14.063714,23.384153,9.553293,8.804518,54.554974,4.915685,-17.187111,8064.000000,0.000000,4.000000,,,,0.000000,4.000000,4.000000,4.000000,4.000000,4.000000,4.000000,4.000000,4.000000,4.000000,4.000000,4.000000,2.000000,4.000000,4.000000,4.000000,4.000000,4.000000,4.000000,4.000000,4.000000,4.000000,4.000000,4.000000,4.000000,4.000000,4.000000,4.000000,4.000000,4.000000,4.000000,4.000000,4.000000,83.333336
1614942977.763599,54.000000,0.000000,8.165096,19.694874,15.055373,14.574060,23.005503,17.897896,12.758322,21.156313,18.066120,24.288353,27.057066,19.907536,26.859962,-10.785327,47.202518,47.821022,39.543922,38.334286,27.115223,9.939200,3.903548,-8.177735,19.755247,27.248211,12.402956,11.998368,14.130000,9.030919,5.205969,51.423496,6.449231,-17.682745,8064.000000,0.000000,4.000000,,,,0.000000,4.000000,4.000000,4.000000,4.000000,4.000000,4.000000,4.000000,4.000000,4.000000,4.000000,4.000000,2.000000,4.000000,4.000000,4.000000,4.000000,4.000000,4.000000,4.000000,4.000000,4.000000,4.000000,4.000000,4.000000,4.000000,4.000000,4.000000,4.000000,4.000000,4.000000,4.000000,4.000000,83.333336
1614942977.771348,55.000000,0.000000,7.644110,17.623896,6.835189,14.559486,14.264548,17.879997,12.745564,18.058235,15.996771,17.084578,16.773600,18.861986,21.704897,-11.287362,29.206600,29.311663,38.991558,16.244671,8.113749,7.877979,-22.767023,-30.733660,14.607285,22.605579,2.646963,5.832524,8.987665,9.021888,1.098199,37.525917,6.442782,-17.152241,8064.000000,0.000000,4.000000,,,,0.000000,4.000000,4.000000,4.000000,4.000000,4.000000,4.000000,4.000000,4.000000,4.000000,4.000000,4.000000,2.000000,4.000000,4.000000,4.000000,4.000000,4.000000,4.000000,4.000000,4.000000,4.000000,4.000000,4.000000,4.000000,4.000000,4.000000,4.000000,4.000000,4.000000,4.000000,4.000000,4.000000,83.333336
1614942977.778996,56.000000,0.000000,8.149286,16.067810,4.264251,13.519286,12.711822,17.862118,13.245638,19.065817,14.442313,17.067493,13.679903,17.304663,17.580627,-13.327356,19.946623,22.615685,39.465385,9.048939,2.464609,5.818820,-29.923742,-43.523441,12.028576,9.249640,-0.432607,1.724127,11.542780,9.012866,2.122742,31.334547,6.436339,-17.135090,8064.000000,0.000000,4.000000,,,,0.000000,4.000000,4.000000,4.000000,4.000000,4.000000,4.000000,4.000000,4.000000,4.000000,4.000000,4.000000,2.000000,4.000000,4.000000,4.000000,4.000000,4.000000,4.000000,4.000000,4.000000,4.000000,4.000000,4.000000,4.000000,4.000000,4.000000,4.000000,4.000000,4.000000,4.000000,4.000000,4.000000,83.333336
1614942977.786745,57.000000,0.000000,8.141137,16.051743,4.259987,11.454485,14.237572,15.792974,11.693931,15.457007,13.915050,18.076067,12.640582,16.774538,13.973304,-27.160183,11.208729,20.541786,38.913101,6.475787,0.410862,-9.571614,-30.406639,-43.992737,14.580650,2.060903,-3.509097,2.235224,9.479956,6.952571,-2.494765,31.816032,4.891441,-26.348724,8064.000000,0.000000,4.000000,,,,0.000000,4.000000,4.000000,4.000000,4.000000,4.000000,4.000000,4.000000,4.000000,4.000000,4.000000,4.000000,2.000000,4.000000,4.000000,4.000000,4.000000,4.000000,4.000000,4.000000,4.000000,4.000000,4.000000,4.000000,4.000000,4.000000,4.000000,4.000000,4.000000,4.000000,4.000000,4.000000,4.000000,83.333336
1614942977.794393,58.000000,0.000000,8.132997,16.035692,-1.898119,9.904569,13.197693,12.700257,9.630955,8.262064,11.849853,12.416965,4.422813,13.680840,11.395228,-47.133022,-2.135814,6.162271,32.720341,-4.299920,-7.281857,-20.331274,-32.940334,-48.564129,10.976326,2.571662,-12.223537,1.720168,4.342270,4.894337,-10.184578,24.604729,2.322447,-38.117249,8064.000000,0.000000,4.000000,,,,0.000000,4.000000,4.000000,4.000000,4.000000,4.000000,4.000000,4.000000,4.000000,4.000000,4.000000,4.000000,2.000000,4.000000,4.000000,4.000000,4.000000,4.000000,4.000000,4.000000,4.000000,4.000000,4.000000,4.000000,4.000000,4.000000,4.000000,4.000000,4.000000,4.000000,4.000000,4.000000,4.000000,83.333336
1614942977.802141,59.000000,0.000000,8.124864,16.019655,-7.024426,10.407485,13.184495,10.123454,8.595683,11.330725,10.299541,7.276342,-2.248276,9.564595,8.306910,-58.367943,-6.236242,-5.125943,27.559414,-9.936646,-9.325856,-18.259661,-26.753550,-48.515564,4.298683,0.004988,-18.365160,1.718448,5.363569,5.402263,-6.584650,23.041662,2.320125,-40.643230,8064.000000,0.000000,4.000000,,,,0.000000,4.000000,4.000000,4.000000,4.000000,4.000000,4.000000,4.000000,4.000000,4.000000,4.000000,4.000000,2.000000,4.000000,4.000000,4.000000,4.000000,4.000000,4.000000,4.000000,4.000000,4.000000,4.000000,4.000000,4.000000,4.000000,4.000000,4.000000,4.000000,4.000000,4.000000,4.000000,4.000000,83.333336
1614942977.809789,60.000000,0.000000,8.116738,16.003635,-7.017402,10.397078,13.684132,10.113331,9.099908,17.986061,10.802062,4.704964,1.343715,9.042211,4.708859,-53.694187,-5.204365,-3.069535,27.531855,-8.901068,-4.188325,-18.754221,-16.983206,-41.287563,5.320025,-1.020658,-18.859615,2.229550,5.358205,5.396861,-1.449860,32.249390,2.317805,-39.576946,8064.000000,0.000000,4.000000,,,,0.000000,4.000000,4.000000,4.000000,4.000000,4.000000,4.000000,4.000000,4.000000,4.000000,4.000000,4.000000,2.000000,4.000000,4.000000,4.000000,4.000000,4.000000,4.000000,4.000000,4.000000,4.000000,4.000000,4.000000,4.000000,4.000000,4.000000,4.000000,4.000000,4.000000,4.000000,4.000000,4.000000,83.333336
1614942977.817537,61.000000,0.000000,8.108622,15.474812,-6.497564,9.873859,11.619165,10.103217,9.090808,15.916793,10.278440,7.264361,6.983397,9.545988,7.781074,-42.871265,-2.635058,3.087380,26.991503,-4.276782,3.508170,-18.222647,-7.735453,-33.553967,7.365987,1.544465,-14.738192,1.714500,5.352847,4.365823,-3.499692,35.294064,2.315487,-41.588654,8064.000000,0.000000,4.000000,,,,0.000000,4.000000,4.000000,4.000000,4.000000,4.000000,4.000000,4.000000,4.000000,4.000000,4.000000,4.000000,2.000000,4.000000,4.000000,4.000000,4.000000,4.000000,4.000000,4.000000,4.000000,4.000000,4.000000,4.000000,4.000000,4.000000,4.000000,4.000000,4.000000,4.000000,4.000000,4.000000,4.000000,83.333336
1614942977.825186,62.000000,0.000000,8.100513,16.484978,-5.978246,10.376806,10.581904,10.093114,9.081717,13.336773,7.704059,13.923763,6.463593,9.536443,14.952780,-31.033520,13.777834,18.981730,28.502974,16.240314,20.427740,-2.819809,8.682539,-20.699900,9.409904,5.645485,-8.569607,3.251247,16.116726,7.438380,1.119192,35.771591,2.313171,-39.495781,8064.000000,0.000000,4.000000,,,,0.000000,4.000000,4.000000,4.000000,4.000000,4.000000,4.000000,4.000000,4.000000,4.000000,4.000000,4.000000,2.000000,4.000000,4.000000,4.000000,4.000000,4.000000,4.000000,4.000000,4.000000,4.000000,4.000000,4.000000,4.000000,4.000000,4.000000,4.000000,4.000000,4.000000,4.000000,4.000000,4.000000,83.333336
1614942977.832934,63.000000,0.000000,8.092412,16.981314,-6.997909,10.366429,12.622605,10.595841,9.072636,14.861897,6.670714,18.012403,7.995591,11.578188,17.501930,-17.156334,33.764057,40.501209,34.115494,41.352280,37.843208,14.106088,22.007189,-8.371508,18.118443,15.896250,-2.407191,8.376201,25.844198,8.969403,8.297560,41.889664,2.310858,-36.892185,8064.000000,0.000000,4.000000,,,,0.000000,4.000000,4.000000,4.000000,4.000000,4.000000,4.000000,4.000000,4.000000,4.000000,4.000000,4.000000,2.000000,4.000000,4.000000,4.000000,4.000000,4.000000,4.000000,4.000000,4.000000,4.000000,4.000000,4.000000,4.000000,4.000000,4.000000,4.000000,4.000000,4.000000,4.000000,4.000000,4.000000,83.333336
1614942977.840582,64.000000,0.000000,8.084320,11.836127,-6.478090,10.356063,14.661264,10.072425,9.063562,14.334215,7.176864,17.481571,14.141442,13.105071,21.586992,-5.344305,37.832855,47.640194,35.107021,49.516056,43.446392,17.168905,23.010822,-6.311854,23.741350,25.111122,-2.404784,10.419106,22.228611,5.883511,2.648237,38.770851,2.308547,-37.368111,0.000000,158.000000,4.000000,,,,0.000000,4.000000,4.000000,4.000000,4.000000,4.000000,4.000000,4.000000,4.000000,4.000000,4.000000,4.000000,2.000000,4.000000,4.000000,4.000000,4.000000,4.000000,4.000000,4.000000,4.000000,4.000000,4.000000,4.000000,4.000000,4.000000,4.000000,4.000000,4.000000,4.000000,4.000000,4.000000,4.000000,83.333336
1614942977.848330,65.000000,0.000000,8.076236,8.234548,1.220696,10.345707,16.185064,10.575173,8.541678,16.371162,7.169687,21.566654,19.255507,13.604787,29.770533,-0.723576,38.307842,47.592556,36.097553,48.953720,42.890125,17.151735,22.474993,-4.254260,23.204788,26.624474,-2.402379,9.383046,20.667921,6.903268,-1.969796,37.193619,2.306239,-30.151257,0.000000,176.000000,4.000000,,,,0.000000,4.000000,4.000000,4.000000,4.000000,4.000000,4.000000,4.000000,4.000000,4.000000,4.000000,4.000000,2.000000,4.000000,4.000000,4.000000,4.000000,4.000000,4.000000,4.000000,4.000000,4.000000,4.000000,4.000000,4.000000,4.000000,4.000000,4.000000,4.000000,4.000000,4.000000,4.000000,4.000000,83.333336
1614942977.855978,66.000000,0.000000,8.580980,12.841698,8.911783,10.335361,18.220161,12.103060,9.045958,21.482998,7.162517,21.032267,17.697788,13.591182,25.638199,-5.338237,39.295177,47.032143,39.651199,47.366302,36.693390,14.570482,12.196107,-8.865390,23.694403,27.623489,-0.861515,9.886484,22.185715,12.024570,5.724482,50.489761,2.303932,-16.274952,0.000000,193.000000,4.000000,,,,0.000000,4.000000,4.000000,4.000000,4.000000,4.000000,4.000000,4.000000,4.000000,4.000000,4.000000,4.000000,2.000000,4.000000,4.000000,4.000000,4.000000,4.000000,4.000000,4.000000,4.000000,4.000000,4.000000,4.000000,4.000000,4.000000,4.000000,4.000000,4.000000,4.000000,4.000000,4.000000,4.000000,83.333336
1614942977.863827,67.000000,0.000000,6.521117,15.392959,8.902871,10.325026,15.125018,14.142239,9.036911,21.461514,6.129714,7.165080,7.936501,11.013489,6.638201,-24.307259,23.358446,30.062033,30.893600,30.908682,11.015669,-8.008191,-19.098141,-35.523193,19.055325,22.980482,-5.476038,7.825315,9.343016,7.909981,10.846962,57.105938,2.301629,-12.156113,0.000000,184.000000,4.000000,,,,0.000000,4.000000,4.000000,4.000000,4.000000,4.000000,4.000000,4.000000,4.000000,4.000000,4.000000,4.000000,2.000000,4.000000,4.000000,4.000000,4.000000,4.000000,4.000000,4.000000,4.000000,4.000000,4.000000,4.000000,4.000000,4.000000,4.000000,4.000000,4.000000,4.000000,4.000000,4.000000,4.000000,83.333336
1614942977.871576,68.000000,0.000000,4.463314,12.300642,7.868327,10.314701,10.494509,14.640917,8.515054,15.799027,3.559481,-2.072854,-2.327846,6.387090,-5.676129,-49.411156,-2.305938,2.852483,12.913990,5.236747,-20.277397,-36.718132,-44.720070,-64.205620,7.754218,1.931860,-15.726973,3.202106,-5.538123,0.722584,8.272013,50.894985,2.299327,-16.759340,0.000000,163.000000,4.000000,,,,0.000000,4.000000,4.000000,4.000000,4.000000,4.000000,4.000000,4.000000,4.000000,4.000000,4.000000,4.000000,2.000000,4.000000,4.000000,4.000000,4.000000,4.000000,4.000000,4.000000,4.000000,4.000000,4.000000,4.000000,4.000000,4.000000,4.000000,4.000000,4.000000,4.000000,4.000000,4.000000,4.000000,83.333336
1614942977.879424,69.000000,0.000000,3.946030,14.852445,10.937382,10.304386,9.458373,14.113456,9.532180,13.731946,3.043101,3.570245,-5.915261,4.842242,-6.183274,-61.156616,-9.483120,-9.458061,7.772871,-6.563361,-31.026352,-45.399361,-52.880478,-73.885002,2.618258,-15.505969,-17.762527,2.686083,-2.968482,3.798785,8.263741,50.844090,2.297028,-17.768223,0.000000,172.000000,4.000000,,,,0.000000,4.000000,4.000000,4.000000,4.000000,4.000000,4.000000,4.000000,4.000000,4.000000,4.000000,4.000000,2.000000,4.000000,4.000000,4.000000,4.000000,4.000000,4.000000,4.000000,4.000000,4.000000,4.000000,4.000000,4.000000,4.000000,4.000000,4.000000,4.000000,4.000000,4.000000,4.000000,4.000000,83.333336
1614942977.887173,70.000000,0.000000,4.454905,19.965797,12.464906,10.294082,9.961736,14.099342,12.086750,14.231034,3.552879,7.156418,-4.370884,5.350220,-4.638629,-60.069820,-8.447995,-7.397321,11.867661,-5.531157,-25.867119,-41.764221,-52.827595,-69.708549,4.154101,-17.028925,-9.539637,5.760320,4.726794,9.436011,9.281117,54.382988,2.294730,-16.724813,0.000000,188.000000,4.000000,,,,0.000000,4.000000,4.000000,4.000000,4.000000,4.000000,4.000000,4.000000,4.000000,4.000000,4.000000,4.000000,2.000000,4.000000,4.000000,4.000000,4.000000,4.000000,4.000000,4.000000,4.000000,4.000000,4.000000,4.000000,4.000000,4.000000,4.000000,4.000000,4.000000,4.000000,4.000000,4.000000,4.000000,83.333336
1614942977.895022,71.000000,0.000000,4.450449,19.945831,12.452441,10.283788,9.951774,14.085243,13.100305,14.216804,3.549326,3.046697,-4.366514,5.857690,-5.659631,-61.548210,-12.542111,-6.364283,13.394256,-5.012805,-21.225868,-36.081429,-42.005539,-56.818329,4.149947,-16.499075,-4.914713,5.754560,5.234888,8.913755,8.759016,51.764503,1.779615,-17.220909,0.000000,195.000000,4.000000,,,,0.000000,4.000000,4.000000,4.000000,4.000000,4.000000,4.000000,4.000000,4.000000,4.000000,4.000000,4.000000,2.000000,4.000000,4.000000,4.000000,4.000000,4.000000,4.000000,4.000000,4.000000,4.000000,4.000000,4.000000,4.000000,4.000000,4.000000,4.000000,4.000000,4.000000,4.000000,4.000000,4.000000,83.333336
1614942977.902771,72.000000,0.000000,4.445999,18.900244,11.927168,10.273504,9.429002,14.071157,12.574384,13.689766,3.545776,-1.571734,-5.387788,5.851832,-6.679613,-65.076408,-7.914185,-9.947662,14.406503,-7.059074,-16.589258,-27.840219,-26.066095,-45.479462,3.632977,-11.867191,-6.961080,5.235984,7.280935,8.392021,8.750257,48.635815,2.290656,-18.229330,0.000000,165.000000,4.000000,,,,0.000000,4.000000,4.000000,4.000000,4.000000,4.000000,4.000000,4.000000,4.000000,4.000000,4.000000,4.000000,2.000000,4.000000,4.000000,4.000000,4.000000,4.000000,4.000000,4.000000,4.000000,4.000000,4.000000,4.000000,4.000000,4.000000,4.000000,4.000000,4.000000,4.000000,4.000000,4.000000,4.000000,83.333336
1614942977.910620,73.000000,0.000000,3.928733,19.394165,11.915241,9.750410,9.932393,13.544266,12.561810,13.676077,3.542231,-1.570162,-0.254195,4.820340,1.532195,-52.703636,7.991165,-3.271048,15.930557,-5.513554,-8.880361,-22.684174,-18.860542,-42.357059,3.629344,0.965188,-6.441298,7.794851,9.324936,8.896449,8.741507,48.587181,2.288366,-17.698280,0.000000,175.000000,4.000000,,,,0.000000,4.000000,4.000000,4.000000,4.000000,4.000000,4.000000,4.000000,4.000000,4.000000,4.000000,4.000000,2.000000,4.000000,4.000000,4.000000,4.000000,4.000000,4.000000,4.000000,4.000000,4.000000,4.000000,4.000000,4.000000,4.000000,4.000000,4.000000,4.000000,4.000000,4.000000,4.000000,4.000000,83.333336
1614942977.918368,74.000000,0.000000,4.950445,19.887590,11.903326,10.253480,9.922461,14.043542,12.549248,14.688042,3.538688,5.610895,9.489649,8.405263,18.453739,-22.394524,20.803686,21.347609,18.991550,6.286831,2.923392,-15.482003,-8.072452,-36.160854,4.138535,6.605249,0.231810,9.838338,9.315611,9.400373,8.732765,49.051414,1.773257,-17.680582,0.000000,194.000000,4.000000,,,,0.000000,4.000000,4.000000,4.000000,4.000000,4.000000,4.000000,4.000000,4.000000,4.000000,4.000000,4.000000,2.000000,4.000000,4.000000,4.000000,4.000000,4.000000,4.000000,4.000000,4.000000,4.000000,4.000000,4.000000,4.000000,4.000000,4.000000,4.000000,4.000000,4.000000,4.000000,4.000000,4.000000,83.333336
1614942977.926217,75.000000,0.000000,7.509597,19.867702,11.891422,12.294509,9.399717,14.029499,12.536698,16.724636,3.535150,16.887335,15.634006,15.063524,30.742979,-1.859308,31.039293,41.839081,24.100763,21.665159,19.330725,0.430915,12.448442,-22.791361,6.185678,12.752490,5.872603,9.828500,13.921680,9.390973,9.236854,49.002361,2.284304,-18.175722,0.000000,162.000000,4.000000,,,,0.000000,4.000000,4.000000,4.000000,4.000000,4.000000,4.000000,4.000000,4.000000,4.000000,4.000000,4.000000,2.000000,4.000000,4.000000,4.000000,4.000000,4.000000,4.000000,4.000000,4.000000,4.000000,4.000000,4.000000,4.000000,4.000000,4.000000,4.000000,4.000000,4.000000,4.000000,4.000000,4.000000,83.333336
1614942977.933965,76.000000,0.000000,8.527728,18.822195,11.879531,13.820676,10.415959,12.989828,12.524161,18.246372,3.531615,22.511475,15.105551,13.509999,30.199415,-5.960013,38.187740,45.386986,25.102304,27.284521,31.106266,8.122791,19.102659,-17.640364,8.230775,22.483328,5.353910,9.818671,20.574425,8.355941,8.714796,48.440540,7.923045,-17.644726,0.000000,181.000000,4.000000,,,,0.000000,4.000000,4.000000,4.000000,4.000000,4.000000,4.000000,4.000000,4.000000,4.000000,4.000000,4.000000,2.000000,4.000000,4.000000,4.000000,4.000000,4.000000,4.000000,4.000000,4.000000,4.000000,4.000000,4.000000,4.000000,4.000000,4.000000,4.000000,4.000000,4.000000,4.000000,4.000000,4.000000,83.333336
1614942977.941814,77.000000,0.000000,8.006380,19.829014,11.867652,15.858137,12.969646,17.079403,12.511638,17.715305,3.015262,21.976141,14.577624,9.393925,26.579472,-9.030976,38.662373,42.777496,24.051561,26.231594,32.613621,7.601848,15.493814,-16.597084,8.735365,22.460844,7.912659,9.296032,20.553850,9.373226,8.706081,49.930561,13.043327,-15.062978,0.000000,171.000000,4.000000,,,,0.000000,4.000000,4.000000,4.000000,4.000000,4.000000,4.000000,4.000000,4.000000,4.000000,4.000000,4.000000,2.000000,4.000000,4.000000,4.000000,4.000000,4.000000,4.000000,4.000000,4.000000,4.000000,4.000000,4.000000,4.000000,4.000000,4.000000,4.000000,4.000000,4.000000,4.000000,4.000000,4.000000,83.333336
1614942977.949563,78.000000,0.000000,7.998374,23.398928,11.855783,17.380741,13.982317,24.241810,12.499125,17.697590,4.037888,20.928524,15.588688,13.487095,27.065712,-1.329638,40.674995,43.760361,29.668535,30.307928,35.145111,16.825016,17.016781,-8.888179,10.777911,20.899921,15.597054,10.825198,22.071758,12.440776,11.261477,53.983192,13.543104,-13.509453,0.000000,152.000000,4.000000,,,,0.000000,4.000000,4.000000,4.000000,4.000000,4.000000,4.000000,4.000000,4.000000,4.000000,4.000000,4.000000,2.000000,4.000000,4.000000,4.000000,4.000000,4.000000,4.000000,4.000000,4.000000,4.000000,4.000000,4.000000,4.000000,4.000000,4.000000,4.000000,4.000000,4.000000,4.000000,4.000000,4.000000,83.333336
1614942977.957411,79.000000,0.000000,7.990376,20.811426,11.843928,16.337719,13.455514,23.191927,12.486627,17.679893,6.597953,21.933237,15.060279,18.088993,24.474545,-5.943693,41.147141,44.742241,35.279892,36.944286,34.084324,18.859472,9.820277,-12.469034,12.305595,31.648252,15.068636,13.378475,23.588148,11.915515,13.301498,57.006134,13.016741,-14.008764,0.000000,189.000000,4.000000,,,,0.000000,4.000000,4.000000,4.000000,4.000000,4.000000,4.000000,4.000000,4.000000,4.000000,4.000000,4.000000,2.000000,4.000000,4.000000,4.000000,4.000000,4.000000,4.000000,4.000000,4.000000,4.000000,4.000000,4.000000,4.000000,4.000000,4.000000,4.000000,4.000000,4.000000,4.000000,4.000000,4.000000,83.333336
1614942977.965160,80.000000,0.000000,7.982385,12.585487,11.832084,13.757278,13.954879,18.040531,12.474140,17.662212,7.616996,22.936945,12.481116,14.993980,12.142378,-21.835184,28.798300,37.005188,32.680508,27.676573,13.024598,-6.800413,-16.856211,-36.559128,9.729187,31.616604,2.233055,11.826635,15.359432,6.775394,9.698453,56.436306,13.516544,-12.969114,0.000000,193.000000,4.000000,,,,0.000000,4.000000,4.000000,4.000000,4.000000,4.000000,4.000000,4.000000,4.000000,4.000000,4.000000,4.000000,2.000000,4.000000,4.000000,4.000000,4.000000,4.000000,4.000000,4.000000,4.000000,4.000000,4.000000,4.000000,4.000000,4.000000,4.000000,4.000000,4.000000,4.000000,4.000000,4.000000,4.000000,83.333336
1614942977.972808,81.000000,0.000000,7.974403,12.060081,12.333073,13.743521,13.428103,18.022490,12.461666,17.644550,7.096559,17.272982,7.853250,12.414885,-1.203098,-31.556940,10.307963,14.404082,24.442701,0.982229,-16.219196,-37.562843,-49.147045,-65.240517,5.616894,5.943962,-11.615332,5.148142,6.113303,4.204516,5.073370,50.738846,11.451746,-15.007427,0.000000,166.000000,4.000000,,,,0.000000,4.000000,4.000000,4.000000,4.000000,4.000000,4.000000,4.000000,4.000000,4.000000,4.000000,4.000000,2.000000,4.000000,4.000000,4.000000,4.000000,4.000000,4.000000,4.000000,4.000000,4.000000,4.000000,4.000000,4.000000,4.000000,4.000000,4.000000,4.000000,4.000000,4.000000,4.000000,4.000000,83.333336
1614942977.980557,82.000000,0.000000,7.966428,18.714687,10.269458,14.242598,13.414676,17.491646,12.449204,17.626905,7.089462,5.973658,2.204371,12.915290,-6.330100,-48.961281,-7.138242,-9.200066,19.802874,-26.711060,-34.151695,-56.499638,-74.226105,-87.739380,4.072815,-18.164547,-21.347307,2.066071,5.081549,5.225953,4.555476,40.944515,9.389012,-23.197548,0.000000,193.000000,4.000000,,,,0.000000,4.000000,4.000000,4.000000,4.000000,4.000000,4.000000,4.000000,4.000000,4.000000,4.000000,4.000000,2.000000,4.000000,4.000000,4.000000,4.000000,4.000000,4.000000,4.000000,4.000000,4.000000,4.000000,4.000000,4.000000,4.000000,4.000000,4.000000,4.000000,4.000000,4.000000,4.000000,4.000000,83.333336
1614942977.988205,83.000000,0.000000,7.958462,18.183153,8.207906,13.715535,15.965364,14.397232,12.436755,18.122099,7.082372,1.865120,-2.926038,12.902374,-7.862231,-75.066162,-17.387514,-20.472918,16.706148,-37.966400,-41.809849,-64.135445,-80.818542,-93.805489,3.555922,-23.787407,-28.505445,1.551184,3.538006,5.220726,5.063741,37.826649,9.379623,-28.815376,0.000000,182.000000,4.000000,,,,0.000000,4.000000,4.000000,4.000000,4.000000,4.000000,4.000000,4.000000,4.000000,4.000000,4.000000,4.000000,2.000000,4.000000,4.000000,4.000000,4.000000,4.000000,4.000000,4.000000,4.000000,4.000000,4.000000,4.000000,4.000000,4.000000,4.000000,4.000000,4.000000,4.000000,4.000000,4.000000,4.000000,83.333336
1614942977.995953,84.000000,0.000000,7.950503,14.062405,7.686878,13.701819,14.923757,14.382834,11.911498,17.078337,7.075290,5.452999,-5.487215,12.376652,-10.418471,-78.580841,-12.241921,-17.888342,14.125339,-27.672024,-33.050091,-51.763618,-61.250546,-73.198860,4.578007,-23.763620,-19.758991,1.036812,5.072929,4.702685,5.571498,42.404205,8.857423,-29.299381,0.000000,194.000000,4.000000,,,,0.000000,4.000000,4.000000,4.000000,4.000000,4.000000,4.000000,4.000000,4.000000,4.000000,4.000000,4.000000,2.000000,4.000000,4.000000,4.000000,4.000000,4.000000,4.000000,4.000000,4.000000,4.000000,4.000000,4.000000,4.000000,4.000000,4.000000,4.000000,4.000000,4.000000,4.000000,4.000000,4.000000,83.333336
1614942978.003602,85.000000,0.000000,7.942553,16.099625,8.192011,13.175297,10.293448,10.778708,12.412407,17.574080,6.555394,2.370623,-4.968907,12.364275,-9.382412,-62.604824,1.103654,-8.126863,17.700956,-10.208454,-8.914477,-27.609291,-28.368784,-41.330791,7.650352,-17.586010,2.824869,3.599878,17.375549,5.210803,8.130029,44.925903,9.361386,-28.757261,0.000000,192.000000,4.000000,,,,0.000000,4.000000,4.000000,4.000000,4.000000,4.000000,4.000000,4.000000,4.000000,4.000000,4.000000,4.000000,2.000000,4.000000,4.000000,4.000000,4.000000,4.000000,4.000000,4.000000,4.000000,4.000000,4.000000,4.000000,4.000000,4.000000,4.000000,4.000000,4.000000,4.000000,4.000000,4.000000,4.000000,83.333336
1614942978.011350,86.000000,0.000000,8.960252,15.570704,8.183819,10.598019,9.257514,4.101263,12.912815,18.069324,5.010377,-1.734312,-5.476758,12.864731,-8.347389,-59.978119,2.641011,-3.503352,22.811460,-5.070041,3.914950,-16.299631,-6.801953,-24.366383,12.258086,2.431576,8.463070,8.724483,25.050482,5.205592,9.147540,44.880978,9.864845,-28.215683,0.000000,184.000000,4.000000,,,,0.000000,4.000000,4.000000,4.000000,4.000000,4.000000,4.000000,4.000000,4.000000,4.000000,4.000000,4.000000,2.000000,4.000000,4.000000,4.000000,4.000000,4.000000,4.000000,4.000000,4.000000,4.000000,4.000000,4.000000,4.000000,4.000000,4.000000,4.000000,4.000000,4.000000,4.000000,4.000000,4.000000,83.333336
1614942978.018998,87.000000,0.000000,7.412829,9.401288,7.662815,9.561780,7.709795,2.045880,11.874261,13.948691,2.441264,-0.706937,-4.958461,12.339046,-10.390324,-57.354038,1.099909,-5.038310,22.275829,-2.500868,6.475138,-12.180767,1.409977,-18.700991,11.733007,20.377863,-1.288983,9.741400,20.922867,4.687566,8.625572,44.836098,5.752417,-28.700289,0.000000,194.000000,4.000000,,,,0.000000,4.000000,4.000000,4.000000,4.000000,4.000000,4.000000,4.000000,4.000000,4.000000,4.000000,4.000000,2.000000,4.000000,4.000000,4.000000,4.000000,4.000000,4.000000,4.000000,4.000000,4.000000,4.000000,4.000000,4.000000,4.000000,4.000000,4.000000,4.000000,4.000000,4.000000,4.000000,4.000000,83.333336
1614942978.026747,88.000000,0.000000,4.328494,9.904707,8.167973,10.065039,5.137983,2.043834,12.888028,8.806538,3.464464,-2.757512,1.713164,13.352348,-1.149164,-33.706940,18.534706,10.864164,27.894579,15.450351,26.468662,4.754490,15.254722,-6.374598,10.182813,21.895947,3.840512,10.244479,24.491688,6.734161,8.616946,44.278442,2.156920,-29.697229,0.000000,192.000000,4.000000,,,,0.000000,4.000000,4.000000,4.000000,4.000000,4.000000,4.000000,4.000000,4.000000,4.000000,4.000000,4.000000,2.000000,4.000000,4.000000,4.000000,4.000000,4.000000,4.000000,4.000000,4.000000,4.000000,4.000000,4.000000,4.000000,4.000000,4.000000,4.000000,4.000000,4.000000,4.000000,4.000000,4.000000,83.333336
1614942978.034395,89.000000,0.000000,7.401088,18.099930,10.211086,11.593435,10.773870,5.631534,18.003345,12.387475,7.563564,4.424733,11.967861,15.390278,18.851986,-9.570668,40.567455,42.135353,42.738480,37.486183,51.057579,26.288197,31.649723,12.093315,19.403400,25.976614,19.221287,15.362439,35.749249,11.855632,8.608330,50.388008,5.231687,-21.975224,0.000000,179.000000,4.000000,,,,0.000000,4.000000,4.000000,4.000000,4.000000,4.000000,4.000000,4.000000,4.000000,4.000000,4.000000,4.000000,2.000000,4.000000,4.000000,4.000000,4.000000,4.000000,4.000000,4.000000,4.000000,4.000000,4.000000,4.000000,4.000000,4.000000,4.000000,4.000000,4.000000,4.000000,4.000000,4.000000,4.000000,83.333336
1614942978.042143,90.000000,0.000000,7.906507,20.645933,12.252157,13.633124,22.045147,13.831030,21.062265,20.067394,10.632923,28.522873,22.725124,16.913349,31.140825,-0.330329,47.193554,58.503471,44.234203,45.141003,55.621906,34.979858,27.515509,13.106863,26.563484,40.309612,22.278988,16.885538,35.713497,12.869417,9.112541,58.029930,9.329019,-13.235300,0.000000,187.000000,4.000000,,,,0.000000,4.000000,4.000000,4.000000,4.000000,4.000000,4.000000,4.000000,4.000000,4.000000,4.000000,4.000000,2.000000,4.000000,4.000000,4.000000,4.000000,4.000000,4.000000,4.000000,4.000000,4.000000,4.000000,4.000000,4.000000,4.000000,4.000000,4.000000,4.000000,4.000000,4.000000,4.000000,4.000000,83.333336
1614942978.049791,91.000000,0.000000,-3.383450,16.522722,11.214264,13.619491,25.612846,17.406942,16.938639,22.098610,11.135111,39.263580,29.881886,16.383615,29.058403,2.746925,44.582256,57.419327,32.907917,45.095863,46.335514,27.765390,8.000814,-9.983167,15.254869,38.730839,17.128504,10.714807,22.344450,8.753983,8.590609,53.869335,9.832510,-19.888731,0.000000,202.000000,4.000000,,,,0.000000,4.000000,4.000000,4.000000,4.000000,4.000000,4.000000,4.000000,4.000000,4.000000,4.000000,4.000000,2.000000,4.000000,4.000000,4.000000,4.000000,4.000000,4.000000,4.000000,4.000000,4.000000,4.000000,4.000000,4.000000,4.000000,4.000000,4.000000,4.000000,4.000000,4.000000,4.000000,4.000000,83.333336
1614942978.057539,92.000000,0.000000,-10.559554,15.480559,12.228691,13.605871,24.048773,14.825434,12.306315,20.538050,11.123976,25.378162,30.877645,16.880053,26.465242,-0.845566,44.537674,55.823448,30.823727,41.973843,32.443024,12.865830,-8.930264,-34.075748,0.367819,19.717751,8.393427,9.165630,6.424670,5.668306,7.043556,45.610336,9.822678,-28.073971,0.000000,191.000000,4.000000,,,,0.000000,4.000000,4.000000,4.000000,4.000000,4.000000,4.000000,4.000000,4.000000,4.000000,4.000000,4.000000,2.000000,4.000000,4.000000,4.000000,4.000000,4.000000,4.000000,4.000000,4.000000,4.000000,4.000000,4.000000,4.000000,4.000000,4.000000,4.000000,4.000000,4.000000,4.000000,4.000000,4.000000,83.333336
1614942978.065188,93.000000,0.000000,-5.420789,15.977900,15.806206,14.105086,26.076006,14.297788,12.294009,22.568794,12.138493,16.122015,24.180101,16.863173,27.977238,-13.665233,37.826469,44.998394,30.280083,29.624178,11.384941,-5.095753,-26.357231,-46.862186,-0.658190,7.903161,-7.512403,10.182106,-1.786883,5.149817,4.985231,40.949341,8.787214,-24.456154,0.000000,175.000000,4.000000,,,,0.000000,4.000000,4.000000,4.000000,4.000000,4.000000,4.000000,4.000000,4.000000,4.000000,4.000000,4.000000,2.000000,4.000000,4.000000,4.000000,4.000000,4.000000,4.000000,4.000000,4.000000,4.000000,4.000000,4.000000,4.000000,4.000000,4.000000,4.000000,4.000000,4.000000,4.000000,4.000000,4.000000,83.333336
1614942978.072936,94.000000,0.000000,-2.338445,15.961922,13.739118,13.578160,24.511467,14.283489,12.794536,22.033403,9.562252,18.669996,10.309767,16.846310,24.359518,-29.036182,14.711720,24.440575,24.095957,12.158656,-8.113624,-27.654760,-44.792412,-60.661476,1.393750,0.715771,-20.325403,5.043719,-2.810737,5.144668,4.467425,34.241726,6.727145,-25.970160,0.000000,201.000000,4.000000,,,,0.000000,4.000000,4.000000,4.000000,4.000000,4.000000,4.000000,4.000000,4.000000,4.000000,4.000000,4.000000,2.000000,4.000000,4.000000,4.000000,4.000000,4.000000,4.000000,4.000000,4.000000,4.000000,4.000000,4.000000,4.000000,4.000000,4.000000,4.000000,4.000000,4.000000,4.000000,4.000000,4.000000,83.333336
1614942978.080584,95.000000,0.000000,-2.848927,15.433139,8.597174,14.077403,18.845930,13.756386,12.268920,17.395987,8.014228,14.035941,-3.033876,16.829462,10.489004,-46.955864,-7.867094,11.595620,23.046219,-0.674016,-15.284997,-41.473259,-52.952747,-72.908508,-0.658926,-12.105457,-22.356359,-2.140812,-3.320747,5.139523,5.488599,29.079279,5.694777,-34.662136,0.000000,184.000000,4.000000,,,,0.000000,4.000000,4.000000,4.000000,4.000000,4.000000,4.000000,4.000000,4.000000,4.000000,4.000000,4.000000,2.000000,4.000000,4.000000,4.000000,4.000000,4.000000,4.000000,4.000000,4.000000,4.000000,4.000000,4.000000,4.000000,4.000000,4.000000,4.000000,4.000000,4.000000,4.000000,4.000000,4.000000,83.333336
1614942978.088433,96.000000,0.000000,-0.281976,14.904885,8.588576,14.063325,17.801443,14.768270,11.743831,14.301667,6.467752,3.765495,-10.723150,15.274172,-9.521485,-67.934547,-14.013073,-3.800591,21.484711,-14.006675,-19.885098,-40.406143,-51.361332,-73.861237,-1.171087,-18.760019,-21.821182,-2.651492,-3.317426,5.134384,4.970290,29.563021,2.612159,-33.601833,8064.000000,0.000000,4.000000,,,,0.000000,4.000000,4.000000,4.000000,4.000000,4.000000,4.000000,4.000000,4.000000,4.000000,4.000000,4.000000,2.000000,4.000000,4.000000,4.000000,4.000000,4.000000,4.000000,4.000000,4.000000,4.000000,4.000000,4.000000,4.000000,4.000000,4.000000,4.000000,4.000000,4.000000,4.000000,4.000000,4.000000,83.333336
1614942978.096182,97.000000,0.000000,1.769588,15.915622,6.528706,9.946698,12.142616,10.138117,12.757728,9.671981,-2.769485,0.171986,-15.840632,10.643513,-26.947861,-85.302513,-22.204187,-31.489098,10.181175,-33.992668,-32.172905,-44.981125,-53.361256,-71.223274,-0.144275,-15.151515,-21.799362,-2.136020,-0.750006,4.616429,2.914037,27.482176,-1.493017,-33.568233,8064.000000,0.000000,4.000000,,,,0.000000,4.000000,4.000000,4.000000,4.000000,4.000000,4.000000,4.000000,4.000000,4.000000,4.000000,4.000000,2.000000,4.000000,4.000000,4.000000,4.000000,4.000000,4.000000,4.000000,4.000000,4.000000,4.000000,4.000000,4.000000,4.000000,4.000000,4.000000,4.000000,4.000000,4.000000,4.000000,4.000000,83.333336
1614942978.104031,98.000000,0.000000,0.742178,15.386886,-2.708592,4.295725,-6.331065,0.384389,11.719329,-1.619742,-15.074408,2.735917,-24.542740,4.991844,-38.202965,-94.447983,-40.643520,-48.380684,1.453046,-44.727905,-40.858681,-55.705372,-55.359177,-72.177696,0.368690,-11.546620,-21.777563,-2.646704,1.814847,5.124633,1.372662,24.890591,-2.517165,-41.739792,8064.000000,0.000000,4.000000,,,,0.000000,4.000000,4.000000,4.000000,4.000000,4.000000,4.000000,4.000000,4.000000,4.000000,4.000000,4.000000,2.000000,4.000000,4.000000,4.000000,4.000000,4.000000,4.000000,4.000000,4.000000,4.000000,4.000000,4.000000,4.000000,4.000000,4.000000,4.000000,4.000000,4.000000,4.000000,4.000000,4.000000,83.333336
1614942978.111780,99.000000,0.000000,0.741435,10.756114,-8.346910,2.240148,-14.017041,-1.154456,9.143507,-7.259148,-17.110615,1.707540,-28.620762,0.371467,-40.728863,-89.225327,-39.577236,-40.639996,-2.138151,-36.990871,-29.022949,-47.444538,-46.585869,-64.926025,-0.657320,-13.073535,-22.268604,-0.592776,2.325852,7.683611,0.858468,27.429802,-1.489007,-39.646770,8064.000000,0.000000,4.000000,,,,0.000000,4.000000,4.000000,4.000000,4.000000,4.000000,4.000000,4.000000,4.000000,4.000000,4.000000,4.000000,2.000000,4.000000,4.000000,4.000000,4.000000,4.000000,4.000000,4.000000,4.000000,4.000000,4.000000,4.000000,4.000000,4.000000,4.000000,4.000000,4.000000,4.000000,4.000000,4.000000,4.000000,83.333336
1614942978.119629,100.000000,0.000000,1.253514,7.668435,-5.261639,2.237908,-0.669691,4.487724,8.108723,0.953239,-7.349915,0.167371,-14.745987,2.422378,-25.816339,-66.059181,-11.332532,-17.522434,1.966551,-18.492342,-4.891362,-22.781710,-21.411076,-43.322639,1.394619,-12.547641,-11.989926,0.946279,7.451732,9.214389,1.370430,28.940834,-2.000339,-31.914816,8064.000000,0.000000,4.000000,,,,0.000000,4.000000,4.000000,4.000000,4.000000,4.000000,4.000000,4.000000,4.000000,4.000000,4.000000,4.000000,2.000000,4.000000,4.000000,4.000000,4.000000,4.000000,4.000000,4.000000,4.000000,4.000000,4.000000,4.000000,4.000000,4.000000,4.000000,4.000000,4.000000,4.000000,4.000000,4.000000,4.000000,83.333336
1614942978.127378,101.000000,0.000000,0.226620,9.712049,-3.717916,2.235670,9.074569,5.508877,8.613435,11.208696,3.426666,11.449254,10.396964,10.625083,4.978707,-33.172607,16.883928,13.264319,20.426123,7.167177,15.626349,0.317995,10.918027,-14.561370,9.085532,3.362342,8.022063,4.022255,16.162230,8.692354,4.445983,30.450356,-1.998338,-32.908543,8064.000000,0.000000,4.000000,,,,0.000000,4.000000,4.000000,4.000000,4.000000,4.000000,4.000000,4.000000,4.000000,4.000000,4.000000,4.000000,2.000000,4.000000,4.000000,4.000000,4.000000,4.000000,4.000000,4.000000,4.000000,4.000000,4.000000,4.000000,4.000000,4.000000,4.000000,4.000000,4.000000,4.000000,4.000000,4.000000,4.000000,83.333336
1614942978.135227,102.000000,0.000000,1.764855,12.266438,-1.150096,6.335998,11.629597,9.093112,8.604821,14.274410,7.525803,28.873703,29.873747,18.306767,30.101933,-5.447126,36.354225,40.943363,33.739029,33.826675,34.585083,19.292036,31.419930,4.427550,14.204652,30.025646,17.244810,14.787464,23.325554,8.683661,8.031281,38.625034,0.567763,-26.208967,8064.000000,0.000000,4.000000,,,,0.000000,4.000000,4.000000,4.000000,4.000000,4.000000,4.000000,4.000000,4.000000,4.000000,4.000000,4.000000,2.000000,4.000000,4.000000,4.000000,4.000000,4.000000,4.000000,4.000000,4.000000,4.000000,4.000000,4.000000,4.000000,4.000000,4.000000,4.000000,4.000000,4.000000,4.000000,4.000000,4.000000,83.333336
1614942978.142975,103.000000,0.000000,3.814372,11.741352,9.620285,10.432226,18.284634,16.776327,8.083396,13.747315,7.518277,34.485855,35.484898,20.852562,36.225677,4.814732,48.625561,52.697292,35.243752,47.126183,48.909470,30.554794,36.516716,6.474405,15.216088,42.303314,17.227566,23.490625,24.840689,8.674977,9.048890,45.765896,2.618477,-11.310964,8064.000000,0.000000,4.000000,,,,0.000000,4.000000,4.000000,4.000000,4.000000,4.000000,4.000000,4.000000,4.000000,4.000000,4.000000,4.000000,2.000000,4.000000,4.000000,4.000000,4.000000,4.000000,4.000000,4.000000,4.000000,4.000000,4.000000,4.000000,4.000000,4.000000,4.000000,4.000000,4.000000,4.000000,4.000000,4.000000,4.000000,83.333336
1614942978.150824,104.000000,0.000000,4.323378,11.216790,15.251691,9.396153,21.343271,16.246729,8.588133,13.733568,6.997939,31.887266,33.398132,20.318890,33.625351,3.271455,50.628220,52.131775,44.952099,46.053417,51.937485,31.037060,35.454556,6.980751,15.713693,37.645626,18.235979,18.338930,20.713285,8.666303,8.527021,45.207310,2.103038,-12.838114,8192.000000,0.000000,4.000000,,,,0.000000,4.000000,4.000000,4.000000,4.000000,4.000000,4.000000,4.000000,4.000000,4.000000,4.000000,4.000000,2.000000,4.000000,4.000000,4.000000,4.000000,4.000000,4.000000,4.000000,4.000000,4.000000,4.000000,4.000000,4.000000,4.000000,4.000000,4.000000,4.000000,4.000000,4.000000,4.000000,4.000000,83.333336
1614942978.158573,105.000000,0.000000,4.831875,11.718393,12.672337,9.899577,22.347570,13.666380,8.579545,14.745476,8.016582,32.881020,33.877552,20.298571,34.617363,6.857927,50.064770,51.054001,53.112274,48.571465,48.808624,31.006023,25.675512,6.973770,18.262081,34.531055,15.653641,12.679565,16.077187,8.657637,8.518494,44.136459,2.100935,-20.004763,8064.000000,0.000000,4.000000,,,,0.000000,4.000000,4.000000,4.000000,4.000000,4.000000,4.000000,4.000000,4.000000,4.000000,4.000000,4.000000,2.000000,4.000000,4.000000,4.000000,4.000000,4.000000,4.000000,4.000000,4.000000,4.000000,4.000000,4.000000,4.000000,4.000000,4.000000,4.000000,4.000000,4.000000,4.000000,4.000000,4.000000,83.333336
1614942978.166421,106.000000,0.000000,7.391146,11.706676,16.249407,15.017883,30.017530,18.780918,8.570966,17.294832,10.059847,32.335320,36.407780,21.303913,34.582748,11.466454,50.014706,52.028587,43.828392,49.548534,43.631611,25.333992,4.111376,-11.494742,20.295101,32.445244,9.484141,13.692527,17.086750,8.648979,9.022796,45.117966,7.227039,-11.779630,8192.000000,0.000000,4.000000,,,,0.000000,4.000000,4.000000,4.000000,4.000000,4.000000,4.000000,4.000000,4.000000,4.000000,4.000000,4.000000,2.000000,4.000000,4.000000,4.000000,4.000000,4.000000,4.000000,4.000000,4.000000,4.000000,4.000000,4.000000,4.000000,4.000000,4.000000,4.000000,4.000000,4.000000,4.000000,4.000000,4.000000,83.333336
1614942978.174170,107.000000,0.000000,6.870934,11.694968,24.438286,18.079788,30.500334,22.864702,8.562394,17.790358,11.075428,22.559393,25.602140,19.231327,20.702011,-5.980910,35.605717,42.232967,34.553795,35.652832,25.126440,1.718914,-18.969658,-42.252480,16.685062,20.617928,9.474657,12.140372,16.044024,8.640330,8.500953,44.560028,10.809556,-4.075543,8064.000000,0.000000,4.000000,,,,0.000000,4.000000,4.000000,4.000000,4.000000,4.000000,4.000000,4.000000,4.000000,4.000000,4.000000,4.000000,2.000000,4.000000,4.000000,4.000000,4.000000,4.000000,4.000000,4.000000,4.000000,4.000000,4.000000,4.000000,4.000000,4.000000,4.000000,4.000000,4.000000,4.000000,4.000000,4.000000,4.000000,83.333336
1614942978.182019,108.000000,0.000000,4.299961,11.683273,21.336926,17.548887,22.777525,19.252094,8.553832,16.234106,9.013071,11.767603,4.550897,12.545428,-6.498178,-36.231339,4.800880,12.959967,24.262833,10.488974,-6.180737,-30.590496,-44.078896,-64.261505,9.488891,5.725514,1.772875,9.564130,10.386953,8.631689,8.492452,42.464184,8.747464,-5.609929,8064.000000,0.000000,4.000000,,,,0.000000,4.000000,4.000000,4.000000,4.000000,4.000000,4.000000,4.000000,4.000000,4.000000,4.000000,4.000000,2.000000,4.000000,4.000000,4.000000,4.000000,4.000000,4.000000,4.000000,4.000000,4.000000,4.000000,4.000000,4.000000,4.000000,4.000000,4.000000,4.000000,4.000000,4.000000,4.000000,4.000000,83.333336
1614942978.189767,109.000000,0.000000,3.782840,11.671591,14.648921,17.531340,20.703465,17.181559,8.545279,14.166591,6.952776,3.550707,-9.812628,5.866216,-26.491680,-59.272030,-20.844946,-17.309402,3.725749,-16.188181,-35.918144,-59.277855,-72.239944,-79.581863,6.402479,-6.587904,-21.818642,8.528924,7.812464,8.623058,8.483959,40.370438,6.174614,-5.091498,8064.000000,0.000000,4.000000,,,,0.000000,4.000000,4.000000,4.000000,4.000000,4.000000,4.000000,4.000000,4.000000,4.000000,4.000000,4.000000,2.000000,4.000000,4.000000,4.000000,4.000000,4.000000,4.000000,4.000000,4.000000,4.000000,4.000000,4.000000,4.000000,4.000000,4.000000,4.000000,4.000000,4.000000,4.000000,4.000000,4.000000,83.333336
1614942978.197616,110.000000,0.000000,4.804698,11.659919,15.659914,16.488167,12.477633,17.677198,9.049553,11.075500,6.945823,-1.581048,-14.418200,4.834709,-29.029291,-76.648659,-30.054871,-28.061325,-4.483106,-31.556608,-45.112999,-68.962166,-76.783089,-84.630486,6.908897,-17.350548,-29.489130,4.417831,8.830293,8.614435,8.475475,39.817245,6.168439,-8.163330,8064.000000,0.000000,4.000000,,,,0.000000,4.000000,4.000000,4.000000,4.000000,4.000000,4.000000,4.000000,4.000000,4.000000,4.000000,4.000000,2.000000,4.000000,4.000000,4.000000,4.000000,4.000000,4.000000,4.000000,4.000000,4.000000,4.000000,4.000000,4.000000,4.000000,4.000000,4.000000,4.000000,4.000000,4.000000,4.000000,4.000000,83.333336
1614942978.205364,111.000000,0.000000,4.287073,11.648259,13.080151,11.856294,-5.996382,14.069777,6.989222,6.449040,6.938877,-2.092288,-16.967884,3.804233,-26.948980,-89.905342,-26.947893,-28.033264,-0.888879,-27.422489,-31.734550,-52.995770,-49.013996,-69.161240,7.414808,-19.897299,-8.946821,2.362131,8.821462,8.605821,8.467000,39.777431,4.110989,-17.385937,8064.000000,0.000000,4.000000,,,,0.000000,4.000000,4.000000,4.000000,4.000000,4.000000,4.000000,4.000000,4.000000,4.000000,4.000000,4.000000,2.000000,4.000000,4.000000,4.000000,4.000000,4.000000,4.000000,4.000000,4.000000,4.000000,4.000000,4.000000,4.000000,4.000000,4.000000,4.000000,4.000000,4.000000,4.000000,4.000000,4.000000,83.333336
1614942978.213213,112.000000,0.000000,4.282786,11.636611,3.323481,9.793156,-9.067309,7.389041,4.930951,5.416951,6.931938,-2.090196,-16.950916,1.236326,-29.486134,-89.815437,-23.331202,-27.492409,-4.477734,-18.677116,-16.318201,-35.506874,-20.759855,-54.220284,6.381752,-10.646632,2.344177,4.923872,8.299820,8.597215,8.458533,40.250473,2.055596,-21.471113,8064.000000,0.000000,4.000000,,,,0.000000,4.000000,4.000000,4.000000,4.000000,4.000000,4.000000,4.000000,4.000000,4.000000,4.000000,4.000000,2.000000,4.000000,4.000000,4.000000,4.000000,4.000000,4.000000,4.000000,4.000000,4.000000,4.000000,4.000000,4.000000,4.000000,4.000000,4.000000,4.000000,4.000000,4.000000,4.000000,4.000000,83.333336
1614942978.220961,113.000000,0.000000,4.278503,11.624974,-0.269586,8.757721,1.198169,5.330370,4.413199,5.924354,6.925006,-3.113746,-15.395504,1.235090,-26.892544,-76.392288,-19.205307,-18.746969,-3.960435,-17.632799,-6.558293,-31.881626,-9.969865,-49.550678,6.888191,0.133245,-7.914577,4.406127,8.804340,8.588617,8.450074,40.723042,2.053540,-21.449642,8064.000000,0.000000,4.000000,,,,0.000000,4.000000,4.000000,4.000000,4.000000,4.000000,4.000000,4.000000,4.000000,4.000000,4.000000,4.000000,2.000000,4.000000,4.000000,4.000000,4.000000,4.000000,4.000000,4.000000,4.000000,4.000000,4.000000,4.000000,4.000000,4.000000,4.000000,4.000000,4.000000,4.000000,4.000000,4.000000,4.000000,83.333336
1614942978.228610,114.000000,0.000000,4.274225,11.613349,-0.269316,6.697681,4.786714,6.350681,4.921607,5.405609,6.405261,4.068854,-7.174980,1.233855,-11.993857,-50.674870,-1.237383,0.758958,7.838397,-5.307474,10.371343,-16.977949,-0.216305,-29.501127,10.983868,4.235676,-6.881022,7.478644,8.282716,8.580029,8.954445,39.143860,0.513025,-24.505116,8064.000000,0.000000,4.000000,,,,0.000000,4.000000,4.000000,4.000000,4.000000,4.000000,4.000000,4.000000,4.000000,4.000000,4.000000,4.000000,2.000000,4.000000,4.000000,4.000000,4.000000,4.000000,4.000000,4.000000,4.000000,4.000000,4.000000,4.000000,4.000000,4.000000,4.000000,4.000000,4.000000,4.000000,4.000000,4.000000,4.000000,83.333336
1614942978.236358,115.000000,0.000000,4.269951,11.601736,-0.269047,5.665343,10.422953,6.344330,4.916685,10.015588,7.937317,17.910940,12.832194,4.822365,5.454034,-19.854963,26.968983,25.373583,17.061327,23.415783,32.412254,13.295440,20.809553,-4.343421,14.562627,7.308363,14.664321,19.778858,9.300075,8.571448,7.919849,41.155998,-1.538770,-24.480612,8064.000000,0.000000,4.000000,,,,0.000000,4.000000,4.000000,4.000000,4.000000,4.000000,4.000000,4.000000,4.000000,4.000000,4.000000,4.000000,2.000000,4.000000,4.000000,4.000000,4.000000,4.000000,4.000000,4.000000,4.000000,4.000000,4.000000,4.000000,4.000000,4.000000,4.000000,4.000000,4.000000,4.000000,4.000000,4.000000,4.000000,83.333336
1614942978.244007,116.000000,0.000000,4.265681,11.590134,5.372248,6.172498,24.771503,5.312345,4.911768,16.672239,10.493483,23.021235,28.716799,17.125235,15.704990,-2.912031,42.326630,53.040516,24.223753,42.366726,42.636250,28.153938,31.045153,1.301948,15.573706,18.583107,26.444529,25.400105,11.854877,8.562878,8.937571,48.807148,-2.050052,-18.815105,8064.000000,0.000000,4.000000,,,,0.000000,4.000000,4.000000,4.000000,4.000000,4.000000,4.000000,4.000000,4.000000,4.000000,4.000000,4.000000,2.000000,4.000000,4.000000,4.000000,4.000000,4.000000,4.000000,4.000000,4.000000,4.000000,4.000000,4.000000,4.000000,4.000000,4.000000,4.000000,4.000000,4.000000,4.000000,4.000000,4.000000,83.333336
1614942978.251755,117.000000,0.000000,4.774236,11.578544,14.084825,6.166326,30.387758,6.332674,4.906856,18.194029,10.995810,21.972570,31.765005,25.313238,20.304670,-1.883478,42.797123,66.320808,31.379017,42.837181,43.619255,27.100143,15.629493,-0.237815,15.045311,31.897856,20.264238,21.784962,13.381483,8.554315,12.005556,50.809624,-1.535181,-16.232187,8064.000000,0.000000,4.000000,,,,0.000000,4.000000,4.000000,4.000000,4.000000,4.000000,4.000000,4.000000,4.000000,4.000000,4.000000,4.000000,2.000000,4.000000,4.000000,4.000000,4.000000,4.000000,4.000000,4.000000,4.000000,4.000000,4.000000,4.000000,4.000000,4.000000,4.000000,4.000000,4.000000,4.000000,4.000000,4.000000,4.000000,83.333336
1614942978.259403,118.000000,0.000000,4.256641,11.566965,16.122021,5.647338,27.793268,8.890444,4.901949,17.663013,10.471993,20.412138,29.169138,17.595617,19.258724,-2.907236,41.728683,54.972439,28.783535,37.666138,38.447430,25.534582,-2.334855,-5.878603,13.491804,33.404419,17.167049,19.711895,11.829640,8.545760,9.429448,45.630608,-2.046466,-16.728775,8064.000000,0.000000,4.000000,,,,0.000000,4.000000,4.000000,4.000000,4.000000,4.000000,4.000000,4.000000,4.000000,4.000000,4.000000,4.000000,2.000000,4.000000,4.000000,4.000000,4.000000,4.000000,4.000000,4.000000,4.000000,4.000000,4.000000,4.000000,4.000000,4.000000,4.000000,4.000000,4.000000,4.000000,4.000000,4.000000,4.000000,83.333336
1614942978.267151,119.000000,0.000000,2.201102,11.042578,15.593079,6.154512,28.278296,9.907194,4.384227,17.132530,10.974341,22.443007,24.011763,6.295970,9.495875,-3.417149,35.020290,40.558491,23.113726,33.013088,23.024368,12.175714,-9.512007,-26.898365,11.939851,22.601786,14.072960,15.589618,12.843451,8.537214,5.317454,42.508057,-2.044420,-16.712048,8064.000000,0.000000,4.000000,,,,0.000000,4.000000,4.000000,4.000000,4.000000,4.000000,4.000000,4.000000,4.000000,4.000000,4.000000,4.000000,2.000000,4.000000,4.000000,4.000000,4.000000,4.000000,4.000000,4.000000,4.000000,4.000000,4.000000,4.000000,4.000000,4.000000,4.000000,4.000000,4.000000,4.000000,4.000000,4.000000,4.000000,83.333336
1614942978.274800,120.000000,0.000000,0.660440,11.031535,15.577486,6.148357,26.198734,9.897286,4.379843,13.525655,7.886444,21.394922,18.859547,4.751213,-0.770030,-14.695784,20.113474,29.748703,23.603434,23.236483,4.026985,-13.477487,-26.425571,-46.871468,10.902270,9.245850,-0.812908,8.394542,13.343429,8.528677,4.286496,44.004009,-2.042376,-16.182514,8064.000000,0.000000,4.000000,,,,0.000000,4.000000,4.000000,4.000000,4.000000,4.000000,4.000000,4.000000,4.000000,4.000000,4.000000,4.000000,2.000000,4.000000,4.000000,4.000000,4.000000,4.000000,4.000000,4.000000,4.000000,4.000000,4.000000,4.000000,4.000000,4.000000,4.000000,4.000000,4.000000,4.000000,4.000000,4.000000,4.000000,83.333336
1614942978.282548,121.000000,0.000000,0.659779,12.046144,12.484985,6.142209,16.941767,9.887389,5.401104,9.409565,3.775994,7.527374,9.609917,5.772102,-11.538491,-38.783653,-0.419460,6.129210,22.554188,1.674785,-14.438581,-35.002472,-52.552994,-59.132290,4.224701,-2.558268,-14.658249,3.770762,6.663419,8.520148,4.282209,43.960003,-1.014692,-16.679152,8064.000000,0.000000,4.000000,,,,0.000000,4.000000,4.000000,4.000000,4.000000,4.000000,4.000000,4.000000,4.000000,4.000000,4.000000,4.000000,2.000000,4.000000,4.000000,4.000000,4.000000,4.000000,4.000000,4.000000,4.000000,4.000000,4.000000,4.000000,4.000000,4.000000,4.000000,4.000000,4.000000,4.000000,4.000000,4.000000,4.000000,83.333336
1614942978.290196,122.000000,0.000000,0.146299,10.495637,7.857116,5.623246,8.206877,9.364681,3.344421,8.887335,2.233756,-10.428871,-9.886872,4.227869,-23.834644,-63.360252,-19.393400,-18.492304,16.890610,-20.890991,-26.731834,-44.711060,-60.705566,-71.380852,-0.907729,-8.196735,-15.669231,3.254171,1.528550,7.998808,5.816389,42.890404,1.037605,-17.688114,7936.000000,0.000000,4.000000,,,,0.000000,4.000000,4.000000,4.000000,4.000000,4.000000,4.000000,4.000000,4.000000,4.000000,4.000000,4.000000,2.000000,4.000000,4.000000,4.000000,4.000000,4.000000,4.000000,4.000000,4.000000,4.000000,4.000000,4.000000,4.000000,4.000000,4.000000,4.000000,4.000000,4.000000,4.000000,4.000000,4.000000,83.333336
1614942978.297944,123.000000,0.000000,0.658973,10.997962,6.823617,7.668905,4.096106,9.355317,5.392358,8.878448,2.231522,-15.033827,-21.671858,4.736461,-27.913374,-74.066124,-26.040672,-21.550734,14.822436,-24.459845,-26.705103,-42.102245,-50.388451,-69.258186,2.682923,-9.727000,-14.115101,8.379122,5.116765,8.503630,9.913136,41.821873,4.113490,-16.644785,7936.000000,0.000000,4.000000,,,,0.000000,4.000000,4.000000,4.000000,4.000000,4.000000,4.000000,4.000000,4.000000,4.000000,4.000000,4.000000,2.000000,4.000000,4.000000,4.000000,4.000000,4.000000,4.000000,4.000000,4.000000,4.000000,4.000000,4.000000,4.000000,4.000000,4.000000,4.000000,4.000000,4.000000,4.000000,4.000000,4.000000,83.333336
1614942978.305592,124.000000,0.000000,3.222417,17.653631,7.329614,10.225339,5.117651,11.910064,14.617735,11.946492,4.793393,-11.429049,-16.009159,7.808648,-24.808538,-73.479233,-22.937708,-16.400978,15.833255,-18.794359,-19.498909,-32.829372,-37.004730,-55.342773,7.295624,-9.204453,-14.613806,17.601513,9.727033,8.495126,12.980146,44.344154,9.750402,-14.064037,8064.000000,0.000000,4.000000,,,,0.000000,4.000000,4.000000,4.000000,4.000000,4.000000,4.000000,4.000000,4.000000,4.000000,4.000000,4.000000,2.000000,4.000000,4.000000,4.000000,4.000000,4.000000,4.000000,4.000000,4.000000,4.000000,4.000000,4.000000,4.000000,4.000000,4.000000,4.000000,4.000000,4.000000,4.000000,4.000000,4.000000,83.333336
1614942978.313340,125.000000,0.000000,4.244835,23.277002,7.835105,9.702292,8.702276,13.436616,19.218502,16.037109,9.403985,-2.699672,-11.377766,8.826480,-24.783730,-70.841652,-22.914772,-13.820475,15.304601,-18.775564,-11.787104,-28.693979,-21.583111,-51.184868,6.775508,-0.990120,-8.445346,19.122372,8.691665,7.973810,11.941525,46.351089,15.381678,-13.537153,8064.000000,0.000000,4.000000,,,,0.000000,4.000000,4.000000,4.000000,4.000000,4.000000,4.000000,4.000000,4.000000,4.000000,4.000000,4.000000,2.000000,4.000000,4.000000,4.000000,4.000000,4.000000,4.000000,4.000000,4.000000,4.000000,4.000000,4.000000,4.000000,4.000000,4.000000,4.000000,4.000000,4.000000,4.000000,4.000000,4.000000,83.333336
1614942978.320988,126.000000,0.000000,4.753411,20.176802,6.288809,8.666949,13.821779,12.910358,16.122360,17.046713,10.420221,22.431232,-5.725362,8.817654,-13.989715,-57.437481,-12.122625,-3.037424,15.802116,-5.936276,2.070838,-19.947336,-6.689732,-45.492657,7.281553,11.831383,6.947714,15.000686,8.170153,9.504298,11.929584,45.279099,17.417578,-12.497975,8064.000000,0.000000,4.000000,,,,0.000000,4.000000,4.000000,4.000000,4.000000,4.000000,4.000000,4.000000,4.000000,4.000000,4.000000,4.000000,2.000000,4.000000,4.000000,4.000000,4.000000,4.000000,4.000000,4.000000,4.000000,4.000000,4.000000,4.000000,4.000000,4.000000,4.000000,4.000000,4.000000,4.000000,4.000000,4.000000,4.000000,83.333336
1614942978.328837,127.000000,0.000000,7.312760,19.130985,7.820982,12.248026,20.987444,17.512833,17.644699,19.080948,10.922622,42.921623,14.793183,10.860118,8.075557,-28.149273,15.581805,14.401511,18.863237,17.146584,17.966204,-1.465851,7.163111,-28.011265,11.376836,18.999039,20.274099,17.549788,9.187624,13.084538,12.430474,50.362026,16.887341,-6.844451,8064.000000,0.000000,4.000000,,,,0.000000,4.000000,4.000000,4.000000,4.000000,4.000000,4.000000,4.000000,2.000000,4.000000,4.000000,4.000000,2.000000,4.000000,4.000000,4.000000,4.000000,4.000000,4.000000,4.000000,4.000000,4.000000,4.000000,4.000000,4.000000,4.000000,4.000000,4.000000,4.000000,4.000000,4.000000,4.000000,4.000000,66.666664
1614942978.336586,0.000000,0.000000,7.818268,25.265699,18.069571,16.851162,27.120304,23.649166,23.268080,23.677252,15.014263,38.263317,32.214287,12.387719,19.349533,-6.582662,33.002121,29.771725,19.870016,26.360207,22.563622,7.253563,16.899538,-18.752485,14.442382,22.056963,24.356390,22.660442,8.665616,15.635555,11.905224,62.619354,16.870453,-1.709402,0.000000,144.000000,4.000000,,,,0.000000,4.000000,4.000000,4.000000,4.000000,4.000000,4.000000,4.000000,2.000000,4.000000,4.000000,4.000000,2.000000,4.000000,4.000000,4.000000,4.000000,4.000000,4.000000,4.000000,4.000000,4.000000,4.000000,4.000000,4.000000,4.000000,4.000000,4.000000,4.000000,4.000000,4.000000,4.000000,4.000000,66.666664
1614942978.344435,1.000000,0.000000,8.836090,24.727613,26.769449,17.347132,28.118824,25.163979,23.757633,24.679216,18.076172,33.096848,34.233356,12.888152,18.304543,-1.447874,35.020401,38.972721,17.798864,28.897947,24.079519,7.246310,19.446741,-20.785015,14.940760,25.624649,23.819214,23.663424,8.656950,16.132740,11.893318,62.043915,16.853582,-1.707692,0.000000,163.000000,4.000000,,,,0.000000,4.000000,4.000000,4.000000,4.000000,4.000000,4.000000,4.000000,2.000000,4.000000,4.000000,4.000000,2.000000,4.000000,4.000000,4.000000,4.000000,4.000000,4.000000,4.000000,4.000000,4.000000,4.000000,4.000000,4.000000,4.000000,4.000000,4.000000,4.000000,4.000000,4.000000,4.000000,4.000000,66.666664
1614942978.352184,2.000000,0.000000,11.391357,18.549040,25.204218,16.304144,27.065063,24.113173,22.195414,24.654537,18.058096,40.243237,35.737583,15.952188,24.440084,10.348445,41.139225,45.087597,20.345167,39.638283,32.260567,18.008295,19.940115,-15.636024,14.412999,26.111845,23.795395,23.126940,8.648293,15.603786,11.881425,54.289562,16.323908,-2.218805,0.000000,205.000000,4.000000,,,,0.000000,4.000000,4.000000,4.000000,4.000000,4.000000,4.000000,4.000000,2.000000,4.000000,4.000000,4.000000,2.000000,4.000000,4.000000,4.000000,4.000000,4.000000,4.000000,4.000000,4.000000,4.000000,4.000000,4.000000,4.000000,4.000000,4.000000,4.000000,4.000000,4.000000,4.000000,4.000000,4.000000,66.666664
1614942978.360033,3.000000,0.000000,10.867146,17.504850,26.204655,17.313480,28.063641,24.601881,22.686039,25.142702,17.527218,42.254276,37.240307,20.038799,31.595131,23.671431,48.790394,51.196354,28.017130,45.752487,41.971897,30.810799,19.920176,-8.953722,14.911407,25.572912,23.771599,23.616632,8.639645,16.101004,11.869544,57.825016,16.307585,-1.703766,0.000000,182.000000,4.000000,,,,0.000000,4.000000,4.000000,4.000000,4.000000,4.000000,4.000000,4.000000,2.000000,4.000000,4.000000,4.000000,2.000000,4.000000,4.000000,4.000000,4.000000,4.000000,4.000000,4.000000,4.000000,4.000000,4.000000,4.000000,4.000000,4.000000,4.000000,4.000000,4.000000,4.000000,4.000000,4.000000,4.000000,66.666664
1614942978.367782,4.000000,0.000000,8.292175,19.025806,27.204092,16.783346,28.035576,23.551638,22.663353,18.963715,16.484049,40.160740,32.587681,21.044401,29.512253,17.493912,49.767246,55.247723,31.578856,44.681095,42.955566,28.728706,10.156665,-8.944768,14.383675,25.547340,24.260647,22.567375,8.631005,15.572083,11.857674,65.459503,16.291277,-1.702062,0.000000,179.000000,4.000000,,,,0.000000,4.000000,4.000000,4.000000,4.000000,4.000000,4.000000,4.000000,2.000000,4.000000,4.000000,4.000000,2.000000,4.000000,4.000000,4.000000,4.000000,4.000000,4.000000,4.000000,4.000000,4.000000,4.000000,4.000000,4.000000,4.000000,4.000000,4.000000,4.000000,4.000000,4.000000,4.000000,4.000000,66.666664
1614942978.375630,5.000000,0.000000,7.258242,17.981140,15.382016,16.766563,23.904978,20.963984,22.640690,13.816545,13.903462,37.556477,29.990992,19.997717,29.482740,8.245649,48.691837,50.064270,30.521637,40.533852,31.630560,15.879464,-2.674005,-9.448644,14.369290,23.470510,20.646643,19.467884,7.596733,15.556510,11.845817,64.881218,16.274984,-2.213181,0.000000,190.000000,4.000000,,,,0.000000,4.000000,4.000000,4.000000,4.000000,4.000000,4.000000,4.000000,2.000000,4.000000,4.000000,4.000000,2.000000,4.000000,4.000000,4.000000,4.000000,4.000000,4.000000,4.000000,4.000000,4.000000,4.000000,4.000000,4.000000,4.000000,4.000000,4.000000,4.000000,4.000000,4.000000,4.000000,4.000000,66.666664
1614942978.383379,6.000000,0.000000,8.276625,18.475979,8.187147,18.288258,18.752867,19.917379,22.618050,17.905293,13.376739,24.698408,24.832796,19.464897,28.940437,2.596378,37.873913,37.193691,31.003935,23.570240,14.675852,0.991790,-10.363638,-16.105862,14.867742,19.344477,13.959330,18.935596,8.101956,15.540954,11.321150,64.303520,16.258711,-2.723788,0.000000,176.000000,4.000000,,,,0.000000,4.000000,4.000000,4.000000,4.000000,4.000000,4.000000,4.000000,2.000000,4.000000,4.000000,4.000000,2.000000,4.000000,4.000000,4.000000,4.000000,4.000000,4.000000,4.000000,4.000000,4.000000,4.000000,4.000000,4.000000,4.000000,4.000000,4.000000,4.000000,4.000000,4.000000,4.000000,4.000000,66.666664
1614942978.391228,7.000000,0.000000,7.755528,21.534426,20.999472,20.321253,18.734114,20.410282,22.595430,20.964310,12.850541,15.955761,12.500271,20.983894,13.014062,-18.431860,14.759117,21.771883,27.383188,3.033849,-1.236260,-14.906637,-24.712250,-39.166679,13.314413,14.196926,11.381269,18.403841,9.119496,15.525413,11.309829,62.700752,16.242451,-2.208244,0.000000,177.000000,4.000000,,,,0.000000,4.000000,4.000000,4.000000,4.000000,4.000000,4.000000,4.000000,2.000000,4.000000,4.000000,4.000000,2.000000,4.000000,4.000000,4.000000,4.000000,4.000000,4.000000,4.000000,4.000000,4.000000,4.000000,4.000000,4.000000,4.000000,4.000000,4.000000,4.000000,4.000000,4.000000,4.000000,4.000000,66.666664
1614942978.398976,8.000000,0.000000,7.747772,22.538532,30.722063,20.300930,20.253841,19.877050,22.572836,18.379244,13.863332,23.119293,4.795463,16.347527,-7.511773,-45.080093,-3.204360,5.339855,17.099394,-4.148673,-14.055536,-28.225065,-43.149075,-64.255714,10.736996,6.490422,9.831426,15.821334,7.059094,14.997066,11.811339,54.945744,16.226210,-2.206035,0.000000,182.000000,4.000000,,,,0.000000,4.000000,4.000000,4.000000,4.000000,4.000000,4.000000,4.000000,2.000000,4.000000,4.000000,4.000000,2.000000,4.000000,4.000000,4.000000,4.000000,4.000000,4.000000,4.000000,4.000000,4.000000,4.000000,4.000000,4.000000,4.000000,4.000000,4.000000,4.000000,4.000000,4.000000,4.000000,4.000000,66.666664
1614942978.406825,9.000000,0.000000,7.740025,22.003174,24.537495,20.280630,17.156664,19.857174,22.550262,16.309582,13.849468,23.096172,-0.337537,0.946563,-14.683748,-58.368347,-13.457565,-10.050100,11.441269,-7.734267,-17.631224,-31.273762,-39.516182,-64.191460,10.213438,-3.259658,6.744671,14.779872,8.590497,16.007711,11.286708,48.736954,16.209982,-4.255111,0.000000,176.000000,4.000000,,,,0.000000,4.000000,4.000000,4.000000,4.000000,4.000000,4.000000,4.000000,2.000000,4.000000,4.000000,4.000000,2.000000,4.000000,4.000000,4.000000,4.000000,4.000000,4.000000,4.000000,4.000000,4.000000,4.000000,4.000000,4.000000,4.000000,4.000000,4.000000,4.000000,4.000000,4.000000,4.000000,4.000000,66.666664
1614942978.414573,10.000000,0.000000,7.732285,21.981171,20.410393,20.260349,17.652328,20.350138,22.527712,14.754811,11.784337,14.355128,-6.491046,-7.259512,-18.771629,-59.848442,-19.085135,-6.963127,10.404187,-4.649610,-1.716157,-15.857873,-11.271538,-40.024708,10.716045,-1.717937,11.866131,18.867657,20.889599,18.555805,11.788241,49.201035,16.193773,-6.302138,0.000000,203.000000,4.000000,,,,0.000000,4.000000,4.000000,4.000000,4.000000,4.000000,4.000000,4.000000,2.000000,4.000000,4.000000,4.000000,2.000000,4.000000,4.000000,4.000000,4.000000,4.000000,4.000000,4.000000,4.000000,4.000000,4.000000,4.000000,4.000000,4.000000,4.000000,4.000000,4.000000,4.000000,4.000000,4.000000,4.000000,66.666664
1614942978.422422,11.000000,0.000000,7.724552,21.959188,22.441265,20.752909,25.839804,19.304146,22.505184,14.740056,16.900757,20.494619,0.694932,-1.098406,-20.291319,-45.429619,-7.271177,11.505374,10.393783,15.867860,24.439405,9.799010,14.893579,-16.394938,10.192509,17.770960,22.110676,25.515455,31.637939,19.562891,16.904659,53.254398,16.177580,-4.757375,0.000000,185.000000,4.000000,,,,0.000000,4.000000,4.000000,4.000000,4.000000,4.000000,4.000000,4.000000,2.000000,4.000000,4.000000,4.000000,2.000000,4.000000,4.000000,4.000000,4.000000,4.000000,4.000000,4.000000,4.000000,4.000000,4.000000,4.000000,4.000000,4.000000,4.000000,4.000000,4.000000,4.000000,4.000000,4.000000,4.000000,66.666664
1614942978.430171,12.000000,0.000000,7.716828,21.937231,22.418823,20.219336,32.993450,21.848944,22.482679,18.315060,28.678728,35.345921,21.719879,6.082180,-1.296668,-15.640598,20.428402,27.904125,18.075697,36.364811,40.825222,28.763571,26.160738,-7.147774,11.207957,37.240368,27.216770,29.592503,31.093481,19.030508,23.554420,58.842171,16.161402,-2.188515,0.000000,177.000000,4.000000,,,,0.000000,4.000000,4.000000,4.000000,4.000000,4.000000,4.000000,4.000000,2.000000,4.000000,4.000000,4.000000,2.000000,4.000000,4.000000,4.000000,4.000000,4.000000,4.000000,4.000000,4.000000,4.000000,4.000000,4.000000,4.000000,4.000000,4.000000,4.000000,4.000000,4.000000,4.000000,4.000000,4.000000,66.666664
1614942978.437919,13.000000,0.000000,7.709111,21.915293,21.883585,19.686296,34.498920,26.442480,22.460197,20.860847,33.778255,40.951599,34.518673,12.229943,26.396936,7.451965,43.484898,44.799297,31.390955,40.943832,46.425423,38.478397,29.724319,-6.627806,13.760852,40.792873,31.292118,30.588552,30.036747,19.011477,23.530867,61.347431,16.658060,-2.186326,0.000000,204.000000,4.000000,,,,0.000000,4.000000,4.000000,4.000000,4.000000,4.000000,4.000000,4.000000,2.000000,4.000000,4.000000,4.000000,4.000000,4.000000,4.000000,4.000000,4.000000,4.000000,4.000000,4.000000,4.000000,4.000000,4.000000,4.000000,4.000000,4.000000,4.000000,4.000000,4.000000,4.000000,4.000000,4.000000,4.000000,83.333336
1614942978.445667,14.000000,0.000000,7.701402,21.893377,21.348881,20.692251,33.951599,27.954500,22.437737,20.327166,31.693195,41.936287,38.586716,23.499765,37.652592,14.111180,53.697823,62.190395,35.462128,42.954170,49.455921,40.491199,31.233057,-0.980152,14.772732,38.700798,34.850567,30.557964,31.545172,18.992466,18.891951,60.260441,15.102941,-2.696960,0.000000,179.000000,4.000000,,,,0.000000,4.000000,4.000000,4.000000,4.000000,4.000000,4.000000,4.000000,2.000000,4.000000,4.000000,4.000000,4.000000,4.000000,4.000000,4.000000,4.000000,4.000000,4.000000,4.000000,4.000000,4.000000,4.000000,4.000000,4.000000,4.000000,4.000000,4.000000,4.000000,4.000000,4.000000,4.000000,4.000000,83.333336
1614942978.453316,15.000000,0.000000,7.693700,21.871485,21.840351,20.671558,34.430470,27.413725,20.876837,20.306839,31.661501,41.894352,42.650696,28.604469,36.076477,14.097069,56.721046,66.230766,33.888203,47.526600,49.919285,40.963528,30.689003,9.277238,14.245139,40.200558,33.277256,31.040226,28.436703,18.973473,16.308956,61.738644,13.036556,-2.181443,0.000000,200.000000,4.000000,,,,0.000000,4.000000,4.000000,4.000000,4.000000,4.000000,4.000000,4.000000,2.000000,4.000000,4.000000,4.000000,4.000000,4.000000,4.000000,4.000000,4.000000,4.000000,4.000000,4.000000,4.000000,4.000000,4.000000,4.000000,4.000000,4.000000,4.000000,4.000000,4.000000,4.000000,4.000000,4.000000,4.000000,83.333336
1614942978.461064,16.000000,0.000000,7.686007,21.849613,22.331331,16.548323,34.396038,27.386311,18.804678,20.799353,32.655479,41.852459,44.146503,27.550224,37.066040,16.647074,57.177147,64.113258,34.879955,48.504715,47.818085,42.461029,29.632673,9.780782,14.230894,40.673180,31.192698,30.496365,26.356985,18.954500,17.831108,60.651264,11.997878,-2.179261,0.000000,199.000000,4.000000,,,,0.000000,4.000000,4.000000,4.000000,4.000000,4.000000,4.000000,4.000000,2.000000,4.000000,4.000000,4.000000,4.000000,4.000000,4.000000,4.000000,4.000000,4.000000,4.000000,4.000000,4.000000,4.000000,4.000000,4.000000,4.000000,4.000000,4.000000,4.000000,4.000000,4.000000,4.000000,4.000000,4.000000,83.333336
1614942978.468713,17.000000,0.000000,7.678321,21.827763,20.257719,12.942031,34.361641,27.871744,18.785873,20.265734,31.597185,43.861889,39.486973,28.548315,38.567436,15.091966,55.581509,64.049141,34.845078,47.430569,48.795906,35.239079,21.910734,-1.511051,14.729484,39.606865,30.135864,29.953049,26.843449,18.935545,19.351740,52.385483,12.498701,-2.177082,0.000000,186.000000,4.000000,,,,0.000000,4.000000,4.000000,4.000000,4.000000,4.000000,4.000000,4.000000,2.000000,4.000000,4.000000,4.000000,4.000000,4.000000,4.000000,4.000000,4.000000,4.000000,4.000000,4.000000,4.000000,4.000000,4.000000,4.000000,4.000000,4.000000,4.000000,4.000000,4.000000,4.000000,4.000000,4.000000,4.000000,83.333336
1614942978.476461,18.000000,0.000000,7.670642,21.805935,17.673359,14.980371,32.275997,27.331053,18.767088,20.245466,31.565588,39.202641,33.806461,23.391562,29.810921,1.743540,47.320797,51.164581,33.271770,40.716473,43.618904,16.229481,3.940104,-15.355693,14.201933,37.003155,22.926241,29.923096,22.201220,18.916609,18.819567,45.153610,11.973382,-2.174905,0.000000,199.000000,4.000000,,,,0.000000,4.000000,4.000000,4.000000,4.000000,4.000000,4.000000,4.000000,2.000000,4.000000,4.000000,4.000000,4.000000,4.000000,4.000000,4.000000,4.000000,4.000000,4.000000,4.000000,4.000000,4.000000,4.000000,4.000000,4.000000,4.000000,4.000000,4.000000,4.000000,4.000000,4.000000,4.000000,4.000000,83.333336
1614942978.484109,19.000000,0.000000,8.175793,21.784130,17.655685,17.016672,30.192440,27.303720,18.748322,20.225222,31.534021,25.317284,21.977783,11.060478,9.268289,-17.232563,28.299118,27.523674,31.187216,22.214218,23.062466,-0.197005,-16.576656,-31.750593,12.649270,28.761023,15.211006,24.252146,15.512352,18.897694,18.800747,45.108459,11.961409,-1.659910,0.000000,196.000000,4.000000,,,,0.000000,4.000000,4.000000,4.000000,4.000000,4.000000,4.000000,4.000000,2.000000,4.000000,4.000000,4.000000,4.000000,4.000000,4.000000,4.000000,4.000000,4.000000,4.000000,4.000000,4.000000,4.000000,4.000000,4.000000,4.000000,4.000000,4.000000,4.000000,4.000000,4.000000,4.000000,4.000000,4.000000,83.333336
1614942978.491857,20.000000,0.000000,6.116334,21.762344,18.150850,16.486835,29.649427,27.276417,18.729572,20.204996,31.502487,18.112480,6.058369,7.459674,-8.176877,-31.574305,1.604153,5.957689,16.797054,1.166363,-2.088802,-15.581423,-31.431873,-49.154739,9.559697,21.039955,14.170155,14.484304,14.471199,18.878796,18.269127,44.037708,12.975088,-1.658250,0.000000,185.000000,4.000000,,,,0.000000,4.000000,4.000000,4.000000,4.000000,4.000000,4.000000,4.000000,2.000000,4.000000,4.000000,4.000000,4.000000,4.000000,4.000000,4.000000,4.000000,4.000000,4.000000,4.000000,4.000000,4.000000,4.000000,4.000000,4.000000,4.000000,4.000000,4.000000,4.000000,4.000000,4.000000,4.000000,4.000000,83.333336
1614942978.499506,21.000000,0.000000,4.058936,21.740583,16.594236,15.957528,28.081316,27.249142,17.685202,20.184792,31.470985,19.120008,-3.178458,7.965035,-12.784084,-39.747856,-19.423092,-10.458526,-5.783845,-11.655316,-14.907226,-29.411995,-36.528648,-59.874817,6.986035,14.352247,11.079062,10.880076,15.482368,18.859917,15.686754,40.916748,11.423652,-2.682233,0.000000,207.000000,4.000000,,,,0.000000,4.000000,4.000000,4.000000,4.000000,4.000000,4.000000,4.000000,2.000000,4.000000,4.000000,4.000000,4.000000,4.000000,4.000000,4.000000,4.000000,4.000000,4.000000,4.000000,4.000000,4.000000,4.000000,4.000000,4.000000,4.000000,4.000000,4.000000,4.000000,4.000000,4.000000,4.000000,4.000000,83.333336
1614942978.507254,22.000000,0.000000,4.054877,21.718842,14.526361,16.454391,26.001953,27.221891,15.103415,20.164606,31.439514,14.485504,-3.175280,2.316044,-13.796942,-43.810673,-19.916491,-9.935246,-11.419086,-9.592380,-12.328217,-24.767199,-22.133144,-59.814941,6.979049,5.619946,6.452598,13.946120,14.954065,18.841057,15.158247,41.388653,13.976330,-2.166730,0.000000,185.000000,4.000000,,,,0.000000,4.000000,4.000000,4.000000,4.000000,4.000000,4.000000,4.000000,2.000000,4.000000,4.000000,4.000000,4.000000,4.000000,4.000000,4.000000,4.000000,4.000000,4.000000,4.000000,4.000000,4.000000,4.000000,4.000000,4.000000,4.000000,4.000000,4.000000,4.000000,4.000000,4.000000,4.000000,4.000000,83.333336
1614942978.514902,23.000000,0.000000,4.050822,21.697124,14.511834,16.437937,25.975952,27.707491,14.575490,20.144442,31.920895,7.804352,-1.633643,1.288087,-13.270324,-41.715580,-4.511958,6.997766,5.002589,4.263367,2.555907,-7.819355,6.606937,-46.421795,6.459249,6.127147,7.984606,15.983456,16.990395,19.335035,15.143088,43.911366,21.654661,-1.138922,0.000000,194.000000,4.000000,,,,0.000000,4.000000,4.000000,4.000000,4.000000,4.000000,4.000000,4.000000,2.000000,4.000000,4.000000,4.000000,4.000000,4.000000,4.000000,4.000000,4.000000,4.000000,4.000000,4.000000,4.000000,4.000000,4.000000,4.000000,4.000000,4.000000,4.000000,4.000000,4.000000,4.000000,4.000000,4.000000,4.000000,83.333336
1614942978.522650,24.000000,0.000000,4.046772,19.624144,14.497323,16.421499,26.462795,26.141321,15.073735,20.124298,31.376154,6.770906,1.444914,6.927824,-7.103208,-31.930277,9.851528,19.298460,16.792458,14.002693,18.450787,0.393593,24.036228,-27.913834,6.452790,20.479994,11.566365,14.941832,18.511866,17.777239,15.127946,45.405914,24.197109,-7.291629,0.000000,185.000000,4.000000,,,,0.000000,4.000000,4.000000,4.000000,4.000000,4.000000,4.000000,4.000000,2.000000,4.000000,4.000000,4.000000,4.000000,4.000000,4.000000,4.000000,4.000000,4.000000,4.000000,4.000000,4.000000,4.000000,4.000000,4.000000,4.000000,4.000000,4.000000,4.000000,4.000000,4.000000,4.000000,4.000000,4.000000,83.333336
1614942978.530298,25.000000,0.000000,6.606827,18.066059,14.482825,16.405077,25.923513,23.551077,15.058661,20.104174,31.344778,8.815417,10.674238,8.972178,4.185947,-15.488090,20.610909,25.433008,17.801306,17.065613,25.099003,8.598328,25.037832,-17.116690,9.523261,31.741566,11.554799,14.926889,19.006174,15.195359,15.625638,45.360512,18.531887,-17.027927,0.000000,195.000000,4.000000,,,,0.000000,4.000000,4.000000,4.000000,4.000000,4.000000,4.000000,4.000000,2.000000,4.000000,4.000000,4.000000,4.000000,4.000000,4.000000,4.000000,4.000000,4.000000,4.000000,4.000000,4.000000,4.000000,4.000000,4.000000,4.000000,4.000000,4.000000,4.000000,4.000000,4.000000,4.000000,4.000000,4.000000,83.333336
1614942978.538046,26.000000,0.000000,8.138681,17.535172,14.468343,16.388672,24.871948,23.014706,15.043603,20.084068,31.826254,19.063013,19.381512,7.937566,11.361248,-6.241832,27.256964,36.176807,21.373249,23.202394,25.586725,19.871780,26.038435,-15.048290,11.565020,31.709824,11.030424,15.937604,19.499989,14.667343,12.533090,45.315151,15.436432,-17.010899,0.000000,207.000000,4.000000,,,,0.000000,4.000000,4.000000,4.000000,4.000000,4.000000,4.000000,4.000000,2.000000,4.000000,4.000000,4.000000,4.000000,4.000000,4.000000,4.000000,4.000000,4.000000,4.000000,4.000000,4.000000,4.000000,4.000000,4.000000,4.000000,4.000000,4.000000,4.000000,4.000000,4.000000,4.000000,4.000000,4.000000,83.333336
1614942978.545694,27.000000,0.000000,7.104902,18.030457,12.915413,16.372284,22.795794,23.504513,15.028560,20.063986,30.255966,30.838821,21.413412,7.929628,13.913989,-9.312513,28.768167,42.294476,22.377516,27.794577,28.638062,21.390369,28.063679,-15.546062,7.963711,31.165295,12.045034,15.408846,16.916386,15.165497,8.417993,45.782654,16.446636,-10.840042,0.000000,180.000000,4.000000,,,,0.000000,4.000000,4.000000,4.000000,4.000000,4.000000,4.000000,4.000000,2.000000,4.000000,4.000000,4.000000,4.000000,4.000000,4.000000,4.000000,4.000000,4.000000,4.000000,4.000000,4.000000,4.000000,4.000000,4.000000,4.000000,4.000000,4.000000,4.000000,4.000000,4.000000,4.000000,4.000000,4.000000,83.333336
1614942978.553543,28.000000,0.000000,7.610618,18.012426,10.851215,16.355911,21.234537,23.481007,15.013531,20.043921,24.071863,28.756701,21.904819,8.947340,21.079563,-4.687816,38.995811,42.764999,23.893600,29.305243,35.276089,25.984364,25.471514,-14.504875,10.007030,33.185410,12.032990,15.393436,15.873828,14.637510,7.383934,45.224052,16.430189,-10.316381,0.000000,175.000000,4.000000,,,,0.000000,4.000000,4.000000,4.000000,4.000000,4.000000,4.000000,4.000000,2.000000,4.000000,4.000000,4.000000,4.000000,4.000000,4.000000,4.000000,4.000000,4.000000,4.000000,4.000000,4.000000,4.000000,4.000000,4.000000,4.000000,4.000000,4.000000,4.000000,4.000000,4.000000,4.000000,4.000000,4.000000,83.333336
1614942978.561292,29.000000,0.000000,10.167109,17.994415,10.327543,16.339556,23.777405,22.944706,14.998517,20.023876,19.945229,20.522816,25.985479,13.553777,31.314894,13.778410,58.956814,55.029930,39.767143,42.096451,46.010044,40.830173,25.446041,-4.233960,23.843176,32.126583,11.508136,15.890863,22.524620,16.161335,7.889370,45.691647,15.388119,-13.382989,0.000000,182.000000,4.000000,,,,0.000000,4.000000,4.000000,4.000000,4.000000,4.000000,4.000000,4.000000,2.000000,4.000000,4.000000,4.000000,4.000000,4.000000,4.000000,4.000000,4.000000,4.000000,4.000000,4.000000,4.000000,4.000000,4.000000,4.000000,4.000000,4.000000,4.000000,4.000000,4.000000,4.000000,4.000000,4.000000,4.000000,83.333336
1614942978.569141,30.000000,0.000000,11.695404,17.976419,10.830036,16.323215,28.881832,23.947403,14.983519,20.003853,19.925283,19.476652,29.549238,19.694069,33.334862,20.431299,61.974781,63.692848,49.470966,50.772305,49.040958,37.712421,24.907776,3.462581,31.511641,32.094456,12.009448,15.362152,27.630301,18.709276,7.881481,45.645958,15.885550,-13.369606,0.000000,181.000000,4.000000,,,,0.000000,4.000000,4.000000,4.000000,4.000000,4.000000,4.000000,4.000000,2.000000,4.000000,4.000000,4.000000,4.000000,4.000000,4.000000,4.000000,4.000000,4.000000,4.000000,4.000000,4.000000,4.000000,4.000000,4.000000,4.000000,4.000000,4.000000,4.000000,4.000000,4.000000,4.000000,4.000000,4.000000,83.333336
1614942978.576891,31.000000,0.000000,11.170888,17.958445,10.819206,16.306892,28.852951,23.410635,14.968535,19.983849,20.418179,19.969995,26.442764,19.674376,23.045115,2.974970,44.476910,48.244537,40.703545,35.849735,31.556019,15.623427,5.908508,-15.515240,23.275002,31.549543,11.484618,13.295508,24.012928,18.177746,7.360778,43.036209,15.869665,-12.330595,0.000000,163.000000,4.000000,,,,0.000000,4.000000,4.000000,4.000000,4.000000,4.000000,4.000000,4.000000,2.000000,4.000000,4.000000,4.000000,4.000000,4.000000,4.000000,4.000000,4.000000,4.000000,4.000000,4.000000,4.000000,4.000000,4.000000,4.000000,4.000000,4.000000,4.000000,4.000000,4.000000,4.000000,4.000000,4.000000,4.000000,83.333336
1614942978.584739,32.000000,0.000000,10.646896,17.940485,10.808387,16.290586,26.259995,18.771839,14.953567,19.451044,19.884939,18.411564,17.185553,16.064957,6.611814,-16.515184,20.842688,21.016808,33.996174,17.865168,6.396257,-3.879376,-22.815350,-44.730495,11.456854,22.287224,6.344929,11.230930,17.322248,15.595466,7.866238,40.941891,15.853796,-12.831085,8064.000000,0.000000,4.000000,,,,0.000000,4.000000,4.000000,4.000000,4.000000,4.000000,4.000000,4.000000,2.000000,4.000000,4.000000,4.000000,4.000000,4.000000,4.000000,4.000000,4.000000,4.000000,4.000000,4.000000,4.000000,4.000000,4.000000,4.000000,4.000000,4.000000,4.000000,4.000000,4.000000,4.000000,4.000000,4.000000,4.000000,83.333336
1614942978.592488,33.000000,0.000000,11.149071,17.922544,10.797579,16.274296,26.233736,15.676145,14.938613,16.354671,20.377874,19.418793,6.399137,12.459148,-5.189670,-26.755079,-0.203796,1.508611,24.731411,8.103713,-9.507575,-21.824215,-38.177151,-61.608841,6.830012,10.470065,2.236020,11.732520,14.228003,14.554230,7.858372,41.413769,15.837942,-12.818254,8064.000000,0.000000,4.000000,,,,0.000000,4.000000,4.000000,4.000000,4.000000,4.000000,4.000000,4.000000,2.000000,4.000000,4.000000,4.000000,4.000000,4.000000,4.000000,4.000000,4.000000,4.000000,4.000000,4.000000,4.000000,4.000000,4.000000,4.000000,4.000000,4.000000,4.000000,4.000000,4.000000,4.000000,4.000000,4.000000,4.000000,83.333336
1614942978.600337,34.000000,0.000000,12.163563,17.904623,10.786781,16.770842,25.694681,16.173288,13.898033,13.261394,18.819035,15.809631,0.238891,6.292843,-12.363967,-35.959095,-13.024105,-7.210846,0.604115,-8.827467,-19.754477,-33.597263,-37.626152,-72.316460,3.233439,4.818569,-1.355960,11.207967,12.162493,15.052496,7.850513,39.321072,15.822104,-13.318256,8064.000000,0.000000,4.000000,,,,0.000000,4.000000,4.000000,4.000000,4.000000,4.000000,4.000000,4.000000,2.000000,4.000000,4.000000,4.000000,4.000000,4.000000,4.000000,4.000000,4.000000,4.000000,4.000000,4.000000,4.000000,4.000000,4.000000,4.000000,4.000000,4.000000,4.000000,4.000000,4.000000,4.000000,4.000000,4.000000,4.000000,83.333336
1614942978.608086,35.000000,0.000000,10.100117,17.886717,10.775994,14.702788,22.592064,16.157116,10.807212,12.222490,16.748934,8.101514,-2.838270,0.645525,-14.915706,-46.692368,-17.626465,-11.306200,-7.601618,-18.562229,-16.657801,-22.794434,-22.203909,-68.654404,0.666103,2.762468,-2.380245,11.196759,10.611868,15.037443,7.842663,36.204830,14.267820,-13.304937,8064.000000,0.000000,4.000000,,,,0.000000,4.000000,4.000000,4.000000,4.000000,4.000000,4.000000,4.000000,2.000000,4.000000,4.000000,4.000000,4.000000,4.000000,4.000000,4.000000,4.000000,4.000000,4.000000,4.000000,4.000000,4.000000,4.000000,4.000000,4.000000,4.000000,4.000000,4.000000,4.000000,4.000000,4.000000,4.000000,4.000000,83.333336
1614942978.615934,36.000000,0.000000,11.628478,17.868832,10.765219,12.636804,22.056650,13.064035,10.796405,12.723089,16.219364,12.708797,-3.348253,3.208982,-6.695662,-49.722595,-11.967813,-7.192329,8.816240,-0.594949,8.999884,2.869386,6.023422,-39.354980,4.768001,7.887911,9.929828,13.749665,10.601256,15.022406,7.834820,42.322468,12.202271,-11.753171,8064.000000,0.000000,4.000000,,,,0.000000,4.000000,4.000000,4.000000,4.000000,4.000000,4.000000,4.000000,2.000000,4.000000,4.000000,4.000000,4.000000,4.000000,4.000000,4.000000,4.000000,4.000000,4.000000,4.000000,4.000000,4.000000,4.000000,4.000000,4.000000,4.000000,4.000000,4.000000,4.000000,4.000000,4.000000,4.000000,4.000000,83.333336
1614942978.623683,37.000000,0.000000,16.745054,17.850962,10.754454,12.111346,22.547415,12.025331,14.375352,12.197545,16.203146,27.055063,2.808942,9.872439,8.182829,-35.826721,12.146719,12.814863,20.089476,24.533852,36.683193,23.379337,30.632784,-13.161777,14.506823,25.315920,22.740410,15.274377,14.693219,15.007383,7.826986,52.023735,11.677248,-12.767059,8064.000000,0.000000,4.000000,,,,0.000000,4.000000,4.000000,4.000000,4.000000,4.000000,4.000000,4.000000,2.000000,4.000000,4.000000,4.000000,4.000000,4.000000,4.000000,4.000000,4.000000,4.000000,4.000000,4.000000,4.000000,4.000000,4.000000,4.000000,4.000000,4.000000,4.000000,4.000000,4.000000,4.000000,4.000000,4.000000,4.000000,83.333336
1614942978.631532,38.000000,0.000000,15.702669,17.833111,10.743699,12.612056,22.524868,14.577407,16.925079,12.185348,16.699762,30.617750,14.088184,11.913849,14.841312,-9.637047,41.878162,40.494354,23.146309,40.406754,48.441380,36.176472,42.397022,-7.507590,18.594879,39.136757,18.615107,16.284744,17.755449,14.992376,7.306338,51.458893,11.665570,-13.267113,8064.000000,0.000000,4.000000,,,,0.000000,4.000000,4.000000,4.000000,4.000000,4.000000,4.000000,4.000000,2.000000,4.000000,4.000000,4.000000,4.000000,4.000000,4.000000,4.000000,4.000000,4.000000,4.000000,4.000000,4.000000,4.000000,4.000000,4.000000,4.000000,4.000000,4.000000,4.000000,4.000000,4.000000,4.000000,4.000000,4.000000,83.333336
1614942978.639280,39.000000,0.000000,8.507479,17.815277,10.732955,12.599443,21.989521,16.614113,15.882513,12.685983,19.247166,20.843544,21.766403,12.414756,13.288010,10.885410,55.169617,56.351299,30.815470,53.699680,55.572426,42.806961,49.021294,2.243507,17.550644,39.610443,24.237516,18.319740,19.276155,14.464563,8.324673,49.356152,13.192367,-5.561538,8064.000000,0.000000,4.000000,,,,0.000000,4.000000,4.000000,4.000000,4.000000,4.000000,4.000000,4.000000,2.000000,4.000000,4.000000,4.000000,4.000000,4.000000,4.000000,4.000000,4.000000,4.000000,4.000000,4.000000,4.000000,4.000000,4.000000,4.000000,4.000000,4.000000,4.000000,4.000000,4.000000,4.000000,4.000000,4.000000,4.000000,83.333336
1614942978.647129,40.000000,0.000000,6.447690,17.797462,11.235043,12.586844,22.993174,16.084677,14.328169,12.160477,20.766380,19.797058,26.360022,14.966444,14.300363,18.054012,57.165730,58.859047,34.374397,59.799828,60.645058,44.302616,48.459450,15.061776,18.045914,39.570831,45.751740,19.839882,22.846622,14.962919,11.393271,55.460640,15.743277,-2.991874,8192.000000,0.000000,4.000000,,,,0.000000,4.000000,4.000000,4.000000,4.000000,4.000000,4.000000,4.000000,2.000000,4.000000,4.000000,4.000000,4.000000,4.000000,4.000000,4.000000,4.000000,4.000000,4.000000,4.000000,4.000000,4.000000,4.000000,4.000000,4.000000,4.000000,4.000000,4.000000,4.000000,4.000000,4.000000,4.000000,4.000000,83.333336
1614942978.654877,41.000000,0.000000,7.466883,17.779665,10.710987,12.061437,22.970181,16.068592,15.339482,12.661137,20.232794,29.520851,30.436226,16.489939,14.798882,17.523138,58.134205,58.800190,34.852844,57.688744,59.558773,45.283955,43.282787,16.072355,18.540688,40.044083,41.090603,18.794401,26.413519,15.460776,11.894698,51.815437,14.701892,-15.296575,8064.000000,0.000000,4.000000,,,,0.000000,4.000000,4.000000,4.000000,4.000000,4.000000,4.000000,4.000000,2.000000,4.000000,4.000000,4.000000,4.000000,4.000000,4.000000,4.000000,4.000000,4.000000,4.000000,4.000000,4.000000,4.000000,4.000000,4.000000,4.000000,4.000000,4.000000,4.000000,4.000000,4.000000,4.000000,4.000000,4.000000,83.333336
1614942978.662626,42.000000,0.000000,7.972236,17.761885,10.700276,13.075016,21.921570,16.052525,14.811322,14.699758,20.725380,33.593895,32.457073,18.011909,13.758443,19.556896,59.614532,60.792671,40.459019,59.682339,59.499214,42.674568,41.188221,15.543463,18.009327,38.978397,17.972589,18.775608,26.387106,13.906855,8.805881,39.968750,12.123088,-25.024868,8192.000000,0.000000,4.000000,,,,0.000000,4.000000,4.000000,4.000000,4.000000,4.000000,4.000000,4.000000,2.000000,4.000000,4.000000,4.000000,4.000000,4.000000,4.000000,4.000000,4.000000,4.000000,4.000000,4.000000,4.000000,4.000000,4.000000,4.000000,4.000000,4.000000,4.000000,4.000000,4.000000,4.000000,4.000000,4.000000,4.000000,83.333336
1614942978.670375,43.000000,0.000000,9.502726,17.744123,11.202396,15.626044,22.412468,16.036472,14.283690,16.736340,20.704655,34.585941,33.963078,20.045181,14.257504,20.050159,59.042095,58.680595,43.495480,53.981628,53.798687,29.298559,30.377802,9.374073,18.504139,40.990700,14.877695,19.782473,27.386360,15.431409,7.771434,39.928783,11.598145,-23.974201,8192.000000,0.000000,4.000000,,,,0.000000,4.000000,4.000000,4.000000,4.000000,4.000000,4.000000,4.000000,2.000000,4.000000,4.000000,4.000000,4.000000,4.000000,4.000000,4.000000,4.000000,4.000000,4.000000,4.000000,4.000000,4.000000,4.000000,4.000000,4.000000,4.000000,4.000000,4.000000,4.000000,4.000000,4.000000,4.000000,4.000000,83.333336
1614942978.678223,44.000000,0.000000,11.544505,17.726379,10.165553,16.636059,23.415697,16.020435,15.295048,16.206783,17.094208,34.038536,27.262445,18.999495,13.730427,3.619854,45.649723,42.724480,42.426346,29.825083,28.616686,8.756440,-1.447448,-17.814789,16.434353,31.206120,10.760253,16.685766,24.282051,21.057003,7.763662,43.991417,12.099366,-22.411766,8064.000000,0.000000,4.000000,,,,0.000000,4.000000,4.000000,4.000000,4.000000,4.000000,4.000000,4.000000,2.000000,4.000000,4.000000,4.000000,4.000000,4.000000,4.000000,4.000000,4.000000,4.000000,4.000000,4.000000,4.000000,4.000000,4.000000,4.000000,4.000000,4.000000,4.000000,4.000000,4.000000,4.000000,4.000000,4.000000,4.000000,83.333336
1614942978.685971,45.000000,0.000000,11.020140,17.708652,5.540003,14.055321,16.212793,16.004416,13.741291,16.190577,12.974548,16.568600,9.286466,15.903572,7.050030,-21.511971,23.039968,20.630474,38.794174,7.231156,0.895761,-9.713855,-31.189590,-48.566204,14.879457,7.072350,-15.404353,12.053697,13.488538,19.497484,5.191796,38.819221,12.087267,-24.440636,8064.000000,0.000000,4.000000,,,,0.000000,4.000000,4.000000,4.000000,4.000000,4.000000,4.000000,4.000000,2.000000,4.000000,4.000000,4.000000,4.000000,4.000000,4.000000,4.000000,4.000000,4.000000,4.000000,4.000000,4.000000,4.000000,4.000000,4.000000,4.000000,4.000000,4.000000,4.000000,4.000000,4.000000,4.000000,4.000000,4.000000,83.333336
1614942978.693620,46.000000,0.000000,11.009120,17.690945,2.457540,11.989983,7.478632,15.988410,11.676268,16.174385,12.448753,-0.883867,-4.056154,15.374847,-0.649328,-29.182768,8.145134,9.840612,27.473330,-0.468383,-11.412827,-25.601576,-40.901989,-60.825329,13.326116,-8.832159,-28.722282,9.990361,5.269921,11.785680,3.648143,37.754761,12.075180,-23.903376,8064.000000,0.000000,4.000000,,,,0.000000,4.000000,4.000000,4.000000,4.000000,4.000000,4.000000,4.000000,2.000000,4.000000,4.000000,4.000000,4.000000,4.000000,4.000000,4.000000,4.000000,4.000000,4.000000,4.000000,4.000000,4.000000,4.000000,4.000000,4.000000,4.000000,4.000000,4.000000,4.000000,4.000000,4.000000,4.000000,4.000000,83.333336
1614942978.701368,47.000000,0.000000,10.485291,17.673254,3.480723,12.490813,9.522435,15.972422,12.690232,16.158211,12.949125,10.399069,-3.539277,15.872293,-4.238422,-27.615122,0.957502,6.753849,14.625343,-4.570478,-18.580902,-36.858025,-42.912369,-65.892708,6.646122,-7.284865,-19.975611,10.493191,6.803113,10.235433,3.644495,40.793930,12.063105,-23.366652,8064.000000,0.000000,4.000000,,,,0.000000,4.000000,4.000000,4.000000,4.000000,4.000000,4.000000,4.000000,2.000000,4.000000,4.000000,4.000000,4.000000,4.000000,4.000000,4.000000,4.000000,4.000000,4.000000,4.000000,4.000000,4.000000,4.000000,4.000000,4.000000,4.000000,4.000000,4.000000,4.000000,4.000000,4.000000,4.000000,4.000000,83.333336
1614942978.709017,48.000000,0.000000,10.474805,17.655581,3.477242,12.478323,14.641118,15.956450,15.241645,15.629232,11.910535,26.286106,-1.997276,12.779498,-8.336748,-37.843918,-5.710122,-0.945213,11.533795,-8.668472,-21.639244,-33.744244,-38.766895,-67.878098,2.024092,-6.251939,-13.288969,11.508339,7.309130,10.738017,3.128030,40.753136,12.051042,-23.343285,8064.000000,0.000000,4.000000,,,,0.000000,4.000000,4.000000,4.000000,4.000000,4.000000,4.000000,4.000000,2.000000,4.000000,4.000000,4.000000,4.000000,4.000000,4.000000,4.000000,4.000000,4.000000,4.000000,4.000000,4.000000,4.000000,4.000000,4.000000,4.000000,4.000000,4.000000,4.000000,4.000000,4.000000,4.000000,4.000000,4.000000,83.333336
1614942978.716765,49.000000,0.000000,11.489971,17.637924,2.960945,11.953024,15.139297,15.940493,14.713583,15.613603,12.924266,19.593153,-6.097843,8.151334,-13.456616,-47.549664,-9.294156,-7.610934,14.086364,-8.659803,-13.925297,-19.351526,-16.164024,-56.015350,2.022068,-9.322611,-13.275681,11.496831,5.763360,7.650356,4.663363,40.712379,12.038991,-23.319941,8064.000000,0.000000,4.000000,,,,0.000000,4.000000,4.000000,4.000000,4.000000,4.000000,4.000000,4.000000,2.000000,4.000000,4.000000,4.000000,4.000000,4.000000,4.000000,4.000000,4.000000,4.000000,4.000000,4.000000,4.000000,4.000000,4.000000,4.000000,4.000000,4.000000,4.000000,4.000000,4.000000,4.000000,4.000000,4.000000,4.000000,83.333336
1614942978.724413,50.000000,0.000000,10.452840,17.620287,2.957984,12.453891,14.098517,15.411732,14.186049,16.110809,11.885700,10.342791,-11.219951,6.604721,-14.981622,-48.527756,-8.772041,-7.090503,12.533816,-7.112682,-3.142141,-11.639867,10.518806,-37.497795,1.507225,-0.082519,-8.134199,9.946873,15.501185,10.206808,6.709982,42.722950,11.514132,-23.809441,8064.000000,0.000000,4.000000,,,,0.000000,4.000000,4.000000,4.000000,4.000000,4.000000,4.000000,4.000000,2.000000,4.000000,4.000000,4.000000,4.000000,4.000000,4.000000,4.000000,4.000000,4.000000,4.000000,4.000000,4.000000,4.000000,4.000000,4.000000,4.000000,4.000000,4.000000,4.000000,4.000000,4.000000,4.000000,4.000000,4.000000,83.333336
1614942978.732162,51.000000,0.000000,9.929566,17.602667,2.442205,11.415796,14.084418,15.909141,14.684683,15.069058,7.771251,12.896550,-6.080525,7.623757,-7.274332,-45.402306,-0.045320,2.660177,14.059744,5.714943,13.271257,-6.500022,29.482647,-17.460299,9.710846,15.815000,6.232909,19.167694,29.844660,16.863268,7.216093,44.218689,11.502617,-24.298452,8064.000000,0.000000,4.000000,,,,0.000000,4.000000,4.000000,4.000000,4.000000,4.000000,4.000000,4.000000,2.000000,4.000000,4.000000,4.000000,4.000000,4.000000,4.000000,4.000000,4.000000,4.000000,4.000000,4.000000,4.000000,4.000000,4.000000,4.000000,4.000000,4.000000,4.000000,4.000000,4.000000,4.000000,4.000000,4.000000,4.000000,83.333336
1614942978.739810,52.000000,0.000000,17.099125,17.585064,2.952584,12.942842,17.147257,17.431694,14.669998,19.156553,10.840403,16.986217,14.438375,14.282800,15.297045,-26.895363,25.082930,27.272902,27.891838,33.401535,42.488754,19.147503,48.940342,9.223829,32.265236,25.029955,24.175394,37.610065,38.019943,19.923328,10.798620,49.815498,12.003935,-20.171591,8064.000000,0.000000,4.000000,,,,0.000000,4.000000,4.000000,4.000000,4.000000,4.000000,4.000000,4.000000,2.000000,4.000000,4.000000,4.000000,4.000000,4.000000,4.000000,4.000000,4.000000,4.000000,4.000000,4.000000,4.000000,4.000000,4.000000,4.000000,4.000000,4.000000,4.000000,4.000000,4.000000,4.000000,4.000000,4.000000,4.000000,83.333336
1614942978.747558,53.000000,0.000000,25.799974,17.054659,4.488092,18.058104,23.796778,19.465544,14.655329,27.342525,21.085972,18.507692,34.936756,25.037748,38.871490,5.952045,54.288616,56.989220,47.863945,54.393776,63.471909,48.359123,57.609352,28.188965,45.053486,34.235695,32.869167,39.623737,39.520386,21.954687,17.454489,55.406708,11.479111,-16.048855,8064.000000,0.000000,4.000000,,,,0.000000,4.000000,4.000000,4.000000,4.000000,4.000000,4.000000,4.000000,2.000000,4.000000,4.000000,4.000000,4.000000,4.000000,4.000000,4.000000,4.000000,4.000000,4.000000,4.000000,4.000000,4.000000,4.000000,4.000000,4.000000,4.000000,4.000000,4.000000,4.000000,4.000000,4.000000,4.000000,4.000000,83.333336
1614942978.755206,54.000000,0.000000,24.748533,17.550425,1.919502,20.091328,26.849903,19.446077,14.640673,31.417746,25.167450,17.463545,43.106949,30.653736,48.576210,24.920452,69.106125,68.214279,56.534031,55.877842,63.921257,50.874870,42.167126,26.109493,37.828945,47.021969,29.759375,23.686678,31.275736,21.419912,19.488316,55.864120,11.980452,-16.545626,8064.000000,0.000000,4.000000,,,,0.000000,4.000000,4.000000,4.000000,4.000000,4.000000,4.000000,4.000000,2.000000,4.000000,4.000000,4.000000,4.000000,4.000000,4.000000,4.000000,4.000000,4.000000,4.000000,4.000000,4.000000,4.000000,4.000000,4.000000,4.000000,4.000000,4.000000,4.000000,4.000000,4.000000,4.000000,4.000000,4.000000,83.333336
1614942978.762955,55.000000,0.000000,21.134041,20.096977,3.968864,19.558416,26.310232,19.426632,14.626032,30.360687,23.603821,20.523005,44.089485,30.623083,49.040455,24.895531,70.062660,66.607605,53.400574,53.257862,62.318874,43.644508,27.253166,14.288512,29.585987,44.410847,27.678333,17.509146,17.398306,18.834389,18.443186,54.782616,16.583857,-12.939337,8064.000000,0.000000,4.000000,,,,0.000000,4.000000,4.000000,4.000000,4.000000,4.000000,4.000000,4.000000,2.000000,4.000000,4.000000,4.000000,4.000000,4.000000,4.000000,4.000000,4.000000,4.000000,4.000000,4.000000,4.000000,4.000000,4.000000,4.000000,4.000000,4.000000,4.000000,4.000000,4.000000,4.000000,4.000000,4.000000,4.000000,83.333336
1614942978.770603,56.000000,0.000000,22.138548,21.615341,15.759768,22.102961,26.796743,19.407206,14.611406,30.843147,24.605858,35.374275,40.455650,31.105280,44.888851,27.434738,68.966957,68.079460,52.834351,55.768707,61.230915,44.626503,23.636169,4.530634,30.582043,30.520281,26.112194,23.645481,17.893728,20.354015,18.937563,55.753475,21.695477,-5.234090,8192.000000,0.000000,4.000000,,,,0.000000,4.000000,4.000000,4.000000,4.000000,4.000000,4.000000,4.000000,2.000000,4.000000,4.000000,4.000000,4.000000,4.000000,4.000000,4.000000,4.000000,4.000000,4.000000,4.000000,4.000000,4.000000,4.000000,4.000000,4.000000,4.000000,4.000000,4.000000,4.000000,4.000000,4.000000,4.000000,4.000000,83.333336
1614942978.778351,57.000000,0.000000,22.116409,21.080906,20.359392,23.619320,25.231485,19.387798,14.596795,32.350765,21.504330,41.492748,31.184425,28.510073,32.536270,21.253458,60.692860,60.319073,51.243057,48.020630,39.631222,31.248543,8.740738,-10.858512,26.961718,28.438478,16.342491,21.057734,25.568142,21.359303,17.380165,52.107975,23.212244,-4.716035,8064.000000,0.000000,4.000000,,,,0.000000,4.000000,4.000000,4.000000,4.000000,4.000000,4.000000,4.000000,2.000000,4.000000,4.000000,4.000000,4.000000,4.000000,4.000000,4.000000,4.000000,4.000000,4.000000,4.000000,4.000000,4.000000,4.000000,4.000000,4.000000,4.000000,4.000000,4.000000,4.000000,4.000000,4.000000,4.000000,4.000000,83.333336
1614942978.785999,58.000000,0.000000,18.504549,21.059824,10.595443,19.493135,20.078049,19.368410,14.582198,29.241491,16.867441,26.579460,20.896832,24.378998,10.452450,-6.460104,32.427036,30.515163,34.268738,20.280302,7.283898,-1.090398,-23.575695,-38.539963,13.601422,25.845938,2.992816,12.318727,13.747703,16.722559,14.798681,45.389202,23.189032,-10.865166,8064.000000,0.000000,4.000000,,,,0.000000,4.000000,4.000000,4.000000,4.000000,4.000000,4.000000,4.000000,2.000000,4.000000,4.000000,4.000000,4.000000,4.000000,4.000000,4.000000,4.000000,4.000000,4.000000,4.000000,4.000000,4.000000,4.000000,4.000000,4.000000,4.000000,4.000000,4.000000,4.000000,4.000000,4.000000,4.000000,4.000000,83.333336
1614942978.793848,59.000000,0.000000,16.947584,21.038765,6.482284,15.371078,19.032330,18.836222,14.567616,27.673788,16.337753,14.758009,13.183626,22.303337,-7.506721,-29.530567,1.625380,3.817981,14.234468,-9.996387,-15.287489,-25.704693,-49.193146,-69.783470,3.844231,5.307271,-4.702484,7.691024,-2.163481,13.628914,14.783883,42.779709,22.653021,-12.905582,8064.000000,0.000000,4.000000,,,,0.000000,4.000000,4.000000,4.000000,4.000000,4.000000,4.000000,4.000000,2.000000,4.000000,4.000000,4.000000,4.000000,4.000000,4.000000,4.000000,4.000000,4.000000,4.000000,4.000000,4.000000,4.000000,4.000000,4.000000,4.000000,4.000000,4.000000,4.000000,4.000000,4.000000,4.000000,4.000000,4.000000,83.333336
1614942978.801597,60.000000,0.000000,18.981918,21.017725,13.142467,15.355707,16.449194,19.330206,14.553048,27.646114,14.782953,14.743251,5.478135,20.229752,-14.165880,-33.603600,-7.607015,-3.878145,9.092029,-20.242802,-16.810663,-33.371296,-52.733696,-84.585487,5.891668,-11.621113,-4.697782,7.170513,1.428426,14.640925,14.769099,43.249752,22.630369,-12.379856,7936.000000,0.000000,4.000000,,,,0.000000,4.000000,4.000000,4.000000,4.000000,4.000000,4.000000,4.000000,2.000000,4.000000,4.000000,4.000000,4.000000,4.000000,4.000000,4.000000,4.000000,4.000000,4.000000,4.000000,4.000000,4.000000,4.000000,4.000000,4.000000,4.000000,4.000000,4.000000,4.000000,4.000000,4.000000,4.000000,4.000000,83.333336
1614942978.809446,61.000000,0.000000,16.911654,21.509529,15.180608,15.853172,8.227616,19.310875,15.051315,19.926161,10.152786,10.625943,-1.194010,13.030034,-18.254278,-41.262306,-15.804536,-10.540933,4.467552,-19.196918,-16.281031,-41.543053,-48.578400,-85.526543,6.911418,-9.558209,-3.154623,6.650522,10.657766,14.626285,14.754330,43.719322,23.120558,-11.854655,7936.000000,0.000000,4.000000,,,,0.000000,4.000000,4.000000,4.000000,4.000000,4.000000,4.000000,4.000000,2.000000,4.000000,4.000000,4.000000,4.000000,4.000000,4.000000,4.000000,4.000000,4.000000,4.000000,4.000000,4.000000,4.000000,4.000000,4.000000,4.000000,4.000000,4.000000,4.000000,4.000000,4.000000,4.000000,4.000000,4.000000,83.333336
1614942978.817195,62.000000,0.000000,9.202435,20.462378,13.626966,15.324498,2.065543,16.727463,13.497803,7.085722,8.091352,3.435830,-6.321021,2.760594,-29.518076,-58.656940,-39.378475,-22.838085,-8.870250,-24.305925,-18.316032,-44.065613,-49.555462,-83.389732,-0.274981,-5.958908,-6.741211,7.156692,10.647109,14.098838,14.739575,42.649963,21.046156,-14.406903,8064.000000,0.000000,4.000000,,,,0.000000,4.000000,4.000000,4.000000,4.000000,4.000000,4.000000,4.000000,2.000000,4.000000,4.000000,4.000000,4.000000,4.000000,4.000000,4.000000,4.000000,4.000000,4.000000,4.000000,4.000000,4.000000,4.000000,4.000000,4.000000,4.000000,4.000000,4.000000,4.000000,4.000000,4.000000,4.000000,4.000000,83.333336
