title:23, start timestamp:1614945700.750408, stop timestamp:1614945746.813455, headset type:EPOCFLEX, headset serial:F00001ED, headset firmware:f12, subject name:s17, channels:75, sampling rate:128, samples:5944      , version:2.0
Timestamp,EEG.Counter,EEG.Interpolated,EEG.Cz,EEG.Fz,EEG.Fp1,EEG.AF3,EEG.F7,EEG.F3,EEG.FC1,EEG.C3,EEG.FC5,EEG.T7,EEG.CP5,EEG.CP1,EEG.P3,EEG.P7,EEG.PO3,EEG.O1,EEG.Pz,EEG.Oz,EEG.O2,EEG.PO4,EEG.P8,EEG.P4,EEG.CP2,EEG.CP6,EEG.T8,EEG.FC6,EEG.C4,EEG.FC2,EEG.F4,EEG.F8,EEG.AF4,EEG.Fp2,EEG.HighBitFlex,EEG.RawCq,EEG.Battery,MarkerIndex,MarkerType,MarkerValueInt,EEG.MarkerHardware,CQ.Cz,CQ.Fz,CQ.Fp1,CQ.AF3,CQ.F7,CQ.F3,CQ.FC1,CQ.C3,CQ.FC5,CQ.T7,CQ.CP5,CQ.CP1,CQ.P3,CQ.P7,CQ.PO3,CQ.O1,CQ.Pz,CQ.Oz,CQ.O2,CQ.PO4,CQ.P8,CQ.P4,CQ.CP2,CQ.CP6,CQ.T8,CQ.FC6,CQ.C4,CQ.FC2,CQ.F4,CQ.F8,CQ.AF4,CQ.Fp2,CQ.Overall
1614945700.750408,85.000000,0.000000,29.153509,22.787245,10.847483,18.351900,30.760622,21.990210,33.019485,35.970760,29.720963,36.638519,39.304199,36.270218,4.400784,1.944197,35.429764,53.573719,55.435593,68.474945,61.657143,36.496849,23.217785,24.182333,36.755089,51.506733,49.289955,43.502266,36.711536,41.348072,30.164282,19.022120,25.916744,11.443344,0.000000,179.000000,4.000000,,,,0.000000,4.000000,4.000000,4.000000,2.000000,4.000000,4.000000,4.000000,4.000000,4.000000,4.000000,4.000000,4.000000,4.000000,4.000000,4.000000,4.000000,4.000000,4.000000,4.000000,4.000000,4.000000,4.000000,4.000000,4.000000,4.000000,4.000000,4.000000,4.000000,4.000000,4.000000,4.000000,4.000000,83.333336
1614945700.758058,86.000000,0.000000,27.073074,24.302919,6.734072,18.846369,26.627296,20.942579,32.986465,41.575817,31.742525,36.089058,42.854637,39.310871,10.550230,11.173022,48.727669,79.161171,55.892979,73.021858,54.928818,33.383427,16.015081,20.055586,34.667053,52.993687,44.625282,41.920303,37.187645,40.281082,27.570015,8.746688,26.403648,8.867799,0.000000,210.000000,4.000000,,,,0.000000,4.000000,4.000000,4.000000,2.000000,4.000000,4.000000,4.000000,4.000000,4.000000,4.000000,4.000000,4.000000,4.000000,4.000000,4.000000,4.000000,4.000000,4.000000,4.000000,4.000000,4.000000,4.000000,4.000000,4.000000,4.000000,4.000000,4.000000,4.000000,4.000000,4.000000,4.000000,4.000000,83.333336
1614945700.765807,87.000000,0.000000,27.558823,20.688873,-10.708560,9.596752,11.728875,10.152406,33.466301,43.072704,30.685141,35.027328,46.914345,44.399765,10.539680,16.290054,52.268684,94.979446,54.811443,59.102680,28.720041,14.375686,1.127271,-0.477290,31.555462,46.786846,30.221682,42.391201,36.637634,40.753624,27.029625,5.661018,26.377245,0.140982,0.000000,216.000000,4.000000,,,,0.000000,4.000000,4.000000,4.000000,2.000000,4.000000,4.000000,4.000000,4.000000,4.000000,4.000000,4.000000,4.000000,4.000000,4.000000,4.000000,4.000000,4.000000,4.000000,4.000000,4.000000,4.000000,4.000000,4.000000,4.000000,4.000000,4.000000,4.000000,4.000000,4.000000,4.000000,4.000000,4.000000,83.333336
1614945700.773457,88.000000,0.000000,25.479980,14.001517,-19.415800,1.894848,6.588941,4.501227,32.920013,41.491169,26.551891,36.530766,44.303329,45.381008,3.349653,13.196841,30.677954,67.192162,46.038685,40.582039,2.024656,-12.305357,-17.848215,-29.707582,23.831600,32.381084,17.370947,42.348812,34.036896,40.200050,26.489775,3.091254,19.684200,-4.987364,0.000000,163.000000,4.000000,,,,0.000000,4.000000,4.000000,4.000000,2.000000,4.000000,4.000000,4.000000,4.000000,4.000000,4.000000,4.000000,4.000000,4.000000,4.000000,4.000000,4.000000,4.000000,4.000000,4.000000,4.000000,4.000000,4.000000,4.000000,4.000000,4.000000,4.000000,4.000000,4.000000,4.000000,4.000000,4.000000,4.000000,83.333336
1614945700.781206,89.000000,0.000000,24.428860,16.038797,-8.114333,10.098082,12.223377,8.599290,32.887093,39.911217,27.550980,33.930130,37.079540,41.745884,-9.987030,-3.226612,10.134455,35.330093,36.761875,33.361969,-5.156857,-25.113564,-26.035496,-43.011208,19.705204,21.579473,19.917679,41.793640,31.951576,40.159847,29.027388,5.652266,19.664516,0.658649,0.000000,182.000000,4.000000,,,,0.000000,4.000000,4.000000,4.000000,2.000000,4.000000,4.000000,4.000000,4.000000,4.000000,4.000000,4.000000,4.000000,4.000000,4.000000,4.000000,4.000000,4.000000,4.000000,4.000000,4.000000,4.000000,4.000000,4.000000,4.000000,4.000000,4.000000,4.000000,4.000000,4.000000,4.000000,4.000000,4.000000,83.333336
1614945700.788855,90.000000,0.000000,26.455713,20.125322,-4.003654,17.780291,7.595769,11.667614,33.879848,30.127714,27.523430,20.562866,23.196306,37.088753,-19.207813,-23.223385,7.560218,27.602457,35.186653,26.661940,-8.228622,-24.575630,-29.599203,-43.481018,22.249601,20.532253,20.410582,41.751850,33.458088,41.145329,34.126564,8.723536,24.773058,2.709272,0.000000,207.000000,4.000000,,,,0.000000,4.000000,4.000000,4.000000,2.000000,4.000000,4.000000,4.000000,4.000000,4.000000,4.000000,4.000000,4.000000,4.000000,4.000000,4.000000,4.000000,4.000000,4.000000,4.000000,4.000000,4.000000,4.000000,4.000000,4.000000,4.000000,4.000000,4.000000,4.000000,4.000000,4.000000,4.000000,4.000000,83.333336
1614945700.796605,91.000000,0.000000,24.890797,14.976993,-18.358625,9.557383,-5.745160,10.117485,30.256224,17.277075,12.624111,4.644868,-0.929455,28.333715,-37.137321,-42.174522,-7.319138,9.626137,34.125824,9.199381,-22.579369,-26.602337,-41.877296,-46.001640,21.714531,20.511723,9.620940,38.633175,32.911808,36.488800,31.528336,5.125069,21.671362,-4.985745,0.000000,178.000000,4.000000,,,,0.000000,4.000000,4.000000,4.000000,2.000000,4.000000,4.000000,4.000000,4.000000,4.000000,4.000000,4.000000,4.000000,4.000000,4.000000,4.000000,4.000000,4.000000,4.000000,4.000000,4.000000,4.000000,4.000000,4.000000,4.000000,4.000000,4.000000,4.000000,4.000000,4.000000,4.000000,4.000000,4.000000,83.333336
1614945700.804254,92.000000,0.000000,20.250521,10.859451,-23.981293,3.393979,-7.277876,8.056086,25.097763,14.695695,-0.209026,-0.487982,-16.313141,17.536150,-66.330956,-61.106705,-35.516945,-16.024515,31.527597,-2.604691,-24.608070,-22.473169,-40.296959,-36.212048,24.769739,20.491209,1.919011,33.466335,24.673767,29.785645,24.317320,2.555841,14.470203,-11.134605,0.000000,188.000000,4.000000,,,,0.000000,4.000000,4.000000,4.000000,2.000000,4.000000,4.000000,4.000000,4.000000,4.000000,4.000000,4.000000,4.000000,4.000000,4.000000,4.000000,4.000000,4.000000,4.000000,4.000000,4.000000,4.000000,4.000000,4.000000,4.000000,4.000000,4.000000,4.000000,4.000000,4.000000,4.000000,4.000000,4.000000,83.333336
1614945700.812003,93.000000,0.000000,20.743090,14.951157,-10.623978,9.031610,1.960171,7.535209,25.585485,17.245102,6.457850,1.563788,-10.142982,13.928870,-67.803085,-54.891754,-40.096813,-17.546951,31.496069,-2.089266,-12.788591,-15.271210,-20.256660,-15.150194,31.924458,20.470718,0.891451,30.355946,18.495249,28.217398,22.754541,2.553286,14.455732,-11.123470,0.000000,186.000000,4.000000,,,,0.000000,4.000000,4.000000,4.000000,2.000000,4.000000,4.000000,4.000000,4.000000,4.000000,4.000000,4.000000,4.000000,4.000000,4.000000,4.000000,4.000000,4.000000,4.000000,4.000000,4.000000,4.000000,4.000000,4.000000,4.000000,4.000000,4.000000,4.000000,4.000000,4.000000,4.000000,4.000000,4.000000,83.333336
1614945700.819653,94.000000,0.000000,23.799271,13.910564,-3.946687,11.586681,5.035134,11.630238,25.559900,15.689395,12.092418,0.023763,4.738956,20.068789,-40.555794,-26.631733,-14.415691,6.573159,31.464573,2.528208,-9.698879,-12.179015,-10.492815,-4.878634,34.456635,20.963068,6.531585,29.812769,25.143419,29.214821,23.757427,3.063553,15.466918,-11.112347,0.000000,194.000000,4.000000,,,,0.000000,4.000000,4.000000,4.000000,2.000000,4.000000,4.000000,4.000000,4.000000,4.000000,4.000000,4.000000,4.000000,4.000000,4.000000,4.000000,4.000000,4.000000,4.000000,4.000000,4.000000,4.000000,4.000000,4.000000,4.000000,4.000000,4.000000,4.000000,4.000000,4.000000,4.000000,4.000000,4.000000,83.333336
1614945700.827402,95.000000,0.000000,23.262651,12.358192,-4.968381,10.036633,3.491637,14.695530,23.995878,17.724987,12.080325,1.562201,19.606012,27.228207,-20.002419,-14.810229,18.419237,39.387100,33.997211,20.987219,1.080050,4.243420,-5.866937,6.408296,36.986282,28.121593,26.012234,32.859879,32.810585,29.185606,23.220850,7.675874,15.451451,-10.588414,0.000000,163.000000,4.000000,,,,0.000000,4.000000,4.000000,4.000000,2.000000,4.000000,4.000000,4.000000,4.000000,4.000000,4.000000,4.000000,4.000000,4.000000,4.000000,4.000000,4.000000,4.000000,4.000000,4.000000,4.000000,4.000000,4.000000,4.000000,4.000000,4.000000,4.000000,4.000000,4.000000,4.000000,4.000000,4.000000,4.000000,83.333336
1614945700.835051,96.000000,0.000000,22.726568,18.499680,2.728895,16.693264,10.154813,14.680835,31.664190,28.476494,23.350296,18.483715,35.483841,32.842003,-5.623442,-8.641573,36.862354,58.322071,43.193985,52.761105,30.822559,29.367382,14.651751,26.401888,43.103142,37.837059,44.960579,36.416763,32.777775,31.207703,22.684809,12.796403,18.000103,-5.962441,8064.000000,0.000000,4.000000,,,,0.000000,4.000000,4.000000,4.000000,2.000000,4.000000,4.000000,4.000000,4.000000,4.000000,4.000000,4.000000,4.000000,4.000000,4.000000,4.000000,4.000000,4.000000,4.000000,4.000000,4.000000,4.000000,4.000000,4.000000,4.000000,4.000000,4.000000,4.000000,4.000000,4.000000,4.000000,4.000000,4.000000,83.333336
1614945700.842800,97.000000,0.000000,23.729483,23.609386,10.931293,22.830416,19.888247,17.230257,42.914577,38.191608,37.685921,40.516514,49.294514,41.527111,15.407823,15.982453,46.569084,64.417595,51.355919,71.169884,51.817379,40.107246,32.585815,30.990871,43.572857,40.876148,48.505363,37.918808,32.232174,32.714958,23.174944,14.322068,17.469282,-3.392376,8064.000000,0.000000,4.000000,,,,0.000000,4.000000,4.000000,4.000000,2.000000,4.000000,4.000000,4.000000,4.000000,4.000000,4.000000,4.000000,4.000000,4.000000,4.000000,4.000000,4.000000,4.000000,4.000000,4.000000,4.000000,4.000000,4.000000,4.000000,4.000000,4.000000,4.000000,4.000000,4.000000,4.000000,4.000000,4.000000,4.000000,83.333336
1614945700.850450,98.000000,0.000000,23.192932,20.508854,11.433183,21.269125,23.970922,17.725847,42.358841,39.179054,39.699516,48.681126,57.450348,49.177891,28.725748,34.428009,69.086617,88.968559,55.919945,74.175636,53.816845,39.554317,26.399384,18.652187,39.426720,41.348091,51.020962,39.419350,34.251225,33.195061,23.664589,15.333387,15.400530,-2.876163,8064.000000,0.000000,4.000000,,,,0.000000,4.000000,4.000000,4.000000,2.000000,4.000000,4.000000,4.000000,4.000000,4.000000,4.000000,4.000000,4.000000,4.000000,4.000000,4.000000,4.000000,4.000000,4.000000,4.000000,4.000000,4.000000,4.000000,4.000000,4.000000,4.000000,4.000000,4.000000,4.000000,4.000000,4.000000,4.000000,4.000000,83.333336
1614945700.858199,99.000000,0.000000,23.169739,18.437061,9.883288,18.170933,21.382849,13.092736,36.162636,33.498852,34.531612,41.965778,56.880074,45.026150,19.466253,25.675632,75.171379,98.623184,54.838387,70.511711,46.583538,28.745533,-0.293682,4.787381,33.746269,37.204178,43.790451,37.328648,31.140051,33.161865,23.640924,10.702669,15.897950,-3.898928,8064.000000,0.000000,4.000000,,,,0.000000,4.000000,4.000000,4.000000,2.000000,4.000000,4.000000,4.000000,4.000000,4.000000,4.000000,4.000000,4.000000,4.000000,4.000000,4.000000,4.000000,4.000000,4.000000,4.000000,4.000000,4.000000,4.000000,4.000000,4.000000,4.000000,4.000000,4.000000,4.000000,4.000000,4.000000,4.000000,4.000000,83.333336
1614945700.865848,100.000000,0.000000,23.146570,19.957087,5.258020,18.152761,17.258904,10.515541,36.126476,31.926891,28.856054,35.257145,40.412937,31.647789,-9.783982,2.060214,42.788513,66.216866,39.398933,49.928383,24.485674,-0.513982,-32.601082,-21.371252,21.404831,24.346462,17.592815,26.522089,23.416603,31.590244,23.104464,0.948377,13.830770,-5.946311,8064.000000,0.000000,4.000000,,,,0.000000,4.000000,4.000000,4.000000,2.000000,4.000000,4.000000,4.000000,4.000000,4.000000,4.000000,4.000000,4.000000,4.000000,4.000000,4.000000,4.000000,4.000000,4.000000,4.000000,4.000000,4.000000,4.000000,4.000000,4.000000,4.000000,4.000000,4.000000,4.000000,4.000000,4.000000,4.000000,4.000000,83.333336
1614945700.873697,101.000000,0.000000,23.123423,19.424309,-0.901084,18.134609,15.190362,11.017846,37.115990,33.433426,26.775917,36.247528,21.910988,24.436655,-32.338303,-20.505949,10.438032,33.842957,21.923635,17.570761,-6.820864,-30.257057,-47.440273,-48.016548,14.203938,11.501603,7.831633,19.316080,20.316263,31.045834,23.081360,0.434608,11.252837,-6.966006,8064.000000,0.000000,4.000000,,,,0.000000,4.000000,4.000000,4.000000,2.000000,4.000000,4.000000,4.000000,4.000000,4.000000,4.000000,4.000000,4.000000,4.000000,4.000000,4.000000,4.000000,4.000000,4.000000,4.000000,4.000000,4.000000,4.000000,4.000000,4.000000,4.000000,4.000000,4.000000,4.000000,4.000000,4.000000,4.000000,4.000000,83.333336
1614945700.881446,102.000000,0.000000,23.100300,19.404884,0.638279,17.603653,15.175172,9.981187,36.566051,27.758966,27.261961,34.672821,16.248051,26.463499,-32.305962,-28.690571,11.453235,40.475780,20.363251,-0.908348,-31.429428,-44.585777,-45.341553,-55.148018,19.830759,8.925999,21.669954,24.424969,24.911331,32.553249,23.571098,8.639301,15.856969,-4.394938,8064.000000,0.000000,4.000000,,,,0.000000,4.000000,4.000000,4.000000,2.000000,4.000000,4.000000,4.000000,4.000000,4.000000,4.000000,4.000000,4.000000,4.000000,4.000000,4.000000,4.000000,4.000000,4.000000,4.000000,4.000000,4.000000,4.000000,4.000000,4.000000,4.000000,4.000000,4.000000,4.000000,4.000000,4.000000,4.000000,4.000000,83.333336
1614945700.889296,103.000000,0.000000,23.077198,19.385479,2.688923,18.098869,13.621534,11.509667,36.016666,17.987617,22.619314,22.330456,15.206161,23.360113,-39.965965,-34.302906,-3.942834,19.409666,20.342886,-2.958721,-42.167229,-52.233498,-50.937237,-55.605690,22.375032,9.942714,19.084183,25.939007,24.886419,30.982233,20.983425,10.169124,18.405214,-3.364902,8064.000000,0.000000,4.000000,,,,0.000000,4.000000,4.000000,4.000000,2.000000,4.000000,4.000000,4.000000,4.000000,4.000000,4.000000,4.000000,4.000000,4.000000,4.000000,4.000000,4.000000,4.000000,4.000000,4.000000,4.000000,4.000000,4.000000,4.000000,4.000000,4.000000,4.000000,4.000000,4.000000,4.000000,4.000000,4.000000,4.000000,83.333336
1614945700.897045,104.000000,0.000000,23.054121,15.776351,0.122131,15.516669,12.069451,14.062261,32.390907,14.892707,15.417208,11.026073,8.524289,15.131625,-61.464458,-48.114758,-32.656841,-12.917437,15.194339,-5.007045,-31.868650,-42.950493,-52.937580,-51.960342,18.762913,8.907130,1.629201,17.195118,16.656404,28.899969,14.295774,2.979467,7.104758,-5.925639,8064.000000,0.000000,4.000000,,,,0.000000,4.000000,4.000000,4.000000,2.000000,4.000000,4.000000,4.000000,4.000000,4.000000,4.000000,4.000000,4.000000,4.000000,4.000000,4.000000,4.000000,4.000000,4.000000,4.000000,4.000000,4.000000,4.000000,4.000000,4.000000,4.000000,4.000000,4.000000,4.000000,4.000000,4.000000,4.000000,4.000000,83.333336
1614945700.904894,105.000000,0.000000,23.031067,11.658010,-1.416452,10.885768,9.493279,11.484096,28.255951,16.929096,14.376150,10.502227,5.951662,15.629313,-55.761971,-48.579464,-9.547259,19.915993,24.922733,1.664629,-12.862424,-17.266518,-35.448746,-29.857100,20.795433,8.898223,-2.987813,14.101000,14.588467,28.358250,10.178915,-4.202999,-1.107475,-7.458175,8064.000000,0.000000,4.000000,,,,0.000000,4.000000,4.000000,4.000000,2.000000,4.000000,4.000000,4.000000,4.000000,4.000000,4.000000,4.000000,4.000000,4.000000,4.000000,4.000000,4.000000,4.000000,4.000000,4.000000,4.000000,4.000000,4.000000,4.000000,4.000000,4.000000,4.000000,4.000000,4.000000,4.000000,4.000000,4.000000,4.000000,83.333336
1614945700.912643,106.000000,0.000000,23.008036,11.133532,-2.953497,8.823600,7.432504,6.857227,28.227695,16.399347,14.874594,12.030186,11.073915,21.767530,-28.526720,-31.094986,23.282801,52.716591,41.308067,19.098862,-1.567510,-1.864637,-19.003040,-4.699037,25.902842,15.555991,-0.933543,20.240746,20.214905,29.355532,12.732839,-5.224437,4.534658,-8.989179,8064.000000,0.000000,4.000000,,,,0.000000,4.000000,4.000000,4.000000,2.000000,4.000000,4.000000,4.000000,4.000000,4.000000,4.000000,4.000000,4.000000,4.000000,4.000000,4.000000,4.000000,4.000000,4.000000,4.000000,4.000000,4.000000,4.000000,4.000000,4.000000,4.000000,4.000000,4.000000,4.000000,4.000000,4.000000,4.000000,4.000000,83.333336
1614945700.920493,107.000000,0.000000,22.985029,11.122398,-0.899262,11.378879,9.476354,8.901651,28.712288,15.357306,14.859719,12.018156,11.062841,20.207302,-26.446913,-25.935686,14.028749,28.048489,42.292400,25.746429,8.177648,3.265433,-12.317370,4.536431,27.415401,26.309666,3.682775,23.810247,22.758791,28.813356,17.848310,0.421813,11.709611,-5.903266,8064.000000,0.000000,4.000000,,,,0.000000,4.000000,4.000000,4.000000,2.000000,4.000000,4.000000,4.000000,4.000000,4.000000,4.000000,4.000000,4.000000,4.000000,4.000000,4.000000,4.000000,4.000000,4.000000,4.000000,4.000000,4.000000,4.000000,4.000000,4.000000,4.000000,4.000000,4.000000,4.000000,4.000000,4.000000,4.000000,4.000000,83.333336
1614945700.928242,108.000000,0.000000,22.962044,11.624096,8.332407,15.982884,13.569442,14.020955,28.683577,18.931692,20.998707,16.621523,13.615881,17.110170,-31.548670,-23.345648,-2.908357,1.353774,36.096264,26.233503,17.400240,10.441655,-3.587105,7.608818,29.439268,32.950024,13.935503,23.273617,21.710392,28.784542,19.368923,4.011135,11.185081,0.769304,8064.000000,0.000000,4.000000,,,,0.000000,4.000000,4.000000,4.000000,2.000000,4.000000,4.000000,4.000000,4.000000,4.000000,4.000000,4.000000,4.000000,4.000000,4.000000,4.000000,4.000000,4.000000,4.000000,4.000000,4.000000,4.000000,4.000000,4.000000,4.000000,4.000000,4.000000,4.000000,4.000000,4.000000,4.000000,4.000000,4.000000,83.333336
1614945700.936091,109.000000,0.000000,22.939081,11.612473,10.888177,18.018183,14.068692,14.519754,28.142073,25.579428,29.182835,24.810028,33.089443,24.785368,-12.542763,-1.271020,28.376602,34.172932,37.598629,40.566246,19.946941,12.482495,-0.506594,9.139670,30.948290,36.506817,16.998489,22.737524,22.201502,28.755758,19.349554,-0.608261,9.635434,2.819817,8064.000000,0.000000,4.000000,,,,0.000000,4.000000,4.000000,4.000000,2.000000,4.000000,4.000000,4.000000,4.000000,4.000000,4.000000,4.000000,4.000000,4.000000,4.000000,4.000000,4.000000,4.000000,4.000000,4.000000,4.000000,4.000000,4.000000,4.000000,4.000000,4.000000,4.000000,4.000000,4.000000,4.000000,4.000000,4.000000,4.000000,83.333336
1614945700.943841,110.000000,0.000000,22.916142,10.062398,10.364468,17.487345,16.105906,13.479594,28.113930,30.169233,30.692114,36.067268,53.569176,33.991352,7.982601,18.217430,55.527714,66.959274,45.253338,54.371834,27.106482,16.059757,0.006733,8.104890,30.404520,37.495949,22.109697,25.278889,21.666479,28.727001,21.381487,0.930809,13.215542,5.893920,8064.000000,0.000000,4.000000,,,,0.000000,4.000000,4.000000,4.000000,2.000000,4.000000,4.000000,4.000000,4.000000,4.000000,4.000000,4.000000,4.000000,4.000000,4.000000,4.000000,4.000000,4.000000,4.000000,4.000000,4.000000,4.000000,4.000000,4.000000,4.000000,4.000000,4.000000,4.000000,4.000000,4.000000,4.000000,4.000000,4.000000,83.333336
1614945700.951690,111.000000,0.000000,22.893227,13.642079,19.072052,17.469858,21.218006,13.978935,29.111456,32.190346,30.661423,42.185051,54.541248,38.059925,11.564362,17.686392,49.318340,45.866673,54.438854,56.881561,37.335785,21.171902,6.673393,9.635247,31.399757,36.432816,37.985023,29.868994,22.157635,28.698275,23.411388,13.750391,18.330532,15.118795,8064.000000,0.000000,4.000000,,,,0.000000,4.000000,4.000000,4.000000,2.000000,4.000000,4.000000,4.000000,4.000000,4.000000,4.000000,4.000000,4.000000,4.000000,4.000000,4.000000,4.000000,4.000000,4.000000,4.000000,4.000000,4.000000,4.000000,4.000000,4.000000,4.000000,4.000000,4.000000,4.000000,4.000000,4.000000,4.000000,4.000000,83.333336
1614945700.959439,112.000000,0.000000,22.870333,20.807924,18.027340,17.965208,22.735249,13.964956,28.569525,31.645334,29.092299,39.065941,45.768757,36.483402,5.398952,10.489219,47.217739,36.590038,51.307491,57.337502,24.477938,3.714833,-2.564050,-0.630799,27.265793,37.422024,35.895756,31.377586,22.135477,28.669577,22.875156,19.377666,18.825022,19.206240,8064.000000,0.000000,4.000000,,,,0.000000,4.000000,4.000000,4.000000,2.000000,4.000000,4.000000,4.000000,4.000000,4.000000,4.000000,4.000000,4.000000,4.000000,4.000000,4.000000,4.000000,4.000000,4.000000,4.000000,4.000000,4.000000,4.000000,4.000000,4.000000,4.000000,4.000000,4.000000,4.000000,4.000000,4.000000,4.000000,4.000000,83.333336
1614945700.967288,113.000000,0.000000,22.847464,22.838398,7.752902,16.408781,21.686872,13.438170,26.489674,25.972664,26.499104,35.949951,35.979401,24.139229,-14.606447,-5.418706,36.401291,41.681652,30.743362,38.818626,-7.341413,-27.570934,-33.330715,-28.835297,12.879553,33.794857,14.321399,25.705183,15.446674,28.640907,22.852282,13.717262,18.293375,17.135752,8064.000000,0.000000,4.000000,,,,0.000000,4.000000,4.000000,4.000000,2.000000,4.000000,4.000000,4.000000,4.000000,4.000000,4.000000,4.000000,4.000000,4.000000,4.000000,4.000000,4.000000,4.000000,4.000000,4.000000,4.000000,4.000000,4.000000,4.000000,4.000000,4.000000,4.000000,4.000000,4.000000,4.000000,4.000000,4.000000,4.000000,83.333336
1614945700.975038,114.000000,0.000000,22.824615,23.328381,18.514380,18.956474,22.178005,17.014477,33.642670,20.305666,26.472605,33.862720,21.584446,7.704833,-40.745686,-35.156876,4.057197,9.332278,15.840824,6.472115,-28.359713,-40.876698,-51.758926,-49.832104,6.200007,18.376446,4.563488,19.012812,10.303022,28.612267,23.342249,10.113802,18.787903,21.221180,8064.000000,0.000000,4.000000,,,,0.000000,4.000000,4.000000,4.000000,2.000000,4.000000,4.000000,4.000000,4.000000,4.000000,4.000000,4.000000,4.000000,4.000000,4.000000,4.000000,4.000000,4.000000,4.000000,4.000000,4.000000,4.000000,4.000000,4.000000,4.000000,4.000000,4.000000,4.000000,4.000000,4.000000,4.000000,4.000000,4.000000,83.333336
1614945700.982887,115.000000,0.000000,22.801790,27.920437,25.162531,24.065723,19.078905,21.100025,41.814156,19.772539,23.882030,19.469883,8.742349,6.671487,-51.474171,-61.275566,-18.510963,-22.984747,15.312163,-7.893332,-29.869814,-39.297359,-54.271267,-52.346371,11.322012,1.947813,6.097386,19.506618,15.933745,28.583654,22.806086,9.590867,17.743475,22.225601,8064.000000,0.000000,4.000000,,,,0.000000,4.000000,4.000000,4.000000,2.000000,4.000000,4.000000,4.000000,4.000000,4.000000,4.000000,4.000000,4.000000,4.000000,4.000000,4.000000,4.000000,4.000000,4.000000,4.000000,4.000000,4.000000,4.000000,4.000000,4.000000,4.000000,4.000000,4.000000,4.000000,4.000000,4.000000,4.000000,4.000000,83.333336
1614945700.990636,116.000000,0.000000,22.778988,30.456619,8.214293,23.528837,13.418800,20.053284,34.592854,20.265587,15.140200,6.629900,6.169503,17.434046,-47.832954,-67.368134,-0.030914,3.704905,16.835312,8.011998,-28.301483,-38.232418,-51.140076,-48.704281,14.900434,-0.618237,8.142570,23.076857,21.558836,28.555071,24.834562,10.606917,19.264193,17.587990,8064.000000,0.000000,4.000000,,,,0.000000,4.000000,4.000000,4.000000,2.000000,4.000000,4.000000,4.000000,4.000000,4.000000,4.000000,4.000000,4.000000,4.000000,4.000000,4.000000,4.000000,4.000000,4.000000,4.000000,4.000000,4.000000,4.000000,4.000000,4.000000,4.000000,4.000000,4.000000,4.000000,4.000000,4.000000,4.000000,4.000000,83.333336
1614945700.998286,117.000000,0.000000,22.756210,30.938984,9.744539,25.556591,16.482306,21.058872,30.455698,19.219681,17.176342,17.392502,8.214616,21.519176,-46.246658,-56.018719,0.994758,18.572994,16.305656,8.003985,-36.991131,-40.758289,-41.858166,-41.476089,14.885533,7.074689,18.903658,28.181984,21.537277,30.577797,29.425112,19.827080,25.911594,23.724249,8064.000000,0.000000,4.000000,,,,0.000000,4.000000,4.000000,4.000000,2.000000,4.000000,4.000000,4.000000,4.000000,4.000000,4.000000,4.000000,4.000000,4.000000,4.000000,4.000000,4.000000,4.000000,4.000000,4.000000,4.000000,4.000000,4.000000,4.000000,4.000000,4.000000,4.000000,4.000000,4.000000,4.000000,4.000000,4.000000,4.000000,83.333336
1614945701.006035,118.000000,0.000000,22.733454,33.472145,28.709154,31.684881,24.158131,29.755762,40.168831,19.713282,27.415575,31.221262,6.155119,19.959196,-47.226055,-45.193470,-14.903672,-8.625066,14.750890,-1.234787,-34.902859,-39.179070,-28.995794,-28.614101,18.460392,16.298384,29.141165,34.307648,21.002920,32.598503,31.446970,25.448278,30.501068,32.931293,8064.000000,0.000000,4.000000,,,,0.000000,4.000000,4.000000,4.000000,2.000000,4.000000,4.000000,4.000000,4.000000,4.000000,4.000000,4.000000,4.000000,4.000000,4.000000,4.000000,4.000000,4.000000,4.000000,4.000000,4.000000,4.000000,4.000000,4.000000,4.000000,4.000000,4.000000,4.000000,4.000000,4.000000,4.000000,4.000000,4.000000,83.333336
1614945701.013684,119.000000,0.000000,22.710720,31.387392,23.552240,27.550631,24.646793,30.751648,40.128662,20.206388,27.388159,28.625938,8.713067,22.503338,-35.896778,-38.994427,3.572770,14.973303,18.325882,19.792088,-2.047441,-15.037327,-9.992438,-10.123949,21.518854,22.948751,28.599203,38.375904,20.981916,32.053082,27.312958,18.756165,28.419285,22.641953,8064.000000,0.000000,4.000000,,,,0.000000,4.000000,4.000000,4.000000,2.000000,4.000000,4.000000,4.000000,4.000000,4.000000,4.000000,4.000000,4.000000,4.000000,4.000000,4.000000,4.000000,4.000000,4.000000,4.000000,4.000000,4.000000,4.000000,4.000000,4.000000,4.000000,4.000000,4.000000,4.000000,4.000000,4.000000,4.000000,4.000000,83.333336
1614945701.021434,120.000000,0.000000,22.175188,26.227800,11.733816,17.779491,20.519581,23.028587,31.883406,19.673363,26.847950,32.699875,22.550507,28.121861,-14.322419,-22.032358,34.338428,47.778843,33.179352,49.003067,30.775120,17.798223,16.684221,12.963098,28.676823,32.156570,30.621887,37.824707,23.525038,32.021030,22.670261,13.096382,23.262661,8.773156,8064.000000,0.000000,4.000000,,,,0.000000,4.000000,4.000000,4.000000,2.000000,4.000000,4.000000,4.000000,4.000000,4.000000,4.000000,4.000000,4.000000,4.000000,4.000000,4.000000,4.000000,4.000000,4.000000,4.000000,4.000000,4.000000,4.000000,4.000000,4.000000,4.000000,4.000000,4.000000,4.000000,4.000000,4.000000,4.000000,4.000000,83.333336
1614945701.029083,121.000000,0.000000,23.691475,24.663111,19.414389,24.941198,25.627268,24.544022,38.005367,23.243433,38.103153,51.128716,36.374111,29.119381,-4.051686,2.605060,39.432293,40.551579,46.479504,55.107910,41.513573,32.139400,32.564972,27.309109,41.981480,45.457748,36.232288,37.274063,30.168180,31.989008,23.160412,15.647388,22.726578,14.405409,8064.000000,0.000000,4.000000,,,,0.000000,4.000000,4.000000,4.000000,2.000000,4.000000,4.000000,4.000000,4.000000,4.000000,4.000000,4.000000,4.000000,4.000000,4.000000,4.000000,4.000000,4.000000,4.000000,4.000000,4.000000,4.000000,4.000000,4.000000,4.000000,4.000000,4.000000,4.000000,4.000000,4.000000,4.000000,4.000000,4.000000,83.333336
1614945701.036832,122.000000,0.000000,26.231886,25.664089,26.061642,36.198307,35.345230,32.211784,43.608391,28.861214,46.270180,57.744255,40.440300,29.090261,-5.073276,12.858865,42.469784,30.767435,47.971485,59.155365,40.959240,33.132900,31.506765,26.768980,45.529240,55.155880,37.221699,37.749611,33.214935,31.957020,25.701353,17.170202,28.857697,25.160234,8192.000000,0.000000,4.000000,,,,0.000000,4.000000,4.000000,4.000000,2.000000,4.000000,4.000000,4.000000,4.000000,4.000000,4.000000,4.000000,4.000000,4.000000,4.000000,4.000000,4.000000,4.000000,4.000000,4.000000,4.000000,4.000000,4.000000,4.000000,4.000000,4.000000,4.000000,4.000000,4.000000,4.000000,4.000000,4.000000,4.000000,83.333336
1614945701.044482,123.000000,0.000000,26.718475,25.638424,23.471478,34.623650,36.335526,32.692394,34.846832,31.909277,44.685448,51.532661,38.861401,31.625273,-2.504100,8.743442,56.273468,57.403336,46.897873,67.814156,40.918282,32.074127,30.962439,21.101185,35.227303,55.613544,36.158836,37.199039,32.156078,31.925062,26.188473,20.742775,32.931404,25.135073,8192.000000,0.000000,4.000000,,,,0.000000,4.000000,4.000000,4.000000,2.000000,4.000000,4.000000,4.000000,4.000000,4.000000,4.000000,4.000000,4.000000,4.000000,4.000000,4.000000,4.000000,4.000000,4.000000,4.000000,4.000000,4.000000,4.000000,4.000000,4.000000,4.000000,4.000000,4.000000,4.000000,4.000000,4.000000,4.000000,4.000000,83.333336
1614945701.052231,124.000000,0.000000,25.666115,25.099966,22.935186,30.486462,32.709446,31.634060,32.247883,30.851727,43.615120,48.404205,37.796898,33.132111,-3.014416,8.221878,55.704376,57.345932,47.363796,63.643780,28.569670,15.118977,20.162245,9.798032,29.551048,52.481010,36.122677,37.161842,32.636742,31.893137,25.649464,26.875879,32.385651,23.571476,8064.000000,0.000000,4.000000,,,,0.000000,4.000000,4.000000,4.000000,2.000000,4.000000,4.000000,4.000000,4.000000,4.000000,4.000000,4.000000,4.000000,4.000000,4.000000,4.000000,4.000000,4.000000,4.000000,4.000000,4.000000,4.000000,4.000000,4.000000,4.000000,4.000000,4.000000,4.000000,4.000000,4.000000,4.000000,4.000000,4.000000,83.333336
1614945701.059880,125.000000,0.000000,27.691730,25.587687,22.399429,31.994436,32.676739,32.115246,37.856659,31.333694,44.597145,47.842983,40.836021,32.586155,-8.652428,9.752118,42.315338,33.186020,47.316433,52.810905,12.643665,-6.947424,-4.473301,-6.622022,30.034317,50.377247,36.086555,37.637501,32.604107,31.861244,28.187916,26.336182,32.353264,25.086367,8064.000000,0.000000,4.000000,,,,0.000000,4.000000,4.000000,4.000000,2.000000,4.000000,4.000000,4.000000,4.000000,4.000000,4.000000,4.000000,4.000000,4.000000,4.000000,4.000000,4.000000,4.000000,4.000000,4.000000,4.000000,4.000000,4.000000,4.000000,4.000000,4.000000,4.000000,4.000000,4.000000,4.000000,4.000000,4.000000,4.000000,83.333336
1614945701.067629,126.000000,0.000000,29.715322,29.151842,20.325748,32.475262,32.644062,32.083130,39.870087,31.815182,43.526909,41.128471,36.692623,32.553570,-15.310442,-1.026865,28.426868,24.434887,46.756298,37.886299,3.400252,-16.684067,-17.289341,-18.923092,28.465822,45.711483,37.076111,37.087040,32.571503,31.829382,30.211010,26.309847,32.833733,25.574100,8064.000000,0.000000,4.000000,,,,0.000000,4.000000,4.000000,4.000000,2.000000,4.000000,4.000000,4.000000,4.000000,4.000000,4.000000,4.000000,4.000000,4.000000,4.000000,4.000000,4.000000,4.000000,4.000000,4.000000,4.000000,4.000000,4.000000,4.000000,4.000000,4.000000,4.000000,4.000000,4.000000,4.000000,4.000000,4.000000,4.000000,83.333336
1614945701.075279,127.000000,0.000000,30.198427,33.225254,19.792603,31.929966,30.047314,32.563869,38.804573,28.193623,40.919281,30.830935,16.655930,28.418453,-33.243851,-29.230967,7.372800,10.564298,37.478771,15.284310,-12.500584,-28.975075,-21.887436,-30.699041,25.360434,35.409363,33.962109,38.075596,33.051750,31.797554,29.667978,30.898922,32.800900,25.548527,8064.000000,0.000000,4.000000,,,,0.000000,4.000000,4.000000,4.000000,2.000000,4.000000,4.000000,4.000000,4.000000,4.000000,4.000000,4.000000,4.000000,4.000000,4.000000,4.000000,4.000000,4.000000,4.000000,4.000000,4.000000,4.000000,4.000000,4.000000,4.000000,4.000000,4.000000,4.000000,4.000000,4.000000,4.000000,4.000000,4.000000,83.333336
1614945701.083028,0.000000,0.000000,29.655409,32.679207,19.259989,30.872396,27.965984,30.992844,37.227310,23.037224,34.724514,20.030872,0.229018,21.723368,-54.749065,-51.765839,-10.583290,-5.343702,22.056677,5.525436,-30.436802,-45.869179,-39.301445,-44.001675,24.822252,26.656004,24.697378,37.011879,30.454597,31.765757,29.638311,29.842381,32.255276,23.984516,0.000000,171.000000,4.000000,,,,0.000000,4.000000,4.000000,4.000000,2.000000,4.000000,4.000000,4.000000,4.000000,4.000000,4.000000,4.000000,4.000000,4.000000,4.000000,4.000000,4.000000,4.000000,4.000000,4.000000,4.000000,4.000000,4.000000,4.000000,4.000000,4.000000,4.000000,4.000000,4.000000,4.000000,4.000000,4.000000,4.000000,83.333336
1614945701.090677,1.000000,0.000000,29.625753,32.646530,19.753550,31.354343,25.886736,23.269543,33.600338,21.988546,27.510302,14.369816,-1.822493,16.573439,-62.386627,-54.790997,-14.162451,-9.440923,14.342313,5.007091,-35.534569,-53.002796,-54.133938,-52.675621,23.258968,25.603706,19.544476,32.359482,27.860039,31.733990,29.608673,25.197155,30.684561,23.447712,0.000000,150.000000,4.000000,,,,0.000000,4.000000,4.000000,4.000000,2.000000,4.000000,4.000000,4.000000,4.000000,4.000000,2.000000,4.000000,4.000000,4.000000,4.000000,4.000000,4.000000,4.000000,4.000000,4.000000,4.000000,4.000000,4.000000,4.000000,4.000000,4.000000,4.000000,4.000000,4.000000,4.000000,4.000000,4.000000,4.000000,66.666664
1614945701.098426,2.000000,0.000000,29.596127,33.126701,20.246616,32.348629,24.835209,19.656530,31.515455,24.017839,24.918690,13.842626,-0.795030,15.018404,-59.247314,-54.223385,-14.148288,-23.790457,14.327971,-4.741506,-33.447754,-48.847229,-54.079807,-50.058846,22.210068,27.116566,18.499290,29.763020,28.857821,31.702255,29.579063,22.607855,29.628235,25.988367,0.000000,178.000000,4.000000,,,,0.000000,4.000000,4.000000,4.000000,2.000000,4.000000,4.000000,4.000000,4.000000,4.000000,2.000000,4.000000,4.000000,4.000000,4.000000,4.000000,4.000000,4.000000,4.000000,4.000000,4.000000,4.000000,4.000000,4.000000,4.000000,4.000000,4.000000,4.000000,4.000000,4.000000,4.000000,4.000000,4.000000,66.666664
1614945701.106075,3.000000,0.000000,29.566530,31.042294,13.046883,27.188076,23.784733,20.662514,30.458300,21.942539,24.893770,12.290321,6.385252,20.131592,-47.393196,-49.553776,-5.416191,-24.279486,18.929028,0.391440,-28.286100,-35.977867,-46.333420,-33.085709,21.162218,25.550987,11.301304,26.656334,24.726398,29.619272,29.549484,9.251913,24.983223,20.321352,0.000000,150.000000,4.000000,,,,0.000000,4.000000,4.000000,4.000000,2.000000,4.000000,4.000000,4.000000,4.000000,2.000000,2.000000,4.000000,4.000000,4.000000,4.000000,4.000000,4.000000,4.000000,4.000000,4.000000,4.000000,4.000000,4.000000,4.000000,4.000000,4.000000,4.000000,4.000000,4.000000,4.000000,4.000000,4.000000,4.000000,50.000000
1614945701.113924,4.000000,0.000000,29.536964,29.985611,7.392810,21.007042,20.684025,19.103390,30.940660,22.433418,23.843235,18.944698,30.994251,29.855049,-19.653496,-24.888838,26.384096,8.565306,31.730610,26.032074,-15.437302,-16.454710,-24.235802,-4.847495,21.141056,26.551077,7.700259,20.988653,19.573467,27.538370,29.007114,-2.552211,19.830034,4.916416,0.000000,151.000000,4.000000,,,,0.000000,4.000000,4.000000,4.000000,2.000000,4.000000,4.000000,4.000000,4.000000,2.000000,2.000000,4.000000,4.000000,4.000000,4.000000,4.000000,4.000000,4.000000,4.000000,4.000000,4.000000,4.000000,4.000000,4.000000,4.000000,4.000000,4.000000,4.000000,4.000000,4.000000,4.000000,4.000000,4.000000,50.000000
1614945701.121674,5.000000,0.000000,28.994606,30.981266,15.590546,24.575779,22.201801,21.135569,38.089207,36.257137,28.434776,41.489857,56.604282,38.543144,8.571286,7.956564,59.178226,41.377254,49.134777,44.980400,7.655059,5.613026,8.608946,20.798378,28.812222,29.601448,29.231020,26.095869,30.323124,29.049294,29.490929,14.373419,26.476871,5.937140,0.000000,188.000000,4.000000,,,,0.000000,4.000000,4.000000,4.000000,2.000000,4.000000,4.000000,4.000000,4.000000,2.000000,2.000000,4.000000,4.000000,4.000000,4.000000,4.000000,4.000000,4.000000,4.000000,4.000000,4.000000,4.000000,4.000000,4.000000,4.000000,4.000000,4.000000,4.000000,4.000000,4.000000,4.000000,4.000000,4.000000,50.000000
1614945701.129523,6.000000,0.000000,30.504074,32.488747,25.831366,30.705050,32.948830,32.396484,45.743427,51.605495,40.714035,61.448364,70.906654,49.786652,22.921690,40.256298,76.042122,56.720493,62.418976,67.499527,40.467918,30.222797,27.574696,34.110912,40.578281,37.776974,60.996662,44.018490,47.728699,33.122810,31.512720,41.538532,39.783726,26.444023,0.000000,189.000000,4.000000,,,,0.000000,4.000000,4.000000,4.000000,2.000000,4.000000,4.000000,4.000000,4.000000,2.000000,2.000000,4.000000,4.000000,4.000000,4.000000,4.000000,4.000000,4.000000,4.000000,4.000000,4.000000,4.000000,4.000000,4.000000,4.000000,4.000000,4.000000,4.000000,4.000000,4.000000,4.000000,4.000000,4.000000,50.000000
1614945701.137272,7.000000,0.000000,33.037674,36.558823,27.856815,31.187164,40.095367,40.056396,46.723324,54.117992,48.365627,64.976662,73.912666,58.454815,27.514153,48.933990,80.581467,61.791977,70.048866,95.124329,62.478729,45.577190,31.136866,36.640903,44.640266,53.123814,67.089508,53.205242,52.296356,35.140968,33.532490,48.163662,42.820866,37.699631,0.000000,159.000000,4.000000,,,,0.000000,4.000000,4.000000,4.000000,2.000000,4.000000,4.000000,4.000000,4.000000,2.000000,2.000000,4.000000,4.000000,4.000000,4.000000,4.000000,4.000000,4.000000,4.000000,4.000000,4.000000,4.000000,4.000000,4.000000,4.000000,4.000000,4.000000,4.000000,4.000000,4.000000,4.000000,4.000000,4.000000,50.000000
1614945701.145121,8.000000,0.000000,33.517456,40.112007,29.367420,33.720081,40.055275,38.990700,45.138138,52.525414,47.291622,61.321941,65.633629,51.216869,17.230228,25.808136,69.218834,45.832748,67.927536,86.824081,57.288048,40.916229,27.003164,32.501701,44.082806,64.352745,54.714729,51.100754,49.679955,35.105827,32.986137,43.500111,39.701122,33.046547,0.000000,179.000000,4.000000,,,,0.000000,4.000000,4.000000,4.000000,2.000000,4.000000,4.000000,4.000000,4.000000,2.000000,2.000000,4.000000,4.000000,4.000000,4.000000,4.000000,4.000000,4.000000,4.000000,4.000000,4.000000,4.000000,4.000000,4.000000,4.000000,4.000000,4.000000,4.000000,4.000000,4.000000,4.000000,4.000000,4.000000,50.000000
1614945701.152871,9.000000,0.000000,32.971115,39.559074,34.979080,38.301746,40.015217,38.438889,46.118641,51.960068,47.244331,57.158054,53.773125,38.345142,0.289920,-1.397160,49.149616,28.351019,59.654476,59.557770,41.333324,28.054800,14.155648,26.828173,44.038723,63.262749,50.044628,52.075294,50.655918,35.070721,32.953148,43.456612,41.199883,31.475039,0.000000,195.000000,4.000000,,,,0.000000,4.000000,4.000000,4.000000,2.000000,4.000000,4.000000,4.000000,4.000000,2.000000,2.000000,4.000000,4.000000,4.000000,4.000000,4.000000,4.000000,4.000000,4.000000,4.000000,4.000000,4.000000,4.000000,4.000000,4.000000,4.000000,4.000000,4.000000,4.000000,4.000000,4.000000,4.000000,4.000000,50.000000
1614945701.160720,10.000000,0.000000,32.938145,42.083618,35.456921,39.289085,38.949562,39.426090,46.585342,49.856827,48.222725,52.998333,53.206532,40.358078,-1.761652,-6.523968,49.100464,43.707283,56.517899,59.498211,30.009939,11.616488,-0.730303,12.955191,42.456223,57.045639,48.968945,52.023220,49.579620,35.035648,32.920197,41.361874,44.235607,36.058949,0.000000,183.000000,4.000000,,,,0.000000,4.000000,4.000000,4.000000,2.000000,4.000000,4.000000,4.000000,4.000000,2.000000,2.000000,4.000000,4.000000,4.000000,4.000000,4.000000,4.000000,4.000000,4.000000,4.000000,4.000000,4.000000,4.000000,4.000000,4.000000,4.000000,4.000000,4.000000,4.000000,4.000000,4.000000,4.000000,4.000000,50.000000
1614945701.168469,11.000000,0.000000,32.905209,44.092815,33.883003,40.275436,36.346512,38.873844,43.974655,48.268509,45.610401,50.381233,49.563580,46.471565,-0.734249,-14.722572,52.641109,52.381523,55.948563,56.874611,8.441467,-16.087437,-13.550085,-12.185969,40.362484,48.783466,41.227669,42.740425,44.914658,35.000614,32.887276,38.756409,43.165730,39.099812,0.000000,178.000000,4.000000,,,,0.000000,4.000000,4.000000,4.000000,2.000000,4.000000,4.000000,4.000000,4.000000,2.000000,2.000000,4.000000,4.000000,4.000000,4.000000,4.000000,4.000000,4.000000,4.000000,4.000000,4.000000,4.000000,4.000000,4.000000,4.000000,4.000000,4.000000,4.000000,4.000000,4.000000,4.000000,4.000000,4.000000,50.000000
1614945701.176318,12.000000,0.000000,32.872303,38.920517,34.874760,41.773621,35.284523,38.834969,41.879398,46.681778,43.000687,46.228287,30.026836,40.784069,-24.836079,-42.400158,20.280775,20.021450,44.097740,24.510042,-23.874666,-48.379040,-27.895510,-33.712246,37.758018,34.888527,36.058235,35.518200,37.177433,34.965614,32.854389,38.204834,41.584103,39.060715,0.000000,189.000000,4.000000,,,,0.000000,4.000000,4.000000,4.000000,2.000000,4.000000,4.000000,4.000000,4.000000,2.000000,2.000000,4.000000,4.000000,4.000000,4.000000,4.000000,4.000000,4.000000,4.000000,4.000000,4.000000,4.000000,4.000000,4.000000,4.000000,4.000000,4.000000,4.000000,4.000000,4.000000,4.000000,4.000000,4.000000,50.000000
1614945701.184068,13.000000,0.000000,32.839432,36.830315,33.301422,42.244671,31.659494,37.770493,41.324699,44.070992,42.444866,38.489750,14.612194,30.486876,-52.503551,-62.870579,-12.047198,-12.306264,29.181849,-7.822160,-50.517460,-64.740921,-37.611202,-40.345200,32.592056,23.058767,32.945251,35.995502,30.473589,33.905006,32.821533,35.602524,39.491238,36.457550,0.000000,195.000000,4.000000,,,,0.000000,4.000000,4.000000,4.000000,2.000000,4.000000,4.000000,4.000000,4.000000,2.000000,2.000000,4.000000,4.000000,4.000000,4.000000,4.000000,4.000000,4.000000,4.000000,4.000000,4.000000,4.000000,4.000000,4.000000,4.000000,4.000000,4.000000,4.000000,4.000000,4.000000,4.000000,4.000000,4.000000,50.000000
1614945701.191917,14.000000,0.000000,32.806591,38.844769,27.114277,42.202423,25.986809,32.091698,41.796196,44.026920,40.351139,29.733313,11.007838,28.405106,-49.374123,-63.833347,-8.445407,-11.781137,31.203949,0.390791,-47.390018,-51.342846,-39.112053,-29.535624,31.533823,22.010067,26.758461,36.472328,30.955936,35.409565,32.275894,30.951538,38.426105,33.856991,0.000000,197.000000,4.000000,,,,0.000000,4.000000,4.000000,4.000000,2.000000,4.000000,4.000000,4.000000,4.000000,2.000000,2.000000,4.000000,4.000000,4.000000,4.000000,4.000000,4.000000,4.000000,4.000000,4.000000,4.000000,4.000000,4.000000,4.000000,4.000000,4.000000,4.000000,4.000000,4.000000,4.000000,4.000000,4.000000,4.000000,50.000000
1614945701.199666,15.000000,0.000000,32.773785,34.190536,20.420496,38.057659,22.371078,26.931400,41.754398,43.982895,35.182583,25.601015,14.073753,36.069008,-21.632442,-55.051567,24.383551,21.051157,43.993259,28.595528,-20.675961,-24.624834,-35.996017,-8.993268,34.579212,21.475237,28.782986,35.410213,36.053185,39.476719,32.756435,29.894945,38.900497,31.771851,0.000000,178.000000,4.000000,,,,0.000000,4.000000,4.000000,4.000000,2.000000,4.000000,4.000000,4.000000,4.000000,2.000000,2.000000,4.000000,4.000000,4.000000,4.000000,4.000000,4.000000,4.000000,4.000000,4.000000,4.000000,4.000000,4.000000,4.000000,4.000000,4.000000,4.000000,4.000000,4.000000,4.000000,4.000000,4.000000,4.000000,50.000000
1614945701.207516,16.000000,0.000000,32.741009,27.489681,17.323151,31.352934,23.374350,26.391647,41.712643,43.938911,33.608940,37.883106,33.034039,46.289349,4.030216,-28.329847,47.436092,46.158310,48.564648,41.387444,1.395997,-6.651492,-17.498484,5.887520,35.057453,21.453762,37.472153,37.426086,39.094055,42.514164,32.723682,30.377871,38.348778,28.150335,0.000000,190.000000,4.000000,,,,0.000000,4.000000,4.000000,4.000000,2.000000,4.000000,4.000000,4.000000,4.000000,2.000000,2.000000,4.000000,4.000000,4.000000,4.000000,4.000000,4.000000,4.000000,4.000000,4.000000,4.000000,4.000000,4.000000,4.000000,4.000000,4.000000,4.000000,4.000000,4.000000,4.000000,4.000000,4.000000,4.000000,50.000000
1614945701.215265,17.000000,0.000000,32.708271,27.462191,20.382751,31.321581,34.633026,26.878077,41.670933,49.535999,39.729176,59.896503,60.693314,49.832806,16.846699,4.518995,45.337372,22.009588,49.541725,45.961441,22.933062,15.406442,14.826707,20.240608,37.586498,34.765640,42.562885,39.439941,41.106243,41.958832,32.178135,30.860313,38.823250,27.609364,0.000000,206.000000,4.000000,,,,0.000000,4.000000,4.000000,4.000000,2.000000,4.000000,4.000000,4.000000,4.000000,2.000000,2.000000,4.000000,4.000000,4.000000,4.000000,4.000000,4.000000,4.000000,4.000000,4.000000,4.000000,4.000000,4.000000,4.000000,4.000000,4.000000,4.000000,4.000000,4.000000,4.000000,4.000000,4.000000,4.000000,50.000000
1614945701.223114,18.000000,0.000000,32.675560,28.460371,27.541857,36.931286,48.444546,26.851198,41.629261,55.640308,48.407398,70.605843,71.401848,49.270149,21.445236,19.899092,62.727932,33.269630,58.210133,73.094971,55.730640,43.596165,34.811878,43.297291,45.754040,54.730877,48.674168,40.426144,42.603600,41.916870,33.684422,32.880733,41.348530,31.171499,0.000000,184.000000,4.000000,,,,0.000000,4.000000,4.000000,4.000000,2.000000,4.000000,4.000000,4.000000,4.000000,2.000000,2.000000,4.000000,4.000000,4.000000,4.000000,4.000000,4.000000,4.000000,4.000000,4.000000,4.000000,4.000000,4.000000,4.000000,4.000000,4.000000,4.000000,4.000000,4.000000,4.000000,4.000000,4.000000,4.000000,50.000000
1614945701.230863,19.000000,0.000000,32.642887,28.431910,29.565596,37.919994,49.934563,28.362808,41.587631,54.046207,50.923092,69.509590,70.304810,52.297802,25.013535,19.879192,92.921616,66.056877,67.382690,100.714180,65.418503,49.193592,37.853992,52.997581,51.862133,61.855633,56.830620,42.436996,43.073814,42.387775,35.189198,34.386314,42.332821,34.217251,0.000000,184.000000,4.000000,,,,0.000000,4.000000,4.000000,4.000000,2.000000,4.000000,4.000000,4.000000,4.000000,2.000000,2.000000,4.000000,4.000000,4.000000,4.000000,4.000000,4.000000,4.000000,4.000000,4.000000,4.000000,4.000000,4.000000,4.000000,4.000000,4.000000,4.000000,4.000000,4.000000,4.000000,4.000000,4.000000,4.000000,50.000000
1614945701.238513,20.000000,0.000000,32.610241,30.967581,29.536030,37.882072,45.782066,31.411369,41.033222,51.940880,50.359348,68.414444,71.772964,55.322430,26.014162,23.449057,98.982536,74.708763,69.366592,86.767311,37.660774,30.682861,34.739212,38.072788,52.323093,60.768135,55.748150,43.933022,43.030743,42.345387,37.205292,34.351929,43.316128,38.285595,0.000000,206.000000,4.000000,,,,0.000000,4.000000,4.000000,4.000000,2.000000,4.000000,4.000000,4.000000,4.000000,2.000000,2.000000,4.000000,4.000000,4.000000,4.000000,4.000000,4.000000,4.000000,4.000000,4.000000,4.000000,4.000000,4.000000,4.000000,4.000000,4.000000,4.000000,4.000000,4.000000,4.000000,4.000000,4.000000,4.000000,50.000000
1614945701.246262,21.000000,0.000000,32.577633,32.475075,39.762905,40.408295,46.761925,36.508163,42.017830,51.888939,50.821808,70.910126,69.649910,52.703003,23.424046,21.374325,87.601509,51.044312,66.220299,66.680542,30.443626,21.421410,30.089090,28.291128,50.219486,60.707367,53.641121,43.889088,41.962070,42.303043,39.732189,34.830399,45.836914,42.349876,0.000000,196.000000,4.000000,,,,0.000000,4.000000,4.000000,4.000000,2.000000,4.000000,4.000000,4.000000,4.000000,2.000000,2.000000,4.000000,4.000000,4.000000,4.000000,4.000000,4.000000,4.000000,4.000000,4.000000,4.000000,4.000000,4.000000,4.000000,4.000000,4.000000,4.000000,4.000000,4.000000,4.000000,4.000000,4.000000,4.000000,50.000000
1614945701.253912,22.000000,0.000000,33.057877,31.929779,46.389809,42.931988,45.689522,39.035759,44.027096,51.324230,48.719704,71.352043,65.477692,53.163120,23.913443,10.583720,87.001083,66.890701,67.179726,80.972839,54.515747,25.502552,26.469257,29.288477,50.682087,60.646660,57.177223,43.845200,42.432930,41.747917,39.692455,33.257107,44.765438,36.666500,0.000000,197.000000,4.000000,,,,0.000000,4.000000,4.000000,4.000000,2.000000,4.000000,4.000000,4.000000,4.000000,2.000000,2.000000,4.000000,4.000000,4.000000,4.000000,4.000000,4.000000,4.000000,4.000000,4.000000,4.000000,4.000000,4.000000,4.000000,4.000000,4.000000,4.000000,4.000000,4.000000,4.000000,4.000000,4.000000,4.000000,50.000000
1614945701.261661,23.000000,0.000000,35.076099,31.897848,35.574188,41.863415,37.951523,36.945438,45.521530,52.298546,46.619705,62.049919,63.360935,53.622780,18.761324,1.855188,79.221771,77.593048,68.651001,83.968788,45.230461,19.323202,19.263302,15.925856,52.682686,61.098835,50.966198,41.750072,42.903316,42.218990,36.063019,30.146927,41.643749,29.963167,0.000000,200.000000,4.000000,,,,0.000000,4.000000,4.000000,4.000000,2.000000,4.000000,4.000000,4.000000,4.000000,2.000000,2.000000,4.000000,4.000000,4.000000,4.000000,4.000000,4.000000,4.000000,4.000000,4.000000,4.000000,4.000000,4.000000,4.000000,4.000000,4.000000,4.000000,4.000000,4.000000,4.000000,4.000000,4.000000,4.000000,50.000000
1614945701.269310,24.000000,0.000000,37.092304,32.378773,29.897589,39.770271,33.298187,34.857212,44.963188,49.169323,45.547443,51.218639,49.451420,42.799927,-9.975387,-18.146667,46.834862,45.207760,52.684917,51.577129,12.877540,-11.978171,-5.884168,-15.884942,43.399235,56.935169,37.581898,37.092937,36.706566,41.663952,37.052597,31.142420,43.140568,32.497307,0.000000,179.000000,4.000000,,,,0.000000,4.000000,4.000000,4.000000,2.000000,4.000000,4.000000,4.000000,4.000000,2.000000,2.000000,4.000000,4.000000,4.000000,4.000000,4.000000,4.000000,4.000000,4.000000,4.000000,4.000000,4.000000,4.000000,4.000000,4.000000,4.000000,4.000000,4.000000,4.000000,4.000000,4.000000,4.000000,4.000000,50.000000
1614945701.277060,25.000000,0.000000,35.003933,32.346394,36.534359,38.704861,35.828991,34.822353,44.918224,36.299641,41.399330,50.141777,25.812225,25.321228,-40.734642,-49.410572,14.480333,12.854859,27.504026,19.217859,-19.443029,-44.273888,-35.621872,-47.663929,24.894299,39.442337,31.903292,33.466103,26.926270,38.032543,36.502724,30.598457,40.533325,27.849424,0.000000,183.000000,4.000000,,,,0.000000,4.000000,4.000000,4.000000,2.000000,4.000000,4.000000,4.000000,4.000000,2.000000,2.000000,4.000000,4.000000,4.000000,4.000000,4.000000,4.000000,4.000000,4.000000,4.000000,4.000000,4.000000,4.000000,4.000000,4.000000,4.000000,4.000000,4.000000,4.000000,4.000000,4.000000,4.000000,4.000000,50.000000
1614945701.284709,26.000000,0.000000,32.917645,31.801226,28.292694,35.589230,33.741882,31.710609,44.873306,29.596676,35.716908,44.963432,17.581285,20.167702,-43.258011,-63.720135,9.337648,10.790723,22.348318,18.685822,-23.013330,-54.486023,-47.893944,-56.334213,18.715557,20.941357,31.358568,31.894175,25.873703,33.891949,26.722631,23.901192,31.774841,11.924139,0.000000,210.000000,4.000000,,,,0.000000,4.000000,4.000000,4.000000,2.000000,4.000000,4.000000,4.000000,4.000000,2.000000,2.000000,4.000000,4.000000,4.000000,4.000000,4.000000,4.000000,4.000000,4.000000,4.000000,4.000000,4.000000,4.000000,4.000000,4.000000,4.000000,4.000000,4.000000,4.000000,4.000000,4.000000,4.000000,4.000000,50.000000
1614945701.292458,27.000000,0.000000,31.859087,31.769424,11.854146,29.912617,23.964550,27.063515,44.828434,36.233746,34.142727,29.021032,19.614986,25.788559,-33.983982,-63.143597,24.712925,41.036343,28.992636,16.103033,-19.400574,-41.611023,-45.281948,-38.841984,23.825047,16.817852,30.301569,31.862280,32.514496,33.858055,21.567703,19.261906,26.614861,7.296830,0.000000,188.000000,4.000000,,,,0.000000,4.000000,4.000000,4.000000,2.000000,4.000000,4.000000,4.000000,4.000000,2.000000,2.000000,4.000000,4.000000,4.000000,4.000000,4.000000,4.000000,4.000000,4.000000,4.000000,4.000000,4.000000,4.000000,4.000000,4.000000,4.000000,4.000000,4.000000,4.000000,4.000000,4.000000,4.000000,4.000000,50.000000
1614945701.300108,28.000000,0.000000,31.827227,32.250477,11.842292,26.292961,18.812380,26.010809,44.783604,39.274433,34.108585,20.786882,17.031269,31.403797,-31.898716,-64.106094,31.867701,46.123512,30.502106,12.497186,-15.791430,-30.800182,-37.544357,-16.751858,26.878145,21.929239,28.732805,31.830418,34.533264,34.337017,27.187162,21.293926,26.588247,13.956200,0.000000,163.000000,4.000000,,,,0.000000,4.000000,4.000000,4.000000,2.000000,4.000000,4.000000,4.000000,4.000000,2.000000,2.000000,4.000000,4.000000,4.000000,4.000000,4.000000,4.000000,4.000000,4.000000,4.000000,4.000000,4.000000,4.000000,4.000000,4.000000,4.000000,4.000000,4.000000,4.000000,4.000000,4.000000,4.000000,4.000000,50.000000
1614945701.307857,29.000000,0.000000,31.795401,30.679764,19.522757,26.266666,23.408953,26.497620,44.738823,36.671059,34.587296,23.330198,26.245007,35.987778,-13.405279,-53.785576,51.835831,56.333797,42.266476,35.048790,10.891028,-9.230920,-16.993992,3.777714,33.005112,19.343206,28.191252,31.285767,32.447449,33.789860,28.185616,22.811094,28.100121,15.993526,0.000000,185.000000,4.000000,,,,0.000000,4.000000,4.000000,4.000000,2.000000,4.000000,4.000000,4.000000,4.000000,2.000000,2.000000,4.000000,4.000000,4.000000,4.000000,4.000000,4.000000,4.000000,4.000000,4.000000,4.000000,4.000000,4.000000,4.000000,4.000000,4.000000,4.000000,4.000000,4.000000,4.000000,4.000000,4.000000,4.000000,50.000000
1614945701.315506,30.000000,0.000000,32.276424,28.084982,24.118618,25.727581,31.077850,26.983942,44.694080,40.736950,37.116814,32.024818,51.346966,43.644096,15.838896,-22.962561,80.501945,84.482590,59.147285,63.731689,43.700649,22.060362,15.330694,31.979065,40.664417,21.887966,38.419472,32.280121,35.491924,33.756069,24.567686,23.301104,32.174583,18.028814,0.000000,185.000000,4.000000,,,,0.000000,4.000000,4.000000,4.000000,2.000000,4.000000,4.000000,4.000000,4.000000,2.000000,2.000000,4.000000,4.000000,4.000000,4.000000,4.000000,4.000000,4.000000,4.000000,4.000000,4.000000,4.000000,4.000000,4.000000,4.000000,4.000000,4.000000,4.000000,4.000000,4.000000,4.000000,4.000000,4.000000,50.000000
1614945701.323255,31.000000,0.000000,31.731329,27.544077,30.248346,27.753134,39.764721,27.469778,44.649387,43.773136,43.233543,55.069714,68.731514,53.344044,26.592287,9.880916,93.241959,100.295547,63.703522,81.616676,59.554386,35.884457,40.443569,48.870163,42.162212,42.378899,54.791309,34.299126,43.148739,34.235134,25.055939,26.354725,35.219334,25.703093,0.000000,164.000000,4.000000,,,,0.000000,4.000000,4.000000,4.000000,2.000000,4.000000,4.000000,4.000000,4.000000,2.000000,2.000000,4.000000,4.000000,4.000000,4.000000,4.000000,4.000000,4.000000,4.000000,4.000000,4.000000,4.000000,4.000000,4.000000,4.000000,4.000000,4.000000,4.000000,4.000000,4.000000,4.000000,4.000000,4.000000,50.000000
1614945701.330905,32.000000,0.000000,33.750877,28.029352,31.756559,32.853588,45.365982,25.903847,44.604740,45.780647,51.908257,80.655670,81.996117,62.521469,39.899029,41.153088,120.328201,133.015762,75.947510,114.355576,77.956367,48.156265,49.121075,50.359753,49.812359,63.362160,61.403183,35.803288,46.182514,33.688080,23.492422,26.841190,34.671291,28.241493,8064.000000,0.000000,4.000000,,,,0.000000,4.000000,4.000000,4.000000,2.000000,4.000000,4.000000,4.000000,4.000000,2.000000,2.000000,4.000000,4.000000,4.000000,4.000000,4.000000,4.000000,4.000000,4.000000,4.000000,4.000000,4.000000,4.000000,4.000000,4.000000,4.000000,4.000000,4.000000,4.000000,4.000000,4.000000,4.000000,4.000000,50.000000
1614945701.338754,33.000000,0.000000,39.358154,28.001324,37.878651,34.359196,48.910358,27.929226,44.560135,55.991276,57.497375,88.780144,97.298737,70.151253,66.012978,64.701675,153.028381,165.703262,98.435669,147.061737,110.698929,76.826057,56.251438,60.052982,65.147163,70.478287,64.418701,40.895687,52.290176,34.680031,20.904827,26.301529,35.149441,27.700430,8192.000000,0.000000,4.000000,,,,0.000000,4.000000,4.000000,4.000000,2.000000,4.000000,4.000000,4.000000,4.000000,2.000000,2.000000,4.000000,4.000000,4.000000,4.000000,4.000000,4.000000,4.000000,4.000000,4.000000,4.000000,4.000000,4.000000,4.000000,4.000000,4.000000,4.000000,4.000000,4.000000,4.000000,4.000000,4.000000,4.000000,50.000000
1614945701.346503,34.000000,0.000000,43.934181,27.460501,52.712566,34.324837,53.476833,33.542320,44.515575,61.063488,57.439877,87.665726,91.560417,72.645203,60.818756,55.919025,140.567673,152.717041,96.798767,136.658264,117.254890,82.903076,63.887497,66.146774,71.235863,77.587296,71.533768,49.059921,61.468655,39.260738,24.473665,33.454716,37.678394,31.262474,8064.000000,0.000000,4.000000,,,,0.000000,4.000000,4.000000,4.000000,2.000000,4.000000,4.000000,4.000000,4.000000,2.000000,2.000000,4.000000,4.000000,4.000000,4.000000,4.000000,4.000000,4.000000,4.000000,4.000000,4.000000,4.000000,4.000000,4.000000,4.000000,4.000000,4.000000,4.000000,4.000000,4.000000,4.000000,4.000000,4.000000,50.000000
1614945701.354352,35.000000,0.000000,43.377426,27.945862,52.147034,34.290512,51.372074,31.457499,44.471058,51.258835,53.279873,82.449852,66.340645,62.828972,28.450247,25.093876,108.119408,120.256638,76.189148,104.213905,86.881226,54.102226,54.592838,43.003708,61.933857,84.689194,65.821213,50.549324,56.278984,42.298397,29.064577,38.036644,39.179176,33.795315,8064.000000,0.000000,4.000000,,,,0.000000,4.000000,4.000000,4.000000,2.000000,4.000000,4.000000,4.000000,4.000000,2.000000,2.000000,4.000000,4.000000,4.000000,4.000000,4.000000,4.000000,4.000000,4.000000,4.000000,4.000000,4.000000,4.000000,4.000000,4.000000,4.000000,4.000000,4.000000,4.000000,4.000000,4.000000,4.000000,4.000000,50.000000
1614945701.362102,36.000000,0.000000,39.231483,28.430737,34.658989,29.640835,37.474548,22.195271,42.888126,43.002449,45.021465,60.316120,48.325588,43.791782,6.370514,2.504680,97.242058,121.674835,60.215527,87.186615,66.281525,23.791712,24.794657,11.678652,45.461666,77.425018,46.781033,45.370567,37.761166,39.691998,27.497049,31.844763,39.139999,32.223057,8064.000000,0.000000,4.000000,,,,0.000000,4.000000,4.000000,4.000000,2.000000,4.000000,4.000000,4.000000,4.000000,2.000000,2.000000,4.000000,4.000000,4.000000,4.000000,4.000000,4.000000,4.000000,4.000000,4.000000,4.000000,4.000000,4.000000,4.000000,4.000000,4.000000,4.000000,4.000000,4.000000,4.000000,4.000000,4.000000,4.000000,50.000000
1614945701.369951,37.000000,0.000000,34.064049,27.889484,29.496124,22.944529,27.180664,18.583332,40.793957,36.805599,34.720032,35.640419,32.892647,28.876196,-10.558933,-18.523466,84.324303,124.630089,42.719414,68.125069,53.394733,-1.873105,-6.512189,-12.948411,28.493126,59.398876,37.503483,40.709812,29.005455,37.601025,25.418272,26.171892,37.562397,31.678013,8064.000000,0.000000,4.000000,,,,0.000000,4.000000,4.000000,4.000000,2.000000,4.000000,4.000000,4.000000,4.000000,2.000000,2.000000,4.000000,4.000000,4.000000,4.000000,4.000000,4.000000,4.000000,4.000000,4.000000,4.000000,4.000000,4.000000,4.000000,4.000000,4.000000,4.000000,4.000000,4.000000,4.000000,4.000000,4.000000,4.000000,50.000000
1614945701.377700,38.000000,0.000000,31.465881,27.861595,33.569191,21.895943,26.127844,19.590389,40.753162,26.512384,30.582748,29.963753,10.808474,20.129372,-42.856068,-48.248531,51.932285,92.197762,24.215155,38.313358,23.084927,-30.589180,-33.685165,-43.191872,17.182581,39.852299,36.953159,39.643463,30.514912,38.076244,24.880032,27.684181,34.447910,31.133514,8064.000000,0.000000,4.000000,,,,0.000000,4.000000,4.000000,4.000000,2.000000,4.000000,4.000000,4.000000,4.000000,2.000000,2.000000,4.000000,4.000000,4.000000,4.000000,4.000000,4.000000,4.000000,4.000000,4.000000,4.000000,4.000000,4.000000,4.000000,4.000000,4.000000,4.000000,4.000000,4.000000,4.000000,4.000000,4.000000,4.000000,50.000000
1614945701.385549,39.000000,0.000000,31.947235,33.474758,31.997160,24.950970,27.640177,21.622082,40.199589,20.332026,31.064987,28.395329,1.566896,17.032318,-60.249107,-65.123360,29.829069,62.361977,17.524273,29.044275,-6.681747,-47.481670,-50.061737,-57.507656,17.165400,23.402189,30.762358,40.116638,29.971577,37.525345,25.880793,25.092394,35.439106,31.615202,8064.000000,0.000000,4.000000,,,,0.000000,4.000000,4.000000,4.000000,2.000000,4.000000,4.000000,4.000000,4.000000,2.000000,2.000000,4.000000,4.000000,4.000000,4.000000,4.000000,4.000000,4.000000,4.000000,4.000000,4.000000,4.000000,4.000000,4.000000,4.000000,4.000000,4.000000,4.000000,4.000000,4.000000,4.000000,4.000000,4.000000,50.000000
1614945701.393299,40.000000,0.000000,31.402468,35.492565,29.401060,26.464479,26.074076,23.651741,40.672211,20.311693,27.956999,22.213087,5.155073,18.553747,-53.522194,-62.494133,51.337704,95.120125,19.045210,26.451128,-15.905835,-44.870083,-44.370647,-38.988609,22.276440,15.686479,22.526468,38.025242,28.915964,38.000641,25.854912,14.810892,34.378025,31.583586,8064.000000,0.000000,4.000000,,,,0.000000,4.000000,4.000000,4.000000,2.000000,4.000000,4.000000,4.000000,4.000000,2.000000,2.000000,4.000000,4.000000,4.000000,4.000000,4.000000,4.000000,4.000000,4.000000,4.000000,4.000000,4.000000,4.000000,4.000000,4.000000,4.000000,4.000000,4.000000,4.000000,4.000000,4.000000,4.000000,4.000000,50.000000
1614945701.401148,41.000000,0.000000,31.371065,27.764767,22.192173,24.386734,21.945436,21.576807,41.657177,21.317022,23.826477,18.088308,4.124277,16.996733,-43.725082,-61.918819,57.953030,90.922447,24.154369,11.552881,-6.659160,-26.363676,-22.274996,-15.359877,23.279804,16.183613,20.965479,31.320549,29.912689,37.449821,18.649570,5.565312,22.548775,21.808413,8064.000000,0.000000,4.000000,,,,0.000000,4.000000,4.000000,4.000000,2.000000,4.000000,4.000000,4.000000,4.000000,2.000000,2.000000,4.000000,4.000000,4.000000,4.000000,4.000000,4.000000,4.000000,4.000000,4.000000,4.000000,4.000000,4.000000,4.000000,4.000000,4.000000,4.000000,4.000000,4.000000,4.000000,4.000000,4.000000,4.000000,50.000000
1614945701.408897,42.000000,0.000000,31.852514,20.557514,8.836647,20.259783,16.795286,16.427025,36.487316,21.295706,22.777010,13.454836,9.761178,18.005377,-25.732637,-62.882542,61.484821,82.113571,30.796883,18.207994,16.424423,3.406278,-4.816823,1.578560,22.230883,19.757174,22.482975,27.186665,29.882776,33.309807,10.938613,4.021285,11.756995,6.401989,8064.000000,0.000000,4.000000,,,,0.000000,4.000000,4.000000,4.000000,2.000000,4.000000,4.000000,4.000000,4.000000,2.000000,2.000000,4.000000,4.000000,4.000000,4.000000,4.000000,4.000000,4.000000,4.000000,4.000000,4.000000,4.000000,4.000000,4.000000,4.000000,4.000000,4.000000,4.000000,4.000000,4.000000,4.000000,4.000000,4.000000,50.000000
1614945701.416746,43.000000,0.000000,31.820662,20.024136,3.186785,18.188240,15.240029,15.384957,30.296982,20.248770,23.267054,16.005484,28.725775,31.833525,5.575146,-39.742737,93.218208,114.851974,40.509674,47.933376,35.382359,25.454153,3.393122,20.038519,29.388140,27.429724,22.460493,28.185118,31.904175,29.686754,9.902034,5.042905,11.745238,0.754562,8064.000000,0.000000,4.000000,,,,0.000000,4.000000,4.000000,4.000000,2.000000,4.000000,4.000000,4.000000,4.000000,2.000000,2.000000,4.000000,4.000000,4.000000,4.000000,4.000000,4.000000,4.000000,4.000000,4.000000,4.000000,4.000000,4.000000,4.000000,4.000000,4.000000,4.000000,4.000000,4.000000,4.000000,4.000000,4.000000,4.000000,50.000000
1614945701.424496,44.000000,0.000000,31.788841,21.029753,5.747701,19.195694,17.276072,15.369573,30.779505,22.792624,25.295069,34.451015,42.543205,46.160667,25.056751,-8.420942,114.150635,130.121735,55.340961,64.295700,40.987999,30.556904,9.030754,28.736429,41.153622,38.684345,25.002134,28.156933,36.487656,30.169888,9.892132,3.499400,12.246314,3.317910,8192.000000,0.000000,4.000000,,,,0.000000,4.000000,4.000000,4.000000,2.000000,4.000000,4.000000,4.000000,4.000000,2.000000,2.000000,4.000000,4.000000,4.000000,4.000000,4.000000,4.000000,4.000000,4.000000,4.000000,4.000000,4.000000,4.000000,4.000000,4.000000,4.000000,4.000000,4.000000,4.000000,4.000000,4.000000,4.000000,4.000000,50.000000
1614945701.432345,45.000000,0.000000,31.757053,19.983082,7.280415,20.714960,19.822897,15.354203,33.825649,29.949318,29.885159,44.672977,40.449379,46.627327,24.006052,0.818248,111.472382,116.658279,66.054848,65.769867,47.613678,30.526348,16.714031,27.169231,44.189392,43.261044,31.130980,27.615955,37.989628,30.139717,10.395060,8.624106,11.721247,3.827413,8064.000000,0.000000,4.000000,,,,0.000000,4.000000,4.000000,4.000000,2.000000,4.000000,4.000000,4.000000,4.000000,2.000000,2.000000,4.000000,4.000000,4.000000,4.000000,4.000000,4.000000,4.000000,4.000000,4.000000,4.000000,4.000000,4.000000,4.000000,4.000000,4.000000,4.000000,4.000000,4.000000,4.000000,4.000000,4.000000,4.000000,50.000000
1614945701.440094,46.000000,0.000000,31.725296,19.963099,12.401340,22.745527,22.367178,19.954233,33.279003,33.509113,31.393734,42.064201,38.870468,45.042236,23.469227,3.381532,122.130135,143.721115,67.527260,70.832298,57.309654,29.470181,22.851164,28.167704,43.119560,45.269066,39.304977,30.152443,37.951641,29.596756,17.051332,20.923174,21.453115,10.490252,8064.000000,0.000000,4.000000,,,,0.000000,4.000000,4.000000,4.000000,2.000000,4.000000,4.000000,4.000000,4.000000,2.000000,2.000000,4.000000,4.000000,4.000000,4.000000,4.000000,4.000000,4.000000,4.000000,4.000000,4.000000,4.000000,4.000000,4.000000,4.000000,4.000000,4.000000,4.000000,4.000000,4.000000,4.000000,4.000000,4.000000,50.000000
1614945701.447943,47.000000,0.000000,31.693571,20.455957,20.594067,24.774063,23.883272,26.600946,32.732903,32.962784,31.362341,45.611881,42.934162,48.074120,24.984219,18.249945,143.033646,176.397903,67.459732,79.479416,61.354908,27.389427,17.700108,20.447227,43.589264,51.377644,42.855415,32.686394,38.426510,30.079981,22.675306,23.979174,31.175253,19.710531,8064.000000,0.000000,4.000000,,,,0.000000,4.000000,4.000000,4.000000,2.000000,4.000000,4.000000,4.000000,4.000000,2.000000,2.000000,4.000000,4.000000,4.000000,4.000000,4.000000,4.000000,4.000000,4.000000,4.000000,4.000000,4.000000,4.000000,4.000000,4.000000,4.000000,4.000000,4.000000,4.000000,4.000000,4.000000,4.000000,4.000000,50.000000
1614945701.455693,48.000000,0.000000,31.661877,20.435501,23.137575,26.287750,23.346569,27.599985,33.212990,33.955460,31.330978,44.540627,36.737381,37.769634,7.010517,15.154772,132.121384,161.349701,55.597397,74.784554,56.165348,20.695372,0.759330,-1.111681,35.340546,51.326267,36.145893,31.115244,32.234238,29.024260,19.575708,15.750067,30.118435,17.639538,8064.000000,0.000000,4.000000,,,,0.000000,4.000000,4.000000,4.000000,2.000000,4.000000,4.000000,4.000000,4.000000,2.000000,2.000000,4.000000,4.000000,4.000000,4.000000,4.000000,4.000000,4.000000,4.000000,4.000000,4.000000,4.000000,4.000000,4.000000,4.000000,4.000000,4.000000,4.000000,4.000000,4.000000,4.000000,4.000000,4.000000,50.000000
1614945701.463342,49.000000,0.000000,31.630215,20.415066,22.088797,26.261463,23.323221,26.546745,33.179779,27.767658,27.709904,23.983265,17.726284,16.193403,-25.304186,-17.168076,99.681572,128.880661,25.798210,51.632847,35.596363,-1.376606,-17.702969,-22.136209,23.510332,43.582630,25.853336,26.468744,23.484053,25.918312,16.992029,11.631753,26.498573,13.006514,8064.000000,0.000000,4.000000,,,,0.000000,4.000000,4.000000,4.000000,2.000000,4.000000,4.000000,4.000000,4.000000,2.000000,2.000000,4.000000,4.000000,4.000000,4.000000,4.000000,4.000000,4.000000,4.000000,4.000000,4.000000,4.000000,4.000000,4.000000,4.000000,4.000000,4.000000,4.000000,4.000000,4.000000,4.000000,4.000000,4.000000,50.000000
1614945701.471092,50.000000,0.000000,31.598585,21.933111,22.066708,26.235201,23.299898,27.033018,33.146599,15.945020,23.066809,10.625949,5.913686,9.510543,-41.689140,-42.279114,74.453682,103.110764,8.336514,36.196598,9.406921,-30.093178,-29.480137,-35.960228,18.871437,40.462128,21.724918,23.878174,21.409286,25.892393,20.051960,12.132941,28.010536,21.711456,8064.000000,0.000000,4.000000,,,,0.000000,4.000000,4.000000,4.000000,2.000000,4.000000,4.000000,4.000000,4.000000,2.000000,2.000000,4.000000,4.000000,4.000000,4.000000,4.000000,4.000000,4.000000,4.000000,4.000000,4.000000,4.000000,4.000000,4.000000,4.000000,4.000000,4.000000,4.000000,4.000000,4.000000,4.000000,4.000000,4.000000,50.000000
1614945701.478741,51.000000,0.000000,31.566986,23.962461,22.557461,26.208965,22.250957,27.005985,33.113453,12.852151,23.043743,14.717887,9.497517,12.577955,-39.596169,-42.236832,77.968971,113.264061,12.430742,37.186043,1.192386,-36.729752,-36.117325,-47.719139,17.314104,36.831921,19.139091,23.854296,21.900698,26.379322,22.083191,10.582347,31.059450,31.433334,8064.000000,0.000000,4.000000,,,,0.000000,4.000000,4.000000,4.000000,2.000000,4.000000,4.000000,4.000000,4.000000,2.000000,2.000000,4.000000,4.000000,4.000000,4.000000,4.000000,4.000000,4.000000,4.000000,4.000000,4.000000,4.000000,4.000000,4.000000,4.000000,4.000000,4.000000,4.000000,4.000000,4.000000,4.000000,4.000000,4.000000,50.000000
1614945701.486490,52.000000,0.000000,31.535419,24.451319,22.022083,26.182756,23.254347,26.466160,33.080338,13.352119,22.507879,14.703170,8.975199,3.847428,-48.274521,-49.374084,62.506390,91.612335,10.879850,18.174498,-2.398550,-36.693020,-38.132488,-52.286804,16.271151,22.436113,17.068670,23.830441,22.391619,24.814482,21.035465,12.623047,30.515570,31.401901,8064.000000,0.000000,4.000000,,,,0.000000,4.000000,4.000000,4.000000,2.000000,4.000000,4.000000,4.000000,4.000000,2.000000,2.000000,4.000000,4.000000,4.000000,4.000000,4.000000,4.000000,4.000000,4.000000,4.000000,4.000000,4.000000,4.000000,4.000000,4.000000,4.000000,4.000000,4.000000,4.000000,4.000000,4.000000,4.000000,4.000000,50.000000
1614945701.494140,53.000000,0.000000,31.503883,23.914047,21.487240,26.156574,22.718273,26.439693,33.047256,13.338768,19.408447,12.124364,6.402121,1.279478,-54.892914,-63.170864,35.777214,59.213028,9.330509,-9.535985,-8.549997,-43.835815,-34.504612,-41.465286,20.870264,16.259832,20.641346,24.319431,26.471790,27.866590,21.014431,17.225809,30.485054,29.832037,8064.000000,0.000000,4.000000,,,,0.000000,4.000000,4.000000,4.000000,2.000000,4.000000,4.000000,4.000000,4.000000,2.000000,2.000000,4.000000,4.000000,4.000000,4.000000,4.000000,4.000000,4.000000,4.000000,4.000000,4.000000,4.000000,4.000000,4.000000,4.000000,4.000000,4.000000,4.000000,4.000000,4.000000,4.000000,4.000000,4.000000,50.000000
1614945701.501889,54.000000,0.000000,31.472380,23.890133,22.491394,28.181700,21.669914,26.413254,32.501389,21.017736,19.389040,18.778906,20.754692,22.816660,-30.222635,-53.876923,59.331181,88.384583,27.269896,9.960731,9.407270,-28.920185,-27.290621,-18.346899,30.080162,23.935879,25.236088,22.756649,29.522242,37.582314,21.506237,18.234224,30.454569,30.827847,8064.000000,0.000000,4.000000,,,,0.000000,4.000000,4.000000,4.000000,2.000000,4.000000,4.000000,4.000000,4.000000,2.000000,2.000000,4.000000,4.000000,4.000000,4.000000,4.000000,4.000000,4.000000,4.000000,4.000000,4.000000,4.000000,4.000000,4.000000,4.000000,4.000000,4.000000,4.000000,4.000000,4.000000,4.000000,4.000000,4.000000,50.000000
1614945701.509538,55.000000,0.000000,31.440907,24.379063,27.084288,29.691980,27.802090,26.386841,32.981709,31.253130,23.985035,26.452435,39.708298,42.281025,2.628101,-30.746122,92.092361,121.116714,45.704166,42.771282,39.654274,1.365145,-14.442817,2.697089,37.742390,28.014507,25.210852,23.759535,35.133743,42.160114,20.971910,23.857016,29.911293,31.309839,8064.000000,0.000000,4.000000,,,,0.000000,4.000000,4.000000,4.000000,2.000000,4.000000,4.000000,4.000000,4.000000,2.000000,2.000000,4.000000,4.000000,4.000000,4.000000,4.000000,4.000000,4.000000,4.000000,4.000000,4.000000,4.000000,4.000000,4.000000,4.000000,4.000000,4.000000,4.000000,4.000000,4.000000,4.000000,4.000000,4.000000,50.000000
1614945701.517288,56.000000,0.000000,31.409466,23.841864,30.134127,29.662289,39.056339,26.360453,35.512829,33.785980,27.037973,33.092648,45.309616,42.238743,12.369062,-21.997429,103.795143,123.046883,48.735382,43.241333,42.178722,9.568909,3.007524,8.335418,41.807213,31.576237,34.416412,34.505005,44.842201,40.579494,20.950937,35.628029,30.907022,33.329811,8064.000000,0.000000,4.000000,,,,0.000000,4.000000,4.000000,4.000000,2.000000,4.000000,4.000000,4.000000,4.000000,2.000000,2.000000,4.000000,4.000000,4.000000,4.000000,4.000000,4.000000,4.000000,4.000000,4.000000,4.000000,4.000000,4.000000,4.000000,4.000000,4.000000,4.000000,4.000000,4.000000,4.000000,4.000000,4.000000,4.000000,50.000000
1614945701.524937,57.000000,0.000000,31.378057,23.818022,29.078352,30.145447,42.607025,26.334093,37.015778,32.726551,27.010935,38.700581,42.700203,40.145222,9.279771,-23.513891,94.973396,102.411011,47.148186,47.300655,41.110901,16.226006,17.363491,7.814262,43.303867,47.442097,50.279430,46.265373,47.361462,41.051735,22.981270,39.182144,33.440220,34.322124,8064.000000,0.000000,4.000000,,,,0.000000,4.000000,4.000000,4.000000,2.000000,4.000000,4.000000,4.000000,4.000000,2.000000,2.000000,4.000000,4.000000,4.000000,4.000000,4.000000,4.000000,4.000000,4.000000,4.000000,4.000000,4.000000,4.000000,4.000000,4.000000,4.000000,4.000000,4.000000,4.000000,4.000000,4.000000,4.000000,4.000000,50.000000
1614945701.532686,58.000000,0.000000,31.346680,23.794205,29.049273,27.551199,41.025959,26.307758,36.465942,32.693825,26.983923,36.610600,43.683144,42.669178,9.783311,-15.798071,103.596375,125.898346,48.126678,73.407204,60.044151,32.107216,16.833307,12.934653,43.260563,60.727989,53.306072,47.244747,41.673073,40.497864,25.009569,37.604500,34.432419,33.774979,8192.000000,0.000000,4.000000,,,,0.000000,4.000000,4.000000,4.000000,2.000000,4.000000,4.000000,4.000000,4.000000,2.000000,2.000000,4.000000,4.000000,4.000000,4.000000,4.000000,4.000000,4.000000,4.000000,4.000000,4.000000,4.000000,4.000000,4.000000,4.000000,4.000000,4.000000,4.000000,4.000000,4.000000,4.000000,4.000000,4.000000,50.000000
1614945701.540335,59.000000,0.000000,31.315332,23.770409,29.020224,25.985186,41.497753,26.281450,36.429478,32.661133,27.469761,36.573990,44.665100,41.600868,12.337630,-1.423298,108.620979,138.080139,48.078552,70.769691,61.522568,23.869980,7.072884,10.357615,40.140377,54.513412,46.073280,45.659042,40.092941,37.380440,24.471741,37.566898,33.885166,33.228386,8064.000000,0.000000,4.000000,,,,0.000000,4.000000,4.000000,4.000000,2.000000,4.000000,4.000000,4.000000,4.000000,2.000000,2.000000,4.000000,4.000000,4.000000,4.000000,4.000000,4.000000,4.000000,4.000000,4.000000,4.000000,4.000000,4.000000,4.000000,4.000000,4.000000,4.000000,4.000000,4.000000,4.000000,4.000000,4.000000,4.000000,50.000000
1614945701.548084,60.000000,0.000000,31.284018,23.746639,28.991203,30.061764,41.969074,26.255169,36.393047,33.654110,26.929470,44.229721,41.030693,37.969524,6.171447,0.629407,94.666206,120.506157,47.004833,42.493793,36.332840,-0.256453,2.963247,-7.601460,35.484852,44.715309,45.001568,47.151844,41.591309,36.317421,24.447268,33.939587,33.851280,34.220798,8064.000000,0.000000,4.000000,,,,0.000000,4.000000,4.000000,4.000000,2.000000,4.000000,4.000000,4.000000,4.000000,2.000000,2.000000,4.000000,4.000000,4.000000,4.000000,4.000000,4.000000,4.000000,4.000000,4.000000,4.000000,4.000000,4.000000,4.000000,4.000000,4.000000,4.000000,4.000000,4.000000,4.000000,4.000000,4.000000,4.000000,50.000000
1614945701.555733,61.000000,0.000000,31.252733,23.722893,29.475033,32.082985,39.363003,26.228914,36.356655,29.005072,26.902540,42.134212,34.322994,36.393093,-17.424469,-14.755837,73.033081,105.513863,43.880905,34.246170,23.988815,-7.435684,0.396181,-23.491295,34.423729,44.157776,44.443745,41.976486,40.524075,36.793922,24.935642,29.290262,34.330250,32.648113,8064.000000,0.000000,4.000000,,,,0.000000,4.000000,4.000000,4.000000,2.000000,4.000000,4.000000,4.000000,4.000000,2.000000,2.000000,4.000000,4.000000,4.000000,4.000000,4.000000,4.000000,4.000000,4.000000,4.000000,4.000000,4.000000,4.000000,4.000000,4.000000,4.000000,4.000000,4.000000,4.000000,4.000000,4.000000,4.000000,4.000000,50.000000
1614945701.563483,62.000000,0.000000,31.221479,23.699169,28.419916,29.999619,37.272358,26.202686,36.320297,19.232477,26.875639,31.835667,24.032261,36.869522,-42.535248,-28.587236,55.524151,86.433983,37.683178,40.365768,27.554569,-10.505172,-8.834985,-25.006264,32.338020,41.549515,33.630070,33.216560,39.970730,36.757130,23.885065,29.260971,33.270279,29.025723,8064.000000,0.000000,4.000000,,,,0.000000,4.000000,4.000000,4.000000,2.000000,4.000000,4.000000,4.000000,4.000000,2.000000,2.000000,4.000000,4.000000,4.000000,4.000000,4.000000,4.000000,4.000000,4.000000,4.000000,4.000000,4.000000,4.000000,4.000000,4.000000,4.000000,4.000000,4.000000,4.000000,4.000000,4.000000,4.000000,4.000000,50.000000
1614945701.571132,63.000000,0.000000,31.190258,23.675470,28.904318,28.943979,37.235085,25.663662,36.283978,17.161963,26.848763,29.752548,15.803102,36.832649,-49.672199,-32.661213,50.853241,79.168068,34.055752,40.325405,25.475733,-17.674154,-13.954355,-22.417156,26.664658,33.815659,24.878490,30.106422,40.443581,36.720371,25.399641,30.257353,33.749828,32.586441,8064.000000,0.000000,4.000000,,,,0.000000,4.000000,4.000000,4.000000,2.000000,4.000000,4.000000,4.000000,4.000000,2.000000,2.000000,4.000000,4.000000,4.000000,4.000000,4.000000,4.000000,4.000000,4.000000,4.000000,4.000000,4.000000,4.000000,4.000000,4.000000,4.000000,4.000000,4.000000,4.000000,4.000000,4.000000,4.000000,4.000000,50.000000
1614945701.578981,64.000000,0.000000,31.159069,26.215897,32.977978,29.940676,37.197849,25.637999,36.247692,20.734545,26.821913,28.697155,12.197555,36.795818,-49.109707,-35.705475,50.802387,90.370949,34.534515,36.695335,20.834873,-18.169300,-15.478862,-26.497303,26.637993,30.192099,27.417715,31.101957,40.403137,36.683651,30.502447,29.201454,35.767361,41.784622,0.000000,178.000000,4.000000,,,,0.000000,4.000000,4.000000,4.000000,2.000000,4.000000,4.000000,4.000000,4.000000,2.000000,4.000000,4.000000,4.000000,4.000000,4.000000,4.000000,4.000000,4.000000,4.000000,4.000000,4.000000,4.000000,4.000000,4.000000,4.000000,4.000000,4.000000,4.000000,4.000000,4.000000,4.000000,4.000000,4.000000,66.666664
1614945701.586730,65.000000,0.000000,31.127909,29.779425,35.509102,29.397915,37.160652,26.638002,36.724266,20.713810,26.795092,23.540253,13.210998,36.759022,-42.906754,-33.618488,51.777225,84.126732,35.525623,31.017614,21.839678,-20.202414,-24.181332,-32.624653,30.201099,31.700367,30.467220,31.070854,40.362736,36.646969,30.984764,29.685072,37.782875,45.845402,0.000000,172.000000,4.000000,,,,0.000000,4.000000,4.000000,4.000000,2.000000,4.000000,4.000000,4.000000,4.000000,2.000000,4.000000,4.000000,4.000000,4.000000,4.000000,4.000000,4.000000,4.000000,4.000000,4.000000,4.000000,4.000000,4.000000,4.000000,4.000000,4.000000,4.000000,4.000000,4.000000,4.000000,4.000000,4.000000,4.000000,66.666664
1614945701.594580,66.000000,0.000000,31.096781,29.236826,32.909489,29.368517,37.636314,24.560081,34.636261,21.205917,26.768297,23.516712,20.890095,36.722263,-20.299744,-19.225893,63.007500,76.863121,33.951637,33.550701,22.843479,-19.156569,-22.105869,-25.925360,27.606794,31.155846,27.872650,30.526964,40.322372,36.610321,28.389677,29.655388,37.232273,44.773918,0.000000,176.000000,4.000000,,,,0.000000,4.000000,4.000000,4.000000,2.000000,4.000000,4.000000,4.000000,4.000000,4.000000,4.000000,4.000000,4.000000,4.000000,4.000000,4.000000,4.000000,4.000000,4.000000,4.000000,4.000000,4.000000,4.000000,4.000000,4.000000,4.000000,4.000000,4.000000,4.000000,4.000000,4.000000,4.000000,4.000000,83.333336
1614945701.602329,67.000000,0.000000,30.552864,27.156307,31.850939,29.339148,35.034573,21.458599,32.550343,25.800095,26.741528,26.570118,35.228180,36.685539,5.874403,-5.873334,83.970131,97.811897,34.943325,47.363304,25.897560,-3.239977,-2.083763,-6.925076,29.117651,31.637510,28.870419,31.009256,40.282051,36.573711,27.848467,27.574450,37.195042,42.677860,0.000000,182.000000,4.000000,,,,0.000000,4.000000,4.000000,4.000000,2.000000,4.000000,4.000000,4.000000,4.000000,4.000000,4.000000,4.000000,4.000000,4.000000,4.000000,4.000000,4.000000,4.000000,4.000000,4.000000,4.000000,4.000000,4.000000,4.000000,4.000000,4.000000,4.000000,4.000000,4.000000,4.000000,4.000000,4.000000,4.000000,83.333336
1614945701.610178,68.000000,0.000000,31.547953,27.129150,32.844730,29.309809,32.948257,24.001242,32.004971,29.364038,26.201967,30.646112,46.987823,36.648857,19.714682,3.876128,107.475906,121.303825,43.626331,57.572350,34.076790,13.173520,9.713193,11.030567,40.883404,34.169975,36.021034,30.978249,41.267410,37.049957,27.820620,26.008413,37.157845,37.506977,0.000000,173.000000,4.000000,,,,0.000000,4.000000,4.000000,4.000000,4.000000,4.000000,4.000000,4.000000,4.000000,4.000000,4.000000,4.000000,4.000000,4.000000,4.000000,4.000000,4.000000,4.000000,4.000000,4.000000,4.000000,4.000000,4.000000,4.000000,4.000000,4.000000,4.000000,4.000000,4.000000,4.000000,4.000000,4.000000,4.000000,100.000000
1614945701.617927,69.000000,0.000000,33.567688,27.614841,32.811886,29.280499,35.992233,29.105446,32.485786,30.873137,27.714226,37.794952,50.017757,36.612206,25.848814,11.564560,123.265869,136.054321,53.326294,62.642982,42.247841,17.262911,12.267582,21.275948,46.996368,35.674267,41.113220,30.947269,43.277424,37.012909,28.818439,25.982407,37.120689,32.854088,0.000000,187.000000,4.000000,,,,0.000000,4.000000,4.000000,4.000000,4.000000,4.000000,4.000000,4.000000,4.000000,4.000000,4.000000,4.000000,4.000000,4.000000,4.000000,4.000000,4.000000,4.000000,4.000000,4.000000,4.000000,4.000000,4.000000,4.000000,4.000000,4.000000,4.000000,4.000000,4.000000,4.000000,4.000000,4.000000,4.000000,100.000000
1614945701.625777,70.000000,0.000000,35.072578,27.074406,32.266251,29.251219,36.469059,30.101982,32.453300,32.380726,29.737793,42.372543,49.967739,36.575596,22.233221,8.476072,121.091316,140.533646,54.298607,69.759827,47.846619,19.296930,17.896341,26.895697,46.436550,41.792439,40.559288,30.916323,44.259789,36.463074,30.840902,26.469244,37.596390,32.821232,0.000000,170.000000,4.000000,,,,0.000000,4.000000,4.000000,4.000000,4.000000,4.000000,4.000000,4.000000,4.000000,4.000000,4.000000,4.000000,4.000000,4.000000,4.000000,4.000000,4.000000,4.000000,4.000000,4.000000,4.000000,4.000000,4.000000,4.000000,4.000000,4.000000,4.000000,4.000000,4.000000,4.000000,4.000000,4.000000,4.000000,100.000000
1614945701.633526,71.000000,0.000000,34.524689,26.534512,31.721165,29.221968,29.253103,29.046238,32.420845,32.348343,30.733698,41.817352,50.943413,36.539021,15.031501,3.852212,112.765099,133.213623,53.731491,75.331093,52.926979,25.944300,23.006649,27.381620,44.851650,49.955776,40.005905,30.885406,44.215527,36.939430,30.297241,25.417133,37.045971,33.301231,0.000000,173.000000,4.000000,,,,0.000000,4.000000,4.000000,4.000000,4.000000,4.000000,4.000000,4.000000,4.000000,4.000000,4.000000,4.000000,4.000000,4.000000,4.000000,4.000000,4.000000,4.000000,4.000000,4.000000,4.000000,4.000000,4.000000,4.000000,4.000000,4.000000,4.000000,4.000000,4.000000,4.000000,4.000000,4.000000,4.000000,100.000000
1614945701.641375,72.000000,0.000000,34.490162,26.507977,32.715084,29.192745,25.121286,29.530012,32.388428,32.828815,30.190144,41.775532,47.302727,37.015301,14.503649,8.976564,114.703613,135.131699,55.216221,72.691658,54.925331,26.943996,22.470821,21.200394,38.140133,50.931461,40.478722,30.854521,42.120029,37.415314,27.702841,22.827614,34.444824,32.755112,0.000000,179.000000,4.000000,,,,0.000000,4.000000,4.000000,4.000000,4.000000,4.000000,4.000000,4.000000,4.000000,4.000000,4.000000,4.000000,4.000000,4.000000,4.000000,4.000000,4.000000,4.000000,4.000000,4.000000,4.000000,4.000000,4.000000,4.000000,4.000000,4.000000,4.000000,4.000000,4.000000,4.000000,4.000000,4.000000,4.000000,100.000000
1614945701.649124,73.000000,0.000000,34.455673,26.994289,33.195190,29.163553,26.121807,30.013304,32.356037,31.770346,30.159952,40.195297,41.614399,36.978287,3.719914,4.865024,99.204300,126.278618,48.494335,58.259995,47.178101,10.506796,10.140659,5.794578,30.922506,48.829247,38.899780,30.823666,36.436882,32.249691,27.162317,21.779146,32.871918,32.722355,0.000000,185.000000,4.000000,,,,0.000000,4.000000,4.000000,4.000000,4.000000,4.000000,4.000000,4.000000,4.000000,4.000000,4.000000,4.000000,4.000000,4.000000,4.000000,4.000000,4.000000,4.000000,4.000000,4.000000,4.000000,4.000000,4.000000,4.000000,4.000000,4.000000,4.000000,4.000000,4.000000,4.000000,4.000000,4.000000,4.000000,100.000000
1614945701.656974,74.000000,0.000000,34.421215,26.967295,30.085073,28.621569,26.095684,29.983290,32.323681,29.687294,30.129793,37.591000,36.444580,34.890026,-22.437651,-12.062918,66.797401,93.844643,37.163792,44.355579,34.310410,-12.067814,-13.972046,-15.236858,29.865942,43.139393,35.271137,30.792843,32.810703,25.550776,28.160797,22.270187,33.351864,33.202454,0.000000,177.000000,4.000000,,,,0.000000,4.000000,4.000000,4.000000,4.000000,4.000000,4.000000,4.000000,4.000000,4.000000,4.000000,4.000000,4.000000,4.000000,4.000000,4.000000,4.000000,4.000000,4.000000,4.000000,4.000000,4.000000,4.000000,4.000000,4.000000,4.000000,4.000000,4.000000,4.000000,4.000000,4.000000,4.000000,4.000000,100.000000
1614945701.664723,75.000000,0.000000,34.386795,26.427507,29.029346,29.105768,26.582409,29.440487,32.291359,28.631966,30.099663,38.066227,31.792749,33.316673,-35.235725,-17.179060,64.166504,88.622597,33.536884,44.824043,25.558149,-20.773695,-30.368330,-32.657520,26.759153,30.788561,31.133303,30.762049,32.777893,24.499584,27.619816,21.735096,33.318512,33.169250,0.000000,179.000000,4.000000,,,,0.000000,4.000000,4.000000,4.000000,4.000000,4.000000,4.000000,4.000000,4.000000,4.000000,4.000000,4.000000,4.000000,4.000000,4.000000,4.000000,4.000000,4.000000,4.000000,4.000000,4.000000,4.000000,4.000000,4.000000,4.000000,4.000000,4.000000,4.000000,4.000000,4.000000,4.000000,4.000000,4.000000,100.000000
1614945701.672572,76.000000,0.000000,34.352409,29.990824,32.077240,31.640764,32.709675,29.411045,32.259068,25.526411,30.069563,35.976879,26.632751,30.206434,-34.174850,-18.700342,77.948486,113.662178,34.528988,41.702297,14.763361,-25.881126,-39.568729,-43.906914,22.117010,18.962900,28.025246,30.731287,31.719473,25.500725,27.592196,22.226181,33.285194,33.136082,0.000000,190.000000,4.000000,,,,0.000000,4.000000,4.000000,4.000000,4.000000,4.000000,4.000000,4.000000,4.000000,4.000000,4.000000,4.000000,4.000000,4.000000,4.000000,4.000000,4.000000,4.000000,4.000000,4.000000,4.000000,4.000000,4.000000,4.000000,4.000000,4.000000,4.000000,4.000000,4.000000,4.000000,4.000000,4.000000,4.000000,100.000000
1614945701.680322,77.000000,0.000000,34.318058,36.627499,28.968241,33.147587,34.215424,30.407276,32.226807,18.321398,30.039494,31.325518,20.965094,26.586483,-35.166317,-33.040615,65.050026,105.856209,33.468819,27.301620,5.005008,-35.598835,-46.708649,-47.452747,22.094893,14.841373,28.510040,30.700556,28.610830,24.962404,27.564604,26.819340,33.251907,33.102943,0.000000,186.000000,4.000000,,,,0.000000,4.000000,4.000000,4.000000,4.000000,4.000000,4.000000,4.000000,4.000000,4.000000,4.000000,4.000000,4.000000,4.000000,4.000000,4.000000,4.000000,4.000000,4.000000,4.000000,4.000000,4.000000,4.000000,4.000000,4.000000,4.000000,4.000000,4.000000,4.000000,4.000000,4.000000,4.000000,4.000000,100.000000
1614945701.688171,78.000000,0.000000,34.283737,39.667793,19.708502,32.601616,29.053005,28.838408,32.194580,17.277435,30.009455,29.242910,19.405666,25.534256,-28.977304,-36.597321,60.882412,93.442657,34.973812,28.812780,15.256413,-22.742723,-31.277325,-32.020679,22.072798,16.364994,28.994352,30.669855,28.582220,24.937443,27.537039,30.382263,33.218658,33.582664,0.000000,189.000000,4.000000,,,,0.000000,4.000000,4.000000,4.000000,4.000000,4.000000,4.000000,4.000000,4.000000,4.000000,4.000000,4.000000,4.000000,4.000000,4.000000,4.000000,4.000000,4.000000,4.000000,4.000000,4.000000,4.000000,4.000000,4.000000,4.000000,4.000000,4.000000,4.000000,4.000000,4.000000,4.000000,4.000000,4.000000,100.000000
1614945701.695920,79.000000,0.000000,34.249454,36.038383,15.586230,32.569016,25.434208,25.732645,32.162388,22.901182,29.979445,29.213667,21.437542,24.995901,-16.127813,-22.201748,77.744606,101.554344,36.990120,40.578838,32.677055,5.997968,-2.015279,-5.321993,23.589188,20.964012,26.914076,30.639185,29.066458,25.425325,27.509502,27.787779,33.185440,33.549080,0.000000,184.000000,4.000000,,,,0.000000,4.000000,4.000000,4.000000,4.000000,4.000000,4.000000,4.000000,4.000000,4.000000,4.000000,4.000000,4.000000,4.000000,4.000000,4.000000,4.000000,4.000000,4.000000,4.000000,4.000000,4.000000,4.000000,4.000000,4.000000,4.000000,4.000000,4.000000,4.000000,4.000000,4.000000,4.000000,4.000000,100.000000
1614945701.703569,80.000000,0.000000,34.215206,31.386961,18.134747,32.536446,25.921595,26.732553,32.130222,24.929564,29.949465,30.722916,24.493029,24.458084,-9.445019,-13.461597,75.615578,87.606636,37.978771,40.025440,30.080275,12.658637,8.243147,11.093585,27.155342,27.096895,29.964085,30.095726,28.524572,24.887079,27.481993,25.195889,33.152252,31.464249,0.000000,190.000000,4.000000,,,,0.000000,4.000000,4.000000,4.000000,4.000000,4.000000,4.000000,4.000000,4.000000,4.000000,4.000000,4.000000,4.000000,4.000000,4.000000,4.000000,4.000000,4.000000,4.000000,4.000000,4.000000,4.000000,4.000000,4.000000,4.000000,4.000000,4.000000,4.000000,4.000000,4.000000,4.000000,4.000000,4.000000,100.000000
1614945701.711319,81.000000,0.000000,34.180988,29.817112,20.167894,32.503910,25.895672,25.167360,32.098095,25.930275,29.919516,36.333218,33.699303,32.125935,8.513144,-2.678905,86.822014,95.211334,46.658741,54.857208,32.614296,17.261362,14.901570,20.313261,28.666647,37.326210,41.728992,31.091272,30.547329,26.400654,27.454510,25.683514,33.119102,29.381502,0.000000,194.000000,4.000000,,,,0.000000,4.000000,4.000000,4.000000,4.000000,4.000000,4.000000,4.000000,4.000000,4.000000,4.000000,4.000000,4.000000,4.000000,4.000000,4.000000,4.000000,4.000000,4.000000,4.000000,4.000000,4.000000,4.000000,4.000000,4.000000,4.000000,4.000000,4.000000,4.000000,4.000000,4.000000,4.000000,4.000000,100.000000
1614945701.718968,82.000000,0.000000,34.146809,30.300116,20.147726,32.471405,25.356956,16.424244,32.065994,30.519730,29.889597,40.912270,51.101501,41.324577,35.171299,27.067364,119.555710,127.936638,58.919773,85.058762,58.735527,39.808205,32.835388,30.036537,33.766186,49.083755,48.353928,33.111462,34.619347,30.989637,27.939877,26.170650,33.085983,29.352121,0.000000,181.000000,4.000000,,,,0.000000,4.000000,4.000000,4.000000,4.000000,4.000000,4.000000,4.000000,4.000000,4.000000,4.000000,4.000000,4.000000,4.000000,4.000000,4.000000,4.000000,4.000000,4.000000,4.000000,4.000000,4.000000,4.000000,4.000000,4.000000,4.000000,4.000000,4.000000,4.000000,4.000000,4.000000,4.000000,4.000000,100.000000
1614945701.726718,83.000000,0.000000,34.112663,30.269815,21.153219,32.438934,25.331600,16.407820,32.033928,31.514851,30.372528,44.461102,58.742710,39.744793,36.674587,42.424911,123.538719,131.911270,62.450596,79.845497,67.394745,42.332497,33.315372,27.442398,42.963188,55.188515,45.741474,34.616814,37.148830,33.522751,27.399117,25.631659,33.052895,27.784307,0.000000,184.000000,4.000000,,,,0.000000,4.000000,4.000000,4.000000,4.000000,4.000000,4.000000,4.000000,4.000000,4.000000,4.000000,4.000000,4.000000,4.000000,4.000000,4.000000,4.000000,4.000000,4.000000,4.000000,4.000000,4.000000,4.000000,4.000000,4.000000,4.000000,4.000000,4.000000,4.000000,4.000000,4.000000,4.000000,4.000000,100.000000
1614945701.734367,84.000000,0.000000,34.078548,29.726725,21.644886,32.406494,25.819088,24.596540,32.001896,28.919233,29.829334,45.442280,48.940376,32.525558,20.227657,24.946589,93.158768,99.471664,57.259941,59.765652,50.404270,23.828627,18.410261,16.645725,41.894585,55.133327,43.644451,34.069374,36.598858,30.925125,25.320435,25.093206,33.019844,23.141138,0.000000,196.000000,4.000000,,,,0.000000,4.000000,4.000000,4.000000,4.000000,4.000000,4.000000,4.000000,4.000000,4.000000,4.000000,4.000000,4.000000,4.000000,4.000000,4.000000,4.000000,4.000000,4.000000,4.000000,4.000000,4.000000,4.000000,4.000000,4.000000,4.000000,4.000000,4.000000,4.000000,4.000000,4.000000,4.000000,4.000000,100.000000
1614945701.742116,85.000000,0.000000,34.044472,30.209818,18.546318,32.374088,25.280449,19.956558,31.969894,27.351852,29.799505,43.858376,43.250412,33.005856,17.130507,13.126771,104.347656,120.910652,57.202682,76.116142,51.892326,20.215055,13.263646,16.116259,38.775768,54.565372,44.113625,34.035305,32.972519,28.842918,23.756653,25.580935,32.986824,21.066715,0.000000,184.000000,4.000000,,,,0.000000,4.000000,4.000000,4.000000,4.000000,4.000000,4.000000,4.000000,4.000000,4.000000,4.000000,4.000000,4.000000,4.000000,4.000000,4.000000,4.000000,4.000000,4.000000,4.000000,4.000000,4.000000,4.000000,4.000000,4.000000,4.000000,4.000000,4.000000,4.000000,4.000000,4.000000,4.000000,4.000000,100.000000
1614945701.749766,86.000000,0.000000,34.010426,30.179609,19.553413,32.854534,26.793631,15.321218,31.937923,28.862963,33.359447,47.917084,47.822544,35.536953,14.036452,18.754669,117.576645,141.302567,59.709579,91.424644,65.173767,20.707661,7.096536,15.074501,41.301094,55.023628,44.582333,34.514091,29.862621,28.814075,23.732897,27.093815,33.466656,22.584110,0.000000,188.000000,4.000000,,,,0.000000,4.000000,4.000000,4.000000,4.000000,4.000000,4.000000,4.000000,4.000000,4.000000,4.000000,4.000000,4.000000,4.000000,4.000000,4.000000,4.000000,4.000000,4.000000,4.000000,4.000000,4.000000,4.000000,4.000000,4.000000,4.000000,4.000000,4.000000,4.000000,4.000000,4.000000,4.000000,4.000000,100.000000
1614945701.757515,87.000000,0.000000,35.002056,30.149429,26.200525,32.821682,29.330938,26.587948,31.905985,28.834099,33.326088,50.433270,34.441387,23.706543,-12.131431,5.402582,85.151375,108.853569,47.855000,68.256294,54.339363,4.789517,-4.705432,-1.863650,33.567486,55.481426,45.050571,33.966755,28.807117,29.298082,24.221983,26.041080,33.433189,23.074347,0.000000,185.000000,4.000000,,,,0.000000,4.000000,4.000000,4.000000,4.000000,4.000000,4.000000,4.000000,4.000000,4.000000,4.000000,4.000000,4.000000,4.000000,4.000000,4.000000,4.000000,4.000000,4.000000,4.000000,4.000000,4.000000,4.000000,4.000000,4.000000,4.000000,4.000000,4.000000,4.000000,4.000000,4.000000,4.000000,4.000000,100.000000
1614945701.765164,88.000000,0.000000,32.915771,30.119280,29.251249,32.276039,29.301607,34.766487,31.874079,21.112957,25.087635,32.434116,6.714640,5.734118,-44.426991,-26.910513,53.271355,80.539589,26.781504,48.188038,27.618359,-16.240913,-14.957137,-23.913069,18.662123,50.810558,38.338852,34.445610,25.188568,28.755962,25.736223,25.502218,32.886936,21.512810,0.000000,180.000000,4.000000,,,,0.000000,4.000000,4.000000,4.000000,4.000000,4.000000,4.000000,4.000000,4.000000,4.000000,4.000000,4.000000,4.000000,4.000000,4.000000,4.000000,4.000000,4.000000,4.000000,4.000000,4.000000,4.000000,4.000000,4.000000,4.000000,4.000000,4.000000,4.000000,4.000000,4.000000,4.000000,4.000000,4.000000,100.000000
1614945701.772913,89.000000,0.000000,30.318754,29.576340,29.734818,32.756584,29.785128,33.193260,31.842205,12.886717,21.985624,14.452965,-5.086947,1.625820,-62.844101,-45.345142,42.448853,77.382126,17.523952,34.293697,-1.127209,-35.199032,-34.942181,-40.299412,13.515256,36.913597,28.556925,34.411163,25.163378,28.727207,27.761768,29.579281,33.366871,25.081041,0.000000,189.000000,4.000000,,,,0.000000,4.000000,4.000000,4.000000,4.000000,4.000000,4.000000,4.000000,4.000000,4.000000,4.000000,4.000000,4.000000,4.000000,4.000000,4.000000,4.000000,4.000000,4.000000,4.000000,4.000000,4.000000,4.000000,4.000000,4.000000,4.000000,4.000000,4.000000,4.000000,4.000000,4.000000,4.000000,4.000000,100.000000
1614945701.780562,90.000000,0.000000,30.801256,30.572405,28.166622,33.236649,31.293804,33.672886,31.810364,12.361010,23.502100,14.438512,-5.081860,3.162656,-67.909462,-46.838257,20.355120,44.997047,16.480787,4.002993,-26.767107,-49.522808,-54.907238,-57.695011,11.963279,16.876682,21.861702,30.274189,25.138216,29.211300,27.221188,27.498419,33.333504,28.132883,0.000000,177.000000,4.000000,,,,0.000000,4.000000,4.000000,4.000000,4.000000,4.000000,4.000000,4.000000,4.000000,4.000000,4.000000,4.000000,4.000000,4.000000,4.000000,4.000000,4.000000,4.000000,4.000000,4.000000,2.000000,4.000000,4.000000,4.000000,4.000000,4.000000,4.000000,4.000000,4.000000,4.000000,4.000000,4.000000,4.000000,83.333336
1614945701.788312,91.000000,0.000000,27.693531,30.029011,18.907686,27.049564,22.544561,26.972548,32.291374,12.348648,17.837572,9.808689,-1.487035,0.595390,-63.226170,-50.893982,17.770662,33.157181,13.387384,-4.206138,-20.586494,-45.883541,-57.416431,-63.791161,10.925674,-0.063272,11.070609,23.064428,14.856667,28.669268,22.065762,10.035024,29.710426,17.335520,0.000000,146.000000,4.000000,,,,0.000000,4.000000,4.000000,4.000000,4.000000,4.000000,4.000000,4.000000,4.000000,4.000000,4.000000,4.000000,4.000000,4.000000,4.000000,4.000000,4.000000,4.000000,4.000000,4.000000,2.000000,4.000000,4.000000,4.000000,4.000000,4.000000,4.000000,4.000000,4.000000,4.000000,4.000000,4.000000,4.000000,83.333336
1614945701.795961,92.000000,0.000000,23.050453,27.434879,10.170830,18.304565,8.675862,15.663524,30.207800,12.336300,12.178709,3.645034,17.488811,9.825564,-39.573200,-45.714886,48.522121,65.944534,20.553484,18.874990,6.100759,-31.478682,-52.230812,-46.291473,17.068594,-7.242695,0.803128,19.451620,9.713605,27.102139,16.915489,-4.333986,25.065331,1.420748,0.000000,187.000000,4.000000,,,,0.000000,4.000000,4.000000,4.000000,4.000000,4.000000,4.000000,4.000000,4.000000,4.000000,4.000000,4.000000,4.000000,4.000000,4.000000,4.000000,4.000000,4.000000,4.000000,4.000000,2.000000,4.000000,4.000000,4.000000,4.000000,4.000000,4.000000,4.000000,4.000000,4.000000,4.000000,4.000000,4.000000,83.333336
1614945701.803710,93.000000,0.000000,25.591505,26.894625,9.647838,16.234980,6.615904,15.135039,28.126310,19.503450,16.269094,14.923440,41.061066,28.277277,-6.713114,-17.464041,62.319756,73.570900,33.353443,26.548424,6.607479,-24.780537,-45.511913,-28.296463,21.666910,-5.696991,4.392068,18.919348,24.062866,24.510933,15.872933,-5.355293,24.527445,-0.119134,0.000000,201.000000,4.000000,,,,0.000000,4.000000,4.000000,4.000000,4.000000,4.000000,4.000000,4.000000,4.000000,4.000000,4.000000,4.000000,4.000000,4.000000,4.000000,4.000000,4.000000,4.000000,4.000000,4.000000,2.000000,4.000000,4.000000,4.000000,4.000000,4.000000,4.000000,4.000000,4.000000,4.000000,4.000000,4.000000,4.000000,83.333336
1614945701.811359,94.000000,0.000000,30.694120,29.431833,8.099729,17.244387,9.686212,17.684008,28.098185,24.099331,18.816929,26.190567,48.199493,34.402847,9.191035,10.758551,65.847176,70.933228,38.961117,29.085978,8.139333,-14.499347,-20.851017,-18.011757,24.209347,6.103578,18.233829,21.977352,36.859314,24.486422,16.369881,-1.760194,25.528559,3.983549,0.000000,159.000000,4.000000,,,,0.000000,4.000000,4.000000,4.000000,4.000000,4.000000,4.000000,4.000000,4.000000,4.000000,4.000000,4.000000,4.000000,4.000000,4.000000,4.000000,4.000000,4.000000,4.000000,4.000000,2.000000,4.000000,4.000000,4.000000,4.000000,4.000000,4.000000,4.000000,4.000000,4.000000,4.000000,4.000000,4.000000,83.333336
1614945701.819208,95.000000,0.000000,28.612143,30.428041,6.553167,18.252783,11.214987,17.153503,28.070086,24.588053,19.310932,27.702839,46.100010,34.881264,14.822870,17.927280,96.037743,103.682808,48.665745,60.338943,40.951706,18.335667,11.990346,6.108819,34.954369,27.635935,31.548929,28.622040,37.848099,25.487577,15.840691,4.395412,24.990210,2.441104,0.000000,144.000000,4.000000,,,,0.000000,4.000000,4.000000,4.000000,4.000000,4.000000,4.000000,4.000000,4.000000,4.000000,4.000000,4.000000,4.000000,4.000000,4.000000,4.000000,4.000000,4.000000,4.000000,4.000000,2.000000,4.000000,4.000000,4.000000,2.000000,4.000000,4.000000,4.000000,4.000000,4.000000,4.000000,4.000000,4.000000,66.666664
1614945701.826958,96.000000,0.000000,26.019428,29.884792,11.161999,22.337093,17.870440,21.238913,27.529196,31.742952,24.419827,36.905907,46.053909,42.025871,30.192663,20.986275,121.069908,134.861176,63.488873,87.458092,73.731270,48.573742,33.516819,32.769379,45.175823,47.095478,42.799431,33.721622,38.835892,24.949268,15.824850,13.108966,24.965219,5.002766,8064.000000,0.000000,4.000000,,,,0.000000,4.000000,4.000000,4.000000,4.000000,4.000000,4.000000,4.000000,4.000000,4.000000,4.000000,4.000000,4.000000,4.000000,4.000000,4.000000,4.000000,4.000000,4.000000,4.000000,2.000000,4.000000,4.000000,4.000000,2.000000,4.000000,4.000000,4.000000,4.000000,4.000000,4.000000,4.000000,4.000000,66.666664
1614945701.834807,97.000000,0.000000,26.506229,29.854908,14.227760,24.878859,25.544876,22.243315,29.552948,39.403515,29.523611,46.099770,53.187344,48.650509,43.495804,33.272980,126.589867,144.469910,68.553589,86.857811,50.067791,42.371319,36.047401,35.300709,46.156288,54.740692,47.372017,34.200722,40.335518,24.411499,16.321846,15.147139,25.965895,13.202891,8064.000000,0.000000,4.000000,,,,0.000000,4.000000,4.000000,4.000000,4.000000,4.000000,4.000000,4.000000,4.000000,4.000000,4.000000,4.000000,4.000000,4.000000,4.000000,4.000000,4.000000,4.000000,4.000000,4.000000,2.000000,4.000000,4.000000,4.000000,2.000000,4.000000,4.000000,4.000000,4.000000,4.000000,4.000000,4.000000,4.000000,66.666664
1614945701.842556,98.000000,0.000000,26.479723,29.825054,13.187891,24.853981,26.544971,18.631329,31.574677,40.389755,30.519730,46.053669,61.852104,50.653141,41.913845,39.393555,139.283783,170.992096,69.510674,86.258133,22.325417,26.944334,32.934433,27.060282,44.571671,55.711590,48.863106,34.166523,40.808002,30.028112,16.305523,15.131991,28.504032,15.240971,8064.000000,0.000000,4.000000,,,,0.000000,4.000000,4.000000,4.000000,4.000000,4.000000,4.000000,4.000000,4.000000,4.000000,4.000000,4.000000,4.000000,4.000000,4.000000,4.000000,4.000000,4.000000,4.000000,4.000000,2.000000,4.000000,4.000000,4.000000,2.000000,4.000000,4.000000,4.000000,4.000000,4.000000,4.000000,4.000000,4.000000,66.666664
1614945701.850405,99.000000,0.000000,26.966064,30.820869,14.713164,28.931690,27.031248,23.740902,31.543102,39.323723,32.540493,47.033257,49.995380,40.858898,18.282188,25.508007,121.708603,147.744186,66.877068,77.453926,30.508219,25.891748,27.773293,20.366554,42.475819,54.630238,48.814243,34.645176,40.767193,37.177570,16.289219,20.245064,29.501169,15.225729,8064.000000,0.000000,4.000000,,,,0.000000,4.000000,4.000000,4.000000,4.000000,4.000000,4.000000,4.000000,4.000000,4.000000,4.000000,4.000000,4.000000,4.000000,4.000000,4.000000,4.000000,4.000000,4.000000,4.000000,2.000000,4.000000,4.000000,4.000000,2.000000,4.000000,4.000000,4.000000,4.000000,4.000000,4.000000,4.000000,4.000000,66.666664
1614945701.858155,100.000000,0.000000,25.913458,32.841331,17.775375,33.005322,29.055498,32.947929,31.511559,35.181835,33.533592,40.832378,18.150515,17.741117,-14.043786,-6.825193,89.279205,115.288750,45.784546,46.094421,26.887968,13.045344,6.719879,0.346188,38.330776,53.549969,38.509018,30.507967,30.982836,33.037830,16.272928,23.814564,28.958847,20.338709,8064.000000,0.000000,4.000000,,,,0.000000,4.000000,4.000000,4.000000,4.000000,4.000000,4.000000,4.000000,4.000000,4.000000,4.000000,4.000000,4.000000,4.000000,4.000000,4.000000,4.000000,4.000000,4.000000,4.000000,2.000000,4.000000,4.000000,4.000000,2.000000,4.000000,4.000000,4.000000,4.000000,4.000000,4.000000,4.000000,4.000000,66.666664
1614945701.866004,101.000000,0.000000,25.374723,33.834129,23.398624,32.459496,30.564905,33.427803,31.480047,27.967167,33.500057,27.458212,-0.329175,4.390042,-46.337433,-37.587597,60.471977,93.122177,25.738762,34.766277,-0.831228,-12.608727,-19.953508,-21.705441,33.164242,50.419495,25.137177,25.862074,19.156981,24.799664,16.256657,21.739466,29.442709,26.472216,8064.000000,0.000000,4.000000,,,,0.000000,4.000000,4.000000,4.000000,4.000000,4.000000,4.000000,4.000000,4.000000,4.000000,4.000000,4.000000,4.000000,4.000000,4.000000,4.000000,4.000000,4.000000,4.000000,4.000000,2.000000,4.000000,4.000000,4.000000,2.000000,4.000000,4.000000,4.000000,4.000000,4.000000,4.000000,4.000000,4.000000,66.666664
1614945701.873753,102.000000,0.000000,30.990374,33.287476,31.067533,32.939857,30.021519,32.881554,31.448568,26.913559,33.466557,22.302547,-0.328845,5.924114,-50.906483,-55.498730,81.437149,125.849564,27.251484,43.449459,-12.625269,-20.288425,-27.625862,-30.401684,28.002872,38.574203,23.573578,25.836212,21.189106,27.338966,15.727579,21.717728,28.387625,27.984205,8064.000000,0.000000,4.000000,,,,0.000000,4.000000,4.000000,4.000000,4.000000,4.000000,4.000000,4.000000,4.000000,4.000000,4.000000,4.000000,4.000000,4.000000,4.000000,4.000000,4.000000,4.000000,4.000000,4.000000,2.000000,4.000000,4.000000,4.000000,2.000000,4.000000,4.000000,4.000000,4.000000,4.000000,4.000000,4.000000,4.000000,66.666664
1614945701.881602,103.000000,0.000000,31.985025,33.767010,29.498005,31.881277,23.837652,31.823032,30.904299,23.296902,25.227962,11.511015,-4.943901,3.866908,-53.419678,-75.443230,71.099297,101.621155,26.198591,18.277805,-16.715208,-26.421984,-30.162338,-40.627693,25.410767,22.638193,20.985901,26.323196,25.270481,32.439835,15.711851,22.208830,28.872059,28.981863,8064.000000,0.000000,4.000000,,,,0.000000,4.000000,4.000000,4.000000,4.000000,4.000000,4.000000,4.000000,4.000000,4.000000,4.000000,4.000000,4.000000,4.000000,4.000000,4.000000,4.000000,4.000000,4.000000,4.000000,2.000000,4.000000,4.000000,4.000000,2.000000,4.000000,4.000000,4.000000,4.000000,4.000000,4.000000,4.000000,4.000000,66.666664
1614945701.889352,104.000000,0.000000,24.773552,31.169140,18.699276,25.182730,16.121506,24.098902,31.386215,16.606937,11.869402,-3.372291,-5.964598,8.478426,-42.084206,-84.085739,53.079483,69.211838,21.044188,-10.971243,-35.160030,-45.882740,-49.619354,-54.433220,24.359715,13.384786,7.118762,24.245590,23.706749,30.356112,16.721781,12.955852,30.381647,30.491343,8064.000000,0.000000,4.000000,,,,0.000000,4.000000,4.000000,4.000000,4.000000,4.000000,4.000000,4.000000,4.000000,4.000000,4.000000,4.000000,4.000000,4.000000,4.000000,4.000000,4.000000,4.000000,4.000000,4.000000,2.000000,4.000000,4.000000,4.000000,2.000000,4.000000,4.000000,4.000000,4.000000,4.000000,4.000000,4.000000,4.000000,66.666664
1614945701.897201,105.000000,0.000000,22.184677,26.522585,12.526731,20.542162,13.541282,17.408136,31.354828,20.180075,9.293430,3.810568,18.656752,32.572510,-9.221610,-51.181137,85.846916,101.963142,37.946220,11.091011,-39.740253,-44.298397,-63.415890,-50.789040,25.360996,5.679093,-1.093485,21.657244,24.708683,27.248833,15.679418,2.173665,25.735882,26.871107,8064.000000,0.000000,4.000000,,,,0.000000,4.000000,4.000000,4.000000,4.000000,4.000000,4.000000,4.000000,4.000000,4.000000,4.000000,4.000000,4.000000,4.000000,4.000000,4.000000,4.000000,4.000000,4.000000,4.000000,2.000000,4.000000,4.000000,4.000000,2.000000,4.000000,4.000000,4.000000,4.000000,4.000000,4.000000,4.000000,4.000000,66.666664
1614945701.904950,106.000000,0.000000,28.316338,25.470423,13.027024,20.521620,13.014920,16.365088,30.297832,31.954765,19.540546,23.806757,50.432964,51.514297,23.608124,-18.309443,118.581581,134.681686,58.421093,42.874790,-12.008207,-13.484868,-44.378117,-26.122868,31.489481,-1.506073,8.651198,22.661226,27.248077,28.247225,15.150918,6.274055,21.094761,20.690390,8064.000000,0.000000,4.000000,,,,0.000000,4.000000,4.000000,4.000000,4.000000,4.000000,4.000000,4.000000,4.000000,4.000000,4.000000,4.000000,4.000000,4.000000,4.000000,4.000000,4.000000,4.000000,4.000000,4.000000,2.000000,4.000000,4.000000,4.000000,2.000000,4.000000,4.000000,4.000000,4.000000,4.000000,4.000000,4.000000,4.000000,66.666664
1614945701.912799,107.000000,0.000000,30.339304,25.957771,13.526818,19.988277,18.642931,17.887184,31.805996,38.589478,32.341518,34.039360,61.151764,51.975605,28.199902,9.401174,125.129669,140.188034,60.926777,55.139610,20.824314,18.323488,-11.513225,6.723768,39.150299,8.751843,28.129726,27.766771,29.272112,28.731798,20.776793,18.062653,29.278793,24.772264,8192.000000,0.000000,4.000000,,,,0.000000,4.000000,4.000000,4.000000,4.000000,4.000000,4.000000,4.000000,4.000000,4.000000,4.000000,4.000000,4.000000,4.000000,4.000000,4.000000,4.000000,4.000000,4.000000,4.000000,2.000000,4.000000,4.000000,4.000000,2.000000,4.000000,4.000000,4.000000,4.000000,4.000000,4.000000,4.000000,4.000000,66.666664
1614945701.920549,108.000000,0.000000,31.334606,25.931814,18.641497,22.019571,29.393518,20.433399,37.415215,41.627811,40.001484,44.261730,61.603432,50.897987,34.325546,15.032799,136.799408,156.458099,64.968414,75.597290,41.316311,43.433369,18.241879,33.896530,43.726536,33.871296,41.434929,30.303106,32.832584,28.190245,26.909863,21.634335,35.916183,32.952618,8192.000000,0.000000,4.000000,,,,0.000000,4.000000,4.000000,4.000000,4.000000,4.000000,4.000000,4.000000,4.000000,4.000000,4.000000,4.000000,4.000000,4.000000,4.000000,4.000000,4.000000,4.000000,4.000000,4.000000,2.000000,4.000000,4.000000,4.000000,2.000000,4.000000,4.000000,4.000000,4.000000,4.000000,4.000000,4.000000,4.000000,66.666664
1614945701.928198,109.000000,0.000000,35.918655,25.393063,21.186958,28.151398,25.774382,19.387325,38.916264,41.586185,39.961483,47.294392,60.516190,51.872730,39.932247,13.992125,147.944656,177.327286,70.031647,83.726822,48.967300,55.697628,24.377483,40.016479,47.272552,50.247681,41.393494,29.247162,35.363853,28.162056,25.857311,20.587059,28.187958,28.817102,8192.000000,0.000000,4.000000,,,,0.000000,4.000000,4.000000,4.000000,4.000000,4.000000,4.000000,4.000000,4.000000,4.000000,4.000000,4.000000,4.000000,4.000000,4.000000,4.000000,4.000000,4.000000,4.000000,4.000000,2.000000,4.000000,4.000000,4.000000,2.000000,4.000000,4.000000,4.000000,4.000000,4.000000,4.000000,4.000000,4.000000,66.666664
1614945701.935947,110.000000,0.000000,37.934017,25.367668,17.576027,25.559143,12.415274,16.291014,35.287601,39.493317,35.818958,34.939407,56.353107,50.795216,25.533340,7.311466,140.104401,177.662781,63.294952,71.335403,45.841412,44.872700,17.173618,31.771336,48.250919,53.787178,39.813641,30.243557,35.841309,28.133894,22.754530,23.130575,25.595667,26.224184,8064.000000,0.000000,4.000000,,,,0.000000,4.000000,4.000000,4.000000,4.000000,4.000000,4.000000,4.000000,4.000000,4.000000,4.000000,4.000000,4.000000,4.000000,4.000000,4.000000,4.000000,4.000000,4.000000,4.000000,2.000000,4.000000,4.000000,4.000000,2.000000,4.000000,4.000000,4.000000,4.000000,4.000000,4.000000,4.000000,4.000000,66.666664
1614945701.943597,111.000000,0.000000,36.870445,28.932045,22.173836,19.892559,18.043884,21.915749,34.739494,38.941002,33.219036,31.827543,54.245472,51.770061,15.764217,5.252872,137.400208,185.177429,59.129093,73.315346,37.077621,30.981674,17.156445,27.637001,46.151386,53.733391,43.876392,33.290237,35.805470,28.105759,25.295879,25.671547,36.339302,36.454369,8064.000000,0.000000,4.000000,,,,0.000000,4.000000,4.000000,4.000000,4.000000,4.000000,4.000000,4.000000,4.000000,4.000000,4.000000,4.000000,4.000000,4.000000,4.000000,4.000000,4.000000,4.000000,4.000000,4.000000,2.000000,4.000000,4.000000,4.000000,2.000000,4.000000,4.000000,4.000000,4.000000,4.000000,4.000000,4.000000,4.000000,66.666664
1614945701.951346,112.000000,0.000000,36.833572,32.492855,32.920891,28.590616,32.897636,33.688705,37.781677,36.337959,33.185818,38.975204,47.524559,46.077267,6.004864,-1.931868,124.955109,173.197372,57.018681,72.729210,31.399517,25.309668,13.549544,18.378595,44.053955,51.628376,43.832516,33.769764,33.718380,28.077654,29.373146,28.722797,41.431168,41.033298,8064.000000,0.000000,4.000000,,,,0.000000,4.000000,4.000000,4.000000,4.000000,4.000000,4.000000,4.000000,4.000000,4.000000,4.000000,4.000000,4.000000,4.000000,4.000000,4.000000,4.000000,4.000000,4.000000,4.000000,2.000000,4.000000,4.000000,4.000000,2.000000,4.000000,4.000000,4.000000,4.000000,4.000000,4.000000,4.000000,4.000000,66.666664
1614945701.958996,113.000000,0.000000,37.309559,33.486004,36.990536,39.331257,34.403198,37.757580,38.769539,31.173414,32.639812,37.397766,27.989857,29.620934,-24.770372,-30.647884,92.522461,140.716492,43.628330,50.092381,23.675810,9.899742,-2.361441,0.924319,41.958618,46.961361,40.198936,33.223175,32.659023,28.049576,31.907877,35.360741,39.338455,40.479446,8064.000000,0.000000,4.000000,,,,0.000000,4.000000,4.000000,4.000000,4.000000,4.000000,4.000000,4.000000,4.000000,4.000000,4.000000,4.000000,4.000000,4.000000,4.000000,4.000000,4.000000,4.000000,4.000000,4.000000,2.000000,4.000000,4.000000,4.000000,2.000000,4.000000,4.000000,4.000000,4.000000,4.000000,4.000000,4.000000,4.000000,66.666664
1614945701.966745,114.000000,0.000000,36.759430,32.939697,34.389442,38.266285,31.804693,35.668541,37.705128,30.629421,32.094353,32.744984,12.064430,19.334902,-45.258423,-51.130058,63.711990,108.268074,31.789829,36.196133,3.139314,-12.674260,-13.641130,-10.358657,40.378197,45.888760,40.158741,33.702774,36.216106,28.021526,33.414429,33.274097,39.811939,46.079990,8064.000000,0.000000,4.000000,,,,0.000000,4.000000,4.000000,4.000000,4.000000,4.000000,4.000000,4.000000,4.000000,4.000000,4.000000,4.000000,4.000000,4.000000,4.000000,4.000000,4.000000,4.000000,4.000000,4.000000,2.000000,4.000000,4.000000,4.000000,2.000000,4.000000,4.000000,4.000000,4.000000,4.000000,4.000000,4.000000,4.000000,66.666664
1614945701.974394,115.000000,0.000000,36.722672,32.906757,28.714027,35.151093,32.798531,34.607231,38.180241,30.085972,32.575077,29.635317,12.565187,21.879669,-41.110600,-50.053288,68.776482,118.929039,31.758039,24.877888,-21.479210,-22.405176,-21.832617,-20.604708,39.824997,45.842873,32.939095,31.617788,39.256813,28.506325,33.381016,19.907492,36.695202,40.392887,8064.000000,0.000000,4.000000,,,,0.000000,4.000000,4.000000,4.000000,4.000000,4.000000,4.000000,4.000000,4.000000,4.000000,4.000000,4.000000,4.000000,4.000000,4.000000,4.000000,4.000000,4.000000,4.000000,4.000000,2.000000,4.000000,4.000000,4.000000,2.000000,4.000000,4.000000,4.000000,4.000000,4.000000,4.000000,4.000000,4.000000,66.666664
1614945701.982144,116.000000,0.000000,36.685947,33.386673,18.428904,35.115944,30.201628,33.546982,38.654884,25.440500,32.542503,22.939014,15.629544,24.934713,-38.505386,-61.798103,74.348732,120.861389,33.264744,6.391471,-30.688499,-24.946873,-37.195400,-35.968719,36.195431,36.053440,16.495897,27.483606,38.704735,27.964998,30.783531,12.708097,28.966200,22.916595,8064.000000,0.000000,4.000000,,,,0.000000,4.000000,4.000000,4.000000,4.000000,4.000000,4.000000,4.000000,4.000000,4.000000,4.000000,4.000000,4.000000,4.000000,4.000000,4.000000,4.000000,4.000000,4.000000,4.000000,2.000000,4.000000,4.000000,4.000000,2.000000,4.000000,4.000000,4.000000,4.000000,4.000000,4.000000,4.000000,4.000000,66.666664
1614945701.989793,117.000000,0.000000,37.162083,32.840466,12.256628,30.978262,25.556042,30.436512,36.564945,22.338137,32.509960,17.275049,12.536992,23.371317,-35.902779,-82.249130,70.171822,107.407196,32.205837,9.462003,-28.606529,-27.486029,-49.465897,-41.060955,30.518209,16.017385,7.761453,24.892019,35.076286,26.398571,29.727108,13.721030,27.398771,15.714192,8064.000000,0.000000,4.000000,,,,0.000000,4.000000,4.000000,4.000000,4.000000,4.000000,4.000000,4.000000,4.000000,4.000000,4.000000,4.000000,4.000000,4.000000,4.000000,4.000000,4.000000,4.000000,4.000000,4.000000,2.000000,4.000000,4.000000,4.000000,2.000000,4.000000,4.000000,4.000000,4.000000,4.000000,4.000000,4.000000,4.000000,66.666664
1614945701.997542,118.000000,0.000000,35.073639,32.294804,12.757192,26.844721,22.966383,25.790691,34.477100,22.828619,32.477451,17.257774,13.037275,23.860765,-23.046364,-77.038673,76.255493,111.915176,28.071068,19.708950,-30.116385,-25.920082,-57.621559,-38.455791,26.897947,1.642393,6.728051,25.892769,24.784801,24.320890,30.210201,13.194489,27.884193,16.724119,8064.000000,0.000000,4.000000,,,,0.000000,4.000000,4.000000,4.000000,4.000000,4.000000,4.000000,4.000000,4.000000,4.000000,4.000000,4.000000,4.000000,4.000000,4.000000,4.000000,4.000000,4.000000,4.000000,4.000000,2.000000,4.000000,4.000000,4.000000,2.000000,4.000000,4.000000,4.000000,4.000000,4.000000,4.000000,4.000000,4.000000,66.666664
1614945702.005191,119.000000,0.000000,32.987282,32.775330,12.744434,27.330696,20.892136,23.713619,33.929802,23.318611,32.444973,17.753338,24.819111,24.349726,-12.254086,-56.961636,90.538216,130.777618,25.478893,11.484114,-34.701653,-27.432623,-68.333168,-42.519901,24.819767,0.102289,4.157220,25.866877,19.631811,23.783751,30.179991,15.745397,27.856310,18.758677,8064.000000,0.000000,4.000000,,,,0.000000,4.000000,4.000000,4.000000,4.000000,4.000000,4.000000,4.000000,4.000000,4.000000,4.000000,4.000000,4.000000,4.000000,4.000000,4.000000,4.000000,4.000000,4.000000,4.000000,2.000000,4.000000,4.000000,4.000000,2.000000,4.000000,4.000000,4.000000,4.000000,4.000000,4.000000,4.000000,4.000000,66.666664
1614945702.013040,120.000000,0.000000,32.954296,33.255375,12.218870,27.816187,20.871243,24.715546,34.408691,23.295292,32.412529,18.248405,38.640446,24.325377,-6.600806,-49.212364,96.088699,138.339142,28.017517,17.626476,-29.538746,-24.841087,-60.572529,-34.272251,24.794947,-1.436275,10.306909,24.815369,29.355768,24.272787,30.149811,20.857857,28.341274,19.765558,8064.000000,0.000000,4.000000,,,,0.000000,4.000000,4.000000,4.000000,4.000000,4.000000,4.000000,4.000000,4.000000,4.000000,4.000000,4.000000,4.000000,4.000000,4.000000,4.000000,4.000000,4.000000,4.000000,4.000000,2.000000,4.000000,4.000000,4.000000,2.000000,4.000000,4.000000,4.000000,4.000000,4.000000,4.000000,4.000000,4.000000,66.666664
1614945702.020790,121.000000,0.000000,32.921341,31.170837,13.232292,27.275549,21.876013,24.690830,34.374283,22.759176,32.380116,16.691694,42.191547,24.301050,-3.004462,-41.983665,95.992607,136.149521,34.656166,38.121670,-13.098950,-2.764964,-27.691442,-3.981570,27.847075,0.103623,25.681217,27.354656,38.557182,24.248514,29.606840,20.324177,26.774471,15.643229,8064.000000,0.000000,4.000000,,,,0.000000,4.000000,4.000000,4.000000,4.000000,4.000000,4.000000,4.000000,4.000000,4.000000,4.000000,4.000000,4.000000,4.000000,4.000000,4.000000,4.000000,4.000000,4.000000,4.000000,2.000000,4.000000,4.000000,4.000000,2.000000,4.000000,4.000000,4.000000,4.000000,4.000000,4.000000,4.000000,4.000000,66.666664
1614945702.028539,122.000000,0.000000,32.888420,29.601206,11.680598,27.761095,20.315676,24.153318,34.339909,23.762058,32.860554,18.213465,42.662178,24.789570,-0.437355,-21.428862,106.153030,144.731323,45.390739,41.160469,4.862866,20.314724,1.567018,19.099335,32.434612,20.616341,32.835022,31.942686,40.057087,23.711445,30.090054,23.893597,28.798979,15.114766,8064.000000,0.000000,4.000000,,,,0.000000,4.000000,4.000000,4.000000,4.000000,4.000000,4.000000,4.000000,4.000000,4.000000,4.000000,4.000000,4.000000,4.000000,4.000000,4.000000,4.000000,4.000000,4.000000,4.000000,2.000000,4.000000,4.000000,4.000000,2.000000,4.000000,4.000000,4.000000,4.000000,4.000000,4.000000,4.000000,4.000000,66.666664
1614945702.036188,123.000000,0.000000,32.855530,31.622887,14.745841,30.297436,22.859463,25.667627,34.305569,26.302399,32.827694,31.015764,46.209259,25.277601,2.127185,-3.971535,121.431488,168.176346,54.576118,44.709053,23.319542,25.935434,9.257759,20.618696,35.991920,46.749569,31.776546,33.449203,41.555492,24.713375,32.111244,32.074833,36.975307,23.817600,8192.000000,0.000000,4.000000,,,,0.000000,4.000000,4.000000,4.000000,4.000000,4.000000,4.000000,4.000000,4.000000,4.000000,4.000000,4.000000,4.000000,4.000000,4.000000,4.000000,4.000000,4.000000,4.000000,4.000000,2.000000,4.000000,4.000000,4.000000,2.000000,4.000000,4.000000,4.000000,4.000000,4.000000,4.000000,4.000000,4.000000,66.666664
1614945702.044037,124.000000,0.000000,31.797035,33.129723,23.961864,31.805599,30.528910,28.206062,34.271263,27.301737,32.282047,40.728336,44.111767,24.226683,-2.490327,-3.454743,126.438263,185.444061,56.060005,71.331009,44.321865,28.473602,10.786963,20.085258,36.981571,51.831024,31.744770,32.902935,39.462654,26.739943,34.130417,29.991474,36.938332,21.742500,8064.000000,0.000000,4.000000,,,,0.000000,4.000000,4.000000,4.000000,4.000000,4.000000,4.000000,4.000000,4.000000,4.000000,4.000000,4.000000,4.000000,4.000000,4.000000,4.000000,4.000000,4.000000,4.000000,4.000000,2.000000,4.000000,4.000000,4.000000,2.000000,4.000000,4.000000,4.000000,4.000000,4.000000,4.000000,4.000000,4.000000,66.666664
1614945702.051787,125.000000,0.000000,29.201136,32.583775,28.553288,30.748154,30.498383,28.690678,34.236992,27.274435,32.762585,36.585045,38.426628,24.715277,-17.359631,-15.758981,118.619522,180.130417,55.491123,85.618652,45.816002,26.393847,6.160791,19.039532,36.431770,47.676632,32.738667,33.382851,33.269344,28.251665,34.096287,26.371740,33.311649,18.643835,8064.000000,0.000000,4.000000,,,,0.000000,4.000000,4.000000,4.000000,4.000000,4.000000,4.000000,4.000000,4.000000,4.000000,4.000000,4.000000,4.000000,4.000000,4.000000,4.000000,4.000000,4.000000,4.000000,4.000000,2.000000,4.000000,4.000000,4.000000,2.000000,4.000000,4.000000,4.000000,4.000000,4.000000,4.000000,4.000000,4.000000,66.666664
1614945702.059636,126.000000,0.000000,29.171934,32.551189,28.524733,32.768688,24.826859,28.149166,34.715576,27.759981,33.242641,33.471539,30.695896,25.203381,-36.829453,-32.153477,95.936798,152.770798,50.820248,63.994576,14.488135,3.803350,-8.204345,-0.466687,36.908157,48.654594,32.193108,33.349468,31.697615,28.223413,34.062191,28.396650,36.355263,31.958525,8064.000000,0.000000,4.000000,,,,0.000000,4.000000,4.000000,4.000000,4.000000,4.000000,4.000000,4.000000,4.000000,4.000000,4.000000,4.000000,4.000000,4.000000,4.000000,4.000000,4.000000,4.000000,4.000000,4.000000,2.000000,4.000000,4.000000,4.000000,2.000000,4.000000,4.000000,4.000000,4.000000,4.000000,4.000000,4.000000,4.000000,66.666664
