title:6, start timestamp:1614129419.970638, stop timestamp:1614129465.986363, headset type:EPOCFLEX, headset serial:F00001ED, headset firmware:f12, subject name:s08, channels:75, sampling rate:128, samples:5944      , version:2.0
Timestamp,EEG.Counter,EEG.Interpolated,EEG.Cz,EEG.Fz,EEG.Fp1,EEG.AF3,EEG.F7,EEG.F3,EEG.FC1,EEG.C3,EEG.FC5,EEG.T7,EEG.CP5,EEG.CP1,EEG.P3,EEG.P7,EEG.PO3,EEG.O1,EEG.Pz,EEG.Oz,EEG.O2,EEG.PO4,EEG.P8,EEG.P4,EEG.CP2,EEG.CP6,EEG.T8,EEG.FC6,EEG.C4,EEG.FC2,EEG.F4,EEG.F8,EEG.AF4,EEG.Fp2,EEG.HighBitFlex,EEG.RawCq,EEG.Battery,MarkerIndex,MarkerType,MarkerValueInt,EEG.MarkerHardware,CQ.Cz,CQ.Fz,CQ.Fp1,CQ.AF3,CQ.F7,CQ.F3,CQ.FC1,CQ.C3,CQ.FC5,CQ.T7,CQ.CP5,CQ.CP1,CQ.P3,CQ.P7,CQ.PO3,CQ.O1,CQ.Pz,CQ.Oz,CQ.O2,CQ.PO4,CQ.P8,CQ.P4,CQ.CP2,CQ.CP6,CQ.T8,CQ.FC6,CQ.C4,CQ.FC2,CQ.F4,CQ.F8,CQ.AF4,CQ.Fp2,CQ.Overall
1614129419.970638,89.000000,0.000000,-1.994485,0.038341,0.412114,-6.121143,-0.876664,-3.206682,-108.856010,9.585652,8.323908,8.849740,4.498784,3.260226,5.401572,5.570732,-10.275499,8.377058,1.510357,-21.111258,2.507123,-13.931190,-12.951719,-8.628923,-6.968002,10.593044,-1.687764,-1.959456,-2.397235,-6.463965,-0.981352,-2.770158,-10.372419,-23.114077,0.000000,178.000000,4.000000,,,,0.000000,4.000000,4.000000,4.000000,4.000000,4.000000,4.000000,2.000000,4.000000,4.000000,4.000000,4.000000,4.000000,4.000000,4.000000,4.000000,4.000000,4.000000,4.000000,4.000000,4.000000,4.000000,4.000000,4.000000,4.000000,4.000000,4.000000,4.000000,4.000000,4.000000,4.000000,4.000000,4.000000,83.333336
1614129419.978288,90.000000,0.000000,-2.505311,0.038303,0.411702,-6.627842,-3.439890,-3.716296,-82.080490,9.063246,8.315584,9.353711,4.494285,3.769786,4.370529,3.513879,-5.137018,12.471245,0.996026,-21.602968,17.889233,-9.301875,-14.477229,-8.620295,-7.473855,10.582451,-0.660436,-3.495959,-9.061504,-6.970322,-0.467550,-6.869952,-11.387689,-23.090963,0.000000,202.000000,4.000000,,,,0.000000,4.000000,4.000000,4.000000,4.000000,4.000000,4.000000,2.000000,4.000000,4.000000,4.000000,4.000000,4.000000,4.000000,4.000000,4.000000,4.000000,4.000000,4.000000,4.000000,4.000000,4.000000,4.000000,4.000000,4.000000,4.000000,4.000000,4.000000,4.000000,4.000000,4.000000,4.000000,4.000000,83.333336
1614129419.986037,91.000000,0.000000,-1.989985,0.038264,0.924110,-6.108394,-2.410809,-0.635657,-109.177895,9.054183,8.307269,14.472563,3.976970,6.330119,4.366158,7.100109,-2.567779,16.048517,3.046312,-44.145466,-5.205581,-10.318214,-20.103777,-8.611674,-3.363817,10.571869,0.878686,-0.928360,-8.539622,-5.937710,0.558559,-9.940004,-9.325019,-23.067871,0.000000,188.000000,4.000000,,,,0.000000,4.000000,4.000000,4.000000,4.000000,4.000000,4.000000,2.000000,4.000000,4.000000,4.000000,4.000000,4.000000,4.000000,4.000000,4.000000,4.000000,4.000000,4.000000,4.000000,4.000000,4.000000,4.000000,4.000000,4.000000,4.000000,4.000000,4.000000,4.000000,4.000000,4.000000,4.000000,4.000000,83.333336
1614129419.993686,92.000000,0.000000,4.165852,0.038226,0.923186,-5.589465,0.155704,0.390620,-141.376404,9.045129,8.298962,15.996552,4.485814,7.349430,5.900254,12.734035,-3.590852,15.519649,8.171471,-47.178246,-8.277298,-10.820716,-20.596495,-8.603063,3.306214,10.048476,3.441910,4.713594,-5.454160,-3.367670,3.122103,-6.853142,-4.700309,-23.557625,0.000000,185.000000,4.000000,,,,0.000000,4.000000,4.000000,4.000000,4.000000,4.000000,4.000000,2.000000,4.000000,4.000000,4.000000,4.000000,4.000000,4.000000,4.000000,4.000000,4.000000,4.000000,4.000000,4.000000,4.000000,4.000000,4.000000,4.000000,4.000000,4.000000,4.000000,4.000000,4.000000,4.000000,4.000000,4.000000,4.000000,83.333336
1614129420.001335,93.000000,0.000000,4.161685,0.038188,-1.641840,-8.660798,-0.870093,-0.122591,-155.081192,9.036083,8.290663,9.826709,4.994148,6.829259,2.304610,8.618736,-3.074441,10.375923,9.701761,-37.900299,9.679697,-10.297075,-19.037436,-8.594460,3.815728,10.551249,2.925648,2.144778,-5.448706,-2.851482,3.631801,-6.333468,-3.669968,-24.046886,0.000000,171.000000,4.000000,,,,0.000000,4.000000,4.000000,4.000000,4.000000,4.000000,4.000000,2.000000,4.000000,4.000000,4.000000,4.000000,4.000000,4.000000,4.000000,4.000000,4.000000,4.000000,4.000000,4.000000,4.000000,4.000000,4.000000,4.000000,4.000000,4.000000,4.000000,4.000000,4.000000,4.000000,4.000000,4.000000,4.000000,83.333336
1614129420.009084,94.000000,0.000000,-1.996322,-0.474671,-4.204300,-10.190599,-3.433325,-0.122469,-122.105591,9.027047,8.282372,5.201497,3.450693,6.822430,-0.261797,2.456272,-3.584187,8.827086,8.666418,-37.862396,7.105915,-10.286778,-20.044041,-8.585865,0.222169,10.540697,-2.718303,-5.549675,-5.956078,-2.848630,3.115349,-8.891237,-3.666298,-24.022840,0.000000,193.000000,4.000000,,,,0.000000,4.000000,4.000000,4.000000,4.000000,4.000000,4.000000,2.000000,4.000000,4.000000,4.000000,4.000000,4.000000,4.000000,4.000000,4.000000,4.000000,4.000000,4.000000,4.000000,4.000000,4.000000,4.000000,4.000000,4.000000,4.000000,4.000000,4.000000,4.000000,4.000000,4.000000,4.000000,4.000000,83.333336
1614129420.016733,95.000000,0.000000,1.595418,0.038624,-3.174455,-3.513742,-3.429892,0.390474,-89.162979,9.018021,8.274090,5.709116,4.985703,6.815608,8.456413,8.607661,-2.554961,13.946465,10.196214,-37.311714,-2.131960,-10.276491,-20.023996,-8.577279,0.221947,10.017336,-8.356611,-7.082587,-5.437301,-0.281679,3.112234,-10.420807,-0.072888,-23.485996,0.000000,179.000000,4.000000,,,,0.000000,4.000000,4.000000,4.000000,4.000000,4.000000,4.000000,2.000000,4.000000,4.000000,4.000000,4.000000,4.000000,4.000000,4.000000,4.000000,4.000000,4.000000,4.000000,4.000000,4.000000,4.000000,4.000000,4.000000,4.000000,4.000000,4.000000,4.000000,4.000000,4.000000,4.000000,4.000000,4.000000,83.333336
1614129420.024482,96.000000,0.000000,8.773310,-0.474235,-4.709742,2.130798,-2.400821,0.390084,-102.407143,9.009002,8.265816,5.703407,7.544820,6.808792,15.627444,12.188797,0.524517,17.009441,12.237299,-34.710300,-1.104187,-10.779036,-19.491152,-9.081522,1.247366,10.520139,-8.861074,-6.562684,-4.919043,3.821167,2.596301,-10.923207,-0.072815,-23.462511,8064.000000,0.000000,4.000000,,,,0.000000,4.000000,4.000000,4.000000,4.000000,4.000000,4.000000,2.000000,4.000000,4.000000,4.000000,4.000000,4.000000,4.000000,4.000000,4.000000,4.000000,4.000000,4.000000,4.000000,4.000000,4.000000,4.000000,4.000000,4.000000,4.000000,4.000000,4.000000,4.000000,4.000000,4.000000,4.000000,4.000000,83.333336
1614129420.032131,97.000000,0.000000,5.687613,0.039060,-5.217853,0.077385,-3.424061,-0.635947,-134.612427,8.999993,7.744729,5.184883,4.973173,6.801983,7.919509,4.484301,-3.065752,12.889867,12.225062,-34.162769,-0.590262,-10.768256,-22.035763,-8.559620,-0.805164,13.073722,-9.365034,-7.581762,-5.426945,4.842987,3.106525,-8.861002,-1.611204,-16.772383,8064.000000,0.000000,4.000000,,,,0.000000,4.000000,4.000000,4.000000,4.000000,4.000000,4.000000,2.000000,4.000000,4.000000,4.000000,4.000000,4.000000,4.000000,4.000000,4.000000,4.000000,4.000000,4.000000,4.000000,4.000000,4.000000,4.000000,4.000000,4.000000,4.000000,4.000000,4.000000,4.000000,4.000000,4.000000,4.000000,4.000000,83.333336
1614129420.039881,98.000000,0.000000,0.553720,3.115944,7.607878,1.615769,-2.907816,0.903150,-140.631668,8.990993,8.762626,5.179698,1.378456,4.743899,0.219282,-0.135568,-10.242173,8.261593,12.725657,-34.128605,-3.666595,-10.244667,-23.039368,-8.551061,-3.368461,12.547828,-8.842849,-2.445975,-5.421517,4.325323,3.103419,-2.185474,11.210920,3.244390,8064.000000,0.000000,4.000000,,,,0.000000,4.000000,4.000000,4.000000,4.000000,4.000000,4.000000,2.000000,4.000000,4.000000,4.000000,4.000000,4.000000,4.000000,4.000000,4.000000,4.000000,4.000000,4.000000,4.000000,4.000000,4.000000,4.000000,4.000000,4.000000,4.000000,4.000000,4.000000,4.000000,4.000000,4.000000,4.000000,4.000000,83.333336
1614129420.047530,99.000000,0.000000,1.578808,6.702571,21.446424,10.332102,-0.853627,5.517632,-107.670517,8.982002,11.317966,5.687339,2.915540,4.226335,3.808806,1.403029,-8.693469,8.766151,13.225752,-36.658581,-13.919339,-10.747243,-20.965046,-9.568151,-3.365093,10.483997,-3.705801,1.659035,-5.416096,4.833818,2.074674,1.406455,26.071505,19.651403,8064.000000,0.000000,4.000000,,,,0.000000,4.000000,4.000000,4.000000,4.000000,4.000000,4.000000,2.000000,4.000000,4.000000,4.000000,4.000000,4.000000,4.000000,4.000000,4.000000,4.000000,4.000000,4.000000,4.000000,4.000000,4.000000,4.000000,4.000000,4.000000,4.000000,4.000000,4.000000,4.000000,4.000000,4.000000,4.000000,4.000000,83.333336
1614129420.055279,100.000000,0.000000,2.090049,7.721510,21.937798,15.962795,1.198509,8.589037,-74.742340,8.460199,12.332289,5.681652,4.963906,6.273391,6.369100,1.914447,-3.556571,8.244565,11.674065,-42.262947,-20.059265,-10.736496,-19.918440,-8.020121,-3.874548,9.960692,-1.650813,-0.393906,-5.410680,4.828984,3.611061,-0.133413,25.019793,19.631752,8064.000000,0.000000,4.000000,,,,0.000000,4.000000,4.000000,4.000000,4.000000,4.000000,4.000000,2.000000,4.000000,4.000000,4.000000,4.000000,4.000000,4.000000,4.000000,4.000000,4.000000,4.000000,4.000000,4.000000,4.000000,4.000000,4.000000,4.000000,4.000000,4.000000,4.000000,4.000000,4.000000,4.000000,4.000000,4.000000,4.000000,83.333336
1614129420.062928,101.000000,0.000000,1.062318,7.200968,24.479963,15.434012,0.684490,7.554807,-92.103493,8.964560,11.807136,5.675970,4.958942,7.292758,3.798628,0.886891,-2.014553,9.261961,15.764955,-41.195042,-8.244335,-7.648837,-17.847240,-3.396716,-3.357853,9.950732,0.402120,6.273155,-5.405269,4.311335,10.274117,2.943643,21.917849,23.714684,8064.000000,0.000000,4.000000,,,,0.000000,4.000000,4.000000,4.000000,4.000000,4.000000,4.000000,2.000000,4.000000,4.000000,4.000000,4.000000,4.000000,4.000000,4.000000,4.000000,4.000000,4.000000,4.000000,4.000000,4.000000,4.000000,4.000000,4.000000,4.000000,4.000000,4.000000,4.000000,4.000000,4.000000,4.000000,4.000000,4.000000,83.333336
1614129420.070677,102.000000,0.000000,3.112538,7.193767,37.788815,15.418578,0.683806,7.547252,-124.319084,11.006878,11.795328,6.183115,7.005265,6.772645,4.307650,0.886004,0.038744,13.868084,26.005600,-35.000004,3.558781,-3.538624,-11.675547,-0.829217,-1.303213,14.043345,7.581205,18.061754,-5.399864,4.819844,14.879227,10.633007,29.588240,42.665329,8064.000000,0.000000,4.000000,,,,0.000000,4.000000,4.000000,4.000000,4.000000,4.000000,4.000000,2.000000,4.000000,4.000000,4.000000,4.000000,4.000000,4.000000,4.000000,4.000000,4.000000,4.000000,4.000000,4.000000,4.000000,4.000000,4.000000,4.000000,4.000000,4.000000,4.000000,4.000000,4.000000,4.000000,4.000000,4.000000,4.000000,83.333336
1614129420.078326,103.000000,0.000000,5.673528,7.186573,44.417694,15.915980,0.683122,8.052526,-134.963989,12.534332,12.296353,5.151290,9.049541,6.765872,5.328983,1.397939,1.064346,15.905499,27.005236,-35.990643,-2.598624,-2.509444,-7.561307,-0.828388,-0.789089,20.695969,8.599265,16.505230,-5.394464,4.815024,13.838707,11.648015,33.148396,54.417534,8192.000000,0.000000,4.000000,,,,0.000000,4.000000,4.000000,4.000000,4.000000,4.000000,4.000000,2.000000,4.000000,4.000000,4.000000,4.000000,4.000000,4.000000,4.000000,4.000000,4.000000,4.000000,4.000000,4.000000,4.000000,4.000000,4.000000,4.000000,4.000000,4.000000,4.000000,4.000000,4.000000,4.000000,4.000000,4.000000,4.000000,83.333336
1614129420.086075,104.000000,0.000000,4.129393,7.179387,43.860455,14.874423,0.682439,5.993191,-112.264923,12.521798,11.771236,2.582037,6.989210,6.759107,3.785193,1.909361,-5.090564,13.325490,16.721821,-43.134140,-9.262691,-3.019755,-8.066566,-0.314739,-2.839582,21.700914,0.898358,8.283597,-5.389070,2.758927,13.312048,5.995342,29.012682,52.824654,8064.000000,0.000000,4.000000,,,,0.000000,4.000000,4.000000,4.000000,4.000000,4.000000,4.000000,2.000000,4.000000,4.000000,4.000000,4.000000,4.000000,4.000000,4.000000,4.000000,4.000000,4.000000,4.000000,4.000000,4.000000,4.000000,4.000000,4.000000,4.000000,4.000000,4.000000,4.000000,4.000000,4.000000,4.000000,4.000000,4.000000,83.333336
1614129420.093725,105.000000,0.000000,1.561161,7.172207,46.380699,16.398010,1.194577,3.935916,-98.819328,12.509276,12.272286,2.066634,4.930939,6.752347,1.730126,0.368990,-10.213678,13.312164,11.576893,-46.167927,-6.689326,-2.503915,-10.109781,-2.878526,-3.862384,18.602289,-2.179463,8.275313,-5.383681,0.192066,14.324377,4.450885,27.958029,52.259010,8064.000000,0.000000,4.000000,,,,0.000000,4.000000,4.000000,4.000000,4.000000,4.000000,4.000000,2.000000,4.000000,4.000000,4.000000,4.000000,4.000000,4.000000,4.000000,4.000000,4.000000,4.000000,4.000000,4.000000,4.000000,4.000000,4.000000,4.000000,4.000000,4.000000,4.000000,4.000000,4.000000,4.000000,4.000000,4.000000,4.000000,83.333336
1614129420.101474,106.000000,0.000000,1.559600,7.165035,49.924061,18.945715,1.193382,3.419159,-114.617943,12.496767,11.747193,2.577388,4.413188,7.258416,0.702755,-2.195481,-10.716286,12.273211,13.616598,-44.070480,-5.656996,-1.988590,-13.176595,-4.414110,-3.345701,17.558046,-0.638822,9.292679,-5.378297,0.704694,13.797232,7.523357,29.468531,52.719570,8064.000000,0.000000,4.000000,,,,0.000000,4.000000,4.000000,4.000000,4.000000,4.000000,4.000000,2.000000,4.000000,4.000000,4.000000,4.000000,4.000000,4.000000,4.000000,4.000000,4.000000,4.000000,4.000000,4.000000,4.000000,4.000000,4.000000,4.000000,4.000000,4.000000,4.000000,4.000000,4.000000,4.000000,4.000000,4.000000,4.000000,83.333336
1614129420.109123,107.000000,0.000000,2.070861,7.157870,50.899776,17.388308,0.166548,3.928560,-146.298203,12.484270,6.607241,1.549170,4.408774,7.251157,1.727693,-2.706106,-9.679929,12.773759,12.577341,-45.052048,-6.164159,-3.525063,-15.214701,-3.896875,-2.316714,18.053308,-1.151004,6.206463,-5.372919,1.216810,13.783435,8.541474,28.926243,52.666851,8064.000000,0.000000,4.000000,,,,0.000000,4.000000,4.000000,4.000000,4.000000,4.000000,4.000000,2.000000,4.000000,4.000000,4.000000,4.000000,4.000000,4.000000,4.000000,4.000000,4.000000,4.000000,4.000000,4.000000,4.000000,4.000000,4.000000,4.000000,4.000000,4.000000,4.000000,4.000000,4.000000,4.000000,4.000000,4.000000,4.000000,83.333336
1614129420.116872,108.000000,0.000000,1.555969,7.150712,52.387341,15.832458,1.192022,3.924632,-160.510880,12.984606,5.062172,2.573261,4.404366,6.731085,1.725965,-0.652118,-9.670248,14.812267,12.051943,-45.519817,-7.696457,-1.983077,-15.712306,-10.046824,-3.340039,18.548077,-1.662674,4.148974,-5.367546,-0.835689,13.769651,8.020113,28.384495,56.716751,8064.000000,0.000000,4.000000,,,,0.000000,4.000000,4.000000,4.000000,4.000000,4.000000,4.000000,2.000000,4.000000,4.000000,4.000000,4.000000,4.000000,4.000000,4.000000,4.000000,4.000000,4.000000,4.000000,4.000000,4.000000,4.000000,4.000000,4.000000,4.000000,4.000000,4.000000,4.000000,4.000000,4.000000,4.000000,4.000000,4.000000,83.333336
1614129420.124521,109.000000,0.000000,1.554413,7.143561,54.386234,18.380728,2.729292,3.920707,-136.760620,12.971622,7.621212,2.057868,4.912782,7.237175,-2.378325,-2.702748,-11.711861,1.976942,13.578353,-42.397373,-8.201581,-2.493914,-15.183773,-19.267546,-5.387980,17.503887,-0.635370,3.119184,-5.362178,-2.886135,13.755881,8.524913,28.868931,59.736954,8064.000000,0.000000,4.000000,,,,0.000000,4.000000,4.000000,4.000000,4.000000,4.000000,4.000000,2.000000,4.000000,4.000000,4.000000,4.000000,4.000000,4.000000,4.000000,4.000000,4.000000,4.000000,4.000000,4.000000,4.000000,4.000000,4.000000,4.000000,4.000000,4.000000,4.000000,4.000000,4.000000,4.000000,4.000000,4.000000,4.000000,83.333336
1614129420.132270,110.000000,0.000000,1.552859,7.136418,53.306206,19.387987,-3.940104,3.916787,-113.034119,11.933009,6.075130,-4.098036,2.343766,7.229938,-5.965690,-9.879533,-14.264251,-16.486574,8.949389,-42.867798,-3.577995,-9.670907,-18.245512,-20.273920,-5.895413,15.435102,-1.147555,1.064783,-5.356816,-2.883249,13.742126,8.003568,28.840063,57.113117,8064.000000,0.000000,4.000000,,,,0.000000,4.000000,4.000000,4.000000,4.000000,4.000000,4.000000,2.000000,4.000000,4.000000,4.000000,4.000000,4.000000,4.000000,4.000000,4.000000,4.000000,4.000000,4.000000,4.000000,4.000000,4.000000,4.000000,4.000000,4.000000,4.000000,4.000000,4.000000,4.000000,4.000000,4.000000,4.000000,4.000000,83.333336
1614129420.139919,111.000000,0.000000,2.064126,7.129282,54.278542,18.855780,-10.090011,3.912870,-124.715950,13.459538,0.940849,-9.222143,-2.273962,2.094503,-6.472545,-13.972217,-12.711525,-11.854702,0.222492,-51.030060,-13.830827,-17.353544,-29.509319,-19.740826,-7.940800,14.394025,-0.633587,0.550898,-5.351459,-2.880366,13.728383,8.508385,28.811222,54.491901,8064.000000,0.000000,4.000000,,,,0.000000,4.000000,4.000000,4.000000,4.000000,4.000000,4.000000,2.000000,4.000000,4.000000,4.000000,4.000000,4.000000,4.000000,4.000000,4.000000,4.000000,4.000000,4.000000,4.000000,4.000000,4.000000,4.000000,4.000000,4.000000,4.000000,4.000000,4.000000,4.000000,4.000000,4.000000,4.000000,4.000000,83.333336
1614129420.147668,112.000000,0.000000,0.523601,7.122152,59.865288,19.349745,-7.002997,3.908957,-145.616882,11.907617,-0.085732,-8.700101,-3.297329,-4.061438,-7.491714,-11.394142,-13.724455,-1.586437,-3.367475,-56.620052,-37.919559,-18.361832,-40.761860,-23.310829,-14.086705,12.328349,-0.632953,1.063167,-5.346108,-2.877486,13.714655,9.012697,28.782412,54.950230,8064.000000,0.000000,4.000000,,,,0.000000,4.000000,4.000000,4.000000,4.000000,4.000000,4.000000,2.000000,4.000000,4.000000,4.000000,4.000000,4.000000,4.000000,4.000000,4.000000,4.000000,4.000000,4.000000,4.000000,4.000000,4.000000,4.000000,4.000000,4.000000,4.000000,4.000000,4.000000,4.000000,4.000000,4.000000,4.000000,4.000000,83.333336
1614129420.155318,113.000000,0.000000,-2.041025,7.627851,59.805424,16.766293,-9.047276,2.366586,-140.343063,4.203401,0.939994,-9.204221,-2.781211,-5.083017,-10.048325,-15.485312,-22.428679,-14.918184,-1.825646,-56.050613,-34.804718,-16.805008,-42.259560,-23.800339,-18.688004,6.162175,-4.222064,-0.989178,-5.340762,-2.874608,13.188120,3.362659,28.753630,54.895279,8064.000000,0.000000,4.000000,,,,0.000000,4.000000,4.000000,4.000000,4.000000,4.000000,4.000000,2.000000,4.000000,4.000000,4.000000,4.000000,4.000000,4.000000,4.000000,4.000000,4.000000,4.000000,4.000000,4.000000,4.000000,4.000000,4.000000,4.000000,4.000000,4.000000,4.000000,4.000000,4.000000,4.000000,4.000000,4.000000,4.000000,83.333336
1614129420.163067,114.000000,0.000000,-2.551805,6.081761,54.617413,10.082859,-21.345921,0.312938,-112.510406,-2.980289,0.939054,-12.271940,-5.342533,-4.052294,-10.038276,-25.213417,-29.072916,-26.698137,-1.823820,-55.481743,-13.231451,-17.813845,-40.678841,-20.699615,-18.156494,2.053448,-8.320406,-3.039471,-5.335421,-3.897374,11.123650,-4.845832,28.212055,54.840382,8064.000000,0.000000,4.000000,,,,0.000000,4.000000,4.000000,4.000000,4.000000,4.000000,4.000000,2.000000,4.000000,4.000000,4.000000,4.000000,4.000000,4.000000,4.000000,4.000000,4.000000,4.000000,4.000000,4.000000,4.000000,4.000000,4.000000,4.000000,4.000000,4.000000,4.000000,4.000000,4.000000,4.000000,4.000000,4.000000,4.000000,83.333336
1614129420.170716,115.000000,0.000000,-2.036433,4.024397,52.511513,6.995853,-26.452780,-0.200196,-93.423538,-2.977309,-0.087526,-12.772489,-7.388472,-4.561062,-9.515417,-28.777946,-29.043844,-17.953491,-2.847637,-55.939079,-14.756681,-17.796030,-42.176620,-19.140453,-17.625517,2.564215,-8.824906,-2.523611,-5.330085,-6.457580,9.574064,-7.917910,27.671022,54.272724,8064.000000,0.000000,4.000000,,,,0.000000,4.000000,4.000000,4.000000,4.000000,4.000000,4.000000,2.000000,4.000000,4.000000,4.000000,4.000000,4.000000,4.000000,4.000000,4.000000,4.000000,4.000000,4.000000,4.000000,4.000000,4.000000,4.000000,4.000000,4.000000,4.000000,4.000000,4.000000,4.000000,4.000000,4.000000,4.000000,4.000000,83.333336
1614129420.178465,116.000000,0.000000,-2.034396,2.994732,53.484642,6.988857,-22.323763,0.312825,-109.227547,-1.948691,-2.651541,-12.246896,-6.355443,-4.556501,-9.505902,-28.236349,-29.014801,-12.807332,-2.331969,-56.395962,-21.921412,-17.265413,-40.083164,-19.121313,-18.120712,3.074472,-9.328902,-3.546728,-5.324755,-6.963943,10.077311,-6.884351,28.668993,54.218449,8192.000000,0.000000,4.000000,,,,0.000000,4.000000,4.000000,4.000000,4.000000,4.000000,4.000000,2.000000,4.000000,4.000000,4.000000,4.000000,4.000000,4.000000,4.000000,4.000000,4.000000,4.000000,4.000000,4.000000,4.000000,4.000000,4.000000,4.000000,4.000000,4.000000,4.000000,4.000000,4.000000,4.000000,4.000000,4.000000,4.000000,83.333336
1614129420.186114,117.000000,0.000000,-2.032362,3.504558,52.918339,7.494689,-20.762978,0.312512,-135.272171,-2.459563,-2.648889,-12.234649,-6.349087,-4.039124,-9.496396,-26.669651,-26.934504,-11.768884,-1.816816,-55.313927,-12.668721,-17.248148,-34.402054,-19.102192,-17.589771,2.558577,-6.755470,-2.004720,-5.319431,-6.444158,10.067234,-5.851825,28.640324,57.241154,8064.000000,0.000000,4.000000,,,,0.000000,4.000000,4.000000,4.000000,4.000000,4.000000,4.000000,2.000000,4.000000,4.000000,4.000000,4.000000,4.000000,4.000000,4.000000,4.000000,4.000000,4.000000,4.000000,4.000000,4.000000,4.000000,4.000000,4.000000,4.000000,4.000000,4.000000,4.000000,4.000000,4.000000,4.000000,4.000000,4.000000,83.333336
1614129420.193863,118.000000,0.000000,-2.030329,3.501053,52.865421,11.076938,-21.767857,0.312200,-121.290741,-2.457103,0.430683,-12.222414,-6.342738,-4.035085,-9.486899,-17.925032,-22.292185,-0.987884,-1.815000,-50.643227,-13.681694,-16.718081,-32.829189,-18.570269,-17.572182,3.068839,-0.082048,4.663951,-5.314111,-6.437714,9.544346,-3.281871,27.073221,61.286476,8064.000000,0.000000,4.000000,,,,0.000000,4.000000,4.000000,4.000000,4.000000,4.000000,4.000000,2.000000,4.000000,4.000000,4.000000,4.000000,4.000000,4.000000,4.000000,4.000000,4.000000,4.000000,4.000000,4.000000,4.000000,4.000000,4.000000,4.000000,4.000000,4.000000,4.000000,4.000000,4.000000,4.000000,4.000000,4.000000,4.000000,83.333336
1614129420.201512,119.000000,0.000000,-2.028299,3.497552,52.812553,15.168425,-22.258909,0.311888,-88.348938,-1.941826,0.943073,-12.210192,-6.336395,-4.031049,-9.477412,-8.676338,-20.731430,4.654129,-2.326005,-52.643867,-25.975704,-16.701363,-33.822002,-18.551699,-17.041788,3.065770,2.994957,9.274673,-5.308797,-6.431276,10.047622,0.311155,32.174355,62.250832,8192.000000,0.000000,4.000000,,,,0.000000,4.000000,4.000000,4.000000,4.000000,4.000000,4.000000,2.000000,4.000000,4.000000,4.000000,4.000000,4.000000,4.000000,4.000000,4.000000,4.000000,4.000000,4.000000,4.000000,4.000000,4.000000,4.000000,4.000000,4.000000,4.000000,4.000000,4.000000,4.000000,4.000000,4.000000,4.000000,4.000000,83.333336
1614129420.209261,120.000000,0.000000,-2.026271,3.494055,52.759743,15.666077,-17.621265,0.311576,-81.593925,-1.939884,0.429309,-12.197982,-6.330059,-4.027019,-9.467936,-9.693302,-19.172237,-1.504371,-1.298038,-57.206608,-21.847164,-18.223122,-31.736898,-20.071609,-17.537567,3.062704,3.504782,8.752577,-5.303488,-6.424845,10.037575,3.387767,39.321667,61.675762,8064.000000,0.000000,4.000000,,,,0.000000,4.000000,4.000000,4.000000,4.000000,4.000000,4.000000,2.000000,4.000000,4.000000,4.000000,4.000000,4.000000,4.000000,4.000000,4.000000,4.000000,4.000000,4.000000,4.000000,4.000000,4.000000,4.000000,4.000000,4.000000,4.000000,4.000000,4.000000,4.000000,4.000000,4.000000,4.000000,4.000000,83.333336
1614129420.216911,121.000000,0.000000,-2.024244,3.490561,52.706982,14.624770,-7.347234,0.311264,-112.794380,-1.937944,1.454521,-12.185783,-6.323729,-4.022991,-9.458467,-13.273353,-14.024860,-2.015687,1.267362,-48.431450,-5.927881,-18.204899,-29.653879,-19.538717,-17.520029,2.546821,6.065380,8.231004,-5.298185,-6.418420,10.027536,4.922840,37.231064,61.614086,8064.000000,0.000000,4.000000,,,,0.000000,4.000000,4.000000,4.000000,4.000000,4.000000,4.000000,2.000000,4.000000,4.000000,4.000000,4.000000,4.000000,4.000000,4.000000,4.000000,4.000000,4.000000,4.000000,4.000000,4.000000,4.000000,4.000000,4.000000,4.000000,4.000000,4.000000,4.000000,4.000000,4.000000,4.000000,4.000000,4.000000,83.333336
1614129420.224660,122.000000,0.000000,-2.022220,3.487070,52.654274,15.122966,-1.186041,-0.201868,-144.989273,-1.936006,-1.111036,-12.173597,-6.317405,-4.018969,-9.449009,-12.234438,-12.472374,-2.013672,2.291736,-44.280457,-4.896312,-16.135412,-29.624226,-19.006357,-16.989689,2.544274,4.520854,8.735594,-5.292887,-6.412002,10.017509,4.917917,32.065628,61.552471,8064.000000,0.000000,4.000000,,,,0.000000,4.000000,4.000000,4.000000,4.000000,4.000000,4.000000,2.000000,4.000000,4.000000,4.000000,4.000000,4.000000,4.000000,4.000000,4.000000,4.000000,4.000000,4.000000,4.000000,4.000000,4.000000,4.000000,4.000000,4.000000,4.000000,4.000000,4.000000,4.000000,4.000000,4.000000,4.000000,4.000000,83.333336
1614129420.232309,123.000000,0.000000,-2.020198,3.483583,52.601620,15.107842,-2.210495,0.311155,-153.049423,-1.934070,-2.648387,-12.161424,-6.311088,-4.014949,-9.439560,-12.222204,-13.485542,-8.165504,0.238162,-64.236176,-28.993980,-22.785944,-29.594601,-25.654018,-19.023981,3.567371,-0.099052,8.214038,-5.287594,-6.405590,10.007492,4.400179,33.572021,62.003738,8064.000000,0.000000,4.000000,,,,0.000000,4.000000,4.000000,4.000000,4.000000,4.000000,4.000000,2.000000,4.000000,4.000000,4.000000,4.000000,4.000000,4.000000,4.000000,4.000000,4.000000,4.000000,4.000000,4.000000,4.000000,4.000000,4.000000,4.000000,4.000000,4.000000,4.000000,4.000000,4.000000,4.000000,4.000000,4.000000,4.000000,83.333336
1614129420.240058,124.000000,0.000000,-2.018178,3.480099,52.549019,14.579914,-2.721106,2.874946,-120.075851,-1.932136,0.944005,-12.662083,-6.304777,-4.010934,-9.430120,-12.722802,-13.472056,-8.157339,-2.326178,-72.889885,-42.298321,-29.429823,-30.077827,-31.782209,-21.569059,1.512521,-1.637415,8.205823,-5.282306,-6.912004,9.997484,4.395779,36.615372,59.890453,8064.000000,0.000000,4.000000,,,,0.000000,4.000000,4.000000,4.000000,4.000000,4.000000,4.000000,2.000000,4.000000,4.000000,4.000000,4.000000,4.000000,4.000000,4.000000,4.000000,4.000000,4.000000,4.000000,4.000000,4.000000,4.000000,4.000000,4.000000,4.000000,4.000000,4.000000,4.000000,4.000000,4.000000,4.000000,4.000000,4.000000,83.333336
1614129420.247707,125.000000,0.000000,-2.016160,3.476619,52.496471,14.565334,-1.692743,4.410533,-87.648087,-1.930204,5.045625,-11.623780,-6.298472,-4.006924,-9.420691,-13.222899,-13.458585,-0.969694,-1.811032,-52.816998,-18.153458,-16.579882,-30.047749,-21.494017,-20.521851,-1.053094,-2.661418,7.684797,-5.789845,-5.879452,9.987487,3.878562,35.553116,57.779282,8064.000000,0.000000,4.000000,,,,0.000000,4.000000,4.000000,4.000000,4.000000,4.000000,4.000000,2.000000,4.000000,4.000000,4.000000,4.000000,4.000000,4.000000,4.000000,4.000000,4.000000,4.000000,4.000000,4.000000,4.000000,4.000000,4.000000,4.000000,4.000000,4.000000,4.000000,4.000000,4.000000,4.000000,4.000000,4.000000,4.000000,83.333336
1614129420.255456,126.000000,0.000000,-2.014143,3.473143,52.443974,15.576410,-2.203871,3.893302,-115.765564,-1.928273,5.040579,-9.560874,-6.292173,-4.002917,-9.411269,-12.696856,-12.932305,2.621019,3.318985,-41.994949,1.864696,2.923878,-25.402317,-6.087908,-15.373123,3.563344,0.418166,8.189933,-5.271234,-3.822290,10.490320,4.900325,35.004742,59.772785,8064.000000,0.000000,4.000000,,,,0.000000,4.000000,4.000000,4.000000,4.000000,4.000000,4.000000,2.000000,4.000000,4.000000,4.000000,4.000000,4.000000,4.000000,4.000000,4.000000,4.000000,4.000000,4.000000,4.000000,4.000000,4.000000,4.000000,4.000000,4.000000,4.000000,4.000000,4.000000,4.000000,4.000000,4.000000,4.000000,4.000000,83.333336
1614129420.263105,127.000000,0.000000,-2.012129,3.469669,52.391529,15.560834,-2.201667,3.889408,-147.957489,-1.926345,4.522718,-8.525672,-6.285881,-3.998914,-9.401858,-12.171339,-13.945014,1.592757,6.392589,-51.696545,-11.470502,2.408134,-21.787170,-4.030538,-13.306468,10.226447,6.058774,8.694563,-4.753142,-2.280006,8.941368,4.382604,35.482559,61.764294,8064.000000,0.000000,4.000000,,,,0.000000,4.000000,4.000000,4.000000,4.000000,4.000000,4.000000,2.000000,4.000000,4.000000,4.000000,4.000000,4.000000,4.000000,4.000000,4.000000,4.000000,4.000000,4.000000,4.000000,4.000000,4.000000,4.000000,4.000000,4.000000,4.000000,4.000000,4.000000,4.000000,4.000000,4.000000,4.000000,4.000000,83.333336
1614129420.270755,0.000000,0.000000,-2.010117,3.466200,52.339138,14.006811,-3.225107,3.885519,-159.091583,-1.924419,4.005375,-8.517147,-6.279595,-3.994915,-9.392456,-13.697629,-15.982351,0.052703,1.770811,-53.183311,-15.048775,-6.312223,-23.303846,-8.641891,-14.318803,10.729041,2.975792,7.147407,-6.286850,-2.790547,5.855504,1.814119,34.934258,60.676888,0.000000,181.000000,4.000000,,,,0.000000,4.000000,4.000000,4.000000,4.000000,4.000000,4.000000,2.000000,4.000000,4.000000,4.000000,4.000000,4.000000,4.000000,4.000000,4.000000,4.000000,4.000000,4.000000,4.000000,4.000000,4.000000,4.000000,4.000000,4.000000,4.000000,4.000000,4.000000,4.000000,4.000000,4.000000,4.000000,4.000000,83.333336
1614129420.278504,1.000000,0.000000,-2.008107,3.462734,52.286800,16.556908,-3.221882,3.368813,-126.111984,-1.922494,4.514190,-5.944527,-6.786136,-3.990920,-9.383064,-13.683931,-15.966369,-1.998632,-1.307883,-46.976280,2.402171,-4.767449,-21.229259,-8.120430,-13.791663,9.692671,1.947175,7.653080,-4.742102,-2.787756,6.362469,3.863587,35.412144,63.693134,0.000000,192.000000,4.000000,,,,0.000000,4.000000,4.000000,4.000000,4.000000,4.000000,4.000000,2.000000,4.000000,4.000000,4.000000,4.000000,4.000000,4.000000,4.000000,4.000000,4.000000,4.000000,4.000000,4.000000,4.000000,4.000000,4.000000,4.000000,4.000000,4.000000,4.000000,4.000000,4.000000,4.000000,4.000000,4.000000,4.000000,83.333336
1614129420.286153,2.000000,0.000000,-2.006099,3.459271,52.234512,20.130095,-1.167378,3.878265,-93.165359,-1.920572,5.535317,-3.887300,-6.266530,-3.986929,-9.373681,-9.054863,-13.899120,-0.458172,1.257528,-46.929302,5.989513,-1.172938,-14.028543,-7.086668,-11.213769,12.759902,14.252920,12.260812,0.390845,-2.784969,9.945849,11.039210,35.376732,68.757645,0.000000,150.000000,4.000000,,,,0.000000,4.000000,4.000000,4.000000,4.000000,4.000000,4.000000,2.000000,4.000000,4.000000,4.000000,4.000000,4.000000,4.000000,4.000000,4.000000,4.000000,4.000000,4.000000,4.000000,4.000000,4.000000,4.000000,4.000000,4.000000,4.000000,4.000000,4.000000,4.000000,4.000000,4.000000,4.000000,4.000000,83.333336
1614129420.293902,3.000000,0.000000,-2.004093,3.455812,52.182278,12.930476,-4.755954,3.874386,-115.636292,-1.918651,-0.111244,-4.909054,-5.747443,-3.982942,-8.851486,-10.071449,-12.859580,2.619210,1.256270,-45.343914,5.983523,-2.197406,-10.424771,-8.105223,-9.664094,14.285604,13.725847,8.145987,0.903275,-2.782184,9.423083,10.515350,32.777252,66.124786,0.000000,172.000000,4.000000,,,,0.000000,4.000000,4.000000,4.000000,4.000000,4.000000,4.000000,2.000000,4.000000,4.000000,4.000000,4.000000,4.000000,4.000000,4.000000,4.000000,4.000000,4.000000,4.000000,4.000000,4.000000,4.000000,4.000000,4.000000,4.000000,4.000000,4.000000,4.000000,4.000000,4.000000,4.000000,4.000000,4.000000,83.333336
1614129420.301551,4.000000,0.000000,-2.002089,3.452356,51.617275,4.199597,-9.879403,3.357692,-147.828354,-1.916733,-5.752158,-4.904145,-6.767336,-3.978959,-9.868277,-13.651121,-12.846721,1.078129,3.306296,-38.119083,17.259590,-2.708030,-10.927167,-8.097117,-10.167251,13.758497,0.891608,-2.118569,-4.738654,-2.779401,6.849558,5.376630,30.693192,60.930454,0.000000,217.000000,4.000000,,,,0.000000,4.000000,4.000000,4.000000,4.000000,4.000000,4.000000,2.000000,4.000000,4.000000,4.000000,4.000000,4.000000,4.000000,4.000000,4.000000,4.000000,4.000000,4.000000,4.000000,4.000000,4.000000,4.000000,4.000000,4.000000,4.000000,4.000000,4.000000,4.000000,4.000000,4.000000,4.000000,4.000000,83.333336
1614129420.309300,5.000000,0.000000,-2.000087,3.448903,54.129761,12.913346,-2.690037,4.892796,-146.142059,-1.914816,1.433081,1.254605,-6.247748,-3.974980,-8.832767,-1.842599,-13.346695,4.153974,10.482477,-36.029682,12.626946,-2.705321,-10.916240,-8.089020,-10.157083,13.744739,6.018922,6.088677,-5.246736,-2.776622,10.432451,7.422536,32.713779,60.356705,0.000000,184.000000,4.000000,,,,0.000000,4.000000,4.000000,4.000000,4.000000,4.000000,4.000000,2.000000,4.000000,4.000000,4.000000,4.000000,4.000000,4.000000,4.000000,4.000000,4.000000,4.000000,4.000000,4.000000,4.000000,4.000000,4.000000,4.000000,4.000000,4.000000,4.000000,4.000000,4.000000,4.000000,4.000000,4.000000,4.000000,83.333336
1614129420.316949,6.000000,0.000000,-1.998086,3.445454,58.691013,28.285048,8.081884,9.503287,-113.175407,-1.912901,11.688058,7.407197,-1.626116,-3.971005,-5.747011,12.518218,-13.333348,11.329307,10.471994,-36.506474,-3.795937,-3.728257,-11.418144,-8.593752,-10.146926,13.730994,17.294954,21.980024,-2.164566,-2.773845,14.011763,11.517677,35.245171,61.321987,0.000000,192.000000,4.000000,,,,0.000000,4.000000,4.000000,4.000000,4.000000,4.000000,4.000000,2.000000,4.000000,4.000000,4.000000,4.000000,4.000000,4.000000,4.000000,4.000000,4.000000,4.000000,4.000000,4.000000,4.000000,4.000000,4.000000,4.000000,4.000000,4.000000,4.000000,4.000000,4.000000,4.000000,4.000000,4.000000,4.000000,83.333336
1614129420.324698,7.000000,0.000000,-1.483268,3.442009,60.170784,29.795225,4.996880,12.057886,-83.318642,-1.910988,11.163549,4.835687,1.965254,-3.454214,-6.766905,5.839034,-12.807194,9.779516,1.230753,-34.418682,-4.817781,-1.160426,-10.381084,-7.559517,-10.136779,13.717263,11.123813,18.881121,-1.136761,-2.771071,13.484931,12.018980,35.209923,60.747845,0.000000,181.000000,4.000000,,,,0.000000,4.000000,4.000000,4.000000,4.000000,4.000000,4.000000,2.000000,4.000000,4.000000,4.000000,4.000000,4.000000,4.000000,4.000000,4.000000,4.000000,4.000000,4.000000,4.000000,4.000000,4.000000,4.000000,4.000000,4.000000,4.000000,4.000000,4.000000,4.000000,4.000000,4.000000,4.000000,4.000000,83.333336
1614129420.332348,8.000000,0.000000,-2.507426,3.438567,59.597794,25.662865,-2.700425,9.481726,-95.543015,-1.909077,8.588284,-3.887097,-1.113634,-3.963580,-11.888343,-9.038600,-16.384130,-3.050776,-3.385862,-41.050930,-3.787323,-3.723368,-9.857883,-8.064777,-9.613822,14.216366,4.446023,8.093010,-1.135624,-2.768301,13.471446,12.006961,34.661892,60.687099,0.000000,203.000000,4.000000,,,,0.000000,4.000000,4.000000,4.000000,4.000000,4.000000,4.000000,2.000000,4.000000,4.000000,4.000000,4.000000,4.000000,4.000000,4.000000,4.000000,4.000000,4.000000,4.000000,4.000000,4.000000,4.000000,4.000000,4.000000,4.000000,4.000000,4.000000,4.000000,4.000000,4.000000,4.000000,4.000000,4.000000,83.333336
1614129420.340097,9.000000,0.000000,-5.069021,2.922308,59.025375,25.637203,-3.210545,6.908142,-121.601318,-1.907168,8.066875,-9.011415,-5.727905,-6.010899,-13.414916,-15.183408,-26.111336,-17.406700,-4.920938,-54.856033,-14.039946,-17.052979,-16.001871,-12.672097,-10.117028,12.663689,6.492858,7.572096,-2.672950,-2.765532,13.970795,9.943672,35.140053,60.626411,0.000000,213.000000,4.000000,,,,0.000000,4.000000,4.000000,4.000000,4.000000,4.000000,4.000000,2.000000,4.000000,4.000000,4.000000,4.000000,4.000000,4.000000,4.000000,4.000000,4.000000,4.000000,4.000000,4.000000,4.000000,4.000000,4.000000,4.000000,4.000000,4.000000,4.000000,4.000000,4.000000,4.000000,4.000000,4.000000,4.000000,83.333336
1614129420.347746,10.000000,0.000000,-6.089593,3.432206,59.991993,25.611565,-2.694514,7.926875,-127.120743,-2.418082,8.058808,-6.951122,-7.260639,-7.543349,-13.401502,-16.193865,-28.649328,-16.876472,-6.454478,-53.775536,-18.641291,-20.112848,-23.165358,-15.223528,-10.619732,10.086922,4.947904,9.102985,-5.234379,-2.762767,13.444003,7.882446,35.104912,60.565784,0.000000,186.000000,4.000000,,,,0.000000,4.000000,4.000000,4.000000,4.000000,4.000000,4.000000,2.000000,4.000000,4.000000,4.000000,4.000000,4.000000,4.000000,4.000000,4.000000,4.000000,4.000000,4.000000,4.000000,4.000000,4.000000,4.000000,4.000000,4.000000,4.000000,4.000000,4.000000,4.000000,4.000000,4.000000,4.000000,4.000000,83.333336
1614129420.355495,11.000000,0.000000,-5.057862,5.992877,63.521744,26.611595,-2.691820,10.995871,-102.891060,-2.415663,11.127672,-5.405709,-6.227737,-7.535806,-13.388100,-12.075108,-20.415550,1.601942,-5.935203,-40.901249,-12.468803,-6.759402,-22.116550,-13.157022,-9.583471,9.051194,7.507059,8.068242,-5.741966,-2.760004,13.430559,13.515590,35.069809,60.505219,0.000000,180.000000,4.000000,,,,0.000000,4.000000,4.000000,4.000000,4.000000,4.000000,4.000000,2.000000,4.000000,4.000000,4.000000,4.000000,4.000000,4.000000,4.000000,4.000000,4.000000,4.000000,4.000000,4.000000,4.000000,4.000000,4.000000,4.000000,4.000000,4.000000,4.000000,4.000000,4.000000,4.000000,4.000000,4.000000,4.000000,83.333336
1614129420.363144,12.000000,0.000000,-7.104086,7.525345,60.381298,24.020882,-3.714769,10.984875,-83.813805,-1.900427,8.552442,-5.400303,-6.221510,-7.528270,-12.861892,-11.037392,-15.779750,9.292648,-6.954909,-42.911629,-10.917872,-6.239822,-25.171356,-13.143866,-11.625170,10.580605,11.602116,7.034533,-6.249044,-2.757244,12.904308,13.502074,35.034737,58.906254,0.000000,200.000000,4.000000,,,,0.000000,4.000000,4.000000,4.000000,4.000000,4.000000,4.000000,2.000000,4.000000,4.000000,4.000000,4.000000,4.000000,4.000000,4.000000,4.000000,4.000000,4.000000,4.000000,4.000000,4.000000,4.000000,4.000000,4.000000,4.000000,4.000000,4.000000,4.000000,4.000000,4.000000,4.000000,4.000000,4.000000,83.333336
1614129420.370893,13.000000,0.000000,-9.148264,7.004999,49.551685,16.817373,-8.839259,8.409787,-103.729996,-2.924168,-0.686880,-5.394903,-9.805032,-7.520741,-14.387491,-18.205841,-18.328072,-4.049978,-8.999236,-55.176411,-11.419775,-20.079737,-37.966698,-15.182004,-17.767391,8.518742,4.411026,1.386472,-10.858180,-2.754487,9.814481,2.719341,34.999702,56.283245,0.000000,198.000000,4.000000,,,,0.000000,4.000000,4.000000,4.000000,4.000000,4.000000,4.000000,2.000000,4.000000,4.000000,4.000000,4.000000,4.000000,4.000000,4.000000,4.000000,4.000000,4.000000,4.000000,4.000000,4.000000,4.000000,4.000000,4.000000,4.000000,4.000000,4.000000,4.000000,4.000000,4.000000,4.000000,4.000000,4.000000,83.333336
1614129420.378542,14.000000,0.000000,-9.651937,6.997994,48.476494,16.800556,-8.317599,6.862916,-131.318573,-1.895603,-2.224654,-5.902329,-7.231124,-4.949118,-12.321821,-15.110712,-16.258463,-7.635672,-4.374853,-54.608414,-9.869894,-18.521194,-38.954372,-16.192463,-15.698341,2.869197,0.304051,-4.768760,-12.385783,-3.264553,5.702102,2.203801,34.964703,56.739780,0.000000,177.000000,4.000000,,,,0.000000,4.000000,4.000000,4.000000,4.000000,4.000000,4.000000,2.000000,4.000000,4.000000,4.000000,4.000000,4.000000,4.000000,4.000000,4.000000,4.000000,4.000000,4.000000,4.000000,4.000000,4.000000,4.000000,4.000000,4.000000,4.000000,4.000000,4.000000,4.000000,4.000000,4.000000,4.000000,4.000000,83.333336
1614129420.386292,15.000000,0.000000,-9.642284,6.990996,56.633144,23.963242,0.408667,6.856053,-125.546227,2.208857,5.982698,-3.845145,3.545338,-3.405708,-2.053089,0.801834,-8.037076,6.218118,3.834651,-45.835857,-10.885665,-4.656520,-28.146187,-14.637809,-5.939053,4.917610,9.534516,-0.148607,-5.193910,-2.235647,4.670759,14.509290,34.929737,59.759964,0.000000,181.000000,4.000000,,,,0.000000,4.000000,4.000000,4.000000,4.000000,4.000000,4.000000,2.000000,4.000000,4.000000,4.000000,4.000000,4.000000,4.000000,4.000000,4.000000,4.000000,4.000000,4.000000,4.000000,4.000000,4.000000,4.000000,4.000000,4.000000,4.000000,4.000000,4.000000,4.000000,4.000000,4.000000,4.000000,4.000000,83.333336
1614129420.393941,16.000000,0.000000,-8.607001,6.984005,59.140614,25.477739,5.023643,7.874838,-103.369400,5.283571,9.053638,5.389470,9.695639,-3.915123,6.154092,7.467699,-4.439295,10.314464,5.882098,-43.225918,-10.361959,-1.574940,-21.964195,-10.007787,-1.830550,16.707565,12.089085,9.082311,1.477950,0.330691,12.871217,19.622986,34.894810,60.725845,0.000000,193.000000,4.000000,,,,0.000000,4.000000,4.000000,4.000000,4.000000,4.000000,4.000000,2.000000,4.000000,4.000000,4.000000,4.000000,4.000000,4.000000,4.000000,4.000000,4.000000,4.000000,4.000000,4.000000,4.000000,4.000000,4.000000,4.000000,4.000000,4.000000,4.000000,4.000000,4.000000,4.000000,4.000000,4.000000,4.000000,83.333336
1614129420.401690,17.000000,0.000000,-6.547112,6.977021,58.568653,24.426622,6.557081,9.918245,-105.317314,5.791108,7.506124,11.025106,8.660302,-3.911207,6.147938,6.434590,-5.460497,9.278508,5.363395,-38.054485,6.058660,-2.599007,-14.762744,-4.356753,-2.854360,22.331882,5.923149,12.150151,2.502114,1.356001,23.114756,18.064901,34.859913,60.152298,0.000000,158.000000,4.000000,,,,0.000000,4.000000,4.000000,4.000000,4.000000,4.000000,4.000000,2.000000,4.000000,4.000000,4.000000,4.000000,4.000000,4.000000,4.000000,4.000000,4.000000,4.000000,4.000000,4.000000,4.000000,4.000000,4.000000,4.000000,4.000000,4.000000,4.000000,4.000000,4.000000,4.000000,4.000000,4.000000,4.000000,83.333336
1614129420.409339,18.000000,0.000000,-5.002104,6.970044,61.587009,27.991938,10.653088,10.933969,-135.468399,7.323779,8.011438,9.475619,8.651642,-3.907296,5.116149,5.915335,-5.455036,12.346153,6.896493,-28.272842,17.334652,-2.083587,-6.542853,-3.326755,-2.338686,20.771090,5.917226,11.112360,1.986791,0.841825,21.553179,18.559656,34.825054,60.092148,0.000000,183.000000,4.000000,,,,0.000000,4.000000,4.000000,4.000000,4.000000,4.000000,4.000000,2.000000,4.000000,4.000000,4.000000,4.000000,4.000000,4.000000,4.000000,4.000000,4.000000,4.000000,4.000000,4.000000,4.000000,4.000000,4.000000,4.000000,4.000000,4.000000,4.000000,4.000000,4.000000,4.000000,4.000000,4.000000,4.000000,83.333336
1614129420.417088,19.000000,0.000000,-5.509922,6.963074,63.063881,27.451126,11.155255,10.923035,-155.845749,9.367737,8.516247,9.466144,9.155810,-3.903389,6.136674,4.370958,-5.449581,7.205602,3.299854,-30.808672,0.907061,-5.671247,-12.177336,-7.425992,-4.387629,21.263138,2.321565,11.614069,2.497625,0.840983,14.352139,18.541098,34.790230,60.544876,0.000000,181.000000,4.000000,,,,0.000000,4.000000,4.000000,4.000000,4.000000,4.000000,4.000000,2.000000,4.000000,4.000000,4.000000,4.000000,4.000000,4.000000,4.000000,4.000000,4.000000,4.000000,4.000000,4.000000,4.000000,4.000000,4.000000,4.000000,4.000000,4.000000,4.000000,4.000000,4.000000,4.000000,4.000000,4.000000,4.000000,83.333336
1614129420.424737,20.000000,0.000000,-5.504412,6.956111,62.487999,22.295469,8.067177,10.912111,-135.177094,9.358369,8.507731,10.482319,8.633834,-3.899485,5.617716,5.392229,-5.956952,3.608653,3.296554,-39.495811,-11.914359,-9.768140,-17.806185,-11.008310,-6.434523,18.164951,-0.244859,12.115275,2.495127,0.840142,14.850608,15.958453,34.755440,58.433048,0.000000,189.000000,4.000000,,,,0.000000,4.000000,4.000000,4.000000,4.000000,4.000000,4.000000,2.000000,4.000000,4.000000,4.000000,4.000000,4.000000,4.000000,4.000000,4.000000,4.000000,4.000000,4.000000,4.000000,4.000000,4.000000,4.000000,4.000000,4.000000,4.000000,4.000000,4.000000,4.000000,4.000000,4.000000,4.000000,4.000000,83.333336
1614129420.432486,21.000000,0.000000,-4.986087,7.461976,61.912689,22.785995,8.059110,10.901199,-102.221397,8.836190,8.499223,6.369272,9.650842,-3.895586,5.612099,3.848375,-4.925354,9.246070,10.985565,-36.379395,2.969350,-7.707090,-11.121711,-12.022943,-1.299884,13.531403,7.960514,11.590339,1.979811,0.839302,17.912680,14.404034,34.720684,56.323334,0.000000,189.000000,4.000000,,,,0.000000,4.000000,4.000000,4.000000,4.000000,4.000000,4.000000,2.000000,4.000000,4.000000,4.000000,4.000000,4.000000,4.000000,4.000000,4.000000,4.000000,4.000000,4.000000,4.000000,4.000000,4.000000,4.000000,4.000000,4.000000,4.000000,4.000000,4.000000,4.000000,4.000000,4.000000,4.000000,4.000000,83.333336
1614129420.440136,22.000000,0.000000,-4.981101,6.941693,60.312317,25.840132,8.563871,10.890298,-99.555077,8.314533,4.900980,1.747518,4.000165,-3.891690,3.042384,-9.488807,-9.022993,6.159900,8.923297,-37.881477,5.017663,-7.699383,-16.238794,-11.498099,0.239878,15.569154,11.029477,11.578749,1.977832,0.838463,16.869125,14.389629,34.685963,56.267010,0.000000,170.000000,4.000000,,,,0.000000,4.000000,4.000000,4.000000,4.000000,4.000000,4.000000,2.000000,4.000000,4.000000,4.000000,4.000000,4.000000,4.000000,4.000000,4.000000,4.000000,4.000000,4.000000,4.000000,4.000000,4.000000,4.000000,4.000000,4.000000,4.000000,4.000000,4.000000,4.000000,4.000000,4.000000,4.000000,4.000000,83.333336
1614129420.447885,23.000000,0.000000,-6.001761,6.421931,58.200722,25.301472,7.529666,10.879408,-127.147827,5.742116,0.280695,1.745771,-7.285887,-3.887799,-5.165786,-17.684446,-17.731918,-1.538567,-1.342036,-53.228210,-17.038637,-13.845530,-28.017427,-11.999422,-5.401388,16.066404,6.403063,11.567170,1.975854,0.837624,17.365078,14.888061,34.651276,56.210743,0.000000,203.000000,4.000000,,,,0.000000,4.000000,4.000000,4.000000,4.000000,4.000000,4.000000,2.000000,4.000000,4.000000,4.000000,4.000000,4.000000,4.000000,4.000000,4.000000,4.000000,4.000000,4.000000,4.000000,4.000000,4.000000,4.000000,4.000000,4.000000,4.000000,4.000000,4.000000,4.000000,4.000000,4.000000,4.000000,4.000000,83.333336
1614129420.455534,24.000000,0.000000,-4.970118,8.466791,58.142521,24.250528,7.522136,10.868528,-147.533508,4.710733,0.280414,2.256846,-11.381165,-3.883911,-9.263185,-12.538557,-20.791109,0.514253,-2.879156,-59.328827,-18.047239,-13.318863,-20.809923,-11.474602,-7.447268,10.922133,12.037685,11.555603,1.973878,0.836787,20.424635,14.360352,34.616627,56.154533,0.000000,189.000000,4.000000,,,,0.000000,4.000000,4.000000,4.000000,4.000000,4.000000,4.000000,2.000000,4.000000,4.000000,4.000000,4.000000,4.000000,4.000000,4.000000,4.000000,4.000000,4.000000,4.000000,4.000000,4.000000,4.000000,4.000000,4.000000,4.000000,4.000000,4.000000,4.000000,4.000000,4.000000,4.000000,4.000000,4.000000,83.333336
1614129420.463283,25.000000,0.000000,-2.401046,11.022427,58.084377,25.251919,8.027434,10.857659,-128.924423,5.218843,0.792954,2.254589,-10.344143,-3.880027,-8.741101,-9.449095,-19.231857,0.000919,-1.850636,-51.577190,-0.080474,-6.126057,-4.378857,-9.411845,-5.901360,8.859929,18.179493,11.544047,1.971904,0.835950,20.917032,14.345991,34.582008,56.098377,0.000000,197.000000,4.000000,,,,0.000000,4.000000,4.000000,4.000000,4.000000,4.000000,4.000000,2.000000,4.000000,4.000000,4.000000,4.000000,4.000000,4.000000,4.000000,4.000000,4.000000,4.000000,4.000000,4.000000,4.000000,4.000000,4.000000,4.000000,4.000000,4.000000,4.000000,4.000000,4.000000,4.000000,4.000000,4.000000,4.000000,83.333336
1614129420.470932,26.000000,0.000000,-2.911465,7.421661,58.539112,25.226667,8.019407,10.846802,-95.974991,5.213624,0.279341,1.739514,-10.846619,-4.388968,-5.655437,-7.901185,-16.135702,2.565020,-3.387247,-43.320484,9.663197,-2.530188,-1.810375,-8.376792,-7.946740,9.876710,14.571570,11.532503,1.457112,-0.703348,19.357653,14.331645,34.547428,56.042278,0.000000,165.000000,4.000000,,,,0.000000,4.000000,4.000000,4.000000,4.000000,4.000000,4.000000,2.000000,4.000000,4.000000,4.000000,4.000000,4.000000,4.000000,4.000000,4.000000,4.000000,4.000000,4.000000,4.000000,4.000000,4.000000,4.000000,4.000000,4.000000,4.000000,4.000000,4.000000,4.000000,4.000000,4.000000,4.000000,4.000000,83.333336
1614129420.478681,27.000000,0.000000,-5.472656,2.798854,57.454933,24.688620,8.011388,9.297494,-74.340553,5.208411,0.279061,2.250595,-5.194747,-2.333297,1.529706,1.850306,-4.837515,16.408609,4.821269,-30.969473,15.807380,-0.476375,-6.423949,-7.342774,-10.502896,9.354012,13.018538,11.520970,1.968475,-2.753926,17.287014,14.830134,34.512878,56.499058,0.000000,167.000000,4.000000,,,,0.000000,4.000000,4.000000,4.000000,4.000000,4.000000,4.000000,2.000000,4.000000,4.000000,4.000000,4.000000,4.000000,4.000000,4.000000,4.000000,4.000000,4.000000,4.000000,4.000000,4.000000,4.000000,4.000000,4.000000,4.000000,4.000000,4.000000,4.000000,4.000000,4.000000,4.000000,4.000000,4.000000,83.333336
1614129420.486330,28.000000,0.000000,-5.467184,2.796056,54.833378,24.663931,8.003377,7.236914,-106.573906,5.203202,0.791603,2.761165,0.451474,-0.279681,8.707664,7.489482,4.910912,14.853739,13.021576,-24.784657,10.663367,-3.040002,-13.084192,-6.309791,-10.492393,9.857479,11.979878,11.509450,1.966506,-3.263993,16.244085,14.302484,34.478367,54.904095,0.000000,188.000000,4.000000,,,,0.000000,4.000000,4.000000,4.000000,4.000000,4.000000,4.000000,2.000000,4.000000,4.000000,4.000000,4.000000,4.000000,4.000000,4.000000,4.000000,4.000000,4.000000,4.000000,4.000000,4.000000,4.000000,4.000000,4.000000,4.000000,4.000000,4.000000,4.000000,4.000000,4.000000,4.000000,4.000000,4.000000,83.333336
1614129420.494079,29.000000,0.000000,-5.461716,3.306080,54.265720,25.152088,8.508194,6.716856,-138.775024,5.197999,0.790811,1.732762,-3.138721,0.233419,7.673315,4.405069,3.367540,3.556834,5.316247,-36.041924,-12.937040,-12.267731,-21.276236,-11.431686,-10.481901,10.360442,6.839693,11.497940,0.938899,-3.260729,16.740662,15.313822,34.443890,52.797909,0.000000,195.000000,4.000000,,,,0.000000,4.000000,4.000000,4.000000,4.000000,4.000000,4.000000,2.000000,4.000000,4.000000,4.000000,4.000000,4.000000,4.000000,4.000000,4.000000,4.000000,4.000000,4.000000,4.000000,4.000000,4.000000,4.000000,4.000000,4.000000,4.000000,4.000000,4.000000,4.000000,4.000000,4.000000,4.000000,4.000000,83.333336
1614129420.501729,30.000000,0.000000,-5.456254,2.789953,54.724277,25.126936,9.012506,7.735781,-133.508041,5.192801,0.790020,-0.833073,-5.699685,-0.279635,5.614359,2.349382,1.825711,10.219944,3.259648,-32.928959,-12.411283,-14.819566,-21.254959,-10.907434,-8.932958,7.273159,6.320033,11.486443,2.989242,-2.744648,16.723921,17.349791,34.409443,51.719471,0.000000,202.000000,4.000000,,,,0.000000,4.000000,4.000000,4.000000,4.000000,4.000000,4.000000,2.000000,4.000000,4.000000,4.000000,4.000000,4.000000,4.000000,4.000000,4.000000,4.000000,4.000000,4.000000,4.000000,4.000000,4.000000,4.000000,4.000000,4.000000,4.000000,4.000000,4.000000,4.000000,4.000000,4.000000,4.000000,4.000000,83.333336
1614129420.509378,31.000000,0.000000,-3.399516,5.351266,54.156731,24.588989,7.465032,7.215225,-100.554024,5.187608,0.789230,-1.857881,-0.565780,-0.279355,6.121565,2.859853,3.362346,13.799467,14.538440,-15.972953,15.806257,-9.163720,-14.054217,1.923986,-6.872743,8.291527,11.441918,11.474956,7.601637,-0.177800,16.194376,18.358082,33.862213,52.180573,0.000000,152.000000,4.000000,,,,0.000000,4.000000,4.000000,4.000000,4.000000,4.000000,4.000000,2.000000,4.000000,4.000000,4.000000,4.000000,4.000000,4.000000,4.000000,4.000000,4.000000,4.000000,4.000000,4.000000,4.000000,4.000000,4.000000,4.000000,2.000000,4.000000,4.000000,4.000000,4.000000,4.000000,4.000000,4.000000,4.000000,66.666664
1614129420.517127,32.000000,0.000000,-1.344835,7.397197,54.102577,25.077221,8.996029,6.695189,-78.915009,5.695241,0.788441,-1.343202,2.511708,-0.279076,3.551341,1.831352,-3.820503,-5.701511,14.011081,-32.367237,9.123784,-13.257121,-20.706831,-0.129220,-5.840229,13.924261,13.481758,11.463481,10.158138,1.360839,16.691002,18.339724,34.341171,52.128391,8064.000000,0.000000,4.000000,,,,0.000000,4.000000,4.000000,4.000000,4.000000,4.000000,4.000000,2.000000,4.000000,4.000000,4.000000,4.000000,4.000000,4.000000,4.000000,4.000000,4.000000,4.000000,4.000000,4.000000,4.000000,4.000000,4.000000,4.000000,2.000000,4.000000,4.000000,4.000000,4.000000,4.000000,4.000000,4.000000,4.000000,66.666664
1614129420.524776,33.000000,0.000000,-1.856310,6.876979,55.074116,25.052143,8.987033,7.714135,-111.143784,5.176725,1.300473,-0.829039,0.970735,-0.278797,1.496508,2.342341,-10.483350,-14.413758,5.279121,-64.642563,-23.193031,-26.064377,-39.147663,-21.154732,-6.347209,12.371875,12.442636,11.452018,8.609519,0.333837,16.674311,18.321384,34.819653,52.076263,8064.000000,0.000000,4.000000,,,,0.000000,4.000000,4.000000,4.000000,4.000000,4.000000,4.000000,2.000000,4.000000,4.000000,4.000000,4.000000,4.000000,4.000000,4.000000,4.000000,4.000000,4.000000,4.000000,4.000000,4.000000,4.000000,4.000000,4.000000,2.000000,4.000000,4.000000,4.000000,4.000000,4.000000,4.000000,4.000000,4.000000,66.666664
1614129420.532525,34.000000,0.000000,-1.854454,7.382923,52.454937,22.462988,-1.791185,6.167959,-143.340332,5.171549,-0.239289,-1.853851,-0.055877,-0.278518,2.007832,1.314358,-8.421584,-4.655755,7.325124,-63.039455,-29.323685,-28.089594,-44.236721,-25.748960,-6.340862,6.718478,13.455833,11.440565,9.113729,0.846324,16.657637,15.738960,31.195087,52.024189,8064.000000,0.000000,4.000000,,,,0.000000,4.000000,4.000000,4.000000,4.000000,4.000000,4.000000,2.000000,4.000000,4.000000,4.000000,4.000000,4.000000,4.000000,4.000000,4.000000,4.000000,4.000000,4.000000,4.000000,4.000000,4.000000,4.000000,4.000000,2.000000,4.000000,4.000000,4.000000,4.000000,4.000000,4.000000,4.000000,4.000000,66.666664
1614129420.540174,35.000000,0.000000,-1.852600,7.375540,45.735817,20.902063,-14.097087,1.546406,-152.940582,6.192018,-2.290332,-3.903279,-2.107103,0.234581,-3.635202,-3.815161,-16.105471,-1.574176,8.343440,-49.130264,-4.166156,-21.907658,-35.474533,-12.389879,-5.821701,6.198938,13.442378,11.429125,10.643078,1.358298,16.640980,11.620657,27.061329,52.484985,8064.000000,0.000000,4.000000,,,,0.000000,4.000000,4.000000,4.000000,4.000000,4.000000,4.000000,2.000000,4.000000,4.000000,4.000000,4.000000,4.000000,4.000000,4.000000,4.000000,4.000000,4.000000,4.000000,4.000000,4.000000,4.000000,4.000000,4.000000,2.000000,4.000000,4.000000,4.000000,4.000000,4.000000,4.000000,4.000000,4.000000,66.666664
1614129420.547923,36.000000,0.000000,-1.850747,3.778421,42.100338,20.881161,-15.108630,-1.019243,-124.582512,4.647365,-3.313682,-5.437837,-6.720380,-0.791295,-12.349515,-8.939551,-31.473980,-6.187987,-2.434134,-55.234982,3.530318,-19.834469,-33.387779,-11.864669,-5.815879,4.141458,12.916115,11.417696,6.017050,-1.719983,16.624338,10.070575,26.008627,52.432499,8192.000000,0.000000,4.000000,,,,0.000000,4.000000,4.000000,4.000000,4.000000,4.000000,4.000000,2.000000,4.000000,4.000000,4.000000,4.000000,4.000000,4.000000,4.000000,4.000000,4.000000,4.000000,4.000000,4.000000,4.000000,4.000000,4.000000,4.000000,2.000000,4.000000,4.000000,4.000000,4.000000,4.000000,4.000000,4.000000,4.000000,66.666664
1614129420.555573,37.000000,0.000000,-1.848896,3.774642,42.058235,20.860281,-14.067881,-0.505403,-96.765625,-0.998308,-2.797548,-5.432399,-10.303404,-0.790503,-13.362806,-9.956253,-30.416864,-8.745901,-8.072726,-57.231026,-1.088598,-18.788994,-32.328747,-15.955368,-6.322883,-0.990889,13.416019,11.406278,2.421289,-2.231084,16.607714,10.060504,27.008259,49.815964,8064.000000,0.000000,4.000000,,,,0.000000,4.000000,4.000000,4.000000,4.000000,4.000000,4.000000,2.000000,4.000000,4.000000,4.000000,4.000000,4.000000,4.000000,4.000000,4.000000,4.000000,4.000000,4.000000,4.000000,4.000000,4.000000,4.000000,4.000000,2.000000,4.000000,4.000000,4.000000,4.000000,4.000000,4.000000,4.000000,4.000000,66.666664
1614129420.563322,38.000000,0.000000,-2.359868,6.847791,43.041821,20.839420,-15.079453,-1.017718,-87.950912,-3.048592,-3.307571,-5.426967,-10.293100,0.748749,-7.708418,-9.946297,-16.540295,-2.583309,-2.423627,-44.866104,8.143260,-13.129179,-22.552830,-11.836848,-6.316560,0.035743,11.351321,11.394872,4.470150,2.386532,16.591106,11.076084,26.468430,47.714867,8064.000000,0.000000,4.000000,,,,0.000000,4.000000,4.000000,4.000000,4.000000,4.000000,4.000000,2.000000,4.000000,4.000000,4.000000,4.000000,4.000000,4.000000,4.000000,4.000000,4.000000,4.000000,4.000000,4.000000,4.000000,4.000000,4.000000,4.000000,2.000000,4.000000,4.000000,4.000000,4.000000,4.000000,4.000000,4.000000,4.000000,66.666664
1614129420.570971,39.000000,0.000000,-1.844687,3.251199,42.485958,19.792940,-14.551554,-0.503880,-108.888603,-2.019902,-3.304263,-5.421540,-10.282807,-4.380205,-5.136607,-10.449171,-11.908369,7.162864,2.194181,-39.180210,15.314604,-11.577588,-23.043098,-13.363473,-5.797423,2.599810,4.673303,9.332195,4.978500,4.435427,16.574516,9.526546,26.441961,48.179970,8192.000000,0.000000,4.000000,,,,0.000000,4.000000,4.000000,4.000000,4.000000,4.000000,4.000000,2.000000,4.000000,4.000000,4.000000,4.000000,4.000000,4.000000,4.000000,4.000000,4.000000,4.000000,4.000000,4.000000,4.000000,4.000000,4.000000,4.000000,2.000000,4.000000,4.000000,4.000000,4.000000,4.000000,4.000000,4.000000,4.000000,66.666664
1614129420.578720,40.000000,0.000000,-1.842843,-0.854616,41.417828,17.209044,-15.049823,-0.503376,-132.882278,-5.607626,-3.300959,-5.416119,-10.272524,-11.555312,-7.695573,-9.413080,-14.973384,6.642880,1.166346,-42.217957,4.530059,-15.155754,-36.353390,-21.555239,-9.381370,2.597210,-2.510857,7.271581,1.383778,1.354069,16.557941,5.927277,26.928341,45.567688,8064.000000,0.000000,4.000000,,,,0.000000,4.000000,4.000000,4.000000,4.000000,4.000000,4.000000,2.000000,4.000000,4.000000,4.000000,4.000000,4.000000,4.000000,4.000000,4.000000,4.000000,4.000000,4.000000,4.000000,4.000000,4.000000,4.000000,4.000000,2.000000,4.000000,4.000000,4.000000,4.000000,4.000000,4.000000,4.000000,4.000000,66.666664
1614129420.586369,41.000000,0.000000,-4.405103,3.761623,45.991795,16.679014,-12.470671,-1.528513,-108.646828,-5.602019,-2.272017,-3.872241,-10.262252,-10.518116,-9.226339,-9.403667,-10.855846,2.020853,0.652359,-40.637276,-1.115497,-14.114957,-36.829857,-19.482401,-13.987372,2.081792,-2.508346,7.264309,1.382394,0.327074,16.541384,9.511093,26.901413,44.496479,8064.000000,0.000000,4.000000,,,,0.000000,4.000000,4.000000,4.000000,4.000000,4.000000,4.000000,2.000000,4.000000,4.000000,4.000000,4.000000,4.000000,4.000000,4.000000,4.000000,4.000000,4.000000,4.000000,4.000000,4.000000,4.000000,4.000000,4.000000,2.000000,4.000000,4.000000,4.000000,4.000000,4.000000,4.000000,4.000000,4.000000,66.666664
1614129420.594118,42.000000,0.000000,-5.426338,7.860425,54.663754,20.764900,-0.150508,5.139682,-75.717667,7.224096,-1.756925,3.311119,-9.739169,-2.302469,-3.576087,-7.342982,-4.178324,10.736781,5.779912,-38.032536,2.475362,-8.459817,-25.510975,-13.821893,-13.973386,2.592531,5.186470,7.769866,0.868192,1.352388,16.524841,19.245173,26.874512,51.631470,8064.000000,0.000000,4.000000,,,,0.000000,4.000000,4.000000,4.000000,4.000000,4.000000,4.000000,2.000000,4.000000,4.000000,4.000000,4.000000,4.000000,4.000000,4.000000,4.000000,4.000000,4.000000,4.000000,4.000000,4.000000,4.000000,4.000000,4.000000,2.000000,4.000000,4.000000,4.000000,4.000000,4.000000,4.000000,4.000000,4.000000,66.666664
1614129420.601767,43.000000,0.000000,-2.856810,6.314104,58.711655,28.949263,13.182977,18.467875,-92.052208,16.960463,2.347396,12.025756,-6.652507,2.828038,3.606976,5.997694,-4.686966,17.905531,11.415157,-42.097069,-2.655318,-9.989819,-24.972643,-14.833712,-10.882489,3.102759,12.360770,7.762095,-2.209600,0.838215,16.508316,23.328491,26.847637,59.272148,8064.000000,0.000000,4.000000,,,,0.000000,4.000000,4.000000,4.000000,4.000000,4.000000,4.000000,2.000000,4.000000,4.000000,4.000000,4.000000,4.000000,4.000000,4.000000,4.000000,4.000000,4.000000,4.000000,4.000000,4.000000,4.000000,4.000000,4.000000,2.000000,4.000000,4.000000,4.000000,4.000000,4.000000,4.000000,4.000000,4.000000,66.666664
1614129420.609516,44.000000,0.000000,-1.315491,6.820610,59.165764,34.561340,19.323639,24.090433,-124.267853,16.943501,10.037356,15.090653,-1.004829,5.902133,5.654651,19.325029,-5.707921,13.272241,13.455024,-40.003689,-2.139843,-13.056751,-23.409208,-14.306058,-9.845965,5.150938,13.374051,7.754333,1.382354,0.837376,16.491808,22.279522,26.820789,61.776978,8064.000000,0.000000,4.000000,,,,0.000000,4.000000,4.000000,4.000000,4.000000,4.000000,4.000000,2.000000,4.000000,4.000000,4.000000,4.000000,4.000000,4.000000,4.000000,4.000000,4.000000,4.000000,4.000000,4.000000,4.000000,4.000000,4.000000,4.000000,2.000000,4.000000,4.000000,4.000000,4.000000,4.000000,4.000000,4.000000,4.000000,66.666664
1614129420.617166,45.000000,0.000000,-1.826996,7.839430,57.055313,35.039600,18.791496,20.476599,-115.425636,16.926558,10.540140,11.998640,2.073099,7.434693,5.648996,20.844166,-1.086828,15.310250,13.954390,-26.630350,17.349478,-10.479592,-17.744774,-11.727649,-9.836120,6.171428,12.335035,7.746579,8.560458,0.836539,16.475317,20.718781,26.793968,58.125458,8192.000000,0.000000,4.000000,,,,0.000000,4.000000,4.000000,4.000000,4.000000,4.000000,4.000000,2.000000,4.000000,4.000000,4.000000,4.000000,4.000000,4.000000,4.000000,4.000000,4.000000,4.000000,4.000000,4.000000,4.000000,4.000000,4.000000,4.000000,2.000000,4.000000,4.000000,4.000000,4.000000,4.000000,4.000000,4.000000,4.000000,66.666664
1614129420.624915,46.000000,0.000000,-1.825169,4.241848,50.331593,32.953278,14.670139,17.892019,-83.002518,15.371170,3.350112,8.396897,1.558206,5.888796,5.130527,15.182297,-2.624202,14.269300,9.837872,-31.731926,10.152640,-21.238344,-30.547541,-17.869768,-9.826283,6.678077,13.348342,7.738832,8.551898,0.835703,16.458841,15.057035,26.767174,48.836563,8064.000000,0.000000,4.000000,,,,0.000000,4.000000,4.000000,4.000000,4.000000,4.000000,4.000000,2.000000,4.000000,4.000000,4.000000,4.000000,4.000000,4.000000,4.000000,4.000000,4.000000,4.000000,4.000000,4.000000,4.000000,4.000000,4.000000,4.000000,2.000000,4.000000,4.000000,4.000000,4.000000,4.000000,4.000000,4.000000,4.000000,66.666664
1614129420.632564,47.000000,0.000000,-1.823344,3.724785,43.614594,31.894682,10.552905,15.822845,-74.201561,10.227593,0.782660,7.362860,0.531007,3.318805,-0.002809,5.936345,-14.416451,-4.719329,-0.428377,-63.495064,-22.165205,-43.781208,-51.542633,-26.057026,-9.816457,6.158579,13.847814,8.243914,4.953602,0.834867,16.442383,7.862492,26.740406,41.095417,8064.000000,0.000000,4.000000,,,,0.000000,4.000000,4.000000,4.000000,4.000000,4.000000,4.000000,2.000000,4.000000,4.000000,4.000000,4.000000,4.000000,4.000000,4.000000,4.000000,4.000000,4.000000,4.000000,4.000000,4.000000,4.000000,4.000000,4.000000,2.000000,4.000000,4.000000,4.000000,4.000000,4.000000,4.000000,4.000000,4.000000,66.666664
1614129420.640313,48.000000,0.000000,-2.334341,6.285163,39.981236,33.401249,6.952609,12.730100,-85.409416,9.191725,0.781877,4.791394,-1.520807,3.315486,-5.643832,-1.761899,-22.607162,-19.073584,-7.094615,-73.687981,-32.399448,-45.788708,-53.029552,-26.543789,-9.806641,2.049856,13.321145,6.697209,5.461469,0.834032,16.938761,4.777706,23.123922,37.977398,8064.000000,0.000000,4.000000,,,,0.000000,4.000000,4.000000,4.000000,4.000000,4.000000,4.000000,2.000000,4.000000,4.000000,4.000000,4.000000,4.000000,4.000000,4.000000,4.000000,4.000000,4.000000,4.000000,4.000000,4.000000,4.000000,4.000000,4.000000,2.000000,4.000000,4.000000,4.000000,4.000000,4.000000,4.000000,4.000000,4.000000,66.666664
1614129420.647962,49.000000,0.000000,-1.819186,4.227596,33.787407,31.316566,-0.233831,7.589165,-96.093231,6.105610,-3.834289,1.196859,-4.596209,3.312171,-6.151008,-1.760137,-19.507631,-15.464767,-6.061880,-52.075832,-10.315768,-32.409588,-45.797035,-24.978785,-9.796834,-1.541937,12.795004,4.639229,5.968828,0.833198,14.870540,3.747287,17.972593,30.247114,8064.000000,0.000000,4.000000,,,,0.000000,4.000000,4.000000,4.000000,4.000000,4.000000,4.000000,2.000000,4.000000,4.000000,4.000000,4.000000,4.000000,4.000000,4.000000,4.000000,4.000000,4.000000,4.000000,4.000000,4.000000,4.000000,4.000000,4.000000,2.000000,4.000000,4.000000,4.000000,4.000000,4.000000,4.000000,4.000000,4.000000,66.666664
1614129420.655711,50.000000,0.000000,-1.817367,-0.392017,28.625416,18.464737,-7.413084,-0.110732,-93.945862,-2.618444,-6.907378,-1.368440,-6.130074,3.308859,-5.632037,-3.809659,-20.000944,-13.398020,-6.055818,-48.434013,-9.279812,-30.838715,-47.289703,-25.979446,-9.787037,-1.540395,13.295030,4.121769,5.450039,0.832365,11.778747,3.743540,16.416159,20.473278,8064.000000,0.000000,4.000000,,,,0.000000,4.000000,4.000000,4.000000,4.000000,4.000000,4.000000,2.000000,4.000000,4.000000,4.000000,4.000000,4.000000,4.000000,4.000000,4.000000,4.000000,4.000000,4.000000,4.000000,4.000000,4.000000,4.000000,4.000000,2.000000,4.000000,4.000000,4.000000,4.000000,4.000000,4.000000,4.000000,4.000000,66.666664
1614129420.663360,51.000000,0.000000,-2.841191,-1.417266,27.058329,3.061657,-12.021055,-6.777288,-85.133965,-7.744031,-7.413291,-5.469636,-6.636765,3.305550,-6.139225,-18.164824,-31.262995,-18.000006,-6.562582,-59.667629,-18.501301,-31.833517,-47.242413,-26.466288,-10.290071,-1.538855,11.743273,3.604827,5.444589,0.831532,9.202865,3.226976,14.861282,17.888700,8064.000000,0.000000,4.000000,,,,0.000000,4.000000,4.000000,4.000000,4.000000,4.000000,4.000000,2.000000,4.000000,4.000000,4.000000,4.000000,4.000000,4.000000,4.000000,4.000000,4.000000,4.000000,4.000000,4.000000,4.000000,4.000000,4.000000,4.000000,2.000000,4.000000,4.000000,4.000000,4.000000,4.000000,4.000000,4.000000,4.000000,66.666664
1614129420.671109,52.000000,0.000000,-0.274247,0.122613,24.979988,-2.582431,-16.624418,-8.308972,-96.330879,-5.685005,-9.457160,-13.156474,-8.681410,3.302244,-6.133086,-25.326145,-35.847115,-18.494827,-6.043200,-47.300270,-11.816133,-27.186300,-43.092606,-24.388538,-9.254140,-1.024496,4.552042,4.114043,5.439144,0.830701,8.680841,3.736569,15.359241,18.383633,8064.000000,0.000000,4.000000,,,,0.000000,4.000000,4.000000,4.000000,4.000000,4.000000,4.000000,2.000000,4.000000,4.000000,4.000000,4.000000,4.000000,4.000000,4.000000,4.000000,4.000000,4.000000,4.000000,4.000000,4.000000,4.000000,4.000000,4.000000,2.000000,4.000000,4.000000,4.000000,4.000000,4.000000,4.000000,4.000000,4.000000,66.666664
1614129420.678759,53.000000,0.000000,4.854232,-0.390330,24.442188,-1.041387,-17.633436,-7.787843,-128.542236,-3.115217,-10.473344,-16.733061,-10.211190,3.811762,-5.101312,-15.557230,-24.016397,-12.835306,-5.524336,-30.842712,-7.701753,-26.133472,-40.998230,-20.774406,-7.193604,4.104734,-1.606356,4.109929,5.946526,0.829870,10.210622,5.271294,17.395164,19.390890,8064.000000,0.000000,4.000000,,,,0.000000,4.000000,4.000000,4.000000,4.000000,4.000000,4.000000,2.000000,4.000000,4.000000,4.000000,4.000000,4.000000,4.000000,4.000000,4.000000,4.000000,4.000000,4.000000,4.000000,4.000000,4.000000,4.000000,4.000000,2.000000,4.000000,4.000000,4.000000,4.000000,4.000000,4.000000,4.000000,4.000000,66.666664
1614129420.686508,54.000000,0.000000,5.875019,-1.928401,24.417746,-1.040345,-16.590162,-7.780055,-147.900879,-2.599282,-9.950050,-13.639405,-9.688158,3.295130,-5.096210,-7.849365,-14.248792,-6.668625,-2.441888,-31.324690,-5.129948,-22.517595,-41.982872,-22.292093,-5.647948,7.177552,-2.117570,0.516075,3.889297,0.829040,8.149130,-0.887823,9.172641,18.858679,8064.000000,0.000000,4.000000,,,,0.000000,4.000000,4.000000,4.000000,4.000000,4.000000,4.000000,2.000000,4.000000,4.000000,4.000000,4.000000,4.000000,4.000000,4.000000,4.000000,4.000000,4.000000,4.000000,4.000000,4.000000,4.000000,4.000000,4.000000,2.000000,4.000000,4.000000,4.000000,4.000000,4.000000,4.000000,4.000000,4.000000,66.666664
1614129420.694157,55.000000,0.000000,5.356324,-3.977755,18.239483,-2.577766,-18.624853,-7.772275,-115.445290,-2.083862,-9.940100,-12.087304,-9.678470,3.291835,-5.603935,-9.379977,-16.285824,-6.149136,1.150297,-29.754904,11.285438,-13.264308,-40.402428,-21.756981,-6.155121,6.144734,-2.115453,-3.587005,1.834126,0.828211,-1.089789,-12.168986,-1.605763,12.173154,8064.000000,0.000000,4.000000,,,,0.000000,4.000000,4.000000,4.000000,4.000000,4.000000,4.000000,2.000000,4.000000,4.000000,4.000000,4.000000,4.000000,4.000000,4.000000,4.000000,4.000000,4.000000,4.000000,4.000000,4.000000,4.000000,4.000000,4.000000,2.000000,4.000000,4.000000,4.000000,4.000000,4.000000,4.000000,4.000000,4.000000,66.666664
1614129420.701906,56.000000,0.000000,5.350967,-4.486598,13.605858,-4.113650,-20.657511,-7.251682,-82.509331,-2.081778,-9.417339,-12.588037,-9.668792,3.801364,-5.085510,-8.857777,-16.269539,-5.630166,2.174788,-32.289253,15.376717,-14.789505,-36.772282,-15.581378,-6.148965,6.138589,-1.600517,-3.583418,1.319471,0.827383,-6.729724,-14.720921,3.011228,8.058416,8064.000000,0.000000,4.000000,,,,0.000000,4.000000,4.000000,4.000000,4.000000,4.000000,4.000000,2.000000,4.000000,4.000000,4.000000,4.000000,4.000000,4.000000,4.000000,4.000000,4.000000,4.000000,4.000000,4.000000,4.000000,4.000000,4.000000,4.000000,2.000000,4.000000,4.000000,4.000000,4.000000,4.000000,4.000000,4.000000,4.000000,66.666664
1614129420.709555,57.000000,0.000000,5.858437,-3.969290,16.669176,-4.622357,-18.072750,-7.244431,-93.196053,-2.079696,-10.946383,-12.062629,-9.659122,2.771921,-5.593246,-7.823278,-15.227629,-4.598895,2.685434,-54.821064,-11.305326,-33.749077,-43.402176,-17.617079,-6.142817,6.645271,0.965187,-3.067014,1.830972,0.826556,-4.158892,-14.706200,13.264627,12.152923,8064.000000,0.000000,4.000000,,,,0.000000,4.000000,4.000000,4.000000,4.000000,4.000000,4.000000,2.000000,4.000000,4.000000,4.000000,4.000000,4.000000,4.000000,4.000000,4.000000,4.000000,4.000000,4.000000,4.000000,4.000000,4.000000,4.000000,4.000000,2.000000,4.000000,4.000000,4.000000,4.000000,4.000000,4.000000,4.000000,4.000000,66.666664
1614129420.717304,58.000000,0.000000,5.339758,-3.965321,18.703789,-3.592094,-18.567497,-6.724366,-125.410545,-2.077616,-12.986719,-12.563387,-12.213566,-1.333415,-11.228678,-15.507762,-21.879066,-15.363527,0.118646,-77.330345,-36.422226,-51.664043,-58.743389,-29.907154,-6.136674,3.048882,0.964221,-3.576767,1.829141,0.825729,-1.077810,-20.845339,11.200080,10.089487,7936.000000,0.000000,4.000000,,,,0.000000,4.000000,4.000000,4.000000,4.000000,4.000000,4.000000,2.000000,4.000000,4.000000,4.000000,4.000000,4.000000,4.000000,4.000000,4.000000,4.000000,4.000000,4.000000,4.000000,4.000000,4.000000,4.000000,4.000000,2.000000,4.000000,4.000000,4.000000,4.000000,4.000000,4.000000,4.000000,4.000000,66.666664
1614129420.724953,59.000000,0.000000,5.334418,-3.961356,16.120981,-3.075681,-23.164316,-6.204821,-145.797958,-1.562718,-11.435271,-15.114925,-13.226994,-4.409004,-16.345654,-23.697382,-28.011034,-25.604574,-4.496858,-79.304298,-29.206318,-47.509815,-58.684647,-32.954170,-6.130537,-0.543910,-1.088025,-3.060370,-0.736790,0.312083,-1.589553,-25.439878,5.035034,-1.202654,8064.000000,0.000000,4.000000,,,,0.000000,4.000000,4.000000,4.000000,4.000000,4.000000,4.000000,2.000000,4.000000,4.000000,4.000000,4.000000,4.000000,4.000000,4.000000,4.000000,4.000000,4.000000,4.000000,4.000000,4.000000,4.000000,4.000000,4.000000,2.000000,4.000000,4.000000,4.000000,4.000000,4.000000,4.000000,4.000000,4.000000,66.666664
1614129420.732603,60.000000,0.000000,5.329083,-3.957394,13.540758,-4.611067,-24.679613,-8.762718,-112.831650,-2.073976,-9.372554,-16.125452,-13.213767,-3.891775,-16.842129,-23.673685,-26.444561,-13.271276,-6.030822,-68.455765,-7.638649,-30.539228,-42.728527,-26.254549,-6.124407,-2.594649,0.964345,-3.057310,-2.274515,1.337412,-2.613605,-25.927259,4.517178,-7.868117,8064.000000,0.000000,4.000000,,,,0.000000,4.000000,4.000000,4.000000,4.000000,4.000000,4.000000,2.000000,4.000000,4.000000,4.000000,4.000000,4.000000,4.000000,4.000000,4.000000,4.000000,4.000000,4.000000,4.000000,4.000000,4.000000,4.000000,4.000000,2.000000,4.000000,4.000000,4.000000,4.000000,4.000000,4.000000,4.000000,4.000000,66.666664
1614129420.740352,61.000000,0.000000,4.810934,-3.440616,14.040038,-3.580815,-24.142113,-10.805238,-79.898300,-2.071902,-9.876001,-15.596506,-13.713373,-3.887883,-16.312466,-21.085909,-23.341194,4.690712,-6.537612,-61.207821,1.599759,-22.816381,-34.480671,-24.177013,-6.118282,-1.053592,1.989022,-3.054252,-0.733779,3.387357,-0.559709,-26.926973,6.563943,-5.296147,8064.000000,0.000000,4.000000,,,,0.000000,4.000000,4.000000,4.000000,4.000000,4.000000,4.000000,2.000000,4.000000,4.000000,4.000000,4.000000,4.000000,4.000000,4.000000,4.000000,4.000000,4.000000,4.000000,4.000000,4.000000,4.000000,4.000000,4.000000,2.000000,4.000000,4.000000,4.000000,4.000000,4.000000,4.000000,4.000000,4.000000,66.666664
1614129420.748001,62.000000,0.000000,5.318944,-3.437176,14.538818,-2.551593,-23.605150,-10.281612,-90.587631,-1.557010,-9.866125,-15.580910,-13.186840,-4.396816,-16.808975,-20.039183,-23.830673,5.198842,-4.479792,-59.608150,1.085338,-23.819206,-34.959011,-22.614374,-6.112164,6.126948,2.499853,-2.538378,1.831057,4.922431,6.107518,-17.669277,5.531738,-4.265210,8064.000000,0.000000,4.000000,,,,0.000000,4.000000,4.000000,4.000000,4.000000,4.000000,4.000000,2.000000,4.000000,4.000000,4.000000,4.000000,4.000000,4.000000,4.000000,4.000000,4.000000,4.000000,4.000000,4.000000,4.000000,4.000000,4.000000,4.000000,2.000000,4.000000,4.000000,4.000000,4.000000,4.000000,4.000000,4.000000,4.000000,66.666664
1614129420.755750,63.000000,0.000000,5.826445,-7.023482,8.370434,-9.215708,-24.607185,-14.373895,-122.804741,-3.606735,-9.856259,-16.078150,-12.660832,-3.879598,-16.279345,-19.506323,-23.294022,-1.473023,-0.372748,-54.933159,2.109894,-23.282566,-29.795845,-18.489195,-6.106052,12.274668,2.497354,-3.048660,1.829226,4.404688,5.588590,-7.908018,-3.191742,-11.440432,8064.000000,0.000000,4.000000,,,,0.000000,4.000000,4.000000,4.000000,4.000000,4.000000,4.000000,2.000000,4.000000,4.000000,4.000000,4.000000,4.000000,4.000000,4.000000,4.000000,4.000000,4.000000,4.000000,4.000000,4.000000,4.000000,4.000000,4.000000,2.000000,4.000000,4.000000,4.000000,4.000000,4.000000,4.000000,4.000000,4.000000,66.666664
1614129420.763399,64.000000,0.000000,3.256516,-11.119023,-2.407168,-17.924440,-28.685143,-21.539007,-130.887070,-8.218513,-11.897685,-19.138994,-15.725095,-4.388539,-16.775887,-21.538097,-23.783548,-4.548473,2.704547,-47.185917,1.594964,-21.720823,-25.663486,-17.445065,-6.099946,11.236752,-3.146170,-5.609714,1.827397,4.400283,-4.160589,-15.079597,-12.419320,-21.172581,0.000000,196.000000,4.000000,,,,0.000000,4.000000,4.000000,4.000000,4.000000,4.000000,4.000000,2.000000,4.000000,4.000000,4.000000,4.000000,4.000000,4.000000,4.000000,4.000000,4.000000,4.000000,4.000000,4.000000,4.000000,4.000000,4.000000,4.000000,2.000000,4.000000,4.000000,4.000000,4.000000,4.000000,4.000000,4.000000,4.000000,66.666664
1614129420.771148,65.000000,0.000000,1.714798,-11.620725,-9.071427,-19.444979,-31.220560,-22.030289,-97.935661,-9.748755,-13.937070,-19.632675,-16.222191,-4.384151,-16.246290,-23.055021,-23.246944,-7.620848,1.676202,-46.113091,-1.483554,-22.724743,-27.176285,-17.940441,-6.093846,9.174233,-8.784049,-7.655386,1.825570,4.395883,-4.156428,-20.705544,-14.458182,-24.741152,0.000000,176.000000,4.000000,,,,0.000000,4.000000,4.000000,4.000000,4.000000,4.000000,4.000000,2.000000,4.000000,4.000000,4.000000,4.000000,4.000000,4.000000,4.000000,4.000000,4.000000,4.000000,4.000000,4.000000,4.000000,4.000000,4.000000,4.000000,2.000000,4.000000,4.000000,4.000000,4.000000,4.000000,4.000000,4.000000,4.000000,66.666664
1614129420.778797,66.000000,0.000000,4.277186,-11.096283,-8.549535,-17.887072,-28.625237,-18.418516,-65.017212,-6.662084,-13.410312,-14.484838,-10.052121,-0.790023,-12.127480,-19.442223,-19.121134,-9.151689,1.674526,-46.066978,-1.994891,-23.214838,-27.661928,-17.922501,-6.087752,10.190700,-5.698342,-6.622089,2.336565,4.391487,5.078497,-9.915606,-12.905263,-24.203590,0.000000,111.000000,4.000000,,,,0.000000,4.000000,4.000000,4.000000,4.000000,4.000000,4.000000,2.000000,4.000000,4.000000,4.000000,4.000000,4.000000,4.000000,4.000000,4.000000,4.000000,4.000000,4.000000,4.000000,4.000000,4.000000,4.000000,4.000000,2.000000,4.000000,4.000000,4.000000,4.000000,4.000000,4.000000,4.000000,4.000000,66.666664
1614129420.786547,67.000000,0.000000,4.785729,-11.085187,-8.540986,-19.920467,-27.058149,-18.400097,-81.362450,-5.629781,-13.396902,-11.906250,-4.401044,3.313331,-8.525608,-15.320217,-15.512269,-6.578434,2.185672,-43.456806,-1.992896,-23.191624,-27.121445,-17.904577,-6.081664,10.180510,-1.077259,-6.615468,1.821407,4.387095,2.509316,-5.803127,-13.917998,-24.692207,0.000000,180.000000,4.000000,,,,0.000000,4.000000,4.000000,4.000000,4.000000,4.000000,4.000000,2.000000,4.000000,4.000000,4.000000,4.000000,4.000000,4.000000,4.000000,4.000000,4.000000,4.000000,4.000000,4.000000,4.000000,4.000000,4.000000,4.000000,2.000000,4.000000,4.000000,4.000000,4.000000,4.000000,4.000000,4.000000,4.000000,66.666664
1614129420.794196,68.000000,0.000000,2.216841,-11.074101,-8.532445,-21.951828,-28.056732,-18.381697,-113.588783,-6.136971,-13.896325,-14.458447,-5.422284,3.822838,-8.517083,-15.304896,-15.496757,-5.033394,1.670666,-43.926170,-2.503724,-23.168432,-29.145607,-17.886673,-6.075583,9.144688,-2.101823,-7.634493,1.306765,4.382708,-5.698321,-10.925529,-13.391260,-23.129053,0.000000,223.000000,4.000000,,,,0.000000,4.000000,4.000000,4.000000,4.000000,4.000000,2.000000,2.000000,4.000000,4.000000,4.000000,4.000000,4.000000,4.000000,4.000000,4.000000,4.000000,4.000000,4.000000,4.000000,4.000000,4.000000,4.000000,4.000000,2.000000,4.000000,4.000000,4.000000,4.000000,4.000000,4.000000,4.000000,4.000000,50.000000
1614129420.801945,69.000000,0.000000,1.188983,-11.575848,-8.011091,-22.442698,-28.028677,-17.850494,-136.039291,-5.618014,-13.369609,-15.982450,-7.980964,3.306195,-9.021386,-15.802412,-15.994081,-5.541182,1.668995,-45.420708,-0.962759,-23.145264,-31.167742,-17.868786,-5.556686,9.648363,-1.586900,-5.062756,2.331100,4.378325,-2.102879,-8.350501,-13.890690,-20.541822,0.000000,150.000000,4.000000,,,,0.000000,4.000000,4.000000,4.000000,4.000000,4.000000,2.000000,2.000000,4.000000,4.000000,4.000000,4.000000,4.000000,4.000000,4.000000,4.000000,4.000000,4.000000,4.000000,4.000000,4.000000,4.000000,4.000000,4.000000,2.000000,4.000000,4.000000,4.000000,4.000000,4.000000,4.000000,4.000000,4.000000,50.000000
1614129420.809594,70.000000,0.000000,2.213435,-10.538631,-10.054362,-22.933075,-28.000647,-18.858286,-103.082748,-6.125216,-13.356239,-15.453647,-8.998624,3.302889,-9.012364,-15.273789,-15.465266,-7.074102,1.667326,-46.400928,1.089486,-23.634939,-31.649395,-17.850918,-7.089591,9.638715,2.004430,-0.442309,1.815948,4.373947,2.514608,-8.854971,-12.851158,-21.546921,0.000000,182.000000,4.000000,,,,0.000000,4.000000,4.000000,4.000000,4.000000,4.000000,2.000000,2.000000,4.000000,4.000000,4.000000,4.000000,4.000000,4.000000,4.000000,4.000000,4.000000,4.000000,4.000000,4.000000,4.000000,4.000000,4.000000,4.000000,2.000000,4.000000,4.000000,4.000000,4.000000,4.000000,4.000000,4.000000,4.000000,50.000000
1614129420.817343,71.000000,0.000000,1.185581,-8.476810,-4.403283,-20.346039,-27.972647,-13.711222,-70.159149,-5.093450,-14.881344,-16.976654,-10.015266,3.299586,-9.516173,-16.284157,-16.475441,-9.631130,1.152838,-53.021194,1.088397,-23.611303,-31.617746,-18.345888,-10.672245,7.064974,2.515246,1.096595,-3.314073,4.369573,1.486453,-13.461500,-6.684461,-18.448452,0.000000,195.000000,4.000000,,,,0.000000,4.000000,4.000000,4.000000,4.000000,4.000000,2.000000,2.000000,4.000000,4.000000,4.000000,4.000000,4.000000,4.000000,4.000000,4.000000,4.000000,4.000000,4.000000,4.000000,4.000000,4.000000,4.000000,4.000000,2.000000,4.000000,4.000000,4.000000,4.000000,4.000000,4.000000,4.000000,4.000000,50.000000
1614129420.824992,72.000000,0.000000,1.697216,-6.929872,6.883172,-15.710308,-23.842110,-4.979562,-82.909500,-0.985793,-12.815181,-12.344294,-10.005251,3.296286,-10.019477,-16.267872,-16.458965,-9.621499,1.664506,-50.404068,2.112949,-21.023590,-31.073307,-18.840363,-8.610291,5.519447,1.999910,0.069858,-5.362041,4.365204,5.074710,-8.319834,-2.575212,-13.301798,0.000000,196.000000,4.000000,,,,0.000000,4.000000,4.000000,4.000000,4.000000,4.000000,2.000000,2.000000,4.000000,4.000000,4.000000,4.000000,4.000000,4.000000,4.000000,4.000000,4.000000,4.000000,4.000000,4.000000,4.000000,4.000000,4.000000,4.000000,2.000000,4.000000,4.000000,4.000000,4.000000,4.000000,4.000000,4.000000,4.000000,50.000000
1614129420.832741,73.000000,0.000000,2.208339,-7.435763,11.491673,-14.668957,-18.177242,-1.897659,-115.134285,2.092116,-5.110058,-5.152462,-9.995246,3.292990,-8.983817,-15.225964,-15.416866,-9.099057,1.662841,-41.122894,0.572375,-18.951284,-31.555056,-17.795881,-6.037578,5.513928,1.997910,0.582608,0.284347,4.360838,8.146558,-0.619206,-2.572637,-9.698752,0.000000,173.000000,4.000000,,,,0.000000,4.000000,4.000000,4.000000,4.000000,4.000000,2.000000,2.000000,4.000000,4.000000,4.000000,4.000000,4.000000,4.000000,4.000000,4.000000,4.000000,4.000000,4.000000,4.000000,4.000000,4.000000,4.000000,4.000000,2.000000,4.000000,4.000000,4.000000,4.000000,4.000000,4.000000,4.000000,4.000000,50.000000
1614129420.840390,74.000000,0.000000,-0.357972,-7.428327,12.505823,-14.654288,-13.543680,-3.947043,-118.608894,1.577204,-2.028025,-5.147309,-7.933969,2.776876,-10.513294,-17.262020,-18.991194,-10.115599,0.635537,-49.286900,-4.556403,-20.470795,-31.523500,-17.778086,-9.621284,6.534055,1.995913,0.069205,1.822524,4.356478,6.599950,1.945516,1.019680,0.054536,0.000000,164.000000,4.000000,,,,0.000000,4.000000,4.000000,4.000000,4.000000,4.000000,2.000000,2.000000,4.000000,4.000000,4.000000,4.000000,4.000000,4.000000,4.000000,4.000000,4.000000,4.000000,4.000000,4.000000,4.000000,4.000000,4.000000,4.000000,2.000000,4.000000,4.000000,4.000000,4.000000,4.000000,4.000000,4.000000,4.000000,50.000000
1614129420.848140,75.000000,0.000000,-1.383255,-6.908078,18.134342,-6.947326,-6.863470,-3.430276,-99.003105,1.062806,-3.051638,-3.603700,-5.361932,3.799741,-7.938679,-14.680655,-18.972202,-4.977278,4.737466,-58.468384,-1.987744,-17.886221,-26.876593,-19.298769,-6.021919,6.014700,3.532378,1.094777,1.307881,4.352121,8.131811,6.558955,7.685327,10.823712,0.000000,192.000000,4.000000,,,,0.000000,4.000000,4.000000,4.000000,4.000000,4.000000,2.000000,2.000000,4.000000,4.000000,4.000000,4.000000,4.000000,4.000000,4.000000,4.000000,4.000000,4.000000,4.000000,4.000000,4.000000,4.000000,4.000000,4.000000,2.000000,4.000000,4.000000,4.000000,4.000000,4.000000,4.000000,4.000000,4.000000,50.000000
1614129420.855789,76.000000,0.000000,2.720692,-7.926811,20.680311,1.264749,1.348521,-0.349923,-101.468208,3.625846,1.053978,6.143493,-1.254006,8.924146,4.376952,-3.896743,-7.671178,2.720006,12.425036,-37.897095,9.296295,-8.124745,-21.208689,-14.151264,7.830256,4.983045,5.067307,5.709067,7.973239,4.860590,12.226244,11.680601,9.728923,12.351351,0.000000,205.000000,4.000000,,,,0.000000,4.000000,4.000000,4.000000,4.000000,4.000000,2.000000,2.000000,4.000000,4.000000,4.000000,4.000000,4.000000,4.000000,4.000000,4.000000,4.000000,4.000000,4.000000,4.000000,4.000000,4.000000,4.000000,4.000000,2.000000,4.000000,4.000000,4.000000,4.000000,4.000000,4.000000,4.000000,4.000000,50.000000
1614129420.863538,77.000000,0.000000,6.307715,-6.893243,21.172451,4.340408,6.475378,0.676068,-125.982124,11.827348,7.719591,11.778376,3.362633,13.530606,16.680267,3.799461,3.105724,7.332671,17.027996,-17.859198,15.953666,-0.937134,-19.136198,-1.829421,13.976273,10.106267,5.062240,8.267461,13.606292,4.342908,13.239658,12.694561,11.257656,17.980024,0.000000,183.000000,4.000000,,,,0.000000,4.000000,4.000000,4.000000,4.000000,4.000000,2.000000,2.000000,4.000000,4.000000,4.000000,4.000000,4.000000,4.000000,4.000000,4.000000,4.000000,4.000000,4.000000,4.000000,4.000000,4.000000,4.000000,4.000000,2.000000,4.000000,4.000000,4.000000,4.000000,4.000000,4.000000,4.000000,4.000000,50.000000
1614129420.871187,78.000000,0.000000,5.275766,-4.322248,27.305124,5.874529,8.520185,0.162572,-134.061264,18.995008,9.250333,8.176853,5.410552,14.542717,18.202049,2.770020,0.025695,6.812518,15.985327,-23.482363,17.988995,0.602265,-21.168344,1.762152,11.911015,17.275648,6.595639,7.746372,11.541404,2.287283,13.739240,13.194687,11.759219,25.654352,0.000000,192.000000,4.000000,,,,0.000000,4.000000,4.000000,4.000000,4.000000,4.000000,2.000000,2.000000,4.000000,4.000000,4.000000,4.000000,4.000000,4.000000,4.000000,4.000000,4.000000,4.000000,4.000000,4.000000,4.000000,4.000000,4.000000,4.000000,2.000000,4.000000,4.000000,4.000000,4.000000,4.000000,4.000000,4.000000,4.000000,50.000000
1614129420.878936,79.000000,0.000000,5.270491,-3.805105,26.252178,5.355834,9.537306,0.162409,-112.901566,17.437551,8.215442,5.604574,5.405141,14.528174,12.542821,2.254430,-7.666638,-0.886602,15.969341,-33.202473,15.406902,-5.552184,-25.249741,-5.419097,8.309360,13.668629,5.050582,7.738626,9.478580,0.746535,10.648577,7.027647,7.644896,15.372288,0.000000,187.000000,4.000000,,,,0.000000,4.000000,4.000000,4.000000,4.000000,4.000000,2.000000,2.000000,4.000000,4.000000,4.000000,4.000000,4.000000,4.000000,4.000000,4.000000,4.000000,4.000000,4.000000,4.000000,4.000000,4.000000,4.000000,4.000000,2.000000,4.000000,4.000000,4.000000,4.000000,4.000000,4.000000,4.000000,4.000000,50.000000
1614129420.886585,80.000000,0.000000,5.778041,-3.801300,20.072081,4.324837,9.014948,0.162247,-86.122002,14.856011,8.207226,6.111790,4.886916,14.000826,9.453356,3.277817,-7.658972,-4.475459,17.491833,-33.682091,7.699188,-12.726118,-28.301414,-6.439319,0.608742,4.937011,0.430147,8.243708,8.956281,0.745788,6.022544,-1.184510,4.560328,4.587685,0.000000,171.000000,4.000000,,,,0.000000,4.000000,4.000000,4.000000,4.000000,4.000000,2.000000,2.000000,4.000000,4.000000,4.000000,4.000000,4.000000,4.000000,4.000000,4.000000,4.000000,4.000000,4.000000,4.000000,4.000000,4.000000,4.000000,4.000000,2.000000,4.000000,4.000000,4.000000,4.000000,4.000000,4.000000,4.000000,4.000000,50.000000
1614129420.894334,81.000000,0.000000,5.772263,-1.746216,27.744316,5.346153,9.005933,0.162085,-83.471771,19.969360,8.711839,7.131319,5.394849,14.499645,13.033646,2.761718,-2.523108,5.785427,19.012804,-27.494560,17.947899,-3.995444,-21.606445,4.336351,1.120954,7.496177,7.609204,7.722644,9.460145,0.745042,11.144727,1.380778,5.068588,9.711302,0.000000,176.000000,4.000000,,,,0.000000,4.000000,4.000000,4.000000,4.000000,4.000000,2.000000,2.000000,4.000000,4.000000,4.000000,4.000000,4.000000,4.000000,4.000000,4.000000,4.000000,4.000000,4.000000,4.000000,4.000000,4.000000,4.000000,4.000000,2.000000,4.000000,4.000000,4.000000,4.000000,4.000000,4.000000,4.000000,4.000000,50.000000
1614129420.901984,82.000000,0.000000,5.766490,0.306812,37.972980,7.392089,8.996927,0.161923,-108.003685,24.051954,8.190307,5.585726,5.389454,18.074888,17.635996,2.758956,0.556338,8.856565,21.045073,-24.902964,37.417130,9.854706,-9.277147,10.485861,10.863423,18.257912,19.909286,8.227741,12.527608,0.744297,16.774607,1.892217,5.063519,9.701591,0.000000,175.000000,4.000000,,,,0.000000,4.000000,4.000000,4.000000,4.000000,4.000000,2.000000,2.000000,4.000000,4.000000,4.000000,4.000000,4.000000,4.000000,4.000000,4.000000,4.000000,4.000000,4.000000,4.000000,4.000000,4.000000,4.000000,4.000000,2.000000,4.000000,4.000000,4.000000,4.000000,4.000000,4.000000,4.000000,4.000000,50.000000
1614129420.909733,83.000000,0.000000,4.222262,-0.206315,32.806805,6.871876,6.936648,0.161761,-123.793121,18.386877,8.182117,-0.573706,2.307142,15.492712,14.541437,1.730557,-4.059603,-6.536908,18.972746,-39.749855,24.559200,-0.411559,-12.344793,1.244606,6.749996,22.855038,13.222712,7.193873,9.438158,1.256374,9.578345,-6.827624,4.545635,5.076505,0.000000,167.000000,4.000000,,,,0.000000,4.000000,4.000000,4.000000,4.000000,4.000000,2.000000,2.000000,4.000000,4.000000,4.000000,4.000000,4.000000,4.000000,4.000000,4.000000,4.000000,4.000000,4.000000,4.000000,4.000000,4.000000,4.000000,4.000000,2.000000,4.000000,4.000000,4.000000,4.000000,4.000000,4.000000,4.000000,4.000000,50.000000
1614129420.917382,84.000000,0.000000,2.166758,-0.206109,27.132971,6.865005,4.878429,0.161599,-98.541122,11.701824,8.173934,-4.675696,-2.310550,6.759270,7.347409,-0.835277,-10.722210,-10.632935,11.261465,-53.043438,0.432077,-18.872686,-27.717064,-11.064331,-7.102908,16.165516,-1.662306,5.135397,-1.340511,-2.334626,1.363639,-10.923360,5.053910,9.686812,0.000000,220.000000,4.000000,,,,0.000000,4.000000,4.000000,4.000000,4.000000,4.000000,2.000000,2.000000,4.000000,4.000000,4.000000,4.000000,4.000000,4.000000,4.000000,4.000000,4.000000,4.000000,4.000000,4.000000,4.000000,4.000000,4.000000,4.000000,2.000000,4.000000,4.000000,4.000000,4.000000,4.000000,4.000000,4.000000,4.000000,50.000000
1614129420.925031,85.000000,0.000000,1.651771,0.306918,28.644300,7.370960,4.873551,0.161437,-65.622063,11.690122,8.165760,-1.081277,-2.821060,2.137126,4.775959,-1.860082,-12.762770,-1.904353,5.096357,-45.810909,4.021389,-18.853813,-34.868835,-15.668652,-9.659908,7.431402,-2.173465,3.591800,-6.980196,-6.434856,1.362275,-11.938078,5.048856,8.651484,0.000000,211.000000,4.000000,,,,0.000000,4.000000,4.000000,4.000000,4.000000,4.000000,2.000000,2.000000,4.000000,4.000000,4.000000,4.000000,4.000000,4.000000,4.000000,4.000000,4.000000,4.000000,4.000000,4.000000,4.000000,4.000000,4.000000,4.000000,2.000000,4.000000,4.000000,4.000000,4.000000,4.000000,4.000000,4.000000,4.000000,50.000000
1614129420.932780,86.000000,0.000000,0.111658,-0.719030,22.974630,5.825128,4.868677,0.674096,-76.325676,12.704073,8.157595,3.022368,-2.305418,2.647810,5.284004,-1.345402,-12.750007,-5.492193,4.065620,-39.098431,11.196855,-12.168293,-31.244221,-14.114521,-5.034863,5.372689,2.956914,3.588208,-5.434755,-6.941242,2.386554,-9.874858,5.043807,1.463346,0.000000,189.000000,4.000000,,,,0.000000,4.000000,4.000000,4.000000,4.000000,4.000000,2.000000,2.000000,4.000000,4.000000,4.000000,4.000000,4.000000,4.000000,4.000000,4.000000,4.000000,4.000000,4.000000,4.000000,4.000000,4.000000,4.000000,4.000000,2.000000,4.000000,4.000000,4.000000,4.000000,4.000000,4.000000,4.000000,4.000000,50.000000
1614129420.940529,87.000000,0.000000,-1.939736,-3.282414,22.438835,3.255200,4.863809,-1.377860,-108.557045,11.665728,8.149437,2.506526,-2.815933,2.645162,4.765899,-1.344056,-12.224436,-8.563623,5.087195,-37.008049,11.185658,-11.643304,-30.187336,-10.510663,-6.055470,5.880136,1.928316,4.610261,-5.429320,-6.421480,1.358527,3.981171,5.038764,7.102909,0.000000,203.000000,4.000000,,,,0.000000,4.000000,4.000000,4.000000,4.000000,4.000000,2.000000,2.000000,4.000000,4.000000,4.000000,4.000000,4.000000,4.000000,4.000000,4.000000,4.000000,4.000000,4.000000,4.000000,4.000000,4.000000,4.000000,4.000000,2.000000,4.000000,4.000000,4.000000,4.000000,4.000000,4.000000,4.000000,4.000000,50.000000
1614129420.948178,88.000000,0.000000,-1.937796,-4.304772,30.621525,2.739124,4.858945,-3.427764,-118.192078,11.654062,8.141288,1.991199,-2.813118,4.693799,4.761133,-1.342712,-9.648109,1.701350,6.107749,-24.663349,19.379601,-10.093200,-31.695610,-7.423229,-7.075055,5.361436,0.900747,4.092830,-6.449532,-6.415058,1.357168,6.028472,5.546545,12.224010,0.000000,205.000000,4.000000,,,,0.000000,4.000000,4.000000,4.000000,4.000000,4.000000,2.000000,2.000000,4.000000,4.000000,4.000000,4.000000,4.000000,4.000000,4.000000,4.000000,4.000000,4.000000,4.000000,4.000000,4.000000,4.000000,4.000000,4.000000,2.000000,4.000000,4.000000,4.000000,4.000000,4.000000,4.000000,4.000000,4.000000,50.000000
1614129420.955927,89.000000,0.000000,-2.961500,-3.787647,25.975517,3.249205,4.341265,-3.424336,-85.253372,12.155229,8.133146,3.014848,-2.810304,6.740387,5.269193,-1.341370,-8.099999,4.776572,8.152924,-23.100225,17.821758,-8.544644,-31.151094,-7.928627,-6.042339,5.868895,-0.638616,1.524635,-5.417441,-6.408643,1.868631,-11.926274,5.540998,4.519479,0.000000,198.000000,4.000000,,,,0.000000,4.000000,4.000000,4.000000,4.000000,4.000000,2.000000,2.000000,4.000000,4.000000,4.000000,4.000000,4.000000,4.000000,4.000000,4.000000,4.000000,4.000000,4.000000,4.000000,4.000000,4.000000,4.000000,4.000000,2.000000,4.000000,4.000000,4.000000,4.000000,4.000000,4.000000,4.000000,4.000000,50.000000
1614129420.963577,90.000000,0.000000,-5.522641,-3.783859,21.846979,2.733136,1.772822,-3.420912,-52.347603,12.143073,8.125013,2.499013,-2.807494,4.682364,4.238282,-1.852849,-9.117540,-2.407691,8.657591,-29.230970,9.598809,-9.048921,-30.607122,-10.997622,-6.549117,5.350205,-1.663618,-0.015351,-5.412024,-6.402235,1.866763,-14.478451,4.509817,1.950857,0.000000,193.000000,4.000000,,,,0.000000,4.000000,4.000000,4.000000,4.000000,4.000000,2.000000,2.000000,4.000000,4.000000,4.000000,4.000000,4.000000,4.000000,4.000000,4.000000,4.000000,4.000000,4.000000,4.000000,4.000000,4.000000,4.000000,4.000000,2.000000,4.000000,4.000000,4.000000,4.000000,4.000000,4.000000,4.000000,4.000000,50.000000
1614129420.971226,91.000000,0.000000,-6.029939,-4.292896,31.568722,3.243223,0.745408,-3.417491,-76.910637,12.130930,8.116888,2.496514,0.785057,5.190503,5.772506,0.200286,-5.518679,0.671639,8.648933,-24.073536,19.332800,-6.988590,-30.063694,-10.473803,-5.004107,3.293573,-0.636313,1.010305,-5.406611,-6.395833,1.864896,-2.156280,5.530948,8.102753,0.000000,186.000000,4.000000,,,,0.000000,4.000000,4.000000,4.000000,4.000000,4.000000,2.000000,2.000000,4.000000,4.000000,4.000000,4.000000,4.000000,4.000000,4.000000,4.000000,4.000000,4.000000,4.000000,4.000000,4.000000,4.000000,4.000000,4.000000,2.000000,4.000000,4.000000,4.000000,4.000000,4.000000,4.000000,4.000000,4.000000,50.000000
1614129420.978975,92.000000,0.000000,-5.511088,-3.775783,31.024332,3.239980,1.770303,-3.414073,-109.141418,12.631619,8.108771,2.494018,4.374016,9.800697,10.894938,2.251368,-0.897776,5.799173,8.640285,-32.767410,14.698083,-10.571344,-31.059273,-9.950509,-2.947820,2.264639,1.928426,-1.041987,-5.401205,-6.389437,1.863031,-3.692585,6.038237,8.607471,0.000000,203.000000,4.000000,,,,0.000000,4.000000,4.000000,4.000000,4.000000,4.000000,2.000000,2.000000,4.000000,4.000000,4.000000,4.000000,4.000000,4.000000,4.000000,4.000000,4.000000,4.000000,4.000000,4.000000,4.000000,4.000000,4.000000,4.000000,2.000000,4.000000,4.000000,4.000000,4.000000,4.000000,4.000000,4.000000,4.000000,50.000000
1614129420.986624,93.000000,0.000000,-5.505577,-3.772007,18.172794,1.185458,0.230071,-4.949121,-126.980995,11.080526,8.100662,1.465883,5.395283,9.278076,11.396864,2.761937,-3.460981,-0.360473,8.631644,-54.273106,-11.983282,-21.330004,-34.105137,-12.504661,-4.483334,1.749553,2.952138,-5.656330,-5.908624,-6.383047,1.861168,-11.381201,-0.634468,3.983478,0.000000,197.000000,4.000000,,,,0.000000,4.000000,4.000000,4.000000,4.000000,4.000000,2.000000,2.000000,4.000000,4.000000,4.000000,4.000000,4.000000,4.000000,4.000000,4.000000,4.000000,4.000000,4.000000,4.000000,4.000000,4.000000,4.000000,4.000000,2.000000,4.000000,4.000000,4.000000,4.000000,4.000000,4.000000,4.000000,4.000000,50.000000
1614129420.994373,94.000000,0.000000,-5.500072,-5.306696,15.077699,-0.867010,-2.334261,-6.995454,-103.264275,7.479702,8.092562,-0.586865,4.877067,7.217515,6.770082,2.246355,-8.585725,-4.975497,8.623013,-51.654728,-4.278991,-20.795853,-34.583851,-14.543438,-6.530133,-0.816299,0.385083,-7.701956,-5.389895,-6.376664,1.859307,-17.010845,-6.274859,-3.712813,0.000000,186.000000,4.000000,,,,0.000000,4.000000,4.000000,4.000000,4.000000,4.000000,2.000000,2.000000,4.000000,4.000000,4.000000,4.000000,4.000000,4.000000,4.000000,4.000000,4.000000,4.000000,4.000000,4.000000,4.000000,4.000000,4.000000,4.000000,2.000000,4.000000,4.000000,4.000000,4.000000,4.000000,4.000000,4.000000,4.000000,50.000000
1614129421.002022,95.000000,0.000000,-6.007392,-7.352672,16.601082,-0.353322,-2.844748,-7.501279,-81.622551,4.908120,8.084469,-3.150381,3.846549,7.210298,4.712030,2.244108,-9.089960,-6.508983,8.614389,-42.372303,16.750929,-11.031467,-33.523628,-14.016074,-6.010782,-2.353944,-6.794789,-7.181433,-5.384505,-6.370287,1.344627,-27.250244,-4.217302,-12.427049,0.000000,171.000000,4.000000,,,,0.000000,4.000000,4.000000,4.000000,4.000000,4.000000,2.000000,2.000000,4.000000,4.000000,4.000000,4.000000,4.000000,4.000000,4.000000,4.000000,4.000000,4.000000,4.000000,4.000000,4.000000,4.000000,4.000000,4.000000,4.000000,4.000000,4.000000,4.000000,4.000000,4.000000,4.000000,4.000000,4.000000,66.666664
1614129421.009771,96.000000,0.000000,-5.488564,-7.858140,14.020379,-0.352969,-2.841903,-7.493778,-91.797333,4.390392,8.076385,-4.685692,1.791420,4.126165,5.220139,2.241864,-8.568049,-12.143499,8.092955,-49.509418,-0.701720,-11.533257,-36.567024,-14.514878,-6.004772,-1.325949,-9.864917,-5.635790,-5.891941,-6.363917,2.368924,-27.222994,-3.187443,-12.927443,8064.000000,0.000000,4.000000,,,,0.000000,4.000000,4.000000,4.000000,4.000000,4.000000,2.000000,2.000000,4.000000,4.000000,4.000000,4.000000,4.000000,4.000000,4.000000,4.000000,4.000000,4.000000,4.000000,4.000000,4.000000,4.000000,4.000000,4.000000,4.000000,4.000000,4.000000,4.000000,4.000000,4.000000,4.000000,4.000000,4.000000,66.666664
1614129421.017421,97.000000,0.000000,-3.431793,-7.850282,15.032000,-0.865436,-2.839061,-6.973464,-124.013229,4.386001,8.068309,-5.706647,0.763988,3.609218,5.214919,2.239622,-9.585122,-8.541613,8.084862,-45.870167,-11.470248,-16.137108,-37.043278,-13.987543,-6.511587,-2.350264,-9.342232,-2.553231,-3.834767,-6.357553,4.417837,-16.939362,-2.158615,-7.786310,8064.000000,0.000000,4.000000,,,,0.000000,4.000000,4.000000,4.000000,4.000000,4.000000,2.000000,2.000000,4.000000,4.000000,4.000000,4.000000,4.000000,4.000000,4.000000,4.000000,4.000000,4.000000,4.000000,4.000000,4.000000,4.000000,4.000000,4.000000,4.000000,4.000000,4.000000,4.000000,4.000000,4.000000,4.000000,4.000000,4.000000,66.666664
1614129421.025170,98.000000,0.000000,-1.377080,-4.252688,17.581070,-0.351750,-2.323401,-4.402388,-141.837936,4.894436,8.060240,-4.675300,0.763224,8.733814,5.209703,2.237383,-8.037076,0.697698,10.640880,-33.003784,10.592504,-13.044048,-30.339569,-10.383812,-5.992255,-1.835093,-10.358530,0.526245,0.784452,-6.351196,5.439060,-14.358318,6.048672,-5.214421,7936.000000,0.000000,4.000000,,,,0.000000,4.000000,4.000000,4.000000,4.000000,4.000000,2.000000,2.000000,4.000000,4.000000,4.000000,4.000000,4.000000,4.000000,4.000000,4.000000,4.000000,4.000000,4.000000,4.000000,4.000000,4.000000,4.000000,4.000000,4.000000,4.000000,4.000000,4.000000,4.000000,4.000000,4.000000,4.000000,4.000000,66.666664
1614129421.032819,99.000000,0.000000,-1.888523,-0.145871,17.050669,-0.864219,-2.833898,-3.372344,-109.901222,3.863900,8.052180,-4.670625,1.275281,6.160977,3.153212,2.235145,-8.029038,-4.431204,12.168700,-36.047703,17.761398,-12.518184,-26.206665,-6.783685,-6.499084,2.782126,-6.245608,0.525719,2.834950,-6.344844,5.946441,-11.779858,13.222110,-6.234848,8064.000000,0.000000,4.000000,,,,0.000000,4.000000,4.000000,4.000000,4.000000,4.000000,2.000000,2.000000,4.000000,4.000000,4.000000,4.000000,4.000000,4.000000,4.000000,4.000000,4.000000,4.000000,4.000000,4.000000,4.000000,4.000000,4.000000,4.000000,4.000000,4.000000,4.000000,4.000000,4.000000,4.000000,4.000000,4.000000,4.000000,66.666664
1614129421.040568,100.000000,0.000000,-1.886634,-0.145725,17.033617,-0.350534,-1.805423,-2.856151,-76.970810,4.372857,8.044127,-6.204416,3.838108,-1.024671,2.124418,2.232910,-10.585112,-6.478055,12.669352,-32.421913,15.179534,-8.915922,-25.154818,-6.776901,-5.466943,5.856267,5.555510,0.525193,1.806474,-4.287218,7.991777,0.026794,13.208888,-6.741433,8064.000000,0.000000,4.000000,,,,0.000000,4.000000,4.000000,4.000000,4.000000,4.000000,2.000000,2.000000,4.000000,4.000000,4.000000,4.000000,4.000000,4.000000,4.000000,4.000000,4.000000,4.000000,4.000000,4.000000,4.000000,4.000000,4.000000,4.000000,4.000000,4.000000,4.000000,4.000000,4.000000,4.000000,4.000000,4.000000,4.000000,66.666664
1614129421.048217,101.000000,0.000000,-1.884748,-0.145579,17.016584,2.213919,1.786126,-0.802013,-73.816917,9.496689,8.036083,-1.582826,4.859911,6.668662,4.173575,4.281960,-3.907860,10.964320,15.220785,-15.466413,32.600254,4.426328,-17.437355,-5.744483,-0.846092,7.388873,10.678159,1.037488,1.804667,-2.231648,9.522246,6.180613,14.734140,-3.657769,8064.000000,0.000000,4.000000,,,,0.000000,4.000000,4.000000,4.000000,4.000000,4.000000,2.000000,2.000000,4.000000,4.000000,4.000000,4.000000,4.000000,4.000000,4.000000,4.000000,4.000000,4.000000,4.000000,4.000000,4.000000,4.000000,4.000000,4.000000,4.000000,4.000000,4.000000,4.000000,4.000000,4.000000,4.000000,4.000000,4.000000,66.666664
1614129421.055966,102.000000,0.000000,-1.882863,4.469951,16.999567,3.237346,5.374083,0.737251,-106.050797,15.128219,8.028048,7.649526,4.855051,18.456865,5.707863,6.328959,5.839637,18.132843,15.718385,-16.476587,33.080471,4.421901,-14.855816,-6.251559,2.231678,9.945586,9.129020,0.523630,2.315683,-2.742237,8.999904,5.148791,16.770689,0.448453,8064.000000,0.000000,4.000000,,,,0.000000,4.000000,4.000000,4.000000,4.000000,4.000000,2.000000,2.000000,4.000000,4.000000,4.000000,4.000000,4.000000,4.000000,4.000000,4.000000,4.000000,4.000000,4.000000,4.000000,4.000000,4.000000,4.000000,4.000000,4.000000,4.000000,4.000000,4.000000,4.000000,4.000000,4.000000,4.000000,4.000000,66.666664
1614129421.063615,103.000000,0.000000,-1.880980,8.055224,17.495388,3.746929,5.368709,0.223693,-128.508850,16.651552,8.020020,9.693158,5.363017,17.412767,5.189335,6.322630,-0.320048,7.858300,9.548820,-32.357548,5.355084,-10.454315,-28.174294,-14.450436,0.690984,8.397180,9.119890,-0.502534,1.287726,-2.739495,8.990904,4.630822,16.241098,-0.064816,8064.000000,0.000000,4.000000,,,,0.000000,4.000000,4.000000,4.000000,4.000000,4.000000,2.000000,2.000000,4.000000,4.000000,4.000000,4.000000,4.000000,4.000000,4.000000,4.000000,4.000000,4.000000,4.000000,4.000000,4.000000,4.000000,4.000000,4.000000,4.000000,4.000000,4.000000,4.000000,4.000000,4.000000,4.000000,4.000000,4.000000,66.666664
1614129421.071364,104.000000,0.000000,-2.391920,7.534349,15.939432,3.230361,3.824879,0.223469,-99.662384,15.609259,8.524820,4.042439,4.332013,13.292790,5.184145,5.290667,-11.601780,2.209416,5.436707,-37.453396,-9.009245,-17.110527,-39.428169,-22.128292,-1.873809,3.260577,10.136412,0.523609,1.799259,-2.736755,8.981914,-1.527655,16.737677,-2.116033,8064.000000,0.000000,4.000000,,,,0.000000,4.000000,4.000000,4.000000,4.000000,4.000000,2.000000,2.000000,4.000000,4.000000,4.000000,4.000000,4.000000,4.000000,4.000000,4.000000,4.000000,4.000000,4.000000,4.000000,4.000000,4.000000,4.000000,4.000000,4.000000,4.000000,4.000000,4.000000,4.000000,4.000000,4.000000,4.000000,4.000000,66.666664
1614129421.079014,105.000000,0.000000,-2.389528,5.988353,13.872211,1.175849,1.769772,0.223246,-66.742210,15.593650,6.465013,1.987115,1.250758,13.792317,5.178961,1.182812,-13.641460,-0.356896,3.892809,-36.903122,-5.923313,-15.042135,-37.337460,-22.106165,-2.384756,1.718855,9.613455,-1.015376,2.310280,-2.734019,8.972931,-9.731256,12.105555,-2.113917,8064.000000,0.000000,4.000000,,,,0.000000,4.000000,4.000000,4.000000,4.000000,4.000000,2.000000,2.000000,4.000000,4.000000,4.000000,4.000000,4.000000,4.000000,4.000000,4.000000,4.000000,4.000000,4.000000,4.000000,4.000000,4.000000,4.000000,4.000000,4.000000,4.000000,4.000000,4.000000,4.000000,4.000000,4.000000,4.000000,4.000000,66.666664
1614129421.086763,106.000000,0.000000,-1.874318,3.931082,12.832697,-0.363788,0.229540,0.223022,-65.137009,16.090876,3.894445,3.010769,0.736686,12.240064,5.173782,-5.485037,-16.191921,-10.100129,-2.777750,-39.430321,-5.917389,-15.539914,-38.325764,-21.571238,-2.382371,2.229956,8.065380,-5.116925,0.256688,-3.244105,8.963959,-11.772806,2.862680,-4.163085,8064.000000,0.000000,4.000000,,,,0.000000,4.000000,4.000000,4.000000,4.000000,4.000000,2.000000,2.000000,4.000000,4.000000,4.000000,4.000000,4.000000,4.000000,4.000000,4.000000,4.000000,4.000000,4.000000,4.000000,4.000000,4.000000,4.000000,4.000000,4.000000,4.000000,4.000000,4.000000,4.000000,4.000000,4.000000,4.000000,4.000000,66.666664
1614129421.094412,107.000000,0.000000,-2.385264,3.414331,12.819864,-0.876245,1.254952,0.222799,-83.020592,15.561965,4.916192,2.494937,1.248770,9.663721,5.168609,-9.069296,-20.278294,-14.192593,-5.851896,-39.903709,-6.424293,-17.062836,-38.800259,-22.062487,-2.379989,2.227726,6.006032,0.016397,0.256431,-2.728041,8.954994,-10.222571,-0.217106,-5.697384,8064.000000,0.000000,4.000000,,,,0.000000,4.000000,4.000000,4.000000,4.000000,4.000000,2.000000,2.000000,4.000000,4.000000,4.000000,4.000000,4.000000,4.000000,4.000000,4.000000,4.000000,4.000000,4.000000,4.000000,4.000000,4.000000,4.000000,4.000000,4.000000,4.000000,4.000000,4.000000,4.000000,4.000000,4.000000,4.000000,4.000000,66.666664
1614129421.102161,108.000000,0.000000,-1.870058,3.410917,13.319865,-0.362548,1.766518,0.222577,-88.065773,16.059223,7.475379,1.979622,0.734701,9.654058,5.163440,-9.060226,-19.232374,-10.588656,0.307802,-38.325344,-2.315304,-16.020132,-27.992228,-18.963501,-2.377609,1.712678,4.974385,12.836894,3.845919,-0.674030,8.946039,-8.161067,3.372855,-0.050661,8064.000000,0.000000,4.000000,,,,0.000000,4.000000,4.000000,4.000000,4.000000,4.000000,2.000000,2.000000,4.000000,4.000000,4.000000,4.000000,4.000000,4.000000,4.000000,4.000000,4.000000,4.000000,4.000000,4.000000,4.000000,4.000000,4.000000,4.000000,4.000000,4.000000,4.000000,4.000000,4.000000,4.000000,4.000000,4.000000,4.000000,66.666664
1614129421.109810,109.000000,0.000000,2.234376,3.407506,15.870647,1.689096,-0.286531,0.222354,-64.900787,15.530344,7.980723,2.490463,1.246787,10.157224,5.671097,-9.051167,-21.264423,-10.065248,5.948520,-38.287018,-2.312989,-15.491291,-18.220646,-17.918898,-1.862411,1.710966,5.482231,15.388160,6.406175,1.377926,8.937094,-7.127265,4.907943,1.487852,8064.000000,0.000000,4.000000,,,,0.000000,4.000000,4.000000,4.000000,4.000000,4.000000,2.000000,2.000000,4.000000,4.000000,4.000000,4.000000,4.000000,4.000000,4.000000,4.000000,4.000000,4.000000,4.000000,4.000000,4.000000,4.000000,4.000000,4.000000,4.000000,4.000000,4.000000,4.000000,4.000000,4.000000,4.000000,4.000000,4.000000,66.666664
1614129421.117559,110.000000,0.000000,5.309064,3.404098,17.393238,2.713048,3.303499,0.222132,-48.425629,15.514813,7.972743,2.487972,3.809643,9.634246,5.152606,-8.529295,-16.114954,-5.439797,4.916931,-39.274372,-3.336317,-15.988620,-19.228065,-16.875338,-2.886189,2.222075,5.476749,5.629181,5.374128,0.863727,8.928156,-7.120138,3.877394,-3.129021,8064.000000,0.000000,4.000000,,,,0.000000,4.000000,4.000000,4.000000,4.000000,4.000000,2.000000,2.000000,4.000000,4.000000,4.000000,4.000000,4.000000,4.000000,4.000000,4.000000,4.000000,4.000000,4.000000,4.000000,4.000000,4.000000,4.000000,4.000000,4.000000,4.000000,4.000000,4.000000,4.000000,4.000000,4.000000,4.000000,4.000000,66.666664
1614129421.125208,111.000000,0.000000,5.816576,3.400694,16.863026,3.223156,12.530965,0.221910,-77.095154,16.012119,7.964770,2.485484,5.344295,10.137433,5.660273,-5.956663,-0.714224,4.309232,4.399193,-35.132534,4.359327,-14.434170,-17.157555,-8.653334,-1.857662,2.219853,4.958452,3.572270,5.368754,0.862863,8.919228,-4.548915,3.873517,-1.074610,8064.000000,0.000000,4.000000,,,,0.000000,4.000000,4.000000,4.000000,4.000000,4.000000,2.000000,2.000000,4.000000,4.000000,4.000000,4.000000,4.000000,4.000000,4.000000,4.000000,4.000000,4.000000,4.000000,4.000000,4.000000,4.000000,4.000000,4.000000,4.000000,4.000000,4.000000,4.000000,4.000000,4.000000,4.000000,4.000000,4.000000,66.666664
1614129421.132958,112.000000,0.000000,5.810760,3.397293,16.846161,5.784035,15.595357,0.221688,-109.325745,13.944825,7.956805,2.482999,4.826129,10.127295,5.654613,-4.412245,-0.713510,5.330564,5.420435,-27.917915,18.201122,-11.855633,-11.499372,-1.978014,0.195478,1.704813,5.466314,10.235365,5.876205,0.862001,8.910309,0.071018,6.433746,7.131593,8064.000000,0.000000,4.000000,,,,0.000000,4.000000,4.000000,4.000000,4.000000,4.000000,2.000000,2.000000,4.000000,4.000000,4.000000,4.000000,4.000000,4.000000,4.000000,4.000000,4.000000,4.000000,4.000000,4.000000,4.000000,4.000000,4.000000,4.000000,4.000000,4.000000,4.000000,4.000000,4.000000,4.000000,4.000000,4.000000,4.000000,66.666664
1614129421.140607,113.000000,0.000000,3.240846,3.393896,16.829315,6.291071,9.938736,0.221466,-99.985657,9.315495,7.948849,2.480516,4.821303,10.117167,2.059215,-4.920653,-15.584591,1.735490,4.902194,-31.992561,19.721382,-12.356598,-17.641720,-5.565779,-1.343179,2.728749,5.460847,11.250771,5.870329,0.861139,8.901399,1.609409,11.042697,9.688564,8064.000000,0.000000,4.000000,,,,0.000000,4.000000,4.000000,4.000000,4.000000,4.000000,2.000000,2.000000,4.000000,4.000000,4.000000,4.000000,4.000000,4.000000,4.000000,4.000000,4.000000,4.000000,4.000000,4.000000,4.000000,4.000000,4.000000,4.000000,4.000000,4.000000,4.000000,4.000000,4.000000,4.000000,4.000000,4.000000,4.000000,66.666664
1614129421.148356,114.000000,0.000000,-1.377779,3.390502,17.325306,3.207857,7.364695,0.221245,-67.065155,7.254898,7.940900,2.478035,4.816482,10.107051,-2.045408,-4.915732,-18.133108,4.810677,4.897292,-42.216980,8.932430,-14.908344,-26.854847,-10.688418,-5.444400,5.290123,5.455387,5.598494,4.838818,0.860277,8.892497,0.582158,12.570116,8.653234,8064.000000,0.000000,4.000000,,,,0.000000,4.000000,4.000000,4.000000,4.000000,4.000000,2.000000,2.000000,4.000000,4.000000,4.000000,4.000000,4.000000,4.000000,4.000000,4.000000,4.000000,4.000000,4.000000,4.000000,4.000000,4.000000,4.000000,4.000000,4.000000,4.000000,4.000000,4.000000,4.000000,4.000000,4.000000,4.000000,4.000000,66.666664
1614129421.156005,115.000000,0.000000,-1.376402,2.874291,17.307981,3.717470,8.895791,0.221023,-61.357063,8.273284,7.932959,2.475557,4.811666,10.096944,-2.556184,-4.910817,-11.448309,5.318687,4.892395,-42.174763,4.820933,-15.406256,-26.315170,-10.164909,-6.977417,6.310473,5.449931,3.028793,2.269877,0.859417,8.883605,-0.444065,12.044725,8.644581,8064.000000,0.000000,4.000000,,,,0.000000,4.000000,4.000000,4.000000,4.000000,4.000000,2.000000,2.000000,4.000000,4.000000,4.000000,4.000000,4.000000,4.000000,4.000000,4.000000,4.000000,4.000000,4.000000,4.000000,4.000000,4.000000,4.000000,4.000000,4.000000,4.000000,4.000000,4.000000,4.000000,4.000000,4.000000,4.000000,4.000000,66.666664
1614129421.163654,116.000000,0.000000,1.701898,3.384237,16.777853,6.790676,8.374075,0.220802,-93.603401,8.265011,7.925026,2.473082,5.319674,10.086846,-2.040807,-4.393085,-11.436861,0.185163,4.887502,-37.004383,9.431497,-14.365209,-26.288857,-9.641924,-5.431979,5.791343,5.444481,4.051405,1.241966,0.858558,8.874721,-2.494903,12.032681,9.148757,8064.000000,0.000000,4.000000,,,,0.000000,4.000000,4.000000,4.000000,4.000000,4.000000,2.000000,2.000000,4.000000,4.000000,4.000000,4.000000,4.000000,4.000000,4.000000,4.000000,4.000000,4.000000,4.000000,4.000000,4.000000,4.000000,4.000000,4.000000,4.000000,4.000000,4.000000,4.000000,4.000000,4.000000,4.000000,4.000000,4.000000,66.666664
1614129421.171403,117.000000,0.000000,2.213017,3.893674,17.273895,5.758244,7.852880,0.220581,-125.304665,7.743926,7.917101,2.470609,3.263073,10.076760,-2.038766,-4.388692,-12.963885,-1.866304,5.395435,-39.018661,6.857963,-15.376485,-30.365131,-10.145103,-5.939367,5.785551,5.439037,4.047354,1.753544,0.857699,8.865847,-3.518049,12.533468,9.652429,8064.000000,0.000000,4.000000,,,,0.000000,4.000000,4.000000,4.000000,4.000000,4.000000,2.000000,2.000000,4.000000,4.000000,4.000000,4.000000,4.000000,4.000000,4.000000,4.000000,4.000000,4.000000,4.000000,4.000000,4.000000,4.000000,4.000000,4.000000,4.000000,4.000000,4.000000,4.000000,4.000000,4.000000,4.000000,4.000000,4.000000,66.666664
1614129421.179152,118.000000,0.000000,1.185163,1.325677,16.743801,3.188383,7.845028,0.220361,-104.153725,8.249002,7.909184,2.468138,1.208528,10.066683,-2.036727,-4.897124,-11.925281,-2.377258,4.877219,-37.441181,2.748541,-15.361108,-28.283484,-10.647779,-6.446248,5.779766,5.433598,3.530486,1.751791,0.856842,8.856980,-2.488890,12.008114,7.591494,8064.000000,0.000000,4.000000,,,,0.000000,4.000000,4.000000,4.000000,4.000000,4.000000,2.000000,2.000000,4.000000,4.000000,4.000000,4.000000,4.000000,4.000000,4.000000,4.000000,4.000000,4.000000,4.000000,4.000000,4.000000,4.000000,4.000000,4.000000,4.000000,4.000000,4.000000,4.000000,4.000000,4.000000,4.000000,4.000000,4.000000,66.666664
1614129421.186801,119.000000,0.000000,2.209618,-0.214110,11.086032,3.185195,8.350003,0.220141,-71.229057,8.240753,7.901275,2.465670,1.207319,10.056617,-2.034691,-4.892227,-11.913355,-1.862060,4.872342,-28.172970,11.976562,-14.320107,-25.178278,-10.124310,-5.926981,5.773986,5.428164,3.526955,1.237218,0.855985,8.848124,-4.024862,11.996106,2.968518,8064.000000,0.000000,4.000000,,,,0.000000,4.000000,4.000000,4.000000,4.000000,4.000000,2.000000,2.000000,4.000000,4.000000,4.000000,4.000000,4.000000,4.000000,4.000000,4.000000,4.000000,4.000000,4.000000,4.000000,4.000000,4.000000,4.000000,4.000000,4.000000,4.000000,4.000000,4.000000,4.000000,4.000000,4.000000,4.000000,4.000000,66.666664
1614129421.194451,120.000000,0.000000,1.694588,2.350207,5.433920,2.156368,8.341653,0.219920,-92.183464,8.232512,7.893373,2.463204,1.718932,10.559381,-1.519835,-4.374514,-10.875801,1.729545,5.380290,-28.144796,12.990226,-16.357067,-28.742844,-9.601365,-5.921054,5.768212,5.422736,4.036249,1.748802,0.855129,8.839275,-6.584940,11.984110,0.401447,8064.000000,0.000000,4.000000,,,,0.000000,4.000000,4.000000,4.000000,4.000000,4.000000,2.000000,2.000000,4.000000,4.000000,4.000000,4.000000,4.000000,4.000000,4.000000,4.000000,4.000000,4.000000,4.000000,4.000000,4.000000,4.000000,4.000000,4.000000,4.000000,4.000000,4.000000,4.000000,4.000000,4.000000,4.000000,4.000000,4.000000,66.666664
1614129421.202200,121.000000,0.000000,1.692894,2.860677,5.428486,-0.409890,8.333311,0.219700,-124.398979,8.224279,7.885480,2.460741,-0.334069,9.523180,-2.031136,-8.472704,-12.916207,-1.349107,4.349269,-40.937164,-5.997123,-22.494556,-32.816666,-11.130225,-5.915133,3.711162,5.930134,4.032213,1.747053,0.854273,9.343257,-7.091176,12.484946,1.426687,8064.000000,0.000000,4.000000,,,,0.000000,4.000000,4.000000,4.000000,4.000000,4.000000,2.000000,2.000000,4.000000,4.000000,4.000000,4.000000,4.000000,4.000000,4.000000,4.000000,4.000000,4.000000,4.000000,4.000000,4.000000,4.000000,4.000000,4.000000,4.000000,4.000000,4.000000,4.000000,4.000000,4.000000,4.000000,4.000000,4.000000,66.666664
1614129421.209849,122.000000,0.000000,2.204021,0.293714,5.935878,-0.922301,8.324978,0.219481,-114.530991,8.216056,7.877594,2.458280,-2.385017,5.411093,-4.593207,-12.566795,-18.031496,-10.578527,-0.270465,-46.024433,-11.632152,-26.574627,-34.322308,-13.170377,-5.396398,2.168989,5.411383,4.028181,1.745306,0.853419,8.821093,-6.571264,12.472462,1.425260,8064.000000,0.000000,4.000000,,,,0.000000,4.000000,4.000000,4.000000,4.000000,4.000000,2.000000,2.000000,4.000000,4.000000,4.000000,4.000000,4.000000,4.000000,4.000000,4.000000,4.000000,4.000000,4.000000,4.000000,4.000000,4.000000,4.000000,4.000000,4.000000,4.000000,4.000000,4.000000,4.000000,4.000000,4.000000,4.000000,4.000000,66.666664
1614129421.217598,123.000000,0.000000,-0.362285,-0.732221,5.417122,-0.408558,8.316653,0.219261,-81.595947,8.207839,7.869717,2.455822,-2.895452,2.841579,-6.127076,-12.041408,-19.039106,-10.567949,-2.834297,-39.311741,3.764096,-26.548052,-32.749527,-14.182848,-7.442284,2.166820,3.867510,3.511332,1.743561,0.852566,6.248169,-6.564692,9.895886,0.911014,8064.000000,0.000000,4.000000,,,,0.000000,4.000000,4.000000,4.000000,4.000000,4.000000,2.000000,2.000000,4.000000,4.000000,4.000000,4.000000,4.000000,4.000000,4.000000,4.000000,4.000000,4.000000,4.000000,4.000000,4.000000,4.000000,4.000000,4.000000,4.000000,4.000000,4.000000,4.000000,4.000000,4.000000,4.000000,4.000000,4.000000,66.666664
1614129421.225247,124.000000,0.000000,-1.387564,-1.757130,5.411705,-0.408150,8.308336,0.219042,-48.693836,8.199632,7.861847,0.914905,-2.379736,2.325917,-5.608128,-8.952443,-15.943144,-5.429176,-2.831463,-36.195507,8.375716,-26.008684,-30.152674,-13.655845,-9.486123,2.164653,1.812361,4.020641,1.741817,0.851713,4.703459,-7.070949,7.834709,1.422924,8064.000000,0.000000,4.000000,,,,0.000000,4.000000,4.000000,4.000000,4.000000,4.000000,2.000000,2.000000,4.000000,4.000000,4.000000,4.000000,4.000000,4.000000,4.000000,4.000000,4.000000,4.000000,4.000000,4.000000,4.000000,4.000000,4.000000,4.000000,4.000000,4.000000,4.000000,4.000000,4.000000,4.000000,4.000000,4.000000,4.000000,66.666664
1614129421.232996,125.000000,0.000000,0.665106,-3.806655,5.919114,-0.407741,8.300028,0.218823,-63.004116,8.191432,7.853985,-1.137292,-2.377357,2.836411,-5.602520,-7.917850,-15.927200,-8.500669,-2.315811,-39.236233,0.162213,-26.495495,-32.173801,-13.642189,-9.989458,2.162488,0.272087,4.529441,1.740075,0.850862,5.211576,-6.551057,8.852515,1.421501,8064.000000,0.000000,4.000000,,,,0.000000,4.000000,4.000000,4.000000,4.000000,4.000000,2.000000,2.000000,4.000000,4.000000,4.000000,4.000000,4.000000,4.000000,4.000000,4.000000,4.000000,4.000000,4.000000,4.000000,4.000000,4.000000,4.000000,4.000000,4.000000,4.000000,4.000000,4.000000,4.000000,4.000000,4.000000,4.000000,4.000000,66.666664
1614129421.240645,126.000000,0.000000,2.202902,-4.315669,5.913195,-0.407334,8.291728,0.218604,-95.248802,8.696061,7.846131,-1.648975,-2.374979,2.320755,-6.109738,-5.858650,-14.372811,-4.902425,-2.826315,-37.145714,-0.863591,-26.981821,-37.269833,-14.654187,-9.466648,2.160326,-1.779467,1.447988,1.738335,0.850011,5.206365,-6.544506,6.792380,1.420079,8064.000000,0.000000,4.000000,,,,0.000000,4.000000,4.000000,4.000000,4.000000,4.000000,2.000000,2.000000,4.000000,4.000000,4.000000,4.000000,4.000000,4.000000,4.000000,4.000000,4.000000,4.000000,4.000000,4.000000,4.000000,4.000000,4.000000,4.000000,4.000000,4.000000,4.000000,4.000000,4.000000,4.000000,4.000000,4.000000,4.000000,66.666664
1614129421.248395,127.000000,0.000000,1.687879,-3.798532,5.394461,-0.406926,8.283437,0.218386,-119.256119,7.661724,7.838285,-1.134506,-2.372604,2.831254,-6.103628,-3.801509,-11.281516,1.769144,-3.336310,-32.493187,1.701375,-25.929197,-35.694103,-13.613893,-9.457181,1.645345,-2.290508,-3.168844,1.736597,0.849161,5.201159,-7.563602,0.631742,0.905839,8064.000000,0.000000,4.000000,,,,0.000000,4.000000,4.000000,4.000000,4.000000,4.000000,2.000000,2.000000,4.000000,4.000000,4.000000,4.000000,4.000000,4.000000,4.000000,4.000000,4.000000,4.000000,4.000000,4.000000,4.000000,4.000000,4.000000,4.000000,4.000000,4.000000,4.000000,4.000000,4.000000,4.000000,4.000000,4.000000,4.000000,66.666664
1614129421.256044,0.000000,0.000000,1.686191,-3.794734,6.927528,-0.406519,8.275153,0.218167,-86.316353,5.089960,7.830447,-1.133371,-2.370232,2.828423,-5.071884,-6.361810,-16.911261,-9.001857,-2.307332,-39.127357,2.725315,-25.390448,-33.607128,-13.087458,-9.447723,2.156520,-1.262577,-3.678496,1.734860,0.848312,5.195957,-5.504757,1.656751,1.417753,0.000000,171.000000,4.000000,,,,0.000000,4.000000,4.000000,4.000000,4.000000,4.000000,2.000000,2.000000,4.000000,4.000000,4.000000,4.000000,4.000000,4.000000,4.000000,4.000000,4.000000,4.000000,4.000000,4.000000,4.000000,4.000000,4.000000,4.000000,4.000000,4.000000,4.000000,4.000000,4.000000,4.000000,4.000000,4.000000,4.000000,66.666664
1614129421.263793,1.000000,0.000000,1.684505,-3.790939,9.484703,-0.918933,8.266878,0.217949,-53.409519,4.059229,8.335437,-1.132238,-2.367861,2.825595,-5.579632,-13.022115,-20.996912,-17.197983,-2.305025,-51.395924,1.184128,-26.390697,-38.188904,-14.612832,-9.438276,3.180005,-1.774135,-2.649176,1.733125,0.847463,5.190762,-3.447970,4.732018,0.903515,0.000000,158.000000,4.000000,,,,0.000000,4.000000,4.000000,4.000000,4.000000,4.000000,2.000000,2.000000,4.000000,4.000000,4.000000,4.000000,4.000000,4.000000,4.000000,4.000000,4.000000,4.000000,4.000000,4.000000,4.000000,4.000000,4.000000,4.000000,4.000000,4.000000,4.000000,4.000000,4.000000,4.000000,4.000000,4.000000,4.000000,66.666664
1614129421.271442,2.000000,0.000000,1.682820,-3.787148,9.988039,0.107627,8.258611,0.217731,-59.509956,4.567990,6.275819,-1.131106,-2.365494,2.822769,-5.574053,-16.598837,-15.334890,-3.847451,-3.328361,-52.370171,-0.355517,-24.313026,-40.714817,-11.008475,-8.916018,0.612722,-2.798002,-3.672168,1.731392,0.846616,5.185571,-7.034266,0.624721,0.389791,0.000000,151.000000,4.000000,,,,0.000000,4.000000,4.000000,4.000000,4.000000,4.000000,2.000000,2.000000,4.000000,4.000000,4.000000,4.000000,4.000000,4.000000,4.000000,4.000000,4.000000,4.000000,4.000000,4.000000,4.000000,4.000000,4.000000,4.000000,4.000000,4.000000,4.000000,4.000000,4.000000,4.000000,4.000000,4.000000,4.000000,66.666664
1614129421.279191,3.000000,0.000000,1.681137,-3.783361,9.465230,2.158801,8.250353,0.217513,-91.758141,4.050601,4.218262,-1.642795,-2.363128,2.819946,-1.465915,-15.043777,-10.704170,7.438447,0.777531,-46.163952,10.414069,-11.981020,-36.058720,-2.792339,-6.342999,-2.464813,0.281720,-2.642855,1.729661,0.845769,5.180385,-10.104155,-2.965647,3.466324,0.000000,192.000000,4.000000,,,,0.000000,4.000000,4.000000,4.000000,4.000000,4.000000,2.000000,2.000000,4.000000,4.000000,4.000000,4.000000,4.000000,4.000000,4.000000,4.000000,4.000000,4.000000,4.000000,4.000000,4.000000,4.000000,4.000000,4.000000,4.000000,4.000000,4.000000,4.000000,4.000000,4.000000,4.000000,4.000000,4.000000,66.666664
