title:14, start timestamp:1614130036.072899, stop timestamp:1614130082.001010, headset type:EPOCFLEX, headset serial:F00001ED, headset firmware:f12, subject name:s08, channels:75, sampling rate:128, samples:5934      , version:2.0
Timestamp,EEG.Counter,EEG.Interpolated,EEG.Cz,EEG.Fz,EEG.Fp1,EEG.AF3,EEG.F7,EEG.F3,EEG.FC1,EEG.C3,EEG.FC5,EEG.T7,EEG.CP5,EEG.CP1,EEG.P3,EEG.P7,EEG.PO3,EEG.O1,EEG.Pz,EEG.Oz,EEG.O2,EEG.PO4,EEG.P8,EEG.P4,EEG.CP2,EEG.CP6,EEG.T8,EEG.FC6,EEG.C4,EEG.FC2,EEG.F4,EEG.F8,EEG.AF4,EEG.Fp2,EEG.HighBitFlex,EEG.RawCq,EEG.Battery,MarkerIndex,MarkerType,MarkerValueInt,EEG.MarkerHardware,CQ.Cz,CQ.Fz,CQ.Fp1,CQ.AF3,CQ.F7,CQ.F3,CQ.FC1,CQ.C3,CQ.FC5,CQ.T7,CQ.CP5,CQ.CP1,CQ.P3,CQ.P7,CQ.PO3,CQ.O1,CQ.Pz,CQ.Oz,CQ.O2,CQ.PO4,CQ.P8,CQ.P4,CQ.CP2,CQ.CP6,CQ.T8,CQ.FC6,CQ.C4,CQ.FC2,CQ.F4,CQ.F8,CQ.AF4,CQ.Fp2,CQ.Overall
1614130036.072899,107.000000,0.000000,-1.997552,2.502225,33.600670,16.824472,16.179428,5.545101,1.167836,-15.219954,-4.693668,-1.978003,-2.328979,-8.644947,-10.717250,-5.857475,-19.118568,-28.206200,-18.536131,-17.719376,-1.128707,-19.856537,-17.381569,-11.572049,-8.639336,-11.262293,-5.503446,-12.407597,0.407552,-4.290681,-8.885837,-18.289879,7.393547,23.171032,8064.000000,0.000000,4.000000,,,,0.000000,4.000000,4.000000,4.000000,4.000000,4.000000,4.000000,2.000000,4.000000,4.000000,4.000000,4.000000,4.000000,4.000000,4.000000,4.000000,4.000000,4.000000,4.000000,4.000000,4.000000,4.000000,4.000000,4.000000,4.000000,4.000000,4.000000,4.000000,4.000000,4.000000,4.000000,4.000000,4.000000,83.333336
1614130036.080748,108.000000,0.000000,-1.995554,4.038185,33.567070,18.346109,20.265812,9.129299,19.628206,-10.589350,-5.714615,-1.463205,-2.326651,-0.943995,-7.629609,-5.338798,-9.868681,-5.101071,-6.209902,0.759881,13.744216,-17.785398,-11.210341,-11.560476,-8.630696,-11.251031,-5.497942,-12.908010,-1.644137,-2.235109,-8.876950,-18.784410,6.873333,24.173502,8064.000000,0.000000,4.000000,,,,0.000000,4.000000,4.000000,4.000000,4.000000,4.000000,4.000000,2.000000,4.000000,4.000000,4.000000,4.000000,4.000000,4.000000,4.000000,4.000000,4.000000,4.000000,4.000000,4.000000,4.000000,4.000000,4.000000,4.000000,4.000000,4.000000,4.000000,4.000000,4.000000,4.000000,4.000000,4.000000,4.000000,83.333336
1614130036.088497,109.000000,0.000000,-2.506379,6.085429,36.610424,22.943148,25.886572,16.299658,52.429092,1.216111,-5.196080,-1.461742,-2.324324,3.159513,-6.596339,-4.820638,-7.294710,-3.557508,0.462974,-2.317801,-0.115682,-16.741972,-11.199132,-11.548916,-8.622066,-11.239779,-5.492445,-12.382281,1.947250,-1.207233,-8.868073,-13.637421,7.379280,23.636509,8064.000000,0.000000,4.000000,,,,0.000000,4.000000,4.000000,4.000000,4.000000,4.000000,4.000000,2.000000,4.000000,4.000000,4.000000,4.000000,4.000000,4.000000,4.000000,4.000000,4.000000,4.000000,4.000000,4.000000,4.000000,4.000000,4.000000,4.000000,4.000000,4.000000,4.000000,4.000000,4.000000,4.000000,4.000000,4.000000,4.000000,83.333336
1614130036.096346,110.000000,0.000000,-1.991052,5.566523,37.599453,22.920206,26.373507,16.796179,66.735634,4.804639,-5.703705,-1.460280,-2.322000,2.130713,-7.102563,-5.328638,-11.902800,-17.912926,-2.101591,-5.392407,1.935716,-16.212408,-9.136650,-11.537367,-8.613443,-11.228540,-4.974132,-12.369899,6.560688,-0.693205,-8.859205,-4.905835,7.371901,23.612873,8064.000000,0.000000,4.000000,,,,0.000000,4.000000,4.000000,4.000000,4.000000,4.000000,4.000000,2.000000,4.000000,4.000000,4.000000,4.000000,4.000000,4.000000,4.000000,4.000000,4.000000,4.000000,4.000000,4.000000,4.000000,4.000000,4.000000,4.000000,4.000000,4.000000,4.000000,4.000000,4.000000,4.000000,4.000000,4.000000,4.000000,83.333336
1614130036.104095,111.000000,0.000000,0.575041,5.560956,37.049034,22.384464,26.347132,15.753740,52.822746,3.261373,-5.698001,-1.458820,-1.806857,2.128582,-6.582640,-5.323309,-9.839615,-9.177063,-2.099490,6.407857,12.190190,-13.119273,-8.101872,-11.525830,-8.604830,-9.166029,-4.969158,-11.844708,6.554127,1.358770,-8.850347,-3.875288,7.364529,24.102079,8064.000000,0.000000,4.000000,,,,0.000000,4.000000,4.000000,4.000000,4.000000,4.000000,4.000000,2.000000,4.000000,4.000000,4.000000,4.000000,4.000000,4.000000,4.000000,4.000000,4.000000,4.000000,4.000000,4.000000,4.000000,4.000000,4.000000,4.000000,4.000000,4.000000,4.000000,4.000000,4.000000,4.000000,4.000000,4.000000,4.000000,83.333336
1614130036.111744,112.000000,0.000000,2.112928,5.555395,37.524807,23.387722,24.782324,16.763628,39.949409,3.770932,-5.179482,-1.457361,-1.805050,1.100812,-7.601698,-4.805166,-7.778493,2.626986,-0.558929,4.862988,-3.206615,-12.080513,-12.709155,-11.514304,-8.596226,-7.105581,-5.477009,-12.858504,6.034752,2.895873,-8.841496,-6.948336,7.357164,23.565157,8064.000000,0.000000,4.000000,,,,0.000000,4.000000,4.000000,4.000000,4.000000,4.000000,4.000000,2.000000,4.000000,4.000000,4.000000,4.000000,4.000000,4.000000,4.000000,4.000000,4.000000,4.000000,4.000000,4.000000,4.000000,4.000000,4.000000,4.000000,4.000000,4.000000,4.000000,4.000000,4.000000,4.000000,4.000000,4.000000,4.000000,83.333336
1614130036.119493,113.000000,0.000000,1.597994,5.549840,37.487282,22.851513,20.142157,15.208403,34.781258,4.792802,-5.174303,-1.455903,-3.854527,-1.464391,-10.158199,-5.313181,-14.437381,-2.503847,-1.071190,-10.526490,-13.972639,-14.632535,-14.747728,-12.015611,-8.587629,-7.098476,-4.958712,-11.820005,5.515897,2.380157,-8.832654,-6.428566,7.349807,24.054413,8064.000000,0.000000,4.000000,,,,0.000000,4.000000,4.000000,4.000000,4.000000,4.000000,4.000000,2.000000,4.000000,4.000000,4.000000,4.000000,4.000000,4.000000,4.000000,4.000000,4.000000,4.000000,4.000000,4.000000,4.000000,4.000000,4.000000,4.000000,4.000000,4.000000,4.000000,4.000000,4.000000,4.000000,4.000000,4.000000,4.000000,83.333336
1614130036.127142,114.000000,0.000000,1.596396,5.544290,37.449795,23.341482,18.583553,12.629092,20.900322,4.275188,-5.169129,-0.941627,-4.876314,-1.975747,-10.148041,-7.359150,-19.551149,-11.219292,-1.582940,-15.644169,-3.189436,-16.669184,-17.297083,-11.490774,-8.579041,-9.142659,-4.953753,-7.192801,6.536022,2.377777,-8.823822,-7.447779,7.342458,24.030357,8064.000000,0.000000,4.000000,,,,0.000000,4.000000,4.000000,4.000000,4.000000,4.000000,4.000000,2.000000,4.000000,4.000000,4.000000,4.000000,4.000000,4.000000,4.000000,4.000000,4.000000,4.000000,4.000000,4.000000,4.000000,4.000000,4.000000,4.000000,4.000000,4.000000,4.000000,4.000000,4.000000,4.000000,4.000000,4.000000,4.000000,83.333336
1614130036.134891,115.000000,0.000000,1.594800,5.538746,36.386703,23.318140,18.564970,12.103642,10.110190,3.758093,-5.163960,-1.453506,-5.897079,-1.460951,-10.137893,-8.890252,-18.505957,-16.849098,-1.581357,-13.577243,0.403497,-15.626874,-23.946453,-11.992104,-8.570462,-11.184798,-9.564183,-6.672787,6.529486,2.375399,-8.814998,-10.517255,7.335115,22.467867,8064.000000,0.000000,4.000000,,,,0.000000,4.000000,4.000000,4.000000,4.000000,4.000000,4.000000,2.000000,4.000000,4.000000,4.000000,4.000000,4.000000,4.000000,4.000000,4.000000,4.000000,4.000000,4.000000,4.000000,4.000000,4.000000,4.000000,4.000000,4.000000,4.000000,4.000000,4.000000,4.000000,4.000000,4.000000,4.000000,4.000000,83.333336
1614130036.142541,116.000000,0.000000,1.593205,5.533207,32.247753,18.166616,13.418200,12.604359,16.253927,3.754335,-5.158796,-4.016155,-12.045028,-1.459490,-10.640575,-9.907003,-19.000271,-20.421991,-2.092596,-13.563665,-0.109727,-16.124067,-26.486609,-12.492932,-9.074713,-11.173614,-14.170004,-11.794319,-0.143710,2.373023,-8.806183,-11.532378,6.814960,19.881296,8064.000000,0.000000,4.000000,,,,0.000000,4.000000,4.000000,4.000000,4.000000,4.000000,4.000000,2.000000,4.000000,4.000000,4.000000,4.000000,4.000000,4.000000,4.000000,4.000000,4.000000,4.000000,4.000000,4.000000,4.000000,4.000000,4.000000,4.000000,4.000000,4.000000,4.000000,4.000000,4.000000,4.000000,4.000000,4.000000,4.000000,83.333336
1614130036.150290,117.000000,0.000000,1.591612,5.527674,29.138582,15.584348,11.353499,12.591755,39.827415,3.750581,-5.153637,-5.550601,-17.161188,-1.458030,-10.117114,-8.871455,-18.981272,-18.863110,-1.577683,-14.062922,3.480127,-16.107944,-22.870378,-8.377875,-9.065638,-11.162440,-11.078911,-12.808167,-4.246130,2.370650,-8.797377,-10.495205,7.320965,19.861414,8064.000000,0.000000,4.000000,,,,0.000000,4.000000,4.000000,4.000000,4.000000,4.000000,4.000000,2.000000,4.000000,4.000000,4.000000,4.000000,4.000000,4.000000,4.000000,4.000000,4.000000,4.000000,4.000000,4.000000,4.000000,4.000000,4.000000,4.000000,4.000000,4.000000,4.000000,4.000000,4.000000,4.000000,4.000000,4.000000,4.000000,83.333336
1614130036.157939,118.000000,0.000000,1.590020,5.522146,31.160725,18.132866,13.906248,12.066342,72.608101,4.259650,-5.148483,-5.032229,-17.656847,-1.456572,-10.106997,-8.349763,-16.398188,-17.305784,-1.576105,-16.612963,-5.754123,-16.091835,-21.821867,-3.241292,-8.030931,-11.664099,-8.503730,-11.769717,2.424783,2.881100,-8.275759,-9.459068,7.313644,20.867193,8064.000000,0.000000,4.000000,,,,0.000000,4.000000,4.000000,4.000000,4.000000,4.000000,4.000000,2.000000,4.000000,4.000000,4.000000,4.000000,4.000000,4.000000,4.000000,4.000000,4.000000,4.000000,4.000000,4.000000,4.000000,4.000000,4.000000,4.000000,4.000000,4.000000,4.000000,4.000000,4.000000,4.000000,4.000000,4.000000,4.000000,83.333336
1614130036.165688,119.000000,0.000000,1.588430,5.003803,33.180847,16.576271,10.815419,12.567097,80.227798,3.229750,-5.143335,-5.027197,-17.126369,-1.455116,-10.609711,-12.956798,-16.894609,-18.314119,-2.087349,-16.596350,-14.979138,-16.588564,-23.338507,-3.750872,-8.535721,-11.139614,-11.572148,-12.270767,7.550563,2.878219,-8.780304,-12.526532,6.280689,18.282225,8064.000000,0.000000,4.000000,,,,0.000000,4.000000,4.000000,4.000000,4.000000,4.000000,4.000000,2.000000,4.000000,4.000000,4.000000,4.000000,4.000000,4.000000,4.000000,4.000000,4.000000,4.000000,4.000000,4.000000,4.000000,4.000000,4.000000,4.000000,4.000000,4.000000,4.000000,4.000000,4.000000,4.000000,4.000000,4.000000,4.000000,83.333336
1614130036.173337,120.000000,0.000000,1.586842,5.511620,33.147667,11.431491,8.240500,12.554529,47.839882,0.662417,-5.651012,-5.022170,-15.570782,-1.453661,-9.060639,-16.533585,-17.390535,-15.731703,-1.059621,-6.323342,-0.092364,-15.546335,-21.263885,-4.772762,-9.040006,-11.128474,-11.047756,-11.232856,5.491730,2.362520,-8.258702,-14.565289,8.838511,17.238300,8064.000000,0.000000,4.000000,,,,0.000000,4.000000,4.000000,4.000000,4.000000,4.000000,4.000000,2.000000,4.000000,4.000000,4.000000,4.000000,4.000000,4.000000,4.000000,4.000000,4.000000,4.000000,4.000000,4.000000,4.000000,4.000000,4.000000,4.000000,4.000000,4.000000,4.000000,4.000000,4.000000,4.000000,4.000000,4.000000,4.000000,83.333336
1614130036.181086,121.000000,0.000000,1.585255,7.557391,35.165802,13.984161,14.898927,12.541975,15.484349,-0.363886,-5.645361,-5.529968,-8.888544,-1.965027,-4.436194,-8.824743,-11.732120,-10.587766,3.556823,-0.163173,15.805164,-11.428225,-12.524673,0.360216,-2.877119,-11.117346,-3.857221,-9.170341,7.537520,2.872978,-5.173521,-8.396876,14.983519,23.374908,8064.000000,0.000000,4.000000,,,,0.000000,4.000000,4.000000,4.000000,4.000000,4.000000,4.000000,2.000000,4.000000,4.000000,4.000000,4.000000,4.000000,4.000000,4.000000,4.000000,4.000000,4.000000,4.000000,4.000000,4.000000,4.000000,4.000000,4.000000,4.000000,4.000000,4.000000,4.000000,4.000000,4.000000,4.000000,4.000000,4.000000,83.333336
1614130036.188735,122.000000,0.000000,1.583670,9.601115,40.258839,19.098383,19.499413,12.016613,14.956044,0.149298,-3.588434,-5.524438,-5.802732,-1.450242,-2.380476,-1.123611,-7.105002,-10.064358,6.117369,-2.214292,13.225257,-8.339873,-5.845482,4.462420,2.766783,-9.054946,-0.263620,-8.135530,10.606906,2.357285,-5.168347,-2.747454,19.071100,27.966919,8064.000000,0.000000,4.000000,,,,0.000000,4.000000,4.000000,4.000000,4.000000,4.000000,4.000000,2.000000,4.000000,4.000000,4.000000,4.000000,4.000000,4.000000,4.000000,4.000000,4.000000,4.000000,4.000000,4.000000,4.000000,4.000000,4.000000,4.000000,4.000000,4.000000,4.000000,4.000000,4.000000,4.000000,4.000000,4.000000,4.000000,83.333336
1614130036.196484,123.000000,0.000000,1.582086,9.591514,41.757042,19.592104,18.454271,13.030237,19.043652,0.149149,-1.020743,-4.493273,-4.771289,-0.935971,-2.890916,-4.712231,-7.097898,-10.054294,3.547149,-1.699257,8.083826,-8.331533,-10.455022,-2.208709,-0.312907,-7.507430,-1.288998,-8.127394,8.032197,-1.747637,-9.265743,-6.334450,19.052029,25.374849,8064.000000,0.000000,4.000000,,,,0.000000,4.000000,4.000000,4.000000,4.000000,4.000000,4.000000,2.000000,4.000000,4.000000,4.000000,4.000000,4.000000,4.000000,4.000000,4.000000,4.000000,4.000000,4.000000,4.000000,4.000000,4.000000,4.000000,4.000000,4.000000,4.000000,4.000000,4.000000,4.000000,4.000000,4.000000,4.000000,4.000000,83.333336
1614130036.204134,124.000000,0.000000,1.580504,9.069102,39.151184,18.546871,18.435818,11.991566,31.845121,0.149000,-1.532542,-5.001600,-5.279338,-4.011958,-2.888025,-8.810082,-7.603620,-9.018598,2.005140,-5.287302,6.537281,-9.348843,-14.547131,-9.898808,-5.440799,-6.987102,-3.851811,-10.683370,2.383139,-5.335632,-12.846221,-11.456321,14.930412,23.298193,8064.000000,0.000000,4.000000,,,,0.000000,4.000000,4.000000,4.000000,4.000000,4.000000,4.000000,2.000000,4.000000,4.000000,4.000000,4.000000,4.000000,4.000000,4.000000,4.000000,4.000000,4.000000,4.000000,4.000000,4.000000,4.000000,4.000000,4.000000,4.000000,4.000000,4.000000,4.000000,4.000000,4.000000,4.000000,4.000000,4.000000,83.333336
1614130036.211983,125.000000,0.000000,1.578924,9.060033,37.060749,19.041145,17.391741,8.389831,60.531223,0.148851,-2.043830,-4.996598,-6.812521,-5.546408,-3.397958,-6.237170,-7.596016,-10.035220,1.490315,-8.871758,9.094846,-8.826674,-4.788994,-5.273525,-5.435358,-6.980115,-5.899241,-12.211147,1.355115,-5.330297,-12.833375,-9.906404,10.812918,23.787714,8064.000000,0.000000,4.000000,,,,0.000000,4.000000,4.000000,4.000000,4.000000,4.000000,4.000000,2.000000,4.000000,4.000000,4.000000,4.000000,4.000000,4.000000,4.000000,4.000000,4.000000,4.000000,4.000000,4.000000,4.000000,4.000000,4.000000,4.000000,4.000000,4.000000,4.000000,4.000000,4.000000,4.000000,4.000000,4.000000,4.000000,83.333336
1614130036.219732,126.000000,0.000000,1.577345,9.563793,39.587791,21.586206,20.964092,9.919902,74.316849,0.148702,1.547957,2.187885,-0.139041,0.100164,-0.830457,-1.102728,-6.562779,-9.512364,3.027286,2.931986,24.470367,-3.689642,10.087590,7.552262,-3.378640,-7.998775,-0.765137,-7.583552,8.020426,-5.324966,-10.256439,-6.819573,12.853387,24.789568,8064.000000,0.000000,4.000000,,,,0.000000,4.000000,4.000000,4.000000,4.000000,4.000000,4.000000,2.000000,4.000000,4.000000,4.000000,4.000000,4.000000,4.000000,4.000000,4.000000,4.000000,4.000000,4.000000,4.000000,4.000000,4.000000,4.000000,4.000000,4.000000,4.000000,4.000000,4.000000,4.000000,4.000000,4.000000,4.000000,4.000000,83.333336
1614130036.227581,127.000000,0.000000,1.575767,9.554230,41.599487,23.615902,29.148256,15.551008,77.319450,0.148553,6.161794,8.852365,10.117508,5.741090,3.785758,5.565042,-4.504934,0.240738,6.614002,12.672644,33.676666,1.955074,13.154426,11.647274,-1.836800,-7.477956,3.338192,-3.986224,11.089329,-4.806821,-8.194901,-6.299933,15.917457,23.739138,8064.000000,0.000000,4.000000,,,,0.000000,4.000000,4.000000,4.000000,4.000000,4.000000,4.000000,2.000000,4.000000,4.000000,4.000000,4.000000,4.000000,4.000000,4.000000,4.000000,4.000000,4.000000,4.000000,4.000000,4.000000,4.000000,4.000000,4.000000,4.000000,4.000000,4.000000,4.000000,4.000000,4.000000,4.000000,4.000000,4.000000,83.333336
1614130036.235330,0.000000,0.000000,1.574192,7.493393,37.455322,19.489723,26.042185,13.484175,70.062645,0.148405,6.155632,2.689666,5.492006,6.248169,5.320434,4.533835,-3.474788,5.881523,8.145849,2.403561,16.207092,1.440298,3.910502,8.045883,-1.322143,-0.803812,-6.408736,-8.597623,1.334650,-4.802014,-10.237988,-8.344915,11.286155,18.074373,0.000000,199.000000,4.000000,,,,0.000000,4.000000,4.000000,4.000000,4.000000,4.000000,4.000000,2.000000,4.000000,4.000000,4.000000,4.000000,4.000000,4.000000,4.000000,4.000000,4.000000,4.000000,4.000000,4.000000,4.000000,4.000000,4.000000,4.000000,4.000000,4.000000,4.000000,4.000000,4.000000,4.000000,4.000000,4.000000,4.000000,83.333336
1614130036.243179,1.000000,0.000000,1.572617,5.434618,32.802483,14.854848,15.759733,5.265563,37.684891,0.148256,3.585374,-5.518152,-5.795537,5.216280,4.289473,-7.265570,-3.984134,-7.970513,5.573601,-7.342432,0.806269,-1.638065,-3.785716,6.499375,-1.833641,-0.803008,-11.017712,-12.178769,-3.794890,-6.335674,-12.279032,-11.413494,7.172304,12.415273,0.000000,171.000000,4.000000,,,,0.000000,4.000000,4.000000,4.000000,4.000000,4.000000,4.000000,2.000000,4.000000,4.000000,4.000000,4.000000,4.000000,4.000000,4.000000,4.000000,4.000000,4.000000,4.000000,4.000000,4.000000,4.000000,4.000000,4.000000,4.000000,4.000000,4.000000,4.000000,4.000000,4.000000,4.000000,4.000000,4.000000,83.333336
1614130036.250928,2.000000,0.000000,1.571045,4.916363,32.769680,15.352814,15.743974,4.234656,6.877976,0.148108,2.556147,-4.486993,-6.815382,6.236705,4.285183,-11.360868,-3.980150,-23.347158,5.055207,-6.822269,9.523412,-2.149248,-3.269110,7.518517,-0.806167,-7.468872,0.788178,-9.089667,6.465315,-2.739594,-7.651368,-10.376439,9.729235,12.402857,0.000000,119.000000,4.000000,,,,0.000000,4.000000,4.000000,4.000000,4.000000,4.000000,4.000000,2.000000,4.000000,4.000000,4.000000,4.000000,4.000000,4.000000,4.000000,4.000000,4.000000,4.000000,4.000000,4.000000,4.000000,4.000000,4.000000,4.000000,4.000000,4.000000,4.000000,4.000000,4.000000,4.000000,4.000000,4.000000,4.000000,83.333336
1614130036.258777,3.000000,0.000000,1.569474,5.424267,33.249729,15.337461,18.292332,6.281703,21.742893,0.660781,2.040771,-0.379942,-4.757285,6.230468,4.793718,-1.093098,-1.924888,-14.093041,7.101434,-5.276986,15.154914,-0.608637,-0.188918,6.998178,1.758742,-2.333198,7.966877,-5.490834,15.176799,4.955453,-3.541152,-9.340422,9.719505,13.416096,0.000000,195.000000,4.000000,,,,0.000000,4.000000,4.000000,4.000000,4.000000,4.000000,4.000000,2.000000,4.000000,4.000000,4.000000,4.000000,4.000000,4.000000,4.000000,4.000000,4.000000,4.000000,4.000000,4.000000,4.000000,4.000000,4.000000,4.000000,4.000000,4.000000,4.000000,4.000000,4.000000,4.000000,4.000000,4.000000,4.000000,83.333336
1614130036.266526,4.000000,0.000000,1.567904,5.418843,30.652378,12.758021,13.145835,3.711319,41.721149,0.660120,2.551550,-0.892383,-5.778169,5.711417,5.301745,1.472098,0.128319,7.972333,9.145615,-4.758888,7.447451,1.443254,-0.701549,6.478359,2.782624,6.387084,3.343525,-4.972522,13.110340,3.924856,-8.665816,-14.972107,4.581581,10.838577,0.000000,197.000000,4.000000,,,,0.000000,4.000000,4.000000,4.000000,4.000000,4.000000,4.000000,2.000000,4.000000,4.000000,4.000000,4.000000,4.000000,4.000000,4.000000,4.000000,4.000000,4.000000,4.000000,4.000000,4.000000,4.000000,4.000000,4.000000,4.000000,4.000000,4.000000,4.000000,4.000000,4.000000,4.000000,4.000000,4.000000,83.333336
1614130036.274375,5.000000,0.000000,1.566336,5.413424,28.570444,11.206801,9.542945,1.143505,59.628147,-0.879002,2.548999,-2.942772,-6.285212,5.705706,4.270802,-4.683220,0.641011,8.990003,9.136469,-2.702847,10.516927,2.467451,-1.726489,6.471881,2.267021,0.226851,0.776079,-5.480371,12.071589,-0.181633,-12.759715,-17.008417,2.012897,8.776456,0.000000,196.000000,4.000000,,,,0.000000,4.000000,4.000000,4.000000,4.000000,4.000000,4.000000,2.000000,4.000000,4.000000,4.000000,4.000000,4.000000,4.000000,4.000000,4.000000,4.000000,4.000000,4.000000,4.000000,4.000000,4.000000,4.000000,4.000000,4.000000,4.000000,4.000000,4.000000,4.000000,4.000000,4.000000,4.000000,4.000000,83.333336
1614130036.282124,6.000000,0.000000,1.564770,5.408010,29.567514,11.195595,11.071864,1.142362,84.183907,-2.929405,-0.017653,-4.478291,-5.766106,5.700000,0.163967,-6.216999,-2.436553,-11.531808,9.127333,-2.700145,21.275640,1.439343,-0.699121,5.439768,2.264754,-8.491324,0.775303,-4.449249,14.110799,2.895472,-9.670032,-3.658075,3.549345,7.742039,0.000000,206.000000,4.000000,,,,0.000000,4.000000,4.000000,4.000000,4.000000,4.000000,4.000000,2.000000,4.000000,4.000000,4.000000,4.000000,4.000000,4.000000,4.000000,4.000000,4.000000,4.000000,4.000000,4.000000,4.000000,4.000000,4.000000,4.000000,4.000000,4.000000,4.000000,4.000000,4.000000,4.000000,4.000000,4.000000,4.000000,83.333336
1614130036.289973,7.000000,0.000000,1.563205,5.402602,29.537947,11.697220,8.496690,1.654040,71.792030,-6.516219,-4.633019,-4.473813,-4.734698,6.207120,1.189444,-5.697961,-3.972578,-17.674122,9.631025,-2.697444,22.280006,1.950724,-0.698422,6.972790,2.262489,-5.405910,-3.328036,-4.444800,13.583868,5.456679,-7.609080,6.601993,6.622719,9.785579,0.000000,182.000000,4.000000,,,,0.000000,4.000000,4.000000,4.000000,4.000000,4.000000,4.000000,2.000000,4.000000,4.000000,4.000000,4.000000,4.000000,4.000000,4.000000,4.000000,4.000000,4.000000,4.000000,4.000000,4.000000,4.000000,4.000000,4.000000,4.000000,4.000000,4.000000,4.000000,4.000000,4.000000,4.000000,4.000000,4.000000,83.333336
1614130036.297722,8.000000,0.000000,1.561642,5.397200,27.457127,12.198342,4.898449,1.652386,39.412544,-9.586626,-5.141207,-6.007801,-4.729964,5.688093,2.726717,-7.230724,-1.917323,-6.887218,9.108574,-3.720388,19.180803,3.487235,-1.723365,6.965817,2.773047,-2.323581,-5.888811,-7.004457,13.057464,2.887120,-8.627111,3.005647,7.641737,9.775793,0.000000,195.000000,4.000000,,,,0.000000,4.000000,4.000000,4.000000,4.000000,4.000000,4.000000,2.000000,4.000000,4.000000,4.000000,4.000000,4.000000,4.000000,4.000000,4.000000,4.000000,4.000000,4.000000,4.000000,4.000000,4.000000,4.000000,4.000000,4.000000,4.000000,4.000000,4.000000,4.000000,4.000000,4.000000,4.000000,4.000000,83.333336
1614130036.305571,9.000000,0.000000,1.560080,5.391803,25.891209,11.673324,3.867910,1.650733,42.450054,-10.602680,-4.623245,-11.642818,-9.340618,3.631123,-8.558062,-8.249135,-5.505149,-17.136740,7.048183,-7.819232,17.623161,-0.105996,-3.260103,0.805005,1.744633,-3.346899,-5.882922,-8.023094,13.044406,4.422694,-9.131305,-3.151204,4.557172,4.124992,0.000000,191.000000,4.000000,,,,0.000000,4.000000,4.000000,4.000000,4.000000,4.000000,4.000000,2.000000,4.000000,4.000000,4.000000,4.000000,4.000000,4.000000,4.000000,4.000000,4.000000,4.000000,4.000000,4.000000,4.000000,4.000000,4.000000,4.000000,4.000000,4.000000,4.000000,4.000000,4.000000,4.000000,4.000000,4.000000,4.000000,83.333336
1614130036.313320,10.000000,0.000000,1.558520,5.386411,25.352497,10.636009,2.838401,1.649083,54.715298,-11.104898,-6.157084,-13.169637,-12.408201,1.576209,-18.805914,-10.292168,-13.191952,-36.093964,4.477033,-10.888335,14.528614,-5.234095,-5.820946,-0.734262,-1.334034,-3.856372,-5.364219,-5.963789,13.031362,6.982374,-8.096533,-2.635232,4.552615,2.582405,0.000000,186.000000,4.000000,,,,0.000000,4.000000,4.000000,4.000000,4.000000,4.000000,4.000000,2.000000,4.000000,4.000000,4.000000,4.000000,4.000000,4.000000,4.000000,4.000000,4.000000,4.000000,4.000000,4.000000,4.000000,4.000000,4.000000,4.000000,4.000000,4.000000,4.000000,4.000000,4.000000,4.000000,4.000000,4.000000,4.000000,83.333336
1614130036.321169,11.000000,0.000000,1.556962,5.381024,25.839964,13.702296,4.886844,2.160254,45.429810,-10.068152,-4.612465,-8.541082,-11.370152,2.600274,-9.556338,-8.230594,-8.050555,-18.621971,6.011017,-6.774883,19.129471,-1.639117,-1.712561,10.548524,-1.332700,-4.878157,-5.358854,-4.419363,13.531151,6.462571,-8.601256,-1.606956,10.189088,12.323413,0.000000,193.000000,4.000000,,,,0.000000,4.000000,4.000000,4.000000,4.000000,4.000000,4.000000,2.000000,4.000000,4.000000,4.000000,4.000000,4.000000,4.000000,4.000000,4.000000,4.000000,4.000000,4.000000,4.000000,4.000000,4.000000,4.000000,4.000000,4.000000,4.000000,4.000000,4.000000,4.000000,4.000000,4.000000,4.000000,4.000000,83.333336
1614130036.328918,12.000000,0.000000,1.555405,5.375643,25.814125,14.714235,3.856317,1.645273,51.538227,-10.058084,-5.633493,-10.583823,-19.051088,2.597674,-5.444218,-7.196722,-2.914299,2.422292,7.030647,-1.639903,26.802649,4.516368,2.904537,15.666181,-0.305727,-1.283535,-5.353496,-3.902124,12.491979,5.943288,-8.592655,-3.656631,10.691720,17.952114,0.000000,200.000000,4.000000,,,,0.000000,4.000000,4.000000,4.000000,4.000000,4.000000,4.000000,2.000000,4.000000,4.000000,4.000000,4.000000,4.000000,4.000000,4.000000,4.000000,4.000000,4.000000,4.000000,4.000000,4.000000,4.000000,4.000000,4.000000,4.000000,4.000000,4.000000,4.000000,4.000000,4.000000,4.000000,4.000000,4.000000,83.333336
1614130036.336567,13.000000,0.000000,2.066670,5.370268,20.660105,4.443111,-9.993693,-0.920474,66.358482,-19.278795,-16.397091,-23.393753,-33.903831,-4.584411,-23.900312,-27.702345,-22.398565,-20.144234,-4.258435,-6.253648,15.493794,-3.693277,-8.893240,0.778720,-4.920805,0.256210,-5.348142,-5.949504,8.889743,4.911704,-8.584063,-7.755539,5.552823,10.754676,0.000000,200.000000,4.000000,,,,0.000000,4.000000,4.000000,4.000000,4.000000,4.000000,4.000000,2.000000,4.000000,4.000000,4.000000,4.000000,4.000000,4.000000,4.000000,4.000000,4.000000,4.000000,4.000000,4.000000,4.000000,4.000000,4.000000,4.000000,4.000000,4.000000,4.000000,4.000000,4.000000,4.000000,4.000000,4.000000,4.000000,83.333336
1614130036.344316,14.000000,0.000000,1.551783,5.364897,14.998419,-2.740819,-19.214470,-1.945195,61.163921,-29.515926,-24.073002,-28.498564,-35.408390,-13.810596,-33.620003,-45.623360,-40.837704,-38.072807,-19.125971,-15.990984,-5.034520,-17.022917,-22.730501,-13.068213,-11.582551,-12.051739,-5.342794,-12.097401,5.803930,1.317049,-8.062658,-12.363168,2.983167,4.590075,0.000000,194.000000,4.000000,,,,0.000000,4.000000,4.000000,4.000000,4.000000,4.000000,4.000000,2.000000,4.000000,4.000000,4.000000,4.000000,4.000000,4.000000,4.000000,4.000000,4.000000,4.000000,4.000000,4.000000,4.000000,4.000000,4.000000,4.000000,4.000000,4.000000,4.000000,4.000000,4.000000,4.000000,4.000000,4.000000,4.000000,83.333336
1614130036.351965,15.000000,0.000000,1.550231,5.359532,16.009062,2.390126,-8.426024,-1.943250,53.923271,-27.435129,-17.382261,-17.188015,-24.090931,-12.771144,-21.278690,-26.603378,-25.925072,-9.829606,-16.542742,-8.795506,-10.670511,-13.928970,-18.605206,-10.491042,-13.622251,-21.270456,-5.337451,-16.700687,5.285306,-1.248371,-8.567416,-14.402087,3.493005,5.611125,0.000000,191.000000,4.000000,,,,0.000000,4.000000,4.000000,4.000000,4.000000,4.000000,4.000000,2.000000,4.000000,4.000000,4.000000,4.000000,4.000000,4.000000,4.000000,4.000000,4.000000,4.000000,4.000000,4.000000,4.000000,4.000000,4.000000,4.000000,4.000000,4.000000,4.000000,4.000000,4.000000,4.000000,4.000000,4.000000,4.000000,83.333336
1614130036.359715,16.000000,0.000000,2.574322,5.354173,18.557156,3.413378,1.838812,-3.479768,46.689857,-19.202566,-11.211034,-7.940057,-16.887352,-5.578886,-11.513821,-5.038314,-10.514531,8.128942,-6.269790,7.623546,-3.480353,-2.120170,-10.381473,-4.839526,-12.070168,-12.531237,-5.332114,-16.171165,5.792840,-1.759943,-8.558848,-14.900505,3.489512,5.605515,0.000000,194.000000,4.000000,,,,0.000000,4.000000,4.000000,4.000000,4.000000,4.000000,4.000000,2.000000,4.000000,4.000000,4.000000,4.000000,4.000000,4.000000,4.000000,4.000000,4.000000,4.000000,4.000000,4.000000,4.000000,4.000000,4.000000,4.000000,4.000000,4.000000,4.000000,4.000000,4.000000,4.000000,4.000000,4.000000,4.000000,83.333336
1614130036.367364,17.000000,0.000000,0.007645,5.861639,18.538599,-3.256703,-0.214309,-5.527570,32.797016,-17.132080,-12.225464,-8.444938,-16.870466,-5.573307,-16.117691,-11.699943,-20.247606,-9.315084,-4.725058,3.513359,0.112871,-3.656511,-12.422373,-5.347507,-12.058097,-6.877680,-5.326782,-16.154995,5.274227,-1.245363,-8.037470,-14.885605,2.973202,4.574268,0.000000,166.000000,4.000000,,,,0.000000,4.000000,4.000000,4.000000,4.000000,4.000000,4.000000,2.000000,4.000000,4.000000,4.000000,4.000000,4.000000,4.000000,4.000000,4.000000,4.000000,4.000000,4.000000,4.000000,4.000000,4.000000,4.000000,4.000000,4.000000,4.000000,4.000000,4.000000,4.000000,4.000000,4.000000,4.000000,4.000000,83.333336
1614130036.375113,18.000000,0.000000,-4.607748,5.855778,18.007238,-1.714984,-0.726915,-5.522043,45.584732,-19.166231,-12.726058,-8.949313,-17.366415,-9.670298,-18.665676,-13.739525,-21.765820,-19.049360,-6.771615,-10.849129,-3.476986,-12.370804,-11.897130,-5.342159,-13.584500,-12.511827,-5.321455,-16.138840,5.268953,-1.244117,-10.593534,-13.332257,3.483049,5.595335,0.000000,189.000000,4.000000,,,,0.000000,4.000000,4.000000,4.000000,4.000000,4.000000,4.000000,2.000000,4.000000,4.000000,4.000000,4.000000,4.000000,4.000000,4.000000,4.000000,4.000000,4.000000,4.000000,4.000000,4.000000,4.000000,4.000000,4.000000,4.000000,4.000000,4.000000,4.000000,4.000000,4.000000,4.000000,4.000000,4.000000,83.333336
1614130036.382762,19.000000,0.000000,-6.654422,3.285819,17.989231,0.850833,3.376376,-6.029341,71.180176,-15.557321,-11.687692,-7.914722,-15.297767,-7.096525,-9.929062,-0.905272,-3.282516,-7.235438,-5.226382,-5.710075,-0.396586,-10.307151,-8.808310,-2.259894,-12.032454,-13.012136,-5.316133,-14.071420,5.776505,-1.242873,-15.711146,-14.344566,3.479566,5.589739,0.000000,212.000000,4.000000,,,,0.000000,4.000000,4.000000,4.000000,4.000000,4.000000,4.000000,2.000000,4.000000,4.000000,4.000000,4.000000,4.000000,4.000000,4.000000,4.000000,4.000000,4.000000,4.000000,4.000000,4.000000,4.000000,4.000000,4.000000,4.000000,4.000000,4.000000,4.000000,4.000000,4.000000,4.000000,4.000000,4.000000,83.333336
1614130036.390511,20.000000,0.000000,-5.622126,1.744072,17.971243,-0.688479,3.373000,-4.997671,65.980789,-8.362276,-11.676003,-8.419628,-7.077341,-1.448403,0.337277,5.249479,6.464356,6.105130,-3.169874,10.705892,19.090990,-2.091715,-7.261040,1.844930,-6.892217,-10.947843,-5.310817,-13.031707,5.770728,-1.241630,-16.721075,-14.843042,2.963266,3.532867,0.000000,220.000000,4.000000,,,,0.000000,4.000000,4.000000,4.000000,4.000000,4.000000,4.000000,2.000000,4.000000,4.000000,4.000000,4.000000,4.000000,4.000000,4.000000,4.000000,4.000000,4.000000,4.000000,4.000000,4.000000,4.000000,4.000000,4.000000,4.000000,4.000000,4.000000,4.000000,4.000000,4.000000,4.000000,4.000000,4.000000,83.333336
1614130036.398160,21.000000,0.000000,-5.616504,1.742328,18.466091,4.953235,4.908088,-1.915750,50.530190,-5.276991,-9.613046,-3.283004,1.134864,-0.934134,2.388222,8.833973,4.406610,11.740051,-1.115422,16.849031,37.020618,-0.038342,-3.151215,3.381547,-4.321222,-10.936894,-5.305506,-10.454573,5.764957,-1.240389,-13.627432,-4.058969,4.498764,8.657539,0.000000,192.000000,4.000000,,,,0.000000,4.000000,4.000000,4.000000,4.000000,4.000000,4.000000,2.000000,4.000000,4.000000,4.000000,4.000000,4.000000,4.000000,4.000000,4.000000,4.000000,4.000000,4.000000,4.000000,4.000000,4.000000,4.000000,4.000000,4.000000,4.000000,4.000000,4.000000,4.000000,4.000000,4.000000,4.000000,4.000000,83.333336
1614130036.405909,22.000000,0.000000,-6.123708,0.714945,17.934805,8.538025,7.980103,-2.426655,47.915558,-6.810175,-7.552151,3.386946,3.185012,-1.958841,1.360193,12.927704,3.376562,3.523183,-2.139947,15.293721,35.445137,-2.089585,2.492962,2.352524,-4.829721,-4.259291,-5.300201,-6.341554,5.759192,-1.239148,-11.562522,7.739962,7.058368,14.289907,0.000000,176.000000,4.000000,,,,0.000000,4.000000,4.000000,4.000000,4.000000,4.000000,4.000000,2.000000,4.000000,4.000000,4.000000,4.000000,4.000000,4.000000,4.000000,4.000000,4.000000,4.000000,4.000000,4.000000,4.000000,4.000000,4.000000,4.000000,4.000000,4.000000,4.000000,4.000000,4.000000,4.000000,4.000000,4.000000,4.000000,83.333336
1614130036.413559,23.000000,0.000000,-5.604764,-1.849873,17.916870,-0.701282,4.382380,-6.013972,38.636871,-6.803365,-9.083060,-0.719005,0.104903,-1.444061,1.871653,8.812212,4.911647,-1.608546,-1.624987,15.791248,32.845589,-1.574675,3.516110,5.427095,-1.747968,0.873173,-5.294901,-4.796751,5.753433,-1.237909,-12.576601,4.142479,7.564130,9.660233,0.000000,204.000000,4.000000,,,,0.000000,4.000000,4.000000,4.000000,4.000000,4.000000,4.000000,2.000000,4.000000,4.000000,4.000000,4.000000,4.000000,4.000000,4.000000,4.000000,4.000000,4.000000,4.000000,4.000000,4.000000,4.000000,4.000000,4.000000,4.000000,4.000000,4.000000,4.000000,4.000000,4.000000,4.000000,4.000000,4.000000,83.333336
1614130036.421308,24.000000,0.000000,-5.599159,-2.873664,21.488697,-0.700581,1.301074,-4.469496,35.521313,-6.283741,-8.048336,-3.795209,-1.433663,-0.929797,1.869781,7.264938,5.932376,7.623832,4.017664,17.313919,40.505051,4.580746,5.563876,14.652437,2.869164,-0.666161,-5.802426,-1.202210,5.747680,-1.236671,-11.025562,-2.528330,7.043746,7.599291,0.000000,191.000000,4.000000,,,,0.000000,4.000000,4.000000,4.000000,4.000000,4.000000,4.000000,2.000000,4.000000,4.000000,4.000000,4.000000,4.000000,4.000000,4.000000,4.000000,4.000000,4.000000,4.000000,4.000000,4.000000,4.000000,4.000000,4.000000,4.000000,4.000000,4.000000,4.000000,4.000000,4.000000,4.000000,4.000000,4.000000,83.333336
1614130036.428957,25.000000,0.000000,-5.593560,-1.332329,25.056952,13.659094,7.966440,1.175999,51.383228,-6.277458,-3.937723,3.388073,-1.432229,0.609595,1.867911,9.308955,1.823880,3.000824,9.141851,13.194040,35.849159,7.140267,10.173697,18.740349,3.379116,3.437069,-4.770983,5.465658,5.741932,-1.235435,-5.886332,0.551121,7.036702,14.771179,0.000000,180.000000,4.000000,,,,0.000000,4.000000,4.000000,4.000000,4.000000,4.000000,4.000000,2.000000,4.000000,4.000000,4.000000,4.000000,4.000000,4.000000,4.000000,4.000000,4.000000,4.000000,4.000000,4.000000,4.000000,4.000000,4.000000,4.000000,4.000000,4.000000,4.000000,4.000000,4.000000,4.000000,4.000000,4.000000,4.000000,83.333336
1614130036.436806,26.000000,0.000000,-5.587966,1.233106,26.057537,13.645435,12.573858,2.713284,56.972870,-6.271180,-2.395324,5.948788,-2.969259,2.660267,0.327582,2.120159,-7.408713,-12.899613,10.158350,2.411616,17.351772,0.979281,9.137882,14.106224,2.350095,8.561837,-2.202109,3.921731,5.736190,-1.234199,-3.829164,0.037749,7.029665,16.807690,0.000000,196.000000,4.000000,,,,0.000000,4.000000,4.000000,4.000000,4.000000,4.000000,4.000000,2.000000,4.000000,4.000000,4.000000,4.000000,4.000000,4.000000,4.000000,4.000000,4.000000,4.000000,4.000000,4.000000,4.000000,4.000000,4.000000,4.000000,4.000000,4.000000,4.000000,4.000000,4.000000,4.000000,4.000000,4.000000,4.000000,83.333336
1614130036.444555,27.000000,0.000000,-5.582378,1.744693,25.005838,0.811277,11.022822,1.172109,60.505642,-7.803371,-3.931390,-2.262289,-5.530392,2.144786,-5.313771,-5.574269,-10.478228,-6.732867,9.122551,-3.744642,8.103651,-5.688365,4.513360,9.989553,2.347745,0.860968,-1.174266,-1.210396,5.730454,-1.232965,-6.389437,-6.116135,7.022635,12.175497,0.000000,172.000000,4.000000,,,,0.000000,4.000000,4.000000,4.000000,4.000000,4.000000,4.000000,2.000000,4.000000,4.000000,4.000000,4.000000,4.000000,4.000000,4.000000,4.000000,4.000000,4.000000,4.000000,4.000000,4.000000,4.000000,4.000000,4.000000,4.000000,4.000000,4.000000,4.000000,4.000000,4.000000,4.000000,4.000000,4.000000,83.333336
1614130036.452404,28.000000,0.000000,-5.576796,1.742949,25.493652,0.810466,11.011800,1.683758,78.906677,-10.359670,-5.465920,-6.362591,-6.037682,2.142642,-11.462304,-6.594336,-12.519032,-0.572288,7.062146,-3.228077,9.634009,-5.682676,1.944744,9.979564,2.345397,-7.345022,-1.685912,-0.696365,5.724723,-1.231732,-8.434330,-7.135660,7.015613,12.676143,0.000000,173.000000,4.000000,,,,0.000000,4.000000,4.000000,4.000000,4.000000,4.000000,4.000000,2.000000,4.000000,4.000000,4.000000,4.000000,4.000000,4.000000,4.000000,4.000000,4.000000,4.000000,4.000000,4.000000,4.000000,4.000000,4.000000,4.000000,4.000000,4.000000,4.000000,4.000000,4.000000,4.000000,4.000000,4.000000,4.000000,83.333336
1614130036.460153,29.000000,0.000000,-6.084040,1.741206,25.980980,5.937860,11.000788,2.707715,62.417511,-10.862131,-6.998916,-4.304946,-5.518824,2.140499,-15.040585,-9.664664,-23.275743,-21.084536,3.465341,-3.224849,9.111555,-4.651353,2.968440,10.482405,2.343052,-4.773574,-1.171406,-2.746950,5.718999,-1.230500,-8.425896,-7.641345,7.008597,12.663466,0.000000,202.000000,4.000000,,,,0.000000,4.000000,4.000000,4.000000,4.000000,4.000000,4.000000,2.000000,4.000000,4.000000,4.000000,4.000000,4.000000,4.000000,4.000000,4.000000,4.000000,4.000000,4.000000,4.000000,4.000000,4.000000,4.000000,4.000000,4.000000,4.000000,4.000000,4.000000,4.000000,4.000000,4.000000,4.000000,4.000000,83.333336
1614130036.468002,30.000000,0.000000,-5.565135,1.739465,24.416536,1.829358,9.451325,0.653725,30.047401,-9.825627,-8.530378,-4.300642,-5.513305,2.651179,-17.076826,-12.731923,-30.431955,-33.371143,1.410593,-2.708804,9.102443,-5.159522,3.991113,8.933461,1.827888,-4.255980,-2.195876,-7.872408,4.687639,-1.742090,-7.904649,-10.197805,7.001588,5.984136,0.000000,187.000000,4.000000,,,,0.000000,4.000000,4.000000,4.000000,4.000000,4.000000,4.000000,2.000000,4.000000,4.000000,4.000000,4.000000,4.000000,4.000000,4.000000,4.000000,4.000000,4.000000,4.000000,4.000000,4.000000,4.000000,4.000000,4.000000,4.000000,4.000000,4.000000,4.000000,4.000000,4.000000,4.000000,4.000000,4.000000,83.333336
1614130036.475751,31.000000,0.000000,-5.046750,1.737725,21.828018,-3.300676,8.416233,-1.911031,20.273764,-9.815802,-8.521849,-5.321982,-5.507792,2.648528,-17.059750,-12.206370,-28.863062,-27.183928,1.922003,-3.731736,10.118981,-5.667183,-0.628263,6.873245,-0.738042,-9.379930,-6.809064,-8.890177,2.631669,-1.227528,-8.409565,-10.700428,6.994587,1.362767,0.000000,174.000000,4.000000,,,,0.000000,4.000000,4.000000,4.000000,4.000000,4.000000,4.000000,2.000000,4.000000,4.000000,4.000000,4.000000,4.000000,4.000000,4.000000,4.000000,4.000000,4.000000,4.000000,4.000000,4.000000,4.000000,4.000000,4.000000,4.000000,4.000000,4.000000,4.000000,4.000000,4.000000,4.000000,4.000000,4.000000,83.333336
1614130036.483600,32.000000,0.000000,-6.067344,1.735987,21.293369,-3.810196,4.305253,-2.421940,46.407337,-10.318807,-10.564609,-4.803839,-7.040745,1.620238,-17.555510,-12.706985,-30.372660,-24.592640,2.432902,-6.804927,9.083221,-5.148695,-7.807122,5.327910,-2.275765,-11.934651,-9.879178,-8.881287,1.090576,-1.226300,-8.401155,-10.689728,6.987592,1.361405,8064.000000,0.000000,4.000000,,,,0.000000,4.000000,4.000000,4.000000,4.000000,4.000000,4.000000,2.000000,4.000000,4.000000,4.000000,4.000000,4.000000,4.000000,4.000000,4.000000,4.000000,4.000000,4.000000,4.000000,4.000000,4.000000,4.000000,4.000000,4.000000,4.000000,4.000000,4.000000,4.000000,4.000000,4.000000,4.000000,4.000000,83.333336
1614130036.491349,33.000000,0.000000,-5.548456,1.734251,21.784897,-2.267924,4.300948,-1.906698,71.489136,-10.821308,-12.605326,-5.311856,-9.084987,2.644259,-18.563597,-12.181457,-28.803825,-18.414202,4.481751,-2.695558,14.715164,-4.117906,-5.235212,6.861044,0.290613,-11.922717,-9.356479,-7.846765,2.627947,-1.737894,-7.879933,-10.166218,6.980605,1.872864,8064.000000,0.000000,4.000000,,,,0.000000,4.000000,4.000000,4.000000,4.000000,4.000000,4.000000,2.000000,4.000000,4.000000,4.000000,4.000000,4.000000,4.000000,4.000000,4.000000,4.000000,4.000000,4.000000,4.000000,4.000000,4.000000,4.000000,4.000000,4.000000,4.000000,4.000000,4.000000,4.000000,4.000000,4.000000,4.000000,4.000000,83.333336
1614130036.499198,34.000000,0.000000,-0.414702,1.732517,21.763111,0.298446,9.937673,-1.904791,100.135597,-8.759205,-9.515798,-4.280903,-8.563082,3.154435,-14.955289,-8.066711,-16.980150,-9.165018,6.528551,3.973804,23.931219,-1.549685,2.462331,9.931107,2.341604,-7.295410,-8.321481,-5.274816,5.702242,-0.710515,-7.872054,-5.027846,6.973624,1.358171,8192.000000,0.000000,4.000000,,,,0.000000,4.000000,4.000000,4.000000,4.000000,4.000000,4.000000,2.000000,4.000000,4.000000,4.000000,4.000000,4.000000,4.000000,4.000000,4.000000,4.000000,4.000000,4.000000,4.000000,4.000000,4.000000,4.000000,4.000000,4.000000,4.000000,4.000000,4.000000,4.000000,4.000000,4.000000,4.000000,4.000000,83.333336
1614130036.506947,35.000000,0.000000,2.149815,1.730785,21.741348,1.323789,7.363632,-1.902887,102.599564,-11.314548,-8.480640,-3.250981,-8.041698,-4.028206,-18.530077,-11.135568,-15.937529,-17.360981,4.983561,1.918548,22.368826,-1.035315,2.972689,6.844252,0.800801,-1.647089,-8.825980,-6.808002,4.670899,1.854298,-9.915463,-1.433075,6.966650,1.356812,8064.000000,0.000000,4.000000,,,,0.000000,4.000000,4.000000,4.000000,4.000000,4.000000,4.000000,2.000000,4.000000,4.000000,4.000000,4.000000,4.000000,4.000000,4.000000,4.000000,4.000000,4.000000,4.000000,4.000000,4.000000,4.000000,4.000000,4.000000,4.000000,4.000000,4.000000,4.000000,4.000000,4.000000,4.000000,4.000000,4.000000,83.333336
1614130036.514796,36.000000,0.000000,-2.467720,1.729054,21.206787,-1.241638,-2.900142,-2.413804,70.189270,-22.072464,-11.549083,-7.350294,-11.110579,-12.742127,-26.716675,-16.252638,-24.126719,-21.959005,-0.149628,-1.673114,13.628508,-1.547100,-0.620028,-1.367720,-1.251282,-1.132621,-9.329975,-10.903758,-0.461977,2.365264,-11.956830,-2.970103,6.959684,1.355456,8064.000000,0.000000,4.000000,,,,0.000000,4.000000,4.000000,4.000000,4.000000,4.000000,4.000000,2.000000,4.000000,4.000000,4.000000,4.000000,4.000000,4.000000,4.000000,4.000000,4.000000,4.000000,4.000000,4.000000,4.000000,4.000000,4.000000,4.000000,4.000000,4.000000,4.000000,4.000000,4.000000,4.000000,4.000000,4.000000,4.000000,83.333336
1614130036.522545,37.000000,0.000000,-5.542175,1.727325,21.698400,-1.240396,1.205323,-1.385749,54.221642,-25.127316,-12.563175,-6.830123,-13.150750,-9.652462,-20.023293,-12.133821,-20.512850,-7.578072,-2.713581,-3.722723,8.999495,-1.545553,-1.132228,-0.340712,-1.250030,-3.695591,-4.192440,-8.841573,0.051305,2.362899,-11.944874,-2.454313,6.952724,2.892562,8064.000000,0.000000,4.000000,,,,0.000000,4.000000,4.000000,4.000000,4.000000,4.000000,4.000000,2.000000,4.000000,4.000000,4.000000,4.000000,4.000000,4.000000,4.000000,4.000000,4.000000,4.000000,4.000000,4.000000,4.000000,4.000000,4.000000,4.000000,4.000000,4.000000,4.000000,4.000000,4.000000,4.000000,4.000000,4.000000,4.000000,83.333336
1614130036.530394,38.000000,0.000000,-2.459710,1.725598,22.702343,1.324947,11.460527,0.666919,61.859730,-15.358598,-11.524971,1.894655,-11.599138,-4.001784,-8.208397,-4.429379,-13.312849,-3.980750,-2.198046,-8.847205,10.016136,-1.031187,0.407366,5.813475,-0.735960,-3.691895,2.991240,-4.217346,5.692279,4.924638,-11.932928,-1.939038,6.945772,4.428131,8064.000000,0.000000,4.000000,,,,0.000000,4.000000,4.000000,4.000000,4.000000,4.000000,4.000000,2.000000,4.000000,4.000000,4.000000,4.000000,4.000000,4.000000,4.000000,4.000000,4.000000,4.000000,4.000000,4.000000,4.000000,4.000000,4.000000,4.000000,4.000000,4.000000,4.000000,4.000000,4.000000,4.000000,4.000000,4.000000,4.000000,83.333336
1614130036.538143,39.000000,0.000000,-1.431609,1.723872,18.064255,-1.753301,8.884964,2.204713,36.669666,-14.830419,-12.026266,-0.671342,-16.202923,-6.561884,-15.379676,-6.476232,-18.940561,-16.797281,-1.170207,-7.812717,16.159966,-1.030156,0.919779,5.294841,-1.248044,-2.662563,1.449787,-4.213129,5.686587,6.458175,-11.920996,-9.629407,6.938826,2.885241,8064.000000,0.000000,4.000000,,,,0.000000,4.000000,4.000000,4.000000,4.000000,4.000000,4.000000,2.000000,4.000000,4.000000,4.000000,4.000000,4.000000,4.000000,4.000000,4.000000,4.000000,4.000000,4.000000,4.000000,4.000000,4.000000,4.000000,4.000000,4.000000,4.000000,4.000000,4.000000,4.000000,4.000000,4.000000,4.000000,4.000000,83.333336
1614130036.545992,40.000000,0.000000,-1.942998,1.722148,11.379525,-6.366932,2.722233,1.689688,28.940687,-24.559179,-14.578342,-15.542465,-26.443130,-9.632246,-25.620707,-11.597960,-25.075468,-21.908689,-2.194678,-4.215161,19.733549,-1.029126,-3.183705,2.212623,-1.246796,-2.659900,-6.243970,-4.721736,2.603978,3.374794,-11.909075,-20.389008,7.444707,1.856715,8064.000000,0.000000,4.000000,,,,0.000000,4.000000,4.000000,4.000000,4.000000,4.000000,4.000000,2.000000,4.000000,4.000000,4.000000,4.000000,4.000000,4.000000,4.000000,4.000000,4.000000,4.000000,4.000000,4.000000,4.000000,4.000000,4.000000,4.000000,4.000000,4.000000,4.000000,4.000000,4.000000,4.000000,4.000000,4.000000,4.000000,83.333336
1614130036.553741,41.000000,0.000000,-1.941055,1.720426,9.829683,-4.309283,2.719511,1.687998,61.732258,-21.457697,-16.102226,-20.655128,-28.467970,-8.596972,-23.030983,-13.124825,-25.563211,-20.348320,-3.218125,-10.877612,13.047150,-1.540917,-9.334368,2.210411,-1.245550,-3.170061,-9.827470,-5.229835,2.088553,1.832958,-11.897165,-22.932722,5.898801,1.854858,8064.000000,0.000000,4.000000,,,,0.000000,4.000000,4.000000,4.000000,4.000000,4.000000,4.000000,2.000000,4.000000,4.000000,4.000000,4.000000,4.000000,4.000000,4.000000,4.000000,4.000000,4.000000,4.000000,4.000000,4.000000,4.000000,4.000000,4.000000,4.000000,4.000000,4.000000,4.000000,4.000000,4.000000,4.000000,4.000000,4.000000,83.333336
1614130036.561390,42.000000,0.000000,-3.477575,1.718705,10.845495,-2.253692,4.768074,1.686310,93.978218,-10.154187,-15.573303,-14.993447,-20.234373,-8.075555,-16.854105,-10.034777,-25.537649,-17.251049,1.913299,-11.379555,9.444359,-1.026556,-5.222469,3.233841,-1.244304,-5.218173,-7.766360,-4.198964,2.086465,2.856766,-11.885268,-18.807224,3.841620,1.853003,8064.000000,0.000000,4.000000,,,,0.000000,4.000000,4.000000,4.000000,4.000000,4.000000,4.000000,2.000000,4.000000,4.000000,4.000000,4.000000,4.000000,4.000000,4.000000,4.000000,4.000000,4.000000,4.000000,4.000000,4.000000,4.000000,4.000000,4.000000,4.000000,4.000000,4.000000,4.000000,4.000000,4.000000,4.000000,4.000000,4.000000,83.333336
1614130036.569140,43.000000,0.000000,-5.012559,2.229807,10.321829,-2.764259,4.250485,1.684624,91.320137,-11.169674,-15.044909,-14.465633,-15.085935,-8.580299,-12.734688,-6.434998,-23.973650,-9.028669,7.552411,-1.111765,12.511838,0.000112,-3.678785,3.743428,-0.730239,-1.623211,-8.271415,-2.656304,2.597199,2.853909,-11.873384,-14.173033,3.324958,2.363971,8064.000000,0.000000,4.000000,,,,0.000000,4.000000,4.000000,4.000000,4.000000,4.000000,4.000000,2.000000,4.000000,4.000000,4.000000,4.000000,4.000000,4.000000,4.000000,4.000000,4.000000,4.000000,4.000000,4.000000,4.000000,4.000000,4.000000,4.000000,4.000000,4.000000,4.000000,4.000000,4.000000,4.000000,4.000000,4.000000,4.000000,83.333336
1614130036.576789,44.000000,0.000000,-2.956265,0.176295,10.311507,-2.761495,-0.369150,1.682939,81.998047,-17.825171,-16.055506,-18.553732,-19.686234,-8.571719,-17.337337,-15.659332,-27.026600,-14.660666,4.980756,-10.341423,6.345479,-4.102452,-19.572542,1.688402,-0.729509,-2.647229,-11.340066,-8.807493,2.594601,0.286952,-11.348689,-13.646039,1.783172,1.335966,8064.000000,0.000000,4.000000,,,,0.000000,4.000000,4.000000,4.000000,4.000000,4.000000,4.000000,2.000000,4.000000,4.000000,4.000000,4.000000,4.000000,4.000000,4.000000,4.000000,4.000000,4.000000,4.000000,4.000000,4.000000,4.000000,4.000000,4.000000,4.000000,4.000000,4.000000,4.000000,4.000000,4.000000,4.000000,4.000000,4.000000,83.333336
1614130036.584538,45.000000,0.000000,-1.414847,-1.875163,9.788375,-2.758733,-3.958524,1.681256,49.608360,-17.807346,-15.013809,-18.022358,-23.769112,-8.563148,-26.037949,-30.515469,-33.666241,-30.030621,0.873211,-22.125954,4.287852,-9.739375,-24.681175,-0.877389,-1.241600,-18.542017,-12.867188,-15.978173,0.027904,-1.764617,-11.850161,-14.658034,-0.269894,-1.742293,8064.000000,0.000000,4.000000,,,,0.000000,4.000000,4.000000,4.000000,4.000000,4.000000,4.000000,2.000000,4.000000,4.000000,4.000000,4.000000,4.000000,4.000000,4.000000,4.000000,4.000000,4.000000,4.000000,4.000000,4.000000,4.000000,4.000000,4.000000,4.000000,4.000000,4.000000,4.000000,4.000000,4.000000,4.000000,4.000000,4.000000,83.333336
1614130036.592187,46.000000,0.000000,-1.926253,-2.386108,11.317048,-2.755974,1.686460,2.192396,17.251059,-13.686975,-12.434692,-12.876130,-20.668419,-8.554585,-20.883705,-25.869568,-26.453087,-22.821102,1.897979,-4.155109,23.770744,-8.191175,-5.169314,-0.363691,-0.214717,-22.626040,-11.828679,-9.295528,-0.484944,-1.250031,-11.838311,-10.027991,-0.782444,-2.253372,8064.000000,0.000000,4.000000,,,,0.000000,4.000000,4.000000,4.000000,4.000000,4.000000,4.000000,2.000000,4.000000,4.000000,4.000000,4.000000,4.000000,4.000000,4.000000,4.000000,4.000000,4.000000,4.000000,4.000000,4.000000,4.000000,4.000000,4.000000,4.000000,4.000000,4.000000,4.000000,4.000000,4.000000,4.000000,4.000000,4.000000,83.333336
1614130036.599936,47.000000,0.000000,-1.411506,-1.870902,14.895474,-2.240398,7.838619,1.677383,32.105602,-14.186108,-12.935079,-10.811972,-18.596468,-8.546030,-12.144874,-11.484724,-11.554838,-6.900846,2.921722,10.720840,35.541843,-5.618881,-3.112863,-0.876148,-0.727323,-6.193157,-12.842492,-4.670848,2.079643,-1.248781,-11.313652,-5.915400,-0.268841,-1.225477,8064.000000,0.000000,4.000000,,,,0.000000,4.000000,4.000000,4.000000,4.000000,4.000000,4.000000,2.000000,4.000000,4.000000,4.000000,4.000000,4.000000,4.000000,4.000000,4.000000,4.000000,4.000000,4.000000,4.000000,4.000000,4.000000,4.000000,4.000000,4.000000,4.000000,4.000000,4.000000,4.000000,4.000000,4.000000,4.000000,4.000000,83.333336
1614130036.607585,48.000000,0.000000,-2.948556,-1.869031,12.316477,-4.289440,4.241037,1.162885,50.535034,-18.274487,-15.486246,-11.826801,-21.141973,-8.537484,-17.773754,-14.550162,-12.056104,-9.970868,0.867518,-5.187316,9.865277,-17.920954,-29.263596,-8.567579,-6.367621,-3.110041,-18.470675,-16.461050,-3.050642,-3.298815,-12.327979,-13.088971,-0.268572,-3.275534,8064.000000,0.000000,4.000000,,,,0.000000,4.000000,4.000000,4.000000,4.000000,4.000000,4.000000,2.000000,4.000000,4.000000,4.000000,4.000000,4.000000,4.000000,4.000000,4.000000,4.000000,4.000000,4.000000,4.000000,4.000000,4.000000,4.000000,4.000000,4.000000,4.000000,4.000000,4.000000,4.000000,4.000000,4.000000,4.000000,4.000000,83.333336
1614130036.615334,49.000000,0.000000,-8.073812,-1.867162,7.688776,-6.336432,-0.891409,2.187363,52.022961,-20.820314,-15.983581,-11.814974,-23.172113,-8.528947,-24.935467,-20.689459,-21.274817,-17.140385,-1.697452,-19.541103,-22.452280,-32.774830,-40.516384,-15.225678,-12.515100,-18.491547,-21.016306,-24.136896,-11.252719,-5.346798,-14.879754,-21.281010,-0.268304,-5.323540,8064.000000,0.000000,4.000000,,,,0.000000,4.000000,4.000000,4.000000,4.000000,4.000000,4.000000,2.000000,4.000000,4.000000,4.000000,4.000000,4.000000,4.000000,4.000000,4.000000,4.000000,4.000000,4.000000,4.000000,4.000000,4.000000,4.000000,4.000000,4.000000,4.000000,4.000000,4.000000,4.000000,4.000000,4.000000,4.000000,4.000000,83.333336
1614130036.622984,50.000000,0.000000,-9.604200,-1.865295,8.706728,-6.842916,0.135123,2.697996,78.124786,-21.312315,-14.941956,-11.290339,-23.148943,-8.007597,-23.884892,-14.514922,-20.227901,-16.610424,-2.208575,-16.957458,-14.737520,-26.588207,-29.193815,-15.723273,-12.502584,-23.601259,-16.892727,-20.010195,-11.241467,-5.341451,-15.890515,-19.721268,-0.268035,-3.779755,8064.000000,0.000000,4.000000,,,,0.000000,4.000000,4.000000,4.000000,4.000000,4.000000,4.000000,2.000000,4.000000,4.000000,4.000000,4.000000,4.000000,4.000000,4.000000,4.000000,4.000000,4.000000,4.000000,4.000000,4.000000,4.000000,4.000000,4.000000,4.000000,4.000000,4.000000,4.000000,4.000000,4.000000,4.000000,4.000000,4.000000,83.333336
1614130036.630733,51.000000,0.000000,-9.081776,-1.863429,9.210842,-6.836073,0.647809,-3.971369,97.533836,-24.367926,-15.439835,-11.791869,-22.612972,-10.050872,-23.861006,-9.885023,-16.105108,-17.106634,-1.693546,-15.402040,13.995166,-11.177004,-18.908213,-15.194729,-11.464441,-21.013556,-12.260449,-18.451723,-8.153302,-4.823289,-15.361804,-16.624624,-0.267767,-1.724694,8064.000000,0.000000,4.000000,,,,0.000000,4.000000,4.000000,4.000000,4.000000,4.000000,4.000000,2.000000,4.000000,4.000000,4.000000,4.000000,4.000000,4.000000,4.000000,4.000000,4.000000,4.000000,4.000000,4.000000,4.000000,4.000000,4.000000,4.000000,4.000000,4.000000,4.000000,4.000000,4.000000,4.000000,4.000000,4.000000,4.000000,83.333336
1614130036.638382,52.000000,0.000000,-9.072694,-1.861566,7.150349,-6.829237,-0.378480,-4.993038,81.538872,-24.343557,-15.424395,-11.780077,-23.103180,-12.092103,-27.426889,-11.413600,-17.114645,-11.448502,-1.691852,-17.437920,13.981171,-8.601724,-17.863663,-15.692355,-12.478618,-21.505363,-11.735368,-19.458912,-8.657969,-4.818466,-15.346442,-17.120819,-0.267500,-1.722969,8064.000000,0.000000,4.000000,,,,0.000000,4.000000,4.000000,4.000000,4.000000,4.000000,4.000000,2.000000,4.000000,4.000000,4.000000,4.000000,4.000000,4.000000,4.000000,4.000000,4.000000,4.000000,4.000000,4.000000,4.000000,4.000000,4.000000,4.000000,4.000000,4.000000,4.000000,4.000000,4.000000,4.000000,4.000000,4.000000,4.000000,83.333336
1614130036.646131,53.000000,0.000000,-9.576442,-1.859704,6.630378,-4.258306,0.134719,3.729903,69.149635,-19.191008,-15.408970,-11.768297,-23.080076,-12.080010,-27.912283,-11.915007,-17.610352,-4.770386,-1.690160,-17.933304,-7.571272,-13.208507,-20.922722,-15.676662,-12.466139,-21.996677,-12.236453,-19.952274,-9.674952,-5.326468,-15.331096,-18.129339,-0.780053,-1.721246,8064.000000,0.000000,4.000000,,,,0.000000,4.000000,4.000000,4.000000,4.000000,4.000000,4.000000,2.000000,4.000000,4.000000,4.000000,4.000000,4.000000,4.000000,4.000000,4.000000,4.000000,4.000000,4.000000,4.000000,4.000000,4.000000,4.000000,4.000000,4.000000,4.000000,4.000000,4.000000,4.000000,4.000000,4.000000,4.000000,4.000000,83.333336
1614130036.653780,54.000000,0.000000,-9.566865,-1.857845,6.110927,-3.228406,-0.378236,3.213353,51.644592,-16.607716,-15.906382,-11.756529,-23.056997,-12.067930,-27.371550,-12.928733,-17.079920,-16.047667,-1.688470,-16.889729,-3.461137,-12.169658,-21.414619,-15.148166,-11.940852,-23.513144,-11.711396,-19.932322,-9.152456,-5.321141,-15.315764,-17.598391,-0.779273,-2.232345,8064.000000,0.000000,4.000000,,,,0.000000,4.000000,4.000000,4.000000,4.000000,4.000000,4.000000,2.000000,4.000000,4.000000,4.000000,4.000000,4.000000,4.000000,4.000000,4.000000,4.000000,4.000000,4.000000,4.000000,4.000000,4.000000,4.000000,4.000000,4.000000,4.000000,4.000000,4.000000,4.000000,4.000000,4.000000,4.000000,4.000000,83.333336
1614130036.661629,55.000000,0.000000,-9.044477,-1.855987,7.130457,-2.712357,-0.377858,-5.507809,24.926281,-17.103928,-15.890475,-11.744772,-23.033939,-12.055862,-27.344177,-15.479906,-17.575661,-27.313671,-1.686782,-12.770275,17.055145,-10.619026,-16.777821,-15.133018,-11.928912,-18.874245,-11.699685,-13.758543,-8.117663,-3.777359,-15.300449,-13.478228,1.785609,-1.204472,8064.000000,0.000000,4.000000,,,,0.000000,4.000000,4.000000,4.000000,4.000000,4.000000,4.000000,2.000000,4.000000,4.000000,4.000000,4.000000,4.000000,4.000000,4.000000,4.000000,4.000000,4.000000,4.000000,4.000000,4.000000,4.000000,4.000000,4.000000,4.000000,4.000000,4.000000,4.000000,4.000000,4.000000,4.000000,4.000000,4.000000,83.333336
1614130036.669378,56.000000,0.000000,-9.035433,-1.854131,12.764353,1.392919,0.648161,-2.425378,46.952637,-17.086824,-15.361764,-11.733027,-23.010906,-12.043807,-27.316833,-15.464426,-17.045265,-20.619690,-1.685095,-10.706223,17.550911,-12.146869,-13.684120,-15.630705,-12.429803,-7.060499,-12.200806,-5.539657,-9.135186,-1.722299,-15.285149,-6.798082,3.835106,3.412117,8064.000000,0.000000,4.000000,,,,0.000000,4.000000,4.000000,4.000000,4.000000,4.000000,4.000000,2.000000,4.000000,4.000000,4.000000,4.000000,4.000000,4.000000,4.000000,4.000000,4.000000,4.000000,4.000000,4.000000,4.000000,4.000000,4.000000,4.000000,4.000000,4.000000,4.000000,4.000000,4.000000,4.000000,4.000000,4.000000,4.000000,83.333336
1614130036.677227,57.000000,0.000000,-9.539218,-2.365097,12.751588,5.494091,-1.916590,1.679611,79.726196,-17.582558,-15.859222,-11.721294,-22.987896,-12.544583,-27.802338,-15.961782,-18.053860,-15.983686,-1.683410,-13.259619,6.764129,-11.621902,-14.183256,-14.076612,-12.417374,-2.438054,-12.188605,-6.559758,-9.638872,-1.207757,-15.269863,-5.765643,3.318450,5.972808,8064.000000,0.000000,4.000000,,,,0.000000,4.000000,4.000000,4.000000,4.000000,4.000000,4.000000,2.000000,4.000000,4.000000,4.000000,4.000000,4.000000,4.000000,4.000000,4.000000,4.000000,4.000000,4.000000,4.000000,4.000000,4.000000,4.000000,4.000000,4.000000,4.000000,4.000000,4.000000,4.000000,4.000000,4.000000,4.000000,4.000000,83.333336
1614130036.684976,58.000000,0.000000,-6.452756,-1.337091,11.200375,4.462955,-3.453135,-1.911812,67.851601,-17.052155,-15.843364,-11.709573,-22.964907,-12.019218,-27.261715,-15.433001,-23.164011,-22.121548,-1.681726,-13.759180,3.680442,-9.046177,-15.194714,-12.524075,-9.840854,-6.538180,-12.689237,-7.066019,-5.013848,-0.180908,-15.254594,-6.272698,3.827952,5.454014,8064.000000,0.000000,4.000000,,,,0.000000,4.000000,4.000000,4.000000,4.000000,4.000000,4.000000,2.000000,4.000000,4.000000,4.000000,4.000000,4.000000,4.000000,4.000000,4.000000,4.000000,4.000000,4.000000,4.000000,4.000000,4.000000,4.000000,4.000000,4.000000,4.000000,4.000000,4.000000,4.000000,4.000000,4.000000,4.000000,4.000000,83.333336
1614130036.692825,59.000000,0.000000,-2.343739,1.228349,19.394302,4.458492,3.216985,1.679844,50.860668,-14.471000,-10.186495,-11.185043,-19.352200,-12.007199,-25.183170,-13.366285,-25.704950,-25.689171,-1.680045,-13.232600,3.676761,-8.011490,-14.666698,-11.485909,-7.779731,-7.557283,-12.163727,-1.417927,1.657832,2.383376,-15.239339,-1.138220,6.388227,5.448560,8064.000000,0.000000,4.000000,,,,0.000000,4.000000,4.000000,4.000000,4.000000,4.000000,4.000000,2.000000,4.000000,4.000000,4.000000,4.000000,4.000000,4.000000,4.000000,4.000000,4.000000,4.000000,4.000000,4.000000,4.000000,4.000000,4.000000,4.000000,4.000000,4.000000,4.000000,4.000000,4.000000,4.000000,4.000000,4.000000,4.000000,83.333336
1614130036.700574,60.000000,0.000000,-1.828575,2.252761,25.015934,7.018137,10.906075,8.857651,63.630322,-13.943708,-4.535283,-12.199499,-15.743103,-12.508013,-23.619526,-12.327278,-21.063860,-23.612200,-2.191185,-16.296291,2.647443,-8.516298,-14.139212,-9.935962,-8.284771,-6.011264,-12.151564,0.634773,3.194636,2.893813,-15.224100,1.427020,7.407479,5.955933,8064.000000,0.000000,4.000000,,,,0.000000,4.000000,4.000000,4.000000,4.000000,4.000000,4.000000,2.000000,4.000000,4.000000,4.000000,4.000000,4.000000,4.000000,4.000000,4.000000,4.000000,4.000000,4.000000,4.000000,4.000000,4.000000,4.000000,4.000000,4.000000,4.000000,4.000000,4.000000,4.000000,4.000000,4.000000,4.000000,4.000000,83.333336
1614130036.708423,61.000000,0.000000,-1.313926,1.737688,18.837072,8.549580,10.895169,6.797511,59.976948,-11.878482,-4.017927,-11.674479,-15.214540,-11.982684,-20.518984,-10.776489,-17.453053,-19.486023,-1.163353,-13.715892,3.670437,-9.020603,-14.637893,-8.387565,-8.276486,-7.030894,-13.677874,-3.468426,2.165800,1.865278,-15.208876,-1.651330,6.887251,5.437156,8064.000000,0.000000,4.000000,,,,0.000000,4.000000,4.000000,4.000000,4.000000,4.000000,4.000000,2.000000,4.000000,4.000000,4.000000,4.000000,4.000000,4.000000,4.000000,4.000000,4.000000,4.000000,4.000000,4.000000,4.000000,4.000000,4.000000,4.000000,4.000000,4.000000,4.000000,4.000000,4.000000,4.000000,4.000000,4.000000,4.000000,83.333336
1614130036.716172,62.000000,0.000000,1.251491,1.735950,16.766953,8.028210,10.371454,5.252252,42.993893,-5.199937,-5.039550,-7.560240,-15.712146,-6.842496,-17.421541,-6.663148,-17.435600,-16.389614,0.889092,-3.958586,6.743690,-8.498762,-15.136075,-4.789433,-4.165646,-7.023863,-10.074451,-5.003419,2.676455,2.889054,-15.193666,-3.188140,6.367544,5.431719,8064.000000,0.000000,4.000000,,,,0.000000,4.000000,4.000000,4.000000,4.000000,4.000000,4.000000,2.000000,4.000000,4.000000,4.000000,4.000000,4.000000,4.000000,4.000000,4.000000,4.000000,4.000000,4.000000,4.000000,4.000000,4.000000,4.000000,4.000000,4.000000,4.000000,4.000000,4.000000,4.000000,4.000000,4.000000,4.000000,4.000000,83.333336
1614130036.724021,63.000000,0.000000,2.275880,1.734214,20.852751,8.020182,16.002108,10.888025,42.438080,-2.117814,-2.983228,-3.962936,-15.183613,-1.707449,-15.865659,-4.092382,-15.879703,-17.911686,2.426665,1.686398,12.890792,-5.926160,-12.556837,0.856382,-0.571737,-4.452736,-0.833608,-3.972775,2.673779,5.450267,-12.614370,-2.159311,6.873997,5.426287,8064.000000,0.000000,4.000000,,,,0.000000,4.000000,4.000000,4.000000,4.000000,4.000000,4.000000,2.000000,4.000000,4.000000,4.000000,4.000000,4.000000,4.000000,4.000000,4.000000,4.000000,4.000000,4.000000,4.000000,4.000000,4.000000,4.000000,4.000000,4.000000,4.000000,4.000000,4.000000,4.000000,4.000000,4.000000,4.000000,4.000000,83.333336
1614130036.731770,64.000000,0.000000,1.760784,1.732480,21.857538,8.012161,19.063028,13.441240,43.934101,-5.192619,-0.928963,-3.958973,-15.168429,-0.680100,-15.849792,-3.575470,-12.786900,-13.278390,1.911418,2.710353,18.006107,-3.868952,-7.416075,4.445269,-0.571165,-2.909822,4.295431,-4.481622,2.158284,6.470458,-9.012012,-2.157151,7.379943,5.420861,0.000000,199.000000,4.000000,,,,0.000000,4.000000,4.000000,4.000000,4.000000,4.000000,4.000000,2.000000,4.000000,4.000000,4.000000,4.000000,4.000000,4.000000,4.000000,4.000000,4.000000,4.000000,4.000000,4.000000,4.000000,4.000000,4.000000,4.000000,4.000000,4.000000,4.000000,4.000000,4.000000,4.000000,4.000000,4.000000,4.000000,83.333336
1614130036.739619,65.000000,0.000000,1.759023,1.730748,21.835680,8.516970,19.043966,12.914978,53.633759,-6.213068,-0.415213,-4.467835,-14.640440,-1.192240,-15.833943,-3.571894,-12.261292,-10.188189,1.909506,2.194822,17.988100,-4.890724,-8.434299,3.415183,-1.596235,-2.906912,1.727033,-4.477140,2.156126,5.951167,-6.951718,-3.693456,6.859743,5.928260,0.000000,177.000000,4.000000,,,,0.000000,4.000000,4.000000,4.000000,4.000000,4.000000,4.000000,2.000000,4.000000,4.000000,4.000000,4.000000,4.000000,4.000000,4.000000,4.000000,4.000000,4.000000,4.000000,4.000000,4.000000,4.000000,4.000000,4.000000,4.000000,4.000000,4.000000,4.000000,4.000000,4.000000,4.000000,4.000000,4.000000,83.333336
1614130036.747368,66.000000,0.000000,1.757264,1.729017,20.788204,7.995632,18.512102,13.414884,73.067307,-5.181214,-0.414798,-3.950547,-15.138620,-0.678228,-15.818109,-6.645246,-14.300313,-24.536974,2.420417,1.679807,21.559856,-3.860193,-10.477147,2.898947,-0.056177,-3.416826,-0.838797,-4.472663,2.153970,5.945216,-7.457587,-5.741045,3.775960,5.409512,0.000000,142.000000,4.000000,,,,0.000000,4.000000,4.000000,4.000000,4.000000,4.000000,4.000000,2.000000,4.000000,4.000000,4.000000,4.000000,4.000000,4.000000,4.000000,4.000000,4.000000,4.000000,4.000000,4.000000,4.000000,4.000000,4.000000,4.000000,4.000000,4.000000,4.000000,4.000000,4.000000,4.000000,4.000000,4.000000,4.000000,83.333336
1614130036.755217,67.000000,0.000000,1.755507,2.240108,21.280237,7.987637,17.980768,11.863008,62.225006,-6.201674,-0.927204,-3.946596,-16.149122,-0.677550,-16.315111,-7.664241,-13.773192,-28.102180,4.982100,2.703768,27.692142,-1.805050,-7.389747,3.408869,2.507982,-3.413409,-0.837958,-4.468191,2.151816,5.939270,-7.962950,-6.248124,5.310646,5.404102,0.000000,183.000000,4.000000,,,,0.000000,4.000000,4.000000,4.000000,4.000000,4.000000,4.000000,2.000000,4.000000,4.000000,4.000000,4.000000,4.000000,4.000000,4.000000,4.000000,4.000000,4.000000,4.000000,4.000000,4.000000,4.000000,4.000000,4.000000,4.000000,4.000000,4.000000,4.000000,4.000000,4.000000,4.000000,4.000000,4.000000,83.333336
1614130036.762966,68.000000,0.000000,1.753751,4.801971,26.899982,8.492470,17.962788,12.876785,34.983295,-5.169831,-0.413456,-4.455470,-14.594512,-1.189692,-16.298796,-2.528372,-9.144034,-4.997156,6.002759,0.649782,25.100348,-3.854527,-8.407998,2.379819,2.505474,-2.897175,-0.324300,-4.463723,2.149664,5.933331,-6.416526,-6.241876,11.459181,5.911519,0.000000,187.000000,4.000000,,,,0.000000,4.000000,4.000000,4.000000,4.000000,4.000000,4.000000,2.000000,4.000000,4.000000,4.000000,4.000000,4.000000,4.000000,4.000000,4.000000,4.000000,4.000000,4.000000,4.000000,4.000000,4.000000,4.000000,4.000000,4.000000,4.000000,4.000000,4.000000,4.000000,4.000000,4.000000,4.000000,4.000000,83.333336
1614130036.770716,69.000000,0.000000,1.751998,6.848451,27.385902,7.971157,17.944826,13.889550,47.256004,-6.703123,-0.413043,-4.451015,-16.118380,-0.675682,-17.820959,-6.628407,-13.237454,-4.479338,4.458294,-12.684201,12.767554,-7.440416,-16.604719,0.326157,-0.061134,-3.407099,-1.862437,-3.946438,2.147514,6.440218,-8.974212,-5.722813,8.883619,4.367146,0.000000,175.000000,4.000000,,,,0.000000,4.000000,4.000000,4.000000,4.000000,4.000000,4.000000,2.000000,4.000000,4.000000,4.000000,4.000000,4.000000,4.000000,4.000000,4.000000,4.000000,4.000000,4.000000,4.000000,4.000000,4.000000,4.000000,4.000000,4.000000,4.000000,4.000000,4.000000,4.000000,4.000000,4.000000,4.000000,4.000000,83.333336
1614130036.778465,70.000000,0.000000,1.750246,3.764679,17.102106,4.373442,11.260214,1.055147,75.413872,-13.363086,-5.028014,-4.446564,-26.871490,-1.700648,-21.905703,-20.980753,-26.557550,-32.167168,0.864092,-24.979210,-7.245213,-12.048361,-23.254780,-4.289554,-1.086714,-4.942153,-6.475959,-5.993774,2.145367,4.895317,-15.631905,-6.742732,-5.484239,-0.765427,0.000000,196.000000,4.000000,,,,0.000000,4.000000,4.000000,4.000000,4.000000,4.000000,4.000000,2.000000,4.000000,4.000000,4.000000,4.000000,4.000000,4.000000,4.000000,4.000000,4.000000,4.000000,4.000000,4.000000,4.000000,4.000000,4.000000,4.000000,4.000000,4.000000,4.000000,4.000000,4.000000,4.000000,4.000000,4.000000,4.000000,83.333336
1614130036.786314,71.000000,0.000000,1.748495,-0.854470,7.341414,0.266504,0.992543,-13.304882,75.338463,-18.990749,-14.253756,-4.442117,-34.024109,-6.314332,-24.960720,-25.575157,-28.582275,-31.109358,-2.726516,-24.441410,-21.084122,-16.138876,-24.257168,-5.823726,-3.649730,-7.501313,-9.033586,-9.577524,1.630401,2.839139,-20.231657,-13.915476,-12.658241,-6.405687,0.000000,184.000000,4.000000,,,,0.000000,4.000000,4.000000,4.000000,4.000000,4.000000,4.000000,2.000000,4.000000,4.000000,4.000000,4.000000,4.000000,4.000000,4.000000,4.000000,4.000000,4.000000,4.000000,4.000000,4.000000,4.000000,4.000000,4.000000,4.000000,4.000000,4.000000,4.000000,4.000000,4.000000,4.000000,4.000000,4.000000,83.333336
1614130036.794063,72.000000,0.000000,1.746747,-2.392077,10.410996,0.266238,4.581295,-9.189013,67.057991,-17.433296,-15.777964,-4.437675,-26.810596,-8.872120,-21.346016,-13.754710,-18.297283,-7.488505,-1.698148,-16.211840,-7.729704,-10.481711,-15.514961,1.874406,-4.671721,-8.006633,-8.511732,-11.106408,2.141591,2.323480,-18.672964,-16.978483,-9.055840,-6.399282,0.000000,184.000000,4.000000,,,,0.000000,4.000000,4.000000,4.000000,4.000000,4.000000,4.000000,2.000000,4.000000,4.000000,4.000000,4.000000,4.000000,4.000000,4.000000,4.000000,4.000000,4.000000,4.000000,4.000000,4.000000,4.000000,4.000000,4.000000,4.000000,4.000000,4.000000,4.000000,4.000000,4.000000,4.000000,4.000000,4.000000,83.333336
1614130036.801712,73.000000,0.000000,1.232180,-1.876864,15.528790,2.830074,17.910046,1.589407,63.914013,-16.903042,-10.121160,-4.433237,-17.040195,-8.863248,-15.170823,-1.946084,-14.176421,-2.865632,2.406114,-2.862295,19.457514,0.298001,-0.627651,6.487916,-1.077306,-5.947344,-9.016041,-11.608122,1.626629,1.808336,-18.654291,-12.346121,-7.508322,-2.803138,0.000000,192.000000,4.000000,,,,0.000000,4.000000,4.000000,4.000000,4.000000,4.000000,4.000000,2.000000,4.000000,4.000000,4.000000,4.000000,4.000000,4.000000,4.000000,4.000000,4.000000,4.000000,4.000000,4.000000,4.000000,4.000000,4.000000,4.000000,4.000000,4.000000,4.000000,4.000000,4.000000,4.000000,4.000000,4.000000,4.000000,83.333336
1614130036.809461,74.000000,0.000000,1.743768,-1.874987,16.026081,4.365705,19.430597,2.100638,48.465485,-18.937422,-8.059756,-4.941625,-16.510334,-9.367205,-13.617190,-0.918497,-13.649425,-6.965331,5.993452,12.012362,28.668825,1.836164,3.988361,4.430146,0.462233,-4.402935,-8.494204,-13.134975,1.112182,2.319348,-20.174097,-10.282493,-8.526455,0.276588,0.000000,178.000000,4.000000,,,,0.000000,4.000000,4.000000,4.000000,4.000000,4.000000,4.000000,2.000000,4.000000,4.000000,4.000000,4.000000,4.000000,4.000000,4.000000,4.000000,4.000000,4.000000,4.000000,4.000000,4.000000,4.000000,4.000000,4.000000,4.000000,4.000000,4.000000,4.000000,4.000000,4.000000,4.000000,4.000000,4.000000,83.333336
1614130036.817110,75.000000,0.000000,3.793306,-2.385933,18.061338,3.848519,13.770142,0.047255,36.109325,-12.764638,-8.564517,-3.911042,-14.955363,-5.768094,-10.526650,-2.968860,-6.969108,-3.368622,13.679766,17.128555,25.563232,3.372790,2.958732,13.656485,2.513052,-3.372891,-4.895966,-9.019277,5.213634,4.368310,-18.102642,-9.759389,-4.415365,2.327593,0.000000,197.000000,4.000000,,,,0.000000,4.000000,4.000000,4.000000,4.000000,4.000000,4.000000,2.000000,4.000000,4.000000,4.000000,4.000000,4.000000,4.000000,4.000000,4.000000,4.000000,4.000000,4.000000,4.000000,4.000000,4.000000,4.000000,4.000000,4.000000,4.000000,4.000000,4.000000,4.000000,4.000000,4.000000,4.000000,4.000000,83.333336
1614130036.824859,76.000000,0.000000,5.327974,-1.870727,26.248405,4.357491,19.910217,1.585669,38.124500,-1.469822,-5.991850,-1.343028,-7.248100,0.904341,0.765928,6.264878,1.242989,-0.801151,22.896856,16.085785,30.665874,14.651468,11.160901,29.540264,12.254129,-0.292595,-1.301327,-1.830770,12.387907,4.876763,-12.956334,-3.595784,-0.308385,4.889368,0.000000,153.000000,4.000000,,,,0.000000,4.000000,4.000000,4.000000,4.000000,4.000000,4.000000,2.000000,4.000000,4.000000,4.000000,4.000000,4.000000,4.000000,4.000000,4.000000,4.000000,4.000000,4.000000,4.000000,4.000000,4.000000,4.000000,4.000000,4.000000,4.000000,4.000000,4.000000,4.000000,4.000000,4.000000,4.000000,4.000000,83.333336
1614130036.832508,77.000000,0.000000,5.835467,-1.868856,30.324720,4.353134,26.556974,2.609725,33.983810,3.147032,-3.934576,-0.316044,-3.138288,1.929077,7.431828,17.540665,2.267387,2.276574,24.412420,20.685085,34.737774,20.277842,16.277945,30.536366,12.754696,3.810262,-0.787205,-1.316119,13.913981,2.820604,-10.379275,-3.592188,0.204744,5.397299,0.000000,183.000000,4.000000,,,,0.000000,4.000000,4.000000,4.000000,4.000000,4.000000,4.000000,2.000000,4.000000,4.000000,4.000000,4.000000,4.000000,4.000000,4.000000,4.000000,4.000000,4.000000,4.000000,4.000000,4.000000,4.000000,4.000000,4.000000,4.000000,4.000000,4.000000,4.000000,4.000000,4.000000,4.000000,4.000000,4.000000,83.333336
1614130036.840257,78.000000,0.000000,4.291170,-1.866987,24.653370,3.835960,24.991955,1.068653,48.821621,1.092603,-4.443462,-1.341369,-4.160790,3.465610,4.860294,16.497482,-0.298983,0.735836,22.849546,20.664400,29.574829,15.642179,11.133462,24.864803,3.511172,5.344913,-1.299238,-4.904546,12.361606,1.792142,-11.394537,-9.229622,-0.821102,4.879082,0.000000,160.000000,4.000000,,,,0.000000,4.000000,4.000000,4.000000,4.000000,4.000000,4.000000,2.000000,4.000000,4.000000,4.000000,4.000000,4.000000,4.000000,4.000000,4.000000,4.000000,4.000000,4.000000,4.000000,4.000000,4.000000,4.000000,4.000000,4.000000,4.000000,4.000000,4.000000,4.000000,4.000000,4.000000,4.000000,4.000000,83.333336
1614130036.847907,79.000000,0.000000,6.338161,-1.865120,25.654358,5.883406,27.018246,1.580405,81.593315,1.091511,-3.926198,-0.314387,-2.618168,13.205734,8.957997,13.404062,0.726957,-3.880285,26.416441,17.053991,38.263203,18.190639,17.788996,28.429682,12.225609,3.288286,-1.810759,-3.361180,13.887706,2.303171,-10.357501,-3.579366,-0.307460,10.002408,0.000000,207.000000,4.000000,,,,0.000000,4.000000,4.000000,4.000000,4.000000,4.000000,4.000000,2.000000,4.000000,4.000000,4.000000,4.000000,4.000000,4.000000,4.000000,4.000000,4.000000,4.000000,4.000000,4.000000,4.000000,4.000000,4.000000,4.000000,4.000000,4.000000,4.000000,4.000000,4.000000,4.000000,4.000000,4.000000,4.000000,83.333336
1614130036.855656,80.000000,0.000000,10.947207,-1.863255,37.936394,9.980087,31.606611,6.194210,97.409157,2.116060,-1.358169,2.250030,-0.051447,21.910477,17.666988,16.467581,8.931358,8.431288,30.492588,26.780527,60.789043,28.941681,33.155823,36.606380,30.162102,3.797818,3.832077,0.231925,16.437920,2.813688,-7.783041,8.219085,1.231309,18.197533,0.000000,185.000000,4.000000,,,,0.000000,4.000000,4.000000,4.000000,4.000000,4.000000,4.000000,2.000000,4.000000,4.000000,4.000000,4.000000,4.000000,4.000000,4.000000,4.000000,4.000000,4.000000,4.000000,4.000000,4.000000,4.000000,4.000000,4.000000,4.000000,4.000000,4.000000,4.000000,4.000000,4.000000,4.000000,4.000000,4.000000,83.333336
1614130036.863305,81.000000,0.000000,12.987542,-1.861392,42.513844,12.021389,30.549364,9.264938,65.004051,1.088303,-0.331170,3.273421,-0.564216,21.888567,15.085218,18.502396,11.999351,19.192087,30.974916,27.266567,52.010307,23.784534,31.584204,36.056953,27.055016,9.435046,9.982091,-0.281128,17.447123,4.862156,-7.262438,9.236507,3.281359,20.743439,0.000000,174.000000,4.000000,,,,0.000000,4.000000,4.000000,4.000000,4.000000,4.000000,4.000000,2.000000,4.000000,4.000000,4.000000,4.000000,4.000000,4.000000,4.000000,4.000000,4.000000,4.000000,4.000000,4.000000,4.000000,4.000000,4.000000,4.000000,4.000000,4.000000,4.000000,4.000000,4.000000,4.000000,4.000000,4.000000,4.000000,83.333336
1614130036.871054,82.000000,0.000000,9.897632,-1.859530,36.317482,11.496547,27.954712,9.255673,33.656998,1.087215,-0.843660,2.757327,-1.076473,16.738472,6.352185,16.945431,4.295043,-0.314284,29.918301,1.085454,19.650602,3.760749,17.706467,26.277308,15.745910,11.989714,7.408007,-2.844949,15.378394,6.395756,-7.255175,5.124706,3.790899,19.697054,0.000000,197.000000,4.000000,,,,0.000000,4.000000,4.000000,4.000000,4.000000,4.000000,4.000000,2.000000,4.000000,4.000000,4.000000,4.000000,4.000000,4.000000,4.000000,4.000000,4.000000,4.000000,4.000000,4.000000,4.000000,4.000000,4.000000,4.000000,4.000000,4.000000,4.000000,4.000000,4.000000,4.000000,4.000000,4.000000,4.000000,83.333336
1614130036.878703,83.000000,0.000000,8.349273,-1.857671,34.742706,11.485050,28.439579,8.733597,27.469496,1.086128,-0.842816,2.754570,-0.562576,13.644811,4.294551,17.441307,1.726646,-9.544740,29.888382,-7.633580,12.964286,0.167245,12.560555,20.610004,15.730165,4.798237,2.272393,-3.867745,13.311734,5.876540,-8.786382,4.093941,3.274287,20.702997,0.000000,199.000000,4.000000,,,,0.000000,4.000000,4.000000,4.000000,4.000000,4.000000,4.000000,2.000000,4.000000,4.000000,4.000000,4.000000,4.000000,4.000000,4.000000,4.000000,4.000000,4.000000,4.000000,4.000000,4.000000,4.000000,4.000000,4.000000,4.000000,4.000000,4.000000,4.000000,4.000000,4.000000,4.000000,4.000000,4.000000,83.333336
1614130036.886452,84.000000,0.000000,8.853744,-1.855813,36.759243,11.986386,28.923960,8.724864,22.826641,1.085042,-0.329153,3.264636,-1.074834,13.118346,6.341538,16.911045,10.442867,13.028908,31.909775,16.989439,43.207733,15.551693,15.624917,26.230419,17.765717,-1.360408,4.834224,-3.863877,13.298422,5.870663,-10.828877,2.551385,3.783833,20.169474,0.000000,181.000000,4.000000,,,,0.000000,4.000000,4.000000,4.000000,4.000000,4.000000,4.000000,2.000000,4.000000,4.000000,4.000000,4.000000,4.000000,4.000000,4.000000,4.000000,4.000000,4.000000,4.000000,4.000000,4.000000,4.000000,4.000000,4.000000,4.000000,4.000000,4.000000,4.000000,4.000000,4.000000,4.000000,4.000000,4.000000,83.333336
1614130036.894101,85.000000,0.000000,8.844890,-1.853957,34.158382,11.974400,28.382215,9.228959,37.162788,1.083956,-0.841644,3.261371,-0.560938,13.618048,5.309556,17.406954,12.996528,19.682547,33.929146,25.177578,51.882473,21.689987,17.147755,31.332394,18.260771,0.692235,7.393492,-4.372834,15.336406,5.864792,-11.330869,1.010372,3.267229,20.149305,0.000000,168.000000,4.000000,,,,0.000000,4.000000,4.000000,4.000000,4.000000,4.000000,4.000000,2.000000,4.000000,4.000000,4.000000,4.000000,4.000000,4.000000,4.000000,4.000000,4.000000,4.000000,4.000000,4.000000,4.000000,4.000000,4.000000,4.000000,4.000000,4.000000,4.000000,4.000000,4.000000,4.000000,4.000000,4.000000,4.000000,83.333336
1614130036.901950,86.000000,0.000000,8.323224,-1.852103,32.585762,11.449605,28.353832,9.219730,62.253830,1.082873,-0.840802,2.745289,-0.560377,12.578789,4.791426,18.415188,11.445069,5.816710,33.895218,15.921631,40.548538,18.591373,17.130606,31.301062,20.293793,3.768466,4.821996,-3.342820,17.885172,5.858928,-10.806718,1.009362,3.776782,21.154797,0.000000,191.000000,4.000000,,,,0.000000,4.000000,4.000000,4.000000,4.000000,4.000000,4.000000,2.000000,4.000000,4.000000,4.000000,4.000000,4.000000,4.000000,4.000000,4.000000,4.000000,4.000000,4.000000,4.000000,4.000000,4.000000,4.000000,4.000000,4.000000,4.000000,4.000000,4.000000,4.000000,4.000000,4.000000,4.000000,4.000000,83.333336
1614130036.909699,87.000000,0.000000,8.827722,-1.850251,29.989075,12.463796,27.812658,7.159229,72.447990,1.081790,-0.327141,2.742544,-2.611099,13.079031,5.812275,12.755748,12.972086,10.939097,34.374146,21.546734,42.559273,22.162527,16.600655,31.782581,19.247858,3.764697,2.765892,-5.390759,15.303185,6.365889,-11.308731,-3.094212,4.285826,14.466975,0.000000,204.000000,4.000000,,,,0.000000,4.000000,4.000000,4.000000,4.000000,4.000000,4.000000,2.000000,4.000000,4.000000,4.000000,4.000000,4.000000,4.000000,4.000000,4.000000,4.000000,4.000000,4.000000,4.000000,4.000000,4.000000,4.000000,4.000000,4.000000,4.000000,4.000000,4.000000,4.000000,4.000000,4.000000,4.000000,4.000000,83.333336
1614130036.917548,88.000000,0.000000,8.818894,-1.848401,22.266777,11.425692,25.733564,5.100787,82.631950,1.080708,-2.378096,3.252622,-4.146949,13.578773,3.242360,1.460940,4.753985,11.440979,33.314129,15.371342,38.414150,18.037800,9.917388,28.161055,17.177328,3.248112,-0.313797,-13.590497,9.134035,5.333882,-10.784602,-12.321887,0.178976,3.683277,0.000000,196.000000,4.000000,,,,0.000000,4.000000,4.000000,4.000000,4.000000,4.000000,4.000000,2.000000,4.000000,4.000000,4.000000,4.000000,4.000000,4.000000,4.000000,4.000000,4.000000,4.000000,4.000000,4.000000,4.000000,4.000000,4.000000,4.000000,4.000000,4.000000,4.000000,4.000000,4.000000,4.000000,4.000000,4.000000,4.000000,83.333336
1614130036.925298,89.000000,0.000000,8.810075,-1.846552,16.603485,5.773240,20.579624,4.582866,79.472397,1.079627,-4.427000,1.710908,-5.681264,9.975450,-2.401908,-2.643085,-10.122563,-14.211488,26.614147,-5.669671,25.555222,0.071044,-0.348940,19.414946,16.134508,3.757684,-5.954509,-19.730753,4.509516,2.251625,-10.773818,-19.489052,-7.000690,0.602671,0.000000,192.000000,4.000000,,,,0.000000,4.000000,4.000000,4.000000,4.000000,4.000000,4.000000,2.000000,4.000000,4.000000,4.000000,4.000000,4.000000,4.000000,4.000000,4.000000,4.000000,4.000000,4.000000,4.000000,4.000000,4.000000,4.000000,4.000000,4.000000,4.000000,4.000000,4.000000,4.000000,4.000000,4.000000,4.000000,4.000000,83.333336
1614130036.933147,90.000000,0.000000,8.288445,-1.844706,16.586882,1.664903,14.918019,5.603924,47.085232,1.078548,-4.935393,-0.854906,-9.778147,5.862910,-5.989249,-1.101980,-15.753467,-22.402405,21.972149,-5.151181,32.709152,-4.031591,-4.963975,16.318607,14.067093,4.266747,-9.025477,-18.685381,5.017827,2.762194,-12.301505,-20.495203,-7.506510,2.140530,0.000000,197.000000,4.000000,,,,0.000000,4.000000,4.000000,4.000000,4.000000,4.000000,4.000000,2.000000,4.000000,4.000000,4.000000,4.000000,4.000000,4.000000,4.000000,4.000000,4.000000,4.000000,4.000000,4.000000,4.000000,4.000000,4.000000,4.000000,4.000000,4.000000,4.000000,4.000000,4.000000,4.000000,4.000000,4.000000,4.000000,83.333336
1614130036.940896,91.000000,0.000000,8.792976,-1.842861,16.570295,0.124776,13.364640,4.059859,14.730453,1.077469,-4.417637,-1.366871,-12.332471,5.344227,-5.983260,-1.100878,-14.199251,-5.456925,22.462997,2.546278,37.291828,4.690389,-3.420550,15.276648,12.514564,4.262480,-8.503632,-17.641054,5.525630,1.733791,-13.827665,-20.474709,-6.986183,-0.425713,0.000000,195.000000,4.000000,,,,0.000000,4.000000,4.000000,4.000000,4.000000,4.000000,4.000000,2.000000,4.000000,4.000000,4.000000,4.000000,4.000000,4.000000,4.000000,4.000000,4.000000,4.000000,4.000000,4.000000,4.000000,4.000000,4.000000,4.000000,4.000000,4.000000,4.000000,4.000000,4.000000,4.000000,4.000000,4.000000,4.000000,83.333336
1614130036.948745,92.000000,0.000000,8.784184,-1.841018,13.989622,-6.029195,11.299994,1.491696,9.074697,1.076392,-4.413220,-0.852684,-11.807319,5.851703,-5.464457,-2.125418,-13.672232,-2.374545,22.953354,-5.148576,23.408384,2.121596,-4.442770,13.210089,12.502049,3.745397,-7.982307,-19.161875,5.007284,-2.883327,-16.890760,-20.967054,-13.133042,-2.989390,0.000000,172.000000,4.000000,,,,0.000000,4.000000,4.000000,4.000000,4.000000,4.000000,4.000000,2.000000,4.000000,4.000000,4.000000,4.000000,4.000000,4.000000,4.000000,4.000000,4.000000,4.000000,4.000000,4.000000,4.000000,4.000000,4.000000,4.000000,4.000000,4.000000,4.000000,4.000000,4.000000,4.000000,4.000000,4.000000,4.000000,83.333336
1614130036.956494,93.000000,0.000000,8.775399,-1.839177,12.949991,-10.638550,7.186129,1.490205,16.757929,1.588136,-4.408807,-0.851831,-11.795511,5.845851,-5.458992,-1.097652,-12.120098,-13.654222,22.417582,-5.143427,24.410616,-1.470269,-4.438328,13.196878,13.002368,3.741652,-8.487145,-18.629892,5.002276,-3.393265,-20.976435,-19.920446,-18.760935,-1.447939,0.000000,202.000000,4.000000,,,,0.000000,4.000000,4.000000,4.000000,4.000000,4.000000,4.000000,2.000000,4.000000,4.000000,4.000000,4.000000,4.000000,4.000000,4.000000,4.000000,4.000000,4.000000,4.000000,4.000000,4.000000,4.000000,4.000000,4.000000,4.000000,4.000000,4.000000,4.000000,4.000000,4.000000,4.000000,4.000000,4.000000,83.333336
1614130036.964343,94.000000,0.000000,9.279445,-1.837338,13.449862,-8.576630,5.640481,5.078458,49.561684,1.586547,-3.891577,-0.850979,-11.783715,8.404108,-5.453533,-0.583734,-10.056696,-14.666208,22.907984,-2.574181,27.463129,2.120945,-2.382607,12.670861,12.989366,5.276372,-8.478659,-17.072802,6.022915,1.738334,-21.981098,-20.926167,-18.742174,-1.446491,0.000000,177.000000,4.000000,,,,0.000000,4.000000,4.000000,4.000000,4.000000,4.000000,4.000000,2.000000,4.000000,4.000000,4.000000,4.000000,4.000000,4.000000,4.000000,4.000000,4.000000,4.000000,4.000000,4.000000,4.000000,4.000000,4.000000,4.000000,4.000000,4.000000,4.000000,4.000000,4.000000,4.000000,4.000000,4.000000,4.000000,83.333336
1614130036.972092,95.000000,0.000000,11.321447,-1.322680,14.462052,-6.003951,6.660482,6.099020,82.332634,1.072140,-3.887686,-0.850128,-11.259111,10.446986,-5.448080,-0.583150,-9.533818,-6.959234,22.372255,-12.828017,3.333102,-1.983740,-8.021251,9.581267,12.463555,1.681352,-7.957359,-22.183933,6.529713,3.275057,-21.959118,-27.571907,-18.210611,-9.137352,0.000000,170.000000,4.000000,,,,0.000000,4.000000,4.000000,4.000000,4.000000,4.000000,4.000000,2.000000,4.000000,4.000000,4.000000,4.000000,4.000000,4.000000,4.000000,4.000000,4.000000,4.000000,4.000000,4.000000,4.000000,4.000000,4.000000,4.000000,4.000000,4.000000,4.000000,4.000000,4.000000,4.000000,4.000000,4.000000,4.000000,83.333336
1614130036.979941,96.000000,0.000000,13.361407,-1.834178,11.370667,-6.510767,7.166642,2.503178,77.634918,2.096709,-5.935080,-0.849278,-11.760673,8.385257,-4.929811,-1.095387,-6.960182,-4.388173,23.375525,-7.686984,-1.798437,-3.520218,-16.731178,9.571686,13.476733,-7.551099,-8.975043,-31.392519,4.471901,2.246141,-21.937159,-32.159721,-17.679581,-15.794882,8064.000000,0.000000,4.000000,,,,0.000000,4.000000,4.000000,4.000000,4.000000,4.000000,4.000000,2.000000,4.000000,4.000000,4.000000,4.000000,4.000000,4.000000,4.000000,4.000000,4.000000,4.000000,4.000000,4.000000,4.000000,4.000000,4.000000,4.000000,4.000000,4.000000,4.000000,4.000000,4.000000,4.000000,4.000000,4.000000,4.000000,83.333336
1614130036.987690,97.000000,0.000000,11.296764,-3.370806,4.179810,-6.504256,5.108193,-1.601889,45.249592,0.556151,-6.954786,-0.848429,-11.236092,10.428154,-6.463343,-0.068651,-5.927581,-9.511990,22.839329,5.654036,20.254644,1.611508,-18.252909,9.562115,12.950436,-11.646111,-13.581452,-33.925228,2.928967,1.218254,-21.402401,-30.589100,-18.174721,-17.317549,8064.000000,0.000000,4.000000,,,,0.000000,4.000000,4.000000,4.000000,4.000000,4.000000,4.000000,2.000000,4.000000,4.000000,4.000000,4.000000,4.000000,4.000000,4.000000,4.000000,4.000000,4.000000,4.000000,4.000000,4.000000,4.000000,4.000000,4.000000,4.000000,4.000000,4.000000,4.000000,4.000000,4.000000,4.000000,4.000000,4.000000,83.333336
1614130036.995539,98.000000,0.000000,6.670083,-5.418717,-0.952575,-9.574675,1.000521,-2.625928,27.768444,-5.085431,-8.486293,-0.334760,-10.712035,10.417726,-11.585084,-1.607044,-6.947294,-11.040939,17.175463,-3.069566,15.106184,-4.543950,-20.285936,1.860245,9.347742,-10.096004,-18.183256,-31.840021,1.900397,-1.859888,-23.432280,-30.558510,-23.284752,-19.864334,8064.000000,0.000000,4.000000,,,,0.000000,4.000000,4.000000,4.000000,4.000000,4.000000,4.000000,2.000000,4.000000,4.000000,4.000000,4.000000,4.000000,4.000000,4.000000,4.000000,4.000000,4.000000,4.000000,4.000000,4.000000,4.000000,4.000000,4.000000,4.000000,4.000000,4.000000,4.000000,4.000000,4.000000,4.000000,4.000000,4.000000,83.333336
1614130037.003288,99.000000,0.000000,4.612131,-5.413298,-1.464443,-13.667665,-1.564582,-4.161764,16.458624,-10.208550,-13.606011,-0.334425,-13.778246,-2.413205,-15.676064,-9.297745,-8.991630,-12.055539,12.542903,-19.989574,-1.831999,-15.308637,-24.368216,-5.833923,5.748651,-13.675652,-18.677893,-35.910744,-4.255349,-4.934951,-30.075516,-33.092052,-28.902493,-25.998316,8064.000000,0.000000,4.000000,,,,0.000000,4.000000,4.000000,4.000000,4.000000,4.000000,4.000000,2.000000,4.000000,4.000000,4.000000,4.000000,4.000000,4.000000,4.000000,4.000000,4.000000,4.000000,4.000000,4.000000,4.000000,4.000000,4.000000,4.000000,4.000000,4.000000,4.000000,4.000000,4.000000,4.000000,4.000000,4.000000,4.000000,83.333336
1614130037.011137,100.000000,0.000000,5.120339,-5.407885,-0.950158,-14.166818,-0.537376,-6.208884,21.057550,-10.198342,-15.130867,-0.846911,-18.892673,-8.564638,-16.686028,-15.442293,-14.110843,-23.325535,11.504719,-23.046507,8.939064,-13.242046,-20.754103,-5.828089,5.230081,-18.277361,-20.197676,-39.464577,-9.379299,-5.442836,-33.122364,-34.597424,-29.386412,-27.510778,8064.000000,0.000000,4.000000,,,,0.000000,4.000000,4.000000,4.000000,4.000000,4.000000,4.000000,2.000000,4.000000,4.000000,4.000000,4.000000,4.000000,4.000000,4.000000,4.000000,4.000000,4.000000,4.000000,4.000000,4.000000,4.000000,4.000000,4.000000,4.000000,4.000000,4.000000,4.000000,4.000000,4.000000,4.000000,4.000000,4.000000,83.333336
1614130037.018886,101.000000,0.000000,5.115219,-5.402477,-1.462029,-11.588548,-0.536839,-6.202675,39.498032,-9.162502,-7.423429,0.179577,-18.873779,1.700337,-15.643702,-13.375568,-11.532629,-26.379133,10.980394,-19.946537,24.827560,-5.023676,-14.579503,-0.181236,5.737671,-15.182160,-19.151838,-33.784088,-7.831458,-4.411753,-32.576420,-34.562824,-29.357025,-24.919165,8064.000000,0.000000,4.000000,,,,0.000000,4.000000,4.000000,4.000000,4.000000,4.000000,4.000000,2.000000,4.000000,4.000000,4.000000,4.000000,4.000000,4.000000,4.000000,4.000000,4.000000,4.000000,4.000000,4.000000,4.000000,4.000000,4.000000,4.000000,4.000000,4.000000,4.000000,4.000000,4.000000,4.000000,4.000000,4.000000,4.000000,83.333336
1614130037.026535,102.000000,0.000000,4.597283,-5.397074,-1.460567,-10.551318,-1.561943,-6.196473,38.945713,-10.691801,-4.339082,-1.359065,-18.342087,6.314021,-16.140879,-11.823731,-4.854430,-9.942497,11.995054,-13.772745,20.700169,-2.967370,-16.103386,3.408689,5.219113,-9.013132,-14.517302,-28.109278,-4.746704,-2.356059,-32.543842,-33.502621,-29.327667,-23.868605,8064.000000,0.000000,4.000000,,,,0.000000,4.000000,4.000000,4.000000,4.000000,4.000000,4.000000,2.000000,4.000000,4.000000,4.000000,4.000000,4.000000,4.000000,4.000000,4.000000,4.000000,4.000000,4.000000,4.000000,4.000000,4.000000,4.000000,4.000000,4.000000,4.000000,4.000000,4.000000,4.000000,4.000000,4.000000,4.000000,4.000000,83.333336
1614130037.034284,103.000000,0.000000,5.105506,-5.391677,-1.459106,-10.027946,-1.047561,-6.190276,46.086254,-12.732391,-11.001410,-8.537192,-22.426308,-3.435883,-19.714481,-14.888831,-10.490602,-10.445374,10.444598,-19.912819,2.730751,-12.195172,-24.292410,-2.235745,5.726715,-5.414375,-20.656630,-29.619631,-5.254777,-1.328062,-32.511299,-36.033222,-28.785519,-23.844736,8064.000000,0.000000,4.000000,,,,0.000000,4.000000,4.000000,4.000000,4.000000,4.000000,4.000000,2.000000,4.000000,4.000000,4.000000,4.000000,4.000000,4.000000,4.000000,4.000000,4.000000,4.000000,4.000000,4.000000,4.000000,4.000000,4.000000,4.000000,4.000000,4.000000,4.000000,4.000000,4.000000,4.000000,4.000000,4.000000,4.000000,83.333336
1614130037.041933,104.000000,0.000000,5.100401,-5.386286,-0.944826,-10.017919,-0.533693,-6.184086,71.681190,-13.745300,-16.118614,-15.195322,-25.993626,-6.509370,-23.284510,-18.463686,-20.223700,-29.409288,-0.335077,-37.841625,-18.810442,-28.080414,-38.114273,-8.900176,4.695347,-8.485884,-32.943665,-32.154114,-5.249523,-1.326733,-32.991608,-42.151035,-29.782375,-23.820892,8064.000000,0.000000,4.000000,,,,0.000000,4.000000,4.000000,4.000000,4.000000,4.000000,4.000000,2.000000,4.000000,4.000000,4.000000,4.000000,4.000000,4.000000,4.000000,4.000000,4.000000,4.000000,4.000000,4.000000,4.000000,4.000000,4.000000,4.000000,4.000000,4.000000,4.000000,4.000000,4.000000,4.000000,4.000000,4.000000,4.000000,83.333336
1614130037.049682,105.000000,0.000000,5.095300,-5.380899,-0.943882,-10.007900,-1.045979,-6.177902,48.532589,-13.218735,-15.076854,-16.205769,-26.993273,-3.938758,-23.261225,-21.009325,-21.741938,-31.943981,-7.514229,-31.649937,-13.150605,-23.949768,-38.588978,-4.275891,1.613729,-18.733809,-28.295338,-33.147602,-5.244273,-1.325407,-31.932976,-46.724270,-27.701311,-23.284250,8064.000000,0.000000,4.000000,,,,0.000000,4.000000,4.000000,4.000000,4.000000,4.000000,4.000000,2.000000,4.000000,4.000000,4.000000,4.000000,4.000000,4.000000,4.000000,4.000000,4.000000,4.000000,4.000000,4.000000,4.000000,4.000000,4.000000,4.000000,4.000000,4.000000,4.000000,4.000000,4.000000,4.000000,4.000000,4.000000,4.000000,83.333336
1614130037.057332,106.000000,0.000000,5.090205,-5.375518,1.621165,-7.946611,-0.532113,-3.094801,16.176365,-13.205516,-14.548957,-13.112639,-24.914997,-5.473280,-20.673862,-16.885752,-21.720196,-25.758192,2.749695,-7.002902,19.683058,-3.412998,-16.499107,4.959154,2.637756,-23.843279,-13.395247,-30.037529,-5.239029,-1.836902,-29.849760,-45.139084,-19.981302,-19.158401,8064.000000,0.000000,4.000000,,,,0.000000,4.000000,4.000000,4.000000,4.000000,4.000000,4.000000,2.000000,4.000000,4.000000,4.000000,4.000000,4.000000,4.000000,4.000000,4.000000,4.000000,4.000000,4.000000,4.000000,4.000000,4.000000,4.000000,4.000000,4.000000,4.000000,4.000000,4.000000,4.000000,4.000000,4.000000,4.000000,4.000000,83.333336
1614130037.065081,107.000000,0.000000,5.085115,-5.882964,6.747749,-4.348920,4.596624,2.549320,33.596085,-13.192310,-13.508766,-7.971321,-20.787518,-2.903705,-15.012162,-5.073993,-16.057451,-21.117048,13.516176,-2.893334,30.432606,4.795543,-2.636454,7.518297,5.199221,-14.075847,-9.792109,-24.879288,-4.720969,-1.322245,-28.281450,-40.478558,-13.807474,-11.446936,8064.000000,0.000000,4.000000,,,,0.000000,4.000000,4.000000,4.000000,4.000000,4.000000,4.000000,2.000000,4.000000,4.000000,4.000000,4.000000,4.000000,4.000000,4.000000,4.000000,4.000000,4.000000,4.000000,4.000000,4.000000,4.000000,4.000000,4.000000,4.000000,4.000000,4.000000,4.000000,4.000000,4.000000,4.000000,4.000000,4.000000,83.333336
1614130037.072730,108.000000,0.000000,5.080030,-5.364260,10.330745,-2.293289,7.668951,6.136514,66.383003,-13.179118,-10.931155,-4.373606,-17.689808,1.201763,-11.920227,1.084927,-4.759342,-5.711317,10.938558,-9.557108,13.479096,1.713825,-11.351767,6.485138,6.219663,-5.343822,-12.346419,-28.956972,-6.254710,-0.808102,-28.765989,-37.873978,-13.280846,-8.358565,8064.000000,0.000000,4.000000,,,,0.000000,4.000000,4.000000,4.000000,4.000000,4.000000,4.000000,2.000000,4.000000,4.000000,4.000000,4.000000,4.000000,4.000000,4.000000,4.000000,4.000000,4.000000,4.000000,4.000000,4.000000,4.000000,4.000000,4.000000,4.000000,4.000000,4.000000,4.000000,4.000000,4.000000,4.000000,4.000000,4.000000,83.333336
1614130037.080479,109.000000,0.000000,5.074950,-5.358896,10.320414,-2.803817,5.610000,5.104736,56.573029,-13.165939,-11.433044,-7.958976,-19.210579,-3.414823,-16.523691,-5.582825,-10.395608,-5.192785,5.286593,-9.547550,7.824591,-2.390453,-17.494261,2.888909,6.213443,-9.953863,-13.359714,-39.184425,-8.299737,-4.397037,-28.737223,-37.323284,-14.806026,-8.350207,8064.000000,0.000000,4.000000,,,,0.000000,4.000000,4.000000,4.000000,4.000000,4.000000,4.000000,2.000000,4.000000,4.000000,4.000000,4.000000,4.000000,4.000000,4.000000,4.000000,4.000000,4.000000,4.000000,4.000000,4.000000,4.000000,4.000000,4.000000,4.000000,4.000000,4.000000,4.000000,4.000000,4.000000,4.000000,4.000000,4.000000,83.333336
1614130037.088128,110.000000,0.000000,5.069875,-5.866357,9.797273,-2.801013,3.553108,2.535529,46.260048,-12.639953,-13.985714,-14.104863,-21.755472,-9.565254,-22.661015,-12.243909,-23.718546,-22.110668,3.742845,-13.127747,3.714203,-15.208576,-18.502407,-4.806287,4.668768,-14.046473,-14.371995,-39.145241,-9.317079,-4.392640,-28.195665,-34.209038,-14.791221,-8.341857,8064.000000,0.000000,4.000000,,,,0.000000,4.000000,4.000000,4.000000,4.000000,4.000000,4.000000,2.000000,4.000000,4.000000,4.000000,4.000000,4.000000,4.000000,4.000000,4.000000,4.000000,4.000000,4.000000,4.000000,4.000000,4.000000,4.000000,4.000000,4.000000,4.000000,4.000000,4.000000,4.000000,4.000000,4.000000,4.000000,4.000000,83.333336
1614130037.095877,111.000000,0.000000,5.064805,-4.834850,9.787476,-2.798212,2.011093,1.507352,37.495838,-12.627313,-14.997370,-15.116400,-22.246536,-9.042869,-23.151173,-10.693203,-18.053801,-17.985994,2.200641,-13.114619,1.146386,-22.372854,-23.612110,-8.391225,3.125638,-15.570888,-14.870443,-33.465069,-8.794941,1.252778,-29.193110,-30.072264,-10.161045,-8.333515,8064.000000,0.000000,4.000000,,,,0.000000,4.000000,4.000000,4.000000,4.000000,4.000000,4.000000,2.000000,4.000000,4.000000,4.000000,4.000000,4.000000,4.000000,4.000000,4.000000,4.000000,4.000000,4.000000,4.000000,4.000000,4.000000,4.000000,4.000000,4.000000,4.000000,4.000000,4.000000,4.000000,4.000000,4.000000,4.000000,4.000000,83.333336
1614130037.103526,112.000000,0.000000,5.572561,-0.727451,9.777688,-0.744132,-0.042200,1.505845,14.381418,-12.614685,-14.982372,-14.588463,-21.198648,-7.495364,-21.589560,-9.656869,-8.292158,-7.711598,2.198440,-9.511761,20.119598,-15.170995,-21.024395,-5.305910,2.609691,-20.170702,-15.368394,-30.867502,-8.786146,2.277166,-28.138275,-27.478088,-3.997038,-8.838002,8064.000000,0.000000,4.000000,,,,0.000000,4.000000,4.000000,4.000000,4.000000,4.000000,4.000000,2.000000,4.000000,4.000000,4.000000,4.000000,4.000000,4.000000,4.000000,4.000000,4.000000,4.000000,4.000000,4.000000,4.000000,4.000000,4.000000,4.000000,4.000000,4.000000,4.000000,4.000000,4.000000,4.000000,4.000000,4.000000,4.000000,83.333336
1614130037.111275,113.000000,0.000000,4.028526,2.350199,9.255090,1.307895,-1.067799,1.504339,22.059345,-12.602071,-14.967389,-15.599515,-22.203091,-8.513510,-23.106432,-14.775417,-11.360789,-23.601322,1.683421,-18.220198,26.766146,-13.617362,-18.439268,-4.787784,1.581441,-18.612070,-14.840205,-28.272532,-8.777360,-1.314854,-22.981934,-26.424971,-2.454579,-9.341985,8064.000000,0.000000,4.000000,,,,0.000000,4.000000,4.000000,4.000000,4.000000,4.000000,4.000000,2.000000,4.000000,4.000000,4.000000,4.000000,4.000000,4.000000,4.000000,4.000000,4.000000,4.000000,4.000000,4.000000,4.000000,4.000000,4.000000,4.000000,4.000000,4.000000,4.000000,4.000000,4.000000,4.000000,4.000000,4.000000,4.000000,83.333336
1614130037.118925,114.000000,0.000000,1.973216,1.835029,8.733014,0.793766,-3.118013,1.502835,46.139851,-13.615109,-14.952422,-15.583916,-26.283453,-9.017817,-24.108967,-18.350386,-13.400710,-30.757208,-0.369544,-25.381464,4.175277,-18.219130,-27.651598,-5.295816,-1.497064,-14.490893,-14.312544,-25.167337,-8.768582,0.224922,-19.882029,-26.398544,-3.477765,-9.845463,8064.000000,0.000000,4.000000,,,,0.000000,4.000000,4.000000,4.000000,4.000000,4.000000,4.000000,2.000000,4.000000,4.000000,4.000000,4.000000,4.000000,4.000000,4.000000,4.000000,4.000000,4.000000,4.000000,4.000000,4.000000,4.000000,4.000000,4.000000,4.000000,4.000000,4.000000,4.000000,4.000000,4.000000,4.000000,4.000000,4.000000,83.333336
1614130037.126674,115.000000,0.000000,1.458422,1.833194,9.237102,0.792972,-4.653357,1.501332,42.503967,-15.652777,-14.937469,-15.568332,-28.308451,-8.495978,-21.520756,-17.306395,-15.438592,-25.085424,-0.369175,-30.484289,-8.136591,-21.790653,-34.803432,-5.290521,-1.495567,-13.963582,-18.913616,-23.603708,-8.759813,3.301620,-22.426249,-26.884968,-2.961467,-9.322797,8064.000000,0.000000,4.000000,,,,0.000000,4.000000,4.000000,4.000000,4.000000,4.000000,4.000000,2.000000,4.000000,4.000000,4.000000,4.000000,4.000000,4.000000,4.000000,4.000000,4.000000,4.000000,4.000000,4.000000,4.000000,4.000000,4.000000,4.000000,4.000000,4.000000,4.000000,4.000000,4.000000,4.000000,4.000000,4.000000,4.000000,83.333336
1614130037.134323,116.000000,0.000000,0.431323,2.344181,9.740685,0.792179,-4.648703,1.499831,50.666592,-17.688406,-14.922532,-17.604046,-29.305784,-7.974662,-24.576159,-26.519857,-29.269306,-42.496239,-7.035472,-51.992264,-15.307941,-32.025272,-39.896835,-15.541640,-3.545353,-12.411157,-25.561369,-25.118565,-8.751054,0.734216,-24.967924,-26.345261,-2.958506,-9.313475,8064.000000,0.000000,4.000000,,,,0.000000,4.000000,4.000000,4.000000,4.000000,4.000000,4.000000,2.000000,4.000000,4.000000,4.000000,4.000000,4.000000,4.000000,4.000000,4.000000,4.000000,4.000000,4.000000,4.000000,4.000000,4.000000,4.000000,4.000000,4.000000,4.000000,4.000000,4.000000,4.000000,4.000000,4.000000,4.000000,4.000000,83.333336
1614130037.142072,117.000000,0.000000,-1.620391,1.829016,8.192483,0.791387,-4.131234,1.498331,69.590286,-21.260462,-14.907610,-19.124903,-32.866222,-9.505149,-37.884914,-40.339489,-40.522087,-54.248611,-22.925873,-55.017197,-25.036222,-41.224018,-51.138988,-30.397894,-13.798218,-17.014130,-27.074270,-31.760113,-8.742303,-1.830621,-24.430136,-26.831738,-3.468368,-9.304161,8064.000000,0.000000,4.000000,,,,0.000000,4.000000,4.000000,4.000000,4.000000,4.000000,4.000000,2.000000,4.000000,4.000000,4.000000,4.000000,4.000000,4.000000,4.000000,4.000000,4.000000,4.000000,4.000000,4.000000,4.000000,4.000000,4.000000,4.000000,4.000000,4.000000,4.000000,4.000000,4.000000,4.000000,4.000000,4.000000,4.000000,83.333336
1614130037.149721,118.000000,0.000000,-2.644411,1.827187,11.261214,1.303416,-4.127103,1.496832,47.982231,-23.290482,-15.405522,-15.516034,-35.397457,-12.059747,-45.026516,-32.606842,-31.763618,-29.578979,-28.031153,-23.167307,-8.600930,-36.054588,-49.036568,-29.341854,-20.963907,-31.356091,-25.508734,-35.318096,-8.733561,-1.315970,-25.431347,-26.804905,-2.952079,-2.628190,8064.000000,0.000000,4.000000,,,,0.000000,4.000000,4.000000,4.000000,4.000000,4.000000,4.000000,2.000000,4.000000,4.000000,4.000000,4.000000,4.000000,4.000000,4.000000,4.000000,4.000000,4.000000,4.000000,4.000000,4.000000,4.000000,4.000000,4.000000,4.000000,4.000000,4.000000,4.000000,4.000000,4.000000,4.000000,4.000000,4.000000,83.333336
1614130037.157570,119.000000,0.000000,-2.128946,1.825360,24.070465,4.891857,-1.046053,1.495336,22.293222,-19.677448,-13.338835,-10.372313,-30.233854,-12.047687,-37.802002,-13.599878,-16.347239,-7.498118,-15.695429,-9.810806,11.407670,-27.813406,-30.525993,-16.492001,-16.840380,-34.914478,-25.996046,-27.590471,-8.724827,-1.314654,-23.867455,-24.726818,-2.949127,8.656489,8064.000000,0.000000,4.000000,,,,0.000000,4.000000,4.000000,4.000000,4.000000,4.000000,4.000000,2.000000,4.000000,4.000000,4.000000,4.000000,4.000000,4.000000,4.000000,4.000000,4.000000,4.000000,4.000000,4.000000,4.000000,4.000000,4.000000,4.000000,4.000000,4.000000,4.000000,4.000000,4.000000,4.000000,4.000000,4.000000,4.000000,83.333336
1614130037.165319,120.000000,0.000000,-2.126817,1.823535,32.764343,7.451067,2.544737,1.493840,19.706827,-16.068027,-11.274214,-5.746556,-24.562595,-8.958716,-30.584715,-9.483714,-12.228328,-6.464979,-8.500246,-20.057405,6.268058,-24.708668,-22.803160,-10.834482,-9.131231,-24.623154,-26.482870,-20.383394,-8.716103,-1.313339,-19.228203,-23.163630,-3.458998,14.288858,8064.000000,0.000000,4.000000,,,,0.000000,4.000000,4.000000,4.000000,4.000000,4.000000,4.000000,2.000000,4.000000,4.000000,4.000000,4.000000,4.000000,4.000000,4.000000,4.000000,4.000000,4.000000,4.000000,4.000000,4.000000,4.000000,4.000000,4.000000,4.000000,4.000000,4.000000,4.000000,4.000000,4.000000,4.000000,4.000000,4.000000,83.333336
1614130037.173168,121.000000,0.000000,-2.124691,1.821711,28.629015,7.956437,4.080654,1.492346,5.840967,-15.539139,-11.775761,-2.151066,-24.538033,-7.924116,-30.041309,-11.012691,-14.267382,-10.561078,-10.030208,-11.319400,8.825892,-18.017294,-24.318819,-11.849289,-5.532356,-19.983145,-25.943567,-20.875832,-8.707386,-1.312026,-16.644871,-22.627645,-2.942719,13.761749,8064.000000,0.000000,4.000000,,,,0.000000,4.000000,4.000000,4.000000,4.000000,4.000000,4.000000,2.000000,4.000000,4.000000,4.000000,4.000000,4.000000,4.000000,4.000000,4.000000,4.000000,4.000000,4.000000,4.000000,4.000000,4.000000,4.000000,4.000000,4.000000,4.000000,4.000000,4.000000,4.000000,4.000000,4.000000,4.000000,4.000000,83.333336
1614130037.180917,122.000000,0.000000,-2.122566,1.819890,26.036283,8.974121,2.538112,1.490854,19.681280,-17.574883,-10.225523,-6.251479,-28.103239,-8.429012,-30.011269,-15.104243,-16.304396,-22.345388,-10.020177,-9.769619,10.355528,-13.896712,-21.730398,-8.760517,-5.014003,-18.424702,-25.917624,-20.854956,-8.698679,-1.310714,-17.141047,-23.117838,-3.452596,12.209526,8064.000000,0.000000,4.000000,,,,0.000000,4.000000,4.000000,4.000000,4.000000,4.000000,4.000000,2.000000,4.000000,4.000000,4.000000,4.000000,4.000000,4.000000,4.000000,4.000000,4.000000,4.000000,4.000000,4.000000,4.000000,4.000000,4.000000,4.000000,4.000000,4.000000,4.000000,4.000000,4.000000,4.000000,4.000000,4.000000,4.000000,83.333336
1614130037.188766,123.000000,0.000000,-2.120443,1.818070,19.856401,5.375403,-2.592632,2.002184,52.482113,-24.223974,-11.240939,-17.527279,-32.177700,-8.420584,-29.468435,-27.396832,-18.852194,-32.066635,-8.984516,-28.734209,-10.680469,-16.446918,-23.247129,-6.700474,-5.008989,-13.790892,-26.917347,-23.911022,-8.689981,-1.309403,-17.123905,-24.120361,-8.064528,5.017829,8064.000000,0.000000,4.000000,,,,0.000000,4.000000,4.000000,4.000000,4.000000,4.000000,4.000000,2.000000,4.000000,4.000000,4.000000,4.000000,4.000000,4.000000,4.000000,4.000000,4.000000,4.000000,4.000000,4.000000,4.000000,4.000000,4.000000,4.000000,4.000000,4.000000,4.000000,4.000000,4.000000,4.000000,4.000000,4.000000,4.000000,83.333336
1614130037.196515,124.000000,0.000000,-2.118323,0.790611,3.939109,-4.886382,-7.205424,-0.051100,58.583477,-30.866417,-18.922005,-25.714880,-32.145523,-7.899343,-28.926147,-32.497639,-18.320522,-24.342258,-8.462711,-26.654192,-7.592865,-15.917650,-27.839266,-7.719415,-4.491160,-16.341204,-25.351967,-30.040958,-8.681290,-1.308094,-18.132423,-25.634703,-14.210310,-6.782060,8064.000000,0.000000,4.000000,,,,0.000000,4.000000,4.000000,4.000000,4.000000,4.000000,4.000000,2.000000,4.000000,4.000000,4.000000,4.000000,4.000000,4.000000,4.000000,4.000000,4.000000,4.000000,4.000000,4.000000,4.000000,4.000000,4.000000,4.000000,4.000000,4.000000,4.000000,4.000000,4.000000,4.000000,4.000000,4.000000,4.000000,83.333336
1614130037.204364,125.000000,0.000000,-1.603384,-3.312744,-1.193035,-11.035342,-8.736680,-2.615152,26.217199,-31.348370,-19.415903,-26.201986,-29.036453,-6.865802,-26.845940,-27.336937,-14.712458,-15.087148,-6.402966,-9.191641,13.953189,-10.773527,-28.324247,-7.711695,-4.486669,-20.940247,-24.813795,-32.062199,-8.159788,-1.306785,-20.678392,-28.173170,-16.247381,-10.365022,8064.000000,0.000000,4.000000,,,,0.000000,4.000000,4.000000,4.000000,4.000000,4.000000,4.000000,2.000000,4.000000,4.000000,4.000000,4.000000,4.000000,4.000000,4.000000,4.000000,4.000000,4.000000,4.000000,4.000000,4.000000,4.000000,4.000000,4.000000,4.000000,4.000000,4.000000,4.000000,4.000000,4.000000,4.000000,4.000000,4.000000,83.333336
1614130037.212113,126.000000,0.000000,-2.114601,-5.873534,9.577389,-6.921742,-6.676661,-1.586896,20.037136,-28.240099,-8.114437,-20.534758,-29.520237,-7.371757,-25.793451,-25.771139,-11.620822,-15.072061,-5.883743,-13.285013,0.605903,-10.762754,-28.295923,-7.703984,-4.995002,-19.893665,-27.353083,-33.055779,-8.151628,-1.305479,-21.170536,-25.580894,-12.641391,-3.175170,8064.000000,0.000000,4.000000,,,,0.000000,4.000000,4.000000,4.000000,4.000000,4.000000,4.000000,2.000000,4.000000,4.000000,4.000000,4.000000,4.000000,4.000000,4.000000,4.000000,4.000000,4.000000,4.000000,4.000000,4.000000,4.000000,4.000000,4.000000,4.000000,4.000000,4.000000,4.000000,4.000000,4.000000,4.000000,4.000000,4.000000,83.333336
1614130037.219962,127.000000,0.000000,-2.112487,-1.252276,14.183196,-2.812257,-0.516138,0.978794,13.350432,-27.186218,-2.465297,-10.257813,-26.926615,-8.902846,-24.742018,-19.591520,-12.122022,-14.544168,-4.852218,-21.476856,-10.676755,-15.367376,-26.729166,-7.696280,-4.990007,-21.412233,-21.171885,-30.971441,-8.656298,-0.791353,-21.149364,-17.863007,-4.936442,6.571595,8064.000000,0.000000,4.000000,,,,0.000000,4.000000,4.000000,4.000000,4.000000,4.000000,4.000000,2.000000,4.000000,4.000000,4.000000,4.000000,4.000000,4.000000,4.000000,4.000000,4.000000,4.000000,4.000000,4.000000,4.000000,4.000000,4.000000,4.000000,4.000000,4.000000,4.000000,4.000000,4.000000,4.000000,4.000000,4.000000,4.000000,83.333336
1614130037.227711,0.000000,0.000000,-1.597553,5.415643,12.630551,-3.322265,4.612583,2.003456,-7.688559,-26.646212,-2.975652,-3.580889,-21.771482,-6.329841,-25.742916,-10.341160,-19.289387,-17.606546,-4.847366,-19.404097,7.795461,-15.352009,-22.087051,-7.175763,-4.472197,-20.365179,-6.278918,-19.658417,-8.134821,-1.303382,-21.128216,-11.691298,2.247982,13.231690,0.000000,197.000000,4.000000,,,,0.000000,4.000000,4.000000,4.000000,4.000000,4.000000,4.000000,2.000000,4.000000,4.000000,4.000000,4.000000,4.000000,4.000000,4.000000,4.000000,4.000000,4.000000,4.000000,4.000000,4.000000,4.000000,4.000000,4.000000,4.000000,4.000000,4.000000,4.000000,4.000000,4.000000,4.000000,4.000000,4.000000,83.333336
1614130037.235560,1.000000,0.000000,-3.647238,6.948689,13.130741,-3.318943,1.531047,0.975811,0.011437,-26.619564,-5.023958,-7.679872,-27.390736,-8.887614,-34.947945,-17.510305,-29.526508,-25.281248,-12.022005,-18.871872,10.864589,-13.285375,-23.603426,-10.245510,-6.519007,-9.575584,-5.246998,-12.972093,-8.126686,-2.840540,-21.107086,-9.628324,4.297016,13.218459,0.000000,182.000000,4.000000,,,,0.000000,4.000000,4.000000,4.000000,4.000000,4.000000,4.000000,2.000000,4.000000,4.000000,4.000000,4.000000,4.000000,4.000000,4.000000,4.000000,4.000000,4.000000,4.000000,4.000000,4.000000,4.000000,4.000000,4.000000,4.000000,4.000000,4.000000,4.000000,4.000000,4.000000,4.000000,4.000000,4.000000,83.333336
1614130037.243310,2.000000,0.000000,-8.258975,2.839176,9.527866,-2.289983,-6.675612,-1.589267,17.960144,-30.695509,-12.711242,-16.390141,-40.183857,-25.288982,-46.195045,-31.338949,-32.061085,-25.255966,-22.779215,-18.853001,1.622954,-20.451576,-28.195208,-16.389111,-8.563770,-9.053188,-17.549442,-19.625788,-11.708302,-4.376161,-21.085979,-13.721260,4.292719,9.102676,0.000000,120.000000,4.000000,,,,0.000000,4.000000,4.000000,4.000000,4.000000,4.000000,4.000000,2.000000,4.000000,4.000000,4.000000,4.000000,4.000000,4.000000,4.000000,4.000000,4.000000,4.000000,4.000000,4.000000,4.000000,4.000000,4.000000,4.000000,4.000000,4.000000,4.000000,4.000000,4.000000,4.000000,4.000000,4.000000,4.000000,83.333336
1614130037.251159,3.000000,0.000000,-9.789178,-0.753406,5.415775,-2.287693,-10.771501,-4.664601,28.198593,-34.254559,-21.416479,-23.040417,-44.246239,-38.597027,-48.712955,-33.871712,-30.490561,-22.153788,-24.807716,-20.885429,-1.455592,-31.200356,-28.167013,-19.962465,-9.068027,-22.890289,-23.172918,-25.247187,-15.799158,-6.423067,-21.064894,-23.963949,4.801247,6.016650,0.000000,166.000000,4.000000,,,,0.000000,4.000000,4.000000,4.000000,4.000000,4.000000,4.000000,2.000000,4.000000,4.000000,4.000000,4.000000,4.000000,4.000000,4.000000,4.000000,4.000000,4.000000,4.000000,4.000000,4.000000,4.000000,4.000000,4.000000,4.000000,4.000000,4.000000,4.000000,4.000000,4.000000,4.000000,4.000000,4.000000,83.333336
1614130037.258908,4.000000,0.000000,-9.266568,-2.291115,6.948821,-2.798225,-12.299191,-5.685577,51.247318,-34.220303,-23.446344,-26.607121,-43.176353,-34.455868,-48.151421,-32.299381,-30.972891,-28.798300,-24.270088,-32.146595,-17.351572,-34.758900,-28.138845,-19.429682,-9.058959,-30.046885,-21.098465,-24.196299,-16.296181,-7.955105,-21.043829,-31.119473,4.283625,5.497813,0.000000,184.000000,4.000000,,,,0.000000,4.000000,4.000000,4.000000,4.000000,4.000000,4.000000,2.000000,4.000000,4.000000,4.000000,4.000000,4.000000,4.000000,4.000000,4.000000,4.000000,4.000000,4.000000,4.000000,4.000000,4.000000,4.000000,4.000000,4.000000,4.000000,4.000000,4.000000,4.000000,4.000000,4.000000,4.000000,4.000000,83.333336
1614130037.266557,5.000000,0.000000,-9.257301,-1.776003,9.505974,-2.795427,-11.774071,-5.679892,55.298634,-33.673264,-21.884438,-23.503590,-43.645996,-29.293205,-48.103268,-33.292721,-31.454739,-37.487450,-23.732998,-39.293938,-19.385502,-34.211319,-27.597885,-16.846149,-8.024259,-27.965557,-22.103006,-24.172102,-15.767063,-8.972792,-21.022785,-28.524250,3.766521,5.492315,0.000000,185.000000,4.000000,,,,0.000000,4.000000,4.000000,4.000000,4.000000,4.000000,4.000000,2.000000,4.000000,4.000000,4.000000,4.000000,4.000000,4.000000,4.000000,4.000000,4.000000,4.000000,4.000000,4.000000,4.000000,4.000000,4.000000,4.000000,4.000000,4.000000,4.000000,4.000000,4.000000,4.000000,4.000000,4.000000,4.000000,83.333336
1614130037.274306,6.000000,0.000000,-9.248044,-1.774227,9.496469,-2.792632,-10.736655,-6.187032,22.935644,-34.152409,-21.349731,-20.915983,-43.089531,-30.802374,-45.491062,-33.259430,-30.910463,-37.449963,-16.529778,-33.100796,3.710806,-30.074543,-21.416441,-12.213920,-2.888029,-26.911949,-22.593725,-24.147930,-15.751296,-8.450998,-21.001762,-25.931623,4.275575,5.486823,0.000000,193.000000,4.000000,,,,0.000000,4.000000,4.000000,4.000000,4.000000,4.000000,4.000000,2.000000,4.000000,4.000000,4.000000,4.000000,4.000000,4.000000,4.000000,4.000000,4.000000,4.000000,4.000000,4.000000,4.000000,4.000000,4.000000,4.000000,4.000000,4.000000,4.000000,4.000000,4.000000,4.000000,4.000000,4.000000,4.000000,83.333336
1614130037.281955,7.000000,0.000000,-9.238796,-2.285273,8.974152,-3.815480,-13.802842,-6.180845,-8.369343,-34.118256,-26.456587,-31.151478,-43.559261,-26.669006,-43.907112,-33.226170,-30.366732,-32.284309,-11.385043,-26.913849,4.219916,-21.326521,-18.830923,-10.150423,2.243064,-23.808115,-22.058310,-24.636602,-15.735545,-8.442547,-20.467939,-26.931332,2.732838,3.942875,0.000000,168.000000,4.000000,,,,0.000000,4.000000,4.000000,4.000000,4.000000,4.000000,4.000000,2.000000,4.000000,4.000000,4.000000,4.000000,4.000000,4.000000,4.000000,4.000000,4.000000,4.000000,4.000000,4.000000,4.000000,4.000000,4.000000,4.000000,4.000000,4.000000,4.000000,4.000000,4.000000,4.000000,4.000000,4.000000,4.000000,83.333336
1614130037.289704,8.000000,0.000000,-9.229558,-1.770167,7.939536,-7.401408,-15.840322,-5.661844,-24.258410,-34.084137,-29.507053,-36.761353,-43.515701,-21.514133,-42.837563,-32.680122,-30.849186,-28.149460,-12.912120,-27.399755,-8.604816,-17.715450,-24.453117,-12.191555,2.240821,-19.681742,-22.549072,-27.688889,-15.719810,-8.434105,-20.960293,-26.904402,-1.372459,1.887650,0.000000,175.000000,4.000000,,,,0.000000,4.000000,4.000000,4.000000,4.000000,4.000000,4.000000,2.000000,4.000000,4.000000,4.000000,4.000000,4.000000,4.000000,4.000000,4.000000,4.000000,4.000000,4.000000,4.000000,4.000000,4.000000,4.000000,4.000000,4.000000,4.000000,4.000000,4.000000,4.000000,4.000000,4.000000,4.000000,4.000000,83.333336
1614130037.297353,9.000000,0.000000,-9.220328,-1.768397,10.495699,-7.394007,-6.080891,-6.169003,-21.157228,-34.050053,-21.272419,-21.852797,-35.779877,-22.005440,-37.153698,-29.057699,-30.305517,-26.582850,-11.873567,-25.321074,4.737122,-18.210556,-24.428665,-11.666543,3.777042,-20.174881,-20.988062,-25.609919,-15.704089,-8.425671,-20.939333,-26.877497,-4.448010,1.372942,0.000000,192.000000,4.000000,,,,0.000000,4.000000,4.000000,4.000000,4.000000,4.000000,4.000000,2.000000,4.000000,4.000000,4.000000,4.000000,4.000000,4.000000,4.000000,4.000000,4.000000,4.000000,4.000000,4.000000,4.000000,4.000000,4.000000,4.000000,4.000000,4.000000,4.000000,4.000000,4.000000,4.000000,4.000000,4.000000,4.000000,83.333336
1614130037.305102,10.000000,0.000000,-8.698287,-1.766629,15.613408,-3.284049,6.745703,-5.650013,11.684443,-34.016003,-13.046019,-9.010430,-31.641533,-21.470613,-36.603725,-24.926077,-30.275211,-25.530624,-12.374514,-22.731651,11.911872,-17.679525,-19.276031,-11.142056,1.721982,-20.667526,-16.351688,-21.481745,-15.688385,-8.417245,-20.405573,-25.824978,-3.417921,1.884389,0.000000,187.000000,4.000000,,,,0.000000,4.000000,4.000000,4.000000,4.000000,4.000000,4.000000,2.000000,4.000000,4.000000,4.000000,4.000000,4.000000,4.000000,4.000000,4.000000,4.000000,4.000000,4.000000,4.000000,4.000000,4.000000,4.000000,4.000000,4.000000,4.000000,4.000000,4.000000,4.000000,4.000000,4.000000,4.000000,4.000000,83.333336
1614130037.312752,11.000000,0.000000,-10.228050,-1.764862,15.084974,-0.203842,6.738957,-3.593081,44.493271,-33.981987,-14.058613,-15.155267,-39.302200,-22.474783,-47.849171,-24.901152,-31.270576,-26.530735,-23.644190,-27.324303,-7.587220,-27.918255,-27.974703,-21.387323,-9.048970,-19.621218,-13.771235,-23.511545,-15.672697,-8.408828,-21.923628,-23.235050,-3.414503,1.882505,0.000000,168.000000,4.000000,,,,0.000000,4.000000,4.000000,4.000000,4.000000,4.000000,4.000000,2.000000,4.000000,4.000000,4.000000,4.000000,4.000000,4.000000,4.000000,4.000000,4.000000,4.000000,4.000000,4.000000,4.000000,4.000000,4.000000,4.000000,4.000000,4.000000,4.000000,4.000000,4.000000,4.000000,4.000000,4.000000,4.000000,83.333336
1614130037.320501,12.000000,0.000000,-12.781925,-1.763097,13.531428,3.898926,3.142474,-1.538206,31.628263,-33.435184,-15.070196,-20.268316,-42.852642,-27.580513,-54.467991,-26.414711,-33.803410,-25.478563,-32.338493,-30.886723,-18.861685,-44.300594,-41.792881,-37.263374,-19.296331,-21.652880,-14.270284,-28.616238,-15.657024,-8.400418,-24.465807,-22.186174,-4.436729,1.880622,0.000000,195.000000,4.000000,,,,0.000000,4.000000,4.000000,4.000000,4.000000,4.000000,4.000000,2.000000,4.000000,4.000000,4.000000,4.000000,4.000000,4.000000,4.000000,4.000000,4.000000,4.000000,4.000000,4.000000,4.000000,4.000000,4.000000,4.000000,4.000000,4.000000,4.000000,4.000000,4.000000,4.000000,4.000000,4.000000,4.000000,83.333336
1614130037.328150,13.000000,0.000000,-13.794784,-1.761334,18.646101,10.048874,6.216255,-2.049488,16.212021,-30.837648,-11.978203,-13.581381,-35.630302,-25.501652,-49.798138,-20.747271,-34.282425,-18.273598,-27.177952,-23.163528,-9.612053,-40.153728,-33.545959,-36.713287,-21.841137,-24.195330,-14.768834,-28.074802,-15.641367,-8.392018,-23.415701,-22.163988,-2.381011,1.878742,0.000000,178.000000,4.000000,,,,0.000000,4.000000,4.000000,4.000000,4.000000,4.000000,4.000000,2.000000,4.000000,4.000000,4.000000,4.000000,4.000000,4.000000,4.000000,4.000000,4.000000,4.000000,4.000000,4.000000,4.000000,4.000000,4.000000,4.000000,4.000000,4.000000,4.000000,4.000000,4.000000,4.000000,4.000000,4.000000,4.000000,83.333336
1614130037.335899,14.000000,0.000000,-12.242528,-1.759573,21.191559,13.115747,8.774141,-1.534618,17.221449,-27.217068,-9.914942,-9.465236,-30.979286,-19.322304,-45.645775,-11.495755,-33.735321,-12.101479,-19.971287,-13.909595,8.346277,-22.677677,-12.486774,-19.240679,-17.716732,-24.171133,-13.728424,-23.944162,-15.625726,-8.383626,-20.828182,-18.552080,2.749576,1.876863,0.000000,176.000000,4.000000,,,,0.000000,4.000000,4.000000,4.000000,4.000000,4.000000,4.000000,2.000000,4.000000,4.000000,4.000000,4.000000,4.000000,4.000000,4.000000,4.000000,4.000000,4.000000,4.000000,4.000000,4.000000,4.000000,4.000000,4.000000,4.000000,4.000000,4.000000,4.000000,4.000000,4.000000,4.000000,4.000000,4.000000,83.333336
1614130037.343548,15.000000,0.000000,-13.255926,-1.757813,20.144726,12.589811,6.714085,-2.045904,-0.231669,-25.651388,-9.905027,-10.994232,-31.461128,-19.815802,-44.574490,-9.945798,-34.727230,-12.089376,-20.464136,-10.818763,16.543058,-16.501154,-8.884544,-7.939386,-7.955426,-21.070040,-11.663414,-19.304834,-15.610100,-8.375242,-20.294535,-14.943785,4.285287,1.874986,0.000000,197.000000,4.000000,,,,0.000000,4.000000,4.000000,4.000000,4.000000,4.000000,4.000000,2.000000,4.000000,4.000000,4.000000,4.000000,4.000000,4.000000,4.000000,4.000000,4.000000,4.000000,4.000000,4.000000,4.000000,4.000000,4.000000,4.000000,4.000000,4.000000,4.000000,4.000000,4.000000,4.000000,4.000000,4.000000,4.000000,83.333336
1614130037.351297,16.000000,0.000000,-13.755491,-1.756056,21.150223,10.525940,7.220191,-5.633602,-17.667336,-26.651379,-10.920763,-10.470417,-32.455307,-22.872910,-43.504272,-9.935852,-34.692501,-12.077288,-19.930851,-12.346406,3.706003,-19.561575,-15.542326,-7.931447,-0.767983,-17.972046,-10.113289,-15.695786,-15.594490,-6.315585,-21.299881,-16.467302,3.768182,1.873111,0.000000,195.000000,4.000000,,,,0.000000,4.000000,4.000000,4.000000,4.000000,4.000000,4.000000,2.000000,4.000000,4.000000,4.000000,4.000000,4.000000,4.000000,4.000000,4.000000,4.000000,4.000000,4.000000,4.000000,4.000000,4.000000,4.000000,4.000000,4.000000,4.000000,4.000000,4.000000,4.000000,4.000000,4.000000,4.000000,4.000000,83.333336
1614130037.358946,17.000000,0.000000,-8.613530,-1.754300,15.488046,3.335927,6.700151,-5.627968,-13.547104,-26.111906,-11.935484,-11.485588,-36.525417,-20.285934,-42.435127,-11.464377,-33.632168,-16.167774,-16.833996,-15.410982,-2.451549,-18.516373,-15.526784,-7.923515,-0.767215,-16.928432,-12.154458,-18.244192,-15.578896,-4.257987,-20.765760,-21.579041,4.277234,1.871238,0.000000,174.000000,4.000000,,,,0.000000,4.000000,4.000000,4.000000,4.000000,4.000000,4.000000,2.000000,4.000000,4.000000,4.000000,4.000000,4.000000,4.000000,4.000000,4.000000,4.000000,4.000000,4.000000,4.000000,4.000000,4.000000,4.000000,4.000000,4.000000,4.000000,4.000000,4.000000,4.000000,4.000000,4.000000,4.000000,4.000000,83.333336
1614130037.366795,18.000000,0.000000,-2.451071,-1.239725,2.652045,-4.872538,-0.486037,-5.109519,-2.251505,-26.085794,-13.462009,-16.089487,-42.129917,-17.701546,-42.905514,-24.273426,-34.624176,-32.049042,-15.791522,-18.472494,6.268851,-16.446575,-18.075359,-6.377130,-1.279269,-16.398684,-14.193585,-24.892614,-15.563316,-4.766550,-20.232174,-29.249769,1.708854,1.869367,0.000000,209.000000,4.000000,,,,0.000000,4.000000,4.000000,4.000000,4.000000,4.000000,4.000000,2.000000,4.000000,4.000000,4.000000,4.000000,4.000000,4.000000,4.000000,4.000000,4.000000,4.000000,4.000000,4.000000,4.000000,4.000000,4.000000,4.000000,4.000000,4.000000,4.000000,4.000000,4.000000,4.000000,4.000000,4.000000,4.000000,83.333336
1614130037.374544,19.000000,0.000000,-0.910158,-2.776947,-4.530094,-7.431767,-10.741961,-13.309538,20.314850,-28.623812,-18.063932,-18.637501,-44.139069,-19.222305,-44.913891,-36.556847,-34.589554,-33.042633,-12.185987,-20.505304,-5.019469,-17.968590,-28.313694,-9.447676,-0.252348,-16.382286,-14.692212,-28.457466,-15.547753,-4.761784,-20.724762,-34.861546,-2.908239,1.867497,0.000000,196.000000,4.000000,,,,0.000000,4.000000,4.000000,4.000000,4.000000,4.000000,4.000000,2.000000,4.000000,4.000000,4.000000,4.000000,4.000000,4.000000,4.000000,4.000000,4.000000,4.000000,4.000000,4.000000,4.000000,4.000000,4.000000,4.000000,4.000000,4.000000,4.000000,4.000000,4.000000,4.000000,4.000000,4.000000,4.000000,83.333336
1614130037.382393,20.000000,0.000000,-1.934889,-4.825452,-0.935820,-7.424336,-13.808142,-16.885973,42.345818,-31.159290,-22.661253,-19.131683,-41.530827,-19.203083,-42.817692,-31.392082,-27.888296,-4.804463,-7.045595,-18.946337,-17.834963,-18.976261,-31.362305,-12.002331,-0.764917,-16.878723,-14.677520,-27.916187,-15.532206,-4.757022,-20.191217,-30.211300,-1.879690,1.865630,0.000000,222.000000,4.000000,,,,0.000000,4.000000,4.000000,4.000000,4.000000,4.000000,4.000000,2.000000,4.000000,4.000000,4.000000,4.000000,4.000000,4.000000,4.000000,4.000000,4.000000,4.000000,4.000000,4.000000,4.000000,4.000000,4.000000,4.000000,4.000000,4.000000,4.000000,4.000000,4.000000,4.000000,4.000000,4.000000,4.000000,83.333336
