title:15, start timestamp:1614130113.175502, stop timestamp:1614130159.026500, headset type:EPOCFLEX, headset serial:F00001ED, headset firmware:f12, subject name:s08, channels:75, sampling rate:128, samples:5918      , version:2.0
Timestamp,EEG.Counter,EEG.Interpolated,EEG.Cz,EEG.Fz,EEG.Fp1,EEG.AF3,EEG.F7,EEG.F3,EEG.FC1,EEG.C3,EEG.FC5,EEG.T7,EEG.CP5,EEG.CP1,EEG.P3,EEG.P7,EEG.PO3,EEG.O1,EEG.Pz,EEG.Oz,EEG.O2,EEG.PO4,EEG.P8,EEG.P4,EEG.CP2,EEG.CP6,EEG.T8,EEG.FC6,EEG.C4,EEG.FC2,EEG.F4,EEG.F8,EEG.AF4,EEG.Fp2,EEG.HighBitFlex,EEG.RawCq,EEG.Battery,MarkerIndex,MarkerType,MarkerValueInt,EEG.MarkerHardware,CQ.Cz,CQ.Fz,CQ.Fp1,CQ.AF3,CQ.F7,CQ.F3,CQ.FC1,CQ.C3,CQ.FC5,CQ.T7,CQ.CP5,CQ.CP1,CQ.P3,CQ.P7,CQ.PO3,CQ.O1,CQ.Pz,CQ.Oz,CQ.O2,CQ.PO4,CQ.P8,CQ.P4,CQ.CP2,CQ.CP6,CQ.T8,CQ.FC6,CQ.C4,CQ.FC2,CQ.F4,CQ.F8,CQ.AF4,CQ.Fp2,CQ.Overall
1614130113.175502,79.000000,0.000000,-7.956822,12.000793,135.306686,62.919262,80.345924,31.259968,45.835033,0.548254,32.841331,15.046278,1.733150,-14.180270,-8.408502,2.196508,-1.327749,2.847674,-12.305179,7.242254,33.111732,-9.101617,-23.407583,-13.404654,-13.112957,-19.592699,-12.693361,-20.237570,-14.897964,-2.800180,-1.026544,-24.403212,24.437460,59.708130,0.000000,185.000000,4.000000,,,,0.000000,4.000000,4.000000,4.000000,4.000000,4.000000,4.000000,2.000000,4.000000,4.000000,4.000000,4.000000,4.000000,4.000000,4.000000,4.000000,4.000000,4.000000,4.000000,4.000000,4.000000,4.000000,4.000000,4.000000,4.000000,4.000000,4.000000,4.000000,4.000000,4.000000,4.000000,4.000000,4.000000,83.333336
1614130113.183151,80.000000,0.000000,-11.538609,11.988792,125.940613,54.138393,63.855324,23.023581,53.481506,-0.477935,17.423876,11.954309,-9.037814,-13.653269,-16.605221,-15.754406,-12.095652,-19.206455,-19.472361,-7.123963,25.386312,-21.913029,-29.538023,-22.622019,-14.638306,-18.034645,-38.321693,-25.858358,-15.908707,-2.797380,-1.025517,-33.096756,19.797638,51.956116,0.000000,175.000000,4.000000,,,,0.000000,4.000000,4.000000,4.000000,4.000000,4.000000,4.000000,2.000000,4.000000,4.000000,4.000000,4.000000,4.000000,4.000000,4.000000,4.000000,4.000000,4.000000,4.000000,4.000000,4.000000,4.000000,4.000000,4.000000,4.000000,4.000000,4.000000,4.000000,4.000000,4.000000,4.000000,4.000000,4.000000,83.333336
1614130113.190899,81.000000,0.000000,-11.527070,11.976804,119.660828,50.494514,61.740189,20.949274,46.761360,-5.605662,5.098760,3.737226,-17.233904,-15.690898,-20.178360,-26.507883,-17.724583,-22.776993,-22.016991,-15.834787,17.668617,-27.019320,-37.713612,-26.701960,-16.674950,-21.093534,-48.026962,-30.447886,-18.456900,-2.794583,-1.024492,-34.602119,19.777842,44.211849,0.000000,175.000000,4.000000,,,,0.000000,4.000000,4.000000,4.000000,4.000000,4.000000,4.000000,2.000000,4.000000,4.000000,4.000000,4.000000,4.000000,4.000000,4.000000,4.000000,4.000000,4.000000,4.000000,4.000000,4.000000,4.000000,4.000000,4.000000,4.000000,4.000000,4.000000,4.000000,4.000000,4.000000,4.000000,4.000000,4.000000,83.333336
1614130113.198548,82.000000,0.000000,-10.489902,11.964827,124.669373,53.520943,63.729729,30.159096,50.304340,-6.112877,11.760328,3.220669,-12.088466,-17.726490,-18.619720,-17.763426,-16.681217,-10.959344,-21.994974,-15.306132,19.189411,-23.915379,-38.701542,-26.162437,-17.171095,-26.713467,-32.081497,-29.904617,-18.951263,-2.791788,-1.023467,-32.516235,20.270884,46.218922,0.000000,199.000000,4.000000,,,,0.000000,4.000000,4.000000,4.000000,4.000000,4.000000,4.000000,2.000000,4.000000,4.000000,4.000000,4.000000,4.000000,4.000000,4.000000,4.000000,4.000000,4.000000,4.000000,4.000000,4.000000,4.000000,4.000000,4.000000,4.000000,4.000000,4.000000,4.000000,4.000000,4.000000,4.000000,4.000000,4.000000,83.333336
1614130113.206297,83.000000,0.000000,-16.120438,11.952862,128.134445,59.621265,64.178818,35.769962,61.023270,-5.081123,20.466516,10.909756,-7.973813,-17.708763,-19.113920,-10.566175,-16.664536,-9.409923,-20.947338,-14.778006,21.221504,-22.353001,-30.970531,-22.546532,-17.153923,-24.635471,-23.844290,-29.874712,-18.932312,-2.788996,-1.022444,-33.509361,20.763433,53.352188,0.000000,173.000000,4.000000,,,,0.000000,4.000000,4.000000,4.000000,4.000000,4.000000,4.000000,2.000000,4.000000,4.000000,4.000000,4.000000,4.000000,4.000000,4.000000,4.000000,4.000000,4.000000,4.000000,4.000000,4.000000,4.000000,4.000000,4.000000,4.000000,4.000000,4.000000,4.000000,4.000000,4.000000,4.000000,4.000000,4.000000,83.333336
1614130113.213946,84.000000,0.000000,-22.258163,11.940909,127.493492,63.664211,67.704384,34.195728,28.654552,-6.614503,20.446051,14.488589,-9.504301,-17.691053,-19.094807,-11.068429,-9.981204,-6.323590,-15.285365,-2.968356,28.379768,-14.638340,-22.221611,-12.780396,-16.623949,-16.918528,-27.410189,-30.357658,-18.913380,-2.786207,-1.021421,-33.988674,23.306772,57.401402,0.000000,201.000000,4.000000,,,,0.000000,4.000000,4.000000,4.000000,4.000000,4.000000,4.000000,2.000000,4.000000,4.000000,4.000000,4.000000,4.000000,4.000000,4.000000,4.000000,4.000000,4.000000,4.000000,4.000000,4.000000,4.000000,4.000000,4.000000,4.000000,4.000000,4.000000,4.000000,4.000000,4.000000,4.000000,4.000000,4.000000,83.333336
1614130113.221795,85.000000,0.000000,-18.646162,11.928968,129.417282,63.600544,70.200783,34.161533,-3.681794,-3.018145,20.938425,12.935639,-10.007617,-18.186184,-16.511610,-12.083002,-2.791736,-0.676241,-10.141874,10.367946,39.633442,-5.392932,-19.122467,-6.100948,-14.043223,-14.337506,-26.869957,-29.814480,-19.407288,-2.783421,-1.020400,-32.929043,22.770645,58.882462,0.000000,169.000000,4.000000,,,,0.000000,4.000000,4.000000,4.000000,4.000000,4.000000,4.000000,2.000000,4.000000,4.000000,4.000000,4.000000,4.000000,4.000000,4.000000,4.000000,4.000000,4.000000,4.000000,4.000000,4.000000,4.000000,4.000000,4.000000,4.000000,4.000000,4.000000,4.000000,4.000000,4.000000,4.000000,4.000000,4.000000,83.333336
1614130113.229544,86.000000,0.000000,-14.524952,11.917039,131.339142,63.024124,69.617760,35.153015,25.552656,6.728463,23.994410,12.922704,-8.971969,-17.655176,-15.469457,-10.532457,-4.840226,-5.803770,-12.183014,4.716552,40.619450,-5.387540,-18.077703,-7.633309,-13.003539,-16.374451,-25.304626,-29.784666,-18.875059,-2.780638,-0.506559,-35.460217,20.183771,59.336399,0.000000,169.000000,4.000000,,,,0.000000,4.000000,4.000000,4.000000,4.000000,4.000000,4.000000,2.000000,4.000000,4.000000,4.000000,4.000000,4.000000,4.000000,4.000000,4.000000,4.000000,4.000000,4.000000,4.000000,4.000000,4.000000,4.000000,4.000000,4.000000,4.000000,4.000000,4.000000,4.000000,4.000000,4.000000,4.000000,4.000000,83.333336
1614130113.237392,87.000000,0.000000,-15.536068,11.905122,131.207809,63.473919,69.548141,34.605042,55.270695,8.773016,25.508877,13.935422,-8.450175,-18.150343,-15.453987,-10.521925,-9.450770,-9.900530,-14.222114,-11.185600,21.091650,-12.561640,-21.136549,-10.189778,-13.503356,-14.819615,-26.304962,-29.754881,-18.343365,-2.777857,-1.531693,-39.527321,19.650768,59.277061,0.000000,213.000000,4.000000,,,,0.000000,4.000000,4.000000,4.000000,4.000000,4.000000,4.000000,2.000000,4.000000,4.000000,4.000000,4.000000,4.000000,4.000000,4.000000,4.000000,4.000000,4.000000,4.000000,4.000000,4.000000,4.000000,4.000000,4.000000,4.000000,4.000000,4.000000,4.000000,4.000000,4.000000,4.000000,4.000000,4.000000,83.333336
1614130113.245141,88.000000,0.000000,-15.520532,11.893217,130.563782,62.897625,69.478592,34.057613,24.446192,3.123218,24.970547,13.408667,-9.467366,-18.132193,-15.438534,-11.024223,-10.466961,-11.941912,-15.233532,-18.866722,1.070558,-19.215744,-28.294899,-12.743691,-13.489852,-14.804795,-26.278658,-29.725126,-19.863482,-2.775079,-1.017341,-42.051895,19.631117,58.704964,0.000000,208.000000,4.000000,,,,0.000000,4.000000,4.000000,4.000000,4.000000,4.000000,4.000000,2.000000,4.000000,4.000000,4.000000,4.000000,4.000000,4.000000,4.000000,4.000000,4.000000,4.000000,4.000000,4.000000,4.000000,4.000000,4.000000,4.000000,4.000000,4.000000,4.000000,4.000000,4.000000,4.000000,4.000000,4.000000,4.000000,83.333336
1614130113.252990,89.000000,0.000000,-14.992190,11.881324,130.433212,62.834728,69.409119,34.023556,8.011490,1.068812,24.945576,13.395258,-8.432259,-15.037136,-15.935915,-10.500379,-7.379570,-15.006892,-13.679837,-4.488882,21.582308,-7.914477,-18.523014,-6.064281,-12.963542,-16.328453,-26.252378,-29.695400,-18.305157,-3.285125,1.547779,-38.932922,20.637127,58.133438,0.000000,184.000000,4.000000,,,,0.000000,4.000000,4.000000,4.000000,4.000000,4.000000,4.000000,2.000000,4.000000,4.000000,4.000000,4.000000,4.000000,4.000000,4.000000,4.000000,4.000000,4.000000,4.000000,4.000000,4.000000,4.000000,4.000000,4.000000,4.000000,4.000000,4.000000,4.000000,4.000000,4.000000,4.000000,4.000000,4.000000,83.333336
1614130113.260739,90.000000,0.000000,-15.490019,11.869443,130.302780,62.771893,69.852531,34.502354,33.644505,2.093385,24.920631,13.894683,-2.782800,-11.432356,-12.330235,-7.925776,0.320117,-3.709834,-3.922568,19.618172,54.381237,14.657539,2.008329,9.839219,-13.463399,-11.183919,-26.738947,-29.152885,-11.107365,-2.769019,0.520590,-34.278603,22.667772,59.613766,0.000000,188.000000,4.000000,,,,0.000000,4.000000,4.000000,4.000000,4.000000,4.000000,4.000000,2.000000,4.000000,4.000000,4.000000,4.000000,4.000000,4.000000,4.000000,4.000000,4.000000,4.000000,4.000000,4.000000,4.000000,4.000000,4.000000,4.000000,4.000000,4.000000,4.000000,4.000000,4.000000,4.000000,4.000000,4.000000,4.000000,83.333336
1614130113.268588,91.000000,0.000000,-10.859144,11.857574,130.172485,62.709122,68.757034,34.467850,32.072399,1.578471,24.895710,13.367968,1.835367,-9.369641,-5.651239,-6.892209,1.345438,6.037465,0.696739,11.906246,38.942242,6.950574,-2.096244,7.265278,-13.449936,-3.480427,-23.122465,-29.636553,-5.968052,-2.766250,-4.095315,-33.731503,21.619463,57.502872,0.000000,197.000000,4.000000,,,,0.000000,4.000000,4.000000,4.000000,4.000000,4.000000,4.000000,2.000000,4.000000,4.000000,4.000000,4.000000,4.000000,4.000000,4.000000,4.000000,4.000000,4.000000,4.000000,4.000000,4.000000,4.000000,4.000000,4.000000,4.000000,4.000000,4.000000,4.000000,4.000000,4.000000,4.000000,4.000000,4.000000,83.333336
1614130113.276336,92.000000,0.000000,-4.694439,11.845716,130.042313,62.646412,69.201096,33.920563,16.142889,1.064072,24.870815,12.841779,1.833532,-5.257708,-3.594306,-7.398138,-2.245651,-2.686521,-3.406521,-12.208224,6.595607,-16.646120,-15.427481,-6.588141,-13.436485,-6.041049,-19.509598,-29.094095,-8.013367,-3.276304,-5.629682,-36.261875,20.572203,54.881268,0.000000,189.000000,4.000000,,,,0.000000,4.000000,4.000000,4.000000,4.000000,4.000000,4.000000,2.000000,4.000000,4.000000,4.000000,4.000000,4.000000,4.000000,4.000000,4.000000,4.000000,4.000000,4.000000,4.000000,4.000000,4.000000,4.000000,4.000000,4.000000,4.000000,4.000000,4.000000,4.000000,4.000000,4.000000,4.000000,4.000000,83.333336
1614130113.284185,93.000000,0.000000,-3.151283,11.833870,129.912262,65.660690,73.234459,35.425106,40.229309,1.575828,24.845943,15.905861,2.344519,-2.688347,-4.103532,-7.390739,1.346338,-0.119732,-1.351833,-1.426786,26.589012,-6.373064,-7.206925,1.623575,-13.423049,-11.676034,-18.464449,-25.988077,-7.492533,-1.221746,-4.598411,-36.225613,22.602913,60.467411,0.000000,196.000000,4.000000,,,,0.000000,4.000000,4.000000,4.000000,4.000000,4.000000,4.000000,2.000000,4.000000,4.000000,4.000000,4.000000,4.000000,4.000000,4.000000,4.000000,4.000000,4.000000,4.000000,4.000000,4.000000,4.000000,4.000000,4.000000,4.000000,4.000000,4.000000,4.000000,4.000000,4.000000,4.000000,4.000000,4.000000,83.333336
1614130113.291934,94.000000,0.000000,-4.173773,11.822036,129.782349,69.184769,76.238152,37.953781,54.548058,1.574252,24.308277,15.377134,2.854995,-2.172838,-4.099428,-6.870528,0.832171,11.162439,1.726442,18.574640,54.767551,10.556387,-1.558692,10.852720,-13.922446,-6.023332,-17.420343,-25.962090,-3.382476,2.882040,-4.593812,-36.189388,24.118771,66.560791,0.000000,193.000000,4.000000,,,,0.000000,4.000000,4.000000,4.000000,4.000000,4.000000,4.000000,2.000000,4.000000,4.000000,4.000000,4.000000,4.000000,4.000000,4.000000,4.000000,4.000000,4.000000,4.000000,4.000000,4.000000,4.000000,4.000000,4.000000,4.000000,4.000000,4.000000,4.000000,4.000000,4.000000,4.000000,4.000000,4.000000,83.333336
1614130113.299783,95.000000,0.000000,-3.656779,11.810214,129.652573,69.115585,72.572166,37.403008,31.929405,1.572678,24.796789,8.695090,-3.814527,-2.683486,-10.249175,-8.402119,-12.501994,-2.694877,-11.095798,-1.443933,25.482014,-8.941349,-17.454569,-6.594029,-13.395703,-4.478847,-22.531128,-30.551512,-6.968837,4.930440,-5.102039,-41.794224,23.581831,62.391663,0.000000,186.000000,4.000000,,,,0.000000,4.000000,4.000000,4.000000,4.000000,4.000000,4.000000,2.000000,4.000000,4.000000,4.000000,4.000000,4.000000,4.000000,4.000000,4.000000,4.000000,4.000000,4.000000,4.000000,4.000000,4.000000,4.000000,4.000000,4.000000,4.000000,4.000000,4.000000,4.000000,4.000000,4.000000,4.000000,4.000000,83.333336
1614130113.307532,96.000000,0.000000,-3.653122,11.798404,129.522919,66.995193,69.422676,34.801502,40.615425,1.571105,24.771992,5.609472,-9.451738,-6.270546,-17.931234,-9.932178,-21.720263,-23.717823,-20.828291,-23.493773,6.482173,-24.829844,-27.693525,-18.382307,-12.869488,-16.782061,-37.893211,-33.085064,-13.628535,4.412689,-5.096937,-49.957558,23.558250,53.611324,8064.000000,0.000000,4.000000,,,,0.000000,4.000000,4.000000,4.000000,4.000000,4.000000,4.000000,2.000000,4.000000,4.000000,4.000000,4.000000,4.000000,4.000000,4.000000,4.000000,4.000000,4.000000,4.000000,4.000000,4.000000,4.000000,4.000000,4.000000,4.000000,4.000000,4.000000,4.000000,4.000000,4.000000,4.000000,4.000000,4.000000,83.333336
1614130113.315380,97.000000,0.000000,-4.162289,11.786605,127.854935,65.902557,67.814789,33.741058,73.395325,1.056714,24.234400,5.603863,-4.314081,-9.854019,-16.374842,-11.460708,-21.185720,-27.283850,-13.115155,-19.880535,25.450050,-16.087065,-25.614550,-9.133156,-13.882259,-23.944765,-44.009163,-33.051979,-16.179008,4.408276,-4.066199,-56.574268,23.534691,50.480789,8064.000000,0.000000,4.000000,,,,0.000000,4.000000,4.000000,4.000000,4.000000,4.000000,4.000000,2.000000,4.000000,4.000000,4.000000,4.000000,4.000000,4.000000,4.000000,4.000000,4.000000,4.000000,4.000000,4.000000,4.000000,4.000000,4.000000,4.000000,4.000000,4.000000,4.000000,4.000000,4.000000,4.000000,4.000000,4.000000,4.000000,83.333336
1614130113.323129,98.000000,0.000000,-4.158127,11.774818,125.675797,66.349472,68.259796,34.220139,64.603981,2.081298,24.722986,6.111079,1.844079,-7.280063,-12.768723,-10.936426,-20.138895,-25.718103,-10.025117,-19.347834,19.270754,-15.045337,-27.127398,-5.534279,-12.842735,-22.382359,-32.683105,-32.506107,-15.137189,4.916688,-2.523671,-58.568974,23.511156,50.943130,8064.000000,0.000000,4.000000,,,,0.000000,4.000000,4.000000,4.000000,4.000000,4.000000,4.000000,2.000000,4.000000,4.000000,4.000000,4.000000,4.000000,4.000000,4.000000,4.000000,4.000000,4.000000,4.000000,4.000000,4.000000,4.000000,4.000000,4.000000,4.000000,4.000000,4.000000,4.000000,4.000000,4.000000,4.000000,4.000000,4.000000,83.333336
1614130113.330978,99.000000,0.000000,-4.153969,11.763044,125.550117,66.283119,75.883842,34.185917,39.411167,4.130499,27.262365,10.720353,1.842235,-3.170218,-11.217492,-5.797285,-15.503370,-16.461617,-10.527912,-16.251562,6.430970,-13.491830,-21.972065,-6.041565,-7.701688,-21.847157,-24.958113,-32.473598,-13.070769,4.398952,-0.982686,-55.946304,24.000465,50.892185,8192.000000,0.000000,4.000000,,,,0.000000,4.000000,4.000000,4.000000,4.000000,4.000000,4.000000,2.000000,4.000000,4.000000,4.000000,4.000000,4.000000,4.000000,4.000000,4.000000,4.000000,4.000000,4.000000,4.000000,4.000000,4.000000,4.000000,4.000000,4.000000,4.000000,4.000000,4.000000,4.000000,4.000000,4.000000,4.000000,4.000000,83.333336
1614130113.338727,100.000000,0.000000,-4.149815,11.751281,125.424568,65.191200,78.884880,33.638912,46.551243,5.664830,28.260744,13.273735,1.840393,-2.654228,-8.129352,-3.227385,-8.821200,-3.624642,-1.799436,3.251869,37.193771,2.931918,-9.129580,0.118322,-5.129884,-16.184284,-27.497257,-33.979588,-12.032058,4.394552,0.043938,-54.351894,21.925184,50.328472,8192.000000,0.000000,4.000000,,,,0.000000,4.000000,4.000000,4.000000,4.000000,4.000000,4.000000,2.000000,4.000000,4.000000,4.000000,4.000000,4.000000,4.000000,4.000000,4.000000,4.000000,4.000000,4.000000,4.000000,4.000000,4.000000,4.000000,4.000000,4.000000,4.000000,4.000000,4.000000,4.000000,4.000000,4.000000,4.000000,4.000000,83.333336
1614130113.346376,101.000000,0.000000,-4.145665,11.739530,125.299141,61.023441,68.036766,33.605274,53.684181,5.146345,24.642740,6.080974,0.300091,-4.702856,-11.198145,-11.942106,-9.325200,-9.262043,-3.848918,0.684514,52.541191,2.416166,-12.197372,-3.471539,-7.688856,-7.450151,-24.905659,-35.996891,-15.609770,4.390158,-1.494568,-53.784725,20.364798,50.790966,8192.000000,0.000000,4.000000,,,,0.000000,4.000000,4.000000,4.000000,4.000000,4.000000,4.000000,2.000000,4.000000,4.000000,4.000000,4.000000,4.000000,4.000000,4.000000,4.000000,4.000000,4.000000,4.000000,4.000000,4.000000,4.000000,4.000000,4.000000,4.000000,4.000000,4.000000,4.000000,4.000000,4.000000,4.000000,4.000000,4.000000,83.333336
1614130113.354125,102.000000,0.000000,-4.141520,11.727790,125.173843,57.885498,66.943085,34.084488,50.553574,5.141198,21.028355,1.972329,-3.802773,-6.749435,-20.930536,-20.135292,-12.392797,-18.483549,-20.768147,-25.470016,20.180958,-20.150352,-28.082611,-15.775761,-9.219629,-10.006804,-26.419214,-36.473713,-19.696724,4.385767,-5.082817,-55.269402,19.831612,50.740173,8192.000000,0.000000,4.000000,,,,0.000000,4.000000,4.000000,4.000000,4.000000,4.000000,4.000000,2.000000,4.000000,4.000000,4.000000,4.000000,4.000000,4.000000,4.000000,4.000000,4.000000,4.000000,4.000000,4.000000,4.000000,4.000000,4.000000,4.000000,4.000000,4.000000,4.000000,4.000000,4.000000,4.000000,4.000000,4.000000,4.000000,83.333336
1614130113.361774,103.000000,0.000000,-4.137378,11.716063,125.048668,57.827610,77.132553,34.050404,69.990196,5.136057,20.494505,4.534459,-4.311791,-6.742685,-20.909607,-17.038235,-13.406046,-8.721477,-25.875584,-22.880444,1.699238,-26.796869,-32.157093,-20.375370,-10.748871,-19.227566,-43.315872,-36.950062,-22.241129,4.381382,-8.667478,-59.316696,16.222036,50.689434,8320.000000,0.000000,4.000000,,,,0.000000,4.000000,4.000000,4.000000,4.000000,4.000000,4.000000,2.000000,4.000000,4.000000,4.000000,4.000000,4.000000,4.000000,4.000000,4.000000,4.000000,4.000000,4.000000,4.000000,4.000000,4.000000,4.000000,4.000000,4.000000,4.000000,4.000000,4.000000,4.000000,4.000000,4.000000,4.000000,4.000000,83.333336
1614130113.369522,104.000000,0.000000,-4.133240,11.704347,124.410805,58.282604,75.004143,34.016354,81.202263,5.130921,19.961189,5.555566,-1.743377,-6.735943,-13.196389,-11.380171,-12.879820,2.569296,-17.131760,9.450129,34.518051,-13.949560,-23.919807,-17.278070,-13.302224,-23.310902,-50.964863,-39.990032,-23.244530,4.377000,-8.145989,-61.308659,12.616071,50.638744,8064.000000,0.000000,4.000000,,,,0.000000,4.000000,4.000000,4.000000,4.000000,4.000000,4.000000,2.000000,4.000000,4.000000,4.000000,4.000000,4.000000,4.000000,4.000000,4.000000,4.000000,4.000000,4.000000,4.000000,4.000000,4.000000,4.000000,4.000000,4.000000,4.000000,4.000000,4.000000,4.000000,4.000000,4.000000,4.000000,4.000000,83.333336
1614130113.377171,105.000000,0.000000,-4.129107,11.692642,124.799210,57.711502,68.775291,33.982338,57.531315,5.125790,20.454050,7.088472,-1.228813,-6.729207,-10.619090,-10.343149,-11.841299,2.566727,-12.499243,15.594525,60.124561,-6.243302,-17.229221,-14.183869,-10.724820,-22.261950,-33.990822,-38.411583,-17.580259,4.885444,-8.137844,-58.683250,16.193199,51.100925,8064.000000,0.000000,4.000000,,,,0.000000,4.000000,4.000000,4.000000,4.000000,4.000000,4.000000,2.000000,4.000000,4.000000,4.000000,4.000000,4.000000,4.000000,4.000000,4.000000,4.000000,4.000000,4.000000,4.000000,4.000000,4.000000,4.000000,4.000000,4.000000,4.000000,4.000000,4.000000,4.000000,4.000000,4.000000,4.000000,4.000000,83.333336
1614130113.384920,106.000000,0.000000,-3.612158,11.680949,125.187233,58.166611,72.296257,33.948357,53.371220,5.633485,21.459236,9.132666,-2.766046,-6.209657,-11.121291,-10.845627,-13.367919,-1.025584,-14.025205,-7.497993,27.756742,-8.801162,-17.724812,-14.169685,-8.662813,-19.675585,-22.674780,-33.244965,-11.408833,4.367738,-8.642527,-57.086105,20.279570,51.049828,8064.000000,0.000000,4.000000,,,,0.000000,4.000000,4.000000,4.000000,4.000000,4.000000,4.000000,2.000000,4.000000,4.000000,4.000000,4.000000,4.000000,4.000000,4.000000,4.000000,4.000000,4.000000,4.000000,4.000000,4.000000,4.000000,4.000000,4.000000,4.000000,4.000000,4.000000,4.000000,4.000000,4.000000,4.000000,4.000000,4.000000,83.333336
1614130113.392569,107.000000,0.000000,-4.634186,11.669269,124.036407,57.595623,75.300888,33.914406,79.984512,4.602210,19.386496,8.097892,-0.711998,-6.716268,-9.571709,-11.347602,-13.354551,0.001083,-15.549642,-10.054597,10.293088,-9.818002,-21.296831,-15.693977,-12.756714,-17.604628,-29.831593,-32.698898,-13.448706,4.363370,-8.121063,-57.541840,19.746469,49.973133,8064.000000,0.000000,4.000000,,,,0.000000,4.000000,4.000000,4.000000,4.000000,4.000000,4.000000,2.000000,4.000000,4.000000,4.000000,4.000000,4.000000,4.000000,4.000000,4.000000,4.000000,4.000000,4.000000,4.000000,4.000000,4.000000,4.000000,4.000000,4.000000,4.000000,4.000000,4.000000,4.000000,4.000000,4.000000,4.000000,4.000000,83.333336
1614130113.400318,108.000000,0.000000,-3.603911,11.657599,124.938011,58.050846,80.353790,33.880493,82.981453,5.623249,22.444031,15.782102,7.493843,-6.709552,-6.998034,-10.823433,-1.546325,6.667748,-9.380245,12.006740,42.590488,1.473868,-13.583226,-7.985976,-10.692676,-20.151127,-26.212017,-31.127739,-13.948078,4.871828,-8.112942,-56.971478,21.778004,51.461624,8064.000000,0.000000,4.000000,,,,0.000000,4.000000,4.000000,4.000000,4.000000,4.000000,4.000000,2.000000,4.000000,4.000000,4.000000,4.000000,4.000000,4.000000,4.000000,4.000000,4.000000,4.000000,4.000000,4.000000,4.000000,4.000000,4.000000,4.000000,4.000000,4.000000,4.000000,4.000000,4.000000,4.000000,4.000000,4.000000,4.000000,83.333336
1614130113.407967,109.000000,0.000000,-0.523384,11.645942,129.941284,60.556900,86.427284,33.846611,68.539497,8.181728,32.677998,22.945807,11.076093,-5.677201,-5.965395,-9.786969,6.660350,-0.518406,-1.165737,14.558835,52.804306,7.113420,-3.313233,1.252779,-2.476855,-17.054052,-16.442215,-28.532509,-10.857206,3.841315,-8.104829,-56.914505,24.320330,54.487083,8064.000000,0.000000,4.000000,,,,0.000000,4.000000,4.000000,4.000000,4.000000,4.000000,4.000000,2.000000,4.000000,4.000000,4.000000,4.000000,4.000000,4.000000,4.000000,4.000000,4.000000,4.000000,4.000000,4.000000,4.000000,4.000000,4.000000,4.000000,4.000000,4.000000,4.000000,4.000000,4.000000,4.000000,4.000000,4.000000,4.000000,83.333336
1614130113.415716,110.000000,0.000000,-1.548502,11.634295,130.836975,60.496342,74.545982,33.812763,69.496597,6.122264,32.645321,11.640809,1.834247,-8.235626,-14.677379,-13.366925,-5.141182,-23.081991,-8.344058,-7.507006,27.110477,-9.303950,-15.617612,-10.543345,-6.576942,-7.293408,-30.784746,-38.247566,-14.436093,-0.265091,-8.096725,-59.934513,19.167803,51.868496,8064.000000,0.000000,4.000000,,,,0.000000,4.000000,4.000000,4.000000,4.000000,4.000000,4.000000,2.000000,4.000000,4.000000,4.000000,4.000000,4.000000,4.000000,4.000000,4.000000,4.000000,4.000000,4.000000,4.000000,4.000000,4.000000,4.000000,4.000000,4.000000,4.000000,4.000000,4.000000,4.000000,4.000000,4.000000,4.000000,4.000000,83.333336
1614130113.423365,111.000000,0.000000,-6.162338,11.622662,125.577934,58.384563,59.599644,33.778954,66.862999,0.987937,20.817802,2.398400,-6.372715,-12.842775,-24.919111,-15.917661,-17.956554,-21.520447,-25.258791,-20.832832,6.570547,-28.269005,-38.678917,-27.968699,-16.313955,-12.414320,-52.292423,-49.491371,-21.601145,-3.341749,-8.088628,-61.925861,12.481969,43.611500,8064.000000,0.000000,4.000000,,,,0.000000,4.000000,4.000000,4.000000,4.000000,4.000000,4.000000,2.000000,4.000000,4.000000,4.000000,4.000000,4.000000,4.000000,4.000000,4.000000,4.000000,4.000000,4.000000,4.000000,4.000000,4.000000,4.000000,4.000000,4.000000,4.000000,4.000000,4.000000,4.000000,4.000000,4.000000,4.000000,4.000000,83.333336
1614130113.431114,112.000000,0.000000,-7.694637,11.611038,123.913895,56.787716,66.719528,33.745174,58.591007,0.986949,18.745703,11.626770,-2.263778,-14.368394,-21.817270,-6.670974,-14.861674,0.039535,-30.874557,-19.786358,9.640899,-26.189455,-32.486393,-25.889448,-16.810461,-28.299341,-44.547825,-43.800854,-20.553902,-2.825587,-8.080539,-59.299831,11.443847,43.567886,8064.000000,0.000000,4.000000,,,,0.000000,4.000000,4.000000,4.000000,4.000000,4.000000,4.000000,2.000000,4.000000,4.000000,4.000000,4.000000,4.000000,4.000000,4.000000,4.000000,4.000000,4.000000,4.000000,4.000000,4.000000,4.000000,4.000000,4.000000,4.000000,4.000000,4.000000,4.000000,4.000000,4.000000,4.000000,4.000000,4.000000,83.333336
1614130113.438762,113.000000,0.000000,-7.686943,11.599427,127.379723,58.269390,74.857941,33.711430,72.378571,2.011603,25.906445,16.743349,1.841049,-13.841206,-15.128785,0.002363,-9.205787,0.039496,-27.766760,-17.202469,32.708179,-16.932495,-10.915444,-16.632790,-18.844933,-25.706940,-22.964815,-33.500641,-17.456425,-2.822761,-8.072458,-55.650787,12.458043,49.165344,8064.000000,0.000000,4.000000,,,,0.000000,4.000000,4.000000,4.000000,4.000000,4.000000,4.000000,2.000000,4.000000,4.000000,4.000000,4.000000,4.000000,4.000000,4.000000,4.000000,4.000000,4.000000,4.000000,4.000000,4.000000,4.000000,4.000000,4.000000,4.000000,4.000000,4.000000,4.000000,4.000000,4.000000,4.000000,4.000000,4.000000,83.333336
1614130113.446611,114.000000,0.000000,-10.756179,11.587828,127.765167,60.262405,75.295898,33.677715,70.254913,0.471130,28.444641,14.162502,1.326388,-13.827364,-15.626477,-4.100203,-9.196581,-5.601570,-28.764635,-18.210907,42.419064,-15.377102,-15.007093,-17.128977,-24.467113,-13.373540,-19.352106,-35.005604,-19.490252,-3.332759,-8.064386,-57.646420,12.445585,50.141819,8064.000000,0.000000,4.000000,,,,0.000000,4.000000,4.000000,4.000000,4.000000,4.000000,4.000000,2.000000,4.000000,4.000000,4.000000,4.000000,4.000000,4.000000,4.000000,4.000000,4.000000,4.000000,4.000000,4.000000,4.000000,4.000000,4.000000,4.000000,4.000000,4.000000,4.000000,4.000000,4.000000,4.000000,4.000000,4.000000,4.000000,83.333336
1614130113.454360,115.000000,0.000000,-10.232602,11.576241,126.611763,61.740604,87.015480,33.131218,37.876965,4.060402,30.980299,23.891930,4.914805,-14.326357,-10.995466,1.544923,-6.110462,6.711724,-28.735870,-21.782440,17.248438,-16.387365,-27.812599,-18.650311,-19.314442,-15.924269,-25.999420,-37.021881,-22.034863,-2.816605,-8.056322,-56.050312,13.971601,51.630138,8064.000000,0.000000,4.000000,,,,0.000000,4.000000,4.000000,4.000000,4.000000,4.000000,4.000000,2.000000,4.000000,4.000000,4.000000,4.000000,4.000000,4.000000,4.000000,4.000000,4.000000,4.000000,4.000000,4.000000,4.000000,4.000000,4.000000,4.000000,4.000000,4.000000,4.000000,4.000000,4.000000,4.000000,4.000000,4.000000,4.000000,83.333336
1614130113.462209,116.000000,0.000000,-5.094164,11.564664,130.074890,61.678864,99.236153,33.610909,15.787805,9.184547,35.564701,34.124447,9.525275,-13.799211,-1.753701,16.927994,0.049495,13.371679,-24.091749,-10.991427,17.231190,-7.140209,-12.912992,-11.964993,-10.064358,-19.498089,-23.922138,-31.343832,-22.012829,-2.813789,-8.048265,-45.225033,17.034554,56.706715,8064.000000,0.000000,4.000000,,,,0.000000,4.000000,4.000000,4.000000,4.000000,4.000000,4.000000,2.000000,4.000000,4.000000,4.000000,4.000000,4.000000,4.000000,4.000000,4.000000,4.000000,4.000000,4.000000,4.000000,4.000000,4.000000,4.000000,4.000000,4.000000,4.000000,4.000000,4.000000,4.000000,4.000000,4.000000,4.000000,4.000000,83.333336
1614130113.469958,117.000000,0.000000,-3.037788,11.553100,130.970459,61.617184,89.393326,33.577297,48.592529,7.636901,33.477856,27.936478,10.028570,-14.298231,1.324975,15.885425,3.126369,8.742923,-15.349710,17.224693,50.034473,9.790009,4.535819,-1.696618,-8.515832,-10.247821,-19.282833,-32.850948,-21.477995,-2.810975,-8.040217,-43.128525,19.068800,57.162830,8064.000000,0.000000,4.000000,,,,0.000000,4.000000,4.000000,4.000000,4.000000,4.000000,4.000000,2.000000,4.000000,4.000000,4.000000,4.000000,4.000000,4.000000,4.000000,4.000000,4.000000,4.000000,4.000000,4.000000,4.000000,4.000000,4.000000,4.000000,4.000000,4.000000,4.000000,4.000000,4.000000,4.000000,4.000000,4.000000,4.000000,83.333336
1614130113.477806,118.000000,0.000000,-4.060391,11.541546,123.659996,60.529926,73.919319,32.005257,65.979836,2.501059,26.777712,17.652130,8.992901,-13.771112,-0.214811,4.074667,2.610422,8.221359,-7.642052,22.848494,48.445976,6.190475,-9.827691,-2.720562,-9.532957,-5.622189,-27.981499,-45.638611,-21.456516,-2.808164,-8.032177,-53.341805,16.998449,50.951820,7936.000000,0.000000,4.000000,,,,0.000000,4.000000,4.000000,4.000000,4.000000,4.000000,4.000000,2.000000,4.000000,4.000000,4.000000,4.000000,4.000000,4.000000,4.000000,4.000000,4.000000,4.000000,4.000000,4.000000,4.000000,4.000000,4.000000,4.000000,4.000000,4.000000,4.000000,4.000000,4.000000,4.000000,4.000000,4.000000,4.000000,83.333336
1614130113.485555,119.000000,0.000000,-4.056331,11.530005,118.408134,55.854012,69.742836,29.409151,33.606163,0.960097,23.674011,15.583197,7.445446,-13.757341,-3.291519,3.044951,-4.058855,0.520830,-12.762615,-5.379483,16.089838,-20.995203,-31.356325,-18.102457,-10.549065,-15.360156,-42.312492,-54.823742,-23.486341,-2.805356,-8.024145,-59.955132,11.340425,44.747021,8192.000000,0.000000,4.000000,,,,0.000000,4.000000,4.000000,4.000000,4.000000,4.000000,4.000000,2.000000,4.000000,4.000000,4.000000,4.000000,4.000000,4.000000,4.000000,4.000000,4.000000,4.000000,4.000000,4.000000,4.000000,4.000000,4.000000,4.000000,4.000000,4.000000,4.000000,4.000000,4.000000,4.000000,4.000000,4.000000,4.000000,83.333336
1614130113.493404,120.000000,0.000000,-3.539454,9.980013,119.828186,53.746876,69.160271,28.866920,26.393068,1.471957,23.650337,18.131716,3.848257,-14.256405,-8.929254,5.093188,-11.234283,-14.864305,-25.057545,-18.707438,-2.387791,-34.820362,-34.401894,-29.879227,-12.589798,-26.626848,-43.808640,-54.256096,-25.514137,-2.802551,-8.016121,-62.972099,8.252162,40.599712,8064.000000,0.000000,4.000000,,,,0.000000,4.000000,4.000000,4.000000,4.000000,4.000000,4.000000,2.000000,4.000000,4.000000,4.000000,4.000000,4.000000,4.000000,4.000000,4.000000,4.000000,4.000000,4.000000,4.000000,4.000000,4.000000,4.000000,4.000000,4.000000,4.000000,4.000000,4.000000,4.000000,4.000000,4.000000,4.000000,4.000000,83.333336
1614130113.501153,121.000000,0.000000,-4.048735,7.918751,118.682716,52.667488,66.527008,29.863695,41.751289,1.470485,23.626686,16.062302,1.280306,-12.190866,-10.971606,-0.040110,-11.223049,-17.926365,-24.006845,-4.329755,23.768442,-24.016310,-31.290567,-27.285244,-12.577209,-29.677143,-36.585346,-53.176201,-25.488625,-2.286927,-8.008104,-69.575790,8.756730,38.507828,8064.000000,0.000000,4.000000,,,,0.000000,4.000000,4.000000,4.000000,4.000000,4.000000,4.000000,2.000000,4.000000,4.000000,4.000000,4.000000,4.000000,4.000000,4.000000,4.000000,4.000000,4.000000,4.000000,4.000000,4.000000,4.000000,4.000000,4.000000,4.000000,4.000000,4.000000,4.000000,4.000000,4.000000,4.000000,4.000000,4.000000,83.333336
1614130113.509002,122.000000,0.000000,-4.044686,7.398012,115.487114,49.025078,64.922020,28.808189,22.735182,1.469015,23.090239,10.405214,1.279026,-7.563291,-7.883712,-3.629813,-8.134903,-11.754592,-14.239249,5.418164,38.616470,-14.248705,-32.284916,-20.591293,-12.051810,-28.621826,-35.010296,-54.661488,-24.950315,-3.823102,-8.000096,-72.070320,8.747973,38.469322,8064.000000,0.000000,4.000000,,,,0.000000,4.000000,4.000000,4.000000,4.000000,4.000000,4.000000,2.000000,4.000000,4.000000,4.000000,4.000000,4.000000,4.000000,4.000000,4.000000,4.000000,4.000000,4.000000,4.000000,4.000000,4.000000,4.000000,4.000000,4.000000,4.000000,4.000000,4.000000,4.000000,4.000000,4.000000,4.000000,4.000000,83.333336
1614130113.516750,123.000000,0.000000,-4.040642,7.903434,116.910088,50.514511,68.446838,28.779381,10.917574,0.954725,24.092791,18.599937,4.354670,-5.504446,-6.850187,-0.036440,-8.639588,-9.178735,-11.660908,4.387105,38.065033,-14.747276,-33.791096,-20.570702,-14.603861,-28.593204,-36.513748,-53.581184,-24.925364,-5.870561,-7.992096,-69.946968,8.226405,39.456493,8064.000000,0.000000,4.000000,,,,0.000000,4.000000,4.000000,4.000000,4.000000,4.000000,4.000000,2.000000,4.000000,4.000000,4.000000,4.000000,4.000000,4.000000,4.000000,4.000000,4.000000,4.000000,4.000000,4.000000,4.000000,4.000000,4.000000,4.000000,4.000000,4.000000,4.000000,4.000000,4.000000,4.000000,4.000000,4.000000,4.000000,83.333336
1614130113.524599,124.000000,0.000000,-4.036601,7.895531,121.921379,60.720409,77.609161,32.853165,39.111786,3.005052,27.658440,32.940311,8.452879,-6.011762,-7.356157,3.040519,-9.656590,-8.143915,-14.213349,0.792974,33.411583,-16.783812,-33.244484,-22.601414,-16.640539,-30.103071,-35.964413,-50.450680,-25.413260,-6.890331,-7.984104,-66.800095,8.218179,41.468319,8064.000000,0.000000,4.000000,,,,0.000000,4.000000,4.000000,4.000000,4.000000,4.000000,4.000000,2.000000,4.000000,4.000000,4.000000,4.000000,4.000000,4.000000,4.000000,4.000000,4.000000,4.000000,4.000000,4.000000,4.000000,4.000000,4.000000,4.000000,4.000000,4.000000,4.000000,4.000000,4.000000,4.000000,4.000000,4.000000,4.000000,83.333336
1614130113.532348,125.000000,0.000000,-3.519744,7.887635,123.337921,65.787895,82.146942,36.922878,47.277802,5.053329,30.707705,28.804808,9.982888,-7.544211,-8.374442,4.063120,-8.621293,-8.135771,-14.199136,-2.284742,31.326889,-14.715745,-31.672777,-20.527529,-16.111078,-27.508867,-34.902809,-48.861767,-24.875027,-6.370621,-7.976120,-58.528168,8.722781,42.965313,8064.000000,0.000000,4.000000,,,,0.000000,4.000000,4.000000,4.000000,4.000000,4.000000,4.000000,2.000000,4.000000,4.000000,4.000000,4.000000,4.000000,4.000000,4.000000,4.000000,4.000000,4.000000,4.000000,4.000000,4.000000,4.000000,4.000000,4.000000,4.000000,4.000000,4.000000,4.000000,4.000000,4.000000,4.000000,4.000000,4.000000,83.333336
1614130113.540197,126.000000,0.000000,-5.054686,7.366927,122.188942,62.132362,78.475052,36.885956,27.230524,1.971353,31.189817,15.955490,5.870341,-12.664872,-15.545555,3.033416,-9.125492,-5.563533,-18.800322,-1.256816,34.885307,-12.649748,-32.666744,-19.994181,-21.223173,-21.327511,-40.508930,-49.325726,-25.875792,-6.364250,-7.968144,-52.315796,8.714058,42.922348,8064.000000,0.000000,4.000000,,,,0.000000,4.000000,4.000000,4.000000,4.000000,4.000000,4.000000,2.000000,4.000000,4.000000,4.000000,4.000000,4.000000,4.000000,4.000000,4.000000,4.000000,4.000000,4.000000,4.000000,4.000000,4.000000,4.000000,4.000000,4.000000,4.000000,4.000000,4.000000,4.000000,4.000000,4.000000,4.000000,4.000000,83.333336
1614130113.547946,127.000000,0.000000,-7.613734,7.872381,122.066757,60.018948,76.858116,36.336246,38.485344,-1.620362,31.158628,15.426714,1.761907,-16.754772,-26.299240,-6.200387,-14.757392,-5.557970,-29.550753,-7.409405,21.517088,-22.893509,-41.864845,-31.256239,-31.458359,-23.870287,-49.699192,-49.276402,-28.926840,-6.357886,-7.960176,-57.391685,8.705344,42.879425,8064.000000,0.000000,4.000000,,,,0.000000,4.000000,4.000000,4.000000,4.000000,4.000000,4.000000,2.000000,4.000000,4.000000,4.000000,4.000000,4.000000,4.000000,4.000000,4.000000,4.000000,4.000000,4.000000,4.000000,4.000000,4.000000,4.000000,4.000000,4.000000,4.000000,4.000000,4.000000,4.000000,4.000000,4.000000,4.000000,4.000000,83.333336
1614130113.555794,0.000000,0.000000,-8.118940,10.428611,122.970329,61.497391,78.319717,36.812733,62.036602,-3.670024,31.127470,17.462568,-0.803958,-17.763659,-33.452427,-20.040340,-25.511866,-19.398565,-39.264790,-26.889175,6.110955,-37.742409,-49.515289,-41.481392,-37.067928,-35.128468,-50.675133,-49.227123,-32.487656,-6.351528,-7.952216,-63.488140,8.696639,41.298084,0.000000,196.000000,4.000000,,,,0.000000,4.000000,4.000000,4.000000,4.000000,4.000000,4.000000,2.000000,4.000000,4.000000,4.000000,4.000000,4.000000,4.000000,4.000000,4.000000,4.000000,4.000000,4.000000,4.000000,4.000000,4.000000,4.000000,4.000000,4.000000,4.000000,4.000000,4.000000,4.000000,4.000000,4.000000,4.000000,4.000000,83.333336
1614130113.563543,1.000000,0.000000,-7.598001,11.956644,120.283257,61.435894,75.677292,36.263100,48.128410,-8.281738,30.070702,14.368183,-1.828795,-18.771536,-34.444618,-22.071583,-29.076097,-29.122757,-39.225525,-27.375107,26.617664,-33.602104,-43.824749,-32.721962,-33.953938,-41.247185,-42.932152,-49.690716,-33.480808,-6.345176,-7.944263,-63.424652,8.687943,38.692684,0.000000,183.000000,4.000000,,,,0.000000,4.000000,4.000000,4.000000,4.000000,4.000000,4.000000,2.000000,4.000000,4.000000,4.000000,4.000000,4.000000,4.000000,4.000000,4.000000,4.000000,4.000000,4.000000,4.000000,4.000000,4.000000,4.000000,4.000000,4.000000,4.000000,4.000000,4.000000,4.000000,4.000000,4.000000,4.000000,4.000000,83.333336
1614130113.571192,2.000000,0.000000,-7.590403,11.431867,116.060410,56.759071,69.447769,36.739658,27.054642,-10.324739,27.476528,11.789713,-2.339787,-15.675840,-27.230684,-14.357203,-19.303431,-7.555172,-29.442711,-5.809270,42.488483,-17.671064,-33.524513,-20.894369,-25.202032,-37.103374,-39.812294,-49.128204,-28.831944,-6.338831,-7.936319,-62.848404,8.679255,38.653988,0.000000,101.000000,4.000000,,,,0.000000,4.000000,4.000000,4.000000,4.000000,4.000000,4.000000,2.000000,4.000000,4.000000,4.000000,4.000000,4.000000,4.000000,4.000000,4.000000,4.000000,4.000000,4.000000,4.000000,4.000000,4.000000,4.000000,4.000000,4.000000,4.000000,4.000000,4.000000,4.000000,4.000000,4.000000,4.000000,4.000000,83.333336
1614130113.578941,3.000000,0.000000,-8.095633,11.420435,114.918709,53.112568,64.762939,37.215736,33.181435,-7.750311,26.423410,11.265102,-2.337447,-6.429396,-16.434223,-11.265923,-6.976436,11.426742,-16.079935,1.888847,19.881891,-15.089292,-32.465347,-20.873474,-16.458881,-31.938065,-38.234020,-49.591900,-20.597984,-6.332492,-7.415562,-62.272736,9.183395,39.640976,0.000000,182.000000,4.000000,,,,0.000000,4.000000,4.000000,4.000000,4.000000,4.000000,4.000000,2.000000,4.000000,4.000000,4.000000,4.000000,4.000000,4.000000,4.000000,4.000000,4.000000,4.000000,4.000000,4.000000,4.000000,4.000000,4.000000,4.000000,4.000000,4.000000,4.000000,4.000000,4.000000,4.000000,4.000000,4.000000,4.000000,83.333336
1614130113.586590,4.000000,0.000000,-7.061896,11.409015,114.290970,52.546635,66.236633,35.640060,43.404663,-6.204100,27.935448,13.817940,0.228993,-1.294761,-9.751122,-10.741836,-3.379715,-3.456480,-5.807445,-3.241247,19.349190,-14.048561,-31.407242,-15.724396,-10.288577,-30.880486,-31.016300,-49.029484,-14.423539,-6.326160,-7.408147,-63.236103,8.661391,38.575695,0.000000,185.000000,4.000000,,,,0.000000,4.000000,4.000000,4.000000,4.000000,4.000000,4.000000,2.000000,4.000000,4.000000,4.000000,4.000000,4.000000,4.000000,4.000000,4.000000,4.000000,4.000000,4.000000,4.000000,4.000000,4.000000,4.000000,4.000000,4.000000,4.000000,4.000000,4.000000,4.000000,4.000000,4.000000,4.000000,4.000000,83.333336
1614130113.594339,5.000000,0.000000,-4.490732,11.397605,114.689499,53.006908,71.298607,38.168522,53.104847,-2.095331,29.445974,19.957968,4.844149,-2.319107,-6.151628,-6.115709,-5.940438,-17.811998,-1.699073,1.890199,50.099072,-0.188359,-20.606604,-1.862517,-5.150084,-27.259863,-26.369900,-44.877892,-13.896296,-6.319834,-7.913559,-63.172871,8.652730,38.537121,0.000000,177.000000,4.000000,,,,0.000000,4.000000,4.000000,4.000000,4.000000,4.000000,4.000000,2.000000,4.000000,4.000000,4.000000,4.000000,4.000000,4.000000,4.000000,4.000000,4.000000,4.000000,4.000000,4.000000,4.000000,4.000000,4.000000,4.000000,4.000000,4.000000,4.000000,4.000000,4.000000,4.000000,4.000000,4.000000,4.000000,83.333336
1614130113.601988,6.000000,0.000000,-2.947780,11.386208,117.651733,52.953903,77.381149,45.822662,72.026100,6.111892,30.954990,23.527754,5.864945,-2.829609,-2.042912,-2.519850,-4.908857,-9.076237,-2.723015,7.529335,53.638714,3.401573,-12.893690,4.806012,-3.606472,-18.514654,-28.907633,-39.191990,-13.369578,-6.313514,-7.392825,-55.417389,9.669719,41.062683,0.000000,176.000000,4.000000,,,,0.000000,4.000000,4.000000,4.000000,4.000000,4.000000,4.000000,2.000000,4.000000,4.000000,4.000000,4.000000,4.000000,4.000000,4.000000,4.000000,4.000000,4.000000,4.000000,4.000000,4.000000,4.000000,4.000000,4.000000,4.000000,4.000000,4.000000,4.000000,4.000000,4.000000,4.000000,4.000000,4.000000,83.333336
1614130113.609736,7.000000,0.000000,-4.483294,11.374822,114.457153,51.875309,76.790955,44.238377,77.082283,9.182703,30.924034,24.017046,4.833440,-1.801138,-3.579331,-4.055792,-2.339845,-1.374853,-5.284394,8.547446,41.790203,-8.396700,-16.470539,-3.403922,-10.782352,-16.444857,-28.365904,-40.178436,-14.381850,-6.307200,-7.385432,-48.695305,5.044664,39.483162,0.000000,163.000000,4.000000,,,,0.000000,4.000000,4.000000,4.000000,4.000000,4.000000,4.000000,2.000000,4.000000,4.000000,4.000000,4.000000,4.000000,4.000000,4.000000,4.000000,4.000000,4.000000,4.000000,4.000000,4.000000,4.000000,4.000000,4.000000,4.000000,4.000000,4.000000,4.000000,4.000000,4.000000,4.000000,4.000000,4.000000,83.333336
1614130113.617385,8.000000,0.000000,-6.530092,11.363447,102.547829,47.720867,67.996208,33.424908,62.133404,6.096598,29.354649,22.454569,4.828606,-3.850619,-12.806520,-5.590198,-5.927249,-5.476042,-6.304751,5.461976,42.261234,-14.029329,-24.146378,-15.708211,-15.386955,-25.659182,-26.799076,-41.163898,-20.008493,-6.300893,-12.506252,-57.877377,-3.165509,32.777012,0.000000,183.000000,4.000000,,,,0.000000,4.000000,4.000000,4.000000,4.000000,4.000000,4.000000,2.000000,4.000000,4.000000,4.000000,4.000000,4.000000,4.000000,4.000000,4.000000,4.000000,4.000000,4.000000,4.000000,4.000000,4.000000,4.000000,4.000000,4.000000,4.000000,4.000000,4.000000,4.000000,4.000000,4.000000,4.000000,4.000000,83.333336
1614130113.625134,9.000000,0.000000,-7.549203,11.352083,93.214508,44.596226,61.774368,26.211996,68.225113,0.449475,27.274014,15.765447,1.746855,-6.923691,-22.537304,-6.610249,-15.152091,-13.675694,-5.785626,-14.543486,29.911282,-19.143505,-34.378639,-23.897631,-16.910030,-32.300190,-36.515869,-41.122738,-24.603870,-6.294592,-18.647593,-71.152832,-6.752087,26.590387,0.000000,197.000000,4.000000,,,,0.000000,4.000000,4.000000,4.000000,4.000000,4.000000,4.000000,2.000000,4.000000,4.000000,4.000000,4.000000,4.000000,4.000000,4.000000,4.000000,4.000000,4.000000,4.000000,4.000000,4.000000,4.000000,4.000000,4.000000,4.000000,4.000000,4.000000,4.000000,4.000000,4.000000,4.000000,4.000000,4.000000,83.333336
1614130113.632783,10.000000,0.000000,-9.080115,11.340732,95.685402,46.602909,64.276695,28.749887,98.926125,-2.627897,26.221098,11.647118,-3.383097,-8.968050,-24.053228,-8.142099,-21.290785,-19.815865,-6.292661,-29.913557,18.086498,-29.380772,-41.010929,-25.925014,-21.508505,-32.267887,-43.146019,-43.645718,-26.117727,-6.288298,-19.654585,-68.517578,-7.258155,26.563797,0.000000,159.000000,4.000000,,,,0.000000,4.000000,4.000000,4.000000,4.000000,4.000000,4.000000,2.000000,4.000000,4.000000,4.000000,4.000000,4.000000,4.000000,4.000000,4.000000,4.000000,4.000000,4.000000,4.000000,4.000000,4.000000,4.000000,4.000000,4.000000,4.000000,4.000000,4.000000,4.000000,4.000000,4.000000,4.000000,4.000000,83.333336
1614130113.640532,11.000000,0.000000,-11.122317,11.329391,106.871765,51.171692,72.417549,36.926266,102.929764,1.990115,28.246159,18.302137,2.774132,-11.010364,-16.336866,-0.954470,-12.038725,-8.001177,-7.312009,-10.396465,38.581234,-20.633442,-29.687866,-20.258064,-23.025457,-34.286903,-26.179796,-37.448223,-26.091610,-6.282009,-19.122110,-51.525986,-3.148333,36.793644,0.000000,193.000000,4.000000,,,,0.000000,4.000000,4.000000,4.000000,4.000000,4.000000,4.000000,2.000000,4.000000,4.000000,4.000000,4.000000,4.000000,4.000000,4.000000,4.000000,4.000000,4.000000,4.000000,4.000000,4.000000,4.000000,4.000000,4.000000,4.000000,4.000000,4.000000,4.000000,4.000000,4.000000,4.000000,4.000000,4.000000,83.333336
1614130113.648181,12.000000,0.000000,-11.624016,11.318061,116.508484,54.710262,78.498978,43.043186,79.749908,8.141972,30.269194,29.053066,16.617512,-9.973712,-7.089761,17.508022,7.973313,14.058106,-4.740594,16.793419,62.132397,2.976935,-10.683820,-13.058319,-15.822945,-25.021847,-7.179257,-19.462059,-20.424492,-6.275727,-17.051706,-34.551380,9.675328,53.167107,0.000000,200.000000,4.000000,,,,0.000000,4.000000,4.000000,4.000000,4.000000,4.000000,4.000000,2.000000,4.000000,4.000000,4.000000,4.000000,4.000000,4.000000,4.000000,4.000000,4.000000,4.000000,4.000000,4.000000,4.000000,4.000000,4.000000,4.000000,4.000000,4.000000,4.000000,4.000000,4.000000,4.000000,4.000000,4.000000,4.000000,83.333336
1614130113.655930,13.000000,0.000000,-11.099571,11.306743,117.417618,59.270939,79.958939,43.512962,77.106056,9.159471,30.751745,31.588116,21.216278,-5.348354,0.096816,28.772566,19.760212,21.736357,0.392351,16.776625,60.018982,8.614984,-7.596213,-8.942697,-11.191737,-6.535286,-12.813103,-16.365673,-11.686119,-6.269452,-12.419270,-32.465549,17.357960,58.754963,0.000000,201.000000,4.000000,,,,0.000000,4.000000,4.000000,4.000000,4.000000,4.000000,4.000000,2.000000,4.000000,4.000000,4.000000,4.000000,4.000000,4.000000,4.000000,4.000000,4.000000,4.000000,4.000000,4.000000,4.000000,4.000000,4.000000,4.000000,4.000000,4.000000,4.000000,4.000000,4.000000,4.000000,4.000000,4.000000,4.000000,83.333336
1614130113.663579,14.000000,0.000000,-11.088471,11.295436,117.300194,60.750130,80.391800,42.956631,84.208435,8.124670,30.208174,26.941143,15.041216,-2.266083,3.173642,19.000204,18.201990,17.099236,1.930421,9.580361,50.728191,-1.650041,-16.819386,-9.446574,-13.231827,-3.451828,-26.646444,-31.733923,-9.110331,-6.263182,-11.381209,-46.279236,11.699577,52.029545,0.000000,171.000000,4.000000,,,,0.000000,4.000000,4.000000,4.000000,4.000000,4.000000,4.000000,2.000000,4.000000,4.000000,4.000000,4.000000,4.000000,4.000000,4.000000,4.000000,4.000000,4.000000,4.000000,4.000000,4.000000,4.000000,4.000000,4.000000,4.000000,4.000000,4.000000,4.000000,4.000000,4.000000,4.000000,4.000000,4.000000,83.333336
1614130113.671328,15.000000,0.000000,-11.077383,11.284141,118.208534,60.176559,80.311409,43.426495,80.534485,8.629366,30.690786,22.811638,11.436431,-2.263817,4.196110,5.135049,16.132505,14.518033,0.902849,12.647704,50.164642,-4.212494,-21.417952,-9.949948,-12.705775,-12.679145,-29.183901,-38.881676,-10.639682,-6.256919,-11.369828,-54.950905,8.610954,46.849308,0.000000,156.000000,4.000000,,,,0.000000,4.000000,4.000000,4.000000,4.000000,4.000000,4.000000,2.000000,4.000000,4.000000,4.000000,4.000000,4.000000,4.000000,4.000000,4.000000,4.000000,4.000000,4.000000,4.000000,4.000000,4.000000,4.000000,4.000000,4.000000,4.000000,4.000000,4.000000,4.000000,4.000000,4.000000,4.000000,4.000000,83.333336
1614130113.678977,16.000000,0.000000,-11.066305,11.272857,115.526230,60.116383,80.231102,43.383068,93.274460,8.620736,30.660095,23.814466,13.989098,-3.287194,3.679093,6.155555,18.167656,6.298387,1.414767,10.583775,51.140121,-2.156999,-20.883713,-9.427178,-9.103326,-14.204927,-27.103434,-34.740231,-10.116221,-6.250662,-7.768715,-52.844673,11.679266,46.802460,0.000000,193.000000,4.000000,,,,0.000000,4.000000,4.000000,4.000000,4.000000,4.000000,4.000000,2.000000,4.000000,4.000000,4.000000,4.000000,4.000000,4.000000,4.000000,4.000000,4.000000,4.000000,4.000000,4.000000,4.000000,4.000000,4.000000,4.000000,4.000000,4.000000,4.000000,4.000000,4.000000,4.000000,4.000000,4.000000,4.000000,83.333336
1614130113.686725,17.000000,0.000000,-11.055240,11.261584,113.872238,59.543446,80.150864,43.339684,100.360672,8.612116,30.116615,23.790651,12.436646,-2.771086,3.675414,7.687861,15.585385,-8.579706,0.387711,-0.196040,46.473595,-6.257407,-22.401291,-9.930572,-8.581402,-14.190722,-28.101973,-34.192669,-9.593285,-6.244411,-3.658382,-50.740547,11.154767,44.191555,0.000000,175.000000,4.000000,,,,0.000000,4.000000,4.000000,4.000000,4.000000,4.000000,4.000000,2.000000,4.000000,4.000000,4.000000,4.000000,4.000000,4.000000,4.000000,4.000000,4.000000,4.000000,4.000000,4.000000,4.000000,4.000000,4.000000,4.000000,4.000000,4.000000,4.000000,4.000000,4.000000,4.000000,4.000000,4.000000,4.000000,83.333336
1614130113.694374,18.000000,0.000000,-11.044184,11.250322,112.732727,56.919800,78.532257,41.757881,67.952621,8.090683,30.086498,16.074554,2.680620,-2.255495,3.671738,-1.550596,8.903133,-16.263435,-4.228062,-5.324049,37.196354,-11.892175,-25.968634,-12.997564,-9.085641,-19.817558,-30.125153,-35.184116,-10.609333,-6.238167,-3.654723,-52.228268,8.066689,39.019157,0.000000,206.000000,4.000000,,,,0.000000,4.000000,4.000000,4.000000,4.000000,4.000000,4.000000,2.000000,4.000000,4.000000,4.000000,4.000000,4.000000,4.000000,4.000000,4.000000,4.000000,4.000000,4.000000,4.000000,4.000000,4.000000,4.000000,4.000000,4.000000,4.000000,4.000000,4.000000,4.000000,4.000000,4.000000,4.000000,4.000000,83.333336
1614130113.702123,19.000000,0.000000,-11.033140,11.239072,108.004608,55.324417,76.402443,39.664841,42.756466,8.082592,30.056412,11.443094,-4.501547,-2.766059,3.155246,-8.728533,3.766025,-14.708710,-7.300756,-4.805905,33.056591,-12.393103,-26.968306,-17.599951,-9.076555,-22.361843,-27.018103,-35.148933,-10.598723,-6.231929,-4.163889,-52.176037,8.058622,36.928856,0.000000,195.000000,4.000000,,,,0.000000,4.000000,4.000000,4.000000,4.000000,4.000000,4.000000,2.000000,4.000000,4.000000,4.000000,4.000000,4.000000,4.000000,4.000000,4.000000,4.000000,4.000000,4.000000,4.000000,4.000000,4.000000,4.000000,4.000000,4.000000,4.000000,4.000000,4.000000,4.000000,4.000000,4.000000,4.000000,4.000000,83.333336
1614130113.709772,20.000000,0.000000,-10.509286,10.715013,105.332504,55.269093,75.300400,39.112358,74.508583,11.664253,30.539175,16.047035,1.656800,-2.763294,3.664912,-6.155701,2.223798,-8.027334,-5.754994,-3.262637,34.049175,-10.329428,-18.736208,-18.607992,-8.554658,-21.826660,-19.298779,-35.113785,-10.588125,-6.225697,-5.185367,-51.611042,8.050564,37.917568,0.000000,202.000000,4.000000,,,,0.000000,4.000000,4.000000,4.000000,4.000000,4.000000,4.000000,2.000000,4.000000,4.000000,4.000000,4.000000,4.000000,4.000000,4.000000,4.000000,4.000000,4.000000,4.000000,4.000000,4.000000,4.000000,4.000000,4.000000,4.000000,4.000000,4.000000,4.000000,4.000000,4.000000,4.000000,4.000000,4.000000,83.333336
1614130113.717621,21.000000,0.000000,-8.447495,11.217118,108.304092,56.239464,76.250740,39.586063,89.818687,15.755154,31.021458,20.646374,11.911553,-0.196428,4.686888,-1.534161,4.785676,-2.378281,-2.159496,2.894472,39.656155,-8.780637,-7.948242,-10.384256,-8.546103,-21.292013,-15.176915,-30.463285,-10.577537,-6.219471,-7.744284,-48.995327,8.555333,38.392471,0.000000,199.000000,4.000000,,,,0.000000,4.000000,4.000000,4.000000,4.000000,4.000000,4.000000,2.000000,4.000000,4.000000,4.000000,4.000000,4.000000,4.000000,4.000000,4.000000,4.000000,4.000000,4.000000,4.000000,4.000000,4.000000,4.000000,4.000000,4.000000,4.000000,4.000000,4.000000,4.000000,4.000000,4.000000,4.000000,4.000000,83.333336
1614130113.725370,22.000000,0.000000,-6.900586,11.205901,110.247070,56.183228,76.687309,39.546478,60.498100,16.252218,29.964794,20.112907,13.950924,1.855051,3.656560,-0.506986,5.293711,-1.863082,-1.644516,8.019782,50.898548,-7.233395,-5.376191,-0.117461,-9.050378,-18.706619,-16.700199,-23.766157,-10.054138,-5.700431,-6.710898,-46.382229,9.059599,38.354080,0.000000,191.000000,4.000000,,,,0.000000,4.000000,4.000000,4.000000,4.000000,4.000000,4.000000,2.000000,4.000000,4.000000,4.000000,4.000000,4.000000,4.000000,4.000000,4.000000,4.000000,4.000000,4.000000,4.000000,4.000000,4.000000,4.000000,4.000000,4.000000,4.000000,4.000000,4.000000,4.000000,4.000000,4.000000,4.000000,4.000000,83.333336
1614130113.733218,23.000000,0.000000,-7.406506,10.681874,108.085541,54.588581,75.072159,39.506931,51.206833,16.748787,29.934830,18.554333,11.885692,0.314734,3.140083,-0.506479,4.775597,-3.912501,-3.694153,7.498942,55.975853,-6.713341,-5.883635,1.933938,-9.041327,-14.585348,-17.196320,-22.716749,-11.069725,-6.207551,-5.165726,-48.387131,6.999257,37.802906,0.000000,210.000000,4.000000,,,,0.000000,4.000000,4.000000,4.000000,4.000000,4.000000,4.000000,2.000000,4.000000,4.000000,4.000000,4.000000,4.000000,4.000000,4.000000,4.000000,4.000000,4.000000,4.000000,4.000000,4.000000,4.000000,4.000000,4.000000,4.000000,4.000000,4.000000,4.000000,4.000000,4.000000,4.000000,4.000000,4.000000,83.333336
1614130113.740967,24.000000,0.000000,-7.399099,11.696834,110.028740,57.610916,76.535545,39.467426,62.437675,15.193577,34.007458,21.099880,13.412267,1.340061,4.162583,1.545310,6.822104,-1.344486,-1.639177,8.004264,48.227570,-8.245090,-5.877751,1.932004,-9.032286,-13.545121,-15.127841,-23.206854,-10.033014,-6.201344,-3.109278,-45.774639,10.582002,38.277924,0.000000,194.000000,4.000000,,,,0.000000,4.000000,4.000000,4.000000,4.000000,4.000000,4.000000,2.000000,4.000000,4.000000,4.000000,4.000000,4.000000,4.000000,4.000000,4.000000,4.000000,4.000000,4.000000,4.000000,4.000000,4.000000,4.000000,4.000000,4.000000,4.000000,4.000000,4.000000,4.000000,4.000000,4.000000,4.000000,4.000000,83.333336
1614130113.748816,25.000000,0.000000,-6.878880,14.249239,108.380249,62.681511,76.459015,39.940777,47.503445,9.537357,31.409349,20.053139,11.860394,0.825900,-1.995425,0.005303,2.712717,-3.394424,-2.150358,5.944977,44.076778,-9.775306,-10.487258,1.930072,-9.023253,-13.531576,-19.215277,-22.158005,-6.946059,-1.579758,2.022036,-39.575020,18.263727,39.265285,0.000000,192.000000,4.000000,,,,0.000000,4.000000,4.000000,4.000000,4.000000,4.000000,4.000000,2.000000,4.000000,4.000000,4.000000,4.000000,4.000000,4.000000,4.000000,4.000000,4.000000,4.000000,4.000000,4.000000,4.000000,4.000000,4.000000,4.000000,4.000000,4.000000,4.000000,4.000000,4.000000,4.000000,4.000000,4.000000,4.000000,83.333336
1614130113.756565,26.000000,0.000000,-7.384821,15.260631,96.989815,56.977802,66.126144,37.336735,33.096966,4.399615,20.095888,9.263856,0.566482,-12.508259,-20.967789,-16.404959,-13.700252,-18.262825,-17.532824,-4.317378,46.083984,-13.868094,-18.681900,-4.225704,-10.552692,-13.005224,-29.452473,-24.699949,-8.990395,2.011566,0.481553,-45.689293,15.168540,34.097813,0.000000,197.000000,4.000000,,,,0.000000,4.000000,4.000000,4.000000,4.000000,4.000000,4.000000,2.000000,4.000000,4.000000,4.000000,4.000000,4.000000,4.000000,4.000000,4.000000,4.000000,4.000000,4.000000,4.000000,4.000000,4.000000,4.000000,4.000000,4.000000,4.000000,4.000000,4.000000,4.000000,4.000000,4.000000,4.000000,4.000000,83.333336
1614130113.764414,27.000000,0.000000,-7.377437,12.681268,86.123596,46.664413,54.265144,29.607090,49.986946,2.343933,13.921947,0.536643,-9.690495,-22.752161,-34.280155,-33.311630,-22.404501,-26.962511,-32.387085,-11.492548,34.755848,-20.520893,-24.304243,-12.426606,-13.106242,-14.530681,-31.987123,-30.316275,-14.109610,-2.605831,-8.749698,-57.438473,5.409782,23.807306,0.000000,190.000000,4.000000,,,,0.000000,4.000000,4.000000,4.000000,4.000000,4.000000,4.000000,2.000000,4.000000,4.000000,4.000000,4.000000,4.000000,4.000000,4.000000,4.000000,4.000000,4.000000,4.000000,4.000000,4.000000,4.000000,4.000000,4.000000,4.000000,4.000000,4.000000,4.000000,4.000000,4.000000,4.000000,4.000000,4.000000,83.333336
1614130113.772162,28.000000,0.000000,-7.370059,10.617305,85.524651,43.540829,52.672417,24.449278,54.552341,1.315948,15.446486,3.100209,-10.193625,-12.472999,-28.092028,-30.714216,-16.228251,-14.627855,-26.200851,-11.481055,13.695453,-25.628576,-28.895323,-13.952641,-12.067494,-17.080252,-27.339750,-30.798780,-11.531397,-6.192968,-12.330692,-55.329754,6.942833,19.168114,0.000000,174.000000,4.000000,,,,0.000000,4.000000,4.000000,4.000000,4.000000,4.000000,4.000000,2.000000,4.000000,4.000000,4.000000,4.000000,4.000000,4.000000,4.000000,4.000000,4.000000,4.000000,4.000000,4.000000,4.000000,4.000000,4.000000,4.000000,4.000000,4.000000,4.000000,4.000000,4.000000,4.000000,4.000000,4.000000,4.000000,83.333336
1614130113.780011,29.000000,0.000000,-7.362689,11.119508,87.490410,45.548569,53.132568,24.937651,29.882406,0.801812,16.456680,3.609929,-8.644970,1.385628,-15.756244,-24.016836,-12.109457,-10.510663,-13.354138,-11.982395,10.604834,-26.115768,-32.456173,-13.938689,-9.491324,-17.063171,-31.414976,-30.255159,-10.494225,-2.597032,-10.779900,-55.274422,8.987173,20.174587,0.000000,198.000000,4.000000,,,,0.000000,4.000000,4.000000,4.000000,4.000000,4.000000,4.000000,2.000000,4.000000,4.000000,4.000000,4.000000,4.000000,4.000000,4.000000,4.000000,4.000000,4.000000,4.000000,4.000000,4.000000,4.000000,4.000000,4.000000,4.000000,4.000000,4.000000,4.000000,4.000000,4.000000,4.000000,4.000000,4.000000,83.333336
1614130113.787760,30.000000,0.000000,-7.355326,11.108388,85.864456,44.477379,48.976871,24.399891,25.749960,1.313830,14.388942,-3.060347,-10.174787,0.871422,-13.689205,-27.582561,-13.635809,-18.192461,-12.315144,-8.893489,31.107050,-24.038372,-32.936535,-17.001673,-8.456192,-19.097391,-43.691254,-34.840290,-17.663218,-4.132896,-11.281940,-67.526840,1.798699,19.641592,0.000000,194.000000,4.000000,,,,0.000000,4.000000,4.000000,4.000000,4.000000,4.000000,4.000000,2.000000,4.000000,4.000000,4.000000,4.000000,4.000000,4.000000,4.000000,4.000000,4.000000,4.000000,4.000000,4.000000,4.000000,4.000000,4.000000,4.000000,4.000000,4.000000,4.000000,4.000000,4.000000,4.000000,4.000000,4.000000,4.000000,83.333336
1614130113.795609,31.000000,0.000000,-7.347971,10.584459,85.265770,45.458542,53.030457,23.349852,43.672928,0.799696,16.425835,1.558098,-8.113330,-3.232014,-17.265259,-19.349852,-5.417046,-4.328114,-14.866931,0.858994,49.537479,-20.937410,-29.826677,-18.010313,-8.960557,-23.693678,-43.647560,-39.420834,-22.773760,-10.282610,-12.296299,-66.433670,4.361002,19.621950,0.000000,173.000000,4.000000,,,,0.000000,4.000000,4.000000,4.000000,4.000000,4.000000,4.000000,2.000000,4.000000,4.000000,4.000000,4.000000,4.000000,4.000000,4.000000,4.000000,4.000000,4.000000,4.000000,4.000000,4.000000,4.000000,4.000000,4.000000,4.000000,4.000000,4.000000,4.000000,4.000000,4.000000,4.000000,4.000000,4.000000,83.333336
1614130113.803358,32.000000,0.000000,-7.340623,12.625157,88.770248,49.515648,63.746658,28.454706,39.526691,3.875819,21.024794,13.864232,-2.464191,-2.203140,-11.606969,-0.868963,6.383244,15.676214,-12.287961,8.037622,51.539227,-18.352369,-25.694286,-16.453840,-8.951596,-25.721266,-29.244940,-37.842953,-21.212524,-7.708224,-9.207080,-50.982624,15.125872,23.704893,8064.000000,0.000000,4.000000,,,,0.000000,4.000000,4.000000,4.000000,4.000000,4.000000,4.000000,2.000000,4.000000,4.000000,4.000000,4.000000,4.000000,4.000000,4.000000,4.000000,4.000000,4.000000,4.000000,4.000000,4.000000,4.000000,4.000000,4.000000,4.000000,4.000000,4.000000,4.000000,4.000000,4.000000,4.000000,4.000000,4.000000,83.333336
1614130113.811206,33.000000,0.000000,-7.333282,15.176634,90.219940,51.004593,62.144451,32.015995,26.666651,4.897585,21.516588,9.234982,-1.948906,-1.175296,-5.954336,-1.893735,4.838398,1.301564,-12.788494,4.952662,47.385120,-17.821198,-24.130131,-16.950207,-8.429824,-25.182724,-23.574669,-37.292290,-20.678492,-2.572311,-6.633770,-47.854717,14.597926,21.629906,8064.000000,0.000000,4.000000,,,,0.000000,4.000000,4.000000,4.000000,4.000000,4.000000,4.000000,2.000000,4.000000,4.000000,4.000000,4.000000,4.000000,4.000000,4.000000,4.000000,4.000000,4.000000,4.000000,4.000000,4.000000,4.000000,4.000000,4.000000,4.000000,4.000000,4.000000,4.000000,4.000000,4.000000,4.000000,4.000000,4.000000,83.333336
1614130113.818955,34.000000,0.000000,-7.325949,13.110176,83.463051,43.261280,51.313076,20.701927,32.281010,-0.748338,17.905329,-1.543483,-7.587983,-5.276685,-19.794537,-18.302097,-10.551055,-25.879225,-18.929552,-9.924086,39.645428,-18.829018,-27.182922,-21.035822,-8.934215,-24.644722,-31.756222,-41.870380,-22.196274,-2.569739,-10.216880,-55.499172,5.865379,11.351866,8064.000000,0.000000,4.000000,,,,0.000000,4.000000,4.000000,4.000000,4.000000,4.000000,4.000000,2.000000,4.000000,4.000000,4.000000,4.000000,4.000000,4.000000,4.000000,4.000000,4.000000,4.000000,4.000000,4.000000,4.000000,4.000000,4.000000,4.000000,4.000000,4.000000,4.000000,4.000000,4.000000,4.000000,4.000000,4.000000,4.000000,83.333336
1614130113.826604,35.000000,0.000000,-7.318623,11.045783,77.738564,36.038532,48.184837,10.937635,35.838474,-5.875795,15.323321,-4.106042,-10.144497,-9.886793,-33.620895,-22.386360,-20.796915,-21.750782,-22.500366,-17.093649,31.913477,-18.297367,-30.232662,-21.014786,-9.438101,-25.645718,-31.724466,-41.828510,-20.635616,-2.054348,-11.745125,-54.930851,2.782591,7.750771,8064.000000,0.000000,4.000000,,,,0.000000,4.000000,4.000000,4.000000,4.000000,4.000000,4.000000,2.000000,4.000000,4.000000,4.000000,4.000000,4.000000,4.000000,4.000000,4.000000,4.000000,4.000000,4.000000,4.000000,4.000000,4.000000,4.000000,4.000000,4.000000,4.000000,4.000000,4.000000,4.000000,4.000000,4.000000,4.000000,4.000000,83.333336
1614130113.834353,36.000000,0.000000,-7.311305,14.624481,81.250572,42.156342,52.239216,21.695929,39.392376,-6.895560,14.795177,-2.563474,-7.057430,-10.389727,-22.305223,-16.210127,-16.673553,0.322251,-16.836840,2.923445,44.702076,-12.638044,-23.535763,-14.839925,-7.890201,-25.107252,-16.308126,-32.043091,-16.512417,1.024629,-4.553893,-50.260536,6.369552,16.973789,8192.000000,0.000000,4.000000,,,,0.000000,4.000000,4.000000,4.000000,4.000000,4.000000,4.000000,2.000000,4.000000,4.000000,4.000000,4.000000,4.000000,4.000000,4.000000,4.000000,4.000000,4.000000,4.000000,4.000000,4.000000,4.000000,4.000000,4.000000,4.000000,4.000000,4.000000,4.000000,4.000000,4.000000,4.000000,4.000000,4.000000,83.333336
1614130113.842002,37.000000,0.000000,-7.303993,18.712421,86.297523,53.909058,54.238258,35.520386,61.917088,-5.863024,18.882946,4.105756,-2.947808,-9.866517,-13.052149,-10.040071,-12.554316,1.860390,-12.204618,17.792316,61.067631,-9.035663,-11.204535,-12.773803,-8.395132,-19.441118,-7.573870,-24.831562,-12.393340,1.536425,3.142969,-50.210278,12.517028,25.674765,8192.000000,0.000000,4.000000,,,,0.000000,4.000000,4.000000,4.000000,4.000000,4.000000,4.000000,2.000000,4.000000,4.000000,4.000000,4.000000,4.000000,4.000000,4.000000,4.000000,4.000000,4.000000,4.000000,4.000000,4.000000,4.000000,4.000000,4.000000,4.000000,4.000000,4.000000,4.000000,4.000000,4.000000,4.000000,4.000000,4.000000,83.333336
1614130113.849751,38.000000,0.000000,-7.296689,18.693708,86.724045,56.419250,57.773766,35.997688,68.009018,-0.728956,26.043550,15.896522,2.183345,-9.343829,-15.090379,-1.824903,-14.593043,-9.936342,-14.756516,0.851447,50.750153,-12.103550,-5.552305,-13.273849,-9.412377,-13.267832,-9.104757,-26.858011,-10.842485,1.022068,4.165467,-47.595963,16.094255,27.700371,8192.000000,0.000000,4.000000,,,,0.000000,4.000000,4.000000,4.000000,4.000000,4.000000,4.000000,2.000000,4.000000,4.000000,4.000000,4.000000,4.000000,4.000000,4.000000,4.000000,4.000000,4.000000,4.000000,4.000000,4.000000,4.000000,4.000000,4.000000,4.000000,4.000000,4.000000,4.000000,4.000000,4.000000,4.000000,4.000000,4.000000,83.333336
1614130113.857400,39.000000,0.000000,-6.776572,18.675014,85.611679,54.311546,63.357018,34.423229,44.864086,6.964081,30.632891,21.521650,12.950392,-6.257563,1.334968,5.356409,0.806165,1.868466,-4.998169,2.389057,48.135300,-5.937600,-0.931368,-3.004165,-4.274760,-10.690461,-8.070011,-23.241411,-9.806002,1.021046,4.161302,-39.343239,15.565340,31.262415,8320.000000,0.000000,4.000000,,,,0.000000,4.000000,4.000000,4.000000,4.000000,4.000000,4.000000,2.000000,4.000000,4.000000,4.000000,4.000000,4.000000,4.000000,4.000000,4.000000,4.000000,4.000000,4.000000,4.000000,4.000000,4.000000,4.000000,4.000000,4.000000,4.000000,4.000000,4.000000,4.000000,4.000000,4.000000,4.000000,4.000000,83.333336
1614130113.865149,40.000000,0.000000,-6.769795,17.117878,86.551712,56.308517,63.293659,35.927265,51.998707,9.008399,31.115080,19.961668,18.578468,-2.148741,19.795172,5.863873,24.907923,29.046085,12.442726,31.104616,71.676910,5.863209,6.761870,6.742429,1.370540,-7.090027,-9.087583,-17.577143,-9.283376,1.020025,2.618679,-38.791077,16.575417,32.256794,8064.000000,0.000000,4.000000,,,,0.000000,4.000000,4.000000,4.000000,4.000000,4.000000,4.000000,2.000000,4.000000,4.000000,4.000000,4.000000,4.000000,4.000000,4.000000,4.000000,4.000000,4.000000,4.000000,4.000000,4.000000,4.000000,4.000000,4.000000,4.000000,4.000000,4.000000,4.000000,4.000000,4.000000,4.000000,4.000000,4.000000,83.333336
1614130113.872798,41.000000,0.000000,-8.814308,11.459735,86.465157,52.662468,55.025238,34.865696,84.767220,4.896826,28.519861,17.890425,6.252197,-4.197875,3.365120,-0.808657,15.652246,17.734987,3.199514,18.765820,58.271896,-6.450346,-4.526943,-6.084826,-6.835958,-5.031655,-22.411829,-26.277515,-11.838195,1.019005,-2.512145,-51.572796,13.481917,19.916843,8064.000000,0.000000,4.000000,,,,0.000000,4.000000,4.000000,4.000000,4.000000,4.000000,4.000000,2.000000,4.000000,4.000000,4.000000,4.000000,4.000000,4.000000,4.000000,4.000000,4.000000,4.000000,4.000000,4.000000,4.000000,4.000000,4.000000,4.000000,4.000000,4.000000,4.000000,4.000000,4.000000,4.000000,4.000000,4.000000,4.000000,83.333336
1614130113.880546,42.000000,0.000000,-10.856775,10.422634,80.224846,45.943138,48.816368,31.753908,81.605530,0.276545,22.850315,13.257149,-11.189953,-9.321881,-20.740808,-9.525798,-13.081355,-14.590440,-21.931890,-13.560638,25.905933,-32.597744,-33.753185,-28.130024,-18.111174,-17.334316,-32.133007,-39.584572,-16.954561,1.017986,-4.048094,-63.316097,7.314589,8.614876,8064.000000,0.000000,4.000000,,,,0.000000,4.000000,4.000000,4.000000,4.000000,4.000000,4.000000,2.000000,4.000000,4.000000,4.000000,4.000000,4.000000,4.000000,4.000000,4.000000,4.000000,4.000000,4.000000,4.000000,4.000000,4.000000,4.000000,4.000000,4.000000,4.000000,4.000000,4.000000,4.000000,4.000000,4.000000,4.000000,4.000000,83.333336
1614130113.888195,43.000000,0.000000,-10.845919,11.437852,71.426674,43.333092,49.280373,31.209335,56.908543,-2.287834,18.212082,8.628508,-14.255686,-10.338201,-21.745708,-11.054733,-16.658018,-13.037388,-26.525343,-10.470155,27.931309,-31.539503,-41.924561,-33.230099,-20.144344,-32.701595,-32.100872,-42.109089,-17.450428,1.016968,-4.044046,-65.816879,4.743172,8.093440,8064.000000,0.000000,4.000000,,,,0.000000,4.000000,4.000000,4.000000,4.000000,4.000000,4.000000,2.000000,4.000000,4.000000,4.000000,4.000000,4.000000,4.000000,4.000000,4.000000,4.000000,4.000000,4.000000,4.000000,4.000000,4.000000,4.000000,4.000000,4.000000,4.000000,4.000000,4.000000,4.000000,4.000000,4.000000,4.000000,4.000000,83.333336
1614130113.895944,44.000000,0.000000,-10.835073,7.323850,67.252686,42.264118,49.743912,31.690947,65.569580,-2.285546,19.219509,8.107059,-7.061943,-9.302221,-17.621399,-9.505217,-7.410590,0.308983,-19.319330,4.924931,55.082867,-15.097708,-26.498020,-25.504560,-20.124201,-32.668896,-31.555952,-41.554161,-14.356054,1.015951,-9.681028,-64.212601,3.712788,8.085347,8064.000000,0.000000,4.000000,,,,0.000000,4.000000,4.000000,4.000000,4.000000,4.000000,4.000000,2.000000,4.000000,4.000000,4.000000,4.000000,4.000000,4.000000,4.000000,4.000000,4.000000,4.000000,4.000000,4.000000,4.000000,4.000000,4.000000,4.000000,4.000000,4.000000,4.000000,4.000000,4.000000,4.000000,4.000000,4.000000,4.000000,83.333336
1614130113.903593,45.000000,0.000000,-10.824238,3.213962,69.749535,40.683392,48.668526,31.146435,79.350166,-2.283261,19.200291,8.611772,-2.439497,-9.805739,-17.603777,-12.059814,-9.454461,-9.434916,-20.325653,1.330262,52.976501,-14.569789,-20.317677,-21.889313,-19.591255,-23.918278,-28.960293,-39.974144,-13.316057,1.014935,-11.209808,-61.071468,5.247537,9.615723,8064.000000,0.000000,4.000000,,,,0.000000,4.000000,4.000000,4.000000,4.000000,4.000000,4.000000,2.000000,4.000000,4.000000,4.000000,4.000000,4.000000,4.000000,4.000000,4.000000,4.000000,4.000000,4.000000,4.000000,4.000000,4.000000,4.000000,4.000000,4.000000,4.000000,4.000000,4.000000,4.000000,4.000000,4.000000,4.000000,4.000000,83.333336
1614130113.911442,46.000000,0.000000,-10.813414,5.262031,73.269531,42.181171,48.619858,31.115288,73.116966,-2.793798,17.642628,8.090340,-2.437057,-10.308755,-13.483610,-8.970831,-6.880905,-1.220353,-21.843788,10.559701,54.974804,-12.503938,-20.810179,-20.841784,-13.417818,-20.817436,-21.751846,-33.780323,-13.815561,1.013920,-5.044753,-57.420654,12.934597,17.811235,8064.000000,0.000000,4.000000,,,,0.000000,4.000000,4.000000,4.000000,4.000000,4.000000,4.000000,2.000000,4.000000,4.000000,4.000000,4.000000,4.000000,4.000000,4.000000,4.000000,4.000000,4.000000,4.000000,4.000000,4.000000,4.000000,4.000000,4.000000,4.000000,4.000000,4.000000,4.000000,4.000000,4.000000,4.000000,4.000000,4.000000,83.333336
1614130113.919191,47.000000,0.000000,-11.315420,6.795230,74.221901,43.677452,49.084057,31.596992,85.351547,-2.278184,20.189089,8.082249,0.129482,-9.785625,-6.803460,2.320191,-0.720177,19.806509,-18.745022,18.754269,72.355728,-2.747844,-14.635522,-16.205557,-8.276196,-20.796619,-19.165991,-28.618338,-13.801745,1.012906,-4.526887,-56.850410,13.947303,18.819065,8064.000000,0.000000,4.000000,,,,0.000000,4.000000,4.000000,4.000000,4.000000,4.000000,4.000000,2.000000,4.000000,4.000000,4.000000,4.000000,4.000000,4.000000,4.000000,4.000000,4.000000,4.000000,4.000000,4.000000,4.000000,4.000000,4.000000,4.000000,4.000000,4.000000,4.000000,4.000000,4.000000,4.000000,4.000000,4.000000,4.000000,83.333336
1614130113.927039,48.000000,0.000000,-10.791285,8.326897,74.147675,44.146595,49.547794,31.565395,104.240555,-2.275906,22.733002,8.074167,1.667814,-9.775840,-6.283836,1.292230,-9.950227,1.837984,-17.700636,-3.315767,61.001320,-13.001506,-17.184990,-12.086786,-8.780740,-17.698898,-22.223749,-30.128181,-14.300764,1.011893,-7.599283,-57.306381,2.651304,10.595118,8064.000000,0.000000,4.000000,,,,0.000000,4.000000,4.000000,4.000000,4.000000,4.000000,4.000000,2.000000,4.000000,4.000000,4.000000,4.000000,4.000000,4.000000,4.000000,4.000000,4.000000,4.000000,4.000000,4.000000,4.000000,4.000000,4.000000,4.000000,4.000000,4.000000,4.000000,4.000000,4.000000,4.000000,4.000000,4.000000,4.000000,83.333336
1614130113.934788,49.000000,0.000000,-8.216391,12.421133,73.560707,44.615269,48.472607,31.533831,83.110672,-4.324912,19.120525,8.578913,-1.923597,-9.766064,-11.918577,-9.991114,-20.196686,-22.266418,-20.759857,-16.645784,38.889038,-29.911581,-26.911394,-12.587521,-8.771958,-16.142738,-23.739986,-30.098053,-13.773643,1.010881,-2.463479,-56.223434,-4.530834,8.533241,8064.000000,0.000000,4.000000,,,,0.000000,4.000000,4.000000,4.000000,4.000000,4.000000,4.000000,2.000000,4.000000,4.000000,4.000000,4.000000,4.000000,4.000000,4.000000,4.000000,4.000000,4.000000,4.000000,4.000000,4.000000,4.000000,4.000000,4.000000,4.000000,4.000000,4.000000,4.000000,4.000000,4.000000,4.000000,4.000000,4.000000,83.333336
1614130113.942637,50.000000,0.000000,-7.182533,15.485636,70.923050,40.980907,45.347210,31.502296,59.950638,-4.833407,15.511662,8.570334,-5.511417,-10.269118,-18.060505,-15.622149,-21.202131,-13.526203,-21.764740,-2.270164,42.439892,-22.189362,-28.422945,-12.574933,-8.250366,-16.639416,-22.690605,-28.529493,-13.759870,1.009870,3.692831,-57.192852,-2.475021,12.627272,8064.000000,0.000000,4.000000,,,,0.000000,4.000000,4.000000,4.000000,4.000000,4.000000,4.000000,2.000000,4.000000,4.000000,4.000000,4.000000,4.000000,4.000000,4.000000,4.000000,4.000000,4.000000,4.000000,4.000000,4.000000,4.000000,4.000000,4.000000,4.000000,4.000000,4.000000,4.000000,4.000000,4.000000,4.000000,4.000000,4.000000,83.333336
1614130113.950386,51.000000,0.000000,-7.175351,14.444509,70.339302,37.350185,45.814682,31.470795,77.839401,-3.802933,18.060253,7.536123,-5.505906,-9.746029,-15.478342,-14.580885,-18.616827,-7.358830,-10.973743,2.347491,52.141041,-7.295378,-24.291958,-12.562358,-8.754936,-16.622776,-23.180735,-29.526606,-14.771750,1.008860,4.201958,-57.135658,-2.472546,12.614644,8064.000000,0.000000,4.000000,,,,0.000000,4.000000,4.000000,4.000000,4.000000,4.000000,4.000000,2.000000,4.000000,4.000000,4.000000,4.000000,4.000000,4.000000,4.000000,4.000000,4.000000,4.000000,4.000000,4.000000,4.000000,4.000000,4.000000,4.000000,4.000000,4.000000,4.000000,4.000000,4.000000,4.000000,4.000000,4.000000,4.000000,83.333336
1614130113.958235,52.000000,0.000000,-5.629714,14.430064,73.858704,39.364117,48.332973,31.952145,93.146179,-2.260668,19.067833,11.631151,-5.500400,-5.120898,-6.232094,-9.438099,-6.290517,-1.197625,2.370564,-4.834344,48.499157,-6.775262,-23.242023,-13.062616,-4.130797,-17.118975,-23.670376,-30.009899,-11.680056,1.007852,3.684936,-52.463139,-3.495714,12.602030,8064.000000,0.000000,4.000000,,,,0.000000,4.000000,4.000000,4.000000,4.000000,4.000000,4.000000,2.000000,4.000000,4.000000,4.000000,4.000000,4.000000,4.000000,4.000000,4.000000,4.000000,4.000000,4.000000,4.000000,4.000000,4.000000,4.000000,4.000000,4.000000,4.000000,4.000000,4.000000,4.000000,4.000000,4.000000,4.000000,4.000000,83.333336
1614130113.965983,53.000000,0.000000,-3.059982,14.928454,74.810486,38.299110,49.310280,28.330448,77.668419,3.382618,18.535944,17.773365,-5.494899,-1.013213,3.004907,3.391852,11.664492,20.854855,6.983578,3.375618,47.425018,-7.281308,-22.705961,-10.485451,1.514360,-16.589035,-23.646704,-26.902966,-4.488889,1.006844,0.604328,-48.820930,-2.979398,15.666351,8064.000000,0.000000,4.000000,,,,0.000000,4.000000,4.000000,4.000000,4.000000,4.000000,4.000000,2.000000,4.000000,4.000000,4.000000,4.000000,4.000000,4.000000,4.000000,4.000000,4.000000,4.000000,4.000000,4.000000,4.000000,4.000000,4.000000,4.000000,4.000000,4.000000,4.000000,4.000000,4.000000,4.000000,4.000000,4.000000,4.000000,83.333336
1614130113.973832,54.000000,0.000000,-3.056922,14.400705,66.530548,33.132607,48.748150,23.173914,69.385620,8.507441,19.030230,18.268414,-5.489404,1.039082,8.130107,10.055126,13.191288,23.398102,6.976594,14.654294,53.531437,-3.171462,-19.606333,-8.936503,1.512845,-14.521164,-23.110237,-25.850422,-1.920297,1.518657,-6.062943,-48.772110,-2.463598,15.137864,7936.000000,0.000000,4.000000,,,,0.000000,4.000000,4.000000,4.000000,4.000000,4.000000,4.000000,2.000000,4.000000,4.000000,4.000000,4.000000,4.000000,4.000000,4.000000,4.000000,4.000000,4.000000,4.000000,4.000000,4.000000,4.000000,4.000000,4.000000,4.000000,4.000000,4.000000,4.000000,4.000000,4.000000,4.000000,4.000000,4.000000,83.333336
1614130113.981581,55.000000,0.000000,-3.566685,14.386305,58.771713,31.561012,48.699402,20.073816,69.829056,5.934830,16.959917,16.198862,-5.483915,2.576505,7.096336,4.404046,2.921687,4.913166,2.867053,12.588358,55.529190,-5.219573,-19.073906,-12.517311,-0.027129,-12.455361,-24.625589,-31.978418,-3.456839,1.004318,-8.620983,-49.236160,-2.461135,13.071445,8064.000000,0.000000,4.000000,,,,0.000000,4.000000,4.000000,4.000000,4.000000,4.000000,4.000000,2.000000,4.000000,4.000000,4.000000,4.000000,4.000000,4.000000,4.000000,4.000000,4.000000,4.000000,4.000000,4.000000,4.000000,4.000000,4.000000,4.000000,4.000000,4.000000,4.000000,4.000000,4.000000,4.000000,4.000000,4.000000,4.000000,83.333336
1614130113.989430,56.000000,0.000000,-3.050298,14.884739,59.738583,33.067913,49.163521,20.053741,54.887432,2.339152,16.430136,15.669843,-4.965611,0.522646,0.422573,-1.241384,-4.773542,-0.732773,-9.956326,5.909103,46.242889,-13.932302,-25.721498,-16.607357,-4.642487,-14.494187,-28.190706,-37.587463,-6.530305,1.003314,-6.561080,-48.674103,-2.458674,13.058372,8064.000000,0.000000,4.000000,,,,0.000000,4.000000,4.000000,4.000000,4.000000,4.000000,4.000000,2.000000,4.000000,4.000000,4.000000,4.000000,4.000000,4.000000,4.000000,4.000000,4.000000,4.000000,4.000000,4.000000,4.000000,4.000000,4.000000,4.000000,4.000000,4.000000,4.000000,4.000000,4.000000,4.000000,4.000000,4.000000,4.000000,83.333336
1614130113.997179,57.000000,0.000000,-3.560068,14.869855,59.678844,32.522026,48.601540,20.546509,55.345367,2.336813,20.516270,16.166994,-5.473465,-6.657364,-6.244516,-3.804245,-13.486717,-3.296143,-21.228422,4.364732,43.119724,-19.046576,-31.336803,-17.103571,-14.894255,-16.530975,-31.239439,-37.037056,-14.728903,1.515131,-8.092980,-50.676712,-2.456215,9.455570,8064.000000,0.000000,4.000000,,,,0.000000,4.000000,4.000000,4.000000,4.000000,4.000000,4.000000,2.000000,4.000000,4.000000,4.000000,4.000000,4.000000,4.000000,4.000000,4.000000,4.000000,4.000000,4.000000,4.000000,4.000000,4.000000,4.000000,4.000000,4.000000,4.000000,4.000000,4.000000,4.000000,4.000000,4.000000,4.000000,4.000000,83.333336
1614130114.005027,58.000000,0.000000,-3.556508,12.290882,56.542240,32.489502,48.552937,19.500322,76.828484,-1.255268,22.547037,16.150827,-6.493633,-10.240450,-6.751092,-3.287621,-16.037334,-5.856950,-22.232834,5.898829,52.307373,-17.489067,-27.715723,-17.086468,-20.520386,-17.027266,-31.208200,-36.487198,-21.380840,-0.537666,-15.264375,-54.728600,-2.453759,2.266628,8064.000000,0.000000,4.000000,,,,0.000000,4.000000,4.000000,4.000000,4.000000,4.000000,4.000000,2.000000,4.000000,4.000000,4.000000,4.000000,4.000000,4.000000,4.000000,4.000000,4.000000,4.000000,4.000000,4.000000,4.000000,4.000000,4.000000,4.000000,4.000000,4.000000,4.000000,4.000000,4.000000,4.000000,4.000000,4.000000,4.000000,83.333336
1614130114.012776,59.000000,0.000000,-2.527311,10.740129,54.947239,32.457012,49.017204,19.993641,61.367039,-1.766833,23.037310,14.596214,-4.435857,-9.204569,-7.257162,-1.233051,-11.918732,-3.799811,-18.620857,0.764725,46.101219,-17.984398,-24.611084,-16.043739,-19.474224,-17.010239,-26.561607,-37.476353,-19.820997,-5.152513,-19.351675,-56.725151,-4.502587,0.213079,8064.000000,0.000000,4.000000,,,,0.000000,4.000000,4.000000,4.000000,4.000000,4.000000,4.000000,2.000000,4.000000,4.000000,4.000000,4.000000,4.000000,4.000000,4.000000,4.000000,4.000000,4.000000,4.000000,4.000000,4.000000,4.000000,4.000000,4.000000,4.000000,4.000000,4.000000,4.000000,4.000000,4.000000,4.000000,4.000000,4.000000,83.333336
1614130114.020625,60.000000,0.000000,-5.601707,10.729389,54.379471,32.424557,48.455364,20.486469,28.997978,-1.765066,21.988632,9.966233,-7.508345,-13.810748,-18.531956,-16.103613,-27.291430,-19.180626,-21.679159,-15.133475,23.491016,-25.145901,-30.227497,-16.540516,-19.454750,-16.480408,-28.586327,-37.438877,-16.724255,-6.685822,-18.819502,-56.668427,-6.036546,1.751328,8064.000000,0.000000,4.000000,,,,0.000000,4.000000,4.000000,4.000000,4.000000,4.000000,4.000000,2.000000,4.000000,4.000000,4.000000,4.000000,4.000000,4.000000,4.000000,4.000000,4.000000,4.000000,4.000000,4.000000,4.000000,4.000000,4.000000,4.000000,4.000000,4.000000,4.000000,4.000000,4.000000,4.000000,4.000000,4.000000,4.000000,83.333336
1614130114.028374,61.000000,0.000000,-10.211490,7.641737,52.273808,32.904953,46.355629,18.414700,25.892057,-13.558172,15.299976,4.828063,-14.680324,-20.976425,-34.923679,-38.138790,-47.776958,-36.084522,-32.939533,-23.323471,21.416245,-30.761780,-35.838295,-24.216284,-19.948116,-16.463926,-37.788509,-35.862976,-17.733171,-6.166316,-17.775042,-56.098938,-6.030509,2.262397,8064.000000,0.000000,4.000000,,,,0.000000,4.000000,4.000000,4.000000,4.000000,4.000000,4.000000,2.000000,4.000000,4.000000,4.000000,4.000000,4.000000,4.000000,4.000000,4.000000,4.000000,4.000000,4.000000,4.000000,4.000000,4.000000,4.000000,4.000000,4.000000,4.000000,4.000000,4.000000,4.000000,4.000000,4.000000,4.000000,4.000000,83.333336
1614130114.036023,62.000000,0.000000,-11.226919,3.018711,51.708714,32.872047,45.283630,16.857824,54.071293,-18.672819,10.669291,3.284773,-10.563079,-18.391346,-31.299013,-29.382704,-33.370205,-15.535618,-31.368132,-6.377070,40.882008,-24.577173,-35.289639,-20.089504,-19.415348,-19.524385,-37.750721,-35.827114,-16.689796,-6.160150,-18.782907,-55.530018,-6.024479,1.234493,8064.000000,0.000000,4.000000,,,,0.000000,4.000000,4.000000,4.000000,4.000000,4.000000,4.000000,2.000000,4.000000,4.000000,4.000000,4.000000,4.000000,4.000000,4.000000,4.000000,4.000000,4.000000,4.000000,4.000000,4.000000,4.000000,4.000000,4.000000,4.000000,4.000000,4.000000,4.000000,4.000000,4.000000,4.000000,4.000000,4.000000,83.333336
1614130114.043772,63.000000,0.000000,-10.702871,3.015692,53.708286,33.351997,44.725529,18.892248,51.453121,-3.269531,17.838110,8.409693,2.780818,-10.680647,-9.729253,-3.712295,-6.670170,4.992739,-12.875224,14.142128,52.123177,-14.296185,-29.100502,-3.659158,-19.395931,-18.992041,-31.046305,-36.304108,-13.596184,-6.666810,-18.764124,-55.474487,-5.505634,3.797362,8064.000000,0.000000,4.000000,,,,0.000000,4.000000,4.000000,4.000000,4.000000,4.000000,4.000000,2.000000,4.000000,4.000000,4.000000,4.000000,4.000000,4.000000,4.000000,4.000000,4.000000,4.000000,4.000000,4.000000,4.000000,4.000000,4.000000,4.000000,4.000000,4.000000,4.000000,4.000000,4.000000,4.000000,4.000000,4.000000,4.000000,83.333336
1614130114.051420,64.000000,0.000000,-10.692168,3.525497,56.218681,32.805824,45.193623,20.924639,36.017052,5.964507,22.948477,15.067950,7.393421,-8.618684,-2.027215,-3.195762,-5.637858,-3.217382,-8.759785,4.897216,48.481308,-15.307530,-23.430376,-3.655498,-19.376535,-13.844844,-29.989616,-31.139597,-13.069767,-6.147323,-16.181257,-55.931835,-3.448846,9.434589,0.000000,196.000000,4.000000,,,,0.000000,4.000000,4.000000,4.000000,4.000000,4.000000,4.000000,2.000000,4.000000,4.000000,4.000000,4.000000,4.000000,4.000000,4.000000,4.000000,4.000000,4.000000,4.000000,4.000000,4.000000,4.000000,4.000000,4.000000,4.000000,4.000000,4.000000,4.000000,4.000000,4.000000,4.000000,4.000000,4.000000,83.333336
1614130114.059169,65.000000,0.000000,-11.194297,3.009151,55.136822,32.773018,45.661251,19.878073,48.801548,-1.220944,22.412708,16.078524,4.821926,-10.148527,-9.717496,-11.397695,-13.837349,-4.752626,-20.545897,-10.492296,40.227699,-21.958889,-23.406944,-16.472355,-19.357159,-14.856640,-29.446806,-24.441792,-13.569518,-6.141175,-11.036872,-56.901543,-1.394115,6.861053,0.000000,186.000000,4.000000,,,,0.000000,4.000000,4.000000,4.000000,4.000000,4.000000,4.000000,2.000000,4.000000,4.000000,4.000000,4.000000,4.000000,4.000000,4.000000,4.000000,4.000000,4.000000,4.000000,4.000000,4.000000,4.000000,4.000000,4.000000,4.000000,4.000000,4.000000,4.000000,4.000000,4.000000,4.000000,4.000000,4.000000,83.333336
1614130114.066818,66.000000,0.000000,-10.670282,3.006142,50.979122,31.714603,41.513023,19.858194,63.624542,-3.271005,22.390295,10.421419,5.329924,-9.112738,-10.220599,-9.847836,-12.285049,-1.670951,-20.525351,-0.738214,39.161831,-21.424110,-26.460461,-16.968704,-19.337803,-19.969988,-31.468641,-28.519913,-13.555948,-6.135034,-10.513014,-60.947205,-3.444003,-2.889398,0.000000,97.000000,4.000000,,,,0.000000,4.000000,4.000000,4.000000,4.000000,4.000000,4.000000,2.000000,4.000000,4.000000,4.000000,4.000000,4.000000,4.000000,4.000000,4.000000,4.000000,4.000000,4.000000,4.000000,4.000000,4.000000,4.000000,4.000000,4.000000,4.000000,4.000000,4.000000,4.000000,4.000000,4.000000,4.000000,4.000000,83.333336
1614130114.074567,67.000000,0.000000,-10.659612,3.515956,46.312756,27.067503,34.804844,20.351156,57.919891,-2.242094,17.752520,2.205869,6.350235,-9.103624,-11.748840,-19.581577,-20.477894,-18.592358,-17.940723,1.313806,36.558567,-22.941147,-28.998104,-16.951735,-19.318464,-21.488480,-42.719223,-44.901649,-14.055213,-6.128899,-15.630706,-70.629852,-9.594405,-12.630098,0.000000,181.000000,4.000000,,,,0.000000,4.000000,4.000000,4.000000,4.000000,4.000000,4.000000,2.000000,4.000000,4.000000,4.000000,4.000000,4.000000,4.000000,4.000000,4.000000,4.000000,4.000000,4.000000,4.000000,4.000000,4.000000,4.000000,4.000000,4.000000,4.000000,4.000000,4.000000,4.000000,4.000000,4.000000,4.000000,4.000000,83.333336
1614130114.082216,68.000000,0.000000,-10.648952,3.512440,38.574139,17.809668,33.231579,19.305164,53.246586,-7.880877,7.991178,-2.924542,5.831064,-12.171444,-26.608887,-39.049175,-36.354851,-30.368637,-32.281757,-24.328533,19.086111,-37.277180,-37.687054,-32.832218,-18.786325,-23.518274,-46.266251,-56.138798,-16.092440,-6.122770,-20.743280,-79.277168,-13.174555,-21.335417,0.000000,204.000000,4.000000,,,,0.000000,4.000000,4.000000,4.000000,4.000000,4.000000,4.000000,2.000000,4.000000,4.000000,4.000000,4.000000,4.000000,4.000000,4.000000,4.000000,4.000000,4.000000,4.000000,4.000000,4.000000,4.000000,4.000000,4.000000,4.000000,4.000000,4.000000,4.000000,4.000000,4.000000,4.000000,4.000000,4.000000,83.333336
1614130114.089965,69.000000,0.000000,-10.125483,3.508928,32.381718,13.176473,34.223988,16.721756,53.706161,-13.514022,2.854981,-6.511361,6.338054,-12.159273,-29.659201,-39.522945,-34.267216,-21.620319,-40.454605,-29.945230,8.810615,-43.906570,-42.777573,-39.978874,-18.254719,-29.135780,-41.604599,-51.980095,-18.127628,-6.116647,-22.773819,-76.120964,-13.161380,-23.878183,0.000000,168.000000,4.000000,,,,0.000000,4.000000,4.000000,4.000000,4.000000,4.000000,4.000000,2.000000,4.000000,4.000000,4.000000,4.000000,4.000000,4.000000,4.000000,4.000000,4.000000,4.000000,4.000000,4.000000,4.000000,4.000000,4.000000,4.000000,4.000000,4.000000,4.000000,4.000000,4.000000,4.000000,4.000000,4.000000,4.000000,83.333336
1614130114.097614,70.000000,0.000000,-11.140998,3.505419,37.477539,19.317142,33.164124,16.192215,44.934505,-13.500507,5.929049,-8.043311,5.818895,-10.608652,-15.270567,-27.175732,-16.797049,-14.932032,-24.516712,-4.274260,30.853086,-29.503689,-28.375820,-23.528639,-19.262106,-31.670748,-42.588634,-44.235809,-16.058220,-5.597710,-19.161303,-62.711514,-12.635398,-15.136357,0.000000,201.000000,4.000000,,,,0.000000,4.000000,4.000000,4.000000,4.000000,4.000000,4.000000,2.000000,4.000000,4.000000,4.000000,4.000000,4.000000,4.000000,4.000000,4.000000,4.000000,4.000000,4.000000,4.000000,4.000000,4.000000,4.000000,4.000000,4.000000,4.000000,4.000000,4.000000,4.000000,4.000000,4.000000,4.000000,4.000000,83.333336
1614130114.105363,71.000000,0.000000,-9.591395,4.014734,51.286217,28.528595,37.746342,19.252945,42.838287,-9.384443,19.769274,-0.342960,5.300256,-8.033940,-8.588630,-17.404966,-7.036663,-15.942740,-7.569119,10.601810,58.514542,-12.038288,-6.808983,-6.069213,-18.730022,-25.998051,-32.289635,-36.499264,-7.837033,-6.104933,-8.885731,-51.366749,-13.648404,-3.839170,0.000000,177.000000,4.000000,,,,0.000000,4.000000,4.000000,4.000000,4.000000,4.000000,4.000000,2.000000,4.000000,4.000000,4.000000,4.000000,4.000000,4.000000,4.000000,4.000000,4.000000,4.000000,4.000000,4.000000,4.000000,4.000000,4.000000,4.000000,4.000000,4.000000,4.000000,4.000000,4.000000,4.000000,4.000000,4.000000,4.000000,83.333336
1614130114.113012,72.000000,0.000000,-7.017702,4.010719,56.363136,30.038528,47.965008,23.336256,55.103142,-4.759674,33.082840,13.503537,6.833417,-8.538728,-9.605681,-12.772177,-6.516806,-16.439619,-7.048729,8.539926,58.456028,-8.949327,-3.725251,-4.524682,-18.198471,-13.151541,-16.359911,-28.770458,-4.752273,-5.586008,-5.799922,-46.187180,-12.609115,0.267234,0.000000,170.000000,4.000000,,,,0.000000,4.000000,4.000000,4.000000,4.000000,4.000000,4.000000,2.000000,4.000000,4.000000,4.000000,4.000000,4.000000,4.000000,4.000000,4.000000,4.000000,4.000000,4.000000,4.000000,4.000000,4.000000,4.000000,4.000000,4.000000,4.000000,4.000000,4.000000,4.000000,4.000000,4.000000,4.000000,4.000000,83.333336
1614130114.120760,73.000000,0.000000,-8.036325,2.981067,50.665745,26.931566,48.429863,22.800100,58.124962,-7.831838,26.383089,13.490033,2.724020,-17.248137,-11.647358,-18.913250,-11.125673,-12.320615,-17.810911,4.428822,42.500134,-16.632685,-20.644602,-16.827850,-23.308479,-6.984543,-31.728165,-33.869892,-13.465469,-5.580421,-16.050531,-49.730736,-13.109325,-2.297136,0.000000,192.000000,4.000000,,,,0.000000,4.000000,4.000000,4.000000,4.000000,4.000000,4.000000,2.000000,4.000000,4.000000,4.000000,4.000000,4.000000,4.000000,4.000000,4.000000,4.000000,4.000000,4.000000,4.000000,4.000000,4.000000,4.000000,4.000000,4.000000,4.000000,4.000000,4.000000,4.000000,4.000000,4.000000,4.000000,4.000000,83.333336
1614130114.128409,74.000000,0.000000,-10.592391,5.029368,47.538158,24.853352,35.048100,20.726017,50.374531,-17.054775,11.484911,0.143210,-9.586397,-26.974480,-23.430582,-32.227669,-25.473522,-14.359576,-33.690536,-12.498684,30.662762,-25.334002,-36.521393,-33.221279,-32.003120,-19.798071,-54.773361,-49.733459,-21.657133,-7.113303,-25.778070,-59.937416,-18.224422,-12.038429,0.000000,182.000000,4.000000,,,,0.000000,4.000000,4.000000,4.000000,4.000000,4.000000,4.000000,2.000000,4.000000,4.000000,4.000000,4.000000,4.000000,4.000000,4.000000,4.000000,4.000000,4.000000,4.000000,4.000000,4.000000,4.000000,4.000000,4.000000,4.000000,4.000000,4.000000,4.000000,4.000000,4.000000,4.000000,4.000000,4.000000,83.333336
1614130114.136158,75.000000,0.000000,-10.581799,2.973057,48.516262,22.264397,24.756641,19.166830,53.401077,-21.653105,9.934964,-7.549241,-17.781939,-28.998787,-36.740486,-37.323647,-37.755741,-27.678551,-42.887615,-27.870800,29.093637,-28.898411,-37.510513,-39.341904,-34.022396,-34.137249,-44.462177,-54.299110,-20.097013,-10.695932,-25.752293,-66.544144,-23.334402,-20.231518,0.000000,168.000000,4.000000,,,,0.000000,4.000000,4.000000,4.000000,4.000000,4.000000,4.000000,2.000000,4.000000,4.000000,4.000000,4.000000,4.000000,4.000000,4.000000,4.000000,4.000000,4.000000,4.000000,4.000000,4.000000,4.000000,4.000000,4.000000,4.000000,4.000000,4.000000,4.000000,4.000000,4.000000,4.000000,4.000000,4.000000,83.333336
1614130114.143807,76.000000,0.000000,-10.058396,-5.747865,47.442104,19.678030,25.757526,20.173304,53.860497,-20.605810,13.001952,-6.003230,-16.738516,-27.431326,-36.703743,-34.209400,-38.230804,-30.214973,-40.793446,-20.150623,33.167110,-26.818230,-31.319157,-34.687176,-29.885811,-34.103111,-33.135662,-49.116608,-20.589737,-14.787801,-24.188080,-65.964775,-24.336708,-20.211287,0.000000,200.000000,4.000000,,,,0.000000,4.000000,4.000000,4.000000,4.000000,4.000000,4.000000,2.000000,4.000000,4.000000,4.000000,4.000000,4.000000,4.000000,4.000000,4.000000,4.000000,4.000000,4.000000,4.000000,4.000000,4.000000,4.000000,4.000000,4.000000,4.000000,4.000000,4.000000,4.000000,4.000000,4.000000,4.000000,4.000000,83.333336
1614130114.151656,77.000000,0.000000,-10.561159,-11.895964,47.394661,17.607069,26.244589,20.665951,45.088688,-19.559565,9.399207,-5.484406,-16.721777,-27.916716,-32.564476,-36.226475,-36.141293,-11.723221,-39.727013,-9.361241,25.954454,-28.842693,-35.390400,-35.165310,-30.368746,-29.966442,-44.384579,-52.144413,-29.799917,-16.311474,-26.727993,-68.462914,-24.825193,-21.729538,0.000000,197.000000,4.000000,,,,0.000000,4.000000,4.000000,4.000000,4.000000,4.000000,4.000000,2.000000,4.000000,4.000000,4.000000,4.000000,4.000000,4.000000,4.000000,4.000000,4.000000,4.000000,4.000000,4.000000,4.000000,4.000000,4.000000,4.000000,4.000000,4.000000,4.000000,4.000000,4.000000,4.000000,4.000000,4.000000,4.000000,83.333336
1614130114.159405,78.000000,0.000000,-10.550597,-11.371246,48.372906,16.563822,24.679882,18.081182,68.633347,-21.591286,6.312885,-8.555845,-17.730696,-25.837517,-32.531914,-37.215889,-33.541050,-1.455087,-37.123180,-9.864700,17.210550,-29.839493,-38.944756,-35.130146,-29.825556,-31.987759,-42.288914,-49.528164,-32.847038,-17.320805,-25.162804,-71.471375,-22.236265,-22.220629,0.000000,192.000000,4.000000,,,,0.000000,4.000000,4.000000,4.000000,4.000000,4.000000,4.000000,2.000000,4.000000,4.000000,4.000000,4.000000,4.000000,4.000000,4.000000,4.000000,4.000000,4.000000,4.000000,4.000000,4.000000,4.000000,4.000000,4.000000,4.000000,4.000000,4.000000,4.000000,4.000000,4.000000,4.000000,4.000000,4.000000,83.333336
1614130114.167254,79.000000,0.000000,-10.027226,-10.847055,47.298893,20.137001,30.296228,17.037460,101.385223,-20.544054,10.921956,-5.470366,-13.610401,-20.683474,-28.909637,-24.870979,-23.251097,-2.992094,-23.239904,-1.136887,37.193340,-19.040422,-24.034016,-19.710400,-23.129065,-31.442949,-22.759443,-33.068382,-24.609064,-16.790663,-18.470974,-63.194778,-16.060183,-11.941998,0.000000,181.000000,4.000000,,,,0.000000,4.000000,4.000000,4.000000,4.000000,4.000000,4.000000,2.000000,4.000000,4.000000,4.000000,4.000000,4.000000,4.000000,4.000000,4.000000,4.000000,4.000000,4.000000,4.000000,4.000000,4.000000,4.000000,4.000000,4.000000,4.000000,4.000000,4.000000,4.000000,4.000000,4.000000,4.000000,4.000000,83.333336
1614130114.175002,80.000000,0.000000,-10.017200,-10.836208,49.815697,24.732248,40.522343,20.097345,90.514610,-11.292741,17.577702,6.842796,-6.930124,-16.560226,-22.726881,-12.025597,-13.997077,-0.937819,-12.960255,9.120660,60.745892,-11.329074,-11.702289,-7.382997,-18.490551,-23.719200,-15.044376,-25.855825,-19.969070,-16.773872,-13.837119,-51.849533,-12.454379,-2.699286,0.000000,194.000000,4.000000,,,,0.000000,4.000000,4.000000,4.000000,4.000000,4.000000,4.000000,2.000000,4.000000,4.000000,4.000000,4.000000,4.000000,4.000000,4.000000,4.000000,4.000000,4.000000,4.000000,4.000000,4.000000,4.000000,4.000000,4.000000,4.000000,4.000000,4.000000,4.000000,4.000000,4.000000,4.000000,4.000000,4.000000,83.333336
1614130114.182851,81.000000,0.000000,-12.058464,-8.261270,61.047932,24.194696,44.584385,22.641352,58.116402,-2.050679,21.149866,12.989799,-4.871912,-16.030846,-20.652872,-16.116135,-16.547182,-9.142010,-20.639603,-3.708973,43.249249,-21.061335,-22.972637,-15.580742,-20.523342,-18.054455,-21.183178,-30.958174,-25.077307,-17.269918,-13.310461,-50.259220,-10.390642,-1.158125,0.000000,175.000000,4.000000,,,,0.000000,4.000000,4.000000,4.000000,4.000000,4.000000,4.000000,2.000000,4.000000,4.000000,4.000000,4.000000,4.000000,4.000000,4.000000,4.000000,4.000000,4.000000,4.000000,4.000000,4.000000,4.000000,4.000000,4.000000,4.000000,4.000000,4.000000,4.000000,4.000000,4.000000,4.000000,4.000000,4.000000,83.333336
1614130114.190600,82.000000,0.000000,-14.097688,-6.714546,68.679192,25.196142,44.539799,24.157171,69.853157,-3.074269,22.154358,11.951169,-5.379861,-16.527636,-21.657860,-21.228224,-20.120378,-19.389278,-28.311270,-18.577059,19.103434,-30.271042,-34.744537,-26.847212,-22.554100,-20.600502,-24.751740,-32.465679,-28.129152,-16.739828,-13.809972,-52.260242,-6.277688,1.919956,0.000000,198.000000,4.000000,,,,0.000000,4.000000,4.000000,4.000000,4.000000,4.000000,4.000000,2.000000,4.000000,4.000000,4.000000,4.000000,4.000000,4.000000,4.000000,4.000000,4.000000,4.000000,4.000000,4.000000,4.000000,4.000000,4.000000,4.000000,4.000000,4.000000,4.000000,4.000000,4.000000,4.000000,4.000000,4.000000,4.000000,83.333336
1614130114.198449,83.000000,0.000000,-14.596411,-7.220652,55.790001,26.196587,41.418335,23.620193,102.603813,-5.635297,22.132204,12.964859,-4.861660,-15.998287,-20.097740,-14.540329,-15.484874,-10.651940,-25.718857,-15.994379,25.238176,-26.651028,-34.709793,-25.794724,-22.018726,-26.220928,-24.726988,-34.997314,-27.075382,-16.723089,-15.847444,-50.156700,-6.784230,-0.646067,0.000000,192.000000,4.000000,,,,0.000000,4.000000,4.000000,4.000000,4.000000,4.000000,4.000000,2.000000,4.000000,4.000000,4.000000,4.000000,4.000000,4.000000,4.000000,4.000000,4.000000,4.000000,4.000000,4.000000,4.000000,4.000000,4.000000,4.000000,4.000000,4.000000,4.000000,4.000000,4.000000,4.000000,4.000000,4.000000,4.000000,83.333336
1614130114.206198,84.000000,0.000000,-14.068994,-7.726252,35.734211,15.913980,33.684612,15.904266,96.347366,-5.116841,22.110071,8.849330,-5.369619,-17.007931,-21.103285,-15.551430,-15.982210,-14.231031,-26.205957,-17.004026,23.674477,-29.701300,-39.803288,-26.281750,-21.996708,-27.220348,-31.368927,-43.167446,-28.073948,-17.219187,-20.446981,-50.619366,-14.469754,-12.953113,0.000000,202.000000,4.000000,,,,0.000000,4.000000,4.000000,4.000000,4.000000,4.000000,4.000000,2.000000,4.000000,4.000000,4.000000,4.000000,4.000000,4.000000,4.000000,4.000000,4.000000,4.000000,4.000000,4.000000,4.000000,4.000000,4.000000,4.000000,4.000000,4.000000,4.000000,4.000000,4.000000,4.000000,4.000000,4.000000,4.000000,83.333336
1614130114.214046,85.000000,0.000000,-14.054925,-6.692885,33.134373,9.744220,33.650925,13.324259,82.917686,-6.650186,22.600782,-1.415930,-4.851429,-16.990921,-21.595001,-25.279469,-19.555971,-31.139877,-27.205393,-17.499842,15.958495,-33.261341,-41.814766,-27.793930,-22.487532,-27.193127,-39.542686,-40.560177,-26.507412,-16.176327,-22.477816,-52.107208,-15.480926,-12.940160,0.000000,206.000000,4.000000,,,,0.000000,4.000000,4.000000,4.000000,4.000000,4.000000,4.000000,2.000000,4.000000,4.000000,4.000000,4.000000,4.000000,4.000000,4.000000,4.000000,4.000000,4.000000,4.000000,4.000000,4.000000,4.000000,4.000000,4.000000,4.000000,4.000000,4.000000,4.000000,4.000000,4.000000,4.000000,4.000000,4.000000,83.333336
1614130114.221795,86.000000,0.000000,-14.040870,-2.583628,45.408932,26.657553,49.514709,26.131447,87.962975,-2.028151,24.629463,0.123948,-0.231193,-10.820085,-9.265715,-17.049061,-7.228723,-15.724122,-15.383316,4.056119,41.070744,-15.279363,-23.311413,-15.458444,-22.465044,-27.678755,-26.682631,-28.724743,-18.275778,-11.544765,-20.916876,-47.439716,-8.285957,0.406114,0.000000,187.000000,4.000000,,,,0.000000,4.000000,4.000000,4.000000,4.000000,4.000000,4.000000,2.000000,4.000000,4.000000,4.000000,4.000000,4.000000,4.000000,4.000000,4.000000,4.000000,4.000000,4.000000,4.000000,4.000000,4.000000,4.000000,4.000000,4.000000,4.000000,4.000000,4.000000,4.000000,4.000000,4.000000,4.000000,4.000000,83.333336
1614130114.229644,87.000000,0.000000,-14.026829,0.495879,54.081470,40.989868,61.260067,35.336086,78.644241,5.153364,26.656116,10.380234,2.845961,-4.655418,4.589705,0.403886,7.650301,6.342884,-4.598701,19.949499,65.645058,0.633353,-7.903486,-4.160933,-22.442579,-22.010050,-8.194409,-24.080635,-12.616475,-8.456297,-18.844677,-41.238430,-4.687928,7.072374,0.000000,204.000000,4.000000,,,,0.000000,4.000000,4.000000,4.000000,4.000000,4.000000,4.000000,2.000000,4.000000,4.000000,4.000000,4.000000,4.000000,4.000000,4.000000,4.000000,4.000000,4.000000,4.000000,4.000000,4.000000,4.000000,4.000000,4.000000,4.000000,4.000000,4.000000,4.000000,4.000000,4.000000,4.000000,4.000000,4.000000,83.333336
1614130114.237393,88.000000,0.000000,-14.012802,-0.017438,54.027390,32.743752,54.019321,34.787930,65.745079,-1.005636,25.090998,10.882674,1.304654,-5.676404,0.995372,0.403482,0.463163,-5.458331,-9.209488,7.621857,53.271717,-11.162152,-13.023788,-11.336260,-22.420135,-13.782912,-17.416985,-25.082195,-12.603859,-8.960661,-17.800192,-41.710011,-5.708880,5.526840,0.000000,206.000000,4.000000,,,,0.000000,4.000000,4.000000,4.000000,4.000000,4.000000,4.000000,2.000000,4.000000,4.000000,4.000000,4.000000,4.000000,4.000000,4.000000,4.000000,4.000000,4.000000,4.000000,4.000000,4.000000,4.000000,4.000000,4.000000,4.000000,4.000000,4.000000,4.000000,4.000000,4.000000,4.000000,4.000000,4.000000,83.333336
1614130114.245241,89.000000,0.000000,-14.511610,0.495400,53.973362,27.582802,46.785816,34.753139,79.525490,-5.620015,25.065907,7.794868,1.816170,-6.183548,-7.210752,-6.263588,-8.255249,-7.504155,-16.892586,-3.667816,39.885113,-25.509964,-19.677431,-23.632616,-22.910536,-13.256309,-36.373928,-24.544292,-13.104075,-9.464521,-17.782393,-44.232403,-6.215992,5.008493,0.000000,193.000000,4.000000,,,,0.000000,4.000000,4.000000,4.000000,4.000000,4.000000,4.000000,2.000000,4.000000,4.000000,4.000000,4.000000,4.000000,4.000000,4.000000,4.000000,4.000000,4.000000,4.000000,4.000000,4.000000,4.000000,4.000000,4.000000,4.000000,4.000000,4.000000,4.000000,4.000000,4.000000,4.000000,4.000000,4.000000,83.333336
1614130114.252990,90.000000,0.000000,-13.984278,3.571828,55.457851,34.734707,51.354412,31.641464,83.035713,1.565093,26.579302,8.812715,2.839994,-4.126083,-4.639438,-6.257324,-7.221353,5.323863,-15.337232,1.464056,41.383690,-21.894711,-18.632113,-23.096163,-22.374805,-16.319975,-33.773449,-24.006927,-12.578151,-8.942236,-17.764608,-43.162529,-5.184135,6.541946,0.000000,218.000000,4.000000,,,,0.000000,4.000000,4.000000,4.000000,4.000000,4.000000,4.000000,2.000000,4.000000,4.000000,4.000000,4.000000,4.000000,4.000000,4.000000,4.000000,4.000000,4.000000,4.000000,4.000000,4.000000,4.000000,4.000000,4.000000,4.000000,4.000000,4.000000,4.000000,4.000000,4.000000,4.000000,4.000000,4.000000,83.333336
1614130114.260839,91.000000,0.000000,-13.970293,4.081077,54.889572,35.725613,50.790237,22.379053,51.670624,-4.590319,22.450159,4.188518,-3.316692,-7.711700,-12.327106,-10.353631,-15.932079,-14.168641,-14.809073,1.975413,39.803844,-20.334354,-18.613480,-18.970503,-22.352430,-15.790835,-25.534548,-24.495741,-12.565573,-9.446115,-15.182742,-43.632187,-5.691772,6.535404,0.000000,192.000000,4.000000,,,,0.000000,4.000000,4.000000,4.000000,4.000000,4.000000,4.000000,2.000000,4.000000,4.000000,4.000000,4.000000,4.000000,4.000000,4.000000,4.000000,4.000000,4.000000,4.000000,4.000000,4.000000,4.000000,4.000000,4.000000,4.000000,4.000000,4.000000,4.000000,4.000000,4.000000,4.000000,4.000000,4.000000,83.333336
1614130114.268588,92.000000,0.000000,-14.981964,3.564175,54.321861,29.023222,39.457397,18.254110,45.977928,-16.380600,15.248222,1.620226,-9.467221,-11.806553,-25.135292,-17.009945,-26.685379,-36.205753,-16.845547,0.947797,48.481991,-21.339663,-19.107687,-19.464352,-23.355719,-15.775044,-24.483374,-24.984066,-13.065828,-8.923848,-13.629098,-47.691120,-5.686080,2.939125,0.000000,168.000000,4.000000,,,,0.000000,4.000000,4.000000,4.000000,4.000000,4.000000,4.000000,2.000000,4.000000,4.000000,4.000000,4.000000,4.000000,4.000000,4.000000,4.000000,4.000000,4.000000,4.000000,4.000000,4.000000,4.000000,4.000000,4.000000,4.000000,4.000000,4.000000,4.000000,4.000000,4.000000,4.000000,4.000000,4.000000,83.333336
1614130114.276437,93.000000,0.000000,-13.428520,3.560611,55.806004,26.942915,35.828197,19.774319,78.752464,-2.005245,14.720153,10.336555,-5.355190,-4.615259,-15.879388,-15.967293,-18.453566,-19.759293,-13.751779,7.100695,58.177097,-17.728579,-19.601400,-19.957708,-19.742620,-15.759270,-23.433249,-24.446260,-13.052762,-9.427745,-14.128289,-48.156250,-5.680394,-0.653558,0.000000,198.000000,4.000000,,,,0.000000,4.000000,4.000000,4.000000,4.000000,4.000000,4.000000,2.000000,4.000000,4.000000,4.000000,4.000000,4.000000,4.000000,4.000000,4.000000,4.000000,4.000000,4.000000,4.000000,4.000000,4.000000,4.000000,4.000000,4.000000,4.000000,4.000000,4.000000,4.000000,4.000000,4.000000,4.000000,4.000000,83.333336
1614130114.284185,94.000000,0.000000,-6.748425,3.557050,57.801479,28.454435,43.997498,19.241724,89.442940,16.458298,20.346458,15.454424,1.829652,3.081664,1.059569,-12.874403,-7.153060,-0.765174,-8.609821,2.991030,37.093277,-22.839054,-23.684362,-19.424931,-12.543390,-15.743510,-24.948277,-25.447456,-13.039709,-9.931137,-14.114161,-46.569633,-5.674713,0.372737,0.000000,215.000000,4.000000,,,,0.000000,4.000000,4.000000,4.000000,4.000000,4.000000,4.000000,2.000000,4.000000,4.000000,4.000000,4.000000,4.000000,4.000000,4.000000,4.000000,4.000000,4.000000,4.000000,4.000000,4.000000,4.000000,4.000000,4.000000,4.000000,4.000000,4.000000,4.000000,4.000000,4.000000,4.000000,4.000000,4.000000,83.333336
1614130114.291834,95.000000,0.000000,-2.639113,3.553493,58.256496,28.425980,48.568882,18.709661,65.250931,10.287994,22.377394,9.285123,2.340643,1.540121,0.545689,-13.374349,-7.658728,-3.328511,-9.626852,-6.755551,21.671570,-31.021343,-27.250422,-19.405506,-9.966744,-18.291868,-31.077175,-27.986111,-13.026670,-7.357103,-14.100047,-48.574345,-6.181859,2.423646,0.000000,174.000000,4.000000,,,,0.000000,4.000000,4.000000,4.000000,4.000000,4.000000,4.000000,2.000000,4.000000,4.000000,4.000000,4.000000,4.000000,4.000000,4.000000,4.000000,4.000000,4.000000,4.000000,4.000000,4.000000,4.000000,4.000000,4.000000,4.000000,4.000000,4.000000,4.000000,4.000000,4.000000,4.000000,4.000000,4.000000,83.333336
1614130114.299583,96.000000,0.000000,-2.636474,3.549940,58.198242,27.884733,46.469032,19.203772,63.134399,0.021296,21.329376,6.711735,1.312662,-2.051163,-4.070242,-13.873796,-9.189530,-4.863644,-12.181328,2.481974,45.752464,-23.810835,-25.171890,-18.360458,-11.495239,-19.812038,-31.046097,-28.983767,-13.013643,-4.785644,-14.085947,-51.602692,-5.662857,1.395582,8064.000000,0.000000,4.000000,,,,0.000000,4.000000,4.000000,4.000000,4.000000,4.000000,4.000000,2.000000,4.000000,4.000000,4.000000,4.000000,4.000000,4.000000,4.000000,4.000000,4.000000,4.000000,4.000000,4.000000,4.000000,4.000000,4.000000,4.000000,4.000000,4.000000,4.000000,4.000000,4.000000,4.000000,4.000000,4.000000,4.000000,83.333336
1614130114.307232,97.000000,0.000000,-3.146658,3.546390,57.627220,27.856850,46.935383,19.697390,65.122551,1.559736,21.820868,8.756306,2.336990,-3.074753,-2.527710,-13.347101,-7.641879,-2.807499,-11.656326,13.248723,60.578506,-15.581897,-23.608255,-16.290817,-11.483744,-17.228125,-29.476589,-28.441961,-13.000629,-7.857781,-14.584682,-47.448524,-3.605912,2.419827,8064.000000,0.000000,4.000000,,,,0.000000,4.000000,4.000000,4.000000,4.000000,4.000000,4.000000,2.000000,4.000000,4.000000,4.000000,4.000000,4.000000,4.000000,4.000000,4.000000,4.000000,4.000000,4.000000,4.000000,4.000000,4.000000,4.000000,4.000000,4.000000,4.000000,4.000000,4.000000,4.000000,4.000000,4.000000,4.000000,4.000000,83.333336
1614130114.314981,98.000000,0.000000,-2.630691,3.542844,58.082417,28.341812,47.914089,19.677691,38.390759,3.096638,21.799046,8.234729,0.796191,-6.148601,-6.114926,-13.333754,-7.634237,-2.804691,-14.208773,4.517526,47.697414,-17.104776,-22.046186,-15.761705,-10.959439,-15.672435,-29.447113,-28.413519,-12.987629,-9.388385,-14.057276,-40.221592,-1.551024,5.494330,8064.000000,0.000000,4.000000,,,,0.000000,4.000000,4.000000,4.000000,4.000000,4.000000,4.000000,2.000000,4.000000,4.000000,4.000000,4.000000,4.000000,4.000000,4.000000,4.000000,4.000000,4.000000,4.000000,4.000000,4.000000,4.000000,4.000000,4.000000,4.000000,4.000000,4.000000,4.000000,4.000000,4.000000,4.000000,4.000000,4.000000,83.333336
1614130114.322630,99.000000,0.000000,-2.628060,3.539301,58.537151,28.826292,47.866177,19.658014,28.095957,1.555080,21.777246,8.226494,-1.768707,-11.270658,-13.288298,-12.807599,-7.626603,-2.801887,-15.220205,0.923264,47.136894,-16.062031,-17.408756,-15.233123,-11.461301,-16.169582,-24.802280,-27.872286,-11.436179,-4.763612,-14.043219,-38.130085,-1.549473,6.514477,8192.000000,0.000000,4.000000,,,,0.000000,4.000000,4.000000,4.000000,4.000000,4.000000,4.000000,2.000000,4.000000,4.000000,4.000000,4.000000,4.000000,4.000000,4.000000,4.000000,4.000000,4.000000,4.000000,4.000000,4.000000,4.000000,4.000000,4.000000,4.000000,4.000000,4.000000,4.000000,4.000000,4.000000,4.000000,4.000000,4.000000,83.333336
1614130114.330379,100.000000,0.000000,-3.138252,3.022941,54.888874,27.259003,46.792667,19.125536,44.478119,0.015063,21.755470,7.192626,-1.766939,-13.310669,-15.326292,-13.307612,-8.644617,-4.337546,-9.051139,13.742854,57.858990,-13.481866,-15.852885,-13.166608,-11.962660,-15.127772,-22.213377,-26.305952,-7.835000,-1.169105,-15.054816,-40.656059,-2.573565,5.482321,8192.000000,0.000000,4.000000,,,,0.000000,4.000000,4.000000,4.000000,4.000000,4.000000,4.000000,2.000000,4.000000,4.000000,4.000000,4.000000,4.000000,4.000000,4.000000,4.000000,4.000000,4.000000,4.000000,4.000000,4.000000,4.000000,4.000000,4.000000,4.000000,4.000000,4.000000,4.000000,4.000000,4.000000,4.000000,4.000000,4.000000,83.333336
1614130114.338028,101.000000,0.000000,-3.135114,3.532738,50.731419,27.744564,46.233055,19.106409,34.690048,-2.036234,21.220894,7.698255,-2.277992,-11.246077,-12.234042,-13.807125,-8.123153,-1.769106,-4.939523,20.908598,59.339592,-14.494025,-15.837032,-12.640620,-10.412235,-13.061362,-23.216805,-25.254005,-4.237421,-2.193577,-12.988480,-39.589764,-1.545350,4.451198,8064.000000,0.000000,4.000000,,,,0.000000,4.000000,4.000000,4.000000,4.000000,4.000000,4.000000,2.000000,4.000000,4.000000,4.000000,4.000000,4.000000,4.000000,4.000000,4.000000,4.000000,4.000000,4.000000,4.000000,4.000000,4.000000,4.000000,4.000000,4.000000,4.000000,4.000000,4.000000,4.000000,4.000000,4.000000,4.000000,4.000000,83.333336
1614130114.345777,102.000000,0.000000,-3.131979,6.093308,50.167866,34.383488,48.238102,20.112944,13.629719,-2.034198,21.712494,12.818761,-1.250073,-6.619445,-7.606424,-11.229216,-3.499645,5.924971,-3.908943,19.862049,61.844357,-9.864146,-11.205811,-11.602339,-5.786439,-12.535480,-17.039742,-20.613367,-1.156261,-2.704204,-7.847286,-38.011711,1.533119,7.010849,8192.000000,0.000000,4.000000,,,,0.000000,4.000000,4.000000,4.000000,4.000000,4.000000,4.000000,2.000000,4.000000,4.000000,4.000000,4.000000,4.000000,4.000000,4.000000,4.000000,4.000000,4.000000,4.000000,4.000000,4.000000,4.000000,4.000000,4.000000,4.000000,4.000000,4.000000,4.000000,4.000000,4.000000,4.000000,4.000000,4.000000,83.333336
1614130114.353426,103.000000,0.000000,-3.128847,7.625677,50.117699,33.836285,47.164223,19.067190,23.872499,-2.032164,21.690781,12.805943,1.315279,-5.074365,-5.547535,-9.679524,-0.419222,11.560071,-1.340931,19.329367,57.167126,-9.341462,-14.271528,-10.565096,-3.216550,-11.497304,-14.458599,-20.079933,-1.155104,-1.675858,-5.275336,-43.101906,2.044406,5.978198,8192.000000,0.000000,4.000000,,,,0.000000,4.000000,4.000000,4.000000,4.000000,4.000000,4.000000,2.000000,4.000000,4.000000,4.000000,4.000000,4.000000,4.000000,4.000000,4.000000,4.000000,4.000000,4.000000,4.000000,4.000000,4.000000,4.000000,4.000000,4.000000,4.000000,4.000000,4.000000,4.000000,4.000000,4.000000,4.000000,4.000000,83.333336
1614130114.361174,104.000000,0.000000,-3.125718,7.105230,45.965019,22.007574,36.347828,14.945559,40.258884,-2.542952,21.156269,5.613649,-0.737318,-6.607752,-8.106091,-12.233948,-1.444444,12.061332,-3.903693,15.207473,40.699703,-19.588530,-24.513666,-14.144274,-4.238974,-12.511448,-22.649269,-29.803442,-7.307796,-2.699824,-7.321343,-52.802391,-1.034562,-4.284191,8064.000000,0.000000,4.000000,,,,0.000000,4.000000,4.000000,4.000000,4.000000,4.000000,4.000000,2.000000,4.000000,4.000000,4.000000,4.000000,4.000000,4.000000,4.000000,4.000000,4.000000,4.000000,4.000000,4.000000,4.000000,4.000000,4.000000,4.000000,4.000000,4.000000,4.000000,4.000000,4.000000,4.000000,4.000000,4.000000,4.000000,83.333336
1614130114.368823,105.000000,0.000000,-3.122592,7.098125,45.919052,20.447105,36.311481,17.494717,36.628880,0.536514,22.160755,5.608036,-2.275042,-5.062683,-5.021061,-13.247355,0.608283,7.433886,-2.874148,10.064060,46.812851,-13.927917,-17.309666,-7.463463,-4.234735,-16.601500,-19.549696,-29.773638,-3.197923,-2.184303,-6.801201,-52.749588,-2.571989,-5.305548,8064.000000,0.000000,4.000000,,,,0.000000,4.000000,4.000000,4.000000,4.000000,4.000000,4.000000,2.000000,4.000000,4.000000,4.000000,4.000000,4.000000,4.000000,4.000000,4.000000,4.000000,4.000000,4.000000,4.000000,4.000000,4.000000,4.000000,4.000000,4.000000,4.000000,4.000000,4.000000,4.000000,4.000000,4.000000,4.000000,4.000000,83.333336
1614130114.376572,106.000000,0.000000,-3.119470,7.091027,48.437237,31.195890,49.608505,22.605427,35.053791,5.151362,24.702696,11.756274,0.804156,-0.442235,3.189088,-9.644364,1.633316,-2.829958,9.436419,12.618098,70.868599,7.624473,2.194823,9.979897,-2.179219,-11.456694,-3.632711,-13.333609,13.728352,1.407625,-2.691836,-44.491711,-1.543775,8.033092,8064.000000,0.000000,4.000000,,,,0.000000,4.000000,4.000000,4.000000,4.000000,4.000000,4.000000,2.000000,4.000000,4.000000,4.000000,4.000000,4.000000,4.000000,4.000000,4.000000,4.000000,4.000000,4.000000,4.000000,4.000000,4.000000,4.000000,4.000000,4.000000,4.000000,4.000000,4.000000,4.000000,4.000000,4.000000,4.000000,4.000000,83.333336
1614130114.384221,107.000000,0.000000,-3.629171,7.083936,40.183670,29.626232,44.430691,17.454617,37.582840,4.633390,22.626711,9.693235,0.290531,2.122310,3.185899,-9.634720,-0.932420,-3.852769,10.965444,14.656762,71.823372,5.565567,0.654167,6.380174,-0.638578,-1.188827,-6.193181,-10.243352,13.201802,1.919037,-6.278888,-44.447220,-2.055052,3.922494,8064.000000,0.000000,4.000000,,,,0.000000,4.000000,4.000000,4.000000,4.000000,4.000000,4.000000,2.000000,4.000000,4.000000,4.000000,4.000000,4.000000,4.000000,4.000000,4.000000,4.000000,4.000000,4.000000,4.000000,4.000000,4.000000,4.000000,4.000000,4.000000,4.000000,4.000000,4.000000,4.000000,4.000000,4.000000,4.000000,4.000000,83.333336
1614130114.392070,108.000000,0.000000,-3.112721,7.076852,28.348616,17.288914,27.463182,11.796136,34.981155,1.551834,17.988701,4.042517,-0.735400,2.120187,-2.458313,-9.625085,2.145435,13.586981,-1.866035,17.206209,59.956676,-9.311793,-18.320847,-15.164667,-0.125119,-6.828663,-24.135706,-27.669006,-5.785758,-2.698266,-16.016199,-53.633541,-4.617100,-16.594250,8064.000000,0.000000,4.000000,,,,0.000000,4.000000,4.000000,4.000000,4.000000,4.000000,4.000000,2.000000,4.000000,4.000000,4.000000,4.000000,4.000000,4.000000,4.000000,4.000000,4.000000,4.000000,4.000000,4.000000,4.000000,4.000000,4.000000,4.000000,4.000000,4.000000,4.000000,4.000000,4.000000,4.000000,4.000000,4.000000,4.000000,83.333336
1614130114.399819,109.000000,0.000000,-1.058326,7.069775,32.422832,17.271626,33.589565,15.886904,51.356430,1.550282,17.457891,6.602577,5.419181,1.605247,-1.430213,-2.948793,9.835597,25.368265,-6.479553,16.163361,54.768517,-7.764020,-23.430731,-17.713606,-0.637814,-21.693630,-30.778236,-31.231081,-7.831254,-0.131465,-18.051464,-53.579910,-6.150944,-14.526373,8064.000000,0.000000,4.000000,,,,0.000000,4.000000,4.000000,4.000000,4.000000,4.000000,4.000000,2.000000,4.000000,4.000000,4.000000,4.000000,4.000000,4.000000,4.000000,4.000000,4.000000,4.000000,4.000000,4.000000,4.000000,4.000000,4.000000,4.000000,4.000000,4.000000,4.000000,4.000000,4.000000,4.000000,4.000000,4.000000,4.000000,83.333336
1614130114.407667,110.000000,0.000000,0.994014,7.062706,42.646820,26.485123,44.325207,20.999222,83.612762,2.061552,18.466074,11.724179,10.541967,2.116462,1.648140,2.182361,10.851403,18.676231,-3.908971,3.326685,44.457336,-6.217795,-19.304735,-7.952302,-0.124356,-23.210398,-28.183355,-20.943439,2.432987,7.048153,-13.930849,-44.808380,-5.631973,-0.665693,8064.000000,0.000000,4.000000,,,,0.000000,4.000000,4.000000,4.000000,4.000000,4.000000,4.000000,2.000000,4.000000,4.000000,4.000000,4.000000,4.000000,4.000000,4.000000,4.000000,4.000000,4.000000,4.000000,4.000000,4.000000,4.000000,4.000000,4.000000,4.000000,4.000000,4.000000,4.000000,4.000000,4.000000,4.000000,4.000000,4.000000,83.333336
1614130114.415416,111.000000,0.000000,0.480199,7.568463,40.552891,29.022739,35.050114,18.926941,79.939407,2.059491,17.421967,12.225276,7.967323,2.114346,0.620851,1.667358,9.814911,10.452426,-4.417883,6.400281,45.438522,-9.801321,-20.311071,-8.457170,-0.637052,-20.110264,-29.180813,-22.973778,-3.210472,3.451362,-13.404098,-41.686649,-5.626341,-4.254770,8064.000000,0.000000,4.000000,,,,0.000000,4.000000,4.000000,4.000000,4.000000,4.000000,4.000000,2.000000,4.000000,4.000000,4.000000,4.000000,4.000000,4.000000,4.000000,4.000000,4.000000,4.000000,4.000000,4.000000,4.000000,4.000000,4.000000,4.000000,4.000000,4.000000,4.000000,4.000000,4.000000,4.000000,4.000000,4.000000,4.000000,83.333336
1614130114.423265,112.000000,0.000000,0.479719,6.022433,34.358490,27.455256,26.809933,18.395193,47.551777,0.006149,17.404545,11.700230,4.882432,1.599411,0.107410,1.152870,10.830736,11.980435,-4.926285,30.496445,66.931541,-1.073571,-17.726658,-8.961534,-0.636415,-19.577333,-30.690094,-29.617472,-11.925210,-2.193115,-14.929154,-44.721886,-5.620714,-10.404362,8064.000000,0.000000,4.000000,,,,0.000000,4.000000,4.000000,4.000000,4.000000,4.000000,4.000000,2.000000,4.000000,4.000000,4.000000,4.000000,4.000000,4.000000,4.000000,4.000000,4.000000,4.000000,4.000000,4.000000,4.000000,4.000000,4.000000,4.000000,4.000000,4.000000,4.000000,4.000000,4.000000,4.000000,4.000000,4.000000,4.000000,83.333336
1614130114.431014,113.000000,0.000000,0.479240,3.452308,35.862595,27.427799,27.808765,20.428080,51.606789,-2.045139,17.899961,10.150068,3.851909,-0.453471,0.620123,1.664538,8.768623,12.481276,-6.972641,26.363384,63.787689,-2.610959,-15.144829,-9.978213,0.389863,-15.455192,-29.633762,-28.049391,-8.836362,0.373180,-13.888585,-46.728447,-5.102273,-9.368317,8064.000000,0.000000,4.000000,,,,0.000000,4.000000,4.000000,4.000000,4.000000,4.000000,4.000000,2.000000,4.000000,4.000000,4.000000,4.000000,4.000000,4.000000,4.000000,4.000000,4.000000,4.000000,4.000000,4.000000,4.000000,4.000000,4.000000,4.000000,4.000000,4.000000,4.000000,4.000000,4.000000,4.000000,4.000000,4.000000,4.000000,83.333336
1614130114.438863,114.000000,0.000000,0.478760,2.936035,35.826733,25.861910,25.216854,17.843550,83.350052,-2.043094,16.343599,8.601457,1.796775,-1.991479,1.132323,2.175694,4.144471,10.417512,-11.068233,2.234457,40.646980,-20.044245,-25.386095,-17.147722,-2.687450,-14.414096,-28.065668,-30.072624,-11.391628,0.372807,-13.361876,-49.758640,-6.635633,-14.487153,8064.000000,0.000000,4.000000,,,,0.000000,4.000000,4.000000,4.000000,4.000000,4.000000,4.000000,2.000000,4.000000,4.000000,4.000000,4.000000,4.000000,4.000000,4.000000,4.000000,4.000000,4.000000,4.000000,4.000000,4.000000,4.000000,4.000000,4.000000,4.000000,4.000000,4.000000,4.000000,4.000000,4.000000,4.000000,4.000000,4.000000,83.333336
1614130114.446611,115.000000,0.000000,0.478281,3.445920,31.688339,23.784767,26.217278,13.210321,74.548752,-2.041051,14.275974,8.080034,1.794978,-1.989488,1.131191,1.660697,2.601865,11.945557,-10.544344,12.488633,50.349922,-18.485739,-26.386349,-13.028010,-7.812968,-22.091990,-29.576063,-36.196400,-16.508442,-5.268591,-14.374155,-53.811443,-11.757202,-20.626513,8064.000000,0.000000,4.000000,,,,0.000000,4.000000,4.000000,4.000000,4.000000,4.000000,4.000000,2.000000,4.000000,4.000000,4.000000,4.000000,4.000000,4.000000,4.000000,4.000000,4.000000,4.000000,4.000000,4.000000,4.000000,4.000000,4.000000,4.000000,4.000000,4.000000,4.000000,4.000000,4.000000,4.000000,4.000000,4.000000,4.000000,83.333336
1614130114.454460,116.000000,0.000000,0.477803,3.442474,31.656652,23.760983,33.883369,13.197111,51.910103,-2.039010,13.748878,8.071955,1.793183,-1.987498,0.617239,0.633396,2.086442,10.907969,-7.969697,31.450502,77.479057,-1.031356,-5.334322,-0.194469,-8.317976,-24.633999,-27.495205,-27.442253,-8.799625,-6.801785,-13.846960,-49.655071,-13.283906,-15.477680,8064.000000,0.000000,4.000000,,,,0.000000,4.000000,4.000000,4.000000,4.000000,4.000000,4.000000,2.000000,4.000000,4.000000,4.000000,4.000000,4.000000,4.000000,4.000000,4.000000,4.000000,4.000000,4.000000,4.000000,4.000000,4.000000,4.000000,4.000000,4.000000,4.000000,4.000000,4.000000,4.000000,4.000000,4.000000,4.000000,4.000000,83.333336
1614130114.462209,117.000000,0.000000,0.477325,3.439031,35.727558,24.250042,35.387947,15.748016,66.217171,-2.036971,14.247949,8.576703,1.791390,-1.985510,1.129442,2.684044,-1.505388,1.153472,-8.474547,22.188284,78.940041,4.097880,5.440243,2.882648,-4.719914,-15.891418,-17.724121,-14.081477,3.004046,-5.769341,-10.756190,-42.425926,-12.244982,-7.769895,8064.000000,0.000000,4.000000,,,,0.000000,4.000000,4.000000,4.000000,4.000000,4.000000,4.000000,2.000000,4.000000,4.000000,4.000000,4.000000,4.000000,4.000000,4.000000,4.000000,4.000000,4.000000,4.000000,4.000000,4.000000,4.000000,4.000000,4.000000,4.000000,4.000000,4.000000,4.000000,4.000000,4.000000,4.000000,4.000000,4.000000,83.333336
1614130114.470058,118.000000,0.000000,0.476848,3.435592,32.102089,22.687330,31.762815,15.732268,71.279160,-2.034934,14.233701,7.542485,2.302419,-1.470704,1.128313,1.655719,-1.503883,-5.001528,-7.953253,13.960967,67.066231,1.529680,-6.360069,-0.197157,-3.689553,-8.696038,-14.629473,-16.631498,0.949760,-5.763572,-11.258254,-43.409142,-13.258377,-11.864690,7936.000000,0.000000,4.000000,,,,0.000000,4.000000,4.000000,4.000000,4.000000,4.000000,4.000000,2.000000,4.000000,4.000000,4.000000,4.000000,4.000000,4.000000,4.000000,4.000000,4.000000,4.000000,4.000000,4.000000,4.000000,4.000000,4.000000,4.000000,4.000000,4.000000,4.000000,4.000000,4.000000,4.000000,4.000000,4.000000,4.000000,83.333336
