title:17, start timestamp:1614130267.466188, stop timestamp:1614130313.060690, headset type:EPOCFLEX, headset serial:F00001ED, headset firmware:f12, subject name:s08, channels:75, sampling rate:128, samples:5889      , version:2.0
Timestamp,EEG.Counter,EEG.Interpolated,EEG.Cz,EEG.Fz,EEG.Fp1,EEG.AF3,EEG.F7,EEG.F3,EEG.FC1,EEG.C3,EEG.FC5,EEG.T7,EEG.CP5,EEG.CP1,EEG.P3,EEG.P7,EEG.PO3,EEG.O1,EEG.Pz,EEG.Oz,EEG.O2,EEG.PO4,EEG.P8,EEG.P4,EEG.CP2,EEG.CP6,EEG.T8,EEG.FC6,EEG.C4,EEG.FC2,EEG.F4,EEG.F8,EEG.AF4,EEG.Fp2,EEG.HighBitFlex,EEG.RawCq,EEG.Battery,MarkerIndex,MarkerType,MarkerValueInt,EEG.MarkerHardware,CQ.Cz,CQ.Fz,CQ.Fp1,CQ.AF3,CQ.F7,CQ.F3,CQ.FC1,CQ.C3,CQ.FC5,CQ.T7,CQ.CP5,CQ.CP1,CQ.P3,CQ.P7,CQ.PO3,CQ.O1,CQ.Pz,CQ.Oz,CQ.O2,CQ.PO4,CQ.P8,CQ.P4,CQ.CP2,CQ.CP6,CQ.T8,CQ.FC6,CQ.C4,CQ.FC2,CQ.F4,CQ.F8,CQ.AF4,CQ.Fp2,CQ.Overall
1614130267.466188,16.000000,0.000000,-6.132173,-6.996120,-24.267262,-26.432053,-21.243319,-17.761066,3.104134,-21.307121,-10.787249,-2.478333,-18.865463,-6.102529,-18.493971,-13.815206,-21.765867,-7.332987,-12.163629,-6.378266,-12.456438,-16.474106,-13.985451,-17.927650,-1.187071,-14.181149,-15.073287,-9.714109,-17.275505,-6.508743,-13.841295,-22.373962,-18.466684,-40.519665,0.000000,161.000000,4.000000,,,,0.000000,4.000000,4.000000,4.000000,4.000000,4.000000,4.000000,2.000000,4.000000,4.000000,4.000000,4.000000,4.000000,4.000000,4.000000,4.000000,4.000000,4.000000,4.000000,4.000000,4.000000,4.000000,4.000000,4.000000,4.000000,4.000000,4.000000,4.000000,4.000000,4.000000,4.000000,4.000000,4.000000,83.333336
1614130267.473837,17.000000,0.000000,-5.100399,-6.989124,-24.755814,-18.713312,-15.581050,-16.204844,-2.539995,-16.670429,-9.237999,0.088248,-15.256854,-6.609247,-18.988298,-7.647544,-17.641537,-9.376936,-9.587362,-2.782144,1.914993,-13.380709,-7.304799,-16.884083,-0.160243,-14.679789,-8.391547,-2.012088,-14.181307,-6.502234,-13.827455,-14.659282,-15.371294,-33.299660,0.000000,151.000000,4.000000,,,,0.000000,4.000000,4.000000,4.000000,4.000000,4.000000,4.000000,2.000000,4.000000,4.000000,4.000000,4.000000,4.000000,4.000000,4.000000,4.000000,4.000000,4.000000,4.000000,4.000000,4.000000,4.000000,4.000000,4.000000,4.000000,2.000000,4.000000,4.000000,4.000000,4.000000,4.000000,4.000000,4.000000,66.666664
1614130267.481586,18.000000,0.000000,-2.018376,-6.982135,-24.218237,-14.079214,-10.437264,-13.624537,0.539468,-13.064015,-7.177479,3.165083,-12.677494,-5.576997,-15.892386,-1.998871,-9.418767,-0.649611,-4.962390,-0.215259,-2.702307,-12.341687,-2.169289,-17.380018,2.404020,-10.562545,-7.870335,2.092488,-15.192767,-6.495732,-13.813626,-14.131802,-10.740539,-31.215078,0.000000,200.000000,4.000000,,,,0.000000,4.000000,4.000000,4.000000,4.000000,4.000000,4.000000,2.000000,4.000000,4.000000,4.000000,4.000000,4.000000,4.000000,4.000000,4.000000,4.000000,4.000000,4.000000,4.000000,4.000000,4.000000,4.000000,4.000000,4.000000,2.000000,4.000000,4.000000,4.000000,4.000000,4.000000,4.000000,4.000000,66.666664
1614130267.489235,19.000000,0.000000,-2.529178,-6.975153,-24.194019,-17.654879,-15.555032,-12.585272,-2.537995,-14.589414,-8.195943,-0.940646,-7.536612,-3.520138,-12.286751,-1.484052,-6.332426,12.684372,-4.444607,2.861879,-0.648322,-9.765244,-1.141479,-13.772895,3.427257,-3.885315,-9.400927,0.551934,-15.690394,-6.489236,-13.799813,-15.656132,-11.242619,-33.235146,0.000000,208.000000,4.000000,,,,0.000000,4.000000,4.000000,4.000000,4.000000,4.000000,4.000000,2.000000,4.000000,4.000000,4.000000,4.000000,4.000000,4.000000,4.000000,4.000000,4.000000,4.000000,4.000000,4.000000,4.000000,4.000000,4.000000,4.000000,4.000000,2.000000,4.000000,4.000000,4.000000,4.000000,4.000000,4.000000,4.000000,66.666664
1614130267.496984,20.000000,0.000000,-2.526649,-6.968178,-24.169825,-18.662865,-18.616400,-12.572686,-16.894432,-14.574824,-8.187747,-2.478167,-4.964972,-2.490976,-10.736002,0.568714,-6.326093,10.620406,-5.465804,5.423120,10.121556,-8.217016,-2.165978,-10.169378,2.911009,-1.830148,-9.391525,0.551382,-15.161883,-6.482747,-13.786014,-15.640475,-12.769837,-32.689091,0.000000,214.000000,4.000000,,,,0.000000,4.000000,4.000000,4.000000,4.000000,4.000000,4.000000,2.000000,4.000000,4.000000,4.000000,4.000000,4.000000,4.000000,4.000000,4.000000,4.000000,4.000000,4.000000,4.000000,4.000000,4.000000,4.000000,4.000000,4.000000,2.000000,4.000000,4.000000,4.000000,4.000000,4.000000,4.000000,4.000000,66.666664
1614130267.504633,21.000000,0.000000,2.091262,-6.961209,-24.145655,-17.618561,-16.546501,-12.560114,-26.108307,-10.970506,-7.666739,3.678157,-3.934367,-2.488485,-9.186805,2.106607,-3.755664,2.917478,-1.870594,7.468979,16.265282,-9.234440,-1.650992,-10.159209,2.908098,-2.853959,-7.843672,1.576472,-15.659542,-6.476264,-13.772227,-12.547912,-10.705786,-32.143581,0.000000,180.000000,4.000000,,,,0.000000,4.000000,4.000000,4.000000,4.000000,4.000000,4.000000,2.000000,4.000000,4.000000,4.000000,4.000000,4.000000,4.000000,4.000000,4.000000,4.000000,4.000000,4.000000,4.000000,4.000000,4.000000,4.000000,4.000000,4.000000,2.000000,4.000000,4.000000,4.000000,4.000000,4.000000,4.000000,4.000000,66.666664
1614130267.512482,22.000000,0.000000,5.678915,-6.954248,-24.121510,-17.600943,-16.529955,-12.034733,-22.492455,-9.933894,-7.146251,5.212941,-1.366330,-0.947535,-7.126336,2.617321,1.889117,3.940202,2.746661,10.025612,10.095170,-6.661103,-1.136520,-7.072127,2.905190,-2.338284,-6.297367,1.062075,-11.541319,-6.469788,-13.758455,-8.432800,-8.130977,-32.111435,0.000000,160.000000,4.000000,,,,0.000000,4.000000,4.000000,4.000000,4.000000,4.000000,4.000000,2.000000,4.000000,4.000000,4.000000,4.000000,4.000000,4.000000,4.000000,4.000000,4.000000,4.000000,4.000000,4.000000,4.000000,4.000000,4.000000,4.000000,4.000000,2.000000,4.000000,4.000000,4.000000,4.000000,4.000000,4.000000,4.000000,66.666664
1614130267.520231,23.000000,0.000000,5.673235,-6.947294,-24.097387,-17.583342,-17.539066,-12.535519,-18.880219,-10.436781,-7.651926,2.130805,-2.390604,1.617515,-6.606389,1.589063,0.348766,0.859338,3.256735,8.477125,-0.684156,-2.551878,-2.161025,-1.936850,2.902285,-2.335946,-4.752608,0.035372,-7.940034,-6.463318,-13.744697,-9.450008,-9.148487,-33.617786,0.000000,204.000000,4.000000,,,,0.000000,4.000000,4.000000,4.000000,4.000000,4.000000,4.000000,2.000000,4.000000,4.000000,4.000000,4.000000,4.000000,4.000000,4.000000,4.000000,4.000000,4.000000,4.000000,4.000000,4.000000,4.000000,4.000000,4.000000,4.000000,2.000000,4.000000,4.000000,4.000000,4.000000,4.000000,4.000000,4.000000,66.666664
1614130267.528080,24.000000,0.000000,5.154742,-6.940347,-24.073292,-20.642681,-17.521526,-12.522984,-16.810057,-10.426344,-10.208376,2.128674,-8.029240,1.615897,-7.112603,-3.540731,-7.856710,-6.833829,2.740658,2.827622,-5.298857,-3.062147,-6.774249,-3.473374,2.899382,-2.333610,-5.260676,1.060978,-7.932094,-6.456855,-14.243773,-12.004661,-11.703441,-35.122631,0.000000,209.000000,4.000000,,,,0.000000,4.000000,4.000000,4.000000,4.000000,4.000000,4.000000,2.000000,4.000000,4.000000,4.000000,4.000000,4.000000,4.000000,4.000000,4.000000,4.000000,4.000000,4.000000,4.000000,4.000000,4.000000,4.000000,4.000000,4.000000,2.000000,4.000000,4.000000,4.000000,4.000000,4.000000,4.000000,4.000000,66.666664
1614130267.535829,25.000000,0.000000,5.662408,-6.933406,-23.536398,-24.724604,-16.991184,-12.510460,-8.588118,-9.903097,-10.710988,0.588084,-8.534031,1.101461,-7.105491,-5.075652,-9.900136,-7.852636,2.737917,2.311974,-6.319199,-5.110367,-11.382859,-9.110927,2.896483,-2.844097,-5.255415,1.059917,-7.411341,-6.450398,-13.716708,-10.967015,-11.691737,-36.113148,0.000000,175.000000,4.000000,,,,0.000000,4.000000,4.000000,4.000000,4.000000,4.000000,4.000000,2.000000,4.000000,4.000000,4.000000,4.000000,4.000000,4.000000,4.000000,4.000000,4.000000,4.000000,4.000000,4.000000,4.000000,4.000000,4.000000,4.000000,4.000000,2.000000,4.000000,4.000000,4.000000,4.000000,4.000000,4.000000,4.000000,66.666664
1614130267.543678,26.000000,0.000000,5.143925,-6.926473,-24.538502,-25.725519,-16.974194,-12.497950,-1.912863,-10.406014,-8.648995,-1.463787,-5.448574,1.100359,-7.098385,-0.968012,-4.762031,-8.870424,3.760820,5.386585,-6.312880,-5.105256,-13.422758,-10.640277,2.893586,-4.379714,-5.250160,-5.607810,-7.916750,-6.956768,-13.702991,-14.032971,-11.680046,-37.615498,0.000000,195.000000,4.000000,,,,0.000000,4.000000,4.000000,4.000000,4.000000,4.000000,4.000000,2.000000,4.000000,4.000000,4.000000,4.000000,4.000000,4.000000,4.000000,4.000000,4.000000,4.000000,4.000000,4.000000,4.000000,4.000000,4.000000,4.000000,4.000000,2.000000,4.000000,4.000000,4.000000,4.000000,4.000000,4.000000,4.000000,66.666664
1614130267.551427,27.000000,0.000000,5.138781,-6.919547,-24.001143,-25.699793,-17.982861,-12.485452,-7.039155,-10.395608,-7.614706,2.640241,-4.417484,1.099259,-7.091287,1.597058,-2.193166,-7.323092,5.808342,5.381199,-0.665541,-5.612971,-14.947797,-9.603996,2.890693,-6.426617,-5.757730,-10.217587,-8.934475,-6.436991,-14.202109,-15.557400,-12.181187,-34.500957,0.000000,189.000000,4.000000,,,,0.000000,4.000000,4.000000,4.000000,4.000000,4.000000,4.000000,2.000000,4.000000,4.000000,4.000000,4.000000,4.000000,4.000000,4.000000,4.000000,4.000000,4.000000,4.000000,4.000000,4.000000,4.000000,4.000000,4.000000,4.000000,2.000000,4.000000,4.000000,4.000000,4.000000,4.000000,4.000000,4.000000,66.666664
1614130267.559276,28.000000,0.000000,5.133642,-6.912627,-19.361757,-24.648453,-13.862314,-12.472966,-13.185962,-10.385213,-5.555809,6.227345,-5.438707,1.098160,-7.084195,2.621102,-0.139691,5.504744,6.828174,4.350176,8.565894,-3.043256,-8.779003,-10.107212,2.887802,-6.420190,-2.675050,-4.566344,-2.258873,-3.866451,-12.649446,-4.259791,-9.092082,-24.210047,0.000000,189.000000,4.000000,,,,0.000000,4.000000,4.000000,4.000000,4.000000,4.000000,4.000000,2.000000,4.000000,4.000000,4.000000,4.000000,4.000000,4.000000,4.000000,4.000000,4.000000,4.000000,4.000000,4.000000,4.000000,4.000000,4.000000,4.000000,4.000000,2.000000,4.000000,4.000000,4.000000,4.000000,4.000000,4.000000,4.000000,66.666664
1614130267.567025,29.000000,0.000000,5.128509,-6.905715,-16.265472,-19.495600,-7.694605,-10.409211,-12.147135,-10.374827,-4.011791,5.708297,-4.920448,1.097062,-7.077111,7.233866,1.911731,9.601803,6.308526,5.884288,10.095789,-0.476110,1.999007,-10.609925,2.884914,-6.413770,1.943010,0.566428,2.358770,-2.324123,-8.021411,4.462418,-4.980426,-16.493528,0.000000,179.000000,4.000000,,,,0.000000,4.000000,4.000000,4.000000,4.000000,4.000000,4.000000,2.000000,4.000000,4.000000,4.000000,4.000000,4.000000,4.000000,4.000000,4.000000,4.000000,4.000000,4.000000,4.000000,4.000000,4.000000,4.000000,4.000000,4.000000,2.000000,4.000000,4.000000,4.000000,4.000000,4.000000,4.000000,4.000000,66.666664
1614130267.574874,30.000000,0.000000,5.123380,-6.898808,-16.762028,-17.424822,-5.635629,-8.347520,-12.647808,-10.364452,-4.007780,5.189768,-4.915528,1.095964,-7.070034,9.277914,0.884178,-2.202671,6.302217,5.365583,8.547232,-4.578198,6.099572,-10.599316,2.882029,-6.407356,1.428246,0.565861,-4.310256,-2.834620,-5.449287,0.355391,-4.975445,-17.502676,0.000000,199.000000,4.000000,,,,0.000000,4.000000,4.000000,4.000000,4.000000,4.000000,4.000000,2.000000,4.000000,4.000000,4.000000,4.000000,4.000000,4.000000,4.000000,4.000000,4.000000,4.000000,4.000000,4.000000,4.000000,4.000000,4.000000,4.000000,2.000000,2.000000,4.000000,4.000000,4.000000,4.000000,4.000000,4.000000,4.000000,50.000000
1614130267.582624,31.000000,0.000000,5.118257,-6.891910,-16.745266,-17.920218,-6.142814,-8.339172,-10.071058,-10.354089,-3.490951,6.210219,-4.910613,1.094869,-7.062964,8.755816,2.421756,-0.662007,6.808735,4.847397,12.128428,-3.547979,5.580652,-9.563075,2.879147,-6.400949,2.965280,2.103757,-5.844407,-2.831785,-6.469479,1.893497,-2.919188,-17.997995,0.000000,152.000000,4.000000,,,,0.000000,4.000000,4.000000,4.000000,4.000000,4.000000,4.000000,2.000000,4.000000,4.000000,4.000000,4.000000,4.000000,4.000000,4.000000,4.000000,4.000000,4.000000,4.000000,4.000000,4.000000,4.000000,4.000000,4.000000,2.000000,2.000000,4.000000,4.000000,4.000000,4.000000,4.000000,4.000000,4.000000,50.000000
1614130267.590473,32.000000,0.000000,5.113138,-6.885018,-13.651597,-14.312553,-4.085389,-8.843654,0.195423,-10.343734,-0.923358,5.691188,-4.905702,1.093774,-7.055901,11.311162,8.060359,13.184809,6.801927,14.073318,15.706043,4.660697,8.651995,-6.989410,2.876268,-6.907368,8.603340,4.665756,1.853745,-2.828953,-6.463009,10.096732,4.263218,-14.390253,8064.000000,0.000000,4.000000,,,,0.000000,4.000000,4.000000,4.000000,4.000000,4.000000,4.000000,2.000000,4.000000,4.000000,4.000000,4.000000,4.000000,4.000000,4.000000,4.000000,4.000000,4.000000,4.000000,4.000000,4.000000,4.000000,4.000000,4.000000,2.000000,2.000000,4.000000,4.000000,4.000000,4.000000,4.000000,4.000000,4.000000,50.000000
1614130267.598222,33.000000,0.000000,5.108025,-6.878133,-12.612304,-10.195677,-1.517201,-8.834810,6.861895,-10.333390,0.103207,5.685497,-4.900796,1.092680,-7.048845,12.325492,4.462555,13.684445,6.282304,23.802835,16.715979,-0.472169,10.181804,-5.956779,2.873392,-5.874820,7.569096,4.661090,0.313430,-2.826124,-5.943726,10.599456,7.848699,-13.350222,8064.000000,0.000000,4.000000,,,,0.000000,4.000000,4.000000,4.000000,4.000000,4.000000,4.000000,2.000000,4.000000,4.000000,4.000000,4.000000,4.000000,4.000000,4.000000,4.000000,4.000000,4.000000,4.000000,4.000000,4.000000,4.000000,4.000000,4.000000,2.000000,2.000000,4.000000,4.000000,4.000000,4.000000,4.000000,4.000000,4.000000,50.000000
1614130267.606071,34.000000,0.000000,5.102917,-6.871255,-13.112513,-10.185481,-2.028504,-8.825975,7.367853,-10.323057,-0.409717,5.679812,-4.895895,1.091587,-7.041796,12.825987,-2.721394,6.491273,6.276022,21.727751,16.186441,-9.189645,8.633161,-6.463643,2.870518,-3.304843,1.920501,4.143609,-3.789447,-2.823298,-6.450603,6.486292,6.302389,-14.362513,8064.000000,0.000000,4.000000,,,,0.000000,4.000000,4.000000,4.000000,4.000000,4.000000,4.000000,2.000000,4.000000,4.000000,4.000000,4.000000,4.000000,4.000000,4.000000,4.000000,4.000000,4.000000,4.000000,4.000000,4.000000,4.000000,4.000000,4.000000,2.000000,2.000000,4.000000,4.000000,4.000000,4.000000,4.000000,4.000000,4.000000,50.000000
1614130267.613820,35.000000,0.000000,5.097814,-6.864384,-12.586579,-10.688116,-2.539296,-8.817149,5.309203,-10.312734,-0.409307,5.674132,-4.890999,1.090496,-7.034754,15.890084,-0.667391,6.484782,6.782566,14.526535,15.144614,-4.052250,9.650168,-6.457180,2.867648,-2.275897,1.405760,4.139465,-0.708735,-2.820475,-6.444152,5.966985,7.321727,-14.348150,8064.000000,0.000000,4.000000,,,,0.000000,4.000000,4.000000,4.000000,4.000000,4.000000,4.000000,2.000000,4.000000,4.000000,4.000000,4.000000,4.000000,4.000000,4.000000,4.000000,4.000000,4.000000,4.000000,4.000000,4.000000,4.000000,4.000000,4.000000,2.000000,2.000000,4.000000,4.000000,4.000000,4.000000,4.000000,4.000000,4.000000,50.000000
1614130267.621469,36.000000,0.000000,5.605537,-6.344698,-12.573993,-9.651787,-2.023936,-8.295512,-0.337132,-10.302422,0.103923,5.668458,-4.886108,1.089405,-7.027720,12.797271,0.871738,8.016759,3.698861,12.973547,14.103829,-4.048198,7.589236,-6.450722,2.864780,-2.786441,2.942816,4.135325,-4.810590,-2.817654,-6.437708,4.422557,6.288764,-13.308161,8064.000000,0.000000,4.000000,,,,0.000000,4.000000,4.000000,4.000000,4.000000,4.000000,4.000000,2.000000,4.000000,4.000000,4.000000,4.000000,4.000000,4.000000,4.000000,4.000000,4.000000,4.000000,4.000000,4.000000,4.000000,4.000000,4.000000,4.000000,2.000000,2.000000,4.000000,4.000000,4.000000,4.000000,4.000000,4.000000,4.000000,50.000000
1614130267.629218,37.000000,0.000000,4.061470,-6.851174,-13.074240,-10.154956,-1.509092,-8.800036,-5.465000,-10.292119,0.103819,6.175610,-4.368402,1.088316,-6.507872,6.630628,-1.693236,7.495922,-1.433043,13.473394,9.987161,-11.736458,0.914980,-5.931451,2.349095,-2.783655,0.375770,3.618370,-11.472446,-3.327657,-6.431270,2.366852,0.641450,-13.807673,8064.000000,0.000000,4.000000,,,,0.000000,4.000000,4.000000,4.000000,4.000000,4.000000,4.000000,2.000000,4.000000,4.000000,4.000000,4.000000,4.000000,4.000000,4.000000,4.000000,4.000000,4.000000,4.000000,4.000000,4.000000,4.000000,4.000000,4.000000,2.000000,2.000000,4.000000,4.000000,4.000000,4.000000,4.000000,4.000000,4.000000,50.000000
1614130267.636867,38.000000,0.000000,0.980485,-6.331503,-12.548345,-10.657621,-2.020403,-8.791237,-4.433894,-10.281827,-0.409106,5.656614,-4.876854,1.087227,-7.014184,5.598356,2.923841,8.001246,-1.431610,12.947101,3.823328,-6.596516,-3.188499,-3.874238,2.859566,-2.780871,-1.675887,4.127572,-5.307127,-2.298688,-6.424839,2.364485,0.127988,-14.306686,8064.000000,0.000000,4.000000,,,,0.000000,4.000000,4.000000,4.000000,4.000000,4.000000,4.000000,2.000000,4.000000,4.000000,4.000000,4.000000,4.000000,4.000000,4.000000,4.000000,4.000000,4.000000,4.000000,4.000000,4.000000,4.000000,4.000000,4.000000,2.000000,2.000000,4.000000,4.000000,4.000000,4.000000,4.000000,4.000000,4.000000,50.000000
1614130267.644616,39.000000,0.000000,2.517966,-6.325171,-13.048616,-9.621323,-3.556844,-8.269625,-3.916639,-10.271545,-0.408697,5.650957,-4.871977,1.598961,-6.494349,8.156860,10.613225,6.454783,1.646744,11.908512,8.434889,2.640850,-2.672490,-2.331902,4.907989,-2.778090,-1.674212,6.687547,-0.173615,-0.245108,-5.905594,3.387762,2.691963,-12.753918,8064.000000,0.000000,4.000000,,,,0.000000,4.000000,4.000000,4.000000,4.000000,4.000000,4.000000,2.000000,4.000000,4.000000,4.000000,4.000000,4.000000,4.000000,4.000000,4.000000,4.000000,4.000000,4.000000,4.000000,4.000000,4.000000,4.000000,4.000000,2.000000,2.000000,4.000000,4.000000,4.000000,4.000000,4.000000,4.000000,4.000000,50.000000
1614130267.652265,40.000000,0.000000,5.079551,-8.370128,-15.599670,-12.175804,-6.117390,-9.799817,-4.425543,-10.261273,0.104533,6.670947,-3.841464,1.084541,-3.410932,10.712806,13.679535,6.448328,2.670739,11.896604,18.682865,2.638209,-2.156997,-2.842390,6.954363,-2.775312,-1.672537,8.219321,-3.763185,1.293599,-5.899688,3.384374,-1.413293,-15.305266,8064.000000,0.000000,4.000000,,,,0.000000,4.000000,4.000000,4.000000,4.000000,4.000000,4.000000,2.000000,4.000000,4.000000,4.000000,4.000000,4.000000,4.000000,4.000000,4.000000,4.000000,4.000000,4.000000,4.000000,4.000000,4.000000,4.000000,4.000000,2.000000,2.000000,4.000000,4.000000,4.000000,4.000000,4.000000,4.000000,4.000000,50.000000
1614130267.660014,41.000000,0.000000,3.536010,-10.413040,-17.122532,-16.779013,-11.752298,-11.841299,-5.446759,-10.251012,-1.946854,4.100173,-5.888905,-0.967825,-3.407521,7.112350,12.127394,9.518804,2.155247,13.423169,15.587258,3.148391,-2.154840,-2.839548,6.434588,-2.772537,-1.670865,8.211102,-5.297884,0.779485,-6.406609,0.304067,-8.591368,-21.956629,8064.000000,0.000000,4.000000,,,,0.000000,4.000000,4.000000,4.000000,4.000000,4.000000,4.000000,2.000000,4.000000,4.000000,4.000000,4.000000,4.000000,4.000000,4.000000,4.000000,4.000000,4.000000,4.000000,4.000000,4.000000,4.000000,4.000000,4.000000,2.000000,2.000000,4.000000,4.000000,4.000000,4.000000,4.000000,4.000000,4.000000,50.000000
1614130267.667664,42.000000,0.000000,1.481192,-10.915447,-16.592590,-18.300695,-18.407213,-12.855099,-10.569517,-10.240761,-6.047471,-2.570593,-11.011221,-2.505319,-7.506678,-8.792199,4.935780,-0.234305,2.665913,8.281541,1.725517,0.068320,-3.178326,-2.836709,6.428154,-2.769764,-1.669194,8.202890,-5.805407,0.778705,-5.887382,-0.721878,-9.095596,-24.498774,8064.000000,0.000000,4.000000,,,,0.000000,4.000000,4.000000,4.000000,4.000000,4.000000,4.000000,2.000000,4.000000,4.000000,4.000000,4.000000,4.000000,4.000000,4.000000,4.000000,4.000000,4.000000,4.000000,4.000000,4.000000,4.000000,4.000000,4.000000,2.000000,2.000000,4.000000,4.000000,4.000000,4.000000,4.000000,4.000000,4.000000,50.000000
1614130267.675413,43.000000,0.000000,4.043813,-10.391711,-16.575996,-17.769573,-21.465729,-12.329423,-12.610229,-10.230520,-8.605526,-6.157766,-13.051492,-3.015634,-12.114555,-21.603920,-5.325566,-18.182789,2.663247,1.093772,-4.430054,-10.700979,-6.252070,-2.833872,6.421725,-2.766995,-3.205986,6.656226,-7.850883,1.290747,-5.881495,0.304485,-7.548039,-26.012737,8064.000000,0.000000,4.000000,,,,0.000000,4.000000,4.000000,4.000000,4.000000,4.000000,4.000000,2.000000,4.000000,4.000000,4.000000,4.000000,4.000000,4.000000,4.000000,4.000000,4.000000,4.000000,4.000000,4.000000,4.000000,4.000000,4.000000,4.000000,2.000000,2.000000,4.000000,4.000000,4.000000,4.000000,4.000000,4.000000,4.000000,50.000000
1614130267.683062,44.000000,0.000000,5.578231,-10.381320,-16.559422,-17.751804,-20.931442,-12.317094,-0.802747,-10.220290,-8.084101,-5.125968,-12.012799,-3.012619,-11.076800,-19.018213,-7.884344,-15.600504,2.660583,4.682422,-1.348701,-8.126176,-5.732998,-2.831038,6.415304,-2.764228,-5.254062,4.085467,-8.355853,0.776636,-7.926895,-5.336845,-8.566133,-31.627750,8064.000000,0.000000,4.000000,,,,0.000000,4.000000,4.000000,4.000000,4.000000,4.000000,4.000000,2.000000,4.000000,4.000000,4.000000,4.000000,4.000000,4.000000,4.000000,4.000000,4.000000,4.000000,4.000000,4.000000,4.000000,4.000000,4.000000,4.000000,2.000000,2.000000,4.000000,4.000000,4.000000,4.000000,4.000000,4.000000,4.000000,50.000000
1614130267.690811,45.000000,0.000000,5.059832,-10.370938,-16.542862,-18.246874,-20.910511,-12.304777,10.992927,-10.210070,-7.050375,-5.120842,-12.000787,-1.983965,-6.963159,-13.870990,-1.722613,-0.200288,4.709205,12.882867,1.729571,1.625540,-4.701624,-2.828207,6.408888,-2.761463,-5.761629,3.568561,-8.347497,0.775859,-9.970250,-14.562278,-8.557567,-36.724327,8064.000000,0.000000,4.000000,,,,0.000000,4.000000,4.000000,4.000000,4.000000,4.000000,4.000000,2.000000,4.000000,4.000000,4.000000,4.000000,4.000000,4.000000,4.000000,4.000000,4.000000,4.000000,4.000000,4.000000,4.000000,4.000000,4.000000,4.000000,2.000000,2.000000,4.000000,4.000000,4.000000,4.000000,4.000000,4.000000,4.000000,50.000000
1614130267.698460,46.000000,0.000000,5.054772,-10.360567,-16.526320,-17.715805,-20.889601,-12.292472,8.930652,-10.199860,-8.068966,-5.628541,-12.501606,0.582121,-7.469017,-12.831478,0.843212,-0.712908,6.242957,11.331523,-1.349082,-1.965829,-9.312307,-2.825379,6.402480,-2.758702,-5.243047,4.077813,-8.339149,0.775083,-9.960279,-16.598997,-8.036188,-36.687603,8064.000000,0.000000,4.000000,,,,0.000000,4.000000,4.000000,4.000000,4.000000,4.000000,4.000000,2.000000,4.000000,4.000000,4.000000,4.000000,4.000000,4.000000,4.000000,4.000000,4.000000,4.000000,4.000000,4.000000,4.000000,4.000000,4.000000,4.000000,2.000000,2.000000,4.000000,4.000000,4.000000,4.000000,4.000000,4.000000,4.000000,50.000000
1614130267.706209,47.000000,0.000000,5.049717,-10.350207,-16.509792,-17.698090,-20.868711,-12.280179,3.280696,-9.676839,-8.060897,-5.110092,-9.412181,1.094360,-5.923086,-7.177620,0.842369,0.313446,6.236714,9.781730,-2.886194,-5.040786,-8.277353,-2.822553,6.396077,-2.755943,-5.237803,3.560915,-5.766707,-1.276974,-9.950319,-12.992655,-8.028152,-36.650913,8064.000000,0.000000,4.000000,,,,0.000000,4.000000,4.000000,4.000000,4.000000,4.000000,4.000000,2.000000,4.000000,4.000000,4.000000,4.000000,4.000000,4.000000,4.000000,4.000000,4.000000,4.000000,4.000000,4.000000,4.000000,4.000000,4.000000,4.000000,2.000000,2.000000,4.000000,4.000000,4.000000,4.000000,4.000000,4.000000,4.000000,50.000000
1614130267.713858,48.000000,0.000000,5.044668,-10.339857,-16.493282,-18.193213,-20.335022,-12.267900,-0.825149,-6.077419,-2.924631,-5.104982,-4.787385,1.606086,4.339247,-1.016597,3.918450,12.108005,6.230478,15.925795,6.347461,1.630921,1.987334,-2.819731,6.389681,-2.753187,-5.232566,4.070174,-4.222479,-2.814158,-10.453190,-10.928380,-8.020123,-35.075802,8064.000000,0.000000,4.000000,,,,0.000000,4.000000,4.000000,4.000000,4.000000,4.000000,4.000000,2.000000,4.000000,4.000000,4.000000,4.000000,4.000000,4.000000,4.000000,4.000000,4.000000,4.000000,4.000000,4.000000,4.000000,4.000000,4.000000,4.000000,2.000000,2.000000,4.000000,4.000000,4.000000,4.000000,4.000000,4.000000,4.000000,50.000000
1614130267.721707,49.000000,0.000000,5.039623,-10.329517,-16.476789,-17.662199,-20.314686,-12.255631,-5.439709,-2.994418,0.668037,-5.099877,-3.756956,4.168582,6.386190,-1.015580,4.427352,6.454871,5.711427,14.371407,9.930857,-4.011735,3.523808,-2.816911,6.383291,-2.750434,-5.740154,3.553284,-4.218257,-3.324165,-9.929916,-13.481555,-8.012104,-35.553547,8064.000000,0.000000,4.000000,,,,0.000000,4.000000,4.000000,4.000000,4.000000,4.000000,4.000000,2.000000,4.000000,4.000000,4.000000,4.000000,4.000000,4.000000,4.000000,4.000000,4.000000,4.000000,4.000000,4.000000,4.000000,4.000000,4.000000,4.000000,2.000000,2.000000,4.000000,4.000000,4.000000,4.000000,4.000000,4.000000,4.000000,50.000000
1614130267.729456,50.000000,0.000000,5.034584,-10.319187,-16.460312,-17.644537,-20.807192,-12.243376,-4.921448,-4.529885,-3.435195,-5.094777,-6.317302,5.190055,-6.440709,-1.527385,-2.756563,-12.013123,3.141613,2.049343,-4.950869,-16.315416,-5.710485,-2.814094,6.376908,-2.747684,-4.708773,3.036910,-2.675577,-2.295199,-10.432807,-12.442432,-6.465630,-38.082096,8064.000000,0.000000,4.000000,,,,0.000000,4.000000,4.000000,4.000000,4.000000,4.000000,4.000000,2.000000,4.000000,4.000000,4.000000,4.000000,4.000000,4.000000,4.000000,4.000000,4.000000,4.000000,4.000000,4.000000,4.000000,4.000000,4.000000,4.000000,2.000000,2.000000,4.000000,4.000000,4.000000,4.000000,4.000000,4.000000,4.000000,50.000000
1614130267.737305,51.000000,0.000000,5.029549,-10.821689,-16.443851,-18.139713,-20.273565,-12.743953,0.211678,-6.576637,-8.047144,-5.089682,-8.362267,4.672044,-15.665037,-1.525858,-7.369191,-15.078032,2.112830,-3.080911,-13.151046,-16.811920,-5.704774,-2.811280,6.370531,-3.257756,-2.652782,7.649258,-0.108799,-0.241622,-9.909554,-1.147938,-4.407882,-26.249142,8064.000000,0.000000,4.000000,,,,0.000000,4.000000,4.000000,4.000000,4.000000,4.000000,4.000000,2.000000,4.000000,4.000000,4.000000,4.000000,4.000000,4.000000,4.000000,4.000000,4.000000,4.000000,4.000000,4.000000,4.000000,4.000000,4.000000,4.000000,2.000000,2.000000,4.000000,4.000000,4.000000,4.000000,4.000000,4.000000,4.000000,50.000000
1614130267.745055,52.000000,0.000000,5.024519,-9.785226,-16.427408,-15.557470,-17.689188,-9.654285,3.288390,-6.570061,-5.474995,-5.084592,-5.789802,7.231475,-14.110910,-1.524332,-5.823360,-9.934750,2.623538,0.511913,-3.907126,-11.666904,0.967597,-2.808469,6.364161,-2.228858,-1.624488,13.795455,-0.108690,0.784260,-8.361182,10.135261,-3.890654,-7.761355,8064.000000,0.000000,4.000000,,,,0.000000,4.000000,4.000000,4.000000,4.000000,4.000000,4.000000,2.000000,4.000000,4.000000,4.000000,4.000000,4.000000,4.000000,4.000000,4.000000,4.000000,4.000000,4.000000,4.000000,4.000000,4.000000,4.000000,4.000000,2.000000,2.000000,4.000000,4.000000,4.000000,4.000000,4.000000,4.000000,4.000000,50.000000
1614130267.752904,53.000000,0.000000,5.019495,-7.211338,-16.410980,-10.926528,-16.133038,-5.542068,1.746640,-6.050670,-3.418237,-5.079508,-4.245550,9.275525,-13.583980,-1.522808,-5.817537,-11.463276,2.620914,1.537042,-0.826296,-12.168057,2.505091,-2.805660,6.357796,-0.175347,-1.110043,14.807301,-0.621402,0.783476,-5.788719,11.150766,-4.399584,-9.804875,8064.000000,0.000000,4.000000,,,,0.000000,4.000000,4.000000,4.000000,4.000000,4.000000,4.000000,2.000000,4.000000,4.000000,4.000000,4.000000,4.000000,4.000000,4.000000,4.000000,4.000000,4.000000,4.000000,4.000000,4.000000,4.000000,4.000000,4.000000,2.000000,2.000000,4.000000,4.000000,4.000000,4.000000,4.000000,4.000000,4.000000,50.000000
1614130267.760653,54.000000,0.000000,5.014475,-6.178486,-16.394569,-9.377140,-16.629725,-3.998064,2.770534,-6.557440,-3.927640,-5.074429,-6.805408,7.214968,-15.108857,-4.598208,-6.324540,-10.938993,2.618293,0.509864,-3.902392,-13.694351,0.451304,-2.802855,6.351439,1.363290,0.429529,14.792493,-0.620781,0.782693,-2.193186,11.139616,-4.395184,-21.077122,8064.000000,0.000000,4.000000,,,,0.000000,4.000000,4.000000,4.000000,4.000000,4.000000,4.000000,2.000000,4.000000,4.000000,4.000000,4.000000,4.000000,4.000000,4.000000,4.000000,4.000000,4.000000,4.000000,4.000000,4.000000,4.000000,4.000000,4.000000,2.000000,2.000000,4.000000,4.000000,4.000000,4.000000,4.000000,4.000000,4.000000,50.000000
1614130267.768502,55.000000,0.000000,5.009461,-6.685128,-16.378176,-10.393404,-16.613096,-4.506886,3.280584,-6.550883,-4.436532,-5.069354,-8.849884,5.156471,-15.093748,-9.208994,-5.805395,-7.338310,2.615675,4.099098,3.280997,-12.655016,0.963673,-2.800052,6.345087,0.849106,2.993202,16.828983,-0.620160,0.781910,0.373109,14.718220,-3.877969,-17.466301,8064.000000,0.000000,4.000000,,,,0.000000,4.000000,4.000000,4.000000,4.000000,4.000000,4.000000,2.000000,4.000000,4.000000,4.000000,4.000000,4.000000,4.000000,4.000000,4.000000,4.000000,4.000000,4.000000,4.000000,4.000000,4.000000,4.000000,4.000000,2.000000,2.000000,4.000000,4.000000,4.000000,4.000000,4.000000,4.000000,4.000000,50.000000
1614130267.776251,56.000000,0.000000,5.004451,-6.678443,-16.361797,-9.870190,-16.083662,-6.553661,-2.363722,-6.544332,-3.919276,-5.064285,-8.841034,4.638494,-14.565834,-8.686965,-5.799589,-6.818151,2.613059,6.146281,4.303357,-11.616719,1.988350,-2.797252,6.338742,0.848257,5.041491,18.350615,-0.619540,0.781128,1.398377,13.165040,-4.386911,-11.807809,8064.000000,0.000000,4.000000,,,,0.000000,4.000000,4.000000,4.000000,4.000000,4.000000,4.000000,2.000000,4.000000,4.000000,4.000000,4.000000,4.000000,4.000000,4.000000,4.000000,4.000000,4.000000,4.000000,4.000000,4.000000,4.000000,4.000000,4.000000,2.000000,2.000000,4.000000,4.000000,4.000000,4.000000,4.000000,4.000000,4.000000,50.000000
1614130267.784100,57.000000,0.000000,4.999447,-6.158944,-16.345436,-9.860320,-16.580399,-8.085569,-8.002384,-6.537787,-3.915356,-5.059220,-7.806552,4.633855,-13.012806,-5.601355,-5.793789,-7.324153,3.123267,4.088852,-9.034280,-13.143564,1.473541,-2.794454,6.332403,0.847409,6.062090,19.870726,-0.618920,0.780347,1.396979,10.074952,-4.382524,-13.847283,8064.000000,0.000000,4.000000,,,,0.000000,4.000000,4.000000,4.000000,4.000000,4.000000,4.000000,2.000000,4.000000,4.000000,4.000000,4.000000,4.000000,4.000000,4.000000,4.000000,4.000000,4.000000,4.000000,4.000000,4.000000,4.000000,4.000000,4.000000,2.000000,2.000000,4.000000,4.000000,4.000000,4.000000,4.000000,4.000000,4.000000,50.000000
1614130267.791849,58.000000,0.000000,4.994448,-6.665606,-16.329090,-10.363280,-16.563818,-8.590304,-9.020022,-6.531250,-3.911441,-5.054161,-6.260284,4.629221,-14.025434,-5.595753,-5.787996,-7.316829,2.607323,6.136046,-6.461143,-10.566319,1.472068,-2.791660,5.813251,0.846561,6.056028,21.902138,-0.105481,0.266746,1.395582,12.116159,-4.378141,-13.320616,8064.000000,0.000000,4.000000,,,,0.000000,4.000000,4.000000,4.000000,4.000000,4.000000,4.000000,2.000000,4.000000,4.000000,4.000000,4.000000,4.000000,4.000000,4.000000,4.000000,4.000000,4.000000,4.000000,4.000000,4.000000,4.000000,4.000000,4.000000,2.000000,2.000000,4.000000,4.000000,4.000000,4.000000,4.000000,4.000000,4.000000,50.000000
1614130267.799698,59.000000,0.000000,4.989453,-6.658940,-16.312761,-10.352917,-16.547255,-8.581714,-10.036644,-6.524718,-3.907529,-5.561927,-4.715562,4.624592,-16.062691,-6.615798,-5.782208,-7.822333,2.091895,15.873500,13.545319,-0.812162,4.547519,-2.276048,6.320258,0.845715,6.049972,21.880236,-0.105375,1.292120,0.881366,13.642505,-4.373764,-11.256013,8064.000000,0.000000,4.000000,,,,0.000000,4.000000,4.000000,4.000000,4.000000,4.000000,4.000000,2.000000,4.000000,4.000000,4.000000,4.000000,4.000000,4.000000,4.000000,4.000000,4.000000,4.000000,4.000000,4.000000,4.000000,4.000000,4.000000,4.000000,2.000000,2.000000,4.000000,4.000000,4.000000,4.000000,4.000000,4.000000,4.000000,50.000000
1614130267.807447,60.000000,0.000000,4.984464,-6.652281,-16.296448,-10.342564,-16.530706,-8.573133,-13.103530,-6.518194,-3.903622,-4.530725,-4.710846,4.619968,-8.354321,-5.070721,-5.776426,-7.301690,5.166726,21.498652,20.711260,7.393778,7.619895,0.290331,8.878040,0.844869,5.531102,23.396816,-1.643731,3.342110,2.418946,14.654503,-4.369390,-8.680655,8064.000000,0.000000,4.000000,,,,0.000000,4.000000,4.000000,4.000000,4.000000,4.000000,4.000000,2.000000,4.000000,4.000000,4.000000,4.000000,4.000000,4.000000,4.000000,4.000000,4.000000,4.000000,4.000000,4.000000,4.000000,4.000000,4.000000,4.000000,2.000000,2.000000,4.000000,4.000000,4.000000,4.000000,4.000000,4.000000,4.000000,50.000000
1614130267.815296,61.000000,0.000000,4.979479,-6.645628,-16.280151,-10.332221,-16.514177,-8.564559,-11.551965,-6.511675,-3.899718,-1.962091,-4.193315,4.615348,1.397623,-2.501548,-5.770649,-7.294388,7.212842,18.400230,17.100805,5.847923,7.612275,1.315682,10.407623,0.844024,5.525570,22.347778,0.409194,4.877230,4.980630,16.691130,-4.365020,-4.056589,8064.000000,0.000000,4.000000,,,,0.000000,4.000000,4.000000,4.000000,4.000000,4.000000,4.000000,2.000000,4.000000,4.000000,4.000000,4.000000,4.000000,4.000000,4.000000,4.000000,4.000000,4.000000,4.000000,4.000000,4.000000,4.000000,4.000000,4.000000,2.000000,2.000000,4.000000,4.000000,4.000000,4.000000,4.000000,4.000000,4.000000,50.000000
1614130267.823045,62.000000,0.000000,4.974500,-6.638983,-16.263872,-10.321889,-16.497662,-8.555995,-12.566054,-6.505164,-3.895819,-2.472950,-5.727583,4.610733,-5.783262,-1.473405,-6.277699,-8.825556,2.077424,14.279265,13.493961,1.226690,6.066201,-0.736916,9.884396,1.356001,6.032866,12.581841,-0.104035,4.359532,1.898726,14.110337,-4.360655,-4.052533,8064.000000,0.000000,4.000000,,,,0.000000,4.000000,4.000000,4.000000,4.000000,4.000000,4.000000,2.000000,4.000000,4.000000,4.000000,4.000000,4.000000,4.000000,4.000000,4.000000,4.000000,4.000000,4.000000,4.000000,4.000000,4.000000,4.000000,4.000000,2.000000,2.000000,4.000000,4.000000,4.000000,4.000000,4.000000,4.000000,4.000000,50.000000
1614130267.830894,63.000000,0.000000,4.969525,-6.632344,-16.247608,-10.311567,-16.481165,-8.547439,-13.066309,-7.011479,-3.891923,-5.034579,-7.773138,4.606122,-13.982607,-1.984753,-5.758601,-2.662884,-5.104141,11.700884,2.198416,-1.338639,2.470391,-4.325923,9.874511,-0.183817,5.001192,2.825669,-10.873162,4.355173,-5.282660,9.480842,-4.356295,-8.663864,8064.000000,0.000000,4.000000,,,,0.000000,4.000000,4.000000,4.000000,4.000000,4.000000,4.000000,2.000000,4.000000,4.000000,4.000000,4.000000,4.000000,4.000000,4.000000,4.000000,4.000000,4.000000,4.000000,4.000000,4.000000,4.000000,4.000000,4.000000,2.000000,2.000000,4.000000,4.000000,4.000000,4.000000,4.000000,4.000000,4.000000,50.000000
1614130267.838643,64.000000,0.000000,4.964556,-6.625711,-16.231359,-10.301255,-16.464684,-8.538891,-3.309653,-7.004467,-3.888031,-5.542365,-6.739724,4.601516,-5.763496,-1.982768,-2.675919,8.621830,-5.099037,11.689183,-1.906347,-1.337300,-2.147464,-6.372879,9.864636,-2.747736,2.432088,2.310023,-17.528955,4.350817,-6.815839,9.471361,-4.351938,-10.706483,0.000000,196.000000,4.000000,,,,0.000000,4.000000,4.000000,4.000000,4.000000,4.000000,4.000000,2.000000,4.000000,4.000000,4.000000,4.000000,4.000000,4.000000,4.000000,4.000000,4.000000,4.000000,4.000000,4.000000,4.000000,4.000000,4.000000,4.000000,2.000000,2.000000,4.000000,4.000000,4.000000,4.000000,4.000000,4.000000,4.000000,50.000000
1614130267.846292,65.000000,0.000000,4.959591,-6.619086,-16.215128,-9.778133,-16.448219,-8.530353,2.334683,-5.971822,-3.884143,-4.511182,-4.168881,4.596914,2.447396,-1.980785,0.916500,12.715773,-0.991374,16.805698,13.992995,0.202498,-2.658137,-4.315224,9.854772,-3.257808,1.404015,3.333354,-10.844760,4.346467,-5.783382,10.487531,-4.347587,-9.670135,0.000000,199.000000,4.000000,,,,0.000000,4.000000,4.000000,4.000000,4.000000,4.000000,4.000000,2.000000,4.000000,4.000000,4.000000,4.000000,4.000000,4.000000,4.000000,4.000000,4.000000,4.000000,4.000000,4.000000,4.000000,4.000000,4.000000,4.000000,2.000000,2.000000,4.000000,4.000000,4.000000,4.000000,4.000000,4.000000,4.000000,50.000000
1614130267.854041,66.000000,0.000000,4.954631,-6.612467,-16.198914,-10.793997,-16.431770,-8.521822,-8.436883,-6.478671,-3.880259,-5.019491,-4.677533,4.592317,0.393667,-1.978804,1.941225,10.651774,-1.503203,22.942739,24.748234,1.740757,-0.091376,-2.772447,9.332096,-2.741730,1.915431,3.330021,-6.731351,4.342120,-6.290419,9.451402,-4.856060,-10.173285,0.000000,108.000000,4.000000,,,,0.000000,4.000000,4.000000,4.000000,4.000000,4.000000,4.000000,2.000000,4.000000,4.000000,4.000000,4.000000,4.000000,4.000000,4.000000,4.000000,4.000000,4.000000,4.000000,4.000000,4.000000,4.000000,4.000000,4.000000,2.000000,2.000000,4.000000,4.000000,4.000000,4.000000,4.000000,4.000000,4.000000,50.000000
1614130267.861690,67.000000,0.000000,4.436856,-6.605855,-16.182714,-9.757562,-16.415339,-8.513300,-18.172035,-6.985013,-3.876379,-5.014472,-5.185676,4.074904,-0.632368,-1.976825,1.426463,11.153944,-1.501700,23.432617,19.082460,2.251837,1.447177,-2.769675,9.835585,-2.738988,1.400695,5.377973,-8.775902,3.824957,-6.796949,9.954771,-4.338383,-10.675933,0.000000,201.000000,4.000000,,,,0.000000,4.000000,4.000000,4.000000,4.000000,4.000000,4.000000,2.000000,4.000000,4.000000,4.000000,4.000000,4.000000,4.000000,4.000000,4.000000,4.000000,4.000000,4.000000,4.000000,4.000000,4.000000,4.000000,4.000000,2.000000,2.000000,4.000000,4.000000,4.000000,4.000000,4.000000,4.000000,4.000000,50.000000
1614130267.869439,68.000000,0.000000,6.483702,-6.599248,-16.166533,-5.132420,-16.398924,-5.940684,-15.589761,-1.337002,-3.872502,-5.009457,-4.667670,6.122111,0.906726,-1.974849,1.937857,11.655610,2.602366,22.896364,14.447992,2.249585,4.522653,0.310018,9.825749,-2.736249,1.912115,7.936697,-6.203023,4.846774,-6.277332,9.944817,-0.231480,-10.152436,0.000000,202.000000,4.000000,,,,0.000000,4.000000,4.000000,4.000000,4.000000,4.000000,4.000000,2.000000,4.000000,4.000000,4.000000,4.000000,4.000000,4.000000,4.000000,4.000000,4.000000,4.000000,4.000000,4.000000,4.000000,4.000000,4.000000,4.000000,2.000000,2.000000,4.000000,4.000000,4.000000,4.000000,4.000000,4.000000,4.000000,50.000000
1614130267.877089,69.000000,0.000000,8.528500,-6.592649,-16.150366,-3.076005,-15.869704,-4.396282,-16.599812,3.792540,-3.868629,-5.004448,-4.663002,8.167272,0.905819,-1.972874,1.423099,7.541390,6.702328,23.899109,16.484827,2.247336,8.620694,4.412272,9.303103,-2.733513,2.423023,12.031325,-4.145538,7.406029,-6.271054,10.447692,3.358495,-9.629463,0.000000,163.000000,4.000000,,,,0.000000,4.000000,4.000000,4.000000,4.000000,4.000000,4.000000,2.000000,4.000000,4.000000,4.000000,4.000000,4.000000,4.000000,4.000000,4.000000,4.000000,4.000000,4.000000,4.000000,4.000000,4.000000,4.000000,4.000000,2.000000,2.000000,4.000000,4.000000,4.000000,4.000000,4.000000,4.000000,4.000000,50.000000
1614130267.884838,70.000000,0.000000,8.519972,-6.586057,-16.134214,-5.637032,-15.853834,-6.443168,-16.070393,-1.339458,-3.864761,-4.999444,-4.658339,8.159104,0.392093,-1.970901,1.934496,2.918464,6.182805,20.798286,16.981163,2.245089,10.150535,4.920680,10.319441,-2.730779,0.882139,15.096216,-2.602931,8.424264,-6.264783,9.924424,3.355136,-10.645475,0.000000,193.000000,4.000000,,,,0.000000,4.000000,4.000000,4.000000,4.000000,4.000000,4.000000,2.000000,4.000000,4.000000,4.000000,4.000000,4.000000,4.000000,4.000000,4.000000,4.000000,4.000000,4.000000,4.000000,4.000000,4.000000,4.000000,4.000000,2.000000,2.000000,4.000000,4.000000,4.000000,4.000000,4.000000,4.000000,4.000000,50.000000
1614130267.892487,71.000000,0.000000,8.511452,-6.579471,-16.118080,-7.169856,-16.350801,-8.488007,-0.669706,-6.979144,-3.860896,-5.507265,-4.653681,8.150945,0.391701,-1.968930,3.983844,2.402725,6.176622,19.751846,16.451361,4.294126,11.678845,4.402939,12.873224,-2.728049,2.932539,15.081120,2.015057,8.415840,-6.258519,9.401679,2.838961,-10.122009,0.000000,207.000000,4.000000,,,,0.000000,4.000000,4.000000,4.000000,4.000000,4.000000,4.000000,2.000000,4.000000,4.000000,4.000000,4.000000,4.000000,4.000000,4.000000,4.000000,4.000000,4.000000,4.000000,4.000000,4.000000,4.000000,4.000000,4.000000,2.000000,2.000000,4.000000,4.000000,4.000000,4.000000,4.000000,4.000000,4.000000,50.000000
1614130267.900236,72.000000,0.000000,8.502940,-6.572891,-15.589142,-5.624225,-15.308809,-8.479519,15.228399,-6.459344,-3.344215,-4.988936,-4.649027,8.142794,0.391309,-1.966961,6.031142,7.528528,8.734549,24.860300,15.409268,6.853934,13.718449,4.398536,13.885992,-2.725321,8.570632,14.553219,3.038682,7.894604,-6.252260,10.417918,3.348942,-9.086246,0.000000,178.000000,4.000000,,,,0.000000,4.000000,4.000000,4.000000,4.000000,4.000000,4.000000,2.000000,4.000000,4.000000,4.000000,4.000000,4.000000,4.000000,4.000000,4.000000,4.000000,4.000000,4.000000,4.000000,4.000000,4.000000,4.000000,4.000000,2.000000,2.000000,4.000000,4.000000,4.000000,4.000000,4.000000,4.000000,4.000000,50.000000
1614130267.907885,73.000000,0.000000,8.494437,-6.566318,-17.112015,-7.669882,-16.319141,-8.471039,20.854197,-5.940064,-3.853691,-4.471127,-4.644378,8.134651,-0.121903,-1.452174,4.486650,5.982538,9.751454,26.886723,15.906679,5.821439,11.140628,4.906958,12.846465,-2.722595,5.997959,13.513024,-0.041279,6.348248,-6.246008,10.407500,3.345593,-11.641262,0.000000,191.000000,4.000000,,,,0.000000,4.000000,4.000000,4.000000,4.000000,4.000000,4.000000,2.000000,4.000000,4.000000,4.000000,4.000000,4.000000,4.000000,4.000000,4.000000,4.000000,4.000000,4.000000,4.000000,4.000000,4.000000,4.000000,4.000000,2.000000,2.000000,4.000000,4.000000,4.000000,4.000000,4.000000,4.000000,4.000000,50.000000
1614130267.915634,74.000000,0.000000,8.485943,-6.559752,-19.659004,-10.226315,-22.969488,-8.462568,16.217958,-6.959765,-6.413940,-6.005117,-5.152555,7.613696,-0.121781,-2.476362,1.405240,-4.792675,8.716063,23.782913,16.403593,3.251515,4.462821,4.389231,12.833618,-2.719873,-0.674706,11.448230,-1.066879,4.290617,-5.726941,5.268888,2.829427,-13.680903,0.000000,185.000000,4.000000,,,,0.000000,4.000000,4.000000,4.000000,4.000000,4.000000,4.000000,2.000000,4.000000,4.000000,4.000000,4.000000,4.000000,4.000000,4.000000,4.000000,4.000000,4.000000,4.000000,4.000000,4.000000,4.000000,4.000000,4.000000,2.000000,2.000000,4.000000,4.000000,4.000000,4.000000,4.000000,4.000000,4.000000,50.000000
1614130267.923283,75.000000,0.000000,8.477457,-6.553192,-19.639345,-10.728909,-27.561905,-8.454105,0.304304,-6.952806,-7.945988,-3.947830,-4.634581,8.118903,1.416802,-1.961066,1.403834,-5.813524,10.245808,23.759129,9.207703,2.222622,0.355794,4.384841,13.846426,-2.717153,0.351610,10.411140,-0.040171,4.286326,-3.669932,3.212337,2.826598,-9.564658,0.000000,193.000000,4.000000,,,,0.000000,4.000000,4.000000,4.000000,4.000000,4.000000,4.000000,2.000000,4.000000,4.000000,4.000000,4.000000,4.000000,4.000000,4.000000,4.000000,4.000000,4.000000,4.000000,4.000000,4.000000,4.000000,4.000000,4.000000,2.000000,2.000000,4.000000,4.000000,4.000000,4.000000,4.000000,4.000000,4.000000,50.000000
1614130267.931032,76.000000,0.000000,8.468979,-6.546639,-19.106886,-10.205360,-27.021523,-8.445651,-18.157539,-6.433032,-6.912401,2.209964,-2.578665,8.623605,0.389744,-0.933463,1.915251,1.371777,9.209921,19.632807,-2.596377,0.681938,0.868258,4.380456,13.319759,-2.714436,1.376899,10.913549,-0.552951,4.282040,-2.127801,8.850150,3.336592,-5.965350,0.000000,186.000000,4.000000,,,,0.000000,4.000000,4.000000,4.000000,4.000000,4.000000,4.000000,2.000000,4.000000,4.000000,4.000000,4.000000,4.000000,4.000000,4.000000,4.000000,4.000000,4.000000,4.000000,4.000000,4.000000,4.000000,4.000000,4.000000,2.000000,2.000000,4.000000,4.000000,4.000000,4.000000,4.000000,4.000000,4.000000,50.000000
1614130267.938682,77.000000,0.000000,8.460510,-6.540092,-21.139061,-10.195154,-26.481680,-8.437205,-20.703484,-6.426599,-7.931129,-0.869169,-6.678650,7.589340,-4.226030,-4.009453,0.887695,-6.834723,5.098147,12.433686,-2.593781,-1.370026,1.893031,5.401717,12.280798,-2.711721,-4.265503,10.902636,-0.552399,4.277758,-2.638494,8.841300,1.794793,-10.061949,0.000000,183.000000,4.000000,,,,0.000000,4.000000,4.000000,4.000000,4.000000,4.000000,4.000000,2.000000,4.000000,4.000000,4.000000,4.000000,4.000000,4.000000,4.000000,4.000000,4.000000,4.000000,4.000000,4.000000,4.000000,4.000000,4.000000,4.000000,2.000000,2.000000,4.000000,4.000000,4.000000,4.000000,4.000000,4.000000,4.000000,50.000000
1614130267.946431,78.000000,0.000000,8.452049,-6.533552,-23.169205,-10.184959,-27.480839,-8.428768,-12.990473,-6.420173,-10.487301,-7.534967,-7.697612,8.607391,0.393581,-8.108007,4.989371,-8.366350,10.734075,18.062279,6.639582,-0.343015,1.378318,4.883495,17.396723,-2.709010,-6.312520,10.891733,-0.551846,4.273480,-2.635855,2.678612,-0.771104,-14.154450,0.000000,193.000000,4.000000,,,,0.000000,4.000000,4.000000,4.000000,4.000000,4.000000,4.000000,2.000000,4.000000,4.000000,4.000000,4.000000,4.000000,4.000000,4.000000,4.000000,4.000000,4.000000,4.000000,4.000000,4.000000,4.000000,4.000000,4.000000,2.000000,2.000000,4.000000,4.000000,4.000000,4.000000,4.000000,4.000000,4.000000,50.000000
1614130267.954080,79.000000,0.000000,8.443598,-6.527019,-23.146034,-10.174774,-26.940538,-8.420340,-6.823636,-6.413753,-11.502455,-7.014612,2.566495,11.675707,11.675239,-6.048618,14.727971,10.616375,22.518211,29.326267,9.197045,1.708610,1.376939,4.365791,24.558813,-2.706300,-3.229284,10.880841,-0.551294,4.269207,-2.120399,1.650293,-0.770333,-14.140296,0.000000,186.000000,4.000000,,,,0.000000,4.000000,4.000000,4.000000,4.000000,4.000000,4.000000,2.000000,4.000000,4.000000,4.000000,4.000000,4.000000,4.000000,4.000000,4.000000,4.000000,4.000000,4.000000,4.000000,4.000000,4.000000,4.000000,4.000000,2.000000,2.000000,4.000000,4.000000,4.000000,4.000000,4.000000,4.000000,4.000000,50.000000
1614130267.961929,80.000000,0.000000,8.435154,-6.520492,-22.610069,-10.164599,-25.887957,-8.411920,3.952419,-5.894518,-10.978131,-6.494776,4.102390,10.125570,7.048179,-6.042569,17.277346,12.657041,23.521336,29.296942,8.675028,3.245363,1.888383,6.412707,22.482971,-2.703594,-1.174773,10.869961,-0.550743,4.264938,-2.631099,3.187104,2.307361,-13.613336,0.000000,171.000000,4.000000,,,,0.000000,4.000000,4.000000,4.000000,4.000000,4.000000,4.000000,2.000000,4.000000,4.000000,4.000000,4.000000,4.000000,4.000000,4.000000,4.000000,4.000000,4.000000,4.000000,4.000000,4.000000,4.000000,4.000000,4.000000,2.000000,4.000000,4.000000,4.000000,4.000000,4.000000,4.000000,4.000000,4.000000,66.666664
1614130267.969678,81.000000,0.000000,8.426719,-6.513971,-23.100279,-10.154435,-28.938992,-8.403507,11.127954,-6.914265,-10.454332,-11.103666,-10.260686,3.448778,-9.369126,-12.190372,7.003658,-9.406898,13.241404,15.934311,10.204814,2.729297,2.399315,2.303730,14.255361,-2.700891,-1.686419,10.859091,-0.550192,4.260673,-2.628468,2.671097,3.330694,-12.061260,0.000000,171.000000,4.000000,,,,0.000000,4.000000,4.000000,4.000000,4.000000,4.000000,4.000000,2.000000,4.000000,4.000000,4.000000,4.000000,4.000000,4.000000,4.000000,4.000000,4.000000,4.000000,4.000000,4.000000,4.000000,4.000000,4.000000,4.000000,2.000000,4.000000,4.000000,4.000000,4.000000,4.000000,4.000000,4.000000,4.000000,66.666664
1614130267.977527,82.000000,0.000000,8.418292,-6.507457,-23.590000,-10.144280,-33.525436,-8.395104,-2.216508,-9.471453,-12.495160,-13.656665,-17.942734,-1.170056,-15.513603,-16.793568,-7.362319,-18.628260,5.535854,-3.568803,-2.625903,-7.017022,-3.756930,-10.006266,12.189823,-2.698190,-2.710373,10.848231,-0.036822,4.256412,-2.625839,2.155605,2.814543,-9.997917,0.000000,200.000000,4.000000,,,,0.000000,4.000000,4.000000,4.000000,4.000000,4.000000,4.000000,2.000000,4.000000,4.000000,4.000000,4.000000,4.000000,4.000000,4.000000,4.000000,4.000000,4.000000,4.000000,4.000000,4.000000,4.000000,4.000000,4.000000,2.000000,4.000000,4.000000,4.000000,4.000000,4.000000,4.000000,4.000000,4.000000,66.666664
1614130267.985276,83.000000,0.000000,8.409874,-6.500950,-23.566410,-10.134136,-35.030373,-8.386709,-20.675831,-10.487622,-14.533947,-12.617368,-15.360688,-2.194527,-13.446807,-18.315235,-14.534445,-14.507068,2.453395,-14.847285,-22.110456,-21.368979,-14.009583,-18.201387,13.716095,-2.695492,-1.169201,10.837383,-0.549605,4.252156,-2.623213,2.153449,2.811728,-11.013560,0.000000,172.000000,4.000000,,,,0.000000,4.000000,4.000000,4.000000,4.000000,4.000000,4.000000,2.000000,4.000000,4.000000,4.000000,4.000000,4.000000,4.000000,4.000000,4.000000,4.000000,4.000000,4.000000,4.000000,4.000000,4.000000,4.000000,4.000000,2.000000,4.000000,4.000000,4.000000,4.000000,4.000000,4.000000,4.000000,4.000000,66.666664
1614130267.993125,84.000000,0.000000,8.914285,-6.494449,-22.517202,-10.124002,-33.456882,-7.865502,-13.988487,-9.451494,-14.519413,-11.066289,-13.806866,-2.705153,-13.433360,-19.322561,-11.442986,-12.954100,2.450942,-6.627310,-22.088346,-23.911713,-16.559677,-18.183186,13.189559,-2.692796,-0.142391,10.826546,-3.113158,4.247903,-2.620590,2.664116,2.808917,-8.438444,0.000000,204.000000,4.000000,,,,0.000000,4.000000,4.000000,4.000000,4.000000,4.000000,4.000000,2.000000,4.000000,4.000000,4.000000,4.000000,4.000000,4.000000,4.000000,4.000000,4.000000,4.000000,4.000000,4.000000,4.000000,4.000000,4.000000,4.000000,2.000000,4.000000,4.000000,4.000000,4.000000,4.000000,4.000000,4.000000,4.000000,66.666664
1614130268.000874,85.000000,0.000000,8.392550,-6.487954,-23.007505,-10.113878,-33.423424,-7.857636,3.461398,-9.442042,-13.479253,-9.003941,-12.767418,-2.702447,-11.881466,-15.713494,-6.816159,-13.453966,2.961311,0.558804,-14.373951,-17.221134,-17.568758,-16.626541,12.663548,-2.690103,-4.757633,10.815720,-4.648507,4.243656,-2.617970,2.661452,2.806108,-1.250519,0.000000,169.000000,4.000000,,,,0.000000,4.000000,4.000000,4.000000,4.000000,4.000000,4.000000,2.000000,4.000000,4.000000,4.000000,4.000000,4.000000,4.000000,4.000000,4.000000,4.000000,4.000000,4.000000,4.000000,4.000000,4.000000,4.000000,4.000000,2.000000,4.000000,4.000000,4.000000,4.000000,4.000000,4.000000,4.000000,4.000000,66.666664
1614130268.008723,86.000000,0.000000,4.794414,-6.481466,-24.010139,-8.052483,-34.928463,-8.362599,3.970757,-10.458241,-15.517056,-8.994936,-12.754650,-3.212565,-11.356764,-11.082397,-8.347805,-13.953332,1.419888,-0.980216,-15.898038,-14.126990,-17.038368,-15.584274,12.650885,-2.687413,-8.342619,10.804904,-4.131038,4.239412,-3.128172,1.633150,2.290481,1.314834,0.000000,165.000000,4.000000,,,,0.000000,4.000000,4.000000,4.000000,4.000000,4.000000,4.000000,2.000000,4.000000,4.000000,4.000000,4.000000,4.000000,4.000000,4.000000,4.000000,4.000000,4.000000,4.000000,4.000000,4.000000,4.000000,4.000000,4.000000,2.000000,4.000000,4.000000,4.000000,4.000000,4.000000,4.000000,4.000000,4.000000,66.666664
1614130268.016472,87.000000,0.000000,1.199876,-6.474985,-17.832283,-4.454686,-32.842251,-7.841416,-4.751162,-9.934962,-13.450256,-7.960300,-11.716255,-2.696532,-10.832586,-7.481570,-2.185611,0.419595,2.444110,11.841277,-2.548807,-11.548760,-6.764920,-13.517407,13.663875,-2.684726,-1.154790,10.794099,-4.126906,4.235173,-1.586582,4.195619,2.288191,2.339161,0.000000,212.000000,4.000000,,,,0.000000,4.000000,4.000000,4.000000,4.000000,4.000000,4.000000,2.000000,4.000000,4.000000,4.000000,4.000000,4.000000,4.000000,4.000000,4.000000,4.000000,4.000000,4.000000,4.000000,4.000000,4.000000,4.000000,4.000000,2.000000,4.000000,4.000000,4.000000,4.000000,4.000000,4.000000,4.000000,4.000000,66.666664
1614130268.024321,88.000000,0.000000,0.685855,-6.468510,-8.070860,-1.886129,-27.168385,-7.833575,-4.746411,-9.412207,-8.308601,-4.875417,-7.601974,-2.693836,-7.232010,-7.986909,7.047344,17.342253,3.467307,22.085846,14.889640,-7.434648,-3.168412,-12.991070,12.624570,-2.169220,1.923288,10.270484,-4.122779,4.230937,0.466286,9.319629,2.798723,4.388103,0.000000,225.000000,4.000000,,,,0.000000,4.000000,4.000000,4.000000,4.000000,4.000000,4.000000,2.000000,4.000000,4.000000,4.000000,4.000000,4.000000,4.000000,4.000000,4.000000,4.000000,4.000000,4.000000,4.000000,4.000000,4.000000,4.000000,4.000000,2.000000,4.000000,4.000000,4.000000,4.000000,4.000000,4.000000,4.000000,4.000000,66.666664
1614130268.032070,89.000000,0.000000,-1.878933,-6.462041,-9.601251,-3.935525,-27.141216,-12.441126,-4.741664,-16.582281,-11.890037,-11.024387,-15.286680,-6.793706,-16.455547,-23.363537,-8.344318,-0.110987,-4.228468,1.038119,-2.561147,-11.529777,-17.524218,-14.003719,9.022202,-2.167051,-6.796584,10.773034,-4.118657,4.226707,1.491461,9.823130,2.283104,1.819613,0.000000,196.000000,4.000000,,,,0.000000,4.000000,4.000000,4.000000,4.000000,4.000000,4.000000,2.000000,4.000000,4.000000,4.000000,4.000000,4.000000,4.000000,4.000000,4.000000,4.000000,4.000000,4.000000,4.000000,4.000000,4.000000,4.000000,4.000000,2.000000,4.000000,4.000000,4.000000,4.000000,4.000000,4.000000,4.000000,4.000000,66.666664
1614130268.039919,90.000000,0.000000,-3.415516,-6.455579,-19.848061,-10.598256,-33.267921,-16.531248,-5.249743,-26.309290,-24.185839,-19.731312,-26.040625,-13.453579,-31.823708,-34.622227,-26.797512,-27.290363,-15.506291,-17.424458,-23.584227,-18.184914,-23.147718,-13.476895,5.423436,-4.216166,-7.815428,10.762261,-4.114538,4.222480,0.977149,9.813307,2.280821,0.279332,0.000000,169.000000,4.000000,,,,0.000000,4.000000,4.000000,4.000000,4.000000,4.000000,4.000000,2.000000,4.000000,4.000000,4.000000,4.000000,4.000000,4.000000,4.000000,4.000000,4.000000,4.000000,4.000000,4.000000,4.000000,4.000000,4.000000,4.000000,2.000000,4.000000,4.000000,4.000000,4.000000,4.000000,4.000000,4.000000,4.000000,66.666664
1614130268.047668,91.000000,0.000000,0.177643,-6.449124,-18.802570,-9.562016,-34.260292,-14.976255,7.063199,-20.641954,-25.187294,-15.609016,-16.270994,-12.927305,-21.535473,-18.690166,-14.975843,-15.981022,-15.490785,-3.560879,-7.663207,-13.551344,-10.816879,-11.412136,5.418013,-6.263232,0.397516,9.725858,-4.110424,4.218257,0.976172,14.931698,7.919566,4.894437,0.000000,200.000000,4.000000,,,,0.000000,4.000000,4.000000,4.000000,4.000000,4.000000,4.000000,2.000000,4.000000,4.000000,4.000000,4.000000,4.000000,4.000000,4.000000,4.000000,4.000000,4.000000,4.000000,4.000000,4.000000,4.000000,4.000000,4.000000,2.000000,4.000000,4.000000,4.000000,4.000000,4.000000,4.000000,4.000000,4.000000,66.666664
1614130268.055517,92.000000,0.000000,1.203107,-6.442675,-8.014538,0.703955,-28.585007,-11.884356,16.286905,-5.749518,-14.392876,-8.413920,-0.357287,-7.786172,-4.078041,-2.774041,-2.140355,2.496498,-9.321448,10.801656,4.652148,-6.871126,-4.139395,-8.836622,5.925416,-6.256969,3.474041,12.793056,-3.593493,4.214039,1.488016,18.506510,13.552671,7.966465,0.000000,189.000000,4.000000,,,,0.000000,4.000000,4.000000,4.000000,4.000000,4.000000,4.000000,2.000000,4.000000,4.000000,4.000000,4.000000,4.000000,4.000000,4.000000,4.000000,4.000000,4.000000,4.000000,4.000000,4.000000,4.000000,4.000000,4.000000,2.000000,4.000000,4.000000,4.000000,4.000000,4.000000,4.000000,4.000000,4.000000,66.666664
1614130268.063266,93.000000,0.000000,1.201904,-6.436232,-3.391139,5.831457,-25.479500,-11.872472,9.091131,-1.641204,-9.763098,-8.405506,0.668711,-5.727104,-13.304731,-12.514857,-12.907445,-3.659845,-8.799306,7.201111,-11.249940,-10.966820,-5.160897,-9.340606,5.406669,-5.225071,1.419285,17.395647,-4.102720,4.209825,0.973708,17.462362,14.051940,8.984140,0.000000,196.000000,4.000000,,,,0.000000,4.000000,4.000000,4.000000,4.000000,4.000000,4.000000,2.000000,4.000000,4.000000,4.000000,4.000000,4.000000,4.000000,4.000000,4.000000,4.000000,4.000000,4.000000,4.000000,4.000000,4.000000,4.000000,4.000000,2.000000,4.000000,4.000000,4.000000,4.000000,4.000000,4.000000,4.000000,4.000000,66.666664
1614130268.070916,94.000000,0.000000,6.328907,-6.429796,-6.464670,4.287164,-25.966841,-11.860600,1.902552,-1.639563,-10.266155,-7.884280,-0.870419,-5.208557,-20.470915,-20.707470,-18.022743,-9.810031,-7.764866,2.065705,-18.930998,-15.571238,-5.668557,-9.844086,5.401263,-6.758307,1.930686,17.891071,-4.098617,4.205615,0.459914,16.932079,13.525067,13.077720,0.000000,194.000000,4.000000,,,,0.000000,4.000000,4.000000,4.000000,4.000000,4.000000,4.000000,2.000000,4.000000,4.000000,4.000000,4.000000,4.000000,4.000000,4.000000,4.000000,4.000000,4.000000,4.000000,4.000000,4.000000,4.000000,4.000000,4.000000,4.000000,4.000000,4.000000,4.000000,4.000000,4.000000,4.000000,4.000000,4.000000,83.333336
1614130268.078665,95.000000,0.000000,7.861039,-6.423366,-8.509488,4.795697,-27.479336,-12.361560,0.362188,-2.150744,-9.743069,-8.902038,0.156093,-6.228989,-10.706854,-16.071379,-11.850874,-6.723298,-4.680178,2.063639,-12.245399,-11.965922,-11.816734,-8.808600,5.908682,-9.828472,2.954396,14.283437,-3.581698,4.201409,1.997915,17.940788,14.024363,16.654387,0.000000,172.000000,4.000000,,,,0.000000,4.000000,4.000000,4.000000,4.000000,4.000000,4.000000,2.000000,4.000000,4.000000,4.000000,4.000000,4.000000,4.000000,4.000000,4.000000,4.000000,4.000000,4.000000,4.000000,4.000000,4.000000,4.000000,4.000000,4.000000,4.000000,4.000000,4.000000,4.000000,4.000000,4.000000,4.000000,4.000000,83.333336
1614130268.086314,96.000000,0.000000,1.186512,-6.416943,-7.988158,4.278081,-31.041599,-14.913301,-6.304841,-12.405004,-15.374352,-17.611084,-9.074833,-13.915068,-17.875633,-17.080948,-13.377484,-11.331960,-7.239600,2.061575,-13.771616,-11.953957,-20.010046,-9.312613,5.902773,-9.305823,2.438622,14.269154,-5.629398,4.197208,4.560020,16.384386,14.010338,15.099270,8064.000000,0.000000,4.000000,,,,0.000000,4.000000,4.000000,4.000000,4.000000,4.000000,4.000000,2.000000,4.000000,4.000000,4.000000,4.000000,4.000000,4.000000,4.000000,4.000000,4.000000,4.000000,4.000000,4.000000,4.000000,4.000000,4.000000,4.000000,4.000000,4.000000,4.000000,4.000000,4.000000,4.000000,4.000000,4.000000,4.000000,83.333336
1614130268.094063,97.000000,0.000000,-2.917239,-6.410526,-7.980170,-0.341582,-33.574661,-15.924028,-7.836997,-24.187469,-24.076925,-23.747318,-18.809347,-21.080641,-35.806477,-19.115149,-15.928209,-14.910371,-11.847745,0.521052,-20.424511,-17.583029,-21.015676,-15.969967,5.896871,-9.296517,1.923362,15.280525,-9.213512,4.193011,3.529819,12.778258,13.483507,15.084170,8064.000000,0.000000,4.000000,,,,0.000000,4.000000,4.000000,4.000000,4.000000,4.000000,4.000000,2.000000,4.000000,4.000000,4.000000,4.000000,4.000000,4.000000,4.000000,4.000000,4.000000,4.000000,4.000000,4.000000,4.000000,4.000000,4.000000,4.000000,4.000000,4.000000,4.000000,4.000000,4.000000,4.000000,4.000000,4.000000,4.000000,83.333336
1614130268.101712,98.000000,0.000000,-2.401501,-6.404115,-8.485010,-3.418163,-33.541084,-15.395284,-1.675314,-24.163282,-26.104132,-23.210751,-19.816179,-21.059559,-35.257851,-21.147316,-17.963564,-13.356999,-12.348718,-2.043571,-20.916906,-20.129547,-19.456200,-21.082201,5.890974,-13.389785,2.434260,11.162681,-11.255581,4.188818,0.962186,9.688557,13.470024,16.094728,8064.000000,0.000000,4.000000,,,,0.000000,4.000000,4.000000,4.000000,4.000000,4.000000,4.000000,2.000000,4.000000,4.000000,4.000000,4.000000,4.000000,4.000000,4.000000,4.000000,4.000000,4.000000,4.000000,4.000000,4.000000,4.000000,4.000000,4.000000,4.000000,4.000000,4.000000,4.000000,4.000000,4.000000,4.000000,4.000000,4.000000,83.333336
1614130268.109461,99.000000,0.000000,-1.886279,-6.397711,-8.476525,-2.901925,-33.507545,-15.379889,2.941746,-20.549376,-24.539566,-22.674721,-20.822004,-20.012859,-31.120028,-34.459503,-25.125088,-18.471848,-11.310728,-3.067169,-19.357529,-19.083776,-20.462385,-21.061119,5.885083,-17.478960,2.431825,7.048954,-11.244326,4.184629,0.961224,6.089125,13.456553,12.488890,8064.000000,0.000000,4.000000,,,,0.000000,4.000000,4.000000,4.000000,4.000000,4.000000,4.000000,2.000000,4.000000,4.000000,4.000000,4.000000,4.000000,4.000000,4.000000,4.000000,4.000000,4.000000,4.000000,4.000000,4.000000,4.000000,4.000000,4.000000,4.000000,4.000000,4.000000,4.000000,4.000000,4.000000,4.000000,4.000000,4.000000,83.333336
1614130268.117110,100.000000,0.000000,-2.397213,-6.391313,-10.006510,-2.899023,-33.474037,-15.364509,4.990086,-20.528826,-25.027845,-23.164865,-22.339643,-21.018486,-32.114548,-40.066067,-26.125603,-21.017477,-11.299417,-2.551281,-17.286888,-18.551872,-20.441921,-20.014418,5.879198,-17.461481,-2.698812,6.529085,-11.233081,4.180444,-1.091019,1.980472,13.443097,7.861016,8064.000000,0.000000,4.000000,,,,0.000000,4.000000,4.000000,4.000000,4.000000,4.000000,4.000000,2.000000,4.000000,4.000000,4.000000,4.000000,4.000000,4.000000,4.000000,4.000000,4.000000,4.000000,4.000000,4.000000,4.000000,4.000000,4.000000,4.000000,4.000000,4.000000,4.000000,4.000000,4.000000,4.000000,4.000000,4.000000,4.000000,83.333336
1614130268.124859,101.000000,0.000000,-5.984560,-5.872101,-11.534965,-2.383303,-32.927742,-14.836324,-4.758493,-21.021118,-25.002819,-20.577599,-19.753202,-20.997469,-26.441408,-25.154207,-20.458452,-13.304152,-11.288118,-1.523089,-14.192679,-18.020500,-18.883018,-19.994404,6.898959,-16.418377,-8.337138,7.548197,-10.709027,4.689085,-2.628390,2.491312,13.942474,7.340334,8064.000000,0.000000,4.000000,,,,0.000000,4.000000,4.000000,4.000000,4.000000,4.000000,4.000000,2.000000,4.000000,4.000000,4.000000,4.000000,4.000000,4.000000,4.000000,4.000000,4.000000,4.000000,4.000000,4.000000,4.000000,4.000000,4.000000,4.000000,4.000000,4.000000,4.000000,4.000000,4.000000,4.000000,4.000000,4.000000,4.000000,83.333336
1614130268.132509,102.000000,0.000000,-9.568318,-5.866230,-12.036250,-2.893740,-32.894814,-14.821487,-23.215273,-22.025738,-24.464994,-18.505739,-18.194986,-19.950830,-26.927788,-17.949566,-24.027737,-15.342131,-14.353753,-1.521566,-15.716948,-19.540941,-18.864136,-19.974409,6.892060,-16.914780,-9.354443,7.540648,-11.211139,5.197216,-2.625761,5.052923,13.415711,8.871455,8064.000000,0.000000,4.000000,,,,0.000000,4.000000,4.000000,4.000000,4.000000,4.000000,4.000000,2.000000,4.000000,4.000000,4.000000,4.000000,4.000000,4.000000,4.000000,4.000000,4.000000,4.000000,4.000000,4.000000,4.000000,4.000000,4.000000,4.000000,4.000000,4.000000,4.000000,4.000000,4.000000,4.000000,4.000000,4.000000,4.000000,83.333336
1614130268.140258,103.000000,0.000000,-10.071571,-6.373184,-11.511394,-2.890847,-32.349098,-15.319487,-23.704878,-23.542173,-24.953350,-18.487232,-18.176792,-20.443699,-36.644447,-27.675205,-32.208836,-27.121660,-14.852220,-3.058506,-20.829435,-22.598324,-20.383734,-20.980076,5.859527,-16.897865,-8.319447,6.507467,-11.199927,3.140737,-3.648777,6.073511,13.402296,10.401046,8064.000000,0.000000,4.000000,,,,0.000000,4.000000,4.000000,4.000000,4.000000,4.000000,4.000000,2.000000,4.000000,4.000000,4.000000,4.000000,4.000000,4.000000,4.000000,4.000000,4.000000,4.000000,4.000000,4.000000,4.000000,4.000000,4.000000,4.000000,4.000000,4.000000,4.000000,4.000000,4.000000,4.000000,4.000000,4.000000,4.000000,83.333336
1614130268.147907,104.000000,0.000000,-9.035858,-5.853990,-10.987062,-1.349494,-33.342392,-14.791347,-9.835020,-24.031452,-24.415577,-18.468746,-18.158615,-19.910435,-36.607803,-30.724453,-29.099705,-29.145821,-14.324547,-2.542627,-18.757324,-22.062904,-18.312067,-18.907812,7.392129,-16.368147,-8.311128,8.039421,-9.650267,1.086314,-0.568205,7.093079,14.414535,12.441927,8064.000000,0.000000,4.000000,,,,0.000000,4.000000,4.000000,4.000000,4.000000,4.000000,4.000000,2.000000,4.000000,4.000000,4.000000,4.000000,4.000000,4.000000,4.000000,4.000000,4.000000,4.000000,4.000000,4.000000,4.000000,4.000000,4.000000,4.000000,4.000000,4.000000,4.000000,4.000000,4.000000,4.000000,4.000000,4.000000,4.000000,83.333336
1614130268.155656,105.000000,0.000000,-9.539643,-5.848136,-13.027357,-5.450709,-37.924435,-15.289375,-8.286723,-23.494600,-25.929623,-20.501558,-21.730200,-20.403345,-30.930172,-30.693729,-26.506504,-21.424368,-20.464069,-0.488802,-19.764208,-23.579304,-20.345037,-21.453009,5.333455,-15.838958,-9.841278,7.005740,-12.717539,0.572407,3.534928,5.547524,11.323197,10.378202,8064.000000,0.000000,4.000000,,,,0.000000,4.000000,4.000000,4.000000,4.000000,4.000000,4.000000,2.000000,4.000000,4.000000,4.000000,4.000000,4.000000,4.000000,4.000000,4.000000,4.000000,4.000000,4.000000,4.000000,4.000000,4.000000,4.000000,4.000000,4.000000,4.000000,4.000000,4.000000,4.000000,4.000000,4.000000,4.000000,4.000000,83.333336
1614130268.163305,106.000000,0.000000,-10.555744,-9.432032,-19.680996,-16.727310,-43.014713,-19.376650,-12.893822,-24.496746,-30.006258,-26.122084,-26.323854,-21.921404,-37.053085,-41.945087,-37.249226,-24.992687,-32.238476,-12.796005,-40.257263,-37.914700,-35.196487,-36.303349,-8.518032,-18.387222,-13.421180,0.332068,-20.909950,-3.017909,0.967290,-4.201613,3.619566,3.188337,8064.000000,0.000000,4.000000,,,,0.000000,4.000000,4.000000,4.000000,4.000000,4.000000,4.000000,2.000000,4.000000,4.000000,4.000000,4.000000,4.000000,4.000000,4.000000,4.000000,4.000000,4.000000,4.000000,4.000000,4.000000,4.000000,4.000000,4.000000,4.000000,4.000000,4.000000,4.000000,4.000000,4.000000,4.000000,4.000000,4.000000,83.333336
1614130268.171054,107.000000,0.000000,-13.622111,-13.525164,-25.302341,-22.351608,-48.099903,-22.434196,-11.855287,-24.472250,-33.053173,-30.711346,-27.835993,-23.950764,-44.195522,-46.518528,-46.955566,-38.813847,-36.308804,-31.244747,-56.114445,-50.697296,-47.468983,-47.036278,-20.817207,-25.035501,-15.971862,-7.360572,-26.017244,-9.168737,-3.136241,-12.915360,-1.512259,-3.481518,7936.000000,0.000000,4.000000,,,,0.000000,4.000000,4.000000,4.000000,4.000000,4.000000,4.000000,2.000000,4.000000,4.000000,4.000000,4.000000,4.000000,4.000000,4.000000,4.000000,4.000000,4.000000,4.000000,4.000000,4.000000,4.000000,4.000000,4.000000,4.000000,4.000000,4.000000,4.000000,4.000000,4.000000,4.000000,4.000000,4.000000,83.333336
1614130268.178703,108.000000,0.000000,-13.608490,-14.024459,-26.302679,-21.303616,-50.615906,-22.411762,-15.433175,-24.447777,-32.507301,-29.654993,-25.244053,-25.978096,-42.612865,-41.856625,-46.908611,-38.775032,-33.195572,-26.085299,-40.160892,-42.954292,-41.267666,-40.835396,-21.309210,-28.087389,-16.468710,-9.404493,-25.478407,-11.210851,-2.620285,-12.902445,-1.510746,-3.990857,8064.000000,0.000000,4.000000,,,,0.000000,4.000000,4.000000,4.000000,4.000000,4.000000,4.000000,2.000000,4.000000,4.000000,4.000000,4.000000,4.000000,4.000000,4.000000,4.000000,4.000000,4.000000,4.000000,4.000000,4.000000,4.000000,4.000000,4.000000,4.000000,4.000000,4.000000,4.000000,4.000000,4.000000,4.000000,4.000000,4.000000,83.333336
1614130268.186452,109.000000,0.000000,-13.082061,-12.984794,-26.789198,-20.769491,-52.103752,-23.927813,-17.469025,-26.474611,-31.961973,-29.625338,-25.218809,-27.490580,-42.057430,-42.327587,-44.297600,-24.377285,-29.572632,-9.136136,-17.043810,-29.065184,-33.534092,-35.153534,-18.210978,-28.059301,-16.452242,-6.318166,-25.965750,-10.686819,-3.643305,-13.402363,-2.534877,-1.422763,7936.000000,0.000000,4.000000,,,,0.000000,4.000000,4.000000,4.000000,4.000000,4.000000,4.000000,2.000000,4.000000,4.000000,4.000000,4.000000,4.000000,4.000000,4.000000,4.000000,4.000000,4.000000,4.000000,4.000000,4.000000,4.000000,4.000000,4.000000,4.000000,4.000000,4.000000,4.000000,4.000000,4.000000,4.000000,4.000000,4.000000,83.333336
1614130268.194102,110.000000,0.000000,-14.094620,-13.484629,-21.634203,-19.210260,-51.538830,-21.339783,-9.246427,-27.986599,-28.853086,-30.621353,-27.757692,-25.411806,-41.502552,-38.695515,-39.125099,-17.686241,-25.440495,-5.537256,-15.488303,-25.446375,-35.039021,-35.118382,-21.269690,-28.031242,-13.871687,-3.747745,-25.939783,-10.676132,-0.562739,-11.850499,-0.481060,4.219685,8064.000000,0.000000,4.000000,,,,0.000000,4.000000,4.000000,4.000000,4.000000,4.000000,4.000000,2.000000,4.000000,4.000000,4.000000,4.000000,4.000000,4.000000,4.000000,4.000000,4.000000,4.000000,4.000000,4.000000,4.000000,4.000000,4.000000,4.000000,4.000000,4.000000,4.000000,4.000000,4.000000,4.000000,4.000000,4.000000,4.000000,83.333336
1614130268.201851,111.000000,0.000000,-11.003602,-13.471145,-10.330518,-13.037204,-40.205238,-12.087673,-3.083334,-22.317587,-20.106285,-19.821501,-19.011988,-16.668446,-30.178999,-19.682461,-24.726999,-14.078811,-17.209925,0.109307,-12.908712,-21.318365,-27.311672,-26.365313,-20.222778,-24.413467,-8.216789,0.358567,-21.811279,-10.152636,6.617311,0.981864,8.237370,12.933414,8064.000000,0.000000,4.000000,,,,0.000000,4.000000,4.000000,4.000000,4.000000,4.000000,4.000000,2.000000,4.000000,4.000000,4.000000,4.000000,4.000000,4.000000,4.000000,4.000000,4.000000,4.000000,4.000000,4.000000,4.000000,4.000000,4.000000,4.000000,4.000000,4.000000,4.000000,4.000000,4.000000,4.000000,4.000000,4.000000,4.000000,83.333336
1614130268.209500,112.000000,0.000000,-2.274650,-13.457673,-3.653520,-5.844679,-22.216316,-6.434559,-5.131533,-10.500398,-10.342589,-2.365783,-0.018616,-6.395367,-11.687282,-1.201241,-6.240734,-2.782681,-5.910664,14.980992,3.514452,-11.553456,-7.284361,-12.492794,-8.920505,-15.671105,-4.106009,9.076157,-18.199724,-10.655304,7.636335,13.801395,14.382979,18.048685,8064.000000,0.000000,4.000000,,,,0.000000,4.000000,4.000000,4.000000,4.000000,4.000000,4.000000,2.000000,4.000000,4.000000,4.000000,4.000000,4.000000,4.000000,4.000000,4.000000,4.000000,4.000000,4.000000,4.000000,4.000000,4.000000,4.000000,4.000000,4.000000,4.000000,4.000000,4.000000,4.000000,4.000000,4.000000,4.000000,4.000000,83.333336
1614130268.217349,113.000000,0.000000,3.368651,-13.444216,-3.649867,-2.249091,-16.040253,-7.453766,-5.126401,-4.336051,-8.280965,0.200686,5.622428,-0.235126,-2.957645,2.389704,1.970635,2.861128,-1.289369,22.658319,15.818630,-6.413697,5.543436,-6.839275,-0.193636,-7.963126,-2.563441,15.220927,-18.181524,-9.619007,4.551775,14.813234,13.855776,19.056278,8064.000000,0.000000,4.000000,,,,0.000000,4.000000,4.000000,4.000000,4.000000,4.000000,4.000000,2.000000,4.000000,4.000000,4.000000,4.000000,4.000000,4.000000,4.000000,4.000000,4.000000,4.000000,4.000000,4.000000,4.000000,4.000000,4.000000,4.000000,4.000000,4.000000,4.000000,4.000000,4.000000,4.000000,4.000000,4.000000,4.000000,83.333336
1614130268.225098,114.000000,0.000000,1.314000,-13.430772,-4.159038,-2.246842,-26.280622,-7.959133,-5.634095,-12.024022,-15.452171,-11.594387,-8.742168,-3.311814,-13.723919,-7.356275,-6.749284,-6.372502,-10.006028,19.558737,12.725888,-6.920105,-2.154415,-8.883718,-2.244724,-4.878240,-1.535236,13.154424,-18.163343,-4.994004,6.598505,12.747140,12.816278,19.037222,8064.000000,0.000000,4.000000,,,,0.000000,4.000000,4.000000,4.000000,4.000000,4.000000,4.000000,2.000000,4.000000,4.000000,4.000000,4.000000,4.000000,4.000000,4.000000,4.000000,4.000000,4.000000,4.000000,4.000000,4.000000,4.000000,4.000000,4.000000,4.000000,4.000000,4.000000,4.000000,4.000000,4.000000,4.000000,4.000000,4.000000,83.333336
1614130268.232947,115.000000,0.000000,-3.815519,-13.417340,-5.180520,-2.244595,-35.485111,-6.925532,-15.884871,-22.781229,-23.641848,-19.787920,-20.528297,-11.000810,-31.146091,-20.682253,-20.075869,-14.571259,-21.790894,8.257128,-9.338120,-7.426005,-23.177902,-18.618423,-7.370684,-10.001567,-2.559342,10.064346,-18.145180,-1.912086,7.104728,13.760034,13.829103,17.992544,8064.000000,0.000000,4.000000,,,,0.000000,4.000000,4.000000,4.000000,4.000000,4.000000,4.000000,2.000000,4.000000,4.000000,4.000000,4.000000,4.000000,4.000000,4.000000,4.000000,4.000000,4.000000,4.000000,4.000000,4.000000,4.000000,4.000000,4.000000,4.000000,4.000000,4.000000,4.000000,4.000000,4.000000,4.000000,4.000000,4.000000,83.333336
1614130268.240696,116.000000,0.000000,-5.862986,-13.403923,-10.303544,-2.242350,-36.475269,-7.431427,-26.125397,-21.219986,-25.669487,-22.332235,-22.559052,-11.502629,-35.730331,-24.764133,-21.594254,-13.018226,-22.794744,-4.058822,-36.508270,-7.418579,-36.488056,-27.317755,-8.901775,-19.222334,-3.582424,10.567102,-18.127035,-2.935815,5.046341,14.771914,13.815274,14.897628,8064.000000,0.000000,4.000000,,,,0.000000,4.000000,4.000000,4.000000,4.000000,4.000000,4.000000,2.000000,4.000000,4.000000,4.000000,4.000000,4.000000,4.000000,4.000000,4.000000,4.000000,4.000000,4.000000,4.000000,4.000000,4.000000,4.000000,4.000000,4.000000,4.000000,4.000000,4.000000,4.000000,4.000000,4.000000,4.000000,4.000000,83.333336
1614130268.248545,117.000000,0.000000,-5.857123,-13.390519,-12.857343,-2.240108,-34.387508,-7.936817,-15.842861,-13.506458,-23.592535,-21.797083,-21.510851,-5.337280,-26.976652,-26.277832,-16.444454,-12.492387,-14.566821,-0.977840,-34.420479,-6.898340,-26.195160,-22.162231,-7.354412,-20.741573,-5.630124,10.556536,-14.519164,-2.932880,4.528474,13.218681,12.775818,10.267345,8064.000000,0.000000,4.000000,,,,0.000000,4.000000,4.000000,4.000000,4.000000,4.000000,4.000000,2.000000,4.000000,4.000000,4.000000,4.000000,4.000000,4.000000,4.000000,4.000000,4.000000,4.000000,4.000000,4.000000,4.000000,4.000000,4.000000,4.000000,4.000000,4.000000,4.000000,4.000000,4.000000,4.000000,4.000000,4.000000,4.000000,83.333336
1614130268.256294,118.000000,0.000000,-5.851265,-13.377129,-11.306025,-2.750689,-33.327480,-7.928880,10.839648,-12.467311,-22.030481,-16.647079,-13.284213,-0.716559,-17.206085,-28.302835,-15.402369,-16.069637,-8.398408,7.741086,-10.283494,-4.840159,-7.194605,-10.858018,-0.167570,-16.105448,-5.624494,13.110082,-8.350800,-2.417126,4.011125,12.692641,12.763042,11.282720,8064.000000,0.000000,4.000000,,,,0.000000,4.000000,4.000000,4.000000,4.000000,4.000000,4.000000,2.000000,4.000000,4.000000,4.000000,4.000000,4.000000,4.000000,4.000000,4.000000,4.000000,4.000000,4.000000,4.000000,4.000000,4.000000,4.000000,4.000000,4.000000,4.000000,4.000000,4.000000,4.000000,4.000000,4.000000,4.000000,4.000000,83.333336
1614130268.264143,119.000000,0.000000,-6.358235,-13.363751,-9.243436,-2.747938,-32.781334,-7.920951,22.110861,-13.480485,-20.982811,-10.989408,-4.040159,-1.741483,-12.573495,-15.966841,-16.925428,-11.438184,-7.364369,7.733346,-0.529620,-3.809678,2.043359,-5.206134,6.499264,-14.038060,5.150362,19.250818,-6.291166,-2.927530,6.058396,16.269693,15.827202,19.476564,8064.000000,0.000000,4.000000,,,,0.000000,4.000000,4.000000,4.000000,4.000000,4.000000,4.000000,2.000000,4.000000,4.000000,4.000000,4.000000,4.000000,4.000000,4.000000,4.000000,4.000000,4.000000,4.000000,4.000000,4.000000,4.000000,4.000000,4.000000,4.000000,4.000000,4.000000,4.000000,4.000000,4.000000,4.000000,4.000000,4.000000,83.333336
1614130268.271892,120.000000,0.000000,-5.839056,-13.350388,-8.208551,-2.745190,-32.748554,-7.400209,8.242596,-11.928543,-20.961828,-12.516880,-6.600222,-7.380767,-15.637844,-5.181643,-16.908503,0.368126,-7.357005,11.828176,-1.041911,-3.293048,3.579777,-1.098364,5.979944,-9.408637,13.863160,22.308491,-7.310516,-2.924602,8.103620,18.304705,19.913939,25.610935,8064.000000,0.000000,4.000000,,,,0.000000,4.000000,4.000000,4.000000,4.000000,4.000000,4.000000,2.000000,4.000000,4.000000,4.000000,4.000000,4.000000,4.000000,4.000000,4.000000,4.000000,4.000000,4.000000,4.000000,4.000000,4.000000,4.000000,4.000000,4.000000,4.000000,4.000000,4.000000,4.000000,4.000000,4.000000,4.000000,4.000000,83.333336
1614130268.279741,121.000000,0.000000,-5.833217,-13.337037,-8.200343,-2.742445,-32.202984,-9.444091,-0.996416,-16.019178,-20.940866,-18.145388,-16.337212,-15.065694,-22.801693,-23.638000,-20.994158,-6.811729,-8.888109,9.765066,-0.528049,-3.289755,-1.039187,-2.122907,2.897041,-2.219742,4.105707,21.260540,-6.790385,-2.921678,2.454490,13.158195,20.919666,24.046862,8064.000000,0.000000,4.000000,,,,0.000000,4.000000,4.000000,4.000000,4.000000,4.000000,4.000000,2.000000,4.000000,4.000000,4.000000,4.000000,4.000000,4.000000,4.000000,4.000000,4.000000,4.000000,4.000000,4.000000,4.000000,4.000000,4.000000,4.000000,4.000000,4.000000,4.000000,4.000000,4.000000,4.000000,4.000000,4.000000,4.000000,83.333336
1614130268.287490,122.000000,0.000000,-5.827384,-13.323701,-8.192142,-2.739702,-32.170780,-11.485929,-4.585164,-23.182646,-20.407104,-19.152884,-21.449080,-18.127552,-27.907097,-41.563080,-29.178293,-28.343378,-11.443323,-9.731878,-10.783931,-5.337747,-11.294559,-9.300271,2.381324,-4.781624,-6.154809,21.752100,-7.809236,-2.918756,-3.188990,9.042473,20.385925,21.458714,8064.000000,0.000000,4.000000,,,,0.000000,4.000000,4.000000,4.000000,4.000000,4.000000,4.000000,2.000000,4.000000,4.000000,4.000000,4.000000,4.000000,4.000000,4.000000,4.000000,4.000000,4.000000,4.000000,4.000000,4.000000,4.000000,4.000000,4.000000,4.000000,4.000000,4.000000,4.000000,4.000000,4.000000,4.000000,4.000000,4.000000,83.333336
1614130268.295339,123.000000,0.000000,-5.821557,-13.310377,-7.671130,-2.736963,-32.651428,-11.474443,-22.016476,-22.133823,-20.899517,-18.108089,-22.453272,-16.058142,-27.879190,-30.239466,-31.200396,-29.340677,-10.919060,-15.875993,-14.875711,-5.845230,-15.898648,-12.367894,3.404583,-11.956330,-0.507628,21.217527,-10.365529,-2.915837,-2.672980,9.546251,20.365540,22.462894,8064.000000,0.000000,4.000000,,,,0.000000,4.000000,4.000000,4.000000,4.000000,4.000000,4.000000,2.000000,4.000000,4.000000,4.000000,4.000000,4.000000,4.000000,4.000000,4.000000,4.000000,4.000000,4.000000,4.000000,4.000000,4.000000,4.000000,4.000000,4.000000,4.000000,4.000000,4.000000,4.000000,4.000000,4.000000,4.000000,4.000000,83.333336
1614130268.303088,124.000000,0.000000,-5.815735,-13.297067,-8.176279,-2.734226,-32.618778,-11.462969,-32.250870,-16.983484,-20.878618,-18.602802,-20.892357,-14.503622,-23.748747,-14.824611,-22.964067,-12.901079,-12.446602,-2.013963,-6.655707,-8.916307,-16.395571,-13.381167,0.837076,-12.970015,1.544162,18.632208,-11.380805,-2.912921,-3.695948,9.023884,20.345175,21.414791,8064.000000,0.000000,4.000000,,,,0.000000,4.000000,4.000000,4.000000,4.000000,4.000000,4.000000,2.000000,4.000000,4.000000,4.000000,4.000000,4.000000,4.000000,4.000000,4.000000,4.000000,4.000000,4.000000,4.000000,4.000000,4.000000,4.000000,4.000000,4.000000,4.000000,4.000000,4.000000,4.000000,4.000000,4.000000,4.000000,4.000000,83.333336
1614130268.310937,125.000000,0.000000,-5.809919,-13.283770,-8.168103,-2.731491,-32.586159,-11.451506,-16.321182,-16.453680,-20.857740,-19.097021,-19.333002,-12.950657,-18.596792,-15.322606,-11.146232,-8.785614,-19.613644,-3.037590,-19.469564,-22.753546,-20.994558,-20.547274,-3.779145,-15.521148,-5.636870,17.075113,-10.856604,-2.910008,-1.640970,9.527680,20.324829,18.316454,8064.000000,0.000000,4.000000,,,,0.000000,4.000000,4.000000,4.000000,4.000000,4.000000,4.000000,2.000000,4.000000,4.000000,4.000000,4.000000,4.000000,4.000000,4.000000,4.000000,4.000000,4.000000,4.000000,4.000000,4.000000,4.000000,4.000000,4.000000,4.000000,4.000000,4.000000,4.000000,4.000000,4.000000,4.000000,4.000000,4.000000,83.333336
1614130268.318686,126.000000,0.000000,-5.804109,-13.270486,-8.159935,-2.728760,-32.553574,-8.875952,-3.484349,-16.950047,-20.324060,-18.052282,-18.288029,-12.937706,-16.014093,-16.332926,-4.981239,-12.366572,-24.722235,-10.214040,-37.398811,-29.397459,-22.512026,-25.142111,-5.826648,-20.633831,-6.144053,17.570860,-10.845747,-2.907098,8.104260,12.595077,20.304504,17.785316,8064.000000,0.000000,4.000000,,,,0.000000,4.000000,4.000000,4.000000,4.000000,4.000000,4.000000,2.000000,4.000000,4.000000,4.000000,4.000000,4.000000,4.000000,4.000000,4.000000,4.000000,4.000000,4.000000,4.000000,4.000000,4.000000,4.000000,4.000000,4.000000,4.000000,4.000000,4.000000,4.000000,4.000000,4.000000,4.000000,4.000000,83.333336
1614130268.326335,127.000000,0.000000,-5.798305,-13.257215,-8.151775,-2.726031,-32.521019,-7.328614,-4.506505,-13.856174,-21.329378,-18.547050,-17.756920,-12.411948,-15.485259,-14.265310,-3.950617,-7.738821,-20.594948,2.103867,-18.899876,-16.034727,-15.310027,-17.937481,-4.795181,-14.459352,-2.035345,17.553289,-10.834901,-2.904191,11.685900,11.556840,20.284201,18.280352,8064.000000,0.000000,4.000000,,,,0.000000,4.000000,4.000000,4.000000,4.000000,4.000000,4.000000,2.000000,4.000000,4.000000,4.000000,4.000000,4.000000,4.000000,4.000000,4.000000,4.000000,4.000000,4.000000,4.000000,4.000000,4.000000,4.000000,4.000000,4.000000,4.000000,4.000000,4.000000,4.000000,4.000000,4.000000,4.000000,4.000000,83.333336
1614130268.334085,0.000000,0.000000,-5.792507,-13.243958,-8.143623,-2.723305,-32.488499,-7.834106,-0.912256,-11.791036,-20.795229,-18.528503,-18.764803,-12.399536,-15.469773,-12.712584,-3.946666,-1.577236,-11.856404,14.409455,2.144665,-3.198180,-11.192153,-10.227236,-2.226283,-5.214123,-1.007669,17.022915,-10.824066,-3.414108,9.110111,10.519642,20.263916,17.749250,0.000000,196.000000,4.000000,,,,0.000000,4.000000,4.000000,4.000000,4.000000,4.000000,4.000000,2.000000,4.000000,4.000000,4.000000,4.000000,4.000000,4.000000,4.000000,4.000000,4.000000,4.000000,4.000000,4.000000,4.000000,4.000000,4.000000,4.000000,4.000000,4.000000,4.000000,4.000000,4.000000,4.000000,4.000000,4.000000,4.000000,83.333336
1614130268.341734,1.000000,0.000000,-5.786714,-13.743534,-8.135480,-2.720582,-32.456009,-7.826272,4.729682,-12.292065,-16.159048,-15.433052,-17.207577,-12.899958,-16.479944,-12.187050,-3.429899,-4.139761,-7.229163,12.856585,-6.575428,-3.707802,-12.206602,-8.678547,1.878507,-5.721729,-2.032302,17.518713,-10.813242,-2.897873,8.588181,13.073225,19.218012,18.244322,0.000000,184.000000,4.000000,,,,0.000000,4.000000,4.000000,4.000000,4.000000,4.000000,4.000000,2.000000,4.000000,4.000000,4.000000,4.000000,4.000000,4.000000,4.000000,4.000000,4.000000,4.000000,4.000000,4.000000,4.000000,4.000000,4.000000,4.000000,4.000000,4.000000,4.000000,4.000000,4.000000,4.000000,4.000000,4.000000,4.000000,83.333336
1614130268.349483,2.000000,0.000000,-5.780928,-13.729791,-8.127344,-2.717861,-32.423553,-7.305625,1.648030,-12.279773,-12.553145,-13.879157,-14.626267,-12.374237,-14.925003,-10.123581,-4.964931,-6.699724,-5.683473,11.818087,-12.722699,-5.242556,-12.194395,-8.669868,3.415090,-5.716007,-1.517449,16.475552,-10.802428,-2.382154,4.989849,11.521690,19.711613,18.226078,0.000000,90.000000,4.000000,,,,0.000000,4.000000,4.000000,4.000000,4.000000,4.000000,4.000000,2.000000,4.000000,4.000000,4.000000,4.000000,4.000000,4.000000,4.000000,4.000000,4.000000,4.000000,4.000000,4.000000,4.000000,4.000000,4.000000,4.000000,4.000000,4.000000,4.000000,4.000000,4.000000,4.000000,4.000000,4.000000,4.000000,83.333336
1614130268.357132,3.000000,0.000000,-5.775146,-12.690420,-8.119217,-2.715143,-32.391132,-8.323960,-1.430542,-12.267493,-13.053413,-17.455021,-16.150103,-13.387504,-16.961361,-10.113458,-12.652273,-5.154563,-9.780354,11.806269,-4.504848,-6.775775,-11.669380,-11.225301,-1.716530,-4.171830,-1.515932,12.356513,-10.791626,-4.431055,-1.168987,6.381964,20.717543,16.156569,0.000000,184.000000,4.000000,,,,0.000000,4.000000,4.000000,4.000000,4.000000,4.000000,4.000000,2.000000,4.000000,4.000000,4.000000,4.000000,4.000000,4.000000,4.000000,4.000000,4.000000,4.000000,4.000000,4.000000,4.000000,4.000000,4.000000,4.000000,4.000000,4.000000,4.000000,4.000000,4.000000,4.000000,4.000000,4.000000,4.000000,83.333336
1614130268.364881,4.000000,0.000000,-5.769372,-14.216191,-8.111097,-3.225249,-32.358742,-10.879740,-0.916290,-12.768046,-13.553181,-22.052952,-21.262157,-17.476681,-27.713629,-19.334112,-24.947313,-12.841716,-19.001343,7.691898,-3.987522,-9.845922,-11.657711,-16.342281,-4.791737,-11.347145,-1.001596,9.780054,-10.780834,-6.477905,-3.731921,5.349941,16.594261,15.627592,0.000000,187.000000,4.000000,,,,0.000000,4.000000,4.000000,4.000000,4.000000,4.000000,4.000000,2.000000,4.000000,4.000000,4.000000,4.000000,4.000000,4.000000,4.000000,4.000000,4.000000,4.000000,4.000000,4.000000,4.000000,4.000000,4.000000,4.000000,4.000000,4.000000,4.000000,4.000000,4.000000,4.000000,4.000000,4.000000,4.000000,83.333336
1614130268.372530,5.000000,0.000000,-5.763602,-14.201975,-8.102986,-1.683562,-32.326382,-11.894501,-3.479477,-12.242457,-12.513986,-22.543718,-23.292177,-20.536127,-36.403866,-32.648113,-30.563393,-27.187849,-22.059263,4.094462,-8.086099,-11.374538,-12.158874,-16.838758,-2.222842,-15.951182,1.050688,10.795915,-10.770054,-3.394504,-3.728189,5.857411,12.475102,17.150427,0.000000,168.000000,4.000000,,,,0.000000,4.000000,4.000000,4.000000,4.000000,4.000000,4.000000,2.000000,4.000000,4.000000,4.000000,4.000000,4.000000,4.000000,4.000000,4.000000,4.000000,4.000000,4.000000,4.000000,4.000000,4.000000,4.000000,4.000000,4.000000,4.000000,4.000000,4.000000,4.000000,4.000000,4.000000,4.000000,4.000000,83.333336
1614130268.380279,6.000000,0.000000,-5.757839,-5.469824,-8.607704,0.369404,-32.294056,-11.369785,-9.117023,-12.743035,-14.039933,-22.008354,-21.730423,-20.515591,-34.828999,-36.205208,-30.020008,-28.699121,-18.960281,3.577548,-9.616474,-11.875984,-12.146715,-13.744997,-0.682158,-9.268565,2.588099,12.836401,-10.759284,0.711454,0.890924,5.338733,19.129293,18.158916,0.000000,201.000000,4.000000,,,,0.000000,4.000000,4.000000,4.000000,4.000000,4.000000,4.000000,2.000000,4.000000,4.000000,4.000000,4.000000,4.000000,4.000000,4.000000,4.000000,4.000000,4.000000,4.000000,4.000000,4.000000,4.000000,4.000000,4.000000,4.000000,4.000000,4.000000,4.000000,4.000000,4.000000,4.000000,4.000000,4.000000,83.333336
1614130268.387929,7.000000,0.000000,-6.264901,4.792056,-8.599096,0.369034,-32.774582,-11.358416,-7.569444,-17.858498,-16.589996,-22.499166,-21.708693,-21.007895,-34.794170,-32.579258,-32.554092,-20.978115,-18.941320,5.112432,-9.094037,-10.838467,-12.647388,-13.218432,-1.707117,-4.131091,1.559870,14.362026,-10.748525,1.223563,10.633623,5.333395,28.340935,18.140759,0.000000,181.000000,4.000000,,,,0.000000,4.000000,4.000000,4.000000,4.000000,4.000000,4.000000,2.000000,4.000000,4.000000,4.000000,4.000000,4.000000,4.000000,4.000000,4.000000,4.000000,4.000000,4.000000,4.000000,4.000000,4.000000,4.000000,4.000000,4.000000,4.000000,4.000000,4.000000,4.000000,4.000000,4.000000,4.000000,4.000000,83.333336
1614130268.395678,8.000000,0.000000,-4.207354,6.325725,-8.590497,0.368665,-32.228985,-11.347057,1.668894,-20.404741,-17.599047,-21.963848,-25.789549,-18.935606,-35.785019,-35.110783,-29.957434,-21.982779,-16.871098,3.056037,-4.469559,-8.776346,-12.634741,-12.692393,0.858693,-8.229524,1.558310,12.809202,-10.737776,0.196699,10.622990,4.815240,26.774132,15.558515,0.000000,164.000000,4.000000,,,,0.000000,4.000000,4.000000,4.000000,4.000000,4.000000,4.000000,2.000000,4.000000,4.000000,4.000000,4.000000,4.000000,4.000000,4.000000,4.000000,4.000000,4.000000,4.000000,4.000000,4.000000,4.000000,4.000000,4.000000,4.000000,4.000000,4.000000,4.000000,4.000000,4.000000,4.000000,4.000000,4.000000,83.333336
1614130268.403327,9.000000,0.000000,-2.151865,4.780938,-8.581907,1.393938,-31.683937,-11.335711,6.282610,-15.256132,-17.581448,-22.454704,-25.250938,-14.814106,-23.954361,-33.024391,-14.542861,-21.447975,-9.161919,-0.023942,-8.054832,-7.229108,-11.596465,-9.089957,3.421937,-9.759756,2.069572,8.181008,-10.727038,0.709322,0.355956,1.733502,18.542229,10.927571,0.000000,192.000000,4.000000,,,,0.000000,4.000000,4.000000,4.000000,4.000000,4.000000,4.000000,2.000000,4.000000,4.000000,4.000000,4.000000,4.000000,4.000000,4.000000,4.000000,4.000000,4.000000,4.000000,4.000000,4.000000,4.000000,4.000000,4.000000,4.000000,4.000000,4.000000,4.000000,4.000000,4.000000,4.000000,4.000000,4.000000,83.333336
1614130268.411076,10.000000,0.000000,-1.636892,5.288978,-8.573325,-0.658738,-33.190716,-11.837195,5.763507,-12.163953,-17.563868,-21.919428,-15.482098,-12.235189,-8.545791,-14.529826,-1.707805,-5.016271,-6.075834,5.617107,-19.328829,-7.221879,-12.610510,-8.055226,0.854412,-8.724356,1.554682,6.121546,-10.716311,1.221434,-2.721323,1.731769,15.959585,10.403823,0.000000,191.000000,4.000000,,,,0.000000,4.000000,4.000000,4.000000,4.000000,4.000000,4.000000,2.000000,4.000000,4.000000,4.000000,4.000000,4.000000,4.000000,4.000000,4.000000,4.000000,4.000000,4.000000,4.000000,4.000000,4.000000,4.000000,4.000000,4.000000,4.000000,4.000000,4.000000,4.000000,4.000000,4.000000,4.000000,4.000000,83.333336
1614130268.418725,11.000000,0.000000,-2.148076,5.283689,-4.462188,1.393202,-31.619062,-10.286897,10.885948,-12.664609,-14.469379,-15.743663,-6.235847,-10.171672,-3.409040,6.510345,1.883646,10.373361,-7.095399,14.842259,-16.745398,-7.214657,-12.597899,-9.585632,-0.684904,-9.741272,2.578768,9.192348,-11.218415,0.707392,-0.154499,6.345422,19.020548,15.521625,0.000000,172.000000,4.000000,,,,0.000000,4.000000,4.000000,4.000000,4.000000,4.000000,4.000000,2.000000,4.000000,4.000000,4.000000,4.000000,4.000000,4.000000,4.000000,4.000000,4.000000,4.000000,4.000000,4.000000,4.000000,4.000000,4.000000,4.000000,4.000000,4.000000,4.000000,4.000000,4.000000,4.000000,4.000000,4.000000,4.000000,83.333336
1614130268.426574,12.000000,0.000000,-2.145928,5.278405,4.260223,13.186681,-25.433598,-8.225327,6.259678,-8.549380,-9.326705,-8.035612,-5.203970,-6.058936,-2.892810,11.119219,4.958685,9.850167,-7.088304,15.853059,-4.420960,-7.207443,-6.431456,-5.473483,1.367064,-7.167428,6.678754,12.772899,-10.181556,0.706684,1.384117,11.980102,22.591270,21.659948,0.000000,200.000000,4.000000,,,,0.000000,4.000000,4.000000,4.000000,4.000000,4.000000,4.000000,2.000000,4.000000,4.000000,4.000000,4.000000,4.000000,4.000000,4.000000,4.000000,4.000000,4.000000,4.000000,4.000000,4.000000,4.000000,4.000000,4.000000,4.000000,4.000000,4.000000,4.000000,4.000000,4.000000,4.000000,4.000000,4.000000,83.333336
1614130268.434323,13.000000,0.000000,-2.143782,4.760306,10.409809,20.865803,-20.279959,-7.191461,-21.951710,-3.925446,-6.240456,-5.976294,-8.275689,-4.001595,-4.941199,-0.173952,-0.687299,1.635189,-7.081215,12.247461,-3.390898,-7.200235,-0.783998,-0.852625,2.391337,-2.544876,9.748998,13.785767,-7.607272,0.705978,4.972476,16.070686,23.594320,29.843418,0.000000,197.000000,4.000000,,,,0.000000,4.000000,4.000000,4.000000,4.000000,4.000000,4.000000,2.000000,4.000000,4.000000,4.000000,4.000000,4.000000,4.000000,4.000000,4.000000,4.000000,4.000000,4.000000,4.000000,4.000000,4.000000,4.000000,4.000000,4.000000,4.000000,4.000000,4.000000,4.000000,4.000000,4.000000,4.000000,4.000000,83.333336
1614130268.442172,14.000000,0.000000,-2.141638,2.704264,10.912220,17.255192,-20.772499,-7.697090,-41.416939,-6.998444,-5.721395,-6.995959,-8.780233,-5.536055,-15.705489,-12.994291,-17.609688,-3.494652,-7.074134,10.696753,-5.951610,-6.167394,-2.321676,-7.518439,3.414587,-1.003870,9.739249,13.771980,-6.574023,0.705272,8.557247,17.080256,23.570726,35.454601,0.000000,199.000000,4.000000,,,,0.000000,4.000000,4.000000,4.000000,4.000000,4.000000,4.000000,2.000000,4.000000,4.000000,4.000000,4.000000,4.000000,4.000000,4.000000,4.000000,4.000000,4.000000,4.000000,4.000000,4.000000,4.000000,4.000000,4.000000,4.000000,4.000000,4.000000,4.000000,4.000000,4.000000,4.000000,4.000000,4.000000,83.333336
1614130268.449921,15.000000,0.000000,-2.139497,1.163098,8.850026,14.673835,-21.264547,-7.689393,-28.555008,-8.529907,-6.228494,-6.988963,-10.309916,-3.992057,-23.382092,-15.032578,-23.745926,-1.439875,-8.092701,11.711697,-3.894376,-9.750971,-4.883457,-16.741690,1.872711,-1.515686,9.729509,13.758208,-7.080270,0.704566,8.548690,16.550356,23.547155,32.342220,0.000000,163.000000,4.000000,,,,0.000000,4.000000,4.000000,4.000000,4.000000,4.000000,4.000000,2.000000,4.000000,4.000000,4.000000,4.000000,4.000000,4.000000,4.000000,4.000000,4.000000,4.000000,4.000000,4.000000,4.000000,4.000000,4.000000,4.000000,4.000000,4.000000,4.000000,4.000000,4.000000,4.000000,4.000000,4.000000,4.000000,83.333336
1614130268.457770,16.000000,0.000000,-2.137357,1.161935,6.789894,15.684802,-20.730461,-7.168883,-12.629017,-8.008556,-5.709445,-6.981974,-14.402169,-8.090630,-23.871529,-15.017546,-24.234999,-3.489717,-13.725634,8.110242,-8.505866,-16.920706,-5.904214,-17.237768,-5.308649,-2.539812,8.694139,13.231630,-7.073190,0.703862,8.027321,16.533806,23.523609,29.232956,0.000000,166.000000,4.000000,,,,0.000000,4.000000,4.000000,4.000000,4.000000,4.000000,4.000000,2.000000,4.000000,4.000000,4.000000,4.000000,4.000000,4.000000,4.000000,4.000000,4.000000,4.000000,4.000000,4.000000,4.000000,4.000000,4.000000,4.000000,4.000000,4.000000,4.000000,4.000000,4.000000,4.000000,4.000000,4.000000,4.000000,83.333336
1614130268.465519,17.000000,0.000000,-2.135220,1.160773,5.757463,15.669117,-21.222551,-7.674535,-9.539465,-16.205677,-6.216556,-8.000633,-21.054434,-21.928692,-36.668171,-30.899965,-38.569740,-22.973406,-20.378574,-4.718381,-16.189669,-19.467888,-7.436772,-16.194889,-8.893084,-4.588554,5.095702,13.731219,-6.553296,0.703158,8.532114,17.030092,23.500086,31.255005,0.000000,174.000000,4.000000,,,,0.000000,4.000000,4.000000,4.000000,4.000000,4.000000,4.000000,2.000000,4.000000,4.000000,4.000000,4.000000,4.000000,4.000000,4.000000,4.000000,4.000000,4.000000,4.000000,4.000000,4.000000,4.000000,4.000000,4.000000,4.000000,4.000000,4.000000,4.000000,4.000000,4.000000,4.000000,4.000000,4.000000,83.333336
1614130268.473368,18.000000,0.000000,-2.133085,1.159612,6.264526,14.627807,-21.201328,-7.666860,-5.427361,-25.933060,-10.312903,-13.633657,-27.700047,-33.188816,-54.067402,-43.176758,-51.351681,-33.719666,-23.947941,-10.867509,-16.173479,-18.422779,-9.480617,-16.691515,-5.807268,-6.122427,2.013683,13.717487,-7.059563,0.702455,8.010761,16.500240,22.963764,32.762211,0.000000,207.000000,4.000000,,,,0.000000,4.000000,4.000000,4.000000,4.000000,4.000000,4.000000,2.000000,4.000000,4.000000,4.000000,4.000000,4.000000,4.000000,4.000000,4.000000,4.000000,4.000000,4.000000,4.000000,4.000000,4.000000,4.000000,4.000000,4.000000,4.000000,4.000000,4.000000,4.000000,4.000000,4.000000,4.000000,4.000000,83.333336
1614130268.481117,19.000000,0.000000,-2.130951,1.158452,5.745441,14.613179,-20.667307,-7.659194,-0.806549,-29.496870,-13.892334,-18.748230,-29.723627,-32.129986,-48.372307,-31.338709,-39.505459,-13.685945,-23.411171,2.476692,-10.003459,-18.404356,-8.958316,-13.597900,-6.827101,-5.603484,1.498849,12.678129,-7.052504,0.701752,8.002750,16.483742,23.453621,31.703810,0.000000,194.000000,4.000000,,,,0.000000,4.000000,4.000000,4.000000,4.000000,4.000000,4.000000,2.000000,4.000000,4.000000,4.000000,4.000000,4.000000,4.000000,4.000000,4.000000,4.000000,4.000000,4.000000,4.000000,4.000000,4.000000,4.000000,4.000000,4.000000,4.000000,4.000000,4.000000,4.000000,4.000000,4.000000,4.000000,4.000000,83.333336
1614130268.488966,20.000000,0.000000,-2.128820,1.157294,5.226875,15.111386,-21.159460,-7.651534,-2.857025,-26.903271,-13.365622,-15.139737,-21.488775,-21.841446,-25.247011,-14.384293,-14.850569,5.814921,-12.618529,15.807549,-2.301148,-18.385952,-4.333973,-6.917636,-6.820274,-5.597880,2.010170,14.716733,-7.045451,0.701051,7.994748,16.467257,23.430168,31.159285,0.000000,202.000000,4.000000,,,,0.000000,4.000000,4.000000,4.000000,4.000000,4.000000,4.000000,2.000000,4.000000,4.000000,4.000000,4.000000,4.000000,4.000000,4.000000,4.000000,4.000000,4.000000,4.000000,4.000000,4.000000,4.000000,4.000000,4.000000,4.000000,4.000000,4.000000,4.000000,4.000000,4.000000,4.000000,4.000000,4.000000,83.333336
1614130268.496715,21.000000,0.000000,-1.613871,1.156137,7.272930,15.096275,-20.112659,-7.643883,-4.905450,-18.671240,-11.813794,-8.970752,-8.133954,-11.563193,-9.324328,-7.190421,-1.502385,4.270645,1.753063,16.304562,2.316538,-17.854746,0.285746,-1.269693,0.366033,-5.592283,5.597904,20.855862,-6.525585,1.213170,8.499574,17.476431,22.893917,33.179409,0.000000,189.000000,4.000000,,,,0.000000,4.000000,4.000000,4.000000,4.000000,4.000000,4.000000,2.000000,4.000000,4.000000,4.000000,4.000000,4.000000,4.000000,4.000000,4.000000,4.000000,4.000000,4.000000,4.000000,4.000000,4.000000,4.000000,4.000000,4.000000,4.000000,4.000000,4.000000,4.000000,4.000000,4.000000,4.000000,4.000000,83.333336
1614130268.504564,22.000000,0.000000,-2.125078,1.154981,12.393862,15.081179,-17.015625,-7.636239,-3.874903,-9.934620,-8.725058,-7.423319,-2.484794,-7.961886,-3.673979,0.509077,-0.988062,0.163810,4.828233,16.288258,3.339862,-18.349712,-0.740181,-0.242782,3.442590,-4.561049,6.105126,24.937571,-6.519060,0.699136,8.491075,16.433313,23.383844,36.223152,0.000000,202.000000,4.000000,,,,0.000000,4.000000,4.000000,4.000000,4.000000,4.000000,4.000000,2.000000,4.000000,4.000000,4.000000,4.000000,4.000000,4.000000,4.000000,4.000000,4.000000,4.000000,4.000000,4.000000,4.000000,4.000000,4.000000,4.000000,4.000000,4.000000,4.000000,4.000000,4.000000,4.000000,4.000000,4.000000,4.000000,83.333336
1614130268.512313,23.000000,0.000000,-2.122953,1.153826,15.971211,15.066098,-13.921685,-7.628603,-4.383849,-7.873404,-1.024024,-2.800511,-2.482310,-8.979566,1.457900,7.688055,3.115490,3.753390,3.797764,18.836071,3.336523,-18.331362,-0.739441,-1.268180,2.926327,-5.582129,2.509278,24.912634,-7.025361,0.185617,6.944122,15.904059,25.411741,38.238209,0.000000,204.000000,4.000000,,,,0.000000,4.000000,4.000000,4.000000,4.000000,4.000000,4.000000,2.000000,4.000000,4.000000,4.000000,4.000000,4.000000,4.000000,4.000000,4.000000,4.000000,4.000000,4.000000,4.000000,4.000000,4.000000,4.000000,4.000000,4.000000,4.000000,4.000000,4.000000,4.000000,4.000000,4.000000,4.000000,4.000000,83.333336
1614130268.520162,24.000000,0.000000,-1.608009,1.665492,16.980883,14.538211,-12.882123,-5.056871,-4.379465,-8.891171,2.566743,-0.233608,-2.479827,-7.944945,5.046186,8.193188,9.779041,6.826559,4.819607,20.868517,1.794724,-17.287390,0.286940,-0.754091,3.949042,-5.576547,3.532409,25.913363,-5.992695,1.211072,8.475639,17.426617,26.924791,39.738434,0.000000,192.000000,4.000000,,,,0.000000,4.000000,4.000000,4.000000,4.000000,4.000000,4.000000,2.000000,4.000000,4.000000,4.000000,4.000000,4.000000,4.000000,4.000000,4.000000,4.000000,4.000000,4.000000,4.000000,4.000000,4.000000,4.000000,4.000000,4.000000,4.000000,4.000000,4.000000,4.000000,4.000000,4.000000,4.000000,4.000000,83.333336
1614130268.527911,25.000000,0.000000,-3.657683,1.151006,16.963902,15.036493,-16.971806,-3.000532,-2.323804,-8.882279,-2.051208,-7.925683,-9.144014,-9.475462,-8.292193,-3.097057,-2.538430,0.665887,-10.057008,18.796366,-5.386558,-21.885487,-8.944117,-8.445645,-4.772856,-4.032509,-1.086508,20.759243,-7.525164,0.697041,8.467163,12.280986,26.897867,38.160233,0.000000,202.000000,4.000000,,,,0.000000,4.000000,4.000000,4.000000,4.000000,4.000000,4.000000,2.000000,4.000000,4.000000,4.000000,4.000000,4.000000,4.000000,4.000000,4.000000,4.000000,4.000000,4.000000,4.000000,4.000000,4.000000,4.000000,4.000000,4.000000,4.000000,4.000000,4.000000,4.000000,4.000000,4.000000,4.000000,4.000000,83.333336
1614130268.535760,26.000000,0.000000,-8.269410,-1.414247,17.459757,15.021457,-28.236885,-5.561635,-0.270198,-11.437500,-8.203003,-17.661346,-19.391281,-14.594192,-28.796722,-21.555498,-26.638454,-14.206574,-34.149513,4.931417,-15.124761,-29.555908,-24.832609,-27.411558,-20.665520,-8.131041,-17.495678,4.841048,-16.235586,-6.995964,-2.823355,-2.090270,26.870970,26.840021,0.000000,214.000000,4.000000,,,,0.000000,4.000000,4.000000,4.000000,4.000000,4.000000,4.000000,2.000000,4.000000,4.000000,4.000000,4.000000,4.000000,4.000000,4.000000,4.000000,4.000000,4.000000,4.000000,4.000000,4.000000,4.000000,4.000000,4.000000,4.000000,4.000000,4.000000,4.000000,4.000000,4.000000,4.000000,4.000000,4.000000,83.333336
1614130268.543510,27.000000,0.000000,-9.799603,-2.951295,17.442297,15.006435,-33.849674,-7.607355,-0.782748,-12.451704,-9.733262,-19.182146,-20.910351,-16.630878,-28.255104,-25.123686,-28.150278,-19.320572,-34.115364,-6.868387,-19.725021,-29.526354,-32.500084,-35.076454,-22.183315,-17.353680,-21.067926,-5.420203,-24.424480,-10.578712,-10.000019,-7.729205,26.844097,19.120874,0.000000,210.000000,4.000000,,,,0.000000,4.000000,4.000000,4.000000,4.000000,4.000000,4.000000,2.000000,4.000000,4.000000,4.000000,4.000000,4.000000,4.000000,4.000000,4.000000,4.000000,4.000000,4.000000,4.000000,4.000000,4.000000,4.000000,4.000000,4.000000,4.000000,4.000000,4.000000,4.000000,4.000000,4.000000,4.000000,4.000000,83.333336
1614130268.551159,28.000000,0.000000,-9.276982,-2.435523,17.424856,15.504250,-23.046593,-5.035645,-0.781965,-9.875150,-9.210708,-16.086042,-16.786877,-16.101427,-12.329413,-7.662665,-10.686231,-4.429457,-15.619711,0.830789,-17.654013,-24.368622,-27.852200,-25.297789,-13.443183,-21.438889,-6.687883,-1.825040,-25.938517,-5.952748,1.292032,4.073396,26.817253,30.896626,0.000000,192.000000,4.000000,,,,0.000000,4.000000,4.000000,4.000000,4.000000,4.000000,4.000000,2.000000,4.000000,4.000000,4.000000,4.000000,4.000000,4.000000,4.000000,4.000000,4.000000,4.000000,4.000000,4.000000,4.000000,4.000000,4.000000,4.000000,4.000000,4.000000,4.000000,4.000000,4.000000,4.000000,4.000000,4.000000,4.000000,83.333336
1614130268.558908,29.000000,0.000000,-9.267705,-2.433087,17.407431,17.540028,-11.228674,-3.492148,-0.268363,-8.326813,-8.175856,-9.916109,-14.205987,-16.085327,-7.188879,4.139869,-3.496057,8.908305,-9.450245,13.650472,-13.533795,-22.805792,-19.619219,-19.631464,-11.378458,-19.878988,-0.527349,2.792170,-25.399757,-2.357052,11.547151,15.864194,26.277617,42.147781,0.000000,197.000000,4.000000,,,,0.000000,4.000000,4.000000,4.000000,4.000000,4.000000,4.000000,2.000000,4.000000,4.000000,4.000000,4.000000,4.000000,4.000000,4.000000,4.000000,4.000000,4.000000,4.000000,4.000000,4.000000,4.000000,4.000000,4.000000,4.000000,4.000000,4.000000,4.000000,4.000000,4.000000,4.000000,4.000000,4.000000,83.333336
1614130268.566657,30.000000,0.000000,-9.771258,-2.430654,16.877203,19.573769,-9.678984,-4.001476,-0.780915,-8.318486,-5.603578,-5.290809,-14.191781,-16.069241,-11.284254,2.597268,-6.569484,5.822474,-12.004897,17.226564,-6.340775,-19.193243,-11.907291,-18.073372,-12.905540,-19.859110,-1.552463,4.327839,-21.784615,-3.380336,8.971501,17.386791,26.764158,40.567169,0.000000,216.000000,4.000000,,,,0.000000,4.000000,4.000000,4.000000,4.000000,4.000000,4.000000,2.000000,4.000000,4.000000,4.000000,4.000000,4.000000,4.000000,4.000000,4.000000,4.000000,4.000000,4.000000,4.000000,4.000000,4.000000,4.000000,4.000000,4.000000,4.000000,4.000000,4.000000,4.000000,4.000000,4.000000,4.000000,4.000000,83.333336
1614130268.574406,31.000000,0.000000,-9.248667,-2.428224,14.296223,18.528555,-13.259048,-3.484654,-0.780134,-7.797347,-5.597974,-10.926543,-17.254513,-17.078814,-13.837072,-2.020714,-7.075736,-1.362836,-9.941610,15.670877,-2.231869,-11.994561,-10.869743,-12.414273,-11.354174,-20.864891,-1.038090,6.374794,-15.096163,-2.351315,7.936889,16.343763,27.250216,40.526604,0.000000,182.000000,4.000000,,,,0.000000,4.000000,4.000000,4.000000,4.000000,4.000000,4.000000,2.000000,4.000000,4.000000,4.000000,4.000000,4.000000,4.000000,4.000000,4.000000,4.000000,4.000000,4.000000,4.000000,4.000000,4.000000,4.000000,4.000000,4.000000,4.000000,4.000000,4.000000,4.000000,4.000000,4.000000,4.000000,4.000000,83.333336
1614130268.582055,32.000000,0.000000,-9.239418,-2.425795,6.076798,11.843359,-21.963737,-6.045272,-0.266533,-10.866472,-12.259043,-22.710489,-21.339821,-19.113016,-19.464262,-9.198180,-11.171224,-8.028139,-13.008592,5.911616,-15.050150,-18.649233,-22.140924,-17.017242,-12.881281,-19.818386,-12.319103,6.368419,-13.542605,-2.348963,6.390490,14.276137,25.684504,35.357872,8064.000000,0.000000,4.000000,,,,0.000000,4.000000,4.000000,4.000000,4.000000,4.000000,4.000000,2.000000,4.000000,4.000000,4.000000,4.000000,4.000000,4.000000,4.000000,4.000000,4.000000,4.000000,4.000000,4.000000,4.000000,4.000000,4.000000,4.000000,4.000000,4.000000,4.000000,4.000000,4.000000,4.000000,4.000000,4.000000,4.000000,83.333336
1614130268.589804,33.000000,0.000000,-9.230178,-2.423370,-2.647227,3.113567,-31.685364,-11.167432,-3.343190,-16.496632,-17.887810,-26.790342,-22.344124,-20.119545,-27.137104,-15.855649,-18.852360,-13.148316,-24.277636,-8.966091,-34.009460,-28.886995,-33.913654,-27.256636,-15.432503,-19.798567,-23.076015,6.874871,-14.041883,-3.885076,3.819997,9.646477,22.069075,18.399437,8064.000000,0.000000,4.000000,,,,0.000000,4.000000,4.000000,4.000000,4.000000,4.000000,4.000000,2.000000,4.000000,4.000000,4.000000,4.000000,4.000000,4.000000,4.000000,4.000000,4.000000,4.000000,4.000000,4.000000,4.000000,4.000000,4.000000,4.000000,4.000000,4.000000,4.000000,4.000000,4.000000,4.000000,4.000000,4.000000,4.000000,83.333336
1614130268.597453,34.000000,0.000000,-9.733768,-2.933767,-1.106118,4.136095,-33.704960,-12.181906,-7.955231,-16.480135,-18.382742,-22.660988,-21.296137,-19.586603,-27.622787,-14.301332,-19.859148,-10.058245,-29.894382,-8.957125,-33.975449,-21.165800,-33.366920,-21.588354,-11.827327,-19.778769,-13.822169,11.483380,-7.361175,2.272655,12.021305,8.611190,24.098288,17.868217,8064.000000,0.000000,4.000000,,,,0.000000,4.000000,4.000000,4.000000,4.000000,4.000000,4.000000,2.000000,4.000000,4.000000,4.000000,4.000000,4.000000,4.000000,4.000000,4.000000,4.000000,4.000000,4.000000,4.000000,4.000000,4.000000,4.000000,4.000000,4.000000,4.000000,4.000000,4.000000,4.000000,4.000000,4.000000,4.000000,4.000000,83.333336
1614130268.605202,35.000000,0.000000,-8.698394,-1.905192,5.048834,10.798625,-30.594334,-10.631262,-8.972918,-16.463655,-15.800257,-21.099865,-21.274841,-19.054197,-26.056704,-18.389595,-18.813648,-14.150751,-28.326027,-5.871244,-25.223526,-15.503609,-27.179708,-15.412919,-7.712935,-17.707708,-3.551937,14.548820,-1.712788,8.937049,13.547746,9.628220,27.151114,28.106758,8064.000000,0.000000,4.000000,,,,0.000000,4.000000,4.000000,4.000000,4.000000,4.000000,4.000000,2.000000,4.000000,4.000000,4.000000,4.000000,4.000000,4.000000,4.000000,4.000000,4.000000,4.000000,4.000000,4.000000,4.000000,4.000000,4.000000,4.000000,4.000000,4.000000,4.000000,4.000000,4.000000,4.000000,4.000000,4.000000,4.000000,83.333336
1614130268.612852,36.000000,0.000000,-6.638413,-2.416107,0.941221,7.710904,-33.640663,-12.159092,-6.912662,-20.549755,-17.835739,-24.155689,-22.792028,-20.060783,-28.594749,-27.089153,-25.461502,-30.546856,-30.348984,-13.557681,-28.275225,-28.821438,-26.639708,-24.628275,-10.269324,-14.100257,-5.086847,11.457349,-5.300819,1.235804,0.713685,8.592950,19.944475,20.386345,8064.000000,0.000000,4.000000,,,,0.000000,4.000000,4.000000,4.000000,4.000000,4.000000,4.000000,2.000000,4.000000,4.000000,4.000000,4.000000,4.000000,4.000000,4.000000,4.000000,4.000000,4.000000,4.000000,4.000000,4.000000,4.000000,4.000000,4.000000,4.000000,4.000000,4.000000,4.000000,4.000000,4.000000,4.000000,4.000000,4.000000,83.333336
1614130268.620601,37.000000,0.000000,-5.093313,-3.952153,-2.136643,3.087808,-32.068558,-11.121292,-4.341647,-16.939463,-17.817904,-20.541790,-21.230774,-19.015081,-24.463591,-18.856936,-26.461681,-25.900925,-27.241711,-10.980021,-29.785412,-31.869539,-26.613068,-25.116468,-11.284697,-12.034875,-6.107401,8.881788,-10.423723,-11.073124,-0.825490,8.584357,11.206582,16.263393,8064.000000,0.000000,4.000000,,,,0.000000,4.000000,4.000000,4.000000,4.000000,4.000000,4.000000,2.000000,4.000000,4.000000,4.000000,4.000000,4.000000,4.000000,4.000000,4.000000,4.000000,4.000000,4.000000,4.000000,4.000000,4.000000,4.000000,4.000000,4.000000,4.000000,4.000000,4.000000,4.000000,4.000000,4.000000,4.000000,4.000000,83.333336
1614130268.628250,38.000000,0.000000,-5.601041,1.692825,10.686007,10.264208,-16.139055,-4.443504,-3.824485,-1.025087,-6.518034,-7.187914,-11.978775,-13.867862,-9.567332,-1.915002,-12.589066,0.278822,-11.829854,7.492498,-18.986395,-14.914594,-22.996712,-12.270839,-6.658027,-12.535660,-4.562832,10.411368,-10.413300,-10.036409,10.457386,10.627055,13.759478,32.657387,8064.000000,0.000000,4.000000,,,,0.000000,4.000000,4.000000,4.000000,4.000000,4.000000,4.000000,2.000000,4.000000,4.000000,4.000000,4.000000,4.000000,4.000000,4.000000,4.000000,4.000000,4.000000,4.000000,4.000000,4.000000,4.000000,4.000000,4.000000,4.000000,4.000000,4.000000,4.000000,4.000000,4.000000,4.000000,4.000000,4.000000,83.333336
1614130268.635999,39.000000,0.000000,-5.595439,10.409081,16.829166,15.382149,-4.840865,0.689144,-2.795019,8.719528,6.308997,1.024402,-4.787309,-10.777071,0.185825,0.138195,-1.807246,6.945210,-3.100075,12.100389,-10.249460,-10.797115,-19.383972,-9.694466,-3.574446,-12.523125,-4.558269,9.375316,-9.890065,-3.359706,11.472570,11.129249,19.386744,38.265755,8064.000000,0.000000,4.000000,,,,0.000000,4.000000,4.000000,4.000000,4.000000,4.000000,4.000000,2.000000,4.000000,4.000000,4.000000,4.000000,4.000000,4.000000,4.000000,4.000000,4.000000,4.000000,4.000000,4.000000,4.000000,4.000000,4.000000,4.000000,4.000000,4.000000,4.000000,4.000000,4.000000,4.000000,4.000000,4.000000,4.000000,83.333336
1614130268.643648,40.000000,0.000000,-5.589844,11.424313,4.504645,9.212920,-15.605254,-0.850006,0.284699,3.582603,3.225765,-4.104827,-6.320983,-13.843217,-3.916925,-7.554251,-8.984926,-7.420710,-10.276463,1.831879,-11.264852,-18.478626,-19.364588,-16.351437,-4.596512,-11.997781,-5.066531,3.212095,-10.392996,-2.843526,6.845713,9.066837,18.854536,28.996719,8064.000000,0.000000,4.000000,,,,0.000000,4.000000,4.000000,4.000000,4.000000,4.000000,4.000000,2.000000,4.000000,4.000000,4.000000,4.000000,4.000000,4.000000,4.000000,4.000000,4.000000,4.000000,4.000000,4.000000,4.000000,4.000000,4.000000,4.000000,4.000000,4.000000,4.000000,4.000000,4.000000,4.000000,4.000000,4.000000,4.000000,83.333336
1614130268.651397,41.000000,0.000000,-5.584254,6.284684,-2.679347,6.639605,-25.333239,-4.951720,-0.741227,-4.113287,-6.008230,-6.664825,-6.827483,-15.880655,-9.554034,-9.597980,-10.514402,-2.285084,-15.394391,0.804406,-11.253587,-13.331942,-16.781120,-15.822266,-4.591916,-12.498604,-6.087106,2.696062,-10.895424,-3.353503,7.351687,7.006488,18.835682,25.890800,8064.000000,0.000000,4.000000,,,,0.000000,4.000000,4.000000,4.000000,4.000000,4.000000,4.000000,2.000000,4.000000,4.000000,4.000000,4.000000,4.000000,4.000000,4.000000,4.000000,4.000000,4.000000,4.000000,4.000000,4.000000,4.000000,4.000000,4.000000,4.000000,4.000000,4.000000,4.000000,4.000000,4.000000,4.000000,4.000000,4.000000,83.333336
1614130268.659046,42.000000,0.000000,-6.091491,4.739937,0.913076,10.222709,-14.538675,-3.408307,-9.458434,-5.134815,-4.976581,2.572609,-0.153988,-12.787852,-6.980377,-0.357612,4.367907,15.665919,-12.814894,7.470269,-7.139769,-3.062200,-7.020750,-12.216700,-4.587324,-12.998925,-3.004096,11.411315,-10.884528,-2.837329,8.369977,12.640508,21.380949,27.403372,8064.000000,0.000000,4.000000,,,,0.000000,4.000000,4.000000,4.000000,4.000000,4.000000,4.000000,2.000000,4.000000,4.000000,4.000000,4.000000,4.000000,4.000000,4.000000,4.000000,4.000000,4.000000,4.000000,4.000000,4.000000,4.000000,4.000000,4.000000,4.000000,4.000000,4.000000,4.000000,4.000000,4.000000,4.000000,4.000000,4.000000,83.333336
1614130268.666796,43.000000,0.000000,-5.572578,5.248018,3.476265,11.750948,-1.703624,4.800230,-16.115643,-4.616859,0.669422,9.236703,-0.153834,-12.775064,-9.537499,2.719669,-0.251846,4.881022,-16.391823,8.488440,-3.542886,-2.033496,0.165759,-11.691663,-4.582736,-11.447465,1.614293,17.553749,-10.360823,-2.321671,10.412889,24.422739,25.462132,30.965712,8064.000000,0.000000,4.000000,,,,0.000000,4.000000,4.000000,4.000000,4.000000,4.000000,4.000000,2.000000,4.000000,4.000000,4.000000,4.000000,4.000000,4.000000,4.000000,4.000000,4.000000,4.000000,4.000000,4.000000,4.000000,4.000000,4.000000,4.000000,4.000000,4.000000,4.000000,4.000000,4.000000,4.000000,4.000000,4.000000,4.000000,83.333336
1614130268.674445,44.000000,0.000000,-5.567006,4.729949,5.011250,10.713555,-3.240381,5.821070,-14.561066,-5.125063,1.694393,4.099261,-11.948552,-16.864853,-24.399757,-14.718948,-27.431082,-24.867449,-24.067738,7.967130,-3.539343,-4.082745,-1.372869,-12.192791,-4.578154,-8.871915,2.125499,16.510555,-10.350462,-2.832170,11.428117,31.577803,29.539234,39.652695,8064.000000,0.000000,4.000000,,,,0.000000,4.000000,4.000000,4.000000,4.000000,4.000000,4.000000,2.000000,4.000000,4.000000,4.000000,4.000000,4.000000,4.000000,4.000000,4.000000,4.000000,4.000000,4.000000,4.000000,4.000000,4.000000,4.000000,4.000000,4.000000,4.000000,4.000000,4.000000,4.000000,4.000000,4.000000,4.000000,4.000000,83.333336
1614130268.682294,45.000000,0.000000,-6.074259,4.212399,5.519060,10.702842,-8.878167,-1.877059,-11.469582,-7.684041,0.667058,-4.109966,-20.654552,-20.950552,-35.144588,-28.037563,-32.019035,-20.740017,-26.607773,6.933522,-9.689650,-3.565842,-4.448419,-13.206240,-5.086396,-8.863043,3.661835,17.519686,-11.365753,-3.342159,10.903869,31.033405,30.535336,43.202785,8064.000000,0.000000,4.000000,,,,0.000000,4.000000,4.000000,4.000000,4.000000,4.000000,4.000000,2.000000,4.000000,4.000000,4.000000,4.000000,4.000000,4.000000,4.000000,4.000000,4.000000,4.000000,4.000000,4.000000,4.000000,4.000000,4.000000,4.000000,4.000000,4.000000,4.000000,4.000000,4.000000,4.000000,4.000000,4.000000,4.000000,83.333336
1614130268.690043,46.000000,0.000000,-5.042544,4.721007,5.513541,11.717780,-9.894930,-3.926464,-8.894010,-9.214818,1.179211,-4.618677,-14.992872,-20.416780,-27.929956,-16.727474,-16.602400,2.870467,-21.965780,4.362486,-16.346626,-2.536635,-4.443971,-11.141751,-4.568490,-9.367001,8.273558,20.579088,-8.277464,-2.825996,12.944246,30.489552,29.991980,41.621120,8064.000000,0.000000,4.000000,,,,0.000000,4.000000,4.000000,4.000000,4.000000,4.000000,4.000000,2.000000,4.000000,4.000000,4.000000,4.000000,4.000000,4.000000,4.000000,4.000000,4.000000,4.000000,4.000000,4.000000,4.000000,4.000000,4.000000,4.000000,4.000000,4.000000,4.000000,4.000000,4.000000,4.000000,4.000000,4.000000,4.000000,83.333336
1614130268.697892,47.000000,0.000000,-0.934938,4.716286,11.149053,13.757344,-9.372214,-0.332794,-3.244090,-7.154321,1.178032,0.514147,-1.644546,-12.191236,-11.491770,-4.403054,-10.431952,2.867596,-11.174584,7.435047,-10.176434,-0.995637,-2.388245,-4.976763,0.051464,-5.255069,10.316566,21.584150,-1.089699,-0.771888,15.495405,30.971882,32.526093,43.630783,8064.000000,0.000000,4.000000,,,,0.000000,4.000000,4.000000,4.000000,4.000000,4.000000,4.000000,2.000000,4.000000,4.000000,4.000000,4.000000,4.000000,4.000000,4.000000,4.000000,4.000000,4.000000,4.000000,4.000000,4.000000,4.000000,4.000000,4.000000,4.000000,4.000000,4.000000,4.000000,4.000000,4.000000,4.000000,4.000000,4.000000,83.333336
1614130268.705641,48.000000,0.000000,2.142920,4.711570,17.291750,14.769228,-9.362842,0.180360,0.348898,-2.018962,1.689674,5.641838,6.562227,-2.948276,4.929978,1.755195,0.347711,3.377549,-1.419820,14.607099,4.705537,0.543821,1.716708,0.156419,3.128335,0.391211,9.280609,21.049746,1.475493,1.280166,15.479910,30.940910,37.108948,46.151253,8064.000000,0.000000,4.000000,,,,0.000000,4.000000,4.000000,4.000000,4.000000,4.000000,4.000000,2.000000,4.000000,4.000000,4.000000,4.000000,4.000000,4.000000,4.000000,4.000000,4.000000,4.000000,4.000000,4.000000,4.000000,4.000000,4.000000,4.000000,4.000000,4.000000,4.000000,4.000000,4.000000,4.000000,4.000000,4.000000,4.000000,83.333336
1614130268.713490,49.000000,0.000000,2.140778,4.706858,17.274458,14.754458,-7.302197,-0.845462,-0.164271,1.572801,3.739267,7.687478,8.606946,0.644416,18.258383,16.112413,17.783260,26.963915,1.658523,16.130953,10.854678,0.543277,3.766273,-0.869379,3.125207,2.954923,9.271328,20.515875,0.961197,0.766065,15.464430,30.909969,38.097481,45.592281,8064.000000,0.000000,4.000000,,,,0.000000,4.000000,4.000000,4.000000,4.000000,4.000000,4.000000,2.000000,4.000000,4.000000,4.000000,4.000000,4.000000,4.000000,4.000000,4.000000,4.000000,4.000000,4.000000,4.000000,4.000000,4.000000,4.000000,4.000000,4.000000,4.000000,4.000000,4.000000,4.000000,4.000000,4.000000,4.000000,4.000000,83.333336
1614130268.721239,50.000000,0.000000,1.625816,4.702151,16.231543,14.739704,-5.756433,-0.331796,-1.189748,2.084049,5.273989,7.166970,7.572699,2.182233,18.752945,21.224506,15.714195,27.962593,1.144044,15.089181,10.843823,1.055554,2.736866,-1.381330,2.609261,2.439147,9.774878,21.008181,0.960236,0.765299,15.448965,27.289316,34.982460,45.546688,8064.000000,0.000000,4.000000,,,,0.000000,4.000000,4.000000,4.000000,4.000000,4.000000,4.000000,2.000000,4.000000,4.000000,4.000000,4.000000,4.000000,4.000000,4.000000,4.000000,4.000000,4.000000,4.000000,4.000000,4.000000,4.000000,4.000000,4.000000,4.000000,4.000000,4.000000,4.000000,4.000000,4.000000,4.000000,4.000000,4.000000,83.333336
1614130268.729088,51.000000,0.000000,2.137011,4.697449,17.240952,15.237785,-6.263497,-0.331464,-1.188558,2.081965,5.268715,7.672624,5.513844,4.231333,11.554704,6.331488,3.903610,0.755143,1.142900,15.074092,9.807339,-1.509604,3.246949,0.671333,3.119473,1.923888,9.765102,20.987171,-0.579186,1.277355,11.843773,23.159462,30.332094,45.501144,8064.000000,0.000000,4.000000,,,,0.000000,4.000000,4.000000,4.000000,4.000000,4.000000,4.000000,2.000000,4.000000,4.000000,4.000000,4.000000,4.000000,4.000000,4.000000,4.000000,4.000000,4.000000,4.000000,4.000000,4.000000,4.000000,4.000000,4.000000,4.000000,4.000000,4.000000,4.000000,4.000000,4.000000,4.000000,4.000000,4.000000,83.333336
1614130268.736837,52.000000,0.000000,1.622054,4.692752,17.223711,14.709727,-6.257234,-0.331132,0.351092,2.592703,4.237805,7.152131,4.995509,1.150179,7.953406,-4.444075,4.412527,-5.399458,0.116116,13.520556,6.207788,-4.072197,3.243703,-4.457543,3.116353,2.947605,8.216876,17.376442,-4.681171,-0.775205,7.729365,22.110661,29.276121,43.404358,8064.000000,0.000000,4.000000,,,,0.000000,4.000000,4.000000,4.000000,4.000000,4.000000,4.000000,2.000000,4.000000,4.000000,4.000000,4.000000,4.000000,4.000000,4.000000,4.000000,4.000000,4.000000,4.000000,4.000000,4.000000,4.000000,4.000000,4.000000,4.000000,4.000000,4.000000,4.000000,4.000000,4.000000,4.000000,4.000000,4.000000,83.333336
1614130268.744686,53.000000,0.000000,2.133252,4.175239,16.693666,14.695017,-5.738156,-0.330801,-2.213362,3.102931,1.669465,2.016773,4.477694,-0.389433,3.330068,-4.439631,1.844011,2.811069,-6.037847,12.481395,3.124657,-1.504022,-0.862105,-12.658214,3.113237,1.919016,5.644557,12.743680,-6.727772,-2.825712,7.208815,22.601372,29.759665,41.309673,8064.000000,0.000000,4.000000,,,,0.000000,4.000000,4.000000,4.000000,4.000000,4.000000,4.000000,2.000000,4.000000,4.000000,4.000000,4.000000,4.000000,4.000000,4.000000,4.000000,4.000000,4.000000,4.000000,4.000000,4.000000,4.000000,4.000000,4.000000,4.000000,4.000000,4.000000,4.000000,4.000000,4.000000,4.000000,4.000000,4.000000,83.333336
1614130268.752435,54.000000,0.000000,2.643939,5.196704,16.676973,15.193143,-7.270880,-0.330470,-6.313713,2.587008,1.154975,-3.113449,-2.706272,0.123777,-5.391211,-8.024935,-10.465525,-10.012255,-15.775398,10.930452,-0.981032,-6.117903,-3.938166,-15.722479,1.058841,-2.185467,5.638912,12.730936,-7.746685,-2.822886,7.714427,23.091591,29.217085,41.268364,8064.000000,0.000000,4.000000,,,,0.000000,4.000000,4.000000,4.000000,4.000000,4.000000,4.000000,2.000000,4.000000,4.000000,4.000000,4.000000,4.000000,4.000000,4.000000,4.000000,4.000000,4.000000,4.000000,4.000000,4.000000,4.000000,4.000000,4.000000,4.000000,4.000000,4.000000,4.000000,4.000000,4.000000,4.000000,4.000000,4.000000,83.333336
1614130268.760284,55.000000,0.000000,-0.435628,5.191507,17.173117,13.639488,-9.314891,0.182681,1.897729,2.071600,2.179461,-4.135976,-10.908693,-8.594296,-13.590948,-12.632295,-17.634546,-19.745832,-22.426291,6.816957,-7.646718,-18.932299,-4.959869,-17.245218,-2.531961,-5.773025,5.633273,13.231026,-9.790220,-4.871345,7.706712,23.581320,29.187868,41.739914,8192.000000,0.000000,4.000000,,,,0.000000,4.000000,4.000000,4.000000,4.000000,4.000000,4.000000,2.000000,4.000000,4.000000,4.000000,4.000000,4.000000,4.000000,4.000000,4.000000,4.000000,4.000000,4.000000,4.000000,4.000000,4.000000,4.000000,4.000000,4.000000,4.000000,4.000000,4.000000,4.000000,4.000000,4.000000,4.000000,4.000000,83.333336
1614130268.768033,56.000000,0.000000,-2.486474,2.622213,16.643124,11.061746,-10.331217,-0.330323,14.716345,2.582349,-0.386821,-3.619020,-10.897785,-16.278009,-14.090178,-12.619662,-16.591270,0.273914,-21.378222,9.887064,0.053237,-12.759520,-5.980550,-16.202332,-5.093532,-5.767252,4.601999,12.192154,-10.806071,-7.430576,7.186185,22.019276,29.671501,41.698177,8064.000000,0.000000,4.000000,,,,0.000000,4.000000,4.000000,4.000000,4.000000,4.000000,4.000000,2.000000,4.000000,4.000000,4.000000,4.000000,4.000000,4.000000,4.000000,4.000000,4.000000,4.000000,4.000000,4.000000,4.000000,4.000000,4.000000,4.000000,4.000000,4.000000,4.000000,4.000000,4.000000,4.000000,4.000000,4.000000,4.000000,83.333336
1614130268.775882,57.000000,0.000000,-0.945526,1.593950,17.139301,11.050684,-8.782424,-0.842813,8.547782,1.041305,-2.437716,-3.615401,-9.348426,-13.697629,-10.999165,-11.581401,-15.036219,16.683895,-15.715818,16.543842,19.027542,6.740420,-1.872006,-6.955360,-5.088438,-5.248664,8.699961,15.256885,-10.795265,-2.294940,7.691819,23.535719,29.641829,40.630836,8064.000000,0.000000,4.000000,,,,0.000000,4.000000,4.000000,4.000000,4.000000,4.000000,4.000000,2.000000,4.000000,4.000000,4.000000,4.000000,4.000000,4.000000,4.000000,4.000000,4.000000,4.000000,4.000000,4.000000,4.000000,4.000000,4.000000,4.000000,4.000000,4.000000,4.000000,4.000000,4.000000,4.000000,4.000000,4.000000,4.000000,83.333336
