title:25, start timestamp:1614131198.664337, stop timestamp:1614131244.994272, headset type:EPOCFLEX, headset serial:F00001ED, headset firmware:f12, subject name:s08, channels:75, sampling rate:128, samples:5978      , version:2.0
Timestamp,EEG.Counter,EEG.Interpolated,EEG.Cz,EEG.Fz,EEG.Fp1,EEG.AF3,EEG.F7,EEG.F3,EEG.FC1,EEG.C3,EEG.FC5,EEG.T7,EEG.CP5,EEG.CP1,EEG.P3,EEG.P7,EEG.PO3,EEG.O1,EEG.Pz,EEG.Oz,EEG.O2,EEG.PO4,EEG.P8,EEG.P4,EEG.CP2,EEG.CP6,EEG.T8,EEG.FC6,EEG.C4,EEG.FC2,EEG.F4,EEG.F8,EEG.AF4,EEG.Fp2,EEG.HighBitFlex,EEG.RawCq,EEG.Battery,MarkerIndex,MarkerType,MarkerValueInt,EEG.MarkerHardware,CQ.Cz,CQ.Fz,CQ.Fp1,CQ.AF3,CQ.F7,CQ.F3,CQ.FC1,CQ.C3,CQ.FC5,CQ.T7,CQ.CP5,CQ.CP1,CQ.P3,CQ.P7,CQ.PO3,CQ.O1,CQ.Pz,CQ.Oz,CQ.O2,CQ.PO4,CQ.P8,CQ.P4,CQ.CP2,CQ.CP6,CQ.T8,CQ.FC6,CQ.C4,CQ.FC2,CQ.F4,CQ.F8,CQ.AF4,CQ.Fp2,CQ.Overall
1614131198.664337,1.000000,0.000000,6.023919,-5.857819,3.151356,13.393110,25.408096,7.101565,-1.414044,-2.019306,13.494071,-7.795023,18.801310,-8.172221,-18.769899,-7.343915,-12.440845,9.785067,1.018618,19.945890,24.113194,3.391428,-8.379442,-10.887155,-6.371467,-19.679476,2.906435,-5.737083,-20.267351,-3.036397,0.885589,2.141810,11.823812,4.668581,0.000000,181.000000,4.000000,,,,0.000000,4.000000,4.000000,2.000000,4.000000,4.000000,4.000000,4.000000,4.000000,4.000000,4.000000,4.000000,4.000000,4.000000,4.000000,4.000000,4.000000,4.000000,4.000000,4.000000,4.000000,4.000000,4.000000,4.000000,4.000000,4.000000,4.000000,4.000000,4.000000,4.000000,4.000000,4.000000,4.000000,83.333336
1614131198.671986,2.000000,0.000000,5.505075,-6.364781,1.609743,10.302794,20.767303,6.581643,-0.899809,-1.504466,10.916474,-9.325689,18.782509,-8.676869,-18.751131,-18.105801,-11.402763,-14.840103,-1.033683,-6.740723,-1.551944,-19.176065,-24.781319,-19.081396,-4.826634,-21.711079,-0.173395,-9.833911,-20.247084,-3.033360,1.397524,-10.680844,5.658141,1.074169,0.000000,181.000000,4.000000,,,,0.000000,4.000000,4.000000,2.000000,4.000000,4.000000,4.000000,4.000000,4.000000,4.000000,4.000000,4.000000,4.000000,4.000000,4.000000,4.000000,4.000000,4.000000,4.000000,4.000000,4.000000,4.000000,4.000000,4.000000,4.000000,4.000000,4.000000,4.000000,4.000000,4.000000,4.000000,4.000000,4.000000,83.333336
1614131198.679735,3.000000,0.000000,3.448288,-6.358417,3.659415,10.292492,31.002947,8.113523,-1.924550,-0.990141,10.392737,-9.316363,17.225266,-13.283577,-18.219559,-19.626158,-12.417002,-18.415007,-9.750598,-27.246801,-23.601675,-44.797916,-50.397564,-30.857185,-8.924372,-22.715008,-4.275785,-12.388179,-20.226837,-3.030327,0.883306,-15.285548,3.088380,-3.542290,0.000000,181.000000,4.000000,,,,0.000000,4.000000,4.000000,2.000000,4.000000,4.000000,4.000000,4.000000,4.000000,4.000000,4.000000,4.000000,4.000000,4.000000,4.000000,4.000000,4.000000,4.000000,4.000000,4.000000,4.000000,4.000000,4.000000,4.000000,4.000000,4.000000,4.000000,4.000000,4.000000,4.000000,4.000000,4.000000,4.000000,83.333336
1614131198.687384,4.000000,0.000000,2.419199,-5.839238,10.835243,13.871943,50.459122,10.156692,-0.896985,-0.476331,17.049011,-8.794227,19.772142,-15.321576,-17.688519,-13.452684,-7.789200,3.654690,-12.304950,-14.399042,-20.501150,-36.547989,-53.424088,-33.903252,-9.941088,-30.384602,-5.809971,-12.375791,-19.693790,-3.027297,0.882423,-9.116416,3.598113,-4.051568,0.000000,204.000000,4.000000,,,,0.000000,4.000000,4.000000,2.000000,4.000000,4.000000,4.000000,4.000000,4.000000,4.000000,4.000000,4.000000,4.000000,4.000000,4.000000,4.000000,4.000000,4.000000,4.000000,4.000000,4.000000,4.000000,4.000000,4.000000,4.000000,4.000000,4.000000,4.000000,4.000000,4.000000,4.000000,4.000000,4.000000,83.333336
1614131198.695133,5.000000,0.000000,2.416779,-7.371860,13.901331,12.832430,51.947124,11.172176,-0.383267,2.088248,20.621706,-8.785433,24.367754,-10.690869,-11.516984,0.406922,2.474999,27.240780,-2.549055,2.538433,-13.301162,-12.921698,-44.652718,-28.741144,-7.367044,-38.046524,-4.778520,-13.901876,-19.674095,-3.024269,1.394361,-6.030377,3.594514,-4.047517,0.000000,162.000000,4.000000,,,,0.000000,4.000000,4.000000,2.000000,4.000000,4.000000,4.000000,4.000000,4.000000,4.000000,4.000000,4.000000,4.000000,4.000000,4.000000,4.000000,4.000000,4.000000,4.000000,4.000000,4.000000,4.000000,4.000000,4.000000,4.000000,4.000000,4.000000,4.000000,4.000000,4.000000,4.000000,4.000000,4.000000,83.333336
1614131198.702782,6.000000,0.000000,2.927183,-9.415771,10.297686,9.229854,39.587486,10.648183,-4.998269,3.111801,15.472878,-9.802288,23.830566,-8.116076,-6.377262,9.124463,4.010986,32.341743,6.171443,3.048715,-11.236578,-8.806211,-44.095242,-15.891890,-5.821216,-38.521297,-5.286562,-16.452078,-20.680063,-3.021245,0.880146,-7.049987,3.078099,-7.120392,0.000000,195.000000,4.000000,,,,0.000000,4.000000,4.000000,4.000000,4.000000,4.000000,4.000000,4.000000,4.000000,4.000000,4.000000,4.000000,4.000000,4.000000,4.000000,4.000000,4.000000,4.000000,4.000000,4.000000,4.000000,4.000000,4.000000,4.000000,4.000000,4.000000,4.000000,4.000000,4.000000,4.000000,4.000000,4.000000,4.000000,100.000000
1614131198.710531,7.000000,0.000000,4.462718,-7.867893,10.287389,12.297547,35.958153,10.637535,-7.557373,5.159971,12.893303,-7.228383,22.268274,-8.620781,-6.370884,9.115339,4.006975,31.796581,8.729374,12.276436,8.774658,-7.258944,-35.333199,0.021438,-5.302574,-34.893032,-4.768455,-16.435625,-18.608101,-3.018224,0.879266,-7.042937,3.587842,-7.626092,0.000000,185.000000,4.000000,,,,0.000000,4.000000,4.000000,4.000000,4.000000,4.000000,4.000000,4.000000,4.000000,4.000000,4.000000,4.000000,4.000000,4.000000,4.000000,4.000000,4.000000,4.000000,4.000000,4.000000,4.000000,4.000000,4.000000,4.000000,4.000000,4.000000,4.000000,4.000000,4.000000,4.000000,4.000000,4.000000,4.000000,100.000000
1614131198.718180,8.000000,0.000000,6.509537,-5.808743,13.866844,14.336532,37.973480,10.626898,-2.934431,6.693273,15.957333,-0.041668,25.322929,-5.535237,-6.364514,12.183146,12.208097,38.944271,9.746285,19.956467,20.560755,-5.713223,-26.067097,0.534237,-2.733169,-28.191473,-2.199584,-15.906369,-16.538210,-3.015206,1.391207,-6.010253,3.584254,-4.541543,0.000000,170.000000,4.000000,,,,0.000000,4.000000,4.000000,4.000000,4.000000,4.000000,4.000000,4.000000,4.000000,4.000000,4.000000,4.000000,4.000000,4.000000,4.000000,4.000000,4.000000,4.000000,4.000000,4.000000,4.000000,4.000000,4.000000,4.000000,4.000000,4.000000,4.000000,4.000000,4.000000,4.000000,4.000000,4.000000,4.000000,100.000000
1614131198.725929,9.000000,0.000000,7.015848,-6.315754,13.852978,9.706810,36.909863,10.616271,-1.905856,6.686580,16.967016,3.035297,26.323248,-5.529702,-6.358149,16.786348,15.272811,40.443790,4.095514,7.115998,-2.023908,-19.553663,-27.066671,-12.799630,-2.730436,-22.522257,-0.658923,-15.890463,-19.598595,-3.012191,0.364175,-6.004243,3.580670,-2.998540,0.000000,209.000000,4.000000,,,,0.000000,4.000000,4.000000,4.000000,4.000000,4.000000,4.000000,4.000000,4.000000,4.000000,4.000000,4.000000,4.000000,4.000000,4.000000,4.000000,4.000000,4.000000,4.000000,4.000000,4.000000,4.000000,4.000000,4.000000,4.000000,4.000000,4.000000,4.000000,4.000000,4.000000,4.000000,4.000000,4.000000,100.000000
1614131198.733578,10.000000,0.000000,6.496011,-5.796618,13.326304,11.748385,35.847313,10.605655,-7.544975,6.167073,16.437229,2.006621,25.271282,-8.088274,-6.351791,17.282383,11.667795,38.864883,-2.575248,8.647344,-3.047525,-16.970007,-14.731912,-17.402216,-5.804628,-21.986914,-1.171085,-15.874573,-22.655920,-3.009178,-3.225933,-6.511060,3.577089,-3.508362,0.000000,203.000000,4.000000,,,,0.000000,4.000000,4.000000,4.000000,4.000000,4.000000,4.000000,4.000000,4.000000,4.000000,4.000000,4.000000,4.000000,4.000000,4.000000,4.000000,4.000000,4.000000,4.000000,4.000000,4.000000,4.000000,4.000000,4.000000,4.000000,4.000000,4.000000,4.000000,4.000000,4.000000,4.000000,4.000000,4.000000,100.000000
1614131198.741326,11.000000,0.000000,6.489515,-6.303642,13.312978,19.941765,36.837105,10.595049,-9.588713,6.160905,16.420792,2.517435,26.271652,-5.516084,-5.832619,18.290741,12.681768,40.877300,2.042711,28.125875,29.776035,7.149527,4.257179,-9.179685,-4.773183,-20.426466,-1.169913,-15.858698,-20.581982,-3.006169,-6.299630,-6.504549,4.086332,-3.504854,0.000000,168.000000,4.000000,,,,0.000000,4.000000,4.000000,4.000000,4.000000,4.000000,4.000000,4.000000,4.000000,4.000000,4.000000,4.000000,4.000000,4.000000,4.000000,4.000000,4.000000,4.000000,4.000000,4.000000,4.000000,4.000000,4.000000,4.000000,4.000000,4.000000,4.000000,4.000000,4.000000,4.000000,4.000000,4.000000,4.000000,100.000000
1614131198.748975,12.000000,0.000000,6.483026,-8.861442,11.761204,15.306439,36.800270,10.584454,-8.040662,6.154745,14.865910,2.514917,23.681278,-5.510568,-8.390889,11.092963,2.925497,26.990271,3.066310,18.354160,31.284721,3.039813,-1.900924,-7.119223,-1.178666,-17.329115,-0.655923,-15.842839,-20.048580,-3.003163,-6.293330,-5.472403,4.082246,-2.988528,0.000000,201.000000,4.000000,,,,0.000000,4.000000,4.000000,4.000000,4.000000,4.000000,4.000000,4.000000,4.000000,4.000000,4.000000,4.000000,4.000000,4.000000,4.000000,4.000000,4.000000,4.000000,4.000000,4.000000,4.000000,4.000000,4.000000,4.000000,4.000000,4.000000,4.000000,4.000000,4.000000,4.000000,4.000000,4.000000,4.000000,100.000000
1614131198.756724,13.000000,0.000000,6.989363,-9.878221,9.698160,6.060363,36.763470,10.573869,-8.545442,6.661410,13.312582,-1.077341,14.939649,-13.197365,-15.049165,-7.379668,-21.692814,3.373536,-12.834192,-5.766758,-1.054256,-24.655535,-20.873383,-16.342873,-2.715949,-18.850248,-0.142447,-15.826996,-19.515711,-3.000160,-6.287037,-6.492571,3.565343,-2.985540,0.000000,212.000000,4.000000,,,,0.000000,4.000000,4.000000,4.000000,4.000000,4.000000,4.000000,4.000000,4.000000,4.000000,4.000000,4.000000,4.000000,4.000000,4.000000,4.000000,4.000000,4.000000,4.000000,4.000000,4.000000,4.000000,4.000000,4.000000,4.000000,4.000000,4.000000,4.000000,4.000000,4.000000,4.000000,4.000000,4.000000,100.000000
1614131198.764373,14.000000,0.000000,5.443913,-9.355522,10.201283,7.592764,37.239525,11.076116,-8.536897,5.116287,12.786449,-1.589085,9.796504,-16.773911,-20.162321,-18.141520,-30.389069,3.882983,-27.180332,-9.863556,-14.899356,-35.400108,-30.083279,-25.044479,-6.815797,-20.882681,-0.655125,-15.811170,-18.470554,-2.997160,-6.280750,-6.486079,4.074599,-2.982554,0.000000,191.000000,4.000000,,,,0.000000,4.000000,4.000000,4.000000,4.000000,4.000000,4.000000,4.000000,4.000000,4.000000,4.000000,4.000000,4.000000,4.000000,4.000000,4.000000,4.000000,4.000000,4.000000,4.000000,4.000000,4.000000,4.000000,4.000000,4.000000,4.000000,4.000000,4.000000,4.000000,4.000000,4.000000,4.000000,4.000000,100.000000
1614131198.772122,15.000000,0.000000,3.387186,-10.884628,10.191081,11.174915,35.663826,11.065040,-8.015539,3.059889,11.235201,-0.561854,10.812348,-15.218676,-21.167799,-17.097736,-19.076630,19.263716,-24.076229,-15.494718,-15.910097,-33.826248,-36.207039,-26.557896,-9.373084,-20.861797,-1.167290,-15.795358,-27.170033,-2.994163,-6.274469,-2.889849,4.583344,-3.492392,0.000000,181.000000,4.000000,,,,0.000000,4.000000,4.000000,4.000000,4.000000,4.000000,4.000000,4.000000,4.000000,4.000000,4.000000,4.000000,4.000000,4.000000,4.000000,4.000000,4.000000,4.000000,4.000000,4.000000,4.000000,4.000000,4.000000,4.000000,4.000000,4.000000,4.000000,4.000000,4.000000,4.000000,4.000000,4.000000,4.000000,100.000000
1614131198.779771,16.000000,0.000000,2.870979,-12.925026,9.155250,10.138100,33.064060,9.515513,-10.058805,2.031188,9.172684,-4.151036,10.801536,-15.716277,-21.659452,-17.593460,-13.416527,18.731630,-13.282922,-19.068966,-16.919828,-25.587294,-38.734936,-22.428774,-9.363710,-25.969141,-0.653302,-15.779563,-33.809528,-2.991168,-7.806656,-4.938241,-1.062264,-5.540182,0.000000,194.000000,4.000000,,,,0.000000,4.000000,4.000000,4.000000,4.000000,4.000000,4.000000,4.000000,4.000000,4.000000,4.000000,4.000000,4.000000,4.000000,4.000000,4.000000,4.000000,4.000000,4.000000,4.000000,4.000000,4.000000,4.000000,4.000000,4.000000,4.000000,4.000000,4.000000,4.000000,4.000000,4.000000,4.000000,4.000000,100.000000
1614131198.787620,17.000000,0.000000,2.868108,-13.424921,10.684555,9.615141,33.030994,7.454716,-12.100029,2.541977,9.163511,-8.762270,9.765093,-15.700561,-22.663433,-18.601507,-15.967213,11.020592,-5.577332,-0.075539,-6.646498,-13.254014,-37.157742,-18.303782,-9.354347,-32.097019,-3.729572,-15.763783,-26.596231,-2.988177,-9.850132,-13.651252,-7.215048,-8.611565,0.000000,188.000000,4.000000,,,,0.000000,4.000000,4.000000,4.000000,4.000000,4.000000,4.000000,4.000000,4.000000,4.000000,4.000000,4.000000,4.000000,4.000000,4.000000,4.000000,4.000000,4.000000,4.000000,4.000000,4.000000,4.000000,4.000000,4.000000,4.000000,4.000000,4.000000,4.000000,4.000000,4.000000,4.000000,4.000000,4.000000,100.000000
1614131198.795368,18.000000,0.000000,2.865240,-15.975598,8.109768,9.092705,30.946682,6.934440,-12.600749,2.539436,7.103065,-9.266328,9.755328,-17.223322,-21.102308,-16.531624,-15.438425,12.035213,-8.648677,1.462999,-9.203955,-22.984350,-43.274429,-18.798298,-9.857813,-30.013639,-11.930970,-15.235199,-24.005533,-2.985189,-9.840281,-17.227345,-8.233475,-11.679876,0.000000,211.000000,4.000000,,,,0.000000,4.000000,4.000000,4.000000,4.000000,4.000000,4.000000,4.000000,4.000000,4.000000,4.000000,4.000000,4.000000,4.000000,4.000000,4.000000,4.000000,4.000000,4.000000,4.000000,4.000000,4.000000,4.000000,4.000000,4.000000,4.000000,4.000000,4.000000,4.000000,4.000000,4.000000,4.000000,4.000000,100.000000
1614131198.803217,19.000000,0.000000,3.375195,-16.472443,-1.641931,7.032331,27.325991,5.389044,-12.075328,2.536896,5.044681,-9.769882,8.719932,-21.308662,-21.081205,-19.592014,-14.397346,13.561639,-18.383619,-24.692310,-29.194750,-39.884441,-47.333717,-23.394884,-9.335135,-30.496445,-16.534424,-15.732784,-32.699478,-2.982204,-9.830441,-17.210117,-6.686779,-13.719479,0.000000,191.000000,4.000000,,,,0.000000,4.000000,4.000000,4.000000,4.000000,4.000000,4.000000,4.000000,4.000000,4.000000,4.000000,4.000000,4.000000,4.000000,4.000000,4.000000,4.000000,4.000000,4.000000,4.000000,4.000000,4.000000,4.000000,4.000000,4.000000,4.000000,4.000000,4.000000,4.000000,4.000000,4.000000,4.000000,4.000000,100.000000
1614131198.810966,20.000000,0.000000,0.294897,-14.404689,-5.230033,5.999657,24.221743,3.332373,-12.063252,2.534359,5.552456,-11.811395,6.147109,-22.825815,-22.598587,-19.059603,-12.844487,13.035256,-20.929337,-23.641977,-26.088633,-34.716354,-38.568436,-25.422771,-9.325800,-36.106976,-13.440967,-15.717052,-35.743698,-2.979222,-9.820611,-18.731369,-7.705734,-14.731400,0.000000,202.000000,4.000000,,,,0.000000,4.000000,4.000000,4.000000,4.000000,4.000000,4.000000,4.000000,4.000000,4.000000,4.000000,4.000000,4.000000,4.000000,4.000000,4.000000,4.000000,4.000000,4.000000,4.000000,4.000000,4.000000,4.000000,4.000000,4.000000,4.000000,4.000000,4.000000,4.000000,4.000000,4.000000,4.000000,4.000000,100.000000
1614131198.818815,21.000000,0.000000,-4.833603,-15.415925,1.441864,6.506478,24.710340,2.816220,-12.051189,2.531825,4.521263,-13.338044,7.166603,-24.341452,-16.934961,-3.655928,-9.754719,14.560682,-16.293024,2.022690,-7.601006,-25.963688,-30.324739,-25.397348,-9.829294,-34.532406,-6.248039,-13.137232,-33.143852,-2.976242,-9.810790,-9.481868,-7.185207,-14.203848,0.000000,206.000000,4.000000,,,,0.000000,4.000000,4.000000,4.000000,4.000000,4.000000,4.000000,4.000000,4.000000,4.000000,4.000000,4.000000,4.000000,4.000000,4.000000,4.000000,4.000000,4.000000,4.000000,4.000000,4.000000,4.000000,4.000000,4.000000,4.000000,4.000000,4.000000,4.000000,4.000000,4.000000,4.000000,4.000000,4.000000,100.000000
1614131198.826564,22.000000,0.000000,-3.803129,-16.426151,6.055807,6.499971,30.326656,2.813404,-12.039139,4.580575,6.055203,-12.299066,15.364565,-20.727365,-5.635976,12.757985,-5.129580,20.699968,-10.635705,8.174514,5.739929,-17.732595,-22.089287,-23.320669,-8.793824,-29.369669,-1.626406,-11.072812,-33.623531,-2.973266,-9.800980,1.296845,-4.613920,-14.189644,0.000000,187.000000,4.000000,,,,0.000000,4.000000,4.000000,4.000000,4.000000,4.000000,4.000000,4.000000,4.000000,4.000000,4.000000,4.000000,4.000000,4.000000,4.000000,4.000000,4.000000,4.000000,4.000000,4.000000,4.000000,4.000000,4.000000,4.000000,4.000000,4.000000,4.000000,4.000000,4.000000,4.000000,4.000000,4.000000,4.000000,100.000000
1614131198.834412,23.000000,0.000000,-0.722403,-13.845622,5.536930,6.493472,38.501457,3.323411,-12.027100,6.114456,12.715815,-8.697022,25.092791,-8.911767,-1.014955,14.283689,2.055037,29.910038,-3.958402,2.525314,23.682907,1.259496,-7.195402,-14.579400,-4.169646,-27.289017,-0.599139,-15.164304,-34.615547,-2.970293,-9.791179,-7.422401,-3.070844,-14.175455,0.000000,204.000000,4.000000,,,,0.000000,4.000000,4.000000,4.000000,4.000000,4.000000,4.000000,4.000000,4.000000,4.000000,4.000000,4.000000,4.000000,4.000000,4.000000,4.000000,4.000000,4.000000,4.000000,4.000000,4.000000,4.000000,4.000000,4.000000,4.000000,4.000000,4.000000,4.000000,4.000000,4.000000,4.000000,4.000000,4.000000,100.000000
1614131198.842161,24.000000,0.000000,-0.721680,-14.857417,6.044214,6.486978,41.027058,5.884191,-12.015072,6.621162,17.318483,-5.098582,26.606159,-4.287471,-2.552402,12.730943,8.206828,35.008331,0.148120,4.574070,31.864351,5.360800,-2.572822,-6.359693,-1.088553,-23.671984,-0.598539,-19.251703,-34.068111,-2.967323,-9.781387,-16.645748,-3.580594,-14.161279,0.000000,204.000000,4.000000,,,,0.000000,4.000000,4.000000,4.000000,4.000000,4.000000,4.000000,4.000000,4.000000,4.000000,4.000000,4.000000,4.000000,4.000000,4.000000,4.000000,4.000000,4.000000,4.000000,4.000000,4.000000,4.000000,4.000000,4.000000,4.000000,4.000000,4.000000,4.000000,4.000000,4.000000,4.000000,4.000000,4.000000,100.000000
1614131198.850010,25.000000,0.000000,-1.233779,-15.868200,6.038170,6.480491,39.960392,7.416768,-12.515878,6.614541,16.788343,-4.580663,22.989809,-14.026773,-3.062670,14.769494,5.634519,33.434864,-3.441772,6.620778,13.883770,-9.003535,-15.390761,-7.378974,-2.113105,-21.597031,-0.597941,-19.232452,-34.034042,-2.964355,-9.771605,-10.475256,-3.577013,-14.147118,0.000000,194.000000,4.000000,,,,0.000000,4.000000,4.000000,4.000000,4.000000,4.000000,4.000000,4.000000,4.000000,4.000000,4.000000,4.000000,4.000000,4.000000,4.000000,4.000000,4.000000,4.000000,4.000000,4.000000,4.000000,4.000000,4.000000,4.000000,4.000000,4.000000,4.000000,4.000000,4.000000,4.000000,4.000000,4.000000,4.000000,100.000000
1614131198.857759,26.000000,0.000000,-0.719725,-11.236948,6.032132,6.474010,40.433250,6.896531,-12.503362,5.069465,14.720274,-4.063262,17.838614,-20.679413,-5.110889,5.011135,-1.550603,25.709120,-4.463971,4.562875,2.075014,-11.558634,-23.580500,-10.448518,-2.623813,-24.139536,-0.597343,-18.700399,-33.487190,-2.961391,-9.761834,-5.849396,-3.060616,-14.132971,0.000000,219.000000,4.000000,,,,0.000000,4.000000,4.000000,4.000000,4.000000,4.000000,4.000000,4.000000,4.000000,4.000000,4.000000,4.000000,4.000000,4.000000,4.000000,4.000000,4.000000,4.000000,4.000000,4.000000,4.000000,4.000000,4.000000,4.000000,4.000000,4.000000,4.000000,4.000000,4.000000,4.000000,4.000000,4.000000,4.000000,100.000000
1614131198.865608,27.000000,0.000000,-0.719005,-8.661609,8.077381,6.467536,39.879997,6.889634,-11.465218,2.500293,13.167092,-6.110481,11.154109,-14.504888,-9.208343,-16.019518,-4.113155,13.888539,1.694339,3.532671,4.637042,-6.931691,-27.146662,-9.925249,-1.082727,-25.141037,-0.596746,-19.194519,-34.479343,-2.958430,-9.752072,-5.330726,-3.570375,-14.118837,0.000000,193.000000,4.000000,,,,0.000000,4.000000,4.000000,4.000000,4.000000,4.000000,4.000000,4.000000,4.000000,4.000000,4.000000,4.000000,4.000000,4.000000,4.000000,4.000000,4.000000,4.000000,4.000000,4.000000,4.000000,4.000000,4.000000,4.000000,4.000000,4.000000,4.000000,4.000000,4.000000,4.000000,4.000000,4.000000,4.000000,100.000000
1614131198.873356,28.000000,0.000000,-0.718286,-9.678588,10.120586,6.461069,37.276016,6.882744,-12.992213,2.497792,12.641105,-10.719755,7.040390,-8.336536,-10.224775,-26.259909,-3.083401,9.772086,5.795209,6.093241,-2.034262,-11.540144,-40.965668,-9.402503,0.969637,-26.141537,-1.621790,-19.688145,-34.444862,-2.955471,-9.742320,-7.376677,-3.566805,-14.104719,0.000000,161.000000,4.000000,,,,0.000000,4.000000,4.000000,4.000000,4.000000,4.000000,4.000000,4.000000,4.000000,4.000000,4.000000,4.000000,4.000000,4.000000,4.000000,4.000000,4.000000,4.000000,4.000000,4.000000,4.000000,4.000000,4.000000,4.000000,4.000000,4.000000,4.000000,4.000000,4.000000,4.000000,4.000000,4.000000,4.000000,100.000000
1614131198.881105,29.000000,0.000000,-0.717568,-9.668909,9.597645,6.454608,35.700279,6.875862,-11.953581,2.495295,12.628464,-13.273137,6.007709,-8.841021,-11.753012,-21.618263,-2.054677,16.428982,3.225311,3.010225,-13.314279,-16.656809,-48.104191,-11.444383,1.994309,-28.166677,-4.184271,-21.719738,-30.820675,-2.952516,-9.732578,-21.728275,-3.563238,-14.090614,0.000000,197.000000,4.000000,,,,0.000000,4.000000,4.000000,4.000000,4.000000,4.000000,4.000000,4.000000,4.000000,4.000000,4.000000,4.000000,4.000000,4.000000,4.000000,4.000000,4.000000,4.000000,4.000000,4.000000,4.000000,4.000000,4.000000,4.000000,4.000000,4.000000,4.000000,4.000000,4.000000,4.000000,4.000000,4.000000,4.000000,100.000000
1614131198.888954,30.000000,0.000000,-1.742491,-9.146420,9.075227,5.935333,36.177399,6.868986,-5.274960,1.467158,12.103014,-12.747044,6.001701,-9.857821,-11.228438,-15.442799,-2.052622,17.438192,1.170804,-6.223554,-11.762503,-15.614511,-30.620190,-11.432939,1.479494,-29.164152,-5.205728,-22.723660,-27.200111,-2.949563,-9.722845,-26.834751,-4.072495,-14.589344,0.000000,212.000000,4.000000,,,,0.000000,4.000000,4.000000,4.000000,4.000000,4.000000,4.000000,4.000000,4.000000,4.000000,4.000000,4.000000,4.000000,4.000000,4.000000,4.000000,4.000000,4.000000,4.000000,4.000000,4.000000,4.000000,4.000000,4.000000,4.000000,4.000000,4.000000,4.000000,4.000000,4.000000,4.000000,4.000000,4.000000,100.000000
1614131198.896703,31.000000,0.000000,-0.202287,-9.650094,10.091793,6.442218,36.141220,6.349296,-0.141480,2.491332,12.090912,-12.221477,6.508520,-7.283860,-10.191569,-13.376074,-1.537749,14.856652,-3.445751,1.474977,5.685157,-13.034794,-9.563928,-8.344583,1.478014,-28.622168,-3.149240,-22.700937,-25.121628,-2.946614,-9.713122,-9.372020,-3.555603,-13.549114,0.000000,173.000000,4.000000,,,,0.000000,4.000000,4.000000,4.000000,4.000000,4.000000,4.000000,4.000000,4.000000,4.000000,4.000000,4.000000,4.000000,4.000000,4.000000,4.000000,4.000000,4.000000,4.000000,4.000000,4.000000,4.000000,4.000000,4.000000,4.000000,4.000000,4.000000,4.000000,4.000000,4.000000,4.000000,4.000000,4.000000,100.000000
1614131198.904452,32.000000,0.000000,2.362018,-9.640444,9.568880,6.948596,34.566616,7.368588,-0.654159,2.488841,13.617282,-12.722075,5.476371,-8.302217,-13.258301,-13.875519,-3.074672,16.380257,-8.057691,13.781195,15.423061,-14.560221,-8.528723,-12.438802,1.989357,-28.080725,-0.581988,-22.678236,-22.532404,-2.430846,-9.703409,-2.695981,-3.039227,-14.048386,8064.000000,0.000000,4.000000,,,,0.000000,4.000000,4.000000,4.000000,4.000000,4.000000,4.000000,4.000000,4.000000,4.000000,4.000000,4.000000,4.000000,4.000000,4.000000,4.000000,4.000000,4.000000,4.000000,4.000000,4.000000,4.000000,4.000000,4.000000,4.000000,4.000000,4.000000,4.000000,4.000000,4.000000,4.000000,4.000000,4.000000,100.000000
1614131198.912101,33.000000,0.000000,2.359656,-9.630803,9.046491,5.916007,32.480770,6.848399,-1.679146,1.460711,12.065204,-12.196533,7.522176,-9.319556,-13.245043,-13.348823,-6.148521,18.415159,-3.434248,5.562285,7.715331,-15.058481,-15.186861,-15.503286,0.961727,-28.052645,-0.581406,-20.604275,-23.022692,-2.941236,-9.693706,-9.359952,-4.574649,-14.034337,8064.000000,0.000000,4.000000,,,,0.000000,4.000000,4.000000,4.000000,4.000000,4.000000,4.000000,4.000000,4.000000,4.000000,4.000000,4.000000,4.000000,4.000000,4.000000,4.000000,4.000000,4.000000,4.000000,4.000000,4.000000,4.000000,4.000000,4.000000,4.000000,4.000000,4.000000,4.000000,4.000000,4.000000,4.000000,4.000000,4.000000,100.000000
1614131198.919849,34.000000,0.000000,3.382937,-9.621173,11.601547,6.422911,32.448288,5.815909,-0.651826,7.100276,13.078779,-9.620234,18.796705,5.561559,2.665639,2.561962,9.755064,35.319820,16.056366,9.659286,15.912744,-0.171627,-10.043469,-1.641629,2.499226,-29.050232,-1.093645,-16.481108,-22.486849,-2.938295,-9.684012,-1.145463,-0.980331,-7.353636,8064.000000,0.000000,4.000000,,,,0.000000,4.000000,4.000000,4.000000,4.000000,4.000000,4.000000,4.000000,4.000000,4.000000,4.000000,4.000000,4.000000,4.000000,4.000000,4.000000,4.000000,4.000000,4.000000,4.000000,4.000000,4.000000,4.000000,4.000000,4.000000,4.000000,4.000000,4.000000,4.000000,4.000000,4.000000,4.000000,4.000000,100.000000
1614131198.927498,35.000000,0.000000,7.994939,-9.611551,16.205330,13.595976,34.979942,9.399837,1.400108,16.323944,21.270828,-3.969588,33.136883,22.991894,22.662973,27.174786,40.001720,60.412704,31.424925,34.265011,37.948112,14.700339,-0.802656,11.180526,5.060830,-24.918617,-0.066910,-14.926165,-18.361799,-2.422536,-9.674328,3.983887,6.200137,-0.166795,8064.000000,0.000000,4.000000,,,,0.000000,4.000000,4.000000,4.000000,4.000000,4.000000,4.000000,4.000000,4.000000,4.000000,4.000000,4.000000,4.000000,4.000000,4.000000,4.000000,4.000000,4.000000,4.000000,4.000000,4.000000,4.000000,4.000000,4.000000,4.000000,4.000000,4.000000,4.000000,4.000000,4.000000,4.000000,4.000000,4.000000,100.000000
1614131198.935247,36.000000,0.000000,8.499764,-10.114760,16.701944,18.197763,36.996243,13.493001,2.937170,18.871723,23.300840,-0.888695,39.257591,17.327877,21.101849,30.737354,38.423256,49.583061,22.162731,23.974337,25.602472,1.352305,-6.955700,-1.138347,4.542948,-18.227034,-2.630946,-15.424059,-22.446001,-4.984216,-10.177474,-10.379071,6.193937,-1.705090,8064.000000,0.000000,4.000000,,,,0.000000,4.000000,4.000000,4.000000,4.000000,4.000000,4.000000,4.000000,4.000000,4.000000,4.000000,4.000000,4.000000,4.000000,4.000000,4.000000,4.000000,4.000000,4.000000,4.000000,4.000000,4.000000,4.000000,4.000000,4.000000,4.000000,4.000000,4.000000,4.000000,4.000000,4.000000,4.000000,4.000000,100.000000
1614131198.942896,37.000000,0.000000,2.850239,-9.591825,11.557038,11.512899,34.395145,11.428226,2.421412,13.724647,13.533949,-0.887806,35.628590,1.413113,2.619208,14.296360,8.641242,20.302710,5.730311,-0.152202,3.525588,-18.136227,-22.333359,-15.496183,1.461482,-21.285728,-9.294982,-16.947096,-32.679966,-11.133078,-9.654476,-18.573820,0.033897,-8.882872,8064.000000,0.000000,4.000000,,,,0.000000,4.000000,4.000000,4.000000,4.000000,4.000000,4.000000,4.000000,4.000000,4.000000,4.000000,4.000000,4.000000,4.000000,4.000000,4.000000,4.000000,4.000000,4.000000,4.000000,4.000000,4.000000,4.000000,4.000000,4.000000,4.000000,4.000000,4.000000,4.000000,4.000000,4.000000,4.000000,4.000000,100.000000
1614131198.950645,38.000000,0.000000,2.334568,-9.582233,10.007020,4.834720,29.745365,6.288593,2.418990,10.121179,7.879390,-1.399739,26.362194,-1.665223,-3.537257,8.641038,1.965935,26.436255,3.160479,13.694104,15.316935,-16.579628,-25.387949,-11.890944,0.947200,-30.495213,-12.875430,-19.494251,-29.570362,-14.198868,-9.132002,-17.016785,0.033863,-11.438091,8064.000000,0.000000,4.000000,,,,0.000000,4.000000,4.000000,4.000000,4.000000,4.000000,4.000000,4.000000,4.000000,4.000000,4.000000,4.000000,4.000000,4.000000,4.000000,4.000000,4.000000,4.000000,4.000000,4.000000,4.000000,4.000000,4.000000,4.000000,4.000000,4.000000,4.000000,4.000000,4.000000,4.000000,4.000000,4.000000,4.000000,100.000000
1614131198.958294,39.000000,0.000000,5.409157,-10.598292,12.561115,9.958091,29.715620,6.795125,2.416571,10.623878,13.512536,-0.885519,18.130703,-1.150737,-1.482438,9.658038,6.579353,31.025202,5.721421,21.372719,17.352900,-13.486126,-23.824100,-9.314950,1.971894,-32.003178,-11.836914,-17.936296,-19.284382,-13.671848,-9.635690,-18.025410,3.623573,-7.324090,8064.000000,0.000000,4.000000,,,,0.000000,4.000000,4.000000,4.000000,4.000000,4.000000,4.000000,4.000000,4.000000,4.000000,4.000000,4.000000,4.000000,4.000000,4.000000,4.000000,4.000000,4.000000,4.000000,4.000000,4.000000,4.000000,4.000000,4.000000,4.000000,4.000000,4.000000,4.000000,4.000000,4.000000,4.000000,4.000000,4.000000,100.000000
1614131198.966043,40.000000,0.000000,6.429389,-8.536411,13.574195,16.614799,34.814110,10.890894,2.414155,9.587613,17.088766,-0.884633,15.548470,-5.252151,-11.224545,0.417611,-6.760560,10.994177,3.151597,5.453909,-2.151633,-16.549562,-25.851559,-11.356917,0.431461,-29.919893,-10.286615,-13.302975,-18.752275,-14.170998,-6.036311,-6.212512,4.132770,0.375542,8064.000000,0.000000,4.000000,,,,0.000000,4.000000,4.000000,4.000000,4.000000,4.000000,4.000000,4.000000,4.000000,4.000000,4.000000,4.000000,4.000000,4.000000,4.000000,4.000000,4.000000,4.000000,4.000000,4.000000,4.000000,4.000000,4.000000,4.000000,4.000000,4.000000,4.000000,4.000000,4.000000,4.000000,4.000000,4.000000,4.000000,100.000000
1614131198.973692,41.000000,0.000000,9.499883,-3.399670,12.534980,17.623825,35.292118,12.931285,2.411741,9.578025,15.533216,-1.396569,14.507280,-4.734078,-18.905628,-0.095628,-6.753799,18.162670,2.635625,15.192045,12.209493,-4.225321,-15.056476,-2.627611,4.020773,-27.325871,-7.712226,-11.751210,-18.733524,-14.156826,3.713315,8.665496,3.102996,4.477731,8064.000000,0.000000,4.000000,,,,0.000000,4.000000,4.000000,4.000000,4.000000,4.000000,4.000000,4.000000,4.000000,4.000000,4.000000,4.000000,4.000000,4.000000,4.000000,4.000000,4.000000,4.000000,4.000000,4.000000,4.000000,4.000000,4.000000,4.000000,4.000000,4.000000,4.000000,4.000000,4.000000,4.000000,4.000000,4.000000,4.000000,100.000000
1614131198.981441,42.000000,0.000000,13.592946,-1.344988,13.035265,16.580561,35.769646,14.456816,2.409329,15.209473,15.517683,-1.395173,13.467132,-1.652421,-5.553390,15.289083,12.740134,38.144508,8.274014,29.023006,35.274208,11.163520,3.420120,5.580144,11.709060,-19.093416,-3.089129,-10.713819,-15.125047,-11.578567,6.273705,0.964522,3.612713,4.473253,8064.000000,0.000000,4.000000,,,,0.000000,4.000000,4.000000,4.000000,4.000000,4.000000,4.000000,4.000000,4.000000,4.000000,4.000000,4.000000,4.000000,4.000000,4.000000,4.000000,4.000000,4.000000,4.000000,4.000000,4.000000,4.000000,4.000000,4.000000,4.000000,4.000000,4.000000,4.000000,4.000000,4.000000,4.000000,4.000000,4.000000,100.000000
1614131198.989090,43.000000,0.000000,14.092174,-2.369285,13.022230,17.076801,37.272335,12.903897,2.406920,16.219904,16.527807,-1.393777,12.940845,-0.625127,8.811138,15.273794,20.419703,25.798670,10.317022,11.558086,19.854317,11.152356,6.493622,5.061744,12.210171,-12.407657,-0.009117,-11.728745,-17.674025,-9.515706,-2.963338,-12.882596,3.609101,3.955960,8064.000000,0.000000,4.000000,,,,0.000000,4.000000,4.000000,4.000000,4.000000,4.000000,4.000000,4.000000,4.000000,4.000000,4.000000,4.000000,4.000000,4.000000,4.000000,4.000000,4.000000,4.000000,4.000000,4.000000,4.000000,4.000000,4.000000,4.000000,4.000000,4.000000,4.000000,4.000000,4.000000,4.000000,4.000000,4.000000,4.000000,100.000000
1614131198.996838,44.000000,0.000000,14.078082,-1.854095,12.496387,17.572544,29.542757,10.326890,2.404513,9.024198,15.998458,-3.443666,13.440724,-1.137323,7.263865,-0.638915,18.348000,19.106205,8.255424,2.828580,8.552411,9.089922,3.410206,5.569502,3.480012,-12.908070,-0.521928,-19.409325,-22.784555,-9.506190,-9.627042,-13.895354,3.092671,4.464824,8064.000000,0.000000,4.000000,,,,0.000000,4.000000,4.000000,4.000000,4.000000,4.000000,4.000000,4.000000,4.000000,4.000000,4.000000,4.000000,4.000000,4.000000,4.000000,4.000000,4.000000,4.000000,4.000000,4.000000,4.000000,4.000000,4.000000,4.000000,4.000000,4.000000,4.000000,4.000000,4.000000,4.000000,4.000000,4.000000,4.000000,100.000000
1614131199.004487,45.000000,0.000000,13.551184,-2.877882,13.509532,17.042150,21.308086,10.316564,2.402108,5.938250,15.982460,-4.978683,13.427283,-2.161827,1.102756,-7.304943,16.278370,30.881971,7.221527,12.569341,20.851551,4.978268,1.868334,4.025471,1.425250,-12.382341,-0.521407,-22.979658,-23.274591,-10.009505,-9.617414,-11.830177,3.602399,4.460359,8064.000000,0.000000,4.000000,,,,0.000000,4.000000,4.000000,4.000000,4.000000,4.000000,4.000000,4.000000,4.000000,4.000000,4.000000,4.000000,4.000000,4.000000,4.000000,4.000000,4.000000,4.000000,4.000000,4.000000,4.000000,4.000000,4.000000,4.000000,4.000000,4.000000,4.000000,4.000000,4.000000,4.000000,4.000000,4.000000,4.000000,100.000000
1614131199.012236,46.000000,0.000000,8.922248,-5.439106,16.060125,17.025108,24.363701,10.306247,2.399706,3.368209,15.966477,-5.486526,8.285651,-4.210947,-0.436809,-5.759177,3.441579,22.645960,8.239946,8.454207,15.702495,-8.872865,-10.954047,-12.388810,2.449466,-14.934061,-1.546526,-16.802834,-22.225676,-9.486675,-9.094976,-13.869629,3.598796,3.943078,8064.000000,0.000000,4.000000,,,,0.000000,4.000000,4.000000,4.000000,4.000000,4.000000,4.000000,4.000000,4.000000,4.000000,4.000000,4.000000,4.000000,4.000000,4.000000,4.000000,4.000000,4.000000,4.000000,4.000000,4.000000,4.000000,4.000000,4.000000,4.000000,4.000000,4.000000,4.000000,4.000000,4.000000,4.000000,4.000000,4.000000,100.000000
1614131199.019885,47.000000,0.000000,5.836402,-5.946488,16.044065,17.008083,28.441900,9.783120,2.397306,-1.250543,15.950511,-5.993859,2.123519,-4.719556,-1.974833,-4.727777,-7.843914,13.392546,8.231707,-1.297837,-0.723464,-19.633223,-25.814888,-28.786678,-5.245291,-25.688358,-5.134723,-16.786030,-22.716270,-9.990008,-10.111523,-13.855760,3.082377,3.426315,8064.000000,0.000000,4.000000,,,,0.000000,4.000000,4.000000,4.000000,4.000000,4.000000,4.000000,4.000000,4.000000,4.000000,4.000000,4.000000,4.000000,4.000000,4.000000,4.000000,4.000000,4.000000,4.000000,4.000000,4.000000,4.000000,4.000000,4.000000,4.000000,4.000000,4.000000,4.000000,4.000000,4.000000,4.000000,4.000000,4.000000,100.000000
1614131199.027734,48.000000,0.000000,6.343386,-5.940541,15.515201,16.991076,27.900639,10.798978,2.394909,2.340451,15.934561,-1.885301,8.275242,-4.714837,-2.485679,2.456439,-2.195044,26.712486,7.197834,-1.809359,-2.774023,-19.613588,-28.865995,-29.783533,-13.957994,-32.842155,-9.232153,-22.410269,-23.206375,-9.980019,-10.101411,-13.329083,4.617756,4.448530,8064.000000,0.000000,4.000000,,,,0.000000,4.000000,4.000000,4.000000,4.000000,4.000000,4.000000,4.000000,4.000000,4.000000,4.000000,4.000000,4.000000,4.000000,4.000000,4.000000,4.000000,4.000000,4.000000,4.000000,4.000000,4.000000,4.000000,4.000000,4.000000,4.000000,4.000000,4.000000,4.000000,4.000000,4.000000,4.000000,4.000000,100.000000
1614131199.035483,49.000000,0.000000,5.824223,-5.934601,19.602249,16.974085,34.026585,13.352282,2.392514,11.568879,15.918626,6.321712,21.600300,-4.710122,-0.431911,11.684752,6.525099,35.403721,7.703456,1.782194,0.818495,-15.491411,-28.837130,-25.651184,-10.867113,-32.809315,-8.710100,-17.259655,-22.670347,-9.970038,-9.578489,-13.828574,9.228523,6.495363,8064.000000,0.000000,4.000000,,,,0.000000,4.000000,4.000000,4.000000,4.000000,4.000000,4.000000,4.000000,4.000000,4.000000,4.000000,4.000000,4.000000,4.000000,4.000000,4.000000,4.000000,4.000000,4.000000,4.000000,4.000000,4.000000,4.000000,4.000000,4.000000,4.000000,4.000000,4.000000,4.000000,4.000000,4.000000,4.000000,4.000000,100.000000
1614131199.043331,50.000000,0.000000,6.331219,-5.415845,23.172390,16.444290,42.197685,14.364571,2.390122,14.121413,15.902707,10.930775,25.168444,-4.705412,1.619803,13.211528,8.057035,34.342678,7.695753,10.498361,4.407420,-7.270792,-28.295473,-23.061432,-6.240862,-32.263683,-4.086005,-10.062907,-20.083576,-9.960069,-10.081732,-13.814746,11.783397,7.514509,8064.000000,0.000000,4.000000,,,,0.000000,4.000000,4.000000,4.000000,4.000000,4.000000,4.000000,4.000000,4.000000,4.000000,4.000000,4.000000,4.000000,4.000000,4.000000,4.000000,4.000000,4.000000,4.000000,4.000000,4.000000,4.000000,4.000000,4.000000,4.000000,4.000000,4.000000,4.000000,4.000000,4.000000,4.000000,4.000000,4.000000,100.000000
1614131199.051080,51.000000,0.000000,9.401811,-6.436071,23.662039,16.940666,43.181129,13.837385,2.387732,12.568830,15.886805,9.381383,22.066351,-5.213527,-1.458740,8.582932,3.946415,32.257053,5.123955,16.128887,6.454294,-1.109675,-23.138971,-18.422985,-5.721800,-30.180140,-1.004996,-13.642588,-19.550671,-9.950109,-9.558829,-12.775290,9.720331,6.481353,8064.000000,0.000000,4.000000,,,,0.000000,4.000000,4.000000,4.000000,4.000000,4.000000,4.000000,4.000000,4.000000,4.000000,4.000000,4.000000,4.000000,4.000000,4.000000,4.000000,4.000000,4.000000,4.000000,4.000000,4.000000,4.000000,4.000000,4.000000,4.000000,4.000000,4.000000,4.000000,4.000000,4.000000,4.000000,4.000000,4.000000,100.000000
1614131199.058929,52.000000,0.000000,7.341126,-8.480917,25.176838,16.923725,42.625126,13.823548,2.385344,13.069082,15.358097,7.320719,21.018644,-4.695493,-6.072666,4.984605,-3.237019,17.865822,1.016267,10.984553,5.935019,-4.698309,-21.577372,-17.378922,-6.228899,-26.047396,-1.003991,-19.269972,-21.582403,-9.940159,-10.062091,-13.788156,7.146509,8.013333,8064.000000,0.000000,4.000000,,,,0.000000,4.000000,4.000000,4.000000,4.000000,4.000000,4.000000,4.000000,4.000000,4.000000,4.000000,4.000000,4.000000,4.000000,4.000000,4.000000,4.000000,4.000000,4.000000,4.000000,4.000000,4.000000,4.000000,4.000000,4.000000,4.000000,4.000000,4.000000,4.000000,4.000000,4.000000,4.000000,4.000000,100.000000
1614131199.066678,53.000000,0.000000,2.718401,-10.010898,27.202944,16.393982,42.069683,13.809725,2.382958,13.568833,16.368380,6.287757,20.997625,-4.177977,-6.579414,7.543724,-0.669679,14.771032,-1.036032,13.537671,12.595751,-5.719252,-16.940409,-17.874363,-6.735491,-24.995707,1.048295,-19.250702,-22.586462,-9.930219,-10.564849,-13.774367,6.626542,6.979679,8064.000000,0.000000,4.000000,,,,0.000000,4.000000,4.000000,4.000000,4.000000,4.000000,4.000000,4.000000,4.000000,4.000000,4.000000,4.000000,4.000000,4.000000,4.000000,4.000000,4.000000,4.000000,4.000000,4.000000,4.000000,4.000000,4.000000,4.000000,4.000000,4.000000,4.000000,4.000000,4.000000,4.000000,4.000000,4.000000,4.000000,100.000000
1614131199.074527,54.000000,0.000000,2.715683,-10.000887,29.739843,16.890408,42.540432,13.283094,2.380575,14.580905,18.403294,7.307111,24.053551,-5.712260,-3.495912,16.766949,12.151504,37.833183,2.554748,26.857468,23.865206,0.953134,-1.538854,-10.164181,-2.113371,-22.919428,5.662631,-14.616066,-22.563875,-9.920288,-5.426079,-4.017004,8.671197,6.459879,8064.000000,0.000000,4.000000,,,,0.000000,4.000000,4.000000,4.000000,4.000000,4.000000,4.000000,4.000000,4.000000,4.000000,4.000000,4.000000,4.000000,4.000000,4.000000,4.000000,4.000000,4.000000,4.000000,4.000000,4.000000,4.000000,4.000000,4.000000,4.000000,4.000000,4.000000,4.000000,4.000000,4.000000,4.000000,4.000000,4.000000,100.000000
1614131199.082275,55.000000,0.000000,6.302711,-9.478065,34.325489,18.924799,47.626099,13.782632,1.865374,16.617607,19.923351,9.351086,31.721806,-4.680907,-2.979595,23.416849,18.293198,53.692787,12.295783,35.035736,32.046471,11.721412,10.257557,2.153676,6.606691,-19.306767,6.682610,-8.960424,-22.541311,-8.884727,3.810116,8.294705,12.252270,16.709829,8064.000000,0.000000,4.000000,,,,0.000000,4.000000,4.000000,4.000000,4.000000,4.000000,4.000000,4.000000,4.000000,4.000000,4.000000,4.000000,4.000000,4.000000,4.000000,4.000000,4.000000,4.000000,4.000000,4.000000,4.000000,4.000000,4.000000,4.000000,4.000000,4.000000,4.000000,4.000000,4.000000,4.000000,4.000000,4.000000,4.000000,100.000000
1614131199.090124,56.000000,0.000000,6.296408,-6.904484,38.393726,20.957157,53.219498,16.332952,2.376330,17.113810,19.390608,9.341735,32.202904,0.964799,-3.489436,18.265226,18.274904,47.998070,16.386051,35.000702,39.706730,18.889177,11.272941,9.843830,10.702649,-16.723356,6.675927,-4.848899,-18.929026,-6.311739,6.370409,8.799232,14.291300,28.487991,8064.000000,0.000000,4.000000,,,,0.000000,4.000000,4.000000,4.000000,4.000000,4.000000,4.000000,4.000000,4.000000,4.000000,4.000000,4.000000,4.000000,4.000000,4.000000,4.000000,4.000000,4.000000,4.000000,4.000000,4.000000,4.000000,4.000000,4.000000,4.000000,4.000000,4.000000,4.000000,4.000000,4.000000,4.000000,4.000000,4.000000,100.000000
1614131199.097873,57.000000,0.000000,5.777291,-5.359118,37.842514,19.910559,53.166279,17.342260,2.886774,16.583876,18.858397,9.332393,23.452753,2.502296,-2.973126,7.990551,16.718168,42.821865,8.164537,28.811855,36.077282,12.203622,9.210385,7.269884,8.640664,-11.065607,6.669251,-2.792768,-14.807533,-5.792607,4.825577,4.687868,14.277008,27.946682,8064.000000,0.000000,4.000000,,,,0.000000,4.000000,4.000000,4.000000,4.000000,4.000000,4.000000,4.000000,4.000000,4.000000,4.000000,4.000000,4.000000,4.000000,4.000000,4.000000,4.000000,4.000000,4.000000,4.000000,4.000000,4.000000,4.000000,4.000000,4.000000,4.000000,4.000000,4.000000,4.000000,4.000000,4.000000,4.000000,4.000000,100.000000
1614131199.105722,58.000000,0.000000,5.771513,-6.379400,37.291847,20.403469,52.600292,16.812098,1.345425,16.567291,19.352360,9.323060,20.352377,-1.602770,-3.482973,9.008202,15.162989,42.779045,0.464065,16.988173,18.092485,-3.706017,1.508868,1.108768,7.093562,-5.926337,3.072838,-3.815617,-18.895288,-6.299635,4.820751,6.221642,13.749910,24.841812,8064.000000,0.000000,4.000000,,,,0.000000,4.000000,4.000000,4.000000,4.000000,4.000000,4.000000,4.000000,4.000000,4.000000,4.000000,4.000000,4.000000,4.000000,4.000000,4.000000,4.000000,4.000000,4.000000,4.000000,4.000000,4.000000,4.000000,4.000000,4.000000,4.000000,4.000000,4.000000,4.000000,4.000000,4.000000,4.000000,4.000000,100.000000
1614131199.113471,59.000000,0.000000,6.791383,-4.834559,37.767376,23.459988,53.573330,17.820927,3.395362,17.063545,19.845827,9.313737,25.973049,0.450115,0.110253,19.255604,18.224749,43.761906,0.463601,9.791697,10.382085,-11.394619,-9.774693,-4.020546,5.548007,-12.074257,-1.032799,-9.452826,-22.978958,-6.293335,5.841571,0.061574,14.761802,25.842611,8064.000000,0.000000,4.000000,,,,0.000000,4.000000,4.000000,4.000000,4.000000,4.000000,4.000000,4.000000,4.000000,4.000000,4.000000,4.000000,4.000000,4.000000,4.000000,4.000000,4.000000,4.000000,4.000000,4.000000,4.000000,4.000000,4.000000,4.000000,4.000000,4.000000,4.000000,4.000000,4.000000,4.000000,4.000000,4.000000,4.000000,100.000000
1614131199.121319,60.000000,0.000000,9.348694,-2.265622,37.729610,23.949348,51.468475,17.290285,9.032992,17.046480,18.800341,9.304423,28.511179,6.090690,5.238348,23.338913,23.847549,39.615582,0.975958,10.807546,10.371703,-10.870404,-16.431585,-8.119090,5.542459,-20.780130,-1.544586,-17.648502,-22.443159,-5.774221,3.271627,-15.323103,14.234220,21.201385,8064.000000,0.000000,4.000000,,,,0.000000,4.000000,4.000000,4.000000,4.000000,4.000000,4.000000,4.000000,4.000000,4.000000,4.000000,4.000000,4.000000,4.000000,4.000000,4.000000,4.000000,4.000000,4.000000,4.000000,4.000000,4.000000,4.000000,4.000000,4.000000,4.000000,4.000000,4.000000,4.000000,4.000000,4.000000,4.000000,4.000000,100.000000
1614131199.129068,61.000000,0.000000,10.364986,-2.776177,37.179062,23.925400,48.852905,16.247353,7.998318,16.516615,18.781540,9.295119,26.944206,5.571779,8.310033,20.751471,25.362164,31.883657,-0.050659,10.796738,1.130562,-12.910815,-20.517717,-10.675074,5.024096,-21.784992,-1.543042,-20.707777,-22.420715,-6.281268,-2.885491,-19.923164,13.707165,13.487876,8064.000000,0.000000,4.000000,,,,0.000000,4.000000,4.000000,4.000000,4.000000,4.000000,4.000000,4.000000,4.000000,4.000000,4.000000,4.000000,4.000000,4.000000,4.000000,4.000000,4.000000,4.000000,4.000000,4.000000,4.000000,4.000000,4.000000,4.000000,4.000000,4.000000,4.000000,4.000000,4.000000,4.000000,4.000000,4.000000,4.000000,100.000000
1614131199.136717,62.000000,0.000000,9.841801,0.303522,39.705982,27.491217,51.880974,20.846491,3.374935,16.500097,23.378143,9.285824,28.455723,3.002105,9.327364,20.730719,26.362442,33.390236,-0.050609,10.273121,1.642252,-9.820982,-19.984379,-8.100296,4.506251,-20.224745,-1.028678,-17.097326,-22.398294,-6.274987,-1.344144,-10.672472,16.257561,13.987208,8064.000000,0.000000,4.000000,,,,0.000000,4.000000,4.000000,4.000000,4.000000,4.000000,4.000000,4.000000,4.000000,4.000000,4.000000,4.000000,4.000000,4.000000,4.000000,4.000000,4.000000,4.000000,4.000000,4.000000,4.000000,4.000000,4.000000,4.000000,4.000000,4.000000,4.000000,4.000000,4.000000,4.000000,4.000000,4.000000,4.000000,100.000000
1614131199.144466,63.000000,0.000000,9.831959,4.918603,43.256020,31.053471,56.444477,23.389746,4.397202,17.509239,26.944510,9.276538,27.401627,2.486282,5.728293,16.094604,16.592489,28.228640,-0.563379,10.262848,15.999584,-4.682956,-14.323369,-6.553734,5.527386,-21.230162,1.536453,-10.926382,-19.811794,-6.268712,8.400790,-3.995133,21.369507,20.127068,8064.000000,0.000000,4.000000,,,,0.000000,4.000000,4.000000,4.000000,4.000000,4.000000,4.000000,4.000000,4.000000,4.000000,4.000000,4.000000,4.000000,4.000000,4.000000,4.000000,4.000000,4.000000,4.000000,4.000000,4.000000,4.000000,4.000000,4.000000,4.000000,4.000000,4.000000,4.000000,4.000000,4.000000,4.000000,4.000000,4.000000,100.000000
1614131199.152115,64.000000,0.000000,9.822127,0.298300,43.725586,31.535236,56.900856,17.725330,5.931266,14.414806,24.866282,8.754441,20.194738,-0.593127,-4.021025,6.334919,-2.911282,10.251693,-3.126918,10.765406,14.957944,-7.755196,-14.309046,-11.162565,3.983397,-21.208931,2.560558,-7.325712,-19.279161,-6.262443,13.007774,-0.914215,22.373779,21.645401,0.000000,201.000000,4.000000,,,,0.000000,4.000000,4.000000,4.000000,4.000000,4.000000,4.000000,4.000000,4.000000,4.000000,4.000000,4.000000,4.000000,4.000000,4.000000,4.000000,4.000000,4.000000,4.000000,4.000000,4.000000,4.000000,4.000000,4.000000,4.000000,4.000000,4.000000,4.000000,4.000000,4.000000,4.000000,4.000000,4.000000,100.000000
1614131199.159864,65.000000,0.000000,9.812305,-6.368665,41.117756,30.990881,55.818314,12.579401,2.335591,7.733725,22.277313,10.284148,23.251467,-5.207919,-6.581107,14.020892,-5.472473,21.010672,-3.636611,16.908485,12.378883,-4.670517,-10.192172,-8.587299,-0.635971,-21.187723,3.070817,-7.318386,-17.721420,-6.256180,11.969126,6.266187,21.325764,21.623756,0.000000,185.000000,4.000000,,,,0.000000,4.000000,4.000000,4.000000,4.000000,4.000000,4.000000,4.000000,4.000000,4.000000,4.000000,4.000000,4.000000,4.000000,4.000000,4.000000,4.000000,4.000000,4.000000,4.000000,4.000000,4.000000,4.000000,4.000000,4.000000,4.000000,4.000000,4.000000,4.000000,4.000000,4.000000,4.000000,4.000000,100.000000
1614131199.167513,66.000000,0.000000,9.802493,-4.311014,41.076641,30.959890,56.788136,13.592463,1.820435,6.700350,22.767857,13.350787,33.997444,-5.202711,-0.420680,30.929949,9.917615,48.169147,-1.068872,26.122347,27.238298,13.282871,10.843660,4.241800,-0.635335,-17.576792,8.708773,-7.311068,-13.088315,-6.249924,12.982798,9.849664,21.817259,22.627773,0.000000,191.000000,4.000000,,,,0.000000,4.000000,4.000000,4.000000,4.000000,4.000000,4.000000,4.000000,4.000000,4.000000,4.000000,4.000000,4.000000,4.000000,4.000000,4.000000,4.000000,4.000000,4.000000,4.000000,4.000000,4.000000,4.000000,4.000000,4.000000,4.000000,4.000000,4.000000,4.000000,4.000000,4.000000,4.000000,4.000000,100.000000
1614131199.175262,67.000000,0.000000,9.792690,-1.229780,41.548386,30.928930,56.731346,14.091690,2.331435,11.821855,23.257910,12.824615,31.912167,-4.171867,-0.420259,28.847736,16.061543,40.428673,0.983479,28.147507,33.877728,23.013178,23.653330,10.904225,1.929403,-11.405368,11.264166,-6.790936,-10.511124,-6.243674,10.918532,3.685968,20.256981,21.066685,0.000000,181.000000,4.000000,,,,0.000000,4.000000,4.000000,4.000000,4.000000,4.000000,4.000000,4.000000,4.000000,4.000000,4.000000,4.000000,4.000000,4.000000,4.000000,4.000000,4.000000,4.000000,4.000000,4.000000,4.000000,4.000000,4.000000,4.000000,4.000000,4.000000,4.000000,4.000000,4.000000,4.000000,4.000000,4.000000,4.000000,100.000000
1614131199.182910,68.000000,0.000000,9.782898,-2.254191,38.942734,30.898001,55.136154,13.051957,2.329103,13.348495,22.209011,9.734868,21.111023,-4.680516,-2.471121,19.588120,13.481380,28.080551,0.469675,25.555256,27.690004,16.836319,16.963011,8.842039,1.414653,-8.829861,7.663158,-7.809786,-11.013433,-6.237431,3.728127,-4.010026,14.595697,18.481516,0.000000,191.000000,4.000000,,,,0.000000,4.000000,4.000000,4.000000,4.000000,4.000000,4.000000,4.000000,4.000000,4.000000,4.000000,4.000000,4.000000,4.000000,4.000000,4.000000,4.000000,4.000000,4.000000,4.000000,4.000000,4.000000,4.000000,4.000000,4.000000,4.000000,4.000000,4.000000,4.000000,4.000000,4.000000,4.000000,4.000000,100.000000
1614131199.190659,69.000000,0.000000,9.773115,-2.251937,36.852509,30.354282,53.542557,13.038905,2.326774,12.822325,22.699621,9.212313,19.551451,-4.675835,2.659556,19.568531,14.493539,45.488369,1.494846,27.580984,34.328979,16.306662,14.894765,8.320376,1.413238,-9.333851,7.655495,-7.289156,-11.002420,-6.231193,0.647475,-6.570118,9.452897,18.463034,0.000000,201.000000,4.000000,,,,0.000000,4.000000,4.000000,4.000000,4.000000,4.000000,4.000000,4.000000,4.000000,4.000000,4.000000,4.000000,4.000000,4.000000,4.000000,4.000000,4.000000,4.000000,4.000000,4.000000,4.000000,4.000000,4.000000,4.000000,4.000000,4.000000,4.000000,4.000000,4.000000,4.000000,4.000000,4.000000,4.000000,100.000000
1614131199.198308,70.000000,0.000000,9.763342,-1.736865,36.815655,28.272646,51.437733,13.538687,1.298807,12.809503,23.189743,8.690280,22.096003,-4.158339,4.708178,11.856655,14.991866,43.904419,1.493351,26.527761,36.858753,15.777534,9.751665,7.799236,2.437466,-8.298876,6.622199,-6.769046,-12.529880,-5.712142,1.672469,-9.640471,6.879341,17.418930,0.000000,193.000000,4.000000,,,,0.000000,4.000000,4.000000,4.000000,4.000000,4.000000,4.000000,4.000000,4.000000,4.000000,4.000000,4.000000,4.000000,4.000000,4.000000,4.000000,4.000000,4.000000,4.000000,4.000000,4.000000,4.000000,4.000000,4.000000,4.000000,4.000000,4.000000,4.000000,4.000000,4.000000,4.000000,4.000000,4.000000,100.000000
1614131199.206057,71.000000,0.000000,9.753578,-2.247948,37.291660,26.705912,47.283730,13.525148,-0.753774,13.309514,21.628092,4.579026,18.484161,-4.667001,-0.424735,-1.488535,11.387131,15.142564,-3.636347,8.039695,12.206511,-5.776705,-17.950394,-4.003436,0.383747,-10.341859,-4.153654,-9.839200,-15.081451,-6.219250,1.157976,-14.759035,5.334001,10.222023,0.000000,186.000000,4.000000,,,,0.000000,4.000000,4.000000,4.000000,4.000000,4.000000,4.000000,4.000000,4.000000,4.000000,4.000000,4.000000,4.000000,4.000000,4.000000,4.000000,4.000000,4.000000,4.000000,4.000000,4.000000,4.000000,4.000000,4.000000,4.000000,4.000000,4.000000,4.000000,4.000000,4.000000,4.000000,4.000000,4.000000,100.000000
1614131199.213706,72.000000,0.000000,9.743825,-1.732880,36.741547,27.192026,44.672344,13.511623,-1.778661,13.296205,19.555182,1.497524,15.901576,-4.149514,-3.501234,-3.025508,4.196256,3.845370,-9.273736,-15.558088,-13.446722,-31.924774,-44.086288,-21.435329,-0.642278,-18.536646,-12.867450,-11.367823,-14.553550,-6.213031,1.156818,-17.821199,7.892769,5.596417,0.000000,210.000000,4.000000,,,,0.000000,4.000000,4.000000,4.000000,4.000000,4.000000,4.000000,4.000000,4.000000,4.000000,4.000000,4.000000,4.000000,4.000000,4.000000,4.000000,4.000000,4.000000,4.000000,4.000000,4.000000,4.000000,4.000000,4.000000,4.000000,4.000000,4.000000,4.000000,4.000000,4.000000,4.000000,4.000000,4.000000,100.000000
1614131199.221455,73.000000,0.000000,9.734081,-3.269609,37.217628,27.677656,45.140491,13.498112,-1.264062,12.257267,19.022806,2.008847,16.398495,-4.145364,-3.497732,-8.663508,-6.577171,4.867166,-12.341386,-23.234838,-25.740967,-39.072338,-48.144768,-31.157484,-3.205738,-25.697596,-12.854582,-9.817993,-15.564637,-5.693997,2.181302,-16.777737,13.525902,7.642102,0.000000,192.000000,4.000000,,,,0.000000,4.000000,4.000000,4.000000,4.000000,4.000000,4.000000,4.000000,4.000000,4.000000,4.000000,4.000000,4.000000,4.000000,4.000000,4.000000,4.000000,4.000000,4.000000,4.000000,4.000000,4.000000,4.000000,4.000000,4.000000,4.000000,4.000000,4.000000,4.000000,4.000000,4.000000,4.000000,4.000000,100.000000
1614131199.229104,74.000000,0.000000,9.724347,-6.856082,37.180408,24.573055,44.582531,13.484613,-1.262798,9.680907,17.465321,1.494017,16.894917,-6.192501,-6.571157,-21.988178,-12.724440,-2.830009,-17.457249,-24.237244,-31.869072,-37.494804,-46.558163,-33.177608,-10.894840,-30.287283,-13.867369,-14.423560,-21.190098,-7.226765,-2.436264,-17.273781,10.948274,6.608819,0.000000,190.000000,4.000000,,,,0.000000,4.000000,4.000000,4.000000,4.000000,4.000000,4.000000,4.000000,4.000000,4.000000,4.000000,4.000000,4.000000,4.000000,4.000000,4.000000,4.000000,4.000000,4.000000,4.000000,4.000000,4.000000,4.000000,4.000000,4.000000,4.000000,4.000000,4.000000,4.000000,4.000000,4.000000,4.000000,4.000000,100.000000
1614131199.236853,75.000000,0.000000,9.714622,-9.926149,36.117588,20.445917,41.461025,13.471129,-1.261536,8.645585,14.883753,-1.071579,16.878021,-8.750411,-8.103048,-27.094395,-12.711716,-5.391282,-22.055178,-21.648905,-23.632074,-36.944489,-45.998783,-32.631611,-17.550611,-34.359558,-16.930424,-24.152727,-23.220190,-9.270820,-10.126135,-19.820608,4.270658,0.448364,0.000000,195.000000,4.000000,,,,0.000000,4.000000,4.000000,4.000000,4.000000,4.000000,4.000000,4.000000,4.000000,4.000000,4.000000,4.000000,4.000000,4.000000,4.000000,4.000000,4.000000,4.000000,4.000000,4.000000,4.000000,4.000000,4.000000,4.000000,4.000000,4.000000,4.000000,4.000000,4.000000,4.000000,4.000000,4.000000,4.000000,100.000000
1614131199.244502,76.000000,0.000000,9.704907,-9.916224,37.107113,18.887011,40.906746,12.944838,-1.260274,9.149760,14.868870,-2.096149,16.348324,-8.228840,-6.043663,-25.528839,-11.673363,9.998725,-21.520302,-1.627255,-4.634084,-30.240875,-39.798939,-27.983595,-17.533062,-36.376484,-15.887853,-27.205496,-21.658508,-10.287190,-10.116009,-19.287968,5.804849,-1.090546,0.000000,200.000000,4.000000,,,,0.000000,4.000000,4.000000,4.000000,4.000000,4.000000,4.000000,4.000000,4.000000,4.000000,4.000000,4.000000,4.000000,4.000000,4.000000,4.000000,4.000000,4.000000,4.000000,4.000000,4.000000,4.000000,4.000000,4.000000,4.000000,4.000000,4.000000,4.000000,4.000000,4.000000,4.000000,4.000000,4.000000,100.000000
1614131199.252250,77.000000,0.000000,9.695203,-9.393487,37.582825,19.893764,41.891479,13.444713,-1.259014,9.140611,15.366821,-1.581232,16.844795,-8.220612,-6.550440,-18.323822,-8.071946,27.424623,-22.011600,14.784629,-0.014065,-20.979866,-34.118114,-21.288944,-15.977067,-35.314465,-15.359144,-25.639830,-24.713774,-9.764083,-9.593073,-16.191757,6.311865,3.013109,0.000000,197.000000,4.000000,,,,0.000000,4.000000,4.000000,4.000000,4.000000,4.000000,4.000000,4.000000,4.000000,4.000000,4.000000,4.000000,4.000000,4.000000,4.000000,4.000000,4.000000,4.000000,4.000000,4.000000,4.000000,4.000000,4.000000,4.000000,4.000000,4.000000,4.000000,4.000000,4.000000,4.000000,4.000000,4.000000,4.000000,100.000000
1614131199.259899,78.000000,0.000000,9.685508,-9.384093,31.391396,19.873871,40.823944,13.944089,-1.257755,9.131470,14.838634,-1.579651,18.879232,-8.725211,-7.056710,1.694501,0.654075,30.986942,-19.425488,11.692921,-0.014051,-16.856321,-27.930149,-19.729193,-17.499552,-35.279152,-15.856606,-26.639832,-30.330086,-9.754318,-15.737326,-16.175566,0.151707,1.984455,0.000000,201.000000,4.000000,,,,0.000000,4.000000,4.000000,4.000000,4.000000,4.000000,4.000000,4.000000,4.000000,4.000000,4.000000,4.000000,4.000000,4.000000,4.000000,4.000000,4.000000,4.000000,4.000000,4.000000,4.000000,4.000000,4.000000,4.000000,4.000000,4.000000,4.000000,4.000000,4.000000,4.000000,4.000000,4.000000,4.000000,100.000000
1614131199.267748,79.000000,0.000000,9.675822,-10.400351,25.718979,18.828356,41.295944,12.391684,-1.256497,9.122338,14.823795,-2.090892,21.424456,-6.152383,2.181116,21.692806,10.909831,28.904675,-10.688113,19.886356,15.370578,-12.224081,-16.620169,-18.683823,-15.943590,-35.756691,-13.276647,-24.561909,-29.274115,-9.744564,-16.234409,-18.210670,-1.386906,-1.607273,0.000000,183.000000,4.000000,,,,0.000000,4.000000,4.000000,4.000000,4.000000,4.000000,4.000000,4.000000,4.000000,4.000000,4.000000,4.000000,4.000000,4.000000,4.000000,4.000000,4.000000,4.000000,4.000000,4.000000,4.000000,4.000000,4.000000,4.000000,4.000000,4.000000,4.000000,4.000000,4.000000,4.000000,4.000000,4.000000,4.000000,100.000000
1614131199.275497,80.000000,0.000000,9.666146,-7.825847,31.334286,19.322348,46.382851,13.917753,-1.255240,9.113216,16.860254,-2.088801,23.967134,-1.530846,15.512268,25.773678,18.591228,38.106537,-5.036399,36.789547,23.047516,-8.622113,-9.936881,-15.588216,-13.363544,-31.618372,-9.160806,-15.819398,-23.603815,-9.734819,-4.423303,-15.115538,2.204224,5.061001,0.000000,194.000000,4.000000,,,,0.000000,4.000000,4.000000,4.000000,4.000000,4.000000,4.000000,4.000000,4.000000,4.000000,4.000000,4.000000,4.000000,4.000000,4.000000,4.000000,4.000000,4.000000,4.000000,4.000000,4.000000,4.000000,4.000000,4.000000,4.000000,4.000000,4.000000,4.000000,4.000000,4.000000,4.000000,4.000000,4.000000,100.000000
1614131199.283346,81.000000,0.000000,9.656480,-2.689816,37.969620,19.815845,47.874931,18.519220,-1.253985,9.104103,18.894674,-1.573892,23.943167,0.521967,14.471115,13.953032,14.470074,41.145355,-5.544183,24.445065,12.255237,-10.151953,-11.978226,-13.521346,-12.324539,-23.381624,-5.049081,-10.675374,-21.528929,-9.725084,2.760608,-7.920935,4.253302,14.286709,0.000000,187.000000,4.000000,,,,0.000000,4.000000,4.000000,4.000000,4.000000,4.000000,4.000000,4.000000,4.000000,4.000000,4.000000,4.000000,4.000000,4.000000,4.000000,4.000000,4.000000,4.000000,4.000000,4.000000,4.000000,4.000000,4.000000,4.000000,4.000000,4.000000,4.000000,4.000000,4.000000,4.000000,4.000000,4.000000,4.000000,100.000000
1614131199.291095,82.000000,0.000000,9.646824,-2.687126,36.393188,19.283209,43.211670,19.526342,-1.252731,9.094998,19.388601,-2.085138,21.355122,-2.042658,-5.030536,-6.573741,-0.929012,21.617029,-7.589921,4.933440,12.242982,-9.116159,-10.940607,-12.995004,-12.825035,-18.742859,-4.018391,-10.664699,-22.020220,-9.715360,1.219386,-4.836091,5.787510,15.298063,0.000000,189.000000,4.000000,,,,0.000000,4.000000,4.000000,4.000000,4.000000,4.000000,4.000000,4.000000,4.000000,4.000000,4.000000,4.000000,4.000000,4.000000,4.000000,4.000000,4.000000,4.000000,4.000000,4.000000,4.000000,4.000000,4.000000,4.000000,4.000000,4.000000,4.000000,4.000000,4.000000,4.000000,4.000000,4.000000,4.000000,100.000000
1614131199.298943,83.000000,0.000000,9.637177,-6.274183,35.843975,19.263926,40.604355,16.429892,-1.251478,9.085904,18.856392,-2.595874,17.231201,-6.143179,-17.333197,-21.438963,-10.671673,7.236439,-8.607972,3.902866,13.769200,-9.619864,-12.468128,-12.982009,-12.812210,-19.749756,-4.527193,-10.654034,-21.998199,-9.705645,1.218166,-6.369716,6.807364,13.744304,0.000000,188.000000,4.000000,,,,0.000000,4.000000,4.000000,4.000000,4.000000,4.000000,4.000000,4.000000,4.000000,4.000000,4.000000,4.000000,4.000000,4.000000,4.000000,4.000000,4.000000,4.000000,4.000000,4.000000,4.000000,4.000000,4.000000,4.000000,4.000000,4.000000,4.000000,4.000000,4.000000,4.000000,4.000000,4.000000,4.000000,100.000000
1614131199.306692,84.000000,0.000000,9.627540,-4.729447,38.885052,22.834406,44.153496,16.413462,-1.250227,9.076818,18.837536,1.509286,16.188330,-8.701138,-11.674839,-18.853420,-9.635360,12.357408,-10.137826,-4.306165,-6.244569,-20.379475,-22.199249,-12.969027,-12.286578,-19.730007,-3.497025,-11.156200,-21.463381,-9.695939,2.242589,-3.799244,6.800557,17.320303,0.000000,202.000000,4.000000,,,,0.000000,4.000000,4.000000,4.000000,4.000000,4.000000,4.000000,4.000000,4.000000,4.000000,4.000000,4.000000,4.000000,4.000000,4.000000,4.000000,4.000000,4.000000,4.000000,4.000000,4.000000,4.000000,4.000000,4.000000,4.000000,4.000000,4.000000,4.000000,4.000000,4.000000,4.000000,4.000000,4.000000,100.000000
1614131199.314541,85.000000,0.000000,9.617912,-1.647795,40.384628,26.914135,47.699085,19.473972,-1.248977,11.119023,18.818699,8.174443,19.249063,-8.179617,-4.483676,-10.629439,-6.035981,14.909153,-10.127688,-13.019808,-17.007555,-28.564224,-27.818075,-12.956058,-12.787111,-19.710278,-0.929425,-9.606583,-21.441917,-9.686243,1.727526,1.332760,6.280935,21.405546,0.000000,210.000000,4.000000,,,,0.000000,4.000000,4.000000,4.000000,4.000000,4.000000,4.000000,4.000000,4.000000,4.000000,4.000000,4.000000,4.000000,4.000000,4.000000,4.000000,4.000000,4.000000,4.000000,4.000000,4.000000,4.000000,4.000000,4.000000,4.000000,4.000000,4.000000,4.000000,4.000000,4.000000,4.000000,4.000000,4.000000,100.000000
1614131199.322290,86.000000,0.000000,9.608294,-1.646147,40.857063,27.400042,48.164207,20.992960,-1.247728,12.646366,18.799879,10.217551,23.332380,-7.658617,-2.427911,-7.541887,-1.414560,14.381423,-10.117560,5.454751,-1.605932,-25.458736,-25.226154,-13.455922,-12.774324,-19.690567,-0.415675,-4.468771,-21.933296,-9.676557,1.212978,2.357069,6.787475,21.896961,0.000000,192.000000,4.000000,,,,0.000000,4.000000,4.000000,4.000000,4.000000,4.000000,4.000000,4.000000,4.000000,4.000000,4.000000,4.000000,4.000000,4.000000,4.000000,4.000000,4.000000,4.000000,4.000000,4.000000,4.000000,4.000000,4.000000,4.000000,4.000000,4.000000,4.000000,4.000000,4.000000,4.000000,4.000000,4.000000,4.000000,100.000000
1614131199.330138,87.000000,0.000000,9.598686,-2.157321,39.277744,25.834181,47.090401,19.946325,-1.246480,12.633719,18.781080,9.181693,24.334688,-9.702240,-3.451124,-6.508704,-3.977248,20.008066,-11.645905,17.244167,6.087981,-21.843534,-24.175287,-13.442467,-13.274371,-20.183697,-0.928080,-3.438661,-21.911364,-9.666880,1.211765,1.329070,6.780687,21.362244,0.000000,188.000000,4.000000,,,,0.000000,4.000000,4.000000,4.000000,4.000000,4.000000,4.000000,4.000000,4.000000,4.000000,4.000000,4.000000,4.000000,4.000000,4.000000,4.000000,4.000000,4.000000,4.000000,4.000000,4.000000,4.000000,4.000000,4.000000,4.000000,4.000000,4.000000,4.000000,4.000000,4.000000,4.000000,4.000000,4.000000,100.000000
1614131199.337887,88.000000,0.000000,9.589087,-2.155164,39.751289,26.833988,48.068954,19.926380,-1.245234,12.621085,18.762299,9.172511,21.233431,-11.231000,-12.678442,-7.527836,-16.793783,18.449598,-15.736823,6.457693,3.517791,-20.796049,-23.125471,-14.967485,-12.748276,-22.727615,-0.927152,-7.024966,-21.889452,-9.657213,1.210553,1.840562,8.312368,21.340881,0.000000,189.000000,4.000000,,,,0.000000,4.000000,4.000000,4.000000,4.000000,4.000000,4.000000,4.000000,4.000000,4.000000,4.000000,4.000000,4.000000,4.000000,4.000000,4.000000,4.000000,4.000000,4.000000,4.000000,4.000000,4.000000,4.000000,4.000000,4.000000,4.000000,4.000000,4.000000,4.000000,4.000000,4.000000,4.000000,4.000000,100.000000
1614131199.345736,89.000000,0.000000,9.579498,-1.640188,47.403847,32.448177,52.636269,24.009016,-1.243988,12.095644,18.743536,9.676159,20.186556,-12.245410,-20.870892,-4.956206,-18.315453,17.405506,-18.798008,7.476876,9.668119,-17.698330,-19.512602,-17.003799,-12.735528,-24.243349,-0.413404,-8.043582,-21.867561,-9.647555,1.209343,1.838721,12.919440,21.319542,0.000000,199.000000,4.000000,,,,0.000000,4.000000,4.000000,4.000000,4.000000,4.000000,4.000000,4.000000,4.000000,4.000000,4.000000,4.000000,4.000000,4.000000,4.000000,4.000000,4.000000,4.000000,4.000000,4.000000,4.000000,4.000000,4.000000,4.000000,4.000000,4.000000,4.000000,4.000000,4.000000,4.000000,4.000000,4.000000,4.000000,100.000000
1614131199.353485,90.000000,0.000000,9.569919,-2.151369,55.048748,38.569576,55.660557,27.574751,0.295717,13.109189,18.724792,9.153663,25.294575,-11.720344,-12.132072,8.894904,-1.374059,30.721436,-15.189467,17.725809,10.684093,-13.578068,-21.031551,-16.986795,-13.748433,-23.706285,-0.925811,-7.009897,-22.871336,-9.637908,0.695313,1.324062,19.573189,21.298222,0.000000,179.000000,4.000000,,,,0.000000,4.000000,4.000000,4.000000,4.000000,4.000000,4.000000,4.000000,4.000000,4.000000,4.000000,4.000000,4.000000,4.000000,4.000000,4.000000,4.000000,4.000000,4.000000,4.000000,4.000000,4.000000,4.000000,4.000000,4.000000,4.000000,4.000000,4.000000,4.000000,4.000000,4.000000,4.000000,4.000000,100.000000
1614131199.361334,91.000000,0.000000,9.560349,-2.149217,52.429596,37.505367,55.092075,28.059998,2.346704,17.711464,18.706068,9.144508,34.500050,-9.657341,2.751855,22.219343,11.960648,44.024048,-7.994791,20.785006,12.724690,-4.846541,-15.882315,-14.918528,-12.196223,-24.708220,-0.924885,-7.515708,-20.797182,-9.628270,3.258720,1.322738,22.117718,21.276924,0.000000,189.000000,4.000000,,,,0.000000,4.000000,4.000000,4.000000,4.000000,4.000000,4.000000,4.000000,4.000000,4.000000,4.000000,4.000000,4.000000,4.000000,4.000000,4.000000,4.000000,4.000000,4.000000,4.000000,4.000000,4.000000,4.000000,4.000000,4.000000,4.000000,4.000000,4.000000,4.000000,4.000000,4.000000,4.000000,4.000000,100.000000
1614131199.369082,92.000000,0.000000,9.550789,-2.147068,47.248962,32.339657,55.036983,27.519117,2.857177,21.283497,18.687361,9.135365,37.029652,-7.596402,8.902949,24.761227,15.538431,46.544125,-4.909873,26.405247,32.199146,6.440357,0.543824,-9.775404,-7.055822,-22.119410,-0.923961,-7.508192,-15.648180,-9.618642,4.793923,1.321415,21.069958,21.255646,0.000000,171.000000,4.000000,,,,0.000000,4.000000,4.000000,4.000000,4.000000,4.000000,4.000000,4.000000,4.000000,4.000000,4.000000,4.000000,4.000000,4.000000,4.000000,4.000000,4.000000,4.000000,4.000000,4.000000,4.000000,4.000000,4.000000,4.000000,4.000000,4.000000,4.000000,4.000000,4.000000,4.000000,4.000000,4.000000,4.000000,100.000000
1614131199.376731,93.000000,0.000000,10.054058,-1.632100,46.688892,30.256035,54.981945,28.517239,2.341500,20.749393,18.668674,9.126229,31.351597,-7.075985,8.381226,24.736465,15.010072,41.882195,-5.417783,26.378841,36.269508,7.459557,6.697126,-3.611782,-4.997484,-12.866521,-0.923037,-5.449402,-14.094070,-9.609023,4.789129,1.320094,21.561708,21.234390,0.000000,181.000000,4.000000,,,,0.000000,4.000000,4.000000,4.000000,4.000000,4.000000,4.000000,4.000000,4.000000,4.000000,4.000000,4.000000,4.000000,4.000000,4.000000,4.000000,4.000000,4.000000,4.000000,4.000000,4.000000,4.000000,4.000000,4.000000,4.000000,4.000000,4.000000,4.000000,4.000000,4.000000,4.000000,4.000000,4.000000,100.000000
1614131199.384480,94.000000,0.000000,9.531183,-2.656109,47.667847,29.712957,54.414143,26.950260,2.339158,18.677361,18.137186,9.117103,24.653578,-9.120192,6.321562,19.070704,8.328395,27.481340,-7.463648,11.993488,16.746061,3.862354,1.049403,-2.069709,-5.505307,-7.725449,-1.434934,-3.905491,-14.079976,-9.599415,5.297161,0.805953,20.514505,20.700336,0.000000,203.000000,4.000000,,,,0.000000,4.000000,4.000000,4.000000,4.000000,4.000000,4.000000,4.000000,4.000000,4.000000,4.000000,4.000000,4.000000,4.000000,4.000000,4.000000,4.000000,4.000000,4.000000,4.000000,4.000000,4.000000,4.000000,4.000000,4.000000,4.000000,4.000000,4.000000,4.000000,4.000000,4.000000,4.000000,4.000000,100.000000
1614131199.392129,95.000000,0.000000,9.008832,-1.114992,46.594536,29.683245,53.846909,27.436131,1.823998,20.197145,18.119047,8.082344,23.090464,-8.085430,4.776779,2.128555,3.704682,17.197449,-5.917723,5.314828,10.062648,4.884133,-1.515749,-2.580460,-3.448520,-9.256185,-1.433499,-3.901586,-11.501794,-9.589815,7.855966,0.805147,20.493992,20.679636,0.000000,173.000000,4.000000,,,,0.000000,4.000000,4.000000,4.000000,4.000000,4.000000,4.000000,4.000000,4.000000,4.000000,4.000000,4.000000,4.000000,4.000000,4.000000,4.000000,4.000000,4.000000,4.000000,4.000000,4.000000,4.000000,4.000000,4.000000,4.000000,4.000000,4.000000,4.000000,4.000000,4.000000,4.000000,4.000000,4.000000,100.000000
1614131199.399978,96.000000,0.000000,10.538284,1.450226,45.522301,29.653561,52.767422,28.947155,2.334995,20.689770,18.613749,6.535800,22.554552,-6.538883,4.772002,-7.104343,4.213798,20.257174,-4.886164,7.360795,6.462842,1.802325,-3.565515,-1.552238,-1.393789,-8.734108,-0.406425,-3.384863,-9.439010,-9.580225,8.873751,1.829983,25.088882,21.171776,8064.000000,0.000000,4.000000,,,,0.000000,4.000000,4.000000,4.000000,4.000000,4.000000,4.000000,4.000000,4.000000,4.000000,4.000000,4.000000,4.000000,4.000000,4.000000,4.000000,4.000000,4.000000,4.000000,4.000000,4.000000,4.000000,4.000000,4.000000,4.000000,4.000000,4.000000,4.000000,4.000000,4.000000,4.000000,4.000000,4.000000,100.000000
1614131199.407727,97.000000,0.000000,8.476464,0.935955,42.912678,27.572626,48.099270,21.225901,1.819839,10.925489,18.082315,4.477983,17.916613,-14.224651,-1.386616,-8.122879,-8.098108,16.647173,-17.188971,1.199589,-9.953877,-7.430246,-10.741437,-5.140429,-3.443677,-8.725374,-1.431659,-3.381479,-11.480853,-9.570645,8.864878,1.315333,23.525331,20.637785,8064.000000,0.000000,4.000000,,,,0.000000,4.000000,4.000000,4.000000,4.000000,4.000000,4.000000,4.000000,4.000000,4.000000,4.000000,4.000000,4.000000,4.000000,4.000000,4.000000,4.000000,4.000000,4.000000,4.000000,4.000000,4.000000,4.000000,4.000000,4.000000,4.000000,4.000000,4.000000,4.000000,4.000000,4.000000,4.000000,4.000000,100.000000
1614131199.415476,98.000000,0.000000,-1.275602,-2.141904,42.356945,25.493771,46.512707,12.486726,-1.771724,0.658154,18.064232,4.473505,13.796132,-23.441196,-9.077537,-7.601936,-20.397701,13.553603,-28.453833,3.762492,-3.277257,-11.525380,-13.807618,-8.725033,-6.004336,-14.357675,-1.430228,-4.916559,-14.033474,-10.073895,8.343192,0.288376,16.835140,20.617146,8064.000000,0.000000,4.000000,,,,0.000000,4.000000,4.000000,4.000000,4.000000,4.000000,4.000000,4.000000,4.000000,4.000000,4.000000,4.000000,4.000000,4.000000,4.000000,4.000000,4.000000,4.000000,4.000000,4.000000,4.000000,4.000000,4.000000,4.000000,4.000000,4.000000,4.000000,4.000000,4.000000,4.000000,4.000000,4.000000,4.000000,100.000000
1614131199.423125,99.000000,0.000000,-4.864070,-2.652583,44.365868,28.545200,56.209785,18.115265,-1.769952,6.811342,22.661552,10.110057,19.423361,-15.212627,-4.453074,7.277461,-2.941407,34.565689,-14.579225,22.733088,24.418327,-5.872829,-10.204067,-3.588103,-4.459870,-16.907419,6.263510,-0.809078,-14.532262,-9.038179,8.334848,7.467575,22.459330,25.211914,8064.000000,0.000000,4.000000,,,,0.000000,4.000000,4.000000,4.000000,4.000000,4.000000,4.000000,4.000000,4.000000,4.000000,4.000000,4.000000,4.000000,4.000000,4.000000,4.000000,4.000000,4.000000,4.000000,4.000000,4.000000,4.000000,4.000000,4.000000,4.000000,4.000000,4.000000,4.000000,4.000000,4.000000,4.000000,4.000000,4.000000,100.000000
1614131199.430873,100.000000,0.000000,1.807461,-1.624289,46.885605,33.132038,68.461266,27.327919,4.898484,18.599401,30.844019,16.253794,29.147528,0.700022,6.833430,28.295824,20.651278,55.043945,4.922534,37.069328,34.650318,6.440736,-4.040017,1.543691,-0.865667,-13.813589,14.462375,3.294295,-14.004909,-6.465039,9.864975,15.665236,31.154819,31.340548,8192.000000,0.000000,4.000000,,,,0.000000,4.000000,4.000000,4.000000,4.000000,4.000000,4.000000,4.000000,4.000000,4.000000,4.000000,4.000000,4.000000,4.000000,4.000000,4.000000,4.000000,4.000000,4.000000,4.000000,4.000000,4.000000,4.000000,4.000000,4.000000,4.000000,4.000000,4.000000,4.000000,4.000000,4.000000,4.000000,4.000000,100.000000
1614131199.438522,101.000000,0.000000,6.421038,-2.135485,46.838718,34.124550,68.392807,27.813412,10.534612,20.119265,33.377277,16.750360,32.195305,3.263424,7.852237,27.754707,18.579344,52.937618,5.430432,39.596363,35.641312,13.100962,-0.446233,1.029326,-2.916083,-11.748493,13.422272,-1.324384,-14.503724,-5.432933,5.752546,14.111109,22.918537,32.334850,8064.000000,0.000000,4.000000,,,,0.000000,4.000000,4.000000,4.000000,4.000000,4.000000,4.000000,4.000000,4.000000,4.000000,4.000000,4.000000,4.000000,4.000000,4.000000,4.000000,4.000000,4.000000,4.000000,4.000000,4.000000,4.000000,4.000000,4.000000,4.000000,4.000000,4.000000,4.000000,4.000000,4.000000,4.000000,4.000000,4.000000,100.000000
1614131199.446271,102.000000,0.000000,5.388976,-2.133350,46.279060,33.064785,64.734673,26.247137,10.011256,19.073503,32.831081,15.707969,30.111826,-0.842403,2.203359,19.521826,9.329996,45.192375,1.322438,30.838818,32.015926,3.344271,-0.958607,1.541118,-8.554193,-12.762385,9.819106,-9.015367,-17.053324,-5.940320,-2.458334,8.455973,12.126388,31.276873,8192.000000,0.000000,4.000000,,,,0.000000,4.000000,4.000000,4.000000,4.000000,4.000000,4.000000,4.000000,4.000000,4.000000,4.000000,4.000000,4.000000,4.000000,4.000000,4.000000,4.000000,4.000000,4.000000,4.000000,4.000000,4.000000,4.000000,4.000000,4.000000,4.000000,4.000000,4.000000,4.000000,4.000000,4.000000,4.000000,4.000000,100.000000
1614131199.453920,103.000000,0.000000,5.383587,-2.131216,46.232780,33.544540,66.208397,27.759352,8.975604,20.592892,35.362350,17.230722,31.620176,-0.841561,0.149874,20.015123,9.833487,37.454872,-1.755808,9.782338,9.932628,-10.505227,-11.726879,-1.537347,-9.058459,-14.800905,7.758005,-7.467890,-21.138834,-5.934381,-1.943056,7.421875,15.704004,32.784058,8192.000000,0.000000,4.000000,,,,0.000000,4.000000,4.000000,4.000000,4.000000,4.000000,4.000000,4.000000,4.000000,4.000000,4.000000,4.000000,4.000000,4.000000,4.000000,4.000000,4.000000,4.000000,4.000000,4.000000,4.000000,4.000000,4.000000,4.000000,4.000000,4.000000,4.000000,4.000000,4.000000,4.000000,4.000000,4.000000,4.000000,100.000000
1614131199.461669,104.000000,0.000000,6.403844,-2.129085,47.212189,34.023815,64.603729,27.731592,9.992270,18.008196,35.326988,14.136568,30.562914,0.184922,-0.363096,14.354083,11.874935,23.058445,-12.010463,-4.586419,-8.538843,-17.674208,-28.125408,-13.330681,-11.100682,-20.427130,3.134862,-6.434781,-22.143335,-5.415626,4.212734,6.901633,18.765224,30.187170,8064.000000,0.000000,4.000000,,,,0.000000,4.000000,4.000000,4.000000,4.000000,4.000000,4.000000,4.000000,4.000000,4.000000,4.000000,4.000000,4.000000,4.000000,4.000000,4.000000,4.000000,4.000000,4.000000,4.000000,4.000000,4.000000,4.000000,4.000000,4.000000,4.000000,4.000000,4.000000,4.000000,4.000000,4.000000,4.000000,4.000000,100.000000
1614131199.469318,105.000000,0.000000,5.884620,-2.126956,44.600876,32.451328,57.359634,27.191040,9.982277,12.861983,30.676279,7.455765,22.840044,-2.379366,-1.901195,3.057678,10.837420,16.368719,-18.665119,-5.094653,-10.068766,-22.784740,-38.353695,-23.060940,-17.243427,-26.560549,-3.534940,-11.043731,-21.608372,-5.923030,2.670059,4.330629,13.618254,19.900574,8064.000000,0.000000,4.000000,,,,0.000000,4.000000,4.000000,4.000000,4.000000,4.000000,4.000000,4.000000,4.000000,4.000000,4.000000,4.000000,4.000000,4.000000,4.000000,4.000000,4.000000,4.000000,4.000000,4.000000,4.000000,4.000000,4.000000,4.000000,4.000000,4.000000,4.000000,4.000000,4.000000,4.000000,4.000000,4.000000,4.000000,100.000000
1614131199.477067,106.000000,0.000000,5.878736,-2.124829,41.992172,30.367596,52.686890,27.163849,9.459475,11.823481,28.081499,4.884207,20.253101,-4.941089,-3.950576,-1.560765,9.800941,17.377991,-17.107992,-6.115200,-9.545877,-18.659391,-35.751236,-18.422495,-12.610800,-28.072451,0.571159,-9.494226,-23.125225,-5.917107,2.154569,3.300657,13.091815,16.803749,8064.000000,0.000000,4.000000,,,,0.000000,4.000000,4.000000,4.000000,4.000000,4.000000,4.000000,4.000000,4.000000,4.000000,4.000000,4.000000,4.000000,4.000000,4.000000,4.000000,4.000000,4.000000,4.000000,4.000000,4.000000,4.000000,4.000000,4.000000,4.000000,4.000000,4.000000,4.000000,4.000000,4.000000,4.000000,4.000000,4.000000,100.000000
1614131199.484716,107.000000,0.000000,5.872857,-2.122704,45.539921,31.875690,53.147026,27.136684,9.962835,11.811657,29.079060,7.956245,22.284130,-4.936148,-3.433805,-0.020742,10.303960,14.283690,-12.988319,1.583223,1.745721,-3.768936,-18.792410,-1.993816,-0.803318,-23.941814,16.468023,-2.305244,-20.025177,-5.911190,10.870363,6.887100,19.745390,25.504894,8064.000000,0.000000,4.000000,,,,0.000000,4.000000,4.000000,4.000000,4.000000,4.000000,4.000000,4.000000,4.000000,4.000000,4.000000,4.000000,4.000000,4.000000,4.000000,4.000000,4.000000,4.000000,4.000000,4.000000,4.000000,4.000000,4.000000,4.000000,4.000000,4.000000,4.000000,4.000000,4.000000,4.000000,4.000000,4.000000,4.000000,100.000000
1614131199.492564,108.000000,0.000000,5.866984,-2.633402,49.596947,33.382275,53.093876,27.109549,9.440052,12.825486,28.537159,11.538033,23.800308,-1.341468,5.287578,8.184406,17.473143,28.115561,-1.180460,24.145742,26.872179,7.004063,6.354588,13.392794,3.300050,-13.661462,30.297710,1.286805,-8.723101,-5.905279,17.013338,15.598162,24.341028,32.146057,8064.000000,0.000000,4.000000,,,,0.000000,4.000000,4.000000,4.000000,4.000000,4.000000,4.000000,4.000000,4.000000,4.000000,4.000000,4.000000,4.000000,4.000000,4.000000,4.000000,4.000000,4.000000,4.000000,4.000000,4.000000,4.000000,4.000000,4.000000,4.000000,4.000000,4.000000,4.000000,4.000000,4.000000,4.000000,4.000000,4.000000,100.000000
1614131199.500313,109.000000,0.000000,5.861117,-1.605128,48.008888,33.348892,53.553604,27.082439,9.943433,16.915224,28.508621,12.552135,24.802149,2.249617,15.538701,20.483915,26.686440,52.702831,12.666875,38.480572,41.204281,12.125264,21.732849,17.481964,4.835211,1.736815,32.831516,-0.252944,-1.022070,-5.899374,16.483505,22.762051,24.316689,31.088270,8064.000000,0.000000,4.000000,,,,0.000000,4.000000,4.000000,4.000000,4.000000,4.000000,4.000000,4.000000,4.000000,4.000000,4.000000,4.000000,4.000000,4.000000,4.000000,4.000000,4.000000,4.000000,4.000000,4.000000,4.000000,4.000000,4.000000,4.000000,4.000000,4.000000,4.000000,4.000000,4.000000,4.000000,4.000000,4.000000,4.000000,100.000000
1614131199.508162,110.000000,0.000000,5.855256,0.960580,45.909595,32.802723,52.987228,27.055357,9.933489,18.949591,30.531395,12.539583,26.828629,3.273008,15.523162,24.565994,23.582830,47.521923,13.679849,35.877987,41.675900,15.702883,22.223936,14.387560,6.368838,13.529950,32.285862,-0.252691,-3.585150,-5.893474,15.441381,23.252110,24.292372,31.057180,8064.000000,0.000000,4.000000,,,,0.000000,4.000000,4.000000,4.000000,4.000000,4.000000,4.000000,4.000000,4.000000,4.000000,4.000000,4.000000,4.000000,4.000000,4.000000,4.000000,4.000000,4.000000,4.000000,4.000000,4.000000,4.000000,4.000000,4.000000,4.000000,4.000000,4.000000,4.000000,4.000000,4.000000,4.000000,4.000000,4.000000,100.000000
1614131199.515911,111.000000,0.000000,3.798118,1.985260,45.863689,33.282742,52.421421,27.028301,5.820992,16.366539,32.552147,12.014223,27.314621,2.756915,10.892254,19.926044,12.790016,28.500040,5.461041,31.739546,38.044479,10.558974,19.637609,13.860352,1.234264,11.465138,32.766399,0.260382,-2.555924,-5.887581,15.938760,23.741678,26.832182,32.051765,8064.000000,0.000000,4.000000,,,,0.000000,4.000000,4.000000,4.000000,4.000000,4.000000,4.000000,4.000000,4.000000,4.000000,4.000000,4.000000,4.000000,4.000000,4.000000,4.000000,4.000000,4.000000,4.000000,4.000000,4.000000,4.000000,4.000000,4.000000,4.000000,4.000000,4.000000,4.000000,4.000000,4.000000,4.000000,4.000000,4.000000,100.000000
1614131199.523760,112.000000,0.000000,2.255859,1.470455,46.330643,33.249458,56.984386,27.001272,1.712607,15.324532,32.006775,12.515030,26.774485,3.266978,8.317260,18.880478,9.187483,35.138206,-2.749548,30.169346,29.801306,1.830467,18.592331,13.333671,-4.920817,-0.854019,32.733631,-0.252699,-1.527727,-5.881693,16.948462,24.230757,28.343811,32.019714,8064.000000,0.000000,4.000000,,,,0.000000,4.000000,4.000000,4.000000,4.000000,4.000000,4.000000,4.000000,4.000000,4.000000,4.000000,4.000000,4.000000,4.000000,4.000000,4.000000,4.000000,4.000000,4.000000,4.000000,4.000000,4.000000,4.000000,4.000000,4.000000,4.000000,4.000000,4.000000,4.000000,4.000000,4.000000,4.000000,4.000000,100.000000
1614131199.531508,113.000000,0.000000,1.740782,1.468984,47.309956,33.216209,63.594067,26.974272,1.710894,16.334848,32.487587,12.502515,26.747711,3.263711,3.693558,20.400059,10.716757,38.179993,-11.464747,29.113535,25.156120,0.290175,19.599380,12.807517,-6.454358,-8.545473,31.675257,-0.252446,-10.756968,-5.362991,14.880231,18.565500,27.802647,31.987694,8064.000000,0.000000,4.000000,,,,0.000000,4.000000,4.000000,4.000000,4.000000,4.000000,4.000000,4.000000,4.000000,4.000000,4.000000,4.000000,4.000000,4.000000,4.000000,4.000000,4.000000,4.000000,4.000000,4.000000,4.000000,4.000000,4.000000,4.000000,4.000000,4.000000,4.000000,4.000000,4.000000,4.000000,4.000000,4.000000,4.000000,100.000000
1614131199.539357,114.000000,0.000000,2.251862,1.467515,49.313927,33.182995,65.068932,26.947296,2.222003,15.292872,32.967918,11.977192,26.720963,1.209166,-3.489623,18.328377,9.680399,22.244377,-18.119949,29.084421,31.284811,0.289885,15.990037,12.281889,-10.037646,-8.536927,24.464094,-0.252193,-21.515442,-5.870449,6.147402,12.393088,27.774843,31.442884,8064.000000,0.000000,4.000000,,,,0.000000,4.000000,4.000000,4.000000,4.000000,4.000000,4.000000,4.000000,4.000000,4.000000,4.000000,4.000000,4.000000,4.000000,4.000000,4.000000,4.000000,4.000000,4.000000,4.000000,4.000000,4.000000,4.000000,4.000000,4.000000,4.000000,4.000000,4.000000,4.000000,4.000000,4.000000,4.000000,4.000000,100.000000
1614131199.547106,115.000000,0.000000,2.249610,1.466048,49.264614,32.636990,64.491043,26.920349,1.706961,16.303221,31.396490,12.478035,26.181421,-0.843326,-3.998954,18.822868,10.183539,27.350338,-19.127470,25.978415,26.638142,-2.274508,-1.974671,1.500376,-13.617352,-11.605313,9.567835,-0.251941,-23.032389,-7.915860,-0.012591,11.355054,27.747068,31.411442,8064.000000,0.000000,4.000000,,,,0.000000,4.000000,4.000000,4.000000,4.000000,4.000000,4.000000,4.000000,4.000000,4.000000,4.000000,4.000000,4.000000,4.000000,4.000000,4.000000,4.000000,4.000000,4.000000,4.000000,4.000000,4.000000,4.000000,4.000000,4.000000,4.000000,4.000000,4.000000,4.000000,4.000000,4.000000,4.000000,4.000000,100.000000
1614131199.554955,116.000000,0.000000,1.734540,1.464582,49.215347,32.604355,66.477837,26.893429,3.756536,21.415123,34.954838,16.055300,26.155241,-1.355303,0.620429,26.496353,12.737458,48.348629,-16.031420,18.772947,0.457657,-4.323515,-25.049620,-14.911381,-13.603735,-17.747555,0.840319,-0.764510,-21.470894,-9.446405,0.500242,10.318058,27.719322,31.380032,8064.000000,0.000000,4.000000,,,,0.000000,4.000000,4.000000,4.000000,4.000000,4.000000,4.000000,4.000000,4.000000,4.000000,4.000000,4.000000,4.000000,4.000000,4.000000,4.000000,4.000000,4.000000,4.000000,4.000000,4.000000,4.000000,4.000000,4.000000,4.000000,4.000000,4.000000,4.000000,4.000000,4.000000,4.000000,4.000000,4.000000,100.000000
1614131199.562704,117.000000,0.000000,2.758447,1.463117,50.191772,33.597389,69.488281,26.866535,6.316882,23.957809,42.612190,20.654631,26.641905,-0.841127,4.209553,30.572420,13.750361,44.710537,-13.964107,15.677252,-15.440237,-7.908935,-35.793800,-22.588778,-13.590132,-23.370832,0.839478,-0.250925,-22.475065,-9.436959,1.012562,7.743638,28.204422,29.297369,8064.000000,0.000000,4.000000,,,,0.000000,4.000000,4.000000,4.000000,4.000000,4.000000,4.000000,4.000000,4.000000,4.000000,4.000000,4.000000,4.000000,4.000000,4.000000,4.000000,4.000000,4.000000,4.000000,4.000000,4.000000,4.000000,4.000000,4.000000,4.000000,4.000000,4.000000,4.000000,4.000000,4.000000,4.000000,4.000000,4.000000,100.000000
1614131199.570552,118.000000,0.000000,5.319791,1.461654,47.577480,32.025330,66.854691,26.839670,5.797745,22.908211,42.569580,19.608334,26.102444,-0.840286,3.692523,21.823900,13.736611,30.819672,-14.462963,18.225677,3.036742,-9.439487,-35.245186,-22.053368,-10.499619,-27.962847,-1.725464,-0.763494,-21.939770,-9.427523,-0.014092,6.710253,26.124937,23.114225,8064.000000,0.000000,4.000000,,,,0.000000,4.000000,4.000000,4.000000,4.000000,4.000000,4.000000,4.000000,4.000000,4.000000,4.000000,4.000000,4.000000,4.000000,4.000000,4.000000,4.000000,4.000000,4.000000,4.000000,4.000000,4.000000,4.000000,4.000000,4.000000,4.000000,4.000000,4.000000,4.000000,4.000000,4.000000,4.000000,4.000000,100.000000
1614131199.578301,119.000000,0.000000,6.340112,1.460192,46.504261,28.916382,59.095528,26.812830,5.791947,22.885303,36.373161,15.998982,26.076340,-1.352266,3.176009,14.109768,14.748516,33.352955,-9.320295,21.797195,22.008064,-2.763382,-25.466351,-16.390289,-6.386555,-25.883602,-3.262200,-1.275551,-21.917830,-9.418095,0.498743,7.729184,21.996248,20.014189,8064.000000,0.000000,4.000000,,,,0.000000,4.000000,4.000000,4.000000,4.000000,4.000000,4.000000,4.000000,4.000000,4.000000,4.000000,4.000000,4.000000,4.000000,4.000000,4.000000,4.000000,4.000000,4.000000,4.000000,4.000000,4.000000,4.000000,4.000000,4.000000,4.000000,4.000000,4.000000,4.000000,4.000000,4.000000,4.000000,4.000000,100.000000
1614131199.585950,120.000000,0.000000,5.820951,1.458732,47.996220,29.400286,56.472332,26.786016,5.786155,23.375238,35.311150,18.547087,29.640007,0.187548,7.788218,18.711042,16.785049,39.473446,2.483897,25.877962,23.011698,7.495792,-10.056270,-2.527745,-5.354527,-20.729513,3.920549,0.264186,-21.895912,-9.408677,1.011065,8.234275,19.922970,19.994173,8064.000000,0.000000,4.000000,,,,0.000000,4.000000,4.000000,4.000000,4.000000,4.000000,4.000000,4.000000,4.000000,4.000000,4.000000,4.000000,4.000000,4.000000,4.000000,4.000000,4.000000,4.000000,4.000000,4.000000,4.000000,4.000000,4.000000,4.000000,4.000000,4.000000,4.000000,4.000000,4.000000,4.000000,4.000000,4.000000,4.000000,100.000000
1614131199.593699,121.000000,0.000000,5.815130,1.457273,47.948223,32.447811,62.569706,26.759232,5.780369,23.351864,39.378403,25.708027,36.277035,6.341206,17.524019,26.384640,23.434931,43.536537,9.148080,33.031570,33.245094,18.770348,-0.302623,12.346578,-1.246608,-16.606218,11.096116,3.853665,-17.258631,-9.399268,-0.015587,6.687579,19.903046,19.461359,8064.000000,0.000000,4.000000,,,,0.000000,4.000000,4.000000,4.000000,4.000000,4.000000,4.000000,4.000000,4.000000,4.000000,4.000000,4.000000,4.000000,4.000000,4.000000,4.000000,4.000000,4.000000,4.000000,4.000000,4.000000,4.000000,4.000000,4.000000,4.000000,4.000000,4.000000,4.000000,4.000000,4.000000,4.000000,4.000000,4.000000,100.000000
1614131199.601348,122.000000,0.000000,5.809315,1.455816,45.336170,29.851259,60.968674,25.194010,5.774589,23.328510,38.826202,27.733601,38.804859,10.437429,22.634701,30.460819,30.590982,49.134026,9.138932,38.126743,48.596466,21.315680,0.723320,16.949615,5.421305,-7.358844,15.700404,7.439555,-10.574706,-9.389869,3.061351,9.244994,19.883142,19.954718,8192.000000,0.000000,4.000000,,,,0.000000,4.000000,4.000000,4.000000,4.000000,4.000000,4.000000,4.000000,4.000000,4.000000,4.000000,4.000000,4.000000,4.000000,4.000000,4.000000,4.000000,4.000000,4.000000,4.000000,4.000000,4.000000,4.000000,4.000000,4.000000,4.000000,4.000000,4.000000,4.000000,4.000000,4.000000,4.000000,4.000000,100.000000
1614131199.609197,123.000000,0.000000,5.803506,1.454360,44.778015,25.206022,52.189754,23.117535,5.768814,21.766722,35.710453,24.116123,36.201954,8.888530,21.073605,29.917538,26.457829,50.623356,8.616972,37.062977,36.240177,8.473851,0.209776,16.419846,6.441525,5.469028,23.889832,13.585961,-9.025669,-9.380479,11.263418,19.492159,22.427362,24.550148,8064.000000,0.000000,4.000000,,,,0.000000,4.000000,4.000000,4.000000,4.000000,4.000000,4.000000,4.000000,4.000000,4.000000,4.000000,4.000000,4.000000,4.000000,4.000000,4.000000,4.000000,4.000000,4.000000,4.000000,4.000000,4.000000,4.000000,4.000000,4.000000,4.000000,4.000000,4.000000,4.000000,4.000000,4.000000,4.000000,4.000000,100.000000
1614131199.616946,124.000000,0.000000,6.310523,1.452906,45.758877,24.667997,53.163208,22.581596,5.763045,19.693672,35.161922,22.553545,34.114468,7.341180,17.975607,26.297876,13.610858,51.085552,7.582715,34.974632,29.024450,2.311531,-0.303254,16.916246,5.922263,8.027661,28.994148,18.700581,-10.042285,-9.371099,16.380360,26.652155,26.507500,28.115341,8064.000000,0.000000,4.000000,,,,0.000000,4.000000,4.000000,4.000000,4.000000,4.000000,4.000000,4.000000,4.000000,4.000000,4.000000,4.000000,4.000000,4.000000,4.000000,4.000000,4.000000,4.000000,4.000000,4.000000,4.000000,4.000000,4.000000,4.000000,4.000000,4.000000,4.000000,4.000000,4.000000,4.000000,4.000000,4.000000,4.000000,100.000000
1614131199.624695,125.000000,0.000000,4.252930,1.451453,45.200298,25.668970,57.725430,23.071835,5.757282,19.161158,35.639580,23.556633,34.080353,5.795377,13.855068,23.194656,8.981862,48.470364,5.011029,37.503761,51.046707,13.078450,0.722690,17.412151,6.941981,5.968352,29.477974,18.681881,-10.032243,-9.361728,16.363979,27.651144,28.019453,27.574406,8064.000000,0.000000,4.000000,,,,0.000000,4.000000,4.000000,4.000000,4.000000,4.000000,4.000000,4.000000,4.000000,4.000000,4.000000,4.000000,4.000000,4.000000,4.000000,4.000000,4.000000,4.000000,4.000000,4.000000,4.000000,4.000000,4.000000,4.000000,4.000000,4.000000,4.000000,4.000000,4.000000,4.000000,4.000000,4.000000,4.000000,100.000000
1614131199.632444,126.000000,0.000000,2.197395,1.450002,45.155098,25.130480,54.590778,22.535942,5.751525,15.552254,35.603943,23.020256,33.020634,2.199838,8.713008,19.068897,10.511342,34.575741,3.980377,30.286770,46.893097,9.988449,-0.303673,11.753713,2.319655,8.013665,28.422855,18.663198,-9.509390,-9.352365,15.834795,27.623491,27.991434,27.546831,8064.000000,0.000000,4.000000,,,,0.000000,4.000000,4.000000,4.000000,4.000000,4.000000,4.000000,4.000000,4.000000,4.000000,4.000000,4.000000,4.000000,4.000000,4.000000,4.000000,4.000000,4.000000,4.000000,4.000000,4.000000,4.000000,4.000000,4.000000,4.000000,4.000000,4.000000,4.000000,4.000000,4.000000,4.000000,4.000000,4.000000,100.000000
1614131199.640293,127.000000,0.000000,2.195198,1.448552,45.109943,25.618170,54.023369,23.026226,5.745773,11.434137,35.055515,22.484415,30.423510,-1.392105,6.653013,11.870340,5.372625,19.156548,1.925115,4.102636,14.538511,-10.021540,-14.662344,-0.052913,-1.785229,1.338985,19.676483,17.106073,-11.038342,-9.343014,15.306140,22.980484,27.963442,28.544926,8064.000000,0.000000,4.000000,,,,0.000000,4.000000,4.000000,4.000000,4.000000,4.000000,4.000000,4.000000,4.000000,4.000000,4.000000,4.000000,4.000000,4.000000,4.000000,4.000000,4.000000,4.000000,4.000000,4.000000,4.000000,4.000000,4.000000,4.000000,4.000000,4.000000,4.000000,4.000000,4.000000,4.000000,4.000000,4.000000,4.000000,100.000000
1614131199.648042,0.000000,0.000000,1.680182,1.447103,45.064835,24.566912,56.533447,23.003201,5.740027,13.986805,35.533283,22.974751,28.854624,-1.390713,6.133539,5.704624,2.290330,12.983545,0.384728,-14.363005,1.190639,-16.678185,-33.109219,-11.334911,-1.270623,-14.046969,7.349115,7.345378,-16.155508,-9.333671,10.675449,10.649811,27.935478,28.516380,0.000000,217.000000,4.000000,,,,0.000000,4.000000,4.000000,4.000000,4.000000,4.000000,4.000000,4.000000,4.000000,4.000000,4.000000,4.000000,4.000000,4.000000,4.000000,4.000000,4.000000,4.000000,4.000000,4.000000,4.000000,4.000000,4.000000,4.000000,4.000000,4.000000,4.000000,4.000000,4.000000,4.000000,4.000000,4.000000,4.000000,100.000000
1614131199.655891,1.000000,0.000000,1.678502,1.445656,45.532589,26.080805,55.451275,22.467377,5.734287,18.588203,35.497749,22.951777,29.338591,-1.389322,7.153047,6.211740,6.390604,17.073126,-0.128477,-1.528129,20.676628,-12.046122,-37.691494,-15.938961,-6.910378,-21.212410,4.264843,-0.867096,-21.267559,-9.324337,3.485286,6.536597,27.907543,27.975044,0.000000,177.000000,4.000000,,,,0.000000,4.000000,4.000000,4.000000,4.000000,4.000000,4.000000,4.000000,4.000000,4.000000,4.000000,4.000000,4.000000,4.000000,4.000000,4.000000,4.000000,4.000000,4.000000,4.000000,4.000000,4.000000,4.000000,4.000000,4.000000,4.000000,4.000000,4.000000,4.000000,4.000000,4.000000,4.000000,4.000000,100.000000
1614131199.663640,2.000000,0.000000,2.702465,1.444210,45.487057,31.182930,59.498386,23.983372,5.728553,18.569614,35.462250,22.928823,29.822073,-1.900753,7.145894,9.282452,9.973956,28.850925,0.384472,17.447758,26.809797,-11.521255,-32.525600,-14.384560,-13.570134,-21.191196,5.799039,-1.891870,-22.271933,-9.315012,0.404878,10.119804,26.853994,28.459888,0.000000,191.000000,4.000000,,,,0.000000,4.000000,4.000000,4.000000,4.000000,4.000000,4.000000,4.000000,4.000000,4.000000,4.000000,4.000000,4.000000,4.000000,4.000000,4.000000,4.000000,4.000000,4.000000,4.000000,4.000000,4.000000,4.000000,4.000000,4.000000,4.000000,4.000000,4.000000,4.000000,4.000000,4.000000,4.000000,4.000000,100.000000
1614131199.671488,3.000000,0.000000,-0.889981,1.442766,44.928749,31.664568,66.618378,26.010670,5.722825,19.063866,35.426788,22.905895,29.279430,-0.873212,5.600286,9.273169,12.528085,37.540024,0.896908,13.840567,20.629141,-9.458452,-30.954613,-14.882996,-11.505282,-20.657185,4.767599,0.674125,-21.224018,-9.305697,0.917294,2.930197,23.750217,25.867327,0.000000,181.000000,4.000000,,,,0.000000,4.000000,4.000000,4.000000,4.000000,4.000000,4.000000,4.000000,4.000000,4.000000,4.000000,4.000000,4.000000,4.000000,4.000000,4.000000,4.000000,4.000000,4.000000,4.000000,4.000000,4.000000,4.000000,4.000000,4.000000,4.000000,4.000000,4.000000,4.000000,4.000000,4.000000,4.000000,4.000000,100.000000
1614131199.679237,4.000000,0.000000,-4.991655,1.441323,45.396641,29.581621,65.526115,26.497480,5.717102,21.096085,35.391361,22.882990,28.737329,0.666123,11.235712,13.879280,18.156582,39.040943,-0.642451,7.160059,19.582870,-8.423352,-32.462120,-16.919395,-8.929674,-20.123707,5.275652,-2.403472,-21.202795,-9.296391,-0.622085,-13.482989,18.085442,15.072228,0.000000,216.000000,4.000000,,,,0.000000,4.000000,4.000000,4.000000,4.000000,4.000000,4.000000,4.000000,4.000000,4.000000,4.000000,4.000000,4.000000,4.000000,4.000000,4.000000,4.000000,4.000000,4.000000,4.000000,4.000000,4.000000,4.000000,4.000000,4.000000,4.000000,4.000000,4.000000,4.000000,4.000000,4.000000,4.000000,4.000000,100.000000
1614131199.687086,5.000000,0.000000,-0.371279,1.439882,45.864063,29.039219,63.922127,25.958162,5.711385,23.126270,35.355972,22.860107,33.836796,3.229560,25.583450,28.737196,24.292273,46.181389,3.460756,19.460592,25.204313,-4.312365,-27.301451,-5.620424,-8.920745,-23.180508,5.270376,-11.119018,-22.720053,-9.287095,-3.185566,-19.623352,11.400690,4.287926,0.000000,209.000000,4.000000,,,,0.000000,4.000000,4.000000,4.000000,4.000000,4.000000,4.000000,4.000000,4.000000,4.000000,4.000000,4.000000,4.000000,4.000000,4.000000,4.000000,4.000000,4.000000,4.000000,4.000000,4.000000,4.000000,4.000000,4.000000,4.000000,4.000000,4.000000,4.000000,4.000000,4.000000,4.000000,4.000000,4.000000,100.000000
1614131199.694835,6.000000,0.000000,5.782938,1.438442,42.741276,25.420437,63.345387,26.957844,5.705673,26.692888,35.320614,22.837246,42.008087,8.867355,31.711714,38.964870,31.447468,55.878799,15.252167,33.800106,43.640648,15.691947,-2.658765,19.000580,-1.732337,-22.131685,5.265106,-15.210463,-20.133230,-9.277808,-3.182380,-16.013985,8.312366,1.206715,0.000000,183.000000,4.000000,,,,0.000000,4.000000,4.000000,4.000000,4.000000,4.000000,4.000000,4.000000,4.000000,4.000000,4.000000,4.000000,4.000000,4.000000,4.000000,4.000000,4.000000,4.000000,4.000000,4.000000,4.000000,4.000000,4.000000,4.000000,4.000000,4.000000,4.000000,4.000000,4.000000,4.000000,4.000000,4.000000,4.000000,100.000000
1614131199.702683,7.000000,0.000000,6.289976,1.437004,38.083153,18.215528,57.128193,24.879604,5.699968,30.768759,35.285294,22.814409,45.555824,13.986693,29.115898,37.387444,41.672428,58.387024,23.954863,39.407330,67.186752,38.240356,27.600304,35.391838,8.012985,-6.724938,11.413687,-9.554227,-12.420790,-9.781351,-3.179198,-11.895408,8.816875,1.718328,0.000000,186.000000,4.000000,,,,0.000000,4.000000,4.000000,4.000000,4.000000,4.000000,4.000000,4.000000,4.000000,4.000000,4.000000,4.000000,4.000000,4.000000,4.000000,4.000000,4.000000,4.000000,4.000000,4.000000,4.000000,4.000000,4.000000,4.000000,4.000000,4.000000,4.000000,4.000000,4.000000,4.000000,4.000000,4.000000,4.000000,100.000000
1614131199.710432,8.000000,0.000000,5.258045,0.922746,37.019428,17.171671,52.455681,22.290623,5.694268,30.225170,35.250008,23.304415,44.997448,14.485527,31.138065,38.375698,45.733322,61.918381,24.956549,47.060230,74.299049,43.330322,34.239368,36.382084,11.081895,6.615120,17.043299,-4.416467,-5.741703,-9.258749,-3.176018,-8.293769,8.295237,1.203790,0.000000,197.000000,4.000000,,,,0.000000,4.000000,4.000000,4.000000,4.000000,4.000000,4.000000,4.000000,4.000000,4.000000,4.000000,4.000000,4.000000,4.000000,4.000000,4.000000,4.000000,4.000000,4.000000,4.000000,4.000000,4.000000,4.000000,4.000000,4.000000,4.000000,4.000000,4.000000,4.000000,4.000000,4.000000,4.000000,4.000000,100.000000
1614131199.718281,9.000000,0.000000,6.278428,1.947464,37.495228,18.180141,57.531429,24.832434,5.688573,29.682123,35.214760,22.255470,43.926811,14.471042,30.081285,36.798859,36.456818,55.189793,20.316208,44.961887,59.352959,32.004940,19.333336,30.704678,9.532351,7.121325,15.487794,-3.899230,-5.735961,-5.659747,0.929722,-4.182910,9.312583,2.228227,0.000000,174.000000,4.000000,,,,0.000000,4.000000,4.000000,4.000000,4.000000,4.000000,4.000000,4.000000,4.000000,4.000000,4.000000,4.000000,4.000000,4.000000,4.000000,4.000000,4.000000,4.000000,4.000000,4.000000,4.000000,4.000000,4.000000,4.000000,4.000000,4.000000,4.000000,4.000000,4.000000,4.000000,4.000000,4.000000,4.000000,100.000000
1614131199.726130,10.000000,0.000000,6.272149,3.996799,37.457733,17.649141,60.550823,29.422987,5.682885,30.678083,35.179543,18.130650,36.703396,10.866827,14.666589,17.274881,18.984465,28.980759,7.475379,18.763081,35.191040,12.998577,8.031951,19.391922,3.881794,6.601384,13.933845,-3.895331,-6.755866,-2.064343,6.569818,-1.614625,14.431476,6.841383,0.000000,184.000000,4.000000,,,,0.000000,4.000000,4.000000,4.000000,4.000000,4.000000,4.000000,4.000000,4.000000,4.000000,4.000000,4.000000,4.000000,4.000000,4.000000,4.000000,4.000000,4.000000,4.000000,4.000000,4.000000,4.000000,4.000000,4.000000,4.000000,4.000000,4.000000,4.000000,4.000000,4.000000,4.000000,4.000000,4.000000,100.000000
1614131199.733879,11.000000,0.000000,5.753057,5.531264,37.420277,19.169952,54.849247,30.419205,5.677202,28.083302,35.144363,15.035597,25.897461,4.702114,1.831410,-4.280856,7.170609,15.105623,-2.788506,1.308421,19.258413,-3.424678,0.331611,6.552017,-0.737473,4.543500,11.868629,-3.378615,-5.723469,-1.549459,8.614530,0.951092,16.981146,9.398644,0.000000,177.000000,4.000000,,,,0.000000,4.000000,4.000000,4.000000,4.000000,4.000000,4.000000,4.000000,4.000000,4.000000,4.000000,4.000000,4.000000,4.000000,4.000000,4.000000,4.000000,4.000000,4.000000,4.000000,4.000000,4.000000,4.000000,4.000000,4.000000,4.000000,4.000000,4.000000,4.000000,4.000000,4.000000,4.000000,4.000000,100.000000
1614131199.741728,12.000000,0.000000,5.747303,5.012912,36.870033,21.714886,50.691833,29.363144,5.671525,21.388552,35.109219,15.020561,21.256180,2.133309,2.342399,-9.404780,5.624976,21.757185,-3.298538,8.486599,17.700693,-8.036637,-12.489233,0.904440,-1.762376,-5.717453,4.164453,-3.375237,-6.230566,-2.060730,8.605915,0.950141,16.451345,9.389246,0.000000,202.000000,4.000000,,,,0.000000,4.000000,4.000000,4.000000,4.000000,4.000000,4.000000,4.000000,4.000000,4.000000,4.000000,4.000000,4.000000,4.000000,4.000000,4.000000,4.000000,4.000000,4.000000,4.000000,4.000000,4.000000,4.000000,4.000000,4.000000,4.000000,4.000000,4.000000,4.000000,4.000000,4.000000,4.000000,4.000000,100.000000
1614131199.749477,13.000000,0.000000,5.741556,5.007899,37.858807,21.693171,51.666782,29.846601,5.665853,17.777420,35.074112,15.518361,21.234922,2.131176,3.365697,-7.856914,4.593710,19.684145,-3.808060,5.401190,18.195814,-8.028601,-21.194693,-1.660568,-4.324717,-12.891223,-1.993558,-3.884682,-8.788438,-2.058669,9.110130,-1.614912,16.434893,9.379857,0.000000,201.000000,4.000000,,,,0.000000,4.000000,4.000000,4.000000,4.000000,4.000000,4.000000,4.000000,4.000000,4.000000,4.000000,4.000000,4.000000,4.000000,4.000000,4.000000,4.000000,4.000000,4.000000,4.000000,4.000000,4.000000,4.000000,4.000000,4.000000,4.000000,4.000000,4.000000,4.000000,4.000000,4.000000,4.000000,4.000000,100.000000
1614131199.757326,14.000000,0.000000,6.248635,5.002891,39.872231,21.671478,52.127934,29.816755,5.660187,18.785284,35.039036,14.477201,21.213688,0.077763,1.823870,-9.900339,3.050655,14.023436,-6.881175,-4.347801,16.126335,-8.020573,-21.173498,-3.710189,-9.448597,-12.878332,0.059718,-3.880797,-10.318111,-1.543790,6.024096,-2.638938,16.931278,8.857656,0.000000,209.000000,4.000000,,,,0.000000,4.000000,4.000000,4.000000,4.000000,4.000000,4.000000,4.000000,4.000000,4.000000,4.000000,4.000000,4.000000,4.000000,4.000000,4.000000,4.000000,4.000000,4.000000,4.000000,4.000000,4.000000,4.000000,4.000000,4.000000,4.000000,4.000000,4.000000,4.000000,4.000000,4.000000,4.000000,4.000000,100.000000
1614131199.765075,15.000000,0.000000,5.729566,4.997889,40.857998,21.649807,51.050167,29.786938,5.654527,17.740856,35.003998,14.975545,20.679653,-1.460776,3.873328,-3.223772,9.714271,27.342745,-7.387115,10.528341,20.725594,-5.448450,-19.613863,-3.706479,-9.951968,-12.352633,2.110940,-3.876916,-10.307794,-2.055066,1.402688,-3.149119,16.914347,10.387260,0.000000,196.000000,4.000000,,,,0.000000,4.000000,4.000000,4.000000,4.000000,4.000000,4.000000,4.000000,4.000000,4.000000,4.000000,4.000000,4.000000,4.000000,4.000000,4.000000,4.000000,4.000000,4.000000,4.000000,4.000000,4.000000,4.000000,4.000000,4.000000,4.000000,4.000000,4.000000,4.000000,4.000000,4.000000,4.000000,4.000000,100.000000
1614131199.772924,16.000000,0.000000,5.723836,4.992890,41.329960,21.115335,51.511936,29.757151,6.161693,18.235937,34.968994,17.011852,23.735897,-0.946495,6.433558,12.676888,18.422506,43.212837,-6.354086,29.492172,27.371534,-3.391719,-20.619890,-3.702772,-8.916376,-12.340281,0.570368,-4.385860,-9.271844,-2.053011,0.375644,-2.633150,16.384613,14.992257,0.000000,194.000000,4.000000,,,,0.000000,4.000000,4.000000,4.000000,4.000000,4.000000,4.000000,4.000000,4.000000,4.000000,4.000000,4.000000,4.000000,4.000000,4.000000,4.000000,4.000000,4.000000,4.000000,4.000000,4.000000,4.000000,4.000000,4.000000,4.000000,4.000000,4.000000,4.000000,4.000000,4.000000,4.000000,4.000000,4.000000,100.000000
1614131199.780672,17.000000,0.000000,6.230933,4.987897,43.852734,22.119862,54.537346,29.727394,5.129890,22.833086,34.934025,19.558943,31.917290,-1.458369,8.991226,25.484724,20.968185,43.169624,-6.860553,21.257551,26.318523,-3.388327,-25.727474,-3.186249,-8.907459,-16.430504,1.595438,-4.381474,-11.826675,-2.050958,0.888089,0.959227,15.855408,17.028547,0.000000,182.000000,4.000000,,,,0.000000,4.000000,4.000000,4.000000,4.000000,4.000000,4.000000,4.000000,4.000000,4.000000,4.000000,4.000000,4.000000,4.000000,4.000000,4.000000,4.000000,4.000000,4.000000,4.000000,4.000000,4.000000,4.000000,4.000000,4.000000,4.000000,4.000000,4.000000,4.000000,4.000000,4.000000,4.000000,4.000000,100.000000
1614131199.788521,18.000000,0.000000,3.147779,4.982910,45.347340,24.149023,58.072556,29.697666,6.150402,26.399996,34.899090,21.590666,38.552040,0.594371,19.751467,28.536161,25.562601,41.075172,-5.828051,8.415781,23.215281,-3.384939,-25.701748,-2.670242,-8.898552,-25.132023,2.106663,-3.351452,-16.943054,-2.048907,0.374380,-2.631476,16.352373,15.473057,0.000000,215.000000,4.000000,,,,0.000000,4.000000,4.000000,4.000000,4.000000,4.000000,4.000000,4.000000,4.000000,4.000000,4.000000,4.000000,4.000000,4.000000,4.000000,4.000000,4.000000,4.000000,4.000000,4.000000,4.000000,4.000000,4.000000,4.000000,4.000000,4.000000,4.000000,4.000000,4.000000,4.000000,4.000000,4.000000,4.000000,100.000000
1614131199.796270,19.000000,0.000000,-1.470753,4.977927,44.789173,25.150517,59.040123,29.155149,9.221174,26.373596,34.864193,23.107536,40.564770,3.157880,30.500946,31.584549,35.280628,50.264870,-3.770941,14.561212,20.627964,-2.868733,-16.445276,-4.206034,-9.402473,-26.645351,0.566095,-6.425024,-21.028675,-2.046858,-0.138814,-8.782691,14.284739,16.483225,0.000000,205.000000,4.000000,,,,0.000000,4.000000,4.000000,4.000000,4.000000,4.000000,4.000000,4.000000,4.000000,4.000000,4.000000,4.000000,4.000000,4.000000,4.000000,4.000000,4.000000,4.000000,4.000000,4.000000,4.000000,4.000000,4.000000,4.000000,4.000000,4.000000,4.000000,4.000000,4.000000,4.000000,4.000000,4.000000,4.000000,100.000000
1614131199.804119,20.000000,0.000000,-1.982103,3.434487,44.744385,25.125364,58.981083,29.638815,7.160671,25.834402,34.829327,22.571608,41.037025,1.616260,25.855061,36.681171,35.245350,55.855629,-2.228709,24.290239,23.684258,-3.891506,-6.172421,-0.612084,-9.393071,-22.516142,6.719375,-7.957060,-22.546108,-2.044811,0.374145,-1.594421,11.706351,15.953921,0.000000,187.000000,4.000000,,,,0.000000,4.000000,4.000000,4.000000,4.000000,4.000000,4.000000,4.000000,4.000000,4.000000,4.000000,4.000000,4.000000,4.000000,4.000000,4.000000,4.000000,4.000000,4.000000,4.000000,4.000000,4.000000,4.000000,4.000000,4.000000,4.000000,4.000000,4.000000,4.000000,4.000000,4.000000,4.000000,4.000000,100.000000
1614131199.811868,21.000000,0.000000,-1.980121,0.866950,44.699638,24.587420,58.922100,30.121996,2.025305,26.321388,35.307320,23.061857,40.995987,-0.436638,14.034333,29.465002,23.928051,41.440800,-2.739300,24.778770,41.096470,-3.887614,5.115803,11.183400,-6.306755,-19.416704,17.994707,-1.795257,-20.985100,-2.042767,1.399412,9.176404,13.233107,15.937967,0.000000,193.000000,4.000000,,,,0.000000,4.000000,4.000000,4.000000,4.000000,4.000000,4.000000,4.000000,4.000000,4.000000,4.000000,4.000000,4.000000,4.000000,4.000000,4.000000,4.000000,4.000000,4.000000,4.000000,4.000000,4.000000,4.000000,4.000000,4.000000,4.000000,4.000000,4.000000,4.000000,4.000000,4.000000,4.000000,4.000000,100.000000
1614131199.819716,22.000000,0.000000,-0.952500,1.378904,44.654942,26.101294,58.863178,29.066233,3.561742,26.807886,34.246368,23.551615,36.852428,1.102260,9.917735,11.999639,16.724636,24.476282,-2.736561,23.728352,50.798965,-2.858086,14.854277,17.326063,-5.274807,-11.192159,22.079277,5.386026,-15.835910,-2.040724,0.885192,12.756971,18.348078,23.101517,0.000000,192.000000,4.000000,,,,0.000000,4.000000,4.000000,4.000000,4.000000,4.000000,4.000000,4.000000,4.000000,4.000000,4.000000,4.000000,4.000000,4.000000,4.000000,4.000000,4.000000,4.000000,4.000000,4.000000,4.000000,4.000000,4.000000,4.000000,4.000000,4.000000,4.000000,4.000000,4.000000,4.000000,4.000000,4.000000,4.000000,100.000000
1614131199.827465,23.000000,0.000000,3.151017,3.941628,45.123104,30.690577,58.804317,30.062807,8.686385,24.729797,34.724945,18.912680,29.636087,3.152440,11.446279,1.218408,15.682271,28.554369,-2.221004,24.217443,32.286629,-3.880868,7.147115,15.770275,-5.782353,-1.950197,20.005915,7.944742,-13.768791,-2.038683,4.474051,21.462164,22.945114,32.822006,0.000000,202.000000,4.000000,,,,0.000000,4.000000,4.000000,4.000000,4.000000,4.000000,4.000000,4.000000,4.000000,4.000000,4.000000,4.000000,4.000000,4.000000,4.000000,4.000000,4.000000,4.000000,4.000000,4.000000,4.000000,4.000000,4.000000,4.000000,4.000000,4.000000,4.000000,4.000000,4.000000,4.000000,4.000000,4.000000,4.000000,100.000000
1614131199.835314,24.000000,0.000000,6.224789,4.963327,43.026699,33.223988,58.232693,33.109669,9.703340,22.653786,35.203041,14.278382,28.067991,2.636467,10.409191,1.730011,17.717871,39.807865,-2.731604,24.706045,21.997931,-3.876988,-4.142084,15.241684,0.890096,-0.922606,19.985909,11.526541,-13.755023,0.527458,18.315729,30.671471,25.999092,37.404568,0.000000,188.000000,4.000000,,,,0.000000,4.000000,4.000000,4.000000,4.000000,4.000000,4.000000,4.000000,4.000000,4.000000,4.000000,4.000000,4.000000,4.000000,4.000000,4.000000,4.000000,4.000000,4.000000,4.000000,4.000000,4.000000,4.000000,4.000000,4.000000,4.000000,4.000000,4.000000,4.000000,4.000000,4.000000,4.000000,4.000000,100.000000
1614131199.843063,25.000000,0.000000,5.705744,5.471184,38.368290,30.113842,57.148819,30.512455,9.180816,22.118311,31.578093,15.289744,28.552744,2.121010,9.885962,3.779562,19.751434,41.819340,-2.728872,24.168520,38.386189,3.306376,2.015904,16.252083,10.119975,1.129599,20.991564,15.104758,-8.100242,2.065392,28.041004,26.025414,28.024376,33.777420,0.000000,204.000000,4.000000,,,,0.000000,4.000000,4.000000,4.000000,4.000000,4.000000,4.000000,4.000000,4.000000,4.000000,4.000000,4.000000,4.000000,4.000000,4.000000,4.000000,4.000000,4.000000,4.000000,4.000000,4.000000,4.000000,4.000000,4.000000,4.000000,4.000000,4.000000,4.000000,4.000000,4.000000,4.000000,4.000000,4.000000,100.000000
1614131199.850911,26.000000,0.000000,5.700038,3.927251,33.714535,23.417061,55.553207,21.763994,9.171635,21.583372,27.443951,13.223173,21.857523,3.144530,10.901716,2.237321,18.706043,40.751881,-2.726143,24.657171,44.501648,10.482557,10.219017,15.723011,10.109855,6.256674,19.944931,14.576833,-1.938296,0.012045,19.295013,18.307081,25.432249,24.000051,0.000000,195.000000,4.000000,,,,0.000000,4.000000,4.000000,4.000000,4.000000,4.000000,4.000000,4.000000,4.000000,4.000000,4.000000,4.000000,4.000000,4.000000,4.000000,4.000000,4.000000,4.000000,4.000000,4.000000,4.000000,4.000000,4.000000,4.000000,4.000000,4.000000,4.000000,4.000000,4.000000,4.000000,4.000000,4.000000,4.000000,100.000000
1614131199.858660,27.000000,0.000000,5.694338,1.359221,30.091078,18.265438,53.446373,17.639666,7.111181,18.997686,26.390865,7.056104,20.297205,2.628565,9.865173,1.209443,16.636055,40.198307,-2.723417,23.606873,30.098173,9.959254,5.080593,15.194468,5.997181,2.147853,17.873705,14.049436,-3.987639,-2.039249,7.993668,18.801594,17.201689,16.283745,0.000000,180.000000,4.000000,,,,0.000000,4.000000,4.000000,4.000000,4.000000,4.000000,4.000000,4.000000,4.000000,4.000000,4.000000,4.000000,4.000000,4.000000,4.000000,4.000000,4.000000,4.000000,4.000000,4.000000,4.000000,4.000000,4.000000,4.000000,4.000000,4.000000,4.000000,4.000000,4.000000,4.000000,4.000000,4.000000,4.000000,100.000000
1614131199.866509,28.000000,0.000000,5.688643,1.870683,29.035347,16.708712,54.931389,18.134848,5.052788,17.440228,27.390116,15.254176,34.635883,2.625936,12.419411,11.464643,19.183521,42.209393,-2.720694,23.583267,21.862946,6.872372,0.972948,15.692094,5.991184,-5.546602,16.317369,14.548206,-7.060575,-2.037210,6.960033,19.295614,15.133204,15.241819,0.000000,188.000000,4.000000,,,,0.000000,4.000000,4.000000,4.000000,4.000000,4.000000,4.000000,4.000000,4.000000,4.000000,4.000000,4.000000,4.000000,4.000000,4.000000,4.000000,4.000000,4.000000,4.000000,4.000000,4.000000,4.000000,4.000000,4.000000,4.000000,4.000000,4.000000,4.000000,4.000000,4.000000,4.000000,4.000000,4.000000,100.000000
1614131199.874258,29.000000,0.000000,6.195776,4.432915,31.057592,17.204824,61.030300,18.116713,5.560555,18.448427,28.901188,31.649178,47.421761,4.674592,21.124941,31.966000,23.779722,49.859489,-3.230793,29.200708,24.405186,6.865499,1.484795,15.163581,4.959552,-5.541056,15.788232,12.482376,-6.027874,-1.522352,9.004355,18.250677,24.348841,16.252218,0.000000,203.000000,4.000000,,,,0.000000,4.000000,4.000000,4.000000,4.000000,4.000000,4.000000,4.000000,4.000000,4.000000,4.000000,4.000000,4.000000,4.000000,4.000000,4.000000,4.000000,4.000000,4.000000,4.000000,4.000000,4.000000,4.000000,4.000000,4.000000,4.000000,4.000000,4.000000,4.000000,4.000000,4.000000,4.000000,4.000000,100.000000
1614131199.882107,30.000000,0.000000,4.138298,5.454123,33.077816,17.187618,66.097473,18.098597,5.554995,17.917158,30.923569,32.643169,46.348698,6.721200,25.206379,39.626343,24.268763,51.860912,-2.714742,32.248432,26.944883,7.884275,-0.055151,11.558674,-1.199254,-4.509873,16.285263,10.418612,-6.534666,-2.033651,7.456890,18.745247,27.401415,15.210325,0.000000,175.000000,4.000000,,,,0.000000,4.000000,4.000000,4.000000,4.000000,4.000000,4.000000,4.000000,4.000000,4.000000,4.000000,4.000000,4.000000,4.000000,4.000000,4.000000,4.000000,4.000000,4.000000,4.000000,4.000000,4.000000,4.000000,4.000000,4.000000,4.000000,4.000000,4.000000,4.000000,4.000000,4.000000,4.000000,4.000000,100.000000
1614131199.889855,31.000000,0.000000,2.595698,4.935848,33.044739,16.657610,65.518562,17.567677,5.549440,17.899242,30.892645,26.456680,42.712605,6.201658,22.104250,29.330305,23.731674,42.578281,-2.712027,25.036695,23.328196,6.850750,-0.055096,7.957372,-6.326260,-7.582287,16.268978,9.895372,-10.117875,-2.544437,6.423791,16.675219,20.194527,15.707936,0.000000,173.000000,4.000000,,,,0.000000,4.000000,4.000000,4.000000,4.000000,4.000000,4.000000,4.000000,4.000000,4.000000,4.000000,4.000000,4.000000,4.000000,4.000000,4.000000,4.000000,4.000000,4.000000,4.000000,4.000000,4.000000,4.000000,4.000000,4.000000,4.000000,4.000000,4.000000,4.000000,4.000000,4.000000,4.000000,4.000000,100.000000
1614131199.897704,32.000000,0.000000,4.644384,4.930912,34.037334,17.666594,64.940216,18.062929,5.543890,21.471087,30.348932,27.968685,43.695534,6.195457,21.056505,29.300974,23.707941,41.510063,-3.222136,23.986017,23.817688,6.843899,-0.055041,6.923773,-5.294292,-9.113166,16.252710,10.398298,-10.620578,-2.029073,8.468650,16.145723,21.712793,16.205048,8064.000000,0.000000,4.000000,,,,0.000000,4.000000,4.000000,4.000000,4.000000,4.000000,4.000000,4.000000,4.000000,4.000000,4.000000,4.000000,4.000000,4.000000,4.000000,4.000000,4.000000,4.000000,4.000000,4.000000,4.000000,4.000000,4.000000,4.000000,4.000000,4.000000,4.000000,4.000000,4.000000,4.000000,4.000000,4.000000,4.000000,100.000000
1614131199.905453,33.000000,0.000000,6.178201,4.925982,36.567402,22.264313,65.900917,22.147430,5.538347,25.039358,32.369865,30.504820,44.164658,6.189261,22.061089,42.605007,24.197054,48.135220,-0.654811,41.397930,45.845150,12.478081,7.124502,7.942491,-2.724896,-7.052771,16.236458,10.387899,-10.097136,-1.514223,11.024283,20.744963,29.383389,16.188843,8192.000000,0.000000,4.000000,,,,0.000000,4.000000,4.000000,4.000000,4.000000,4.000000,4.000000,4.000000,4.000000,4.000000,4.000000,4.000000,4.000000,4.000000,4.000000,4.000000,4.000000,4.000000,4.000000,4.000000,4.000000,4.000000,4.000000,4.000000,4.000000,4.000000,4.000000,4.000000,4.000000,4.000000,4.000000,4.000000,4.000000,100.000000
1614131199.913302,34.000000,0.000000,5.659203,4.921055,37.556477,25.318972,65.322197,26.227848,5.532808,26.039961,34.388779,29.448673,43.607674,6.183072,21.526207,43.075222,24.172857,43.471699,3.448408,53.151402,66.824951,20.670731,23.527634,12.549932,-1.696530,-3.455974,16.220221,9.864692,-10.599860,-4.076811,12.038900,22.775499,22.687338,16.685474,8064.000000,0.000000,4.000000,,,,0.000000,4.000000,4.000000,4.000000,4.000000,4.000000,4.000000,4.000000,4.000000,4.000000,4.000000,4.000000,4.000000,4.000000,4.000000,4.000000,4.000000,4.000000,4.000000,4.000000,4.000000,4.000000,4.000000,4.000000,4.000000,4.000000,4.000000,4.000000,4.000000,4.000000,4.000000,4.000000,4.000000,100.000000
1614131199.921051,35.000000,0.000000,5.653543,4.916134,36.493279,25.293652,65.769699,26.201620,5.527276,26.013920,34.867210,28.906404,41.512783,6.176888,20.991861,30.211634,22.610224,33.171818,4.983421,42.329021,52.911968,21.675701,26.581028,15.614305,-2.207654,-1.401236,16.204000,9.854827,-9.563619,-5.611196,11.514041,22.752724,11.895420,16.668789,8064.000000,0.000000,4.000000,,,,0.000000,4.000000,4.000000,4.000000,4.000000,4.000000,4.000000,4.000000,4.000000,4.000000,4.000000,4.000000,4.000000,4.000000,4.000000,4.000000,4.000000,4.000000,4.000000,4.000000,4.000000,4.000000,4.000000,4.000000,4.000000,4.000000,4.000000,4.000000,4.000000,4.000000,4.000000,4.000000,4.000000,100.000000
1614131199.928899,36.000000,0.000000,5.647890,4.911218,36.969604,25.268358,64.678284,25.149776,5.521749,23.936625,34.319523,28.364677,39.419987,6.170712,21.483690,21.463474,20.536331,32.625824,4.465617,29.466179,32.346237,17.038641,14.246756,13.034589,-1.692626,-1.399835,16.187796,11.383433,-4.938671,-3.554303,11.502527,22.729971,10.857883,16.139299,8192.000000,0.000000,4.000000,,,,0.000000,4.000000,4.000000,4.000000,4.000000,4.000000,4.000000,4.000000,4.000000,4.000000,4.000000,4.000000,4.000000,4.000000,4.000000,4.000000,4.000000,4.000000,4.000000,4.000000,4.000000,4.000000,4.000000,4.000000,4.000000,4.000000,4.000000,4.000000,4.000000,4.000000,4.000000,4.000000,4.000000,100.000000
1614131199.936648,37.000000,0.000000,5.642242,4.906307,36.932636,25.243090,61.023865,25.637447,5.516227,22.374226,32.746738,25.772209,39.380566,6.164541,21.462206,11.698421,19.490152,36.695763,4.461151,33.026455,41.544659,18.047243,13.206868,10.970272,-1.690933,-1.398435,16.171608,13.936152,-1.856809,-3.550749,11.491025,20.143139,12.898308,16.635981,8064.000000,0.000000,4.000000,,,,0.000000,4.000000,4.000000,4.000000,4.000000,4.000000,4.000000,4.000000,4.000000,4.000000,4.000000,4.000000,4.000000,4.000000,4.000000,4.000000,4.000000,4.000000,4.000000,4.000000,4.000000,4.000000,4.000000,4.000000,4.000000,4.000000,4.000000,4.000000,4.000000,4.000000,4.000000,4.000000,4.000000,100.000000
1614131199.944497,38.000000,0.000000,6.662241,4.901401,36.895702,23.679386,58.398739,25.611811,5.510710,21.326210,30.662712,25.233618,38.315544,6.158377,20.927923,5.532876,19.470663,36.659069,4.456690,36.070354,50.733883,19.567657,16.270584,14.036225,-1.689242,-1.397037,16.155437,14.435037,-2.880593,-5.598480,11.479533,19.610176,14.936691,17.132166,8192.000000,0.000000,4.000000,,,,0.000000,4.000000,4.000000,4.000000,4.000000,4.000000,4.000000,4.000000,4.000000,4.000000,4.000000,4.000000,4.000000,4.000000,4.000000,4.000000,4.000000,4.000000,4.000000,4.000000,4.000000,4.000000,4.000000,4.000000,4.000000,4.000000,4.000000,4.000000,4.000000,4.000000,4.000000,4.000000,4.000000,100.000000
1614131199.952346,39.000000,0.000000,3.065835,4.896499,36.858807,21.091604,56.289059,25.586199,5.505199,21.304884,30.119228,25.721205,35.713127,6.152218,20.906996,16.296574,19.451193,39.186512,4.452233,28.854795,34.272892,12.368603,3.946621,14.022189,-2.200373,-1.395640,15.113641,13.907782,-2.877712,-6.105702,11.468054,18.052103,13.383293,11.474009,8192.000000,0.000000,4.000000,,,,0.000000,4.000000,4.000000,4.000000,4.000000,4.000000,4.000000,4.000000,4.000000,4.000000,4.000000,4.000000,4.000000,4.000000,4.000000,4.000000,4.000000,4.000000,4.000000,4.000000,4.000000,4.000000,4.000000,4.000000,4.000000,4.000000,4.000000,4.000000,4.000000,4.000000,4.000000,4.000000,4.000000,100.000000
1614131199.960095,40.000000,0.000000,-1.552616,4.891603,36.821949,13.378204,52.643024,25.560612,5.499694,21.796400,30.601929,25.695482,35.164593,6.146066,21.398909,27.049509,19.431742,44.275528,3.934961,22.672094,20.392467,6.715209,-2.211172,12.982526,-2.198173,-1.394244,15.611347,13.893873,-2.362014,-5.073955,10.943766,7.264821,3.626320,4.283047,8064.000000,0.000000,4.000000,,,,0.000000,4.000000,4.000000,4.000000,4.000000,4.000000,4.000000,4.000000,4.000000,4.000000,4.000000,4.000000,4.000000,4.000000,4.000000,4.000000,4.000000,4.000000,4.000000,4.000000,4.000000,4.000000,4.000000,4.000000,4.000000,4.000000,4.000000,4.000000,4.000000,4.000000,4.000000,4.000000,4.000000,100.000000
1614131199.967944,41.000000,0.000000,1.013040,4.886711,37.297947,7.210980,50.026279,25.535051,5.494195,21.774605,30.571327,25.156967,35.129429,5.627100,20.351870,29.586561,20.437950,43.718433,4.956667,23.162243,30.115664,14.913622,7.021809,17.072107,0.880948,-1.392850,16.621376,13.879979,-2.872473,-5.581702,11.958463,5.719094,3.109873,2.227482,8064.000000,0.000000,4.000000,,,,0.000000,4.000000,4.000000,4.000000,4.000000,4.000000,4.000000,4.000000,4.000000,4.000000,4.000000,4.000000,4.000000,4.000000,4.000000,4.000000,4.000000,4.000000,4.000000,4.000000,4.000000,4.000000,4.000000,4.000000,4.000000,4.000000,4.000000,4.000000,4.000000,4.000000,4.000000,4.000000,4.000000,100.000000
1614131199.975693,42.000000,0.000000,5.627411,4.881824,37.260647,6.178128,49.976254,25.509516,5.488700,21.240009,30.540756,25.644630,35.607121,7.159934,23.408440,39.300564,24.520077,45.725998,7.002992,24.677542,44.957344,22.078196,10.091710,19.106318,2.418529,-1.391457,15.579115,14.891741,-2.869600,-5.576120,14.510607,18.021067,11.824712,0.686793,8064.000000,0.000000,4.000000,,,,0.000000,4.000000,4.000000,4.000000,4.000000,4.000000,4.000000,4.000000,4.000000,4.000000,4.000000,4.000000,4.000000,4.000000,4.000000,4.000000,4.000000,4.000000,4.000000,4.000000,4.000000,4.000000,4.000000,4.000000,4.000000,4.000000,4.000000,4.000000,4.000000,4.000000,4.000000,4.000000,4.000000,100.000000
1614131199.983542,43.000000,0.000000,6.134604,4.364122,36.710567,5.146308,49.413456,25.484007,5.483212,22.244410,30.510216,25.618986,37.109974,8.691236,29.026058,51.056137,32.187866,54.911041,8.534451,27.729788,50.553413,21.543297,13.671362,19.600031,1.903290,-0.877245,16.589176,13.851208,-2.866731,-5.570544,15.521737,22.618431,11.300067,2.224568,8064.000000,0.000000,4.000000,,,,0.000000,4.000000,4.000000,4.000000,4.000000,4.000000,4.000000,4.000000,4.000000,4.000000,4.000000,4.000000,4.000000,4.000000,4.000000,4.000000,4.000000,4.000000,4.000000,4.000000,4.000000,4.000000,4.000000,4.000000,4.000000,4.000000,4.000000,4.000000,4.000000,4.000000,4.000000,4.000000,4.000000,100.000000
