title:29, start timestamp:1614131506.600358, stop timestamp:1614131552.514260, headset type:EPOCFLEX, headset serial:F00001ED, headset firmware:f12, subject name:s08, channels:75, sampling rate:128, samples:5926      , version:2.0
Timestamp,EEG.Counter,EEG.Interpolated,EEG.Cz,EEG.Fz,EEG.Fp1,EEG.AF3,EEG.F7,EEG.F3,EEG.FC1,EEG.C3,EEG.FC5,EEG.T7,EEG.CP5,EEG.CP1,EEG.P3,EEG.P7,EEG.PO3,EEG.O1,EEG.Pz,EEG.Oz,EEG.O2,EEG.PO4,EEG.P8,EEG.P4,EEG.CP2,EEG.CP6,EEG.T8,EEG.FC6,EEG.C4,EEG.FC2,EEG.F4,EEG.F8,EEG.AF4,EEG.Fp2,EEG.HighBitFlex,EEG.RawCq,EEG.Battery,MarkerIndex,MarkerType,MarkerValueInt,EEG.MarkerHardware,CQ.Cz,CQ.Fz,CQ.Fp1,CQ.AF3,CQ.F7,CQ.F3,CQ.FC1,CQ.C3,CQ.FC5,CQ.T7,CQ.CP5,CQ.CP1,CQ.P3,CQ.P7,CQ.PO3,CQ.O1,CQ.Pz,CQ.Oz,CQ.O2,CQ.PO4,CQ.P8,CQ.P4,CQ.CP2,CQ.CP6,CQ.T8,CQ.FC6,CQ.C4,CQ.FC2,CQ.F4,CQ.F8,CQ.AF4,CQ.Fp2,CQ.Overall
1614131506.600358,55.000000,0.000000,-5.307664,4.554279,14.933998,27.197161,10.057580,1.248779,0.142863,-14.157652,-13.022454,-13.627734,-19.616394,-11.789167,-25.477676,-24.705687,-34.774277,1.639414,-17.629011,4.524202,-0.220354,-38.214390,-25.790472,-18.387905,-10.329624,-10.463807,-8.484781,-3.045710,-2.759436,0.319717,8.455468,-0.082039,40.238148,21.705265,8192.000000,0.000000,4.000000,,,,0.000000,4.000000,4.000000,4.000000,4.000000,4.000000,4.000000,4.000000,4.000000,4.000000,4.000000,4.000000,4.000000,4.000000,4.000000,4.000000,4.000000,4.000000,4.000000,4.000000,4.000000,4.000000,4.000000,4.000000,4.000000,4.000000,4.000000,4.000000,4.000000,4.000000,4.000000,4.000000,4.000000,100.000000
1614131506.608007,56.000000,0.000000,-5.302356,-2.116942,13.380603,27.169964,10.047523,1.247530,0.142721,-14.143495,-9.932508,-15.152568,-19.083958,-12.290198,-25.452198,-24.168159,-33.201038,15.996749,-16.585741,11.186345,-0.732954,-38.688995,-22.687759,-18.882338,-10.319294,-10.966164,-11.040399,-3.042664,-4.807959,-0.193423,4.344449,-0.081957,29.428680,11.427149,8064.000000,0.000000,4.000000,,,,0.000000,4.000000,4.000000,4.000000,4.000000,4.000000,4.000000,4.000000,4.000000,4.000000,4.000000,4.000000,4.000000,4.000000,4.000000,4.000000,4.000000,4.000000,4.000000,4.000000,4.000000,4.000000,4.000000,4.000000,4.000000,4.000000,4.000000,4.000000,4.000000,4.000000,4.000000,4.000000,4.000000,100.000000
1614131506.615756,57.000000,0.000000,-5.297054,-3.140466,13.367222,27.142794,10.037476,1.246282,0.142578,-14.129351,3.410757,-14.111774,-18.552053,-11.765088,-24.913925,-22.605530,-33.680660,11.365368,-17.594797,2.970030,-10.988631,-37.624668,-20.100969,-17.324993,-9.283334,-11.468019,-11.029359,-5.603724,-8.905715,0.319591,3.827284,0.943766,21.706944,8.338799,8064.000000,0.000000,4.000000,,,,0.000000,4.000000,4.000000,4.000000,4.000000,4.000000,4.000000,4.000000,4.000000,4.000000,4.000000,4.000000,4.000000,4.000000,4.000000,4.000000,4.000000,4.000000,4.000000,4.000000,4.000000,4.000000,4.000000,4.000000,4.000000,4.000000,4.000000,4.000000,4.000000,4.000000,4.000000,4.000000,4.000000,100.000000
1614131506.623405,58.000000,0.000000,-5.291757,-1.598864,13.353855,27.115650,10.540258,1.245036,0.142435,-14.115221,3.407346,-14.610483,-19.559141,-11.753323,-26.940294,-24.121386,-37.749542,-7.107536,-21.166945,-4.725248,-14.567387,-37.587040,-28.285995,-20.384592,-13.889436,-10.430909,-12.556790,-10.213505,-10.435271,0.319271,4.336277,-1.108460,22.198057,9.356101,8064.000000,0.000000,4.000000,,,,0.000000,4.000000,4.000000,4.000000,4.000000,4.000000,4.000000,4.000000,4.000000,4.000000,4.000000,4.000000,4.000000,4.000000,4.000000,4.000000,4.000000,4.000000,4.000000,4.000000,4.000000,4.000000,4.000000,4.000000,4.000000,4.000000,4.000000,4.000000,4.000000,4.000000,4.000000,4.000000,4.000000,100.000000
1614131506.631154,59.000000,0.000000,-5.286465,-2.622906,13.340501,27.088535,9.504077,1.243791,0.142293,-14.101106,-3.775548,-15.621513,-19.026762,-13.792851,-30.503098,-25.122906,-38.224613,-3.510685,-25.761164,-4.720522,-27.373331,-40.626377,-44.155148,-29.082155,-21.567854,-10.420478,-18.185259,-11.228932,-15.553041,-3.783612,3.819120,-7.261198,22.688681,8.833924,7936.000000,0.000000,4.000000,,,,0.000000,4.000000,4.000000,4.000000,4.000000,4.000000,4.000000,4.000000,4.000000,4.000000,4.000000,4.000000,4.000000,4.000000,4.000000,4.000000,4.000000,4.000000,4.000000,4.000000,4.000000,4.000000,4.000000,4.000000,4.000000,4.000000,4.000000,4.000000,4.000000,4.000000,4.000000,4.000000,4.000000,100.000000
1614131506.638804,60.000000,0.000000,-5.281178,-2.620284,13.327161,27.061447,8.981752,1.242547,0.142151,-14.087005,-3.258952,-10.477687,-16.956453,-16.343161,-28.934132,-24.072142,-31.006903,3.159492,-25.222582,-3.690161,-28.371599,-35.970367,-38.469963,-27.514612,-22.059107,-15.025442,-9.449125,-10.704884,-18.614410,-7.882393,3.815301,-5.715475,21.640350,11.389193,8064.000000,0.000000,4.000000,,,,0.000000,4.000000,4.000000,4.000000,4.000000,4.000000,4.000000,4.000000,4.000000,4.000000,4.000000,4.000000,4.000000,4.000000,4.000000,4.000000,4.000000,4.000000,4.000000,4.000000,4.000000,4.000000,4.000000,4.000000,4.000000,4.000000,4.000000,4.000000,4.000000,4.000000,4.000000,4.000000,4.000000,100.000000
1614131506.646553,61.000000,0.000000,-5.275898,-2.104843,13.826653,27.034386,11.536873,1.241305,0.142008,-13.560098,-1.717232,-8.415927,-14.888215,-16.326818,-25.315454,-23.535250,-32.514359,-13.766745,-24.171719,-0.096727,-2.702202,-23.113884,-16.893034,-15.179405,-14.857560,-14.497597,4.406477,-10.694179,-9.877848,-7.361690,4.324306,-3.658477,22.644350,14.454727,8064.000000,0.000000,4.000000,,,,0.000000,4.000000,4.000000,4.000000,4.000000,4.000000,4.000000,4.000000,4.000000,4.000000,4.000000,4.000000,4.000000,4.000000,4.000000,4.000000,4.000000,4.000000,4.000000,4.000000,4.000000,4.000000,4.000000,4.000000,4.000000,4.000000,4.000000,4.000000,4.000000,4.000000,4.000000,4.000000,4.000000,100.000000
1614131506.654202,62.000000,0.000000,-5.270622,-2.102738,13.300007,27.007351,8.448413,1.240064,0.141866,-14.572179,-2.741155,-16.612640,-15.386147,-15.797670,-26.828600,-25.562996,-40.686970,-19.394003,-26.198828,-2.147913,-1.161039,-22.065128,-22.517166,-9.523200,-13.817061,-5.252329,-1.751775,-10.683484,-3.201303,-7.354328,3.807161,-12.885588,21.083244,10.337708,8064.000000,0.000000,4.000000,,,,0.000000,4.000000,4.000000,4.000000,4.000000,4.000000,4.000000,4.000000,4.000000,4.000000,4.000000,4.000000,4.000000,4.000000,4.000000,4.000000,4.000000,4.000000,4.000000,4.000000,4.000000,4.000000,4.000000,4.000000,4.000000,4.000000,4.000000,4.000000,4.000000,4.000000,4.000000,4.000000,4.000000,100.000000
1614131506.662051,63.000000,0.000000,-5.265351,-2.100635,13.286707,26.980343,1.773298,1.238823,0.141725,-14.557607,-3.251235,-18.647308,-15.883581,-16.807514,-23.724848,-20.922049,-33.466797,8.830519,-24.121347,-9.325252,-27.313725,-25.632807,-37.879265,-11.564960,-15.854527,-6.272718,-12.006433,-10.672801,-7.813487,-8.372615,4.828995,-14.411164,19.523701,9.814549,8064.000000,0.000000,4.000000,,,,0.000000,4.000000,4.000000,4.000000,4.000000,4.000000,4.000000,4.000000,4.000000,4.000000,4.000000,4.000000,4.000000,4.000000,4.000000,4.000000,4.000000,4.000000,4.000000,4.000000,4.000000,4.000000,4.000000,4.000000,4.000000,4.000000,4.000000,4.000000,4.000000,4.000000,4.000000,4.000000,4.000000,100.000000
1614131506.669800,64.000000,0.000000,-5.260086,-2.098535,14.299061,26.953363,9.976653,1.237585,0.141583,-10.440485,-2.735163,-9.397893,-10.226672,-14.739425,-9.854970,-9.106255,-15.997432,33.437073,-15.379277,3.504586,-18.055641,-10.222559,-19.892668,-5.912369,-7.120723,-11.907471,-4.814940,-10.662127,-5.754391,-4.261678,7.388269,0.475042,21.042639,15.958581,0.000000,232.000000,4.000000,,,,0.000000,4.000000,4.000000,4.000000,4.000000,4.000000,4.000000,4.000000,4.000000,4.000000,4.000000,4.000000,4.000000,4.000000,4.000000,4.000000,4.000000,4.000000,4.000000,4.000000,4.000000,4.000000,4.000000,4.000000,4.000000,4.000000,4.000000,4.000000,4.000000,4.000000,4.000000,4.000000,4.000000,100.000000
1614131506.677649,65.000000,0.000000,-5.254826,-2.096436,13.259121,26.926411,19.197445,1.236347,2.192723,-6.327480,-2.732428,-1.696187,-2.011317,-9.596480,-1.127166,-5.507405,-9.827589,29.813892,-9.210052,26.065184,13.244466,6.710741,3.716969,1.785851,4.168449,0.412129,-1.220382,-10.651465,3.994953,0.357968,8.406522,5.089952,23.072878,14.404161,0.000000,183.000000,4.000000,,,,0.000000,4.000000,4.000000,4.000000,4.000000,4.000000,4.000000,4.000000,4.000000,4.000000,4.000000,4.000000,4.000000,4.000000,4.000000,4.000000,4.000000,4.000000,4.000000,4.000000,4.000000,4.000000,4.000000,4.000000,4.000000,4.000000,4.000000,4.000000,4.000000,4.000000,4.000000,4.000000,4.000000,100.000000
1614131506.685398,66.000000,0.000000,-5.249571,-2.607160,8.117657,26.899483,10.460299,1.235111,4.241813,-6.321153,-3.242516,-3.745773,-1.496485,-7.535602,-4.715783,-10.630102,-12.381864,18.502028,-9.713662,28.603222,19.385067,5.678389,-1.414953,0.245604,5.702742,10.668127,-7.885828,-10.640814,3.990958,-1.693672,7.885294,-2.094625,22.536983,2.594885,0.000000,195.000000,4.000000,,,,0.000000,4.000000,4.000000,4.000000,4.000000,4.000000,4.000000,4.000000,4.000000,4.000000,4.000000,4.000000,4.000000,4.000000,4.000000,4.000000,4.000000,4.000000,4.000000,4.000000,4.000000,4.000000,4.000000,4.000000,4.000000,4.000000,4.000000,4.000000,4.000000,4.000000,4.000000,4.000000,4.000000,100.000000
1614131506.693247,67.000000,0.000000,-5.757142,-2.604553,5.545436,26.872583,2.757532,1.233876,3.724750,-6.827652,-2.726453,-8.357411,-4.571912,-8.553707,-7.275169,-13.183575,-11.856661,14.380961,-10.216769,18.831028,16.288759,2.595788,-9.618666,-3.857206,4.158578,1.939510,-7.877942,-10.630174,-0.115597,-3.230440,7.877409,-2.092531,22.001627,-3.048735,0.000000,173.000000,4.000000,,,,0.000000,4.000000,4.000000,4.000000,4.000000,4.000000,4.000000,4.000000,4.000000,4.000000,4.000000,4.000000,4.000000,4.000000,4.000000,4.000000,4.000000,4.000000,4.000000,4.000000,4.000000,4.000000,4.000000,4.000000,4.000000,4.000000,4.000000,4.000000,4.000000,4.000000,4.000000,4.000000,4.000000,100.000000
1614131506.700996,68.000000,0.000000,-4.212923,-0.037846,7.078352,26.845711,8.908620,1.232642,3.721025,-6.308004,-1.185265,-10.913157,-4.054520,-8.545154,-5.729433,-12.657571,-10.819163,14.879400,-7.129629,18.299377,14.221189,1.567551,-6.019304,-3.340528,5.180060,-1.652173,-3.767500,-9.081081,2.961442,-0.663107,7.869532,0.473664,22.492445,-1.507225,0.000000,200.000000,4.000000,,,,0.000000,4.000000,4.000000,4.000000,4.000000,4.000000,4.000000,4.000000,4.000000,4.000000,4.000000,4.000000,4.000000,4.000000,4.000000,4.000000,4.000000,4.000000,4.000000,4.000000,4.000000,4.000000,4.000000,4.000000,4.000000,4.000000,4.000000,4.000000,4.000000,4.000000,4.000000,4.000000,4.000000,100.000000
1614131506.708845,69.000000,0.000000,-1.644608,2.013474,4.507172,26.818867,8.899712,1.231409,4.230125,-6.301696,0.867203,-8.850962,-3.537644,-8.023787,-7.774985,-12.644914,-11.321165,19.479906,-6.096859,19.306719,-0.152007,-6.639145,-8.577387,-2.824367,3.123598,3.477684,-4.276553,-7.020719,3.471301,0.876018,7.861662,0.473191,22.469954,-1.505718,0.000000,191.000000,4.000000,,,,0.000000,4.000000,4.000000,4.000000,4.000000,4.000000,4.000000,4.000000,4.000000,4.000000,4.000000,4.000000,4.000000,4.000000,4.000000,4.000000,4.000000,4.000000,4.000000,4.000000,4.000000,4.000000,4.000000,4.000000,4.000000,4.000000,4.000000,4.000000,4.000000,4.000000,4.000000,4.000000,4.000000,100.000000
1614131506.716594,70.000000,0.000000,-1.130142,0.985820,-3.702464,26.792048,2.224145,1.230178,2.687433,-8.859496,1.379156,-6.790829,-6.611030,-8.528584,-10.331313,-13.145089,-13.361126,19.973246,-6.603582,16.723310,-4.254419,-9.709429,-15.748297,-6.411286,-2.007731,-2.679640,-5.297917,-7.013698,-1.660376,-0.150499,7.853801,0.472717,22.447483,-2.017032,0.000000,184.000000,4.000000,,,,0.000000,4.000000,4.000000,4.000000,4.000000,4.000000,4.000000,4.000000,4.000000,4.000000,4.000000,4.000000,4.000000,4.000000,4.000000,4.000000,4.000000,4.000000,4.000000,4.000000,4.000000,4.000000,4.000000,4.000000,4.000000,4.000000,4.000000,4.000000,4.000000,4.000000,4.000000,4.000000,4.000000,100.000000
1614131506.724443,71.000000,0.000000,-1.641833,2.010475,-5.237223,26.765255,1.196280,0.716127,0.120643,-10.389098,0.864956,-7.809679,-8.655701,-8.520056,-11.859444,-18.260149,-17.450329,5.594299,-7.109799,18.245049,6.519066,-9.699719,-15.732549,-12.045900,-3.544184,-9.343627,-5.292620,-7.006684,-4.222818,-0.150349,7.845947,-4.143140,22.425035,-1.502195,0.000000,185.000000,4.000000,,,,0.000000,4.000000,4.000000,4.000000,4.000000,4.000000,4.000000,4.000000,4.000000,4.000000,4.000000,4.000000,4.000000,4.000000,4.000000,4.000000,4.000000,4.000000,4.000000,4.000000,4.000000,4.000000,4.000000,4.000000,4.000000,4.000000,4.000000,4.000000,4.000000,4.000000,4.000000,4.000000,4.000000,100.000000
1614131506.732192,72.000000,0.000000,-1.640191,7.136670,-0.103781,26.738489,2.733545,1.741052,-0.392298,-10.891530,0.864091,-8.314690,-8.647045,-8.511536,-15.437327,-23.882914,-19.996981,-4.667706,-6.589869,15.149879,-2.718222,-19.433609,-15.203996,-15.623598,-4.053461,-7.283001,-4.774507,-6.999677,-6.782698,-0.150198,7.838101,-6.190279,22.402611,-1.500693,0.000000,202.000000,4.000000,,,,0.000000,4.000000,4.000000,4.000000,4.000000,4.000000,4.000000,4.000000,4.000000,4.000000,4.000000,4.000000,4.000000,4.000000,4.000000,4.000000,4.000000,4.000000,4.000000,4.000000,4.000000,4.000000,4.000000,4.000000,4.000000,4.000000,4.000000,4.000000,4.000000,4.000000,4.000000,4.000000,4.000000,100.000000
1614131506.740041,73.000000,0.000000,-1.638551,9.693635,2.973246,26.711752,4.782094,3.790593,0.120915,-10.367818,0.863227,-6.767913,-8.125578,-8.503024,-18.498814,-24.371853,-19.976984,3.029270,-6.583279,2.314217,-27.843708,-23.003920,-19.804176,-15.607975,-6.613510,-8.814179,-4.256911,-7.505498,-10.878479,-0.150048,7.830263,-0.543063,22.380207,0.552090,0.000000,186.000000,4.000000,,,,0.000000,4.000000,4.000000,4.000000,4.000000,4.000000,4.000000,4.000000,4.000000,4.000000,4.000000,4.000000,4.000000,4.000000,4.000000,4.000000,4.000000,4.000000,4.000000,4.000000,4.000000,4.000000,4.000000,4.000000,4.000000,4.000000,4.000000,4.000000,4.000000,4.000000,4.000000,4.000000,4.000000,100.000000
1614131506.747790,74.000000,0.000000,-1.636912,8.658300,2.457453,26.685040,5.802953,5.325264,0.120794,-10.357450,0.862364,-7.786787,-8.630273,-8.494521,-15.916212,-20.244917,-19.444187,13.795471,-6.576696,7.440108,-22.687660,-9.647582,-16.194628,-10.464162,-7.119717,-10.856647,-6.303936,-6.472352,-11.893242,-0.149898,7.822433,0.483121,22.357828,2.089999,0.000000,205.000000,4.000000,,,,0.000000,4.000000,4.000000,4.000000,4.000000,4.000000,4.000000,4.000000,4.000000,4.000000,4.000000,4.000000,4.000000,4.000000,4.000000,4.000000,4.000000,4.000000,4.000000,4.000000,4.000000,4.000000,4.000000,4.000000,4.000000,4.000000,4.000000,4.000000,4.000000,4.000000,4.000000,4.000000,4.000000,100.000000
1614131506.755639,75.000000,0.000000,-1.635275,8.649642,2.454995,26.658354,5.797150,4.807118,0.120673,-10.859913,0.348681,-7.266179,-8.621642,-6.434744,-8.720808,-9.968261,-13.783716,21.473984,-4.006016,32.560871,10.155540,3.182578,-0.280998,-2.761390,-4.548495,-5.717586,-4.246351,-3.901777,-11.368527,-0.149748,7.814610,-3.107105,21.822649,0.036627,0.000000,188.000000,4.000000,,,,0.000000,4.000000,4.000000,4.000000,4.000000,4.000000,4.000000,4.000000,4.000000,4.000000,4.000000,4.000000,4.000000,4.000000,4.000000,4.000000,4.000000,4.000000,4.000000,4.000000,4.000000,4.000000,4.000000,4.000000,4.000000,4.000000,4.000000,4.000000,4.000000,4.000000,4.000000,4.000000,4.000000,100.000000
1614131506.763388,76.000000,0.000000,-1.633640,9.153813,2.965361,26.631697,7.842635,4.802311,0.120553,-10.336233,1.886794,1.459036,-4.510457,-4.377028,-4.096703,3.887861,-6.077625,28.631996,0.100554,35.605236,23.478718,3.692216,7.411591,1.343936,-2.492664,-0.070842,3.450203,-3.385055,-9.818698,-0.149598,7.806796,-1.052716,22.313646,-1.501871,0.000000,171.000000,4.000000,,,,0.000000,4.000000,4.000000,4.000000,4.000000,4.000000,4.000000,4.000000,4.000000,4.000000,4.000000,4.000000,4.000000,4.000000,4.000000,4.000000,4.000000,4.000000,4.000000,4.000000,4.000000,4.000000,4.000000,4.000000,4.000000,4.000000,4.000000,4.000000,4.000000,4.000000,4.000000,4.000000,4.000000,100.000000
1614131506.771137,77.000000,0.000000,-1.632006,9.144659,3.475216,26.605064,12.962997,5.310329,0.120432,-7.761794,4.449009,10.175526,1.135080,-4.885471,-3.066965,10.037820,-4.020266,25.013620,1.126094,17.108091,-2.698606,-1.952502,-2.852231,-0.195870,-3.002992,1.467690,3.446753,-3.381670,-7.757597,-0.149449,7.798989,-1.051664,22.804153,-1.500369,0.000000,200.000000,4.000000,,,,0.000000,4.000000,4.000000,4.000000,4.000000,4.000000,4.000000,4.000000,4.000000,4.000000,4.000000,4.000000,4.000000,4.000000,4.000000,4.000000,4.000000,4.000000,4.000000,4.000000,4.000000,4.000000,4.000000,4.000000,4.000000,4.000000,4.000000,4.000000,4.000000,4.000000,4.000000,4.000000,4.000000,100.000000
1614131506.778886,78.000000,0.000000,-1.630374,8.622694,2.446100,26.065639,13.975676,4.792198,0.120312,-6.215570,4.957381,10.165350,3.698047,-5.393406,-4.089540,6.438038,-4.529066,21.398865,0.612148,25.808931,-11.413857,-4.514652,-7.977584,-2.246956,-2.999989,-1.610701,-1.172078,-0.814185,-7.237019,-0.662120,7.791190,-3.101894,19.191607,-1.498868,0.000000,214.000000,4.000000,,,,0.000000,4.000000,4.000000,4.000000,4.000000,4.000000,4.000000,4.000000,4.000000,4.000000,4.000000,4.000000,4.000000,4.000000,4.000000,4.000000,4.000000,4.000000,4.000000,4.000000,4.000000,4.000000,4.000000,4.000000,4.000000,4.000000,4.000000,4.000000,4.000000,4.000000,4.000000,4.000000,4.000000,100.000000
1614131506.786536,79.000000,0.000000,-1.628744,8.614072,1.930833,26.552393,13.448879,4.787406,0.120191,-6.722176,3.926783,7.591082,2.668708,-2.823910,-2.546988,2.329036,-4.011716,28.044132,1.637176,42.193378,14.751404,2.669350,-1.815760,-3.270350,-2.996989,-3.660372,2.931658,0.725091,-5.178500,0.877004,7.783399,3.055054,19.172415,0.041092,0.000000,160.000000,4.000000,,,,0.000000,4.000000,4.000000,4.000000,4.000000,4.000000,4.000000,4.000000,4.000000,4.000000,4.000000,4.000000,4.000000,4.000000,4.000000,4.000000,4.000000,4.000000,4.000000,4.000000,4.000000,4.000000,4.000000,4.000000,4.000000,4.000000,4.000000,4.000000,4.000000,4.000000,4.000000,4.000000,4.000000,100.000000
1614131506.794285,80.000000,0.000000,-1.627115,8.605457,3.467364,26.525841,14.461071,4.782619,0.120071,-6.715454,4.948497,6.045029,2.666039,-0.769804,-4.082903,0.275425,-7.597448,24.426344,0.097078,24.715288,19.864857,3.179501,-2.839586,-3.779900,-2.993992,0.445852,6.518470,0.211545,-1.070757,3.440229,7.775615,5.616101,24.794268,2.605153,0.000000,194.000000,4.000000,,,,0.000000,4.000000,4.000000,4.000000,4.000000,4.000000,4.000000,4.000000,4.000000,4.000000,4.000000,4.000000,4.000000,4.000000,4.000000,4.000000,4.000000,4.000000,4.000000,4.000000,4.000000,4.000000,4.000000,4.000000,4.000000,4.000000,4.000000,4.000000,4.000000,4.000000,4.000000,4.000000,4.000000,100.000000
1614131506.801934,81.000000,0.000000,-1.625488,7.571211,1.925435,24.960854,10.856867,3.239375,0.119951,-6.195918,4.430728,1.936420,3.176194,-4.871599,-11.771128,-1.776133,-12.205235,9.530123,-4.518404,9.305958,-0.667828,-10.669832,-11.041874,-3.776120,-2.990998,3.009509,-1.180356,0.211333,0.981596,3.436789,7.767839,-3.620284,24.769474,1.064087,0.000000,176.000000,4.000000,,,,0.000000,4.000000,4.000000,4.000000,4.000000,4.000000,4.000000,4.000000,4.000000,4.000000,4.000000,4.000000,4.000000,4.000000,4.000000,4.000000,4.000000,4.000000,4.000000,4.000000,4.000000,4.000000,4.000000,4.000000,4.000000,4.000000,4.000000,4.000000,4.000000,4.000000,4.000000,4.000000,4.000000,100.000000
1614131506.809683,82.000000,0.000000,-1.623863,4.999537,-2.691875,22.371790,3.153702,0.672033,0.119831,-6.702542,1.349374,-1.142439,2.660197,-8.456470,-14.836280,-2.799998,-12.705851,6.956490,-6.052347,20.578703,-1.692801,-9.633521,-12.569294,-3.772344,-2.988007,-1.608885,-6.307381,0.211122,-0.045027,3.433352,7.760072,-8.232048,18.590858,-0.475439,0.000000,199.000000,4.000000,,,,0.000000,4.000000,4.000000,4.000000,4.000000,4.000000,4.000000,4.000000,4.000000,4.000000,4.000000,4.000000,4.000000,4.000000,4.000000,4.000000,4.000000,4.000000,4.000000,4.000000,4.000000,4.000000,4.000000,4.000000,4.000000,4.000000,4.000000,4.000000,4.000000,4.000000,4.000000,4.000000,4.000000,100.000000
1614131506.817332,83.000000,0.000000,-1.622239,4.481717,-0.637901,21.836597,3.663369,1.697002,0.119711,-6.695839,0.835204,-0.115656,2.657537,-6.396732,-9.180418,-2.797198,-12.180325,13.616200,-3.482192,20.045303,4.975558,0.119702,-10.505443,-3.768572,-2.985019,-4.171379,-4.762612,0.210911,-0.044982,5.481201,7.752312,-4.634072,18.572268,1.063498,0.000000,176.000000,4.000000,,,,0.000000,4.000000,4.000000,4.000000,4.000000,4.000000,4.000000,4.000000,4.000000,4.000000,4.000000,4.000000,4.000000,4.000000,4.000000,4.000000,4.000000,4.000000,4.000000,4.000000,4.000000,4.000000,4.000000,4.000000,4.000000,4.000000,4.000000,4.000000,4.000000,4.000000,4.000000,4.000000,4.000000,100.000000
1614131506.825081,84.000000,0.000000,-1.620617,7.041338,6.029403,22.840403,9.300731,6.310689,0.119592,-4.125041,5.962574,-1.654002,2.654879,-4.339053,-6.094314,-4.332862,-12.168144,14.115404,-2.453069,10.281669,-1.183264,-8.598367,-11.007757,-3.764803,-2.982034,-1.090284,-4.245029,0.210700,0.467884,7.527002,7.744559,-2.578156,24.194721,2.600896,0.000000,181.000000,4.000000,,,,0.000000,4.000000,4.000000,4.000000,4.000000,4.000000,4.000000,4.000000,4.000000,4.000000,4.000000,4.000000,4.000000,4.000000,4.000000,4.000000,4.000000,4.000000,4.000000,4.000000,4.000000,4.000000,4.000000,4.000000,4.000000,4.000000,4.000000,4.000000,4.000000,4.000000,4.000000,4.000000,4.000000,100.000000
1614131506.832730,85.000000,0.000000,-1.618996,8.572759,7.049015,22.304741,8.265789,8.868481,0.119472,-2.582454,8.520714,-5.242091,2.652224,-4.847535,-7.626681,-5.866991,-12.668797,12.050007,-3.476257,16.425234,-3.233362,-15.769256,-11.509570,-3.761038,-2.979052,0.449267,-5.266425,0.210489,-0.045405,7.006654,7.736814,-4.114040,25.708988,2.085475,0.000000,190.000000,4.000000,,,,0.000000,4.000000,4.000000,4.000000,4.000000,4.000000,4.000000,4.000000,4.000000,4.000000,4.000000,4.000000,4.000000,4.000000,4.000000,4.000000,4.000000,4.000000,4.000000,4.000000,4.000000,4.000000,4.000000,4.000000,4.000000,4.000000,4.000000,4.000000,4.000000,4.000000,4.000000,4.000000,4.000000,100.000000
1614131506.840479,86.000000,0.000000,-1.617377,8.564185,5.503504,21.769617,5.180601,8.346792,0.119353,-3.092693,7.999373,-2.159926,2.649572,-5.355508,-7.619055,-6.886765,-12.656128,13.063598,-3.472781,18.460091,-5.794232,-6.009896,-11.498060,-4.270098,-2.976073,-0.576823,-4.748338,-0.302542,-0.045359,6.999648,7.729078,-4.109926,25.683279,2.083389,0.000000,197.000000,4.000000,,,,0.000000,4.000000,4.000000,4.000000,4.000000,4.000000,4.000000,4.000000,4.000000,4.000000,4.000000,4.000000,4.000000,4.000000,4.000000,4.000000,4.000000,4.000000,4.000000,4.000000,4.000000,4.000000,4.000000,4.000000,4.000000,4.000000,4.000000,4.000000,4.000000,4.000000,4.000000,4.000000,4.000000,100.000000
1614131506.848129,87.000000,0.000000,-1.102939,8.555621,6.523642,25.337591,9.277984,8.338446,-0.393587,-3.089600,7.991374,3.483259,2.646923,-4.837332,-6.585794,-5.854237,-12.130651,14.588996,-2.956487,12.800605,-11.942284,-0.875681,-10.973742,-3.753007,-2.973097,-0.063426,-4.743590,0.723402,0.467506,6.992648,7.721349,-2.567354,28.221697,2.081306,0.000000,202.000000,4.000000,,,,0.000000,4.000000,4.000000,4.000000,4.000000,4.000000,4.000000,4.000000,4.000000,4.000000,4.000000,4.000000,4.000000,4.000000,4.000000,4.000000,4.000000,4.000000,4.000000,4.000000,4.000000,4.000000,4.000000,4.000000,4.000000,4.000000,4.000000,4.000000,4.000000,4.000000,4.000000,4.000000,4.000000,100.000000
1614131506.855978,88.000000,0.000000,-2.640298,8.547066,6.517118,29.927637,14.396911,8.842927,0.119627,-3.599331,8.496202,1.941315,2.644276,-4.832494,-7.092029,0.818284,-11.605700,17.138510,-2.440710,17.916010,-6.289316,-4.977370,-9.937127,-3.749254,-2.970124,-0.063362,-4.738846,3.799602,-1.071423,6.985655,7.713627,-0.513505,29.731937,2.592045,0.000000,172.000000,4.000000,,,,0.000000,4.000000,4.000000,4.000000,4.000000,4.000000,4.000000,4.000000,4.000000,4.000000,4.000000,4.000000,4.000000,4.000000,4.000000,4.000000,4.000000,4.000000,4.000000,4.000000,4.000000,4.000000,4.000000,4.000000,4.000000,4.000000,4.000000,4.000000,4.000000,4.000000,4.000000,4.000000,4.000000,100.000000
1614131506.863727,89.000000,0.000000,-5.714581,8.538519,5.997780,30.410530,11.818412,8.321264,0.119507,-7.698296,7.974886,0.400912,2.641631,-5.853303,-7.084937,5.432850,-13.132556,16.095730,-3.463911,19.949375,3.460563,-5.998034,-10.440011,-3.745505,-2.967154,-0.063299,-4.734107,3.795802,-3.634454,6.978670,7.705914,0.512650,29.189384,4.640735,0.000000,204.000000,4.000000,,,,0.000000,4.000000,4.000000,4.000000,4.000000,4.000000,4.000000,4.000000,4.000000,4.000000,4.000000,4.000000,4.000000,4.000000,4.000000,4.000000,4.000000,4.000000,4.000000,4.000000,4.000000,4.000000,4.000000,4.000000,4.000000,4.000000,4.000000,4.000000,4.000000,4.000000,4.000000,4.000000,4.000000,100.000000
1614131506.871576,90.000000,0.000000,-4.683225,8.529980,5.991783,29.354479,9.242491,8.312943,-0.393433,-10.254700,7.966911,5.528716,2.638990,-3.796168,-7.077852,5.940238,-9.016859,19.669378,-3.460447,19.416605,7.046846,-4.966394,-9.916750,-1.690477,-2.964186,-0.063235,-4.729373,4.304827,-3.630819,6.971691,7.698208,-0.000684,29.160196,6.174556,0.000000,197.000000,4.000000,,,,0.000000,4.000000,4.000000,4.000000,4.000000,4.000000,4.000000,4.000000,4.000000,4.000000,4.000000,4.000000,4.000000,4.000000,4.000000,4.000000,4.000000,4.000000,4.000000,4.000000,4.000000,4.000000,4.000000,4.000000,4.000000,4.000000,4.000000,4.000000,4.000000,4.000000,4.000000,4.000000,4.000000,100.000000
1614131506.879325,91.000000,0.000000,-1.601619,8.521450,5.985791,29.837944,13.335813,8.304629,2.171063,-8.705983,7.958944,6.036008,2.636351,0.823013,-7.070775,5.934298,-1.828355,26.316376,3.209680,28.115137,15.244927,-0.346043,-4.265808,2.413777,-0.909940,-0.063172,-4.724644,7.377445,-0.550265,6.964719,7.690510,-0.000683,29.131035,5.655561,0.000000,168.000000,4.000000,,,,0.000000,4.000000,4.000000,4.000000,4.000000,4.000000,4.000000,4.000000,4.000000,4.000000,4.000000,4.000000,4.000000,4.000000,4.000000,4.000000,4.000000,4.000000,4.000000,4.000000,4.000000,4.000000,4.000000,4.000000,4.000000,4.000000,4.000000,4.000000,4.000000,4.000000,4.000000,4.000000,4.000000,100.000000
1614131506.887174,92.000000,0.000000,-2.112837,8.512929,5.979805,29.808107,17.425041,8.296325,6.271456,-6.645996,7.950985,3.465869,3.146535,3.386293,-7.063704,2.338620,-1.826526,17.572109,8.334676,24.497278,14.716863,1.705585,-1.697439,3.437004,0.629431,-0.063109,-4.719919,5.831606,0.475926,6.957755,7.169999,-0.000682,29.101904,5.649905,0.000000,192.000000,4.000000,,,,0.000000,4.000000,4.000000,4.000000,4.000000,4.000000,4.000000,4.000000,4.000000,4.000000,4.000000,4.000000,4.000000,4.000000,4.000000,4.000000,4.000000,4.000000,4.000000,4.000000,4.000000,4.000000,4.000000,4.000000,4.000000,4.000000,4.000000,4.000000,4.000000,4.000000,4.000000,4.000000,4.000000,100.000000
1614131506.894923,93.000000,0.000000,-1.085083,8.504416,5.973825,29.265478,16.894794,8.288029,7.803646,-6.639349,7.943034,4.488044,1.604927,2.870086,-7.056640,-3.304744,-6.440084,6.785307,3.198136,12.677910,-1.195290,-10.090993,-11.952152,0.356644,0.628802,-0.063046,-4.715199,0.184749,-0.037371,6.437976,7.675649,-0.000681,29.072802,6.157076,0.000000,174.000000,4.000000,,,,0.000000,4.000000,4.000000,4.000000,4.000000,4.000000,4.000000,4.000000,4.000000,4.000000,4.000000,4.000000,4.000000,4.000000,4.000000,4.000000,4.000000,4.000000,4.000000,4.000000,4.000000,4.000000,4.000000,4.000000,4.000000,4.000000,4.000000,4.000000,4.000000,4.000000,4.000000,4.000000,4.000000,100.000000
1614131506.902772,94.000000,0.000000,1.992925,8.495912,5.967852,29.749033,16.877901,8.279740,7.283022,-6.632710,7.935091,1.406633,0.064860,2.867216,-6.536763,-7.404004,-8.484926,13.445189,-2.446088,11.126770,-9.399223,-22.901415,-25.786354,-5.797558,1.140994,-2.114265,-4.710484,1.723025,-0.037333,7.457180,10.744897,-0.000681,29.043730,5.638098,0.000000,186.000000,4.000000,,,,0.000000,4.000000,4.000000,4.000000,4.000000,4.000000,4.000000,4.000000,4.000000,4.000000,4.000000,4.000000,4.000000,4.000000,4.000000,4.000000,4.000000,4.000000,4.000000,4.000000,4.000000,4.000000,4.000000,4.000000,4.000000,4.000000,4.000000,4.000000,4.000000,4.000000,4.000000,4.000000,4.000000,100.000000
1614131506.910521,95.000000,0.000000,-2.624453,8.487415,5.961884,29.719284,17.373842,8.271461,7.275739,-6.113257,8.439977,-2.184517,-0.960846,2.864349,-6.017406,-15.088907,-13.604647,14.457384,-3.982103,1.372054,-15.543671,-24.416975,-29.863132,-12.458427,0.114212,-3.650612,-4.705773,6.849507,-0.037296,10.013824,11.759792,-0.000680,29.014687,6.145281,0.000000,167.000000,4.000000,,,,0.000000,4.000000,4.000000,4.000000,4.000000,4.000000,4.000000,4.000000,4.000000,4.000000,4.000000,4.000000,4.000000,4.000000,4.000000,4.000000,4.000000,4.000000,4.000000,4.000000,4.000000,4.000000,4.000000,4.000000,4.000000,4.000000,4.000000,4.000000,4.000000,4.000000,4.000000,4.000000,4.000000,100.000000
1614131506.918370,96.000000,0.000000,-9.288495,8.478928,5.955922,29.176744,16.330828,7.750369,7.268463,-6.619964,7.918716,6.022796,-0.959885,2.861484,-7.037029,-17.125101,-19.232067,5.724978,-7.567865,-6.834446,-23.733255,-23.366917,-29.320448,-15.010072,-5.526928,-3.646962,-4.701068,7.355479,-0.037259,11.029452,10.209572,0.512141,28.985672,6.139135,8064.000000,0.000000,4.000000,,,,0.000000,4.000000,4.000000,4.000000,4.000000,4.000000,4.000000,4.000000,4.000000,4.000000,4.000000,4.000000,4.000000,4.000000,4.000000,4.000000,4.000000,4.000000,4.000000,4.000000,4.000000,4.000000,4.000000,4.000000,4.000000,4.000000,4.000000,4.000000,4.000000,4.000000,4.000000,4.000000,4.000000,100.000000
1614131506.926119,97.000000,0.000000,-6.202283,8.470449,5.949966,29.660389,18.365780,10.306722,7.261195,-6.613344,7.910798,10.632157,0.066716,2.858623,-6.517172,-5.825924,-16.648733,12.385921,-10.637220,12.659568,-11.914650,-23.856371,-28.778307,-14.995062,-6.034222,-3.643315,-4.696367,7.348123,-0.037221,10.505602,12.763464,-0.001192,28.956686,5.620176,8064.000000,0.000000,4.000000,,,,0.000000,4.000000,4.000000,4.000000,4.000000,4.000000,4.000000,4.000000,4.000000,4.000000,4.000000,4.000000,4.000000,4.000000,4.000000,4.000000,4.000000,4.000000,4.000000,4.000000,4.000000,4.000000,4.000000,4.000000,4.000000,4.000000,4.000000,4.000000,4.000000,4.000000,4.000000,4.000000,4.000000,100.000000
1614131506.933968,98.000000,0.000000,-1.067876,8.461979,5.944016,29.630728,19.885876,12.347696,7.253933,-6.093910,8.415708,-0.147705,-0.958992,-0.221159,-5.485013,-6.845739,-16.632084,19.553020,-10.626583,18.287933,3.994701,-21.781231,-27.211067,-14.467246,-0.899983,-3.639671,-4.691670,10.417698,-0.037184,11.007917,17.366085,-0.001190,28.927729,6.127376,8064.000000,0.000000,4.000000,,,,0.000000,4.000000,4.000000,4.000000,4.000000,4.000000,4.000000,4.000000,4.000000,4.000000,4.000000,4.000000,4.000000,4.000000,4.000000,4.000000,4.000000,4.000000,4.000000,4.000000,4.000000,4.000000,4.000000,4.000000,4.000000,4.000000,4.000000,4.000000,4.000000,4.000000,4.000000,4.000000,4.000000,100.000000
1614131506.941717,99.000000,0.000000,-1.579629,8.453517,5.938072,27.036995,16.276245,10.796887,7.246680,-7.113458,6.356009,-8.865506,-9.163160,-4.836322,-11.120554,-23.249149,-22.769299,11.328341,-10.103136,-1.217534,0.913783,-19.195349,-24.619753,-14.965599,1.665020,-3.636032,-4.686979,10.407280,-0.037147,9.458447,19.400002,0.511631,28.898802,6.121249,8064.000000,0.000000,4.000000,,,,0.000000,4.000000,4.000000,4.000000,4.000000,4.000000,4.000000,4.000000,4.000000,4.000000,4.000000,4.000000,4.000000,4.000000,4.000000,4.000000,4.000000,4.000000,4.000000,4.000000,4.000000,4.000000,4.000000,4.000000,4.000000,4.000000,4.000000,4.000000,4.000000,4.000000,4.000000,4.000000,4.000000,100.000000
1614131506.949566,100.000000,0.000000,-2.090870,8.445063,5.932134,25.471497,12.157405,8.221988,7.239433,-9.670446,1.734269,-7.318179,-15.820664,-5.344306,-19.827383,-27.841286,-26.849092,2.599063,-9.067391,2.886248,1.425690,-18.663332,-24.595135,-14.437813,0.637714,-3.632396,-4.682292,7.832770,-0.037110,7.397707,18.354961,-0.001701,28.869902,2.012563,8192.000000,0.000000,4.000000,,,,0.000000,4.000000,4.000000,4.000000,4.000000,4.000000,4.000000,4.000000,4.000000,4.000000,4.000000,4.000000,4.000000,4.000000,4.000000,4.000000,4.000000,4.000000,4.000000,4.000000,4.000000,4.000000,4.000000,4.000000,4.000000,4.000000,4.000000,4.000000,4.000000,4.000000,4.000000,4.000000,4.000000,100.000000
1614131506.957315,101.000000,0.000000,-1.063138,8.436618,5.926202,25.446024,13.170889,7.700945,7.232193,-10.173596,2.245355,-6.798040,-14.779202,-4.313321,-22.371658,-24.223700,-27.335064,-6.121485,-11.622427,11.088490,2.962726,-18.644669,-24.057718,-13.910555,1.149897,-3.628763,-4.164789,7.824938,0.475748,7.390309,18.336605,-4.617084,28.841032,-1.579193,8064.000000,0.000000,4.000000,,,,0.000000,4.000000,4.000000,4.000000,4.000000,4.000000,4.000000,4.000000,4.000000,4.000000,4.000000,4.000000,4.000000,4.000000,4.000000,4.000000,4.000000,4.000000,4.000000,4.000000,4.000000,4.000000,4.000000,4.000000,4.000000,4.000000,4.000000,4.000000,4.000000,4.000000,4.000000,4.000000,4.000000,100.000000
1614131506.965164,102.000000,0.000000,-1.574895,8.428182,5.920276,25.933399,14.183359,8.206065,7.737782,-10.163424,4.807212,-7.816884,-15.790065,-4.821828,-20.810823,-22.148195,-24.230806,-5.602543,-16.739010,-4.307214,-16.014597,-19.651665,-24.546480,-13.896645,1.148747,-3.625134,-4.673445,7.304292,-0.037548,4.305996,18.831089,-7.689390,28.812191,-1.577614,8064.000000,0.000000,4.000000,,,,0.000000,4.000000,4.000000,4.000000,4.000000,4.000000,4.000000,4.000000,4.000000,4.000000,4.000000,4.000000,4.000000,4.000000,4.000000,4.000000,4.000000,4.000000,4.000000,4.000000,4.000000,4.000000,4.000000,4.000000,4.000000,4.000000,4.000000,4.000000,4.000000,4.000000,4.000000,4.000000,4.000000,100.000000
1614131506.972913,103.000000,0.000000,-1.573320,8.419753,5.914355,25.394646,12.117893,8.197859,7.217224,-10.153259,3.776764,-7.809067,-15.774274,-4.817007,-21.815655,-12.382457,-13.950166,15.428700,-15.183809,-1.738804,-28.306274,-18.093552,-25.034756,-15.934030,1.147598,-2.595868,-4.668771,7.809808,0.475310,-0.313695,18.812258,-7.681700,28.783379,-2.088856,8192.000000,0.000000,4.000000,,,,0.000000,4.000000,4.000000,4.000000,4.000000,4.000000,4.000000,4.000000,4.000000,4.000000,4.000000,4.000000,4.000000,4.000000,4.000000,4.000000,4.000000,4.000000,4.000000,4.000000,4.000000,4.000000,4.000000,4.000000,4.000000,4.000000,4.000000,4.000000,4.000000,4.000000,4.000000,4.000000,4.000000,100.000000
1614131506.980762,104.000000,0.000000,-1.058926,8.924154,5.908441,24.856430,13.131416,7.676840,7.210006,-9.630286,3.772987,-7.801258,-9.604654,-4.299369,-22.306660,-11.344433,-11.884933,19.515837,-10.040420,11.083447,-24.175404,-19.613920,-23.984079,-17.969378,1.659271,-3.618913,-4.151282,8.314819,0.987655,-0.826202,17.767805,-7.161198,29.267416,-4.650870,8064.000000,0.000000,4.000000,,,,0.000000,4.000000,4.000000,4.000000,4.000000,4.000000,4.000000,4.000000,4.000000,4.000000,4.000000,4.000000,4.000000,4.000000,4.000000,4.000000,4.000000,4.000000,4.000000,4.000000,4.000000,4.000000,4.000000,4.000000,4.000000,4.000000,4.000000,4.000000,4.000000,4.000000,4.000000,4.000000,4.000000,100.000000
1614131506.988511,105.000000,0.000000,-2.596329,8.402410,5.902533,26.370035,13.631105,8.181984,7.715617,-11.159117,4.794855,-6.767815,-10.620690,-5.833531,-22.797173,-31.333088,-20.078176,-3.580603,-12.081661,-8.414816,-27.740973,-28.825075,-26.011377,-17.951408,-2.957773,-5.153756,-5.172771,2.665479,-3.628717,0.200266,14.673114,-7.154037,27.699688,-5.671860,8064.000000,0.000000,4.000000,,,,0.000000,4.000000,4.000000,4.000000,4.000000,4.000000,4.000000,4.000000,4.000000,4.000000,4.000000,4.000000,4.000000,4.000000,4.000000,4.000000,4.000000,4.000000,4.000000,4.000000,4.000000,4.000000,4.000000,4.000000,4.000000,4.000000,4.000000,4.000000,4.000000,4.000000,4.000000,4.000000,4.000000,100.000000
1614131506.996160,106.000000,0.000000,-4.645015,6.342725,6.409451,25.830845,5.925167,8.173802,5.143799,-13.199240,2.225958,-7.786688,-22.917763,-9.930262,-29.441042,-43.096626,-25.699123,-11.782150,-17.197784,-25.329477,-38.995281,-38.027020,-35.216137,-20.497561,-9.108662,-6.174243,-8.757342,-5.542315,-10.291756,-2.364037,11.581518,-7.659703,21.518141,-7.204650,8064.000000,0.000000,4.000000,,,,0.000000,4.000000,4.000000,4.000000,4.000000,4.000000,4.000000,4.000000,4.000000,4.000000,4.000000,4.000000,4.000000,4.000000,4.000000,4.000000,4.000000,4.000000,4.000000,4.000000,4.000000,4.000000,4.000000,4.000000,4.000000,4.000000,4.000000,4.000000,4.000000,4.000000,4.000000,4.000000,4.000000,100.000000
1614131507.003909,107.000000,0.000000,-5.666011,4.285100,6.403041,22.215269,-2.285887,8.165628,0.523270,-14.211682,1.710911,-10.855824,-28.535870,-12.484434,-33.514164,-36.386864,-28.237528,-9.206265,-17.693407,-14.022098,-43.571671,-40.553097,-40.309124,-25.092447,-11.150835,-11.296274,-11.825508,-8.613696,-11.819925,-4.412955,10.544295,-7.652044,17.394060,-8.735907,8064.000000,0.000000,4.000000,,,,0.000000,4.000000,4.000000,4.000000,4.000000,4.000000,4.000000,4.000000,4.000000,4.000000,4.000000,4.000000,4.000000,4.000000,4.000000,4.000000,4.000000,4.000000,4.000000,4.000000,4.000000,4.000000,4.000000,4.000000,4.000000,4.000000,4.000000,4.000000,4.000000,4.000000,4.000000,4.000000,4.000000,100.000000
1614131507.011559,108.000000,0.000000,-5.147524,4.793635,5.883817,22.705875,3.357425,8.157463,-1.015715,-13.684649,7.350226,-9.819328,-20.815025,-11.959129,-25.275524,-29.170990,-27.696470,-11.761162,-16.650074,-3.238844,-32.758869,-34.358696,-32.063686,-23.528893,-10.114042,-17.951645,-12.326503,-7.579441,-10.269644,-4.408542,11.046572,-5.080289,17.376665,-8.727171,8064.000000,0.000000,4.000000,,,,0.000000,4.000000,4.000000,4.000000,4.000000,4.000000,4.000000,4.000000,4.000000,4.000000,4.000000,4.000000,4.000000,4.000000,4.000000,4.000000,4.000000,4.000000,4.000000,4.000000,4.000000,4.000000,4.000000,4.000000,4.000000,4.000000,4.000000,4.000000,4.000000,4.000000,4.000000,4.000000,4.000000,100.000000
1614131507.019308,109.000000,0.000000,-5.142377,4.788842,6.903574,27.811375,12.584837,8.149305,0.010942,-13.670965,12.471081,-5.194124,-13.101904,-11.947170,-14.481017,-16.321306,-21.514927,-0.467349,-17.146244,4.969523,-8.110725,-20.991003,-24.339315,-18.889978,-10.103929,-16.395231,-11.801356,-6.546220,-11.285015,-3.891313,10.522705,-3.023927,17.872108,-8.718444,8064.000000,0.000000,4.000000,,,,0.000000,4.000000,4.000000,4.000000,4.000000,4.000000,4.000000,4.000000,4.000000,4.000000,4.000000,4.000000,4.000000,4.000000,4.000000,4.000000,4.000000,4.000000,4.000000,4.000000,4.000000,4.000000,4.000000,4.000000,4.000000,4.000000,4.000000,4.000000,4.000000,4.000000,4.000000,4.000000,4.000000,100.000000
1614131507.026957,110.000000,0.000000,-5.137234,4.784053,5.871030,26.757921,13.597893,8.141156,0.010931,-13.657294,11.945789,-2.624827,-11.550340,-11.935223,-12.928075,-6.048575,-19.954950,7.738246,-17.129097,12.656861,0.102514,-11.226423,-24.314976,-17.332628,-10.606646,-10.737810,-11.789555,-5.001213,-11.273730,-3.887422,10.512182,-4.046544,17.341417,-8.709725,8064.000000,0.000000,4.000000,,,,0.000000,4.000000,4.000000,4.000000,4.000000,4.000000,4.000000,4.000000,4.000000,4.000000,4.000000,4.000000,4.000000,4.000000,4.000000,4.000000,4.000000,4.000000,4.000000,4.000000,4.000000,4.000000,4.000000,4.000000,4.000000,4.000000,4.000000,4.000000,4.000000,4.000000,4.000000,4.000000,4.000000,100.000000
1614131507.034706,111.000000,0.000000,-5.132097,4.779269,1.762595,21.602959,12.045834,8.133015,-1.014721,-13.643637,10.395382,-3.135023,-11.538790,-11.923287,-14.453608,-19.375860,-28.140123,-6.115646,-17.624788,6.490358,-11.179640,-13.779299,-25.316301,-17.828115,-10.596039,-10.214252,-12.290586,-2.944930,-10.749636,-4.909175,11.014490,-2.504036,17.836895,-8.188195,8064.000000,0.000000,4.000000,,,,0.000000,4.000000,4.000000,4.000000,4.000000,4.000000,4.000000,4.000000,4.000000,4.000000,4.000000,4.000000,4.000000,4.000000,4.000000,4.000000,4.000000,4.000000,4.000000,4.000000,4.000000,4.000000,4.000000,4.000000,4.000000,4.000000,4.000000,4.000000,4.000000,4.000000,4.000000,4.000000,4.000000,100.000000
1614131507.042355,112.000000,0.000000,-5.126965,4.774490,-1.316091,21.581356,13.572249,8.124882,0.524756,-13.629993,8.333705,-4.157529,-11.014430,-12.424185,-13.413513,-29.612894,-28.111984,-6.622351,-16.581524,1.868483,-7.065897,-15.303982,-23.239704,-17.810287,-9.559801,-11.229679,-11.765474,-3.454805,-11.251707,-2.852984,11.003476,0.062571,18.331879,-8.180007,8064.000000,0.000000,4.000000,,,,0.000000,4.000000,4.000000,4.000000,4.000000,4.000000,4.000000,4.000000,4.000000,4.000000,4.000000,4.000000,4.000000,4.000000,4.000000,4.000000,4.000000,4.000000,4.000000,4.000000,4.000000,4.000000,4.000000,4.000000,4.000000,4.000000,4.000000,4.000000,4.000000,4.000000,4.000000,4.000000,4.000000,100.000000
1614131507.050104,113.000000,0.000000,-5.121838,4.769715,-1.314775,22.585415,13.558677,8.116757,5.139616,-13.616364,7.812551,-2.614910,-11.003416,-11.386120,-12.887280,-14.711486,-19.878744,13.897092,-14.000839,11.097383,-5.007548,-11.698934,-24.242105,-17.279657,-7.498960,-10.192808,-7.651145,-3.451350,-9.701993,2.278074,10.992473,-1.988774,17.800726,-8.684648,8064.000000,0.000000,4.000000,,,,0.000000,4.000000,4.000000,4.000000,4.000000,4.000000,4.000000,4.000000,4.000000,4.000000,4.000000,4.000000,4.000000,4.000000,4.000000,4.000000,4.000000,4.000000,4.000000,4.000000,4.000000,4.000000,4.000000,4.000000,4.000000,4.000000,4.000000,4.000000,4.000000,4.000000,4.000000,4.000000,4.000000,100.000000
1614131507.057753,114.000000,0.000000,-5.116716,4.764946,-0.800639,21.537189,13.032298,8.108640,7.698578,-13.602747,7.804738,-3.125116,-10.992413,-8.810631,-13.387213,-3.414723,-17.807583,20.549862,-12.961197,16.214491,-21.925617,-11.687235,-24.217863,-17.775198,-5.952999,-10.182615,-4.053751,-3.447899,-5.076907,4.327078,10.981480,-2.499605,17.782927,-8.163142,8064.000000,0.000000,4.000000,,,,0.000000,4.000000,4.000000,4.000000,4.000000,4.000000,4.000000,4.000000,4.000000,4.000000,4.000000,4.000000,4.000000,4.000000,4.000000,4.000000,4.000000,4.000000,4.000000,4.000000,4.000000,4.000000,4.000000,4.000000,4.000000,4.000000,4.000000,4.000000,4.000000,4.000000,4.000000,4.000000,4.000000,100.000000
1614131507.065502,115.000000,0.000000,-5.111599,4.760180,-1.312659,22.028473,13.019265,8.100532,7.178059,-13.589144,5.745651,-8.763016,-11.494241,-7.776179,-13.886645,-8.539514,-18.815416,16.939568,-13.461057,14.146995,-16.262667,-11.675548,-20.603901,-17.757421,-6.459867,-10.685253,-4.049696,-3.444451,-2.507727,3.297110,10.970498,-0.445824,18.277964,-8.154980,8064.000000,0.000000,4.000000,,,,0.000000,4.000000,4.000000,4.000000,4.000000,4.000000,4.000000,4.000000,4.000000,4.000000,4.000000,4.000000,4.000000,4.000000,4.000000,4.000000,4.000000,4.000000,4.000000,4.000000,4.000000,4.000000,4.000000,4.000000,4.000000,4.000000,4.000000,4.000000,4.000000,4.000000,4.000000,4.000000,4.000000,100.000000
1614131507.073152,116.000000,0.000000,-5.106488,4.755420,-1.311347,22.519264,13.006247,8.092431,7.170881,-13.575555,3.688623,-13.882459,-11.482746,-8.281223,-13.359939,-10.069436,-18.283779,17.435450,-13.447596,13.107207,1.702314,-9.612590,-21.608938,-17.739664,-6.453407,-10.674568,-4.558467,-3.441007,-3.530861,3.806633,8.908246,-5.060763,15.182763,-10.198107,8064.000000,0.000000,4.000000,,,,0.000000,4.000000,4.000000,4.000000,4.000000,4.000000,4.000000,4.000000,4.000000,4.000000,4.000000,4.000000,4.000000,4.000000,4.000000,4.000000,4.000000,4.000000,4.000000,4.000000,4.000000,4.000000,4.000000,4.000000,4.000000,4.000000,4.000000,4.000000,4.000000,4.000000,4.000000,4.000000,4.000000,100.000000
1614131507.080901,117.000000,0.000000,-5.101381,4.750665,-1.310035,18.394182,12.993240,8.084338,7.676531,-13.561979,4.197755,-12.330114,-11.471264,-8.272943,-13.346579,-6.469623,-20.316778,11.776988,-12.921328,12.068459,-10.094260,-11.141439,-29.279638,-17.721926,-5.934133,-10.663894,-4.041089,-3.437566,-3.527330,2.777185,7.360876,-11.209548,10.552196,-12.239190,8064.000000,0.000000,4.000000,,,,0.000000,4.000000,4.000000,4.000000,4.000000,4.000000,4.000000,4.000000,4.000000,4.000000,4.000000,4.000000,4.000000,4.000000,4.000000,4.000000,4.000000,4.000000,4.000000,4.000000,4.000000,4.000000,4.000000,4.000000,4.000000,4.000000,4.000000,4.000000,4.000000,4.000000,4.000000,4.000000,4.000000,100.000000
1614131507.088550,118.000000,0.000000,-5.096280,4.745914,-0.795905,14.273223,12.980247,8.589075,7.156034,-13.548417,4.706378,-10.266502,-10.946972,-7.751849,-14.871694,-8.514435,-24.399025,3.560083,-12.908406,12.056390,-16.238012,-14.720041,-31.814461,-17.704203,-6.441020,-10.653230,-4.037047,-3.434128,-3.010982,0.210306,6.840694,-11.198339,9.516002,-12.226951,8064.000000,0.000000,4.000000,,,,0.000000,4.000000,4.000000,4.000000,4.000000,4.000000,4.000000,4.000000,4.000000,4.000000,4.000000,4.000000,4.000000,4.000000,4.000000,4.000000,4.000000,4.000000,4.000000,4.000000,4.000000,4.000000,4.000000,4.000000,4.000000,4.000000,4.000000,4.000000,4.000000,4.000000,4.000000,4.000000,4.000000,100.000000
1614131507.096399,119.000000,0.000000,-5.091184,4.741168,-1.307929,16.310232,12.967266,8.067665,7.148878,-13.022048,4.188851,-8.717774,-10.936025,-7.744097,-16.908104,-7.480280,-25.400267,2.530882,-12.382677,9.480231,-3.401261,-16.756603,-28.192902,-17.686499,-6.434578,-10.642576,-4.545831,-3.430694,-3.520791,-0.815546,7.346674,-10.674319,10.019306,-11.701903,8192.000000,0.000000,4.000000,,,,0.000000,4.000000,4.000000,4.000000,4.000000,4.000000,4.000000,4.000000,4.000000,4.000000,4.000000,4.000000,4.000000,4.000000,4.000000,4.000000,4.000000,4.000000,4.000000,4.000000,4.000000,4.000000,4.000000,4.000000,4.000000,4.000000,4.000000,4.000000,4.000000,4.000000,4.000000,4.000000,4.000000,100.000000
1614131507.104148,120.000000,0.000000,-5.086092,4.736427,-0.793801,18.345203,12.954299,8.059597,7.141729,-13.521847,4.184662,-7.170595,-11.437909,-8.761994,-17.404016,-1.318953,-26.400509,1.502710,-13.908756,2.291264,-12.628629,-20.329590,-29.190350,-17.668812,-6.428144,-10.631934,-4.541285,-3.427263,-3.517271,-0.301910,7.339328,-10.150825,10.009287,-12.203022,8064.000000,0.000000,4.000000,,,,0.000000,4.000000,4.000000,4.000000,4.000000,4.000000,4.000000,4.000000,4.000000,4.000000,4.000000,4.000000,4.000000,4.000000,4.000000,4.000000,4.000000,4.000000,4.000000,4.000000,4.000000,4.000000,4.000000,4.000000,4.000000,4.000000,4.000000,4.000000,4.000000,4.000000,4.000000,4.000000,4.000000,100.000000
1614131507.111997,121.000000,0.000000,-5.081007,4.731691,1.771095,17.814037,12.941345,8.564359,7.134587,-13.508325,5.206119,-7.676245,-10.913651,-7.727591,-17.386612,-5.933019,-25.861288,2.014028,-12.869206,7.929998,-19.795488,-16.206696,-27.622698,-17.651144,-6.421716,-10.621302,-4.536744,-3.423836,-3.513753,-0.301608,7.331988,-8.089392,13.076201,-12.190819,8064.000000,0.000000,4.000000,,,,0.000000,4.000000,4.000000,4.000000,4.000000,4.000000,4.000000,4.000000,4.000000,4.000000,4.000000,4.000000,4.000000,4.000000,4.000000,4.000000,4.000000,4.000000,4.000000,4.000000,4.000000,4.000000,4.000000,4.000000,4.000000,4.000000,4.000000,4.000000,4.000000,4.000000,4.000000,4.000000,4.000000,100.000000
1614131507.119746,122.000000,0.000000,-5.075925,5.239779,3.307786,18.821865,13.441224,7.017333,7.127453,-12.981997,3.662451,-10.232671,-10.902738,-7.719863,-18.907688,-18.747599,-24.809786,2.524834,-12.343516,17.152838,3.814051,-5.934080,-19.902767,-17.633493,-6.415294,-10.610681,-4.532207,-3.420412,-3.510240,-0.301306,7.324656,-6.542841,17.165689,-12.178628,8064.000000,0.000000,4.000000,,,,0.000000,4.000000,4.000000,4.000000,4.000000,4.000000,4.000000,4.000000,4.000000,4.000000,4.000000,4.000000,4.000000,4.000000,4.000000,4.000000,4.000000,4.000000,4.000000,4.000000,4.000000,4.000000,4.000000,4.000000,4.000000,4.000000,4.000000,4.000000,4.000000,4.000000,4.000000,4.000000,4.000000,100.000000
1614131507.127595,123.000000,0.000000,-5.070849,4.208899,1.253196,15.213300,11.376501,2.907751,5.069043,-13.481834,-3.007878,-11.248079,-16.020041,-13.865990,-26.068266,-28.472441,-37.605488,-10.811024,-20.536301,2.263890,3.297417,-9.517889,-19.882866,-17.615860,-6.408879,-10.600070,-4.527675,-3.929812,-3.506729,-2.352287,7.317332,-7.049119,18.174164,-12.166450,8064.000000,0.000000,4.000000,,,,0.000000,4.000000,4.000000,4.000000,4.000000,4.000000,4.000000,4.000000,4.000000,4.000000,4.000000,4.000000,4.000000,4.000000,4.000000,4.000000,4.000000,4.000000,4.000000,4.000000,4.000000,4.000000,4.000000,4.000000,4.000000,4.000000,4.000000,4.000000,4.000000,4.000000,4.000000,4.000000,4.000000,100.000000
1614131507.135344,124.000000,0.000000,-5.065779,2.153408,-1.824980,7.505778,7.262560,0.340741,1.474231,-16.032455,-8.133076,-11.236832,-21.645046,-20.518791,-35.785789,-38.700378,-51.926857,-21.569445,-29.746534,-12.097348,-23.372547,-19.251961,-23.965546,-18.623884,-6.402470,-10.589470,-4.523147,-3.925882,-3.503223,-3.888396,7.310014,-7.042069,17.643169,-12.154284,8064.000000,0.000000,4.000000,,,,0.000000,4.000000,4.000000,4.000000,4.000000,4.000000,4.000000,4.000000,4.000000,4.000000,4.000000,4.000000,4.000000,4.000000,4.000000,4.000000,4.000000,4.000000,4.000000,4.000000,4.000000,4.000000,4.000000,4.000000,4.000000,4.000000,4.000000,4.000000,4.000000,4.000000,4.000000,4.000000,4.000000,100.000000
1614131507.143193,125.000000,0.000000,-5.060713,0.612793,-1.823155,9.036735,5.716836,0.853221,-0.578526,-17.554884,-7.099301,-10.712774,-23.161861,-17.934170,-35.750004,-44.815525,-44.182621,-5.650438,-26.127045,0.222441,-16.682508,-15.130145,-17.787735,-17.579618,-6.396067,-10.578880,-4.005804,-0.845033,-3.499719,-1.833225,7.302704,-6.522207,17.625526,-12.142129,8064.000000,0.000000,4.000000,,,,0.000000,4.000000,4.000000,4.000000,4.000000,4.000000,4.000000,4.000000,4.000000,4.000000,4.000000,4.000000,4.000000,4.000000,4.000000,4.000000,4.000000,4.000000,4.000000,4.000000,4.000000,4.000000,4.000000,4.000000,4.000000,4.000000,4.000000,4.000000,4.000000,4.000000,4.000000,4.000000,4.000000,100.000000
1614131507.150942,126.000000,0.000000,-5.055652,1.125001,-0.282871,14.668723,5.198299,0.852367,-0.065127,-17.024509,-7.092202,-8.650779,-24.164341,-12.275209,-29.560406,-35.027119,-31.830748,9.227007,-20.972712,12.017091,8.975200,-7.422707,-9.564819,-13.459476,-6.389671,-10.568301,-4.514618,1.719914,-3.496220,0.219890,7.808222,-7.028505,17.607901,-12.129987,8064.000000,0.000000,4.000000,,,,0.000000,4.000000,4.000000,4.000000,4.000000,4.000000,4.000000,4.000000,4.000000,4.000000,4.000000,4.000000,4.000000,4.000000,4.000000,4.000000,4.000000,4.000000,4.000000,4.000000,4.000000,4.000000,4.000000,4.000000,4.000000,4.000000,4.000000,4.000000,4.000000,4.000000,4.000000,4.000000,4.000000,100.000000
1614131507.158791,127.000000,0.000000,-5.050597,1.123876,-2.333870,13.628413,4.167459,0.338694,-0.065062,-17.520306,-8.110751,-7.616488,-17.986330,-11.237293,-25.941103,-17.556194,-27.183533,9.217780,-23.003021,8.928150,5.376482,-7.928105,-9.042434,-10.881913,-6.383282,-10.557734,-5.022924,-0.845908,-3.492723,-0.293151,7.287593,-7.021477,17.590294,-12.117857,8064.000000,0.000000,4.000000,,,,0.000000,4.000000,4.000000,4.000000,4.000000,4.000000,4.000000,4.000000,4.000000,4.000000,4.000000,4.000000,4.000000,4.000000,4.000000,4.000000,4.000000,4.000000,4.000000,4.000000,4.000000,4.000000,4.000000,4.000000,4.000000,4.000000,4.000000,4.000000,4.000000,4.000000,4.000000,4.000000,4.000000,100.000000
1614131507.166540,0.000000,0.000000,-5.045546,1.122752,-0.793074,16.691708,10.317138,1.876817,-0.064997,-16.989964,-2.461614,-4.019127,-1.045267,-12.251697,-16.171572,6.563926,-8.694810,23.567537,-14.774890,13.021787,-3.859664,-5.356074,-4.930827,-8.819750,-6.889719,-10.547175,-2.453799,0.693399,-3.489231,-0.805678,7.280306,-7.014455,17.572702,-8.003175,0.000000,198.000000,4.000000,,,,0.000000,4.000000,4.000000,4.000000,4.000000,4.000000,4.000000,4.000000,4.000000,4.000000,4.000000,4.000000,4.000000,4.000000,4.000000,4.000000,4.000000,4.000000,4.000000,4.000000,4.000000,4.000000,4.000000,4.000000,4.000000,4.000000,4.000000,4.000000,4.000000,4.000000,4.000000,4.000000,4.000000,100.000000
1614131507.174389,1.000000,0.000000,-5.040500,1.121629,12.028232,27.444246,21.588873,4.439043,-0.064932,-12.357590,6.771616,3.164379,11.263471,-11.726624,-0.770785,28.095823,11.826705,40.979866,0.624500,23.265175,4.349323,0.290308,-1.336153,-4.708366,-6.370008,-11.049449,0.625578,7.872193,-2.972921,-0.292052,8.298667,-6.494620,18.067951,-1.328505,0.000000,182.000000,4.000000,,,,0.000000,4.000000,4.000000,4.000000,4.000000,4.000000,4.000000,4.000000,4.000000,4.000000,4.000000,4.000000,4.000000,4.000000,4.000000,4.000000,4.000000,4.000000,4.000000,4.000000,4.000000,4.000000,4.000000,4.000000,4.000000,4.000000,4.000000,4.000000,4.000000,4.000000,4.000000,4.000000,4.000000,100.000000
1614131507.182138,2.000000,0.000000,-5.035460,-0.930775,18.170050,27.929623,24.131386,4.947424,-0.064867,-10.293950,8.816127,3.161215,11.765027,-11.202077,1.794089,18.836958,5.661033,27.605553,3.187979,18.626526,2.806513,-0.735624,-7.488663,-3.678016,-6.363638,-10.012758,-3.477611,3.248936,-2.969948,-0.291760,5.213445,-6.488126,18.049883,0.724105,0.000000,183.000000,4.000000,,,,0.000000,4.000000,4.000000,4.000000,4.000000,4.000000,4.000000,4.000000,4.000000,4.000000,4.000000,4.000000,4.000000,4.000000,4.000000,4.000000,4.000000,4.000000,4.000000,4.000000,4.000000,4.000000,4.000000,4.000000,4.000000,4.000000,4.000000,4.000000,4.000000,4.000000,4.000000,4.000000,4.000000,100.000000
1614131507.189987,3.000000,0.000000,-5.543245,-2.468305,8.408290,21.747849,19.491871,4.429657,-0.064802,-9.258016,7.781670,-1.970152,9.189159,-12.216516,-2.310269,-1.694699,-7.677962,13.218973,1.133508,8.864308,-13.093730,-5.863093,-14.660661,-6.751261,-6.870095,-10.515566,-9.627980,-9.574825,-3.992619,-0.291468,-1.458435,-7.507278,17.006191,-1.327901,0.000000,169.000000,4.000000,,,,0.000000,4.000000,4.000000,4.000000,4.000000,4.000000,4.000000,4.000000,4.000000,4.000000,4.000000,4.000000,4.000000,4.000000,4.000000,4.000000,4.000000,4.000000,4.000000,4.000000,4.000000,4.000000,4.000000,4.000000,4.000000,4.000000,4.000000,4.000000,4.000000,4.000000,4.000000,4.000000,4.000000,100.000000
1614131507.197736,4.000000,0.000000,-5.024881,-2.465837,2.758856,22.238920,21.010839,4.938047,-0.064737,-5.146193,8.286709,-3.506643,8.154329,-10.153018,-1.282318,0.871098,-4.080540,19.872421,10.363144,14.496470,-10.003713,-8.421332,-14.133180,-6.744510,-3.273482,-11.530691,-3.977326,-7.001148,-2.450165,-0.291177,-2.482618,-5.961310,18.014826,0.724709,0.000000,199.000000,4.000000,,,,0.000000,4.000000,4.000000,4.000000,4.000000,4.000000,4.000000,4.000000,4.000000,4.000000,4.000000,4.000000,4.000000,4.000000,4.000000,4.000000,4.000000,4.000000,4.000000,4.000000,4.000000,4.000000,4.000000,4.000000,4.000000,4.000000,4.000000,4.000000,4.000000,4.000000,4.000000,4.000000,4.000000,100.000000
1614131507.205585,5.000000,0.000000,-2.455754,-2.463371,2.243276,20.678221,21.502649,4.420289,-0.064672,-1.551303,5.201499,-4.528778,7.633355,-5.527480,-3.332318,0.357406,-3.050819,16.262804,13.429704,22.687101,3.339624,-7.900091,-11.554944,-5.199304,0.832356,-6.390956,1.154856,2.749443,0.629208,0.221935,1.109608,-1.852784,19.535273,1.236805,0.000000,188.000000,4.000000,,,,0.000000,4.000000,4.000000,4.000000,4.000000,4.000000,4.000000,4.000000,4.000000,4.000000,4.000000,4.000000,4.000000,4.000000,4.000000,4.000000,4.000000,4.000000,4.000000,4.000000,4.000000,4.000000,4.000000,4.000000,4.000000,4.000000,4.000000,4.000000,4.000000,4.000000,4.000000,4.000000,4.000000,100.000000
1614131507.213334,6.000000,0.000000,-0.914836,-2.460908,-9.553839,11.939593,7.122172,2.364587,-0.064608,-1.549752,0.580913,-7.088351,7.112901,-3.983491,-11.534114,-18.617310,-14.842640,2.400388,0.595762,12.408005,-9.484228,-7.892191,-14.620313,-6.219746,1.344344,0.282102,-11.153991,-2.894332,-2.961164,-0.291107,-0.942783,-5.953496,13.361892,-14.149047,0.000000,208.000000,4.000000,,,,0.000000,4.000000,4.000000,4.000000,4.000000,4.000000,4.000000,4.000000,4.000000,4.000000,4.000000,4.000000,4.000000,4.000000,4.000000,4.000000,4.000000,4.000000,4.000000,4.000000,4.000000,4.000000,4.000000,4.000000,4.000000,4.000000,4.000000,4.000000,4.000000,4.000000,4.000000,4.000000,4.000000,100.000000
1614131507.221183,7.000000,0.000000,-1.426742,-2.458447,-20.826336,9.363551,-5.705462,0.310940,-0.064543,-3.086664,0.067511,-7.594083,6.592968,-4.492328,-15.112323,-21.162796,-24.058567,2.397988,-8.122783,5.728930,-21.269615,-8.909940,-18.195436,-7.239167,0.830179,-0.231001,-18.835144,-8.019643,-7.060768,-0.803637,-2.993123,-13.639850,5.656222,-29.519514,0.000000,181.000000,4.000000,,,,0.000000,4.000000,4.000000,4.000000,4.000000,4.000000,4.000000,4.000000,4.000000,4.000000,4.000000,4.000000,4.000000,4.000000,4.000000,4.000000,4.000000,4.000000,4.000000,4.000000,4.000000,4.000000,4.000000,4.000000,4.000000,4.000000,4.000000,4.000000,4.000000,4.000000,4.000000,4.000000,4.000000,100.000000
1614131507.228932,8.000000,0.000000,-1.425315,-2.455989,-19.779869,11.918290,-2.110013,0.823449,-0.064478,-2.057936,1.093085,-8.099310,7.612016,-4.487836,-13.045929,-6.782658,-22.496046,5.472513,-5.037737,15.979611,-0.735526,-7.362568,-9.459291,-4.667825,1.854990,-3.307693,-5.995797,-0.319316,-4.489604,0.222808,0.086794,-11.574928,8.214668,-29.489994,0.000000,180.000000,4.000000,,,,0.000000,4.000000,4.000000,4.000000,4.000000,4.000000,4.000000,4.000000,4.000000,4.000000,4.000000,4.000000,4.000000,4.000000,4.000000,4.000000,4.000000,4.000000,4.000000,4.000000,4.000000,4.000000,4.000000,4.000000,4.000000,4.000000,4.000000,4.000000,4.000000,4.000000,4.000000,4.000000,4.000000,100.000000
1614131507.236582,9.000000,0.000000,-1.423890,-2.453533,-19.247269,9.342269,0.969019,0.822626,-0.064414,-2.055878,1.091992,-10.142492,6.578763,-3.970527,-14.058524,-7.288696,-21.447908,1.364476,-5.545520,12.373888,7.983159,-9.406487,-4.834447,-7.740081,0.314674,-2.278744,-0.348775,-0.318997,-5.510756,-1.315876,-1.451755,-13.614635,3.591069,-32.537426,0.000000,191.000000,4.000000,,,,0.000000,4.000000,4.000000,4.000000,4.000000,4.000000,4.000000,4.000000,4.000000,4.000000,4.000000,4.000000,4.000000,4.000000,4.000000,4.000000,4.000000,4.000000,4.000000,4.000000,4.000000,4.000000,4.000000,4.000000,4.000000,4.000000,4.000000,4.000000,4.000000,4.000000,4.000000,4.000000,4.000000,100.000000
1614131507.244331,10.000000,0.000000,-1.422466,-2.451079,-24.869047,0.102157,-6.724257,0.821803,-0.064350,-5.643566,-0.447562,-11.157991,-1.120124,-4.479377,-20.711132,-16.512177,-24.503384,-1.200991,-13.745103,-7.638486,-16.640209,-17.602209,-23.803972,-18.501572,-6.352308,-6.379029,-12.656118,-13.652011,-15.248835,-5.929945,-8.629790,-26.421534,-13.848419,-45.325401,0.000000,164.000000,4.000000,,,,0.000000,4.000000,4.000000,4.000000,4.000000,4.000000,4.000000,4.000000,4.000000,4.000000,4.000000,4.000000,4.000000,4.000000,4.000000,4.000000,4.000000,4.000000,4.000000,4.000000,4.000000,4.000000,4.000000,4.000000,4.000000,4.000000,4.000000,4.000000,4.000000,4.000000,4.000000,4.000000,4.000000,100.000000
1614131507.251980,11.000000,0.000000,-1.421044,-2.448628,-27.408279,-5.026150,-9.794456,0.820982,-0.064285,-9.740486,-2.498396,-10.634012,-7.785670,-4.474898,-25.305805,-16.495665,-24.478882,-3.763892,-17.833921,-13.784694,-28.418442,-23.225634,-38.651962,-26.175377,-9.935699,-13.552137,-17.771667,-20.305025,-19.336149,-5.924015,-11.698083,-28.959215,-19.475595,-48.356998,0.000000,194.000000,4.000000,,,,0.000000,4.000000,4.000000,4.000000,4.000000,4.000000,4.000000,4.000000,4.000000,4.000000,4.000000,4.000000,4.000000,4.000000,4.000000,4.000000,4.000000,4.000000,4.000000,4.000000,4.000000,4.000000,4.000000,4.000000,4.000000,4.000000,4.000000,4.000000,4.000000,4.000000,4.000000,4.000000,4.000000,100.000000
1614131507.259729,12.000000,0.000000,-1.419623,-2.446179,-26.355230,-2.969842,-5.682097,0.820161,-0.064221,-10.243567,-3.008718,-10.623379,-8.290706,-4.470423,-23.229218,-14.427887,-17.787735,-3.247308,-17.303267,-7.104242,-17.620792,-23.202408,-27.844080,-25.123562,-9.925763,-15.077047,-12.625691,-16.182156,-15.727070,-1.302707,-11.173565,-19.186665,-8.174069,-41.129154,0.000000,177.000000,4.000000,,,,0.000000,4.000000,4.000000,4.000000,4.000000,4.000000,4.000000,4.000000,4.000000,4.000000,4.000000,4.000000,4.000000,4.000000,4.000000,4.000000,4.000000,4.000000,4.000000,4.000000,4.000000,4.000000,4.000000,4.000000,4.000000,4.000000,4.000000,4.000000,4.000000,4.000000,4.000000,4.000000,4.000000,100.000000
1614131507.267378,13.000000,0.000000,-1.418203,-2.443733,-26.328876,-0.915590,-8.240518,0.819340,-0.064157,-9.720502,-4.031351,-11.638396,-8.282414,-4.465953,-18.077784,-15.439100,-9.564819,4.961068,-16.773144,-2.994574,-9.910863,-22.153564,-19.098288,-24.072796,-9.915837,-14.036329,-11.074604,-14.114693,-14.172881,0.237058,-11.162392,-17.116198,-2.524870,-40.575207,0.000000,187.000000,4.000000,,,,0.000000,4.000000,4.000000,4.000000,4.000000,4.000000,4.000000,4.000000,4.000000,4.000000,4.000000,4.000000,4.000000,4.000000,4.000000,4.000000,4.000000,4.000000,4.000000,4.000000,4.000000,4.000000,4.000000,4.000000,4.000000,4.000000,4.000000,4.000000,4.000000,4.000000,4.000000,4.000000,4.000000,100.000000
1614131507.275127,14.000000,0.000000,-1.416785,-2.441289,-26.302547,-0.401854,-12.847662,0.818521,-0.064093,-9.710782,-6.591422,-11.113937,-7.761312,-3.948666,-17.034065,-16.962122,-10.068075,5.468927,-17.269190,1.110985,-10.926594,-22.644230,-23.694574,-25.074366,-9.905922,-14.022293,-11.576349,-14.613398,-14.158709,-0.276000,-9.612767,-18.124722,-5.086448,-40.021812,0.000000,206.000000,4.000000,,,,0.000000,4.000000,4.000000,4.000000,4.000000,4.000000,4.000000,4.000000,4.000000,4.000000,4.000000,4.000000,4.000000,4.000000,4.000000,4.000000,4.000000,4.000000,4.000000,4.000000,4.000000,4.000000,4.000000,4.000000,4.000000,4.000000,4.000000,4.000000,4.000000,4.000000,4.000000,4.000000,4.000000,100.000000
1614131507.282776,15.000000,0.000000,-1.415368,-2.438848,-25.250603,1.137010,-12.321994,1.330523,-0.064028,-9.188251,-6.072010,-8.025900,-8.266371,-5.483179,-17.017031,-22.586185,-22.365700,-7.357055,-16.739101,0.084233,-23.736179,-24.160048,-24.696520,-24.536470,-9.383195,-14.521091,-11.564774,-14.085964,-13.631729,0.237097,-7.551872,-13.491212,-3.542900,-35.879223,0.000000,182.000000,4.000000,,,,0.000000,4.000000,4.000000,4.000000,4.000000,4.000000,4.000000,4.000000,4.000000,4.000000,4.000000,4.000000,4.000000,4.000000,4.000000,4.000000,4.000000,4.000000,4.000000,4.000000,4.000000,4.000000,4.000000,4.000000,4.000000,4.000000,4.000000,4.000000,4.000000,4.000000,4.000000,4.000000,4.000000,100.000000
1614131507.290525,16.000000,0.000000,-1.413953,-2.436409,-27.276634,-1.428230,-13.848133,1.329193,-0.063964,-10.204703,-6.578759,-11.607618,-15.950412,-8.041799,-17.000013,-29.743086,-33.625385,-12.990724,-17.235182,-4.018415,-29.353470,-27.725632,-24.671824,-24.511932,-11.937915,-13.993750,-11.553208,-14.584699,-15.156559,-0.275961,-7.031500,-14.503362,-3.539357,-38.407448,0.000000,194.000000,4.000000,,,,0.000000,4.000000,4.000000,4.000000,4.000000,4.000000,4.000000,4.000000,4.000000,4.000000,4.000000,4.000000,4.000000,4.000000,4.000000,4.000000,4.000000,4.000000,4.000000,4.000000,4.000000,4.000000,4.000000,4.000000,4.000000,4.000000,4.000000,4.000000,4.000000,4.000000,4.000000,4.000000,4.000000,100.000000
1614131507.298175,17.000000,0.000000,-1.412539,-2.433973,-24.685255,1.137301,-10.244542,0.815043,0.448920,-12.245781,-10.161923,-15.698574,-19.524206,-8.546577,-16.470194,-31.764626,-32.566120,-6.823886,-16.705126,2.139449,-6.247192,-25.646624,-23.621511,-24.487421,-13.977259,-14.492576,-11.541656,-14.057294,-13.602942,-0.275685,-1.383443,-17.565783,-3.535817,-38.881863,0.000000,184.000000,4.000000,,,,0.000000,4.000000,4.000000,4.000000,4.000000,4.000000,4.000000,4.000000,4.000000,4.000000,4.000000,4.000000,4.000000,4.000000,4.000000,4.000000,4.000000,4.000000,4.000000,4.000000,4.000000,4.000000,4.000000,4.000000,4.000000,4.000000,4.000000,4.000000,4.000000,4.000000,4.000000,4.000000,4.000000,100.000000
1614131507.305924,18.000000,0.000000,-1.411126,-1.918718,-14.916981,14.469497,5.150318,1.327048,2.499753,-13.259176,-7.074838,-1.323902,-10.786733,-8.025210,-16.966543,-28.655937,-23.815603,-3.740139,-14.124319,5.727053,0.938542,-22.031233,-19.495325,-24.462934,-12.937640,-14.478084,-11.017293,-10.453492,-9.999595,0.750232,4.771787,-9.855908,0.570283,-28.586569,0.000000,197.000000,4.000000,,,,0.000000,4.000000,4.000000,4.000000,4.000000,4.000000,4.000000,4.000000,4.000000,4.000000,4.000000,4.000000,4.000000,4.000000,4.000000,4.000000,4.000000,4.000000,4.000000,4.000000,4.000000,4.000000,4.000000,4.000000,4.000000,4.000000,4.000000,4.000000,4.000000,4.000000,4.000000,4.000000,4.000000,100.000000
1614131507.313573,19.000000,0.000000,-0.896895,-3.455261,-11.312320,15.480668,7.709270,1.325721,4.548535,-14.271558,-1.939558,3.805628,-7.186202,-8.017185,-16.949577,-26.576000,-21.740505,-6.300502,-13.084554,-5.560725,-27.267525,-27.650229,-27.680958,-24.951292,-14.463164,-13.437964,-14.596020,-13.007142,-16.143440,-6.942826,1.177271,-9.333232,-1.994390,-27.019522,0.000000,195.000000,4.000000,,,,0.000000,4.000000,4.000000,4.000000,4.000000,4.000000,4.000000,4.000000,4.000000,4.000000,4.000000,4.000000,4.000000,4.000000,4.000000,4.000000,4.000000,4.000000,4.000000,4.000000,4.000000,4.000000,4.000000,4.000000,4.000000,4.000000,4.000000,4.000000,4.000000,4.000000,4.000000,4.000000,4.000000,100.000000
1614131507.321322,20.000000,0.000000,-2.434459,-6.015909,-18.480495,-1.970710,-5.631772,-2.265348,1.979884,-16.308569,-8.091465,-21.839203,-15.384144,-8.009168,-17.445448,-30.651989,-23.257227,-6.807022,-13.071469,-8.632088,-28.778719,-28.648218,-36.884045,-24.413519,-17.012804,-15.988629,-19.709629,-18.635160,-24.332426,-16.166653,-6.516214,-21.631592,-12.761626,-41.351475,0.000000,201.000000,4.000000,,,,0.000000,4.000000,4.000000,4.000000,4.000000,4.000000,4.000000,4.000000,4.000000,4.000000,4.000000,4.000000,4.000000,4.000000,4.000000,4.000000,4.000000,4.000000,4.000000,4.000000,4.000000,4.000000,4.000000,4.000000,4.000000,4.000000,4.000000,4.000000,4.000000,4.000000,4.000000,4.000000,4.000000,100.000000
1614131507.328971,21.000000,0.000000,-4.996127,-6.522713,-22.564579,-7.096944,-7.677423,-6.365647,-3.150301,-17.317902,-14.237220,-30.022493,-15.881580,-8.001159,-16.915182,-33.185440,-21.182688,-0.133548,-12.545577,0.607314,-3.621735,-18.875980,-23.513828,-23.876286,-15.970150,-18.023922,-16.612995,-15.026781,-19.179888,-13.073563,-8.048159,-21.097139,-15.312967,-47.976791,0.000000,199.000000,4.000000,,,,0.000000,4.000000,4.000000,4.000000,4.000000,4.000000,4.000000,4.000000,4.000000,4.000000,4.000000,4.000000,4.000000,4.000000,4.000000,4.000000,4.000000,4.000000,4.000000,4.000000,4.000000,4.000000,4.000000,4.000000,4.000000,4.000000,4.000000,4.000000,4.000000,4.000000,4.000000,4.000000,4.000000,100.000000
1614131507.336820,22.000000,0.000000,-5.503952,-6.003370,-19.977911,5.217845,2.073845,-6.872102,-4.172791,-16.787762,-9.607598,-11.018111,-8.173391,-7.993157,-16.898266,-28.024048,-18.597403,4.994791,-13.045852,1.119527,-5.156575,-14.754540,-8.105700,-22.313948,-13.390078,-12.364873,-5.827152,-5.268165,-9.929939,-4.855361,-5.476008,-5.691426,-8.118167,-41.774967,0.000000,200.000000,4.000000,,,,0.000000,4.000000,4.000000,4.000000,4.000000,4.000000,4.000000,4.000000,4.000000,4.000000,4.000000,4.000000,4.000000,4.000000,4.000000,4.000000,4.000000,4.000000,4.000000,4.000000,4.000000,4.000000,4.000000,4.000000,4.000000,4.000000,4.000000,4.000000,4.000000,4.000000,4.000000,4.000000,4.000000,100.000000
1614131507.344569,23.000000,0.000000,-4.985627,-5.997366,-18.419472,8.289551,3.610232,-6.352409,-3.655798,-16.770975,-5.495426,-10.494272,-7.652397,-7.985164,-17.907009,-19.790895,-17.553164,4.476975,-14.058447,8.297894,-6.689880,-14.739786,-3.995030,-14.599326,-13.376687,-4.660200,2.383803,-2.185974,-9.920010,-3.312044,-3.932071,-1.070350,-4.007485,-38.656269,0.000000,204.000000,4.000000,,,,0.000000,4.000000,4.000000,4.000000,4.000000,4.000000,4.000000,4.000000,4.000000,4.000000,4.000000,4.000000,4.000000,4.000000,4.000000,4.000000,4.000000,4.000000,4.000000,4.000000,4.000000,4.000000,4.000000,4.000000,4.000000,4.000000,4.000000,4.000000,4.000000,4.000000,4.000000,4.000000,4.000000,100.000000
1614131507.352418,24.000000,0.000000,-5.493462,-6.504189,-18.401052,2.640235,1.042520,-6.858877,-3.652142,-16.754204,-7.028392,-10.996599,-6.619104,-7.977179,-15.325000,-11.053156,-13.433047,12.164806,-9.429004,29.315237,21.009117,-3.955816,4.214093,-4.328317,-13.876131,-2.091437,3.919881,-3.209429,-10.935730,-4.334373,-3.415318,-4.146203,-4.516298,-40.156075,0.000000,186.000000,4.000000,,,,0.000000,4.000000,4.000000,4.000000,4.000000,4.000000,4.000000,4.000000,4.000000,4.000000,4.000000,4.000000,4.000000,4.000000,4.000000,4.000000,4.000000,4.000000,4.000000,4.000000,4.000000,4.000000,4.000000,4.000000,4.000000,4.000000,4.000000,4.000000,4.000000,4.000000,4.000000,4.000000,4.000000,100.000000
1614131507.360167,25.000000,0.000000,-4.462327,-5.984865,-18.382650,2.637595,2.067118,-6.339198,-4.161311,-16.737450,-5.995723,10.040039,3.131105,-7.969202,-8.643008,-3.349795,-5.214486,23.947514,-4.804191,29.798742,24.065031,0.150704,4.722700,-2.785527,-10.785332,-0.038064,2.377500,-3.206219,-9.899154,-3.817218,-3.411903,-3.116416,-3.998961,-40.115917,0.000000,199.000000,4.000000,,,,0.000000,4.000000,4.000000,4.000000,4.000000,4.000000,4.000000,4.000000,4.000000,4.000000,4.000000,4.000000,4.000000,4.000000,4.000000,4.000000,4.000000,4.000000,4.000000,4.000000,4.000000,4.000000,4.000000,4.000000,4.000000,4.000000,4.000000,4.000000,4.000000,4.000000,4.000000,4.000000,4.000000,100.000000
1614131507.368016,26.000000,0.000000,-1.893763,-5.978880,-18.364269,4.686240,3.090692,-6.845679,-3.644329,-16.720713,-2.912804,9.004357,7.230538,-8.474053,-5.044621,0.243298,-2.132348,20.846642,-9.414771,12.845867,-6.728264,-13.182779,-16.820484,-8.423767,-9.236085,-0.550846,-0.188980,-2.690192,-10.402075,-3.300581,-3.408491,-2.087658,-3.482142,-39.050163,0.000000,209.000000,4.000000,,,,0.000000,4.000000,4.000000,4.000000,4.000000,4.000000,4.000000,4.000000,4.000000,4.000000,4.000000,4.000000,4.000000,4.000000,4.000000,4.000000,4.000000,4.000000,4.000000,4.000000,4.000000,4.000000,4.000000,4.000000,4.000000,4.000000,4.000000,4.000000,4.000000,4.000000,4.000000,4.000000,4.000000,100.000000
1614131507.375765,27.000000,0.000000,-0.866228,-5.972901,-18.345905,3.655912,2.061960,-5.813192,-3.640684,-14.652709,-2.397071,-5.876441,3.633564,-7.439938,-5.552397,-0.269766,-3.668677,17.748873,-7.354074,17.448406,-6.721536,-18.810623,-26.547255,-9.440984,-9.226849,-6.191321,-0.188792,-1.661861,-9.366032,-3.810101,-3.405082,-3.111212,-3.478660,-39.011112,0.000000,186.000000,4.000000,,,,0.000000,4.000000,4.000000,4.000000,4.000000,4.000000,4.000000,4.000000,4.000000,4.000000,4.000000,4.000000,4.000000,4.000000,4.000000,4.000000,4.000000,4.000000,4.000000,4.000000,4.000000,4.000000,4.000000,4.000000,4.000000,4.000000,4.000000,4.000000,4.000000,4.000000,4.000000,4.000000,4.000000,100.000000
1614131507.383614,28.000000,0.000000,-0.865362,-4.428467,-17.301918,3.652256,1.547078,-1.704815,-3.637044,-12.586775,-2.907494,4.385845,2.604289,-5.381216,-2.982742,-0.782317,-2.639368,23.884970,7.012254,35.379677,19.951853,-9.048223,-15.238655,-6.354620,-9.730443,-7.210771,1.862679,0.391083,-7.305384,-3.806290,-3.401677,-3.108100,-3.988002,-39.997742,0.000000,190.000000,4.000000,,,,0.000000,4.000000,4.000000,4.000000,4.000000,4.000000,4.000000,4.000000,4.000000,4.000000,4.000000,4.000000,4.000000,4.000000,4.000000,4.000000,4.000000,4.000000,4.000000,4.000000,4.000000,4.000000,4.000000,4.000000,4.000000,4.000000,4.000000,4.000000,4.000000,4.000000,4.000000,4.000000,4.000000,100.000000
1614131507.391363,29.000000,0.000000,-1.377317,-2.372756,-19.335897,3.648604,3.083992,1.373813,-3.633407,-12.574187,-2.904587,6.945562,4.140146,-3.837373,-1.954119,-0.781534,-4.175189,16.168777,12.133448,24.575066,12.239593,-7.500712,-12.659314,-5.835445,-9.207891,-1.562534,3.399278,0.903512,-6.272437,-3.802484,-3.398276,-3.104992,-3.984014,-42.009026,0.000000,211.000000,4.000000,,,,0.000000,4.000000,4.000000,4.000000,4.000000,4.000000,4.000000,4.000000,4.000000,4.000000,4.000000,4.000000,4.000000,4.000000,4.000000,4.000000,4.000000,4.000000,4.000000,4.000000,4.000000,4.000000,4.000000,4.000000,4.000000,4.000000,4.000000,4.000000,4.000000,4.000000,4.000000,4.000000,4.000000,100.000000
1614131507.399212,30.000000,0.000000,-2.914401,-1.857563,-25.470407,4.157776,2.055267,1.372439,-3.629773,-13.074434,-2.901682,-9.984461,3.110365,-4.346356,-6.567549,-0.780753,-9.812040,3.332096,2.890545,0.447926,-20.080339,-16.211161,-15.210757,-6.855250,-9.711504,-0.022510,2.883058,0.389788,-6.778986,-3.798682,-3.394877,-3.101887,-3.980030,-45.043941,0.000000,193.000000,4.000000,,,,0.000000,4.000000,4.000000,4.000000,4.000000,4.000000,4.000000,4.000000,4.000000,4.000000,4.000000,4.000000,4.000000,4.000000,4.000000,4.000000,4.000000,4.000000,4.000000,4.000000,4.000000,4.000000,4.000000,4.000000,4.000000,4.000000,4.000000,4.000000,4.000000,4.000000,4.000000,4.000000,4.000000,100.000000
1614131507.406961,31.000000,0.000000,-4.962769,-1.855705,-30.060322,3.640798,-4.100634,0.858246,-3.626143,-13.061359,-2.898780,-8.948835,3.107255,-4.342010,-9.637904,-1.805613,-11.853510,7.431328,-0.189269,4.550042,-21.598721,-15.169309,-1.349393,-6.335575,-9.701793,-2.586591,2.880175,0.389398,-6.772206,-3.794883,-3.391483,-2.585965,-3.463229,-48.075821,0.000000,173.000000,4.000000,,,,0.000000,4.000000,4.000000,4.000000,4.000000,4.000000,4.000000,4.000000,4.000000,4.000000,4.000000,4.000000,4.000000,4.000000,4.000000,4.000000,4.000000,4.000000,4.000000,4.000000,4.000000,4.000000,4.000000,4.000000,4.000000,4.000000,4.000000,4.000000,4.000000,4.000000,4.000000,4.000000,4.000000,100.000000
1614131507.414810,32.000000,0.000000,-4.957806,-2.879491,-29.004622,3.637157,-3.583713,1.370208,-3.622517,-12.535478,-2.895882,-1.247579,3.104148,-4.337668,-9.628266,-5.906372,-10.816015,14.090563,4.426305,26.596775,8.166469,-4.384908,16.600674,-2.739496,-9.692091,-1.045542,3.390116,0.901829,-6.252614,-3.791088,-3.388091,-2.070559,-3.459766,-49.566204,8064.000000,0.000000,4.000000,,,,0.000000,4.000000,4.000000,4.000000,4.000000,4.000000,4.000000,4.000000,4.000000,4.000000,4.000000,4.000000,4.000000,4.000000,4.000000,4.000000,4.000000,4.000000,4.000000,4.000000,4.000000,4.000000,4.000000,4.000000,4.000000,4.000000,4.000000,4.000000,4.000000,4.000000,4.000000,4.000000,4.000000,100.000000
1614131507.422560,33.000000,0.000000,-4.952848,-5.440714,-28.462795,4.659161,3.599358,1.368838,-3.618895,-13.035763,-2.892986,-7.912998,3.101043,-4.333331,-9.618638,-8.464568,-11.318020,13.563652,5.447519,33.236843,25.594198,0.747682,17.609715,0.340167,-9.682399,1.519606,3.386726,0.388107,-6.759181,-3.787297,-3.384703,-3.094129,-5.507588,-51.055099,8064.000000,0.000000,4.000000,,,,0.000000,4.000000,4.000000,4.000000,4.000000,4.000000,4.000000,4.000000,4.000000,4.000000,4.000000,4.000000,4.000000,4.000000,4.000000,4.000000,4.000000,4.000000,4.000000,4.000000,4.000000,4.000000,4.000000,4.000000,4.000000,4.000000,4.000000,4.000000,4.000000,4.000000,4.000000,4.000000,4.000000,100.000000
1614131507.430409,34.000000,0.000000,-4.947896,-6.460914,-29.459974,1.577579,2.057297,0.854649,-3.615276,-13.535547,-2.890093,-7.905085,3.097943,-4.841818,-9.609020,-5.892001,-10.793881,17.139832,4.416431,30.639505,22.491682,-0.791527,9.899797,1.365468,-9.672716,0.492445,2.870518,0.387719,-6.752422,-3.783510,-3.381318,-2.578214,-7.553362,-53.568150,8064.000000,0.000000,4.000000,,,,0.000000,4.000000,4.000000,4.000000,4.000000,4.000000,4.000000,4.000000,4.000000,4.000000,4.000000,4.000000,4.000000,4.000000,4.000000,4.000000,4.000000,4.000000,4.000000,4.000000,4.000000,4.000000,4.000000,4.000000,4.000000,4.000000,4.000000,4.000000,4.000000,4.000000,4.000000,4.000000,4.000000,100.000000
1614131507.438158,35.000000,0.000000,-5.455768,-5.941633,-28.404873,-5.603486,-1.534504,0.853794,-3.611661,-10.957910,-3.400023,-1.230513,3.094845,-4.324155,-10.112231,-4.347647,-5.654882,21.225256,4.924835,31.634506,19.392267,-0.790736,10.402719,1.364102,-9.663044,-0.020868,3.380468,0.900152,-6.745670,-3.779726,-3.377937,-1.549995,-7.545809,-53.514580,8064.000000,0.000000,4.000000,,,,0.000000,4.000000,4.000000,4.000000,4.000000,4.000000,4.000000,4.000000,4.000000,4.000000,4.000000,4.000000,4.000000,4.000000,4.000000,4.000000,4.000000,4.000000,4.000000,4.000000,4.000000,4.000000,4.000000,4.000000,4.000000,4.000000,4.000000,4.000000,4.000000,4.000000,4.000000,4.000000,4.000000,100.000000
1614131507.446007,36.000000,0.000000,-4.937491,-5.935691,-28.889288,-7.649165,5.133698,0.852940,-3.608049,-6.331567,-2.370982,-0.716462,3.604570,-1.755729,-9.589298,-4.856120,-3.085125,20.691210,5.432731,32.628513,18.860054,0.235696,8.341033,-0.175723,-9.653380,0.491974,3.889908,0.386431,-6.738925,-3.775946,-3.374559,-8.215112,-8.051084,-54.486706,8064.000000,0.000000,4.000000,,,,0.000000,4.000000,4.000000,4.000000,4.000000,4.000000,4.000000,4.000000,4.000000,4.000000,4.000000,4.000000,4.000000,4.000000,4.000000,4.000000,4.000000,4.000000,4.000000,4.000000,4.000000,4.000000,4.000000,4.000000,4.000000,4.000000,4.000000,4.000000,4.000000,4.000000,4.000000,4.000000,4.000000,100.000000
1614131507.453756,37.000000,0.000000,-4.419734,-5.929755,-32.962963,-7.128695,5.128563,1.364908,-3.604441,-4.786774,-2.368611,-0.202925,3.600966,-0.215511,-7.015607,-4.338443,-3.594861,20.157698,5.427298,32.595882,15.251451,-0.277360,-9.103205,-3.252471,-9.643727,0.491482,0.809095,-3.203699,-6.732185,-3.772171,-3.371184,-18.976128,-10.607136,-63.150169,8064.000000,0.000000,4.000000,,,,0.000000,4.000000,4.000000,4.000000,4.000000,4.000000,4.000000,4.000000,4.000000,4.000000,4.000000,4.000000,4.000000,4.000000,4.000000,4.000000,4.000000,4.000000,4.000000,4.000000,4.000000,4.000000,4.000000,4.000000,4.000000,4.000000,4.000000,4.000000,4.000000,4.000000,4.000000,4.000000,4.000000,100.000000
1614131507.461405,38.000000,0.000000,-5.440955,-5.923826,-36.519745,-9.685669,1.533692,-0.174919,-3.600837,-5.807628,-4.417525,-3.792466,3.084544,-0.728116,-5.470129,-4.846925,-3.591266,20.650362,4.909050,29.999186,6.518250,-0.789903,-26.017179,-6.326141,-9.634084,0.490990,-3.807098,-8.328700,-6.725453,-3.768398,-3.367813,-22.546894,-12.134990,-68.215225,8064.000000,0.000000,4.000000,,,,0.000000,4.000000,4.000000,4.000000,4.000000,4.000000,4.000000,4.000000,4.000000,4.000000,4.000000,4.000000,4.000000,4.000000,4.000000,4.000000,4.000000,4.000000,4.000000,4.000000,4.000000,4.000000,4.000000,4.000000,4.000000,4.000000,4.000000,4.000000,4.000000,4.000000,4.000000,4.000000,4.000000,100.000000
1614131507.469154,39.000000,0.000000,-4.922693,-5.917902,-35.970402,-10.188804,9.737286,-2.226026,-3.597236,-5.801820,-0.310543,-5.839955,3.081460,-0.727388,-5.977480,-4.329258,-3.074854,20.629711,5.416962,20.738417,-10.924165,-0.789114,-24.452700,-6.319815,-9.624450,0.490499,-4.828932,-6.781910,-6.718728,-3.764630,-2.851625,-20.985886,-10.584394,-60.454700,8064.000000,0.000000,4.000000,,,,0.000000,4.000000,4.000000,4.000000,4.000000,4.000000,4.000000,4.000000,4.000000,4.000000,4.000000,4.000000,4.000000,4.000000,4.000000,4.000000,4.000000,4.000000,4.000000,4.000000,4.000000,4.000000,4.000000,4.000000,4.000000,4.000000,4.000000,4.000000,4.000000,4.000000,4.000000,4.000000,4.000000,100.000000
1614131507.476803,40.000000,0.000000,-2.866489,-5.911984,-35.421612,-7.101692,12.804472,-3.249441,-3.593638,-5.283198,5.330793,4.422295,4.616840,0.298980,-5.458682,-3.812108,-3.071779,20.096260,4.898724,13.538192,-22.195292,-0.788324,-13.659017,-6.313495,-9.614825,0.490009,-3.798462,-3.185385,-6.712009,-3.760865,-4.387235,-20.964901,-9.548168,-55.266041,8064.000000,0.000000,4.000000,,,,0.000000,4.000000,4.000000,4.000000,4.000000,4.000000,4.000000,4.000000,4.000000,4.000000,4.000000,4.000000,4.000000,4.000000,4.000000,4.000000,4.000000,4.000000,4.000000,4.000000,4.000000,4.000000,4.000000,4.000000,4.000000,4.000000,4.000000,4.000000,4.000000,4.000000,4.000000,4.000000,4.000000,100.000000
1614131507.484552,41.000000,0.000000,-2.863622,-5.393251,-39.488754,-7.607411,-1.054487,-2.733371,-3.590045,-5.790735,-3.392486,3.392232,-1.028803,-2.778242,-5.966044,-8.936502,-3.581528,17.512062,1.304082,11.473372,-10.378225,-1.300357,-10.055614,-6.307182,-9.605210,1.002339,-5.333126,-8.310405,-6.705297,-3.757104,-6.946950,-21.969576,-15.179646,-60.338978,8064.000000,0.000000,4.000000,,,,0.000000,4.000000,4.000000,4.000000,4.000000,4.000000,4.000000,4.000000,4.000000,4.000000,4.000000,4.000000,4.000000,4.000000,4.000000,4.000000,4.000000,4.000000,4.000000,4.000000,4.000000,4.000000,4.000000,4.000000,4.000000,4.000000,4.000000,4.000000,4.000000,4.000000,4.000000,4.000000,4.000000,100.000000
1614131507.492201,42.000000,0.000000,-4.912041,-5.900679,-43.039009,-10.676726,-10.797022,-2.730637,-3.586455,-6.297765,-14.158324,-11.482956,-10.258543,-7.903669,-9.549821,-18.671154,-5.116408,14.930448,-2.799786,11.461898,8.093692,-1.299056,-10.558379,-6.813695,-10.108425,-0.537125,-8.404716,-13.430299,-6.698592,-3.753347,-7.452824,-20.921967,-18.241388,-64.381203,8064.000000,0.000000,4.000000,,,,0.000000,4.000000,4.000000,4.000000,4.000000,4.000000,4.000000,4.000000,4.000000,4.000000,4.000000,4.000000,4.000000,4.000000,4.000000,4.000000,4.000000,4.000000,4.000000,4.000000,4.000000,4.000000,4.000000,4.000000,4.000000,4.000000,4.000000,4.000000,4.000000,4.000000,4.000000,4.000000,4.000000,100.000000
1614131507.499950,43.000000,0.000000,-5.419949,-5.894778,-43.508793,-11.178870,-8.734942,-2.727907,-3.582868,-6.291467,-8.503140,-9.933011,-9.735464,-8.921406,-10.053092,-21.729406,-3.572830,15.428337,-2.796987,14.527359,10.136880,0.240704,-8.496538,-5.781240,-8.047035,-3.100690,-8.396311,-8.288664,-6.691893,-3.749594,-6.932550,-18.336941,-13.094942,-63.291183,8064.000000,0.000000,4.000000,,,,0.000000,4.000000,4.000000,4.000000,4.000000,4.000000,4.000000,4.000000,4.000000,4.000000,4.000000,4.000000,4.000000,4.000000,4.000000,4.000000,4.000000,4.000000,4.000000,4.000000,4.000000,4.000000,4.000000,4.000000,4.000000,4.000000,4.000000,4.000000,4.000000,4.000000,4.000000,4.000000,4.000000,100.000000
1614131507.507600,44.000000,0.000000,-4.901709,-5.376063,-42.952461,-10.142051,-8.213387,-2.725179,-3.579285,-5.772355,1.248952,-3.256411,-4.597524,-7.886844,-9.017398,-16.579472,-2.543616,18.489832,-2.281369,10.923088,-4.745052,-2.836459,-9.000862,-5.775459,-5.474885,-3.097589,-7.362273,-2.126529,-6.172381,-3.233024,-6.925618,-16.780144,-12.056206,-63.227890,8064.000000,0.000000,4.000000,,,,0.000000,4.000000,4.000000,4.000000,4.000000,4.000000,4.000000,4.000000,4.000000,4.000000,4.000000,4.000000,4.000000,4.000000,4.000000,4.000000,4.000000,4.000000,4.000000,4.000000,4.000000,4.000000,4.000000,4.000000,4.000000,4.000000,4.000000,4.000000,4.000000,4.000000,4.000000,4.000000,4.000000,100.000000
1614131507.515349,45.000000,0.000000,-5.409627,-5.883507,-42.909512,-10.644729,-9.743635,-2.722454,-3.575706,-6.279403,1.247703,-6.330078,-4.080105,-8.904598,-13.110945,-11.434688,-8.182098,14.881598,-3.817549,0.655755,-10.894153,-5.910546,-8.479041,-6.795325,-6.495051,-3.094492,-8.380552,-2.637223,-8.217490,-4.768252,-6.918692,-17.276184,-19.223637,-63.677483,8064.000000,0.000000,4.000000,,,,0.000000,4.000000,4.000000,4.000000,4.000000,4.000000,4.000000,4.000000,4.000000,4.000000,4.000000,4.000000,4.000000,4.000000,4.000000,4.000000,4.000000,4.000000,4.000000,4.000000,4.000000,4.000000,4.000000,4.000000,4.000000,4.000000,4.000000,4.000000,4.000000,4.000000,4.000000,4.000000,4.000000,100.000000
1614131507.522998,46.000000,0.000000,-4.378577,-8.441727,-43.379421,-10.634084,-9.221071,-2.719731,-3.572130,-6.273124,-0.292006,-3.246825,-3.563205,-6.331591,-10.533731,-6.807868,-4.584172,11.789794,0.288832,13.475612,13.219305,1.787672,3.324310,-5.250068,-4.950095,-3.091398,-6.833710,-3.660227,-10.773376,-7.327587,-6.911774,-16.746086,-22.794157,-63.613808,8064.000000,0.000000,4.000000,,,,0.000000,4.000000,4.000000,4.000000,4.000000,4.000000,4.000000,4.000000,4.000000,4.000000,4.000000,4.000000,4.000000,4.000000,4.000000,4.000000,4.000000,4.000000,4.000000,4.000000,4.000000,4.000000,4.000000,4.000000,4.000000,4.000000,4.000000,4.000000,4.000000,4.000000,4.000000,4.000000,4.000000,100.000000
1614131507.530747,47.000000,0.000000,-1.810096,-9.458925,-42.823219,-10.623450,-9.211850,-2.717011,-3.568558,-1.651466,1.246748,3.935909,1.568563,0.854228,5.374238,0.378427,14.907591,29.213902,7.468031,37.564701,32.180447,8.965372,12.038934,-2.680715,0.183060,-3.088306,-1.698671,-2.630925,-7.685679,-7.833080,-6.904862,-13.652417,-21.232901,-63.550194,8064.000000,0.000000,4.000000,,,,0.000000,4.000000,4.000000,4.000000,4.000000,4.000000,4.000000,4.000000,4.000000,4.000000,4.000000,4.000000,4.000000,4.000000,4.000000,4.000000,4.000000,4.000000,4.000000,4.000000,4.000000,4.000000,4.000000,4.000000,4.000000,4.000000,4.000000,4.000000,4.000000,4.000000,4.000000,4.000000,4.000000,100.000000
1614131507.538396,48.000000,0.000000,-0.782645,-9.449467,-42.267578,-10.612826,-8.176997,-2.714294,-3.564990,4.504031,1.245501,0.342230,4.131097,3.930297,15.112454,3.967792,22.072170,42.518021,7.973383,27.783546,3.430316,-0.274363,-1.306438,-7.293419,0.695698,-2.572397,-1.184152,-2.628294,-3.062609,-7.312426,-6.897957,-13.125944,-21.211668,-63.486641,8064.000000,0.000000,4.000000,,,,0.000000,4.000000,4.000000,4.000000,4.000000,4.000000,4.000000,4.000000,4.000000,4.000000,4.000000,4.000000,4.000000,4.000000,4.000000,4.000000,4.000000,4.000000,4.000000,4.000000,4.000000,4.000000,4.000000,4.000000,4.000000,4.000000,4.000000,4.000000,4.000000,4.000000,4.000000,4.000000,4.000000,100.000000
1614131507.546145,49.000000,0.000000,-1.294682,-11.491300,-42.738129,-10.602214,-8.681641,-2.711580,-3.561425,6.037989,0.731435,-4.273497,3.101325,2.900726,7.917854,-0.138740,7.691124,21.449862,4.888487,10.319865,-24.265423,-12.581780,-20.279491,-16.004074,-2.381921,-4.621107,-6.311173,-2.625666,-2.546726,-7.305114,-6.891059,-13.625639,-22.216099,-63.423157,8064.000000,0.000000,4.000000,,,,0.000000,4.000000,4.000000,4.000000,4.000000,4.000000,4.000000,4.000000,4.000000,4.000000,4.000000,4.000000,4.000000,4.000000,4.000000,4.000000,4.000000,4.000000,4.000000,4.000000,4.000000,4.000000,4.000000,4.000000,4.000000,4.000000,4.000000,4.000000,4.000000,4.000000,4.000000,4.000000,4.000000,100.000000
1614131507.553794,50.000000,0.000000,-1.293388,-11.992628,-42.695393,-10.591612,-9.185780,-2.708869,-3.557863,5.006310,0.217883,-3.243583,3.098224,2.897825,0.730449,-4.753985,-2.060157,3.479694,4.883598,24.668520,-4.241157,-10.005096,-20.259211,-18.039352,-2.379539,-7.180588,-8.356144,-4.161502,-3.056999,-7.297809,-6.371347,-13.099193,-22.193882,-63.359734,8064.000000,0.000000,4.000000,,,,0.000000,4.000000,4.000000,4.000000,4.000000,4.000000,4.000000,4.000000,4.000000,4.000000,4.000000,4.000000,4.000000,4.000000,4.000000,4.000000,4.000000,4.000000,4.000000,4.000000,4.000000,4.000000,4.000000,4.000000,4.000000,4.000000,4.000000,4.000000,4.000000,4.000000,4.000000,4.000000,4.000000,100.000000
1614131507.561643,51.000000,0.000000,-1.292094,-9.416533,-39.575775,-10.581020,-5.074030,-2.706160,-3.554306,5.514124,1.243306,-3.240339,3.607946,3.407748,1.755360,-4.749231,0.506006,20.912111,5.391535,29.259235,8.583597,-6.918169,-17.162029,-16.482851,-1.864339,-6.660587,-7.322146,-6.208622,-3.053942,-7.290511,-6.877797,-13.598914,-21.658867,-63.296371,8064.000000,0.000000,4.000000,,,,0.000000,4.000000,4.000000,4.000000,4.000000,4.000000,4.000000,4.000000,4.000000,4.000000,4.000000,4.000000,4.000000,4.000000,4.000000,4.000000,4.000000,4.000000,4.000000,4.000000,4.000000,4.000000,4.000000,4.000000,4.000000,4.000000,4.000000,4.000000,4.000000,4.000000,4.000000,4.000000,4.000000,100.000000
1614131507.569392,52.000000,0.000000,-1.290802,-9.407117,-39.023376,-10.570439,-0.966392,-2.703454,-3.550751,5.508610,3.293345,-2.724278,3.091518,3.404340,2.266425,-4.231662,1.018321,30.634790,4.873323,8.204335,-11.937807,-12.039455,-25.349995,-18.004829,-4.426578,-6.141106,-9.366106,-7.228055,-5.614991,-7.283220,-8.922201,-15.636598,-21.124388,-63.233078,8064.000000,0.000000,4.000000,,,,0.000000,4.000000,4.000000,4.000000,4.000000,4.000000,4.000000,4.000000,4.000000,4.000000,4.000000,4.000000,4.000000,4.000000,4.000000,4.000000,4.000000,4.000000,4.000000,4.000000,4.000000,4.000000,4.000000,4.000000,4.000000,4.000000,4.000000,4.000000,4.000000,4.000000,4.000000,4.000000,4.000000,100.000000
1614131507.577241,53.000000,0.000000,-1.289511,-8.884889,-43.086918,-10.559869,-2.503887,-2.700750,-3.547200,4.990281,4.828513,-3.234375,3.088426,2.888115,1.238518,-5.253071,-1.546800,13.681078,4.868450,9.734592,-7.823305,-9.976134,-23.273363,-16.448364,-6.473433,-9.211888,-10.895202,-6.708006,-6.635017,-7.275937,-10.451740,-17.159422,-22.128904,-62.657024,8064.000000,0.000000,4.000000,,,,0.000000,4.000000,4.000000,4.000000,4.000000,4.000000,4.000000,4.000000,4.000000,4.000000,4.000000,4.000000,4.000000,4.000000,4.000000,4.000000,4.000000,4.000000,4.000000,4.000000,4.000000,4.000000,4.000000,4.000000,4.000000,4.000000,4.000000,4.000000,4.000000,4.000000,4.000000,4.000000,4.000000,100.000000
1614131507.584991,54.000000,0.000000,-1.801042,-6.311902,-45.607933,-10.549309,-5.578306,-2.698049,-3.543653,4.985291,4.310864,-5.282422,3.085338,2.885227,-0.301182,-5.760639,-1.545253,12.128935,4.863582,31.263319,23.979389,1.315894,-5.301372,-11.303710,-5.954139,-9.715497,-8.833025,-6.701299,-4.577100,-7.268661,-10.441288,-17.142263,-21.081135,-63.107185,8064.000000,0.000000,4.000000,,,,0.000000,4.000000,4.000000,4.000000,4.000000,4.000000,4.000000,4.000000,4.000000,4.000000,4.000000,4.000000,4.000000,4.000000,4.000000,4.000000,4.000000,4.000000,4.000000,4.000000,4.000000,4.000000,4.000000,4.000000,4.000000,4.000000,4.000000,4.000000,4.000000,4.000000,4.000000,4.000000,4.000000,100.000000
1614131507.592840,55.000000,0.000000,-0.773600,-5.792769,-43.511044,-10.538759,-5.059907,-2.695351,-3.540110,4.980305,4.306553,0.363886,3.082253,2.882342,0.724760,-5.242057,2.046036,26.988602,4.858718,35.334621,28.570795,7.468424,3.421879,-9.241124,-5.948185,-5.603217,-7.285730,-7.720238,-3.034061,-7.261393,-10.430847,-17.125120,-16.444670,-63.556900,8064.000000,0.000000,4.000000,,,,0.000000,4.000000,4.000000,4.000000,4.000000,4.000000,4.000000,4.000000,4.000000,4.000000,4.000000,4.000000,4.000000,4.000000,4.000000,4.000000,4.000000,4.000000,4.000000,4.000000,4.000000,4.000000,4.000000,4.000000,4.000000,4.000000,4.000000,4.000000,4.000000,4.000000,4.000000,4.000000,4.000000,100.000000
1614131507.600589,56.000000,0.000000,1.278455,-4.761335,-41.929070,-10.528220,-2.490745,-2.692656,-3.536570,4.975325,4.302247,6.004548,3.079170,1.340998,2.262497,-5.236815,4.095272,26.448792,4.853859,29.658260,12.131968,6.948135,1.879995,-9.744704,-5.942236,-2.520691,-7.791265,-6.174057,-2.518207,-7.254131,-9.907596,-17.620815,-13.351301,-58.877956,8064.000000,0.000000,4.000000,,,,0.000000,4.000000,4.000000,4.000000,4.000000,4.000000,4.000000,4.000000,4.000000,4.000000,4.000000,4.000000,4.000000,4.000000,4.000000,4.000000,4.000000,4.000000,4.000000,4.000000,4.000000,4.000000,4.000000,4.000000,4.000000,4.000000,4.000000,4.000000,4.000000,4.000000,4.000000,4.000000,4.000000,100.000000
1614131507.608438,57.000000,0.000000,2.815638,-2.192472,-42.399963,-10.517693,-1.462613,-2.689963,-4.045854,4.970350,4.297945,-1.693765,3.076091,-0.711625,-1.842330,-8.821322,-1.549849,20.268497,4.336185,30.141422,5.453169,6.941187,0.852474,-9.734960,-5.936295,-3.030991,-7.270653,-2.578139,-4.054150,-7.246877,-7.333586,-17.090374,-13.850770,-53.690876,8064.000000,0.000000,4.000000,,,,0.000000,4.000000,4.000000,4.000000,4.000000,4.000000,4.000000,4.000000,4.000000,4.000000,4.000000,4.000000,4.000000,4.000000,4.000000,4.000000,4.000000,4.000000,4.000000,4.000000,4.000000,4.000000,4.000000,4.000000,4.000000,4.000000,4.000000,4.000000,4.000000,4.000000,4.000000,4.000000,4.000000,100.000000
1614131507.616187,58.000000,0.000000,2.300002,-3.215920,-42.357563,-10.507174,-1.461150,-2.687273,-3.016166,4.965379,4.293646,-7.333097,3.073015,-1.223734,-6.455872,-8.299681,-1.548300,24.863613,4.844669,33.188206,11.601563,6.421425,-3.763763,-9.725224,-5.930358,-4.566421,-7.263382,-5.139663,-6.614199,-7.239630,-6.300611,-17.586105,-14.349740,-56.201286,8064.000000,0.000000,4.000000,,,,0.000000,4.000000,4.000000,4.000000,4.000000,4.000000,4.000000,4.000000,4.000000,4.000000,4.000000,4.000000,4.000000,4.000000,4.000000,4.000000,4.000000,4.000000,4.000000,4.000000,4.000000,4.000000,4.000000,4.000000,4.000000,4.000000,4.000000,4.000000,4.000000,4.000000,4.000000,4.000000,4.000000,100.000000
1614131507.624036,59.000000,0.000000,2.297702,-5.776807,-42.315205,-11.009488,-1.459689,-2.684586,-0.961868,4.960414,3.776532,0.366544,3.069942,0.315951,4.832635,4.016312,10.760942,28.941315,6.891107,37.257580,26.974577,6.415004,-2.221538,-7.664217,-5.924428,-6.613137,-8.281760,-7.185806,-6.094764,-7.232390,-7.319952,-16.542877,-14.335390,-59.222008,8064.000000,0.000000,4.000000,,,,0.000000,4.000000,4.000000,4.000000,4.000000,4.000000,4.000000,4.000000,4.000000,4.000000,4.000000,4.000000,4.000000,4.000000,4.000000,4.000000,4.000000,4.000000,4.000000,4.000000,4.000000,4.000000,4.000000,4.000000,4.000000,4.000000,4.000000,4.000000,4.000000,4.000000,4.000000,4.000000,4.000000,100.000000
1614131507.631785,60.000000,0.000000,2.295404,-3.719748,-42.272888,-10.485658,-1.971050,-2.681901,0.577555,4.955453,4.798397,5.494383,3.066872,2.879738,20.212418,17.858450,20.493771,26.348270,8.422677,38.758785,31.562986,9.998332,10.601196,-2.015527,-5.918503,-7.119344,-7.247838,-0.511953,-3.524566,-7.737978,-6.286991,-11.910951,-14.321055,-53.521759,8064.000000,0.000000,4.000000,,,,0.000000,4.000000,4.000000,4.000000,4.000000,4.000000,4.000000,4.000000,4.000000,4.000000,4.000000,4.000000,4.000000,4.000000,4.000000,4.000000,4.000000,4.000000,4.000000,4.000000,4.000000,4.000000,4.000000,4.000000,4.000000,4.000000,4.000000,4.000000,4.000000,4.000000,4.000000,4.000000,4.000000,100.000000
1614131507.639634,61.000000,0.000000,2.293109,-1.664746,-42.230618,-7.911070,-1.456258,-2.679219,0.064157,4.950498,6.844881,4.976068,3.063805,2.876858,17.628103,22.455975,18.421993,28.373203,8.414254,35.643101,16.146809,6.911411,9.052134,2.089052,-5.912585,-0.958379,-7.753410,0.001379,-3.008221,-6.704599,-3.716601,-8.822116,-13.793914,-51.416958,8064.000000,0.000000,4.000000,,,,0.000000,4.000000,4.000000,4.000000,4.000000,4.000000,4.000000,4.000000,4.000000,4.000000,4.000000,4.000000,4.000000,4.000000,4.000000,4.000000,4.000000,4.000000,4.000000,4.000000,4.000000,4.000000,4.000000,4.000000,4.000000,4.000000,4.000000,4.000000,4.000000,4.000000,4.000000,4.000000,4.000000,100.000000
1614131507.647383,62.000000,0.000000,2.290816,-2.175902,-42.188385,-6.877518,-1.454802,-2.676540,0.064093,4.945548,8.376497,7.022374,3.060741,2.873981,6.328424,19.869417,12.249726,29.883291,8.405840,30.479254,2.797328,-1.813449,-8.905636,0.035681,-5.906672,4.170785,-13.386683,-11.280673,-3.005213,-4.133792,-2.687243,-9.326115,-14.805760,-61.621952,8064.000000,0.000000,4.000000,,,,0.000000,4.000000,4.000000,4.000000,4.000000,4.000000,4.000000,4.000000,4.000000,4.000000,4.000000,4.000000,4.000000,4.000000,4.000000,4.000000,4.000000,4.000000,4.000000,4.000000,4.000000,4.000000,4.000000,4.000000,4.000000,4.000000,4.000000,4.000000,4.000000,4.000000,4.000000,4.000000,4.000000,100.000000
1614131507.655232,63.000000,0.000000,2.288525,-2.173726,-42.146198,-6.357820,-2.991809,-2.673864,0.064029,4.940602,7.855300,7.528172,3.057681,2.871107,3.757992,12.670060,7.622092,24.725204,8.397434,26.859032,2.794530,-0.785995,-15.563397,-2.528457,-6.413586,1.089691,-13.886116,-11.269393,-3.002208,-3.104017,-3.197376,-9.829609,-14.790955,-67.714172,8064.000000,0.000000,4.000000,,,,0.000000,4.000000,4.000000,4.000000,4.000000,4.000000,4.000000,4.000000,4.000000,4.000000,4.000000,4.000000,4.000000,4.000000,4.000000,4.000000,4.000000,4.000000,4.000000,4.000000,4.000000,4.000000,4.000000,4.000000,4.000000,4.000000,4.000000,4.000000,4.000000,4.000000,4.000000,4.000000,4.000000,100.000000
1614131507.662981,64.000000,0.000000,2.286237,-2.171552,-40.052769,-4.300179,-0.424715,-2.671190,0.063965,4.935661,7.847445,3.930900,3.054623,3.381057,5.805516,5.477903,6.588829,18.546633,8.389037,27.344992,5.868659,8.958381,-5.291424,-3.038749,-5.381531,-3.013963,-6.179922,2.075210,-2.999206,-3.613734,-3.194179,-9.306959,-8.622317,-63.543896,0.000000,196.000000,4.000000,,,,0.000000,4.000000,4.000000,4.000000,4.000000,4.000000,4.000000,4.000000,4.000000,4.000000,4.000000,4.000000,4.000000,4.000000,4.000000,4.000000,4.000000,4.000000,4.000000,4.000000,4.000000,4.000000,4.000000,4.000000,4.000000,4.000000,4.000000,4.000000,4.000000,4.000000,4.000000,4.000000,4.000000,100.000000
1614131507.670830,65.000000,0.000000,2.283950,-2.169381,-37.961433,-2.757418,7.268018,-2.668519,0.063901,4.930726,7.839597,3.414149,3.051568,2.352034,4.774070,2.395502,7.607881,19.553726,8.380648,27.830467,8.426893,11.000705,-1.183568,-0.984428,-2.812047,-1.985308,-2.583999,5.150058,-2.483386,-3.610120,-3.190985,-9.297652,-7.075234,-61.429070,0.000000,187.000000,4.000000,,,,0.000000,4.000000,4.000000,4.000000,4.000000,4.000000,4.000000,4.000000,4.000000,4.000000,4.000000,4.000000,4.000000,4.000000,4.000000,4.000000,4.000000,4.000000,4.000000,4.000000,4.000000,4.000000,4.000000,4.000000,4.000000,4.000000,4.000000,4.000000,4.000000,4.000000,4.000000,4.000000,4.000000,100.000000
1614131507.678579,66.000000,0.000000,2.281667,-2.167211,-37.923473,-3.267481,8.799212,-2.665850,0.063837,4.925795,7.831758,3.923555,2.535696,2.862503,3.743655,0.854645,6.061811,23.636738,8.372267,23.700073,9.956927,8.938422,-4.772128,-0.470623,-1.783594,0.580780,-4.632697,0.016703,-0.429621,-3.606510,-3.187794,-9.801175,-14.760467,-63.418922,0.000000,195.000000,4.000000,,,,0.000000,4.000000,4.000000,4.000000,4.000000,4.000000,4.000000,4.000000,4.000000,4.000000,4.000000,4.000000,4.000000,4.000000,4.000000,4.000000,4.000000,4.000000,4.000000,4.000000,4.000000,4.000000,4.000000,4.000000,4.000000,4.000000,4.000000,4.000000,4.000000,4.000000,4.000000,4.000000,4.000000,100.000000
1614131507.686428,67.000000,0.000000,2.279385,-2.165044,-38.398369,-3.264214,6.226310,-2.663184,0.063773,4.920869,7.823926,2.893991,3.558802,4.910923,3.739911,5.469175,6.568570,25.151562,7.851074,32.394321,22.254663,14.570509,2.412131,3.119591,-2.807452,0.580199,-4.115243,0.016686,1.109271,-3.602904,-3.184606,-9.791373,-18.335449,-61.817043,0.000000,181.000000,4.000000,,,,0.000000,4.000000,4.000000,4.000000,4.000000,4.000000,4.000000,4.000000,4.000000,4.000000,4.000000,4.000000,4.000000,4.000000,4.000000,4.000000,4.000000,4.000000,4.000000,4.000000,4.000000,4.000000,4.000000,4.000000,4.000000,4.000000,4.000000,4.000000,4.000000,4.000000,4.000000,4.000000,4.000000,100.000000
1614131507.694177,68.000000,0.000000,2.277105,-2.162879,-38.359970,-3.260949,8.271365,-2.660521,0.063709,4.915948,7.816102,4.942379,6.632166,6.957294,5.787453,16.232937,11.690207,27.690514,8.356044,55.951672,47.360615,21.735426,18.819975,11.321600,-1.779003,0.066799,-3.598308,1.555131,0.595341,-3.599301,-3.181422,-9.781582,-12.676088,-58.678303,0.000000,199.000000,4.000000,,,,0.000000,4.000000,4.000000,4.000000,4.000000,4.000000,4.000000,4.000000,4.000000,4.000000,4.000000,4.000000,4.000000,4.000000,4.000000,4.000000,4.000000,4.000000,4.000000,4.000000,4.000000,4.000000,4.000000,4.000000,4.000000,4.000000,4.000000,4.000000,4.000000,4.000000,4.000000,4.000000,4.000000,100.000000
1614131507.701826,69.000000,0.000000,2.274828,-2.160716,-38.321613,-3.257689,9.288735,-2.657861,0.063646,4.911032,7.808286,10.065641,10.215278,6.437516,8.858589,20.832088,14.755440,30.739746,8.347688,55.895721,46.800434,18.636766,23.929361,11.310278,0.786878,0.579552,-4.107530,1.040755,0.594745,-3.595701,-3.178240,-9.771801,-9.586490,-58.106804,0.000000,189.000000,4.000000,,,,0.000000,4.000000,4.000000,4.000000,4.000000,4.000000,4.000000,4.000000,4.000000,4.000000,4.000000,4.000000,4.000000,4.000000,4.000000,4.000000,4.000000,4.000000,4.000000,4.000000,4.000000,4.000000,4.000000,4.000000,4.000000,4.000000,4.000000,4.000000,4.000000,4.000000,4.000000,4.000000,4.000000,100.000000
1614131507.709575,70.000000,0.000000,2.272553,-2.158555,-38.283291,-3.254431,6.202523,-3.168023,-0.449239,4.393301,7.287657,11.594037,10.205062,5.918258,6.798448,17.221512,14.227863,28.657724,7.313699,30.711618,14.958760,10.925823,14.161841,0.016916,1.298912,0.578973,-4.103423,0.014073,0.594151,-3.592106,-3.175062,-9.762029,-11.115364,-59.074337,0.000000,198.000000,4.000000,,,,0.000000,4.000000,4.000000,4.000000,4.000000,4.000000,4.000000,4.000000,4.000000,4.000000,4.000000,4.000000,4.000000,4.000000,4.000000,4.000000,4.000000,4.000000,4.000000,4.000000,4.000000,4.000000,4.000000,4.000000,4.000000,4.000000,4.000000,4.000000,4.000000,4.000000,4.000000,4.000000,4.000000,100.000000
1614131507.717224,71.000000,0.000000,2.270281,-2.156397,-38.245007,-3.251176,5.170680,-2.652035,-0.961610,4.388907,7.280369,10.043982,10.194857,6.425160,4.227547,16.178650,13.700815,26.577784,8.332026,27.091164,6.738673,8.350795,7.993834,-4.085665,1.297613,0.065573,-4.099319,-1.524402,0.593557,-4.101334,-3.171887,-10.265087,-11.104249,-58.502441,0.000000,185.000000,4.000000,,,,0.000000,4.000000,4.000000,4.000000,4.000000,4.000000,4.000000,4.000000,4.000000,4.000000,4.000000,4.000000,4.000000,4.000000,4.000000,4.000000,4.000000,4.000000,4.000000,4.000000,4.000000,4.000000,4.000000,4.000000,4.000000,4.000000,4.000000,4.000000,4.000000,4.000000,4.000000,4.000000,4.000000,100.000000
1614131507.724973,72.000000,0.000000,2.268011,-2.154240,-38.206760,-3.247925,5.678329,-2.649383,2.116275,6.435801,7.785910,11.572399,12.748765,6.418735,8.325884,20.777857,14.712755,33.217873,12.426258,43.474327,25.193472,10.906547,10.037122,1.559447,1.296316,0.578328,-4.095220,-2.548519,0.592963,-3.071592,-3.168715,-9.742002,-10.067504,-57.418301,0.000000,194.000000,4.000000,,,,0.000000,4.000000,4.000000,4.000000,4.000000,4.000000,4.000000,4.000000,4.000000,4.000000,4.000000,4.000000,4.000000,4.000000,4.000000,4.000000,4.000000,4.000000,4.000000,4.000000,4.000000,4.000000,4.000000,4.000000,4.000000,4.000000,4.000000,4.000000,4.000000,4.000000,4.000000,4.000000,4.000000,100.000000
1614131507.732623,73.000000,0.000000,1.752922,-2.152086,-38.168556,-3.244677,5.672651,-3.159554,4.165441,7.967826,7.265303,12.073647,13.761657,5.899496,12.420122,20.757078,14.185222,37.800041,11.901011,43.943676,24.655458,10.895639,8.488623,0.532246,0.269378,1.090570,-4.603945,-3.571611,0.079550,-1.017238,-3.165546,-9.219440,-10.570256,-58.899342,0.000000,200.000000,4.000000,,,,0.000000,4.000000,4.000000,4.000000,4.000000,4.000000,4.000000,4.000000,4.000000,4.000000,4.000000,4.000000,4.000000,4.000000,4.000000,4.000000,4.000000,4.000000,4.000000,4.000000,4.000000,4.000000,4.000000,4.000000,4.000000,4.000000,4.000000,4.000000,4.000000,4.000000,4.000000,4.000000,4.000000,100.000000
1614131507.740372,74.000000,0.000000,3.289631,-2.149934,-38.130386,-3.241432,7.205440,-2.130753,2.109993,8.985499,7.770858,8.984651,14.260715,6.406416,11.382061,19.197859,13.658216,34.172497,10.350649,34.668961,17.964136,7.295001,7.454494,0.531714,1.807570,0.063839,-3.060879,-4.593681,1.105111,0.522241,-3.162381,-8.184579,-10.046865,-57.814804,0.000000,183.000000,4.000000,,,,0.000000,4.000000,4.000000,4.000000,4.000000,4.000000,4.000000,4.000000,4.000000,4.000000,4.000000,4.000000,4.000000,4.000000,4.000000,4.000000,4.000000,4.000000,4.000000,4.000000,4.000000,4.000000,4.000000,4.000000,4.000000,4.000000,4.000000,4.000000,4.000000,4.000000,4.000000,4.000000,4.000000,100.000000
1614131507.748021,75.000000,0.000000,5.337623,-2.147784,-38.092255,-3.238191,9.249516,0.435480,5.184806,11.027796,12.378472,13.591051,16.810558,8.451292,13.421961,24.306868,16.208660,39.266529,21.622349,42.326599,35.382069,13.954372,20.267551,14.890157,8.985250,0.063775,-1.006537,2.077580,3.155288,2.573000,-3.159218,-3.561010,-7.985537,-46.474937,0.000000,193.000000,4.000000,,,,0.000000,4.000000,4.000000,4.000000,4.000000,4.000000,4.000000,4.000000,4.000000,4.000000,4.000000,4.000000,4.000000,4.000000,4.000000,4.000000,4.000000,4.000000,4.000000,4.000000,4.000000,4.000000,4.000000,4.000000,4.000000,4.000000,4.000000,4.000000,4.000000,4.000000,4.000000,4.000000,4.000000,100.000000
1614131507.755770,76.000000,0.000000,6.357926,-2.145636,-38.054165,-3.234953,9.753088,1.460686,15.436031,12.555230,16.468658,22.295408,17.819387,10.494123,19.049564,26.846663,20.807837,48.970852,33.908421,56.130428,51.244125,25.222469,31.529335,23.593216,13.591649,6.217557,0.532931,10.793450,4.690594,4.108889,-3.156059,3.622039,-6.439090,-40.274616,0.000000,209.000000,4.000000,,,,0.000000,4.000000,4.000000,4.000000,4.000000,4.000000,4.000000,4.000000,4.000000,4.000000,4.000000,4.000000,4.000000,4.000000,4.000000,4.000000,4.000000,4.000000,4.000000,4.000000,4.000000,4.000000,4.000000,4.000000,4.000000,4.000000,4.000000,4.000000,4.000000,4.000000,4.000000,4.000000,4.000000,100.000000
1614131507.763419,77.000000,0.000000,5.838748,-2.143491,-38.016109,-3.231718,9.230514,0.946404,16.446238,12.029854,12.862446,14.067985,15.237466,9.970808,20.056156,17.076225,19.761387,42.255215,25.669382,49.407631,35.295444,18.017759,18.164473,13.313211,10.501135,9.801084,-0.493243,8.218554,4.173083,4.104780,-3.665724,4.131237,-6.945471,-48.952290,0.000000,181.000000,4.000000,,,,0.000000,4.000000,4.000000,4.000000,4.000000,4.000000,4.000000,4.000000,4.000000,4.000000,4.000000,4.000000,4.000000,4.000000,4.000000,4.000000,4.000000,4.000000,4.000000,4.000000,4.000000,4.000000,4.000000,4.000000,4.000000,4.000000,4.000000,4.000000,4.000000,4.000000,4.000000,4.000000,4.000000,100.000000
1614131507.771168,78.000000,0.000000,5.832910,-2.141347,-37.978092,-3.228486,9.221284,0.945458,8.224662,12.017824,8.234199,1.233404,13.170947,9.960837,17.471996,12.443766,15.126242,32.982189,11.284739,29.871044,9.106302,0.563844,2.761693,4.069129,7.926531,2.098974,-1.518390,4.620593,4.168910,3.587855,-3.149237,-1.001099,-6.938526,-54.544361,0.000000,203.000000,4.000000,,,,0.000000,4.000000,4.000000,4.000000,4.000000,4.000000,4.000000,4.000000,4.000000,4.000000,4.000000,4.000000,4.000000,4.000000,4.000000,4.000000,4.000000,4.000000,4.000000,4.000000,4.000000,4.000000,4.000000,4.000000,4.000000,4.000000,4.000000,4.000000,4.000000,4.000000,4.000000,4.000000,4.000000,100.000000
1614131507.778817,79.000000,0.000000,5.827076,-2.139206,-37.940117,-3.225258,9.212062,0.944512,7.703617,12.005806,7.200323,4.821914,13.670596,10.463697,15.916063,15.508245,14.085474,32.949207,11.786275,24.712967,5.507452,1.588921,14.040982,7.141983,10.482707,-2.518509,4.636974,10.256998,4.164741,3.584267,-1.094806,-1.000098,-6.418767,-49.361614,0.000000,179.000000,4.000000,,,,0.000000,4.000000,4.000000,4.000000,4.000000,4.000000,4.000000,4.000000,4.000000,4.000000,4.000000,4.000000,4.000000,4.000000,4.000000,4.000000,4.000000,4.000000,4.000000,4.000000,4.000000,4.000000,4.000000,4.000000,4.000000,4.000000,4.000000,4.000000,4.000000,4.000000,4.000000,4.000000,4.000000,100.000000
1614131507.786567,80.000000,0.000000,5.821249,-2.137067,-37.902176,-3.222033,9.202850,0.943568,11.798477,11.993800,7.705944,8.406836,13.656925,9.427592,11.284763,7.800429,12.532928,28.813694,11.774488,26.739536,13.707073,10.818102,27.360275,9.698944,12.523506,5.176317,10.273363,11.785202,4.160576,3.580683,0.957571,2.077825,-6.925169,-45.722507,0.000000,205.000000,4.000000,,,,0.000000,4.000000,4.000000,4.000000,4.000000,4.000000,4.000000,4.000000,4.000000,4.000000,4.000000,4.000000,4.000000,4.000000,4.000000,4.000000,4.000000,4.000000,4.000000,4.000000,4.000000,4.000000,4.000000,4.000000,4.000000,4.000000,4.000000,4.000000,4.000000,4.000000,4.000000,4.000000,4.000000,100.000000
1614131507.794216,81.000000,0.000000,5.815428,-2.134930,-37.864273,-3.218811,7.655186,0.942624,10.761038,11.981807,7.698237,3.783045,13.130448,6.854063,4.606812,2.151603,8.417830,20.579752,4.583227,23.123055,11.129264,7.217540,15.538043,6.612322,10.459701,8.248064,4.622064,5.619571,4.156416,3.577102,0.443793,1.562927,-6.918243,-47.215248,0.000000,197.000000,4.000000,,,,0.000000,4.000000,4.000000,4.000000,4.000000,4.000000,4.000000,4.000000,4.000000,4.000000,4.000000,4.000000,4.000000,4.000000,4.000000,4.000000,4.000000,4.000000,4.000000,4.000000,4.000000,4.000000,4.000000,4.000000,4.000000,4.000000,4.000000,4.000000,4.000000,4.000000,4.000000,4.000000,4.000000,100.000000
1614131507.802065,82.000000,0.000000,5.809613,-2.132795,-37.826408,-3.215592,6.109069,1.454502,10.237456,11.969825,7.690539,10.445929,14.142959,5.821567,3.576564,13.944323,8.409412,23.123276,5.604285,32.330700,14.195057,5.159040,2.701992,4.041607,7.885139,1.573149,-4.613328,3.562669,4.152259,3.573525,0.443349,1.048543,-6.911325,-47.168034,0.000000,226.000000,4.000000,,,,0.000000,4.000000,4.000000,4.000000,4.000000,4.000000,4.000000,4.000000,4.000000,4.000000,4.000000,4.000000,4.000000,4.000000,4.000000,4.000000,4.000000,4.000000,4.000000,4.000000,4.000000,4.000000,4.000000,4.000000,4.000000,4.000000,4.000000,4.000000,4.000000,4.000000,4.000000,4.000000,4.000000,100.000000
1614131507.809814,83.000000,0.000000,5.803803,-2.130662,-37.788582,-3.212376,6.102960,1.453048,11.252860,11.957855,7.682848,18.127790,13.615995,6.328566,4.598628,22.135508,12.503567,31.818100,11.239706,49.221447,33.155220,11.307728,10.904418,4.550386,8.390074,-0.479706,-4.608714,4.071927,4.148107,3.569951,0.442906,1.560315,-6.904414,-49.172146,0.000000,196.000000,4.000000,,,,0.000000,4.000000,4.000000,4.000000,4.000000,4.000000,4.000000,4.000000,4.000000,4.000000,4.000000,4.000000,4.000000,4.000000,4.000000,4.000000,4.000000,4.000000,4.000000,4.000000,4.000000,4.000000,4.000000,4.000000,4.000000,4.000000,4.000000,4.000000,4.000000,4.000000,4.000000,4.000000,4.000000,100.000000
1614131507.817663,84.000000,0.000000,5.797999,-2.128531,-37.750793,-3.209164,5.071216,0.938774,10.728786,12.458718,7.675166,15.032739,13.089559,6.322237,4.081209,19.549269,14.542346,33.837566,12.254107,47.120941,38.763092,10.783599,21.149923,5.058656,8.894505,3.623338,-3.578464,4.580676,4.143959,3.566381,0.442463,0.533114,-6.384689,-50.661434,0.000000,190.000000,4.000000,,,,0.000000,4.000000,4.000000,4.000000,4.000000,4.000000,4.000000,4.000000,4.000000,4.000000,4.000000,4.000000,4.000000,4.000000,4.000000,4.000000,4.000000,4.000000,4.000000,4.000000,4.000000,4.000000,4.000000,4.000000,4.000000,4.000000,4.000000,4.000000,4.000000,4.000000,4.000000,4.000000,4.000000,100.000000
1614131507.825412,85.000000,0.000000,5.792202,-2.126403,-37.200222,-3.205955,6.604606,1.450656,11.230878,11.933438,8.180311,18.094629,16.666212,6.315916,4.077128,24.145103,14.014983,32.778088,11.729033,38.355873,29.493559,7.183072,19.590313,5.053597,9.398430,5.158176,-4.600527,6.627377,4.139815,3.562815,0.954841,2.583863,-4.327022,-49.072311,0.000000,212.000000,4.000000,,,,0.000000,4.000000,4.000000,4.000000,4.000000,4.000000,4.000000,4.000000,4.000000,4.000000,4.000000,4.000000,4.000000,4.000000,4.000000,4.000000,4.000000,4.000000,4.000000,4.000000,4.000000,4.000000,4.000000,4.000000,4.000000,4.000000,4.000000,4.000000,4.000000,4.000000,4.000000,4.000000,4.000000,100.000000
1614131507.833261,86.000000,0.000000,5.786409,-2.124276,-37.163021,-3.202749,6.085181,1.449205,11.219647,11.921505,5.608028,16.538073,17.162367,6.309599,5.098692,23.608139,14.000968,33.770950,11.717304,43.445721,31.002527,10.252812,18.032261,4.022902,8.363391,4.640197,-2.031824,7.646391,4.135675,3.559252,0.441065,1.555638,-3.297054,-51.074524,0.000000,193.000000,4.000000,,,,0.000000,4.000000,4.000000,4.000000,4.000000,4.000000,4.000000,4.000000,4.000000,4.000000,4.000000,4.000000,4.000000,4.000000,4.000000,4.000000,4.000000,4.000000,4.000000,4.000000,4.000000,4.000000,4.000000,4.000000,4.000000,4.000000,4.000000,4.000000,4.000000,4.000000,4.000000,4.000000,4.000000,100.000000
1614131507.841010,87.000000,0.000000,5.780622,-2.122152,-39.177143,-3.199546,-4.690135,-2.141988,6.080223,12.422404,0.987036,-3.478465,8.940077,6.816111,4.067952,4.610171,14.499787,33.224358,11.705586,50.581764,36.612549,16.909225,20.578331,4.531700,6.303745,3.609916,-1.004151,8.151565,4.131539,4.068513,0.440624,-6.651046,-2.780936,-56.664474,0.000000,204.000000,4.000000,,,,0.000000,4.000000,4.000000,4.000000,4.000000,4.000000,4.000000,4.000000,4.000000,4.000000,4.000000,4.000000,4.000000,4.000000,4.000000,4.000000,4.000000,4.000000,4.000000,4.000000,4.000000,4.000000,4.000000,4.000000,4.000000,4.000000,4.000000,4.000000,4.000000,4.000000,4.000000,4.000000,4.000000,100.000000
1614131507.848859,88.000000,0.000000,6.287663,-2.120030,-41.189247,-3.196346,-12.890573,-6.242410,-0.079704,10.871520,-0.039592,-12.705755,2.777290,6.296474,2.525423,-5.138029,14.485288,31.139851,13.745163,44.377335,28.883631,19.456419,14.403907,6.578451,6.297441,5.144768,-3.567249,9.169054,4.127408,2.525983,0.953004,-8.695677,-2.265335,-57.120628,0.000000,188.000000,4.000000,,,,0.000000,4.000000,4.000000,4.000000,4.000000,4.000000,4.000000,4.000000,4.000000,4.000000,4.000000,4.000000,4.000000,4.000000,4.000000,4.000000,4.000000,4.000000,4.000000,4.000000,4.000000,4.000000,4.000000,4.000000,4.000000,4.000000,4.000000,4.000000,4.000000,4.000000,4.000000,4.000000,4.000000,100.000000
1614131507.856608,89.000000,0.000000,4.230093,-2.117910,-41.148056,-3.193150,-8.775118,-6.748988,-0.592444,5.732444,0.986088,-3.462281,2.774513,2.700434,0.984436,5.123519,12.932341,29.057428,9.628854,22.794497,0.649618,5.590809,-4.584857,-0.094794,2.701401,4.113982,-4.076503,3.518860,4.123281,0.472175,-1.612051,-7.148520,-6.878454,-58.089149,0.000000,219.000000,4.000000,,,,0.000000,4.000000,4.000000,4.000000,4.000000,4.000000,4.000000,4.000000,4.000000,4.000000,4.000000,4.000000,4.000000,4.000000,4.000000,4.000000,4.000000,4.000000,4.000000,4.000000,4.000000,4.000000,4.000000,4.000000,4.000000,4.000000,4.000000,4.000000,4.000000,4.000000,4.000000,4.000000,4.000000,100.000000
1614131507.864457,90.000000,0.000000,2.174581,-2.115792,-41.106911,-3.702777,-4.663779,-6.229418,0.433789,3.675429,-0.040539,1.156566,2.258918,-1.404831,0.983451,10.246601,9.329665,29.541193,-3.201288,1.746061,-30.633083,-15.953243,-16.887964,-11.889571,-6.532070,-3.582440,-3.559606,-7.766711,4.119157,-0.553938,-6.225824,-14.833679,-13.538242,-65.723366,0.000000,197.000000,4.000000,,,,0.000000,4.000000,4.000000,4.000000,4.000000,4.000000,4.000000,4.000000,4.000000,4.000000,4.000000,4.000000,4.000000,4.000000,4.000000,4.000000,4.000000,4.000000,4.000000,4.000000,4.000000,4.000000,4.000000,4.000000,4.000000,4.000000,4.000000,4.000000,4.000000,4.000000,4.000000,4.000000,4.000000,100.000000
1614131507.872206,91.000000,0.000000,1.659586,-2.113676,-40.552982,-3.186254,-6.197577,-6.736009,-0.592286,5.210215,-0.040498,0.129769,2.769480,-1.916247,1.495288,6.646611,6.756233,30.537292,-3.710907,11.487905,-17.781937,-10.809085,-9.178768,-8.287938,-9.602461,-11.271165,-5.094508,-11.861508,4.115038,-0.040563,-7.758060,-20.459871,-14.550345,-68.734566,0.000000,188.000000,4.000000,,,,0.000000,4.000000,4.000000,4.000000,4.000000,4.000000,4.000000,4.000000,4.000000,4.000000,4.000000,4.000000,4.000000,4.000000,4.000000,4.000000,4.000000,4.000000,4.000000,4.000000,4.000000,4.000000,4.000000,4.000000,4.000000,4.000000,4.000000,4.000000,4.000000,4.000000,4.000000,4.000000,4.000000,100.000000
1614131507.880055,92.000000,0.000000,2.170747,-2.111562,-41.538071,-3.183068,-3.114456,-6.729273,-0.591694,4.179364,0.985183,-2.434464,3.279531,-0.375869,-0.557489,3.050221,6.236656,23.840088,4.497932,31.476418,15.056358,10.740186,0.574000,2.489580,-6.003115,-10.747073,-3.550951,-10.311185,4.110923,-0.040523,-7.237481,-12.747104,-15.561436,-65.588913,0.000000,180.000000,4.000000,,,,0.000000,4.000000,4.000000,4.000000,4.000000,4.000000,4.000000,4.000000,4.000000,4.000000,4.000000,4.000000,4.000000,4.000000,4.000000,4.000000,4.000000,4.000000,4.000000,4.000000,4.000000,4.000000,4.000000,4.000000,4.000000,4.000000,4.000000,4.000000,4.000000,4.000000,4.000000,4.000000,4.000000,100.000000
1614131507.887804,93.000000,0.000000,1.655755,-2.109451,-44.060635,-5.231167,-2.598521,-6.209723,-0.591102,-0.440200,-2.092725,-10.124337,-6.467339,-2.426775,-8.762060,-9.773342,3.153496,6.380351,-3.198874,15.034684,4.784892,4.575599,-1.990676,-3.666755,-8.561214,-7.146583,-0.470477,-11.839335,4.619633,-0.040482,-7.230244,-9.144612,-18.622797,-69.113068,0.000000,198.000000,4.000000,,,,0.000000,4.000000,4.000000,4.000000,4.000000,4.000000,4.000000,4.000000,4.000000,4.000000,4.000000,4.000000,4.000000,4.000000,4.000000,4.000000,4.000000,4.000000,4.000000,4.000000,4.000000,4.000000,4.000000,4.000000,4.000000,4.000000,4.000000,4.000000,4.000000,4.000000,4.000000,4.000000,4.000000,100.000000
1614131507.895653,94.000000,0.000000,2.166920,-2.107342,-45.042213,-6.764397,-7.211307,-6.716334,-4.180254,-4.029503,-7.731658,-12.678315,-15.691641,-6.526912,-15.419965,-22.584082,0.073420,-3.882440,-14.477726,-2.929068,-18.296816,-12.864874,-4.039968,-12.381038,-10.091115,-6.626616,-4.572571,-10.801855,3.076551,-0.040442,-7.223013,-10.161109,-16.040071,-71.095238,0.000000,194.000000,4.000000,,,,0.000000,4.000000,4.000000,4.000000,4.000000,4.000000,4.000000,4.000000,4.000000,4.000000,4.000000,4.000000,4.000000,4.000000,4.000000,4.000000,4.000000,4.000000,4.000000,4.000000,4.000000,4.000000,4.000000,4.000000,4.000000,4.000000,4.000000,4.000000,4.000000,4.000000,4.000000,4.000000,4.000000,100.000000
1614131507.903402,95.000000,0.000000,2.164753,-2.105234,-44.484352,-4.706351,-4.127173,-5.683977,-4.176074,-1.974192,-5.159824,-9.075893,-7.983641,-6.520385,-12.840442,-9.740985,1.098987,8.429134,-9.847864,20.150784,9.413788,-2.082778,5.194842,-4.163528,-4.439998,-7.645630,-7.644922,-7.714130,1.022193,-0.040401,-7.728611,-7.586845,-10.895827,-61.793369,0.000000,174.000000,4.000000,,,,0.000000,4.000000,4.000000,4.000000,4.000000,4.000000,4.000000,4.000000,4.000000,4.000000,4.000000,4.000000,4.000000,4.000000,4.000000,4.000000,4.000000,4.000000,4.000000,4.000000,4.000000,4.000000,4.000000,4.000000,4.000000,4.000000,4.000000,4.000000,4.000000,4.000000,4.000000,4.000000,4.000000,100.000000
1614131507.911051,96.000000,0.000000,1.649768,-2.103129,-44.952690,-2.650362,4.594903,-1.062908,0.956307,2.643167,4.076105,-5.989894,2.793573,-1.898480,-4.622473,15.396961,3.149170,26.882244,-3.684170,41.669094,27.865913,15.355202,12.881954,5.071404,-2.897096,-5.586702,-1.483431,-8.219236,-0.004470,-0.040361,-5.156780,-6.553617,-10.884932,-56.090549,8064.000000,0.000000,4.000000,,,,0.000000,4.000000,4.000000,4.000000,4.000000,4.000000,4.000000,4.000000,4.000000,4.000000,4.000000,4.000000,4.000000,4.000000,4.000000,4.000000,4.000000,4.000000,4.000000,4.000000,4.000000,4.000000,4.000000,4.000000,4.000000,4.000000,4.000000,4.000000,4.000000,4.000000,4.000000,4.000000,4.000000,100.000000
