title:30, start timestamp:1614131583.625920, stop timestamp:1614131629.508326, headset type:EPOCFLEX, headset serial:F00001ED, headset firmware:f12, subject name:s08, channels:75, sampling rate:128, samples:5922      , version:2.0
Timestamp,EEG.Counter,EEG.Interpolated,EEG.Cz,EEG.Fz,EEG.Fp1,EEG.AF3,EEG.F7,EEG.F3,EEG.FC1,EEG.C3,EEG.FC5,EEG.T7,EEG.CP5,EEG.CP1,EEG.P3,EEG.P7,EEG.PO3,EEG.O1,EEG.Pz,EEG.Oz,EEG.O2,EEG.PO4,EEG.P8,EEG.P4,EEG.CP2,EEG.CP6,EEG.T8,EEG.FC6,EEG.C4,EEG.FC2,EEG.F4,EEG.F8,EEG.AF4,EEG.Fp2,EEG.HighBitFlex,EEG.RawCq,EEG.Battery,MarkerIndex,MarkerType,MarkerValueInt,EEG.MarkerHardware,CQ.Cz,CQ.Fz,CQ.Fp1,CQ.AF3,CQ.F7,CQ.F3,CQ.FC1,CQ.C3,CQ.FC5,CQ.T7,CQ.CP5,CQ.CP1,CQ.P3,CQ.P7,CQ.PO3,CQ.O1,CQ.Pz,CQ.Oz,CQ.O2,CQ.PO4,CQ.P8,CQ.P4,CQ.CP2,CQ.CP6,CQ.T8,CQ.FC6,CQ.C4,CQ.FC2,CQ.F4,CQ.F8,CQ.AF4,CQ.Fp2,CQ.Overall
1614131583.625920,11.000000,0.000000,-0.589898,-16.482092,-14.659449,-11.995431,-0.996679,-4.739245,-17.388731,-9.788116,-6.634531,-12.337962,12.690463,-1.623740,7.199047,31.368696,18.528795,24.462793,-4.230352,0.193958,-31.758574,-8.662457,-20.148521,-12.850601,-7.219012,-1.457399,2.832931,-4.389270,-17.515350,-7.399356,-4.740330,7.409662,-6.447709,-44.928596,0.000000,194.000000,4.000000,,,,0.000000,4.000000,4.000000,4.000000,4.000000,4.000000,4.000000,4.000000,4.000000,4.000000,4.000000,4.000000,4.000000,4.000000,4.000000,4.000000,4.000000,4.000000,4.000000,4.000000,4.000000,4.000000,4.000000,4.000000,4.000000,2.000000,4.000000,4.000000,4.000000,4.000000,4.000000,4.000000,4.000000,83.333336
1614131583.633569,12.000000,0.000000,-4.179051,-16.465611,-14.644790,-11.983436,-1.508503,-4.221685,-17.371342,-11.316789,-8.679178,-3.607675,-3.219663,-3.673399,0.525181,6.209123,-0.976912,-3.766798,-12.431251,-5.447261,-48.649891,-22.499949,-35.000168,-20.530058,-8.237434,-13.250813,-1.272466,-8.487445,-21.087578,-7.391957,-4.735590,-0.290055,-6.441261,-44.370846,0.000000,214.000000,4.000000,,,,0.000000,4.000000,4.000000,4.000000,4.000000,4.000000,4.000000,4.000000,4.000000,4.000000,4.000000,4.000000,4.000000,4.000000,4.000000,4.000000,4.000000,4.000000,4.000000,4.000000,4.000000,4.000000,4.000000,4.000000,4.000000,2.000000,4.000000,4.000000,4.000000,4.000000,4.000000,4.000000,4.000000,83.333336
1614131583.641318,13.000000,0.000000,-4.687693,-16.449144,-14.630144,-9.920171,-0.994174,-4.217463,-16.841150,-15.920856,-8.157679,5.626702,-22.703623,-5.721007,-11.270216,-17.386829,-15.334909,-22.737391,-17.547024,-15.698224,-49.626884,-26.580013,-39.580551,-29.227476,-8.229197,-19.391409,-7.425040,-15.658444,-21.066490,-7.384565,-4.730854,-5.930791,-6.434820,-40.736732,0.000000,213.000000,4.000000,,,,0.000000,4.000000,4.000000,4.000000,4.000000,4.000000,4.000000,4.000000,4.000000,4.000000,4.000000,4.000000,4.000000,4.000000,4.000000,4.000000,4.000000,4.000000,4.000000,4.000000,4.000000,4.000000,4.000000,4.000000,4.000000,2.000000,4.000000,4.000000,4.000000,4.000000,4.000000,4.000000,4.000000,83.333336
1614131583.648967,14.000000,0.000000,-4.170185,-15.919875,-14.102694,-7.858968,-0.480359,-5.238887,-18.362770,-18.981859,-8.662342,-2.584053,-26.783484,-7.766569,-17.412792,-31.215597,-16.858036,-23.740294,-18.555119,-25.938936,-50.090076,-33.220100,-39.540970,-37.403378,-8.220967,-21.936119,-9.981717,-16.668427,-21.558245,-7.377181,-4.726123,-5.924860,-6.428385,-41.721638,0.000000,193.000000,4.000000,,,,0.000000,4.000000,4.000000,4.000000,4.000000,4.000000,4.000000,4.000000,4.000000,4.000000,4.000000,4.000000,4.000000,4.000000,4.000000,4.000000,4.000000,4.000000,4.000000,4.000000,4.000000,4.000000,4.000000,4.000000,4.000000,2.000000,4.000000,4.000000,4.000000,4.000000,4.000000,4.000000,4.000000,83.333336
1614131583.656716,15.000000,0.000000,-4.166015,-16.416775,-15.114232,-8.363930,-5.095263,-4.208007,-20.395691,-19.475698,-8.140859,-9.248136,-24.192598,-8.784443,-15.856917,-37.338226,-14.789896,-22.178091,-17.510921,-34.118126,-66.963066,-40.366367,-40.527069,-39.417255,-8.212747,-23.452646,-9.458915,-17.164579,-22.049507,-7.369803,-4.721397,-5.406115,-6.421957,-42.192738,0.000000,183.000000,4.000000,,,,0.000000,4.000000,4.000000,4.000000,4.000000,4.000000,4.000000,4.000000,4.000000,4.000000,4.000000,4.000000,4.000000,4.000000,4.000000,4.000000,4.000000,4.000000,4.000000,4.000000,4.000000,4.000000,4.000000,4.000000,4.000000,2.000000,4.000000,4.000000,4.000000,4.000000,4.000000,4.000000,4.000000,83.333336
1614131583.664366,16.000000,0.000000,-4.161849,-16.400358,-17.150400,-8.355566,-11.756835,-3.690979,-21.400936,-18.430580,-9.158359,-11.802990,-22.117123,-7.750018,-18.917984,-37.813709,-15.800748,-23.694376,-16.980591,-32.032726,-69.973022,-37.249077,-34.845520,-32.711170,-8.204534,-24.454834,-9.962276,-19.198696,-19.463354,-7.362433,-4.716675,-5.913529,-6.415535,-41.637722,0.000000,209.000000,4.000000,,,,0.000000,4.000000,4.000000,4.000000,4.000000,4.000000,4.000000,4.000000,4.000000,4.000000,4.000000,4.000000,4.000000,4.000000,4.000000,4.000000,4.000000,4.000000,4.000000,4.000000,4.000000,4.000000,4.000000,4.000000,4.000000,2.000000,4.000000,4.000000,4.000000,4.000000,4.000000,4.000000,4.000000,83.333336
1614131583.672215,17.000000,0.000000,-4.670507,-15.871138,-18.671711,-8.347210,-13.796360,-8.302672,-20.866714,-18.412149,-11.713304,-9.739905,-18.505262,-8.767908,-21.463167,-31.622049,-15.784946,-17.004015,-17.989250,-12.000692,-37.595360,-13.622085,-10.195288,-15.242563,-8.196329,-18.276533,-7.388212,-14.564114,-17.392609,-7.355071,-4.711959,-6.420436,-6.409119,-41.596085,0.000000,172.000000,4.000000,,,,0.000000,4.000000,4.000000,4.000000,4.000000,4.000000,4.000000,4.000000,4.000000,4.000000,4.000000,4.000000,4.000000,4.000000,4.000000,4.000000,4.000000,4.000000,4.000000,4.000000,4.000000,4.000000,4.000000,4.000000,4.000000,4.000000,4.000000,4.000000,4.000000,4.000000,4.000000,4.000000,4.000000,100.000000
1614131583.679964,18.000000,0.000000,-4.153016,-17.393728,-18.653040,-8.338863,-11.218461,-12.396934,-20.845848,-19.932199,-10.163128,0.526245,-14.384192,-7.733500,-7.082730,-12.616069,-6.025572,0.448887,-12.843057,7.498487,-4.737250,18.186409,20.071318,5.798320,-8.188132,-5.437743,-0.714157,-8.395703,-17.888037,-7.347716,-4.707247,-5.388375,-6.915531,-41.554489,0.000000,197.000000,4.000000,,,,0.000000,4.000000,4.000000,4.000000,4.000000,4.000000,4.000000,4.000000,4.000000,4.000000,4.000000,4.000000,4.000000,4.000000,4.000000,4.000000,4.000000,4.000000,4.000000,4.000000,4.000000,4.000000,4.000000,4.000000,4.000000,4.000000,4.000000,4.000000,4.000000,4.000000,4.000000,4.000000,4.000000,100.000000
1614131583.687813,19.000000,0.000000,-1.584761,-19.427616,-17.608746,-8.330524,-9.155960,-10.333255,-20.825001,-16.835344,-5.537580,4.628283,-0.523655,-1.571920,13.949993,14.063214,14.493274,21.986900,6.144145,15.696117,10.652102,32.014378,32.358940,16.048933,-8.179945,3.798464,3.389122,-7.361666,-15.818867,-7.340368,-4.702539,-5.382986,-6.395794,-42.538574,0.000000,198.000000,4.000000,,,,0.000000,4.000000,4.000000,4.000000,4.000000,4.000000,4.000000,4.000000,4.000000,4.000000,4.000000,4.000000,4.000000,4.000000,4.000000,4.000000,4.000000,4.000000,4.000000,4.000000,4.000000,4.000000,4.000000,4.000000,4.000000,4.000000,4.000000,4.000000,4.000000,4.000000,4.000000,4.000000,4.000000,100.000000
1614131583.695562,20.000000,0.000000,-0.557535,-19.921009,-15.539855,-8.835014,-9.146805,-9.297280,-20.804176,-7.587740,-4.506402,3.085193,22.040972,4.070678,19.064249,29.433765,28.837755,32.221325,18.958513,20.808626,9.615809,27.879799,29.249657,16.032883,-8.171764,7.384408,1.847271,-7.867125,-8.110740,-7.845848,-4.697837,-6.403244,-6.389399,-40.444756,0.000000,204.000000,4.000000,,,,0.000000,4.000000,4.000000,4.000000,4.000000,4.000000,4.000000,4.000000,4.000000,4.000000,4.000000,4.000000,4.000000,4.000000,4.000000,4.000000,4.000000,4.000000,4.000000,4.000000,4.000000,4.000000,4.000000,4.000000,4.000000,4.000000,4.000000,4.000000,4.000000,4.000000,4.000000,4.000000,4.000000,100.000000
1614131583.703411,21.000000,0.000000,-1.069798,-20.413910,-13.985853,-8.313358,-8.624837,-11.339265,-20.783373,-2.964767,-1.937793,12.312877,23.044571,3.553787,15.968261,30.429974,24.193533,25.009615,13.298530,23.351919,7.042091,28.364738,29.733227,14.991209,-8.163593,8.915485,1.845424,-8.372079,-5.025706,-7.325182,-4.693139,-4.345559,-6.895830,-35.788925,0.000000,190.000000,4.000000,,,,0.000000,4.000000,4.000000,4.000000,4.000000,4.000000,4.000000,4.000000,4.000000,4.000000,4.000000,4.000000,4.000000,4.000000,4.000000,4.000000,4.000000,4.000000,4.000000,4.000000,4.000000,4.000000,4.000000,4.000000,4.000000,4.000000,4.000000,4.000000,4.000000,4.000000,4.000000,4.000000,4.000000,100.000000
1614131583.711160,22.000000,0.000000,2.008195,-18.855034,-14.484688,-5.740942,-6.564930,-10.302285,-20.762589,-2.961803,2.679529,14.864667,12.765117,3.037412,18.516396,28.348261,14.938570,14.215374,8.669847,21.277287,7.547869,27.823553,32.267597,17.027500,-8.155429,7.880929,6.971783,-5.799604,-6.559142,-4.753754,-2.637164,2.838274,-3.812011,-33.701855,0.000000,192.000000,4.000000,,,,0.000000,4.000000,4.000000,4.000000,4.000000,4.000000,4.000000,4.000000,4.000000,4.000000,4.000000,4.000000,4.000000,4.000000,4.000000,4.000000,4.000000,4.000000,4.000000,4.000000,4.000000,4.000000,4.000000,4.000000,4.000000,4.000000,4.000000,4.000000,4.000000,4.000000,4.000000,4.000000,4.000000,100.000000
1614131583.719009,23.000000,0.000000,6.621572,-14.220794,-14.470203,-4.196740,-4.507083,-7.727880,-20.741827,-1.933200,3.702491,7.157495,17.367737,4.572836,17.985058,30.371195,13.385170,12.149877,10.712460,18.179085,0.873655,16.000858,17.876354,13.420729,-7.634453,8.898689,10.554555,-2.204061,-5.526942,-3.210539,-0.583245,6.425179,0.294365,-33.668152,0.000000,220.000000,4.000000,,,,0.000000,4.000000,4.000000,4.000000,4.000000,4.000000,4.000000,4.000000,4.000000,4.000000,4.000000,4.000000,4.000000,4.000000,4.000000,4.000000,4.000000,4.000000,4.000000,4.000000,4.000000,4.000000,4.000000,4.000000,4.000000,4.000000,4.000000,4.000000,4.000000,4.000000,4.000000,4.000000,4.000000,100.000000
1614131583.726758,24.000000,0.000000,7.127770,-12.155292,-14.455733,-4.705364,-4.502576,-8.232973,-20.721085,-7.059472,3.185968,10.227260,15.299087,3.029802,8.223484,28.802362,10.294862,13.163368,3.009439,9.955778,-20.665680,2.651524,-7.269727,-0.951666,-8.139640,7.864150,3.877334,-5.278780,-6.547056,-3.720149,-1.095482,5.393113,1.319712,-31.583202,0.000000,189.000000,4.000000,,,,0.000000,4.000000,4.000000,4.000000,4.000000,4.000000,4.000000,4.000000,4.000000,4.000000,4.000000,4.000000,4.000000,4.000000,4.000000,4.000000,4.000000,4.000000,4.000000,4.000000,4.000000,4.000000,4.000000,4.000000,4.000000,4.000000,4.000000,4.000000,4.000000,4.000000,4.000000,4.000000,4.000000,100.000000
1614131583.734607,25.000000,0.000000,6.095002,-12.655956,-14.954098,-5.213479,-5.523715,-8.737560,-20.700363,-11.154977,2.669961,8.165751,-4.716213,-0.050151,-1.528330,11.850483,-0.484664,8.534820,-9.814083,-0.823408,-44.747578,-7.094718,-19.570148,-14.284048,-10.695602,-4.964227,-5.357313,-12.452988,-13.207175,-3.716429,-1.094387,4.874899,0.805572,-30.013157,0.000000,203.000000,4.000000,,,,0.000000,4.000000,4.000000,4.000000,4.000000,4.000000,4.000000,4.000000,4.000000,4.000000,4.000000,4.000000,4.000000,4.000000,4.000000,4.000000,4.000000,4.000000,4.000000,4.000000,4.000000,4.000000,4.000000,4.000000,4.000000,4.000000,4.000000,4.000000,4.000000,4.000000,4.000000,4.000000,4.000000,100.000000
1614131583.742356,26.000000,0.000000,6.601727,-12.130480,-14.426323,-4.695445,-5.518191,-8.216002,-20.679663,-2.938693,0.616009,-7.739851,-9.326881,-0.562921,-2.552442,-11.238291,-4.073923,1.859618,-12.368372,-6.976431,-49.831036,-15.292750,-17.499296,-16.833866,-12.223369,-18.292597,-5.864776,-12.953356,-17.296534,-3.712712,-0.580472,5.382845,0.804766,-29.983145,0.000000,217.000000,4.000000,,,,0.000000,4.000000,4.000000,4.000000,4.000000,4.000000,4.000000,4.000000,4.000000,4.000000,4.000000,4.000000,4.000000,4.000000,4.000000,4.000000,4.000000,4.000000,4.000000,4.000000,4.000000,4.000000,4.000000,4.000000,4.000000,4.000000,4.000000,4.000000,4.000000,4.000000,4.000000,4.000000,4.000000,100.000000
1614131583.750205,27.000000,0.000000,6.595126,-13.656811,-14.411897,-4.177929,-4.999852,-8.207787,-20.658983,-7.038319,0.102573,-12.347496,-5.214990,-4.152102,-3.062710,-21.483463,-5.095490,-2.757626,-9.279080,-5.943813,-35.935051,-15.790278,-16.968977,-14.765750,-11.698324,-20.325586,-5.858911,-11.914762,-19.843338,-3.709000,-1.092712,5.377462,-3.811423,-30.978802,0.000000,165.000000,4.000000,,,,0.000000,4.000000,4.000000,4.000000,4.000000,4.000000,4.000000,4.000000,4.000000,4.000000,4.000000,4.000000,4.000000,4.000000,4.000000,4.000000,4.000000,4.000000,4.000000,4.000000,4.000000,4.000000,4.000000,4.000000,4.000000,4.000000,4.000000,4.000000,4.000000,4.000000,4.000000,4.000000,4.000000,100.000000
1614131583.757954,28.000000,0.000000,6.075710,-16.207256,-15.423126,-5.199392,-10.123057,-8.712399,-21.151144,-23.954357,-2.974453,-10.796687,-18.030289,-12.865898,-11.777596,-25.051723,-17.910908,-9.421535,-10.808263,-4.399408,-29.745270,-13.723207,-17.977650,-17.827908,-13.225087,-19.792440,-7.904335,-12.415667,-21.361958,-3.705291,-1.604439,4.859264,-6.371715,-33.511925,0.000000,169.000000,4.000000,,,,0.000000,4.000000,4.000000,4.000000,4.000000,4.000000,4.000000,4.000000,4.000000,4.000000,4.000000,4.000000,4.000000,4.000000,4.000000,4.000000,4.000000,4.000000,4.000000,4.000000,4.000000,4.000000,4.000000,4.000000,4.000000,4.000000,4.000000,4.000000,4.000000,4.000000,4.000000,4.000000,4.000000,100.000000
1614131583.765803,29.000000,0.000000,6.582455,-15.165408,-13.356421,-4.681372,-13.189857,-8.190866,-20.617172,-16.750916,-6.561222,-12.324351,-21.089180,-10.801750,-12.791460,-27.590773,-21.482740,-12.489037,-11.310275,-8.497573,-37.920654,-12.683842,-5.139159,-15.758798,-11.160581,-18.747005,2.872801,-8.300687,-14.673928,-4.214406,0.448447,6.392866,-2.262779,-32.452774,0.000000,199.000000,4.000000,,,,0.000000,4.000000,4.000000,4.000000,4.000000,4.000000,4.000000,4.000000,4.000000,4.000000,4.000000,4.000000,4.000000,4.000000,4.000000,4.000000,4.000000,4.000000,4.000000,4.000000,4.000000,4.000000,4.000000,4.000000,4.000000,4.000000,4.000000,4.000000,4.000000,4.000000,4.000000,4.000000,4.000000,100.000000
1614131583.773552,30.000000,0.000000,9.139975,-12.586141,-8.727679,-0.574127,-1.381796,-5.618573,-17.006813,7.368399,2.163288,1.534127,0.470370,3.055205,3.631588,-12.691388,0.077204,1.882427,-0.016913,-2.335229,-26.087860,5.790380,20.507006,1.180038,0.645452,-8.984670,20.818645,-1.112899,-1.838742,-3.697371,2.499281,12.540319,1.329228,-30.369038,0.000000,181.000000,4.000000,,,,0.000000,4.000000,4.000000,4.000000,4.000000,4.000000,4.000000,4.000000,4.000000,4.000000,4.000000,4.000000,4.000000,4.000000,4.000000,4.000000,4.000000,4.000000,4.000000,4.000000,4.000000,4.000000,4.000000,4.000000,4.000000,4.000000,4.000000,4.000000,4.000000,4.000000,4.000000,4.000000,4.000000,100.000000
1614131583.781201,31.000000,0.000000,12.720578,-12.573554,-6.154850,3.016191,9.901637,-4.074492,-12.887241,12.489236,11.904715,17.430029,15.854515,11.770099,19.525393,16.552073,19.564306,24.444647,15.880539,19.718388,5.220278,33.476898,39.460857,17.076294,10.388396,3.844828,26.438852,4.016418,2.265661,-1.642391,3.009602,18.681625,0.815078,-30.851490,0.000000,194.000000,4.000000,,,,0.000000,4.000000,4.000000,4.000000,4.000000,4.000000,4.000000,4.000000,4.000000,4.000000,4.000000,4.000000,4.000000,4.000000,4.000000,4.000000,4.000000,4.000000,4.000000,4.000000,4.000000,4.000000,4.000000,4.000000,4.000000,4.000000,4.000000,4.000000,4.000000,4.000000,4.000000,4.000000,4.000000,100.000000
1614131583.788950,32.000000,0.000000,14.246320,-12.560981,-7.174335,3.013175,4.250710,-4.583239,-12.874354,6.322901,7.790246,22.027983,14.813020,10.732687,22.069969,34.484238,20.057562,33.138153,22.531326,33.544823,17.522751,42.674191,41.985500,20.648962,10.890828,13.071753,23.848312,6.063684,0.724934,0.410533,2.493772,21.227047,0.301442,-29.794996,8064.000000,0.000000,4.000000,,,,0.000000,4.000000,4.000000,4.000000,4.000000,4.000000,4.000000,4.000000,4.000000,4.000000,4.000000,4.000000,4.000000,4.000000,4.000000,4.000000,4.000000,4.000000,4.000000,4.000000,4.000000,4.000000,4.000000,4.000000,4.000000,4.000000,4.000000,4.000000,4.000000,4.000000,4.000000,4.000000,4.000000,100.000000
1614131583.796599,33.000000,0.000000,14.232073,-12.548420,-7.167161,2.497341,-1.394566,-4.578655,-13.887121,6.829398,2.141430,29.185442,15.823848,9.696314,19.996618,35.988216,18.499044,36.181934,19.944691,32.485638,19.043690,43.144337,40.917873,22.166773,9.854297,19.212526,24.850103,6.057621,2.262671,-0.102698,2.491278,20.180178,1.326782,-27.201099,8192.000000,0.000000,4.000000,,,,0.000000,4.000000,4.000000,4.000000,4.000000,4.000000,4.000000,4.000000,4.000000,4.000000,4.000000,4.000000,4.000000,4.000000,4.000000,4.000000,4.000000,4.000000,4.000000,4.000000,4.000000,4.000000,4.000000,4.000000,4.000000,4.000000,4.000000,4.000000,4.000000,4.000000,4.000000,4.000000,4.000000,100.000000
1614131583.804349,34.000000,0.000000,13.192200,-12.535872,-6.647173,3.007664,4.247854,-2.009974,-12.334772,7.848210,5.729032,20.951128,21.449049,12.250720,21.002262,34.926586,23.095930,41.273960,19.924747,39.632641,32.357979,45.152473,41.389774,27.785633,10.870083,22.783058,24.825254,7.590024,1.747588,-0.102595,3.001607,19.647177,0.812635,-26.661077,8064.000000,0.000000,4.000000,,,,0.000000,4.000000,4.000000,4.000000,4.000000,4.000000,4.000000,4.000000,4.000000,4.000000,4.000000,4.000000,4.000000,4.000000,4.000000,4.000000,4.000000,4.000000,4.000000,4.000000,4.000000,4.000000,4.000000,4.000000,4.000000,4.000000,4.000000,4.000000,4.000000,4.000000,4.000000,4.000000,4.000000,100.000000
1614131583.811998,35.000000,0.000000,14.717469,-12.523335,-7.153347,3.004657,7.320529,-0.469503,-10.271155,8.866003,7.261765,2.468639,23.478882,10.700007,22.519722,36.942944,24.611296,37.642941,22.468925,41.131470,27.197416,31.773989,32.630436,24.680923,10.859213,23.785915,22.236326,12.710640,-1.331083,-0.102493,2.485785,25.781376,0.811822,-25.095955,8064.000000,0.000000,4.000000,,,,0.000000,4.000000,4.000000,4.000000,4.000000,4.000000,4.000000,4.000000,4.000000,4.000000,4.000000,4.000000,4.000000,4.000000,4.000000,4.000000,4.000000,4.000000,4.000000,4.000000,4.000000,4.000000,4.000000,4.000000,4.000000,4.000000,4.000000,4.000000,4.000000,4.000000,4.000000,4.000000,4.000000,100.000000
1614131583.819747,36.000000,0.000000,13.677111,-12.510812,-7.146194,2.488831,5.774747,-0.981854,-9.235243,5.267393,6.741682,18.876427,17.301558,2.484179,17.368996,32.803436,19.458479,28.374529,13.215687,16.474953,-5.137474,9.178112,7.469602,7.220345,9.822713,20.172386,20.162807,13.210750,-1.842573,-0.102390,2.483299,28.319698,0.811010,-22.506758,8064.000000,0.000000,4.000000,,,,0.000000,4.000000,4.000000,4.000000,4.000000,4.000000,4.000000,4.000000,4.000000,4.000000,4.000000,4.000000,4.000000,4.000000,4.000000,4.000000,4.000000,4.000000,4.000000,4.000000,4.000000,4.000000,4.000000,4.000000,4.000000,4.000000,4.000000,4.000000,4.000000,4.000000,4.000000,4.000000,4.000000,100.000000
1614131583.827396,37.000000,0.000000,7.509587,-12.498302,-7.139048,2.486342,5.768972,-0.980872,-9.738829,-4.481464,6.222120,35.267807,8.053487,-4.697792,6.582397,21.488581,11.233891,25.269232,-5.259068,-5.592805,-30.773363,-4.677220,-23.819920,-11.248413,6.735967,8.357342,7.834953,5.505231,-4.917653,-0.102288,2.480816,17.009327,0.810199,-25.048353,8064.000000,0.000000,4.000000,,,,0.000000,4.000000,4.000000,4.000000,4.000000,4.000000,4.000000,4.000000,4.000000,4.000000,4.000000,4.000000,4.000000,4.000000,4.000000,4.000000,4.000000,4.000000,4.000000,4.000000,4.000000,4.000000,4.000000,4.000000,4.000000,4.000000,4.000000,4.000000,4.000000,4.000000,4.000000,4.000000,4.000000,100.000000
1614131583.835145,38.000000,0.000000,1.861052,-12.485803,-7.644729,2.483856,3.199101,-0.979891,-9.729090,-6.015444,2.113334,9.591514,5.481330,-5.205914,0.934789,12.236322,7.120094,25.756783,-11.920475,-3.535930,-31.255409,-11.852031,-38.667892,-17.903831,3.652308,-4.471528,-10.634420,-0.654120,-14.656325,-0.102186,2.478335,4.171804,0.809389,-29.638689,8064.000000,0.000000,4.000000,,,,0.000000,4.000000,4.000000,4.000000,4.000000,4.000000,4.000000,4.000000,4.000000,4.000000,4.000000,4.000000,4.000000,4.000000,4.000000,4.000000,4.000000,4.000000,4.000000,4.000000,4.000000,4.000000,4.000000,4.000000,4.000000,4.000000,4.000000,4.000000,4.000000,4.000000,4.000000,4.000000,4.000000,100.000000
1614131583.842794,39.000000,0.000000,3.910473,-12.473317,-7.124264,2.481372,2.683081,-0.978911,-9.206540,-0.881224,0.059938,1.376794,6.501490,-4.175068,3.497956,11.711266,7.112974,25.731026,-5.241888,3.134273,-21.993385,-8.250435,-30.424099,-15.834645,2.623015,-9.082441,-11.649427,-1.679107,-18.744232,-0.102083,0.424575,3.654812,0.808580,-30.634691,8064.000000,0.000000,4.000000,,,,0.000000,4.000000,4.000000,4.000000,4.000000,4.000000,4.000000,4.000000,4.000000,4.000000,4.000000,4.000000,4.000000,4.000000,4.000000,4.000000,4.000000,4.000000,4.000000,4.000000,4.000000,4.000000,4.000000,4.000000,4.000000,4.000000,4.000000,4.000000,4.000000,4.000000,4.000000,4.000000,4.000000,100.000000
1614131583.850543,40.000000,0.000000,6.470665,-12.460844,-4.553037,2.478891,5.244501,-0.977932,-9.710155,-2.931624,1.085519,14.708750,5.982168,-5.196534,5.545741,8.109811,6.593040,25.192474,-2.159723,1.079856,-19.407290,-3.626800,-19.624443,-16.331631,0.569110,-8.560538,-0.355726,-1.677428,-17.699848,-0.101981,-1.114311,5.702439,0.807771,-30.091236,8064.000000,0.000000,4.000000,,,,0.000000,4.000000,4.000000,4.000000,4.000000,4.000000,4.000000,4.000000,4.000000,4.000000,4.000000,4.000000,4.000000,4.000000,4.000000,4.000000,4.000000,4.000000,4.000000,4.000000,4.000000,4.000000,4.000000,4.000000,4.000000,4.000000,4.000000,4.000000,4.000000,4.000000,4.000000,4.000000,4.000000,100.000000
1614131583.858192,41.000000,0.000000,3.387272,-12.448383,-3.522843,2.476412,0.111051,-0.976954,-9.700444,-3.441513,-3.530951,-3.254677,5.976186,-4.678517,5.027374,0.409393,7.099267,16.449333,-3.183204,-1.485326,-27.593010,-10.289840,-18.066357,-16.828121,-1.482742,-8.551977,-2.406653,-2.188571,-18.194969,-0.614700,-1.626018,3.132635,0.806963,-30.573965,8064.000000,0.000000,4.000000,,,,0.000000,4.000000,4.000000,4.000000,4.000000,4.000000,4.000000,4.000000,4.000000,4.000000,4.000000,4.000000,4.000000,4.000000,4.000000,4.000000,4.000000,4.000000,4.000000,4.000000,4.000000,4.000000,4.000000,4.000000,4.000000,4.000000,4.000000,4.000000,4.000000,4.000000,4.000000,4.000000,4.000000,100.000000
1614131583.865942,42.000000,0.000000,2.358243,-12.435935,-3.519320,2.473936,-5.017265,-0.975977,-9.690743,-1.386790,-3.014599,-8.892447,6.483030,-4.161017,4.509526,-3.180759,5.040886,2.586730,-3.180021,0.054621,-24.488493,-6.176986,-7.791881,-11.683087,-1.481259,-9.056246,-7.019631,-1.673562,-15.612671,-0.614085,-1.624392,4.667964,0.806156,-30.543392,8064.000000,0.000000,4.000000,,,,0.000000,4.000000,4.000000,4.000000,4.000000,4.000000,4.000000,4.000000,4.000000,4.000000,4.000000,4.000000,4.000000,4.000000,4.000000,4.000000,4.000000,4.000000,4.000000,4.000000,4.000000,4.000000,4.000000,4.000000,4.000000,4.000000,4.000000,4.000000,4.000000,4.000000,4.000000,4.000000,4.000000,100.000000
1614131583.873591,43.000000,0.000000,5.945629,-12.423499,-3.515800,2.471462,-2.448145,-0.975001,-9.681053,-5.487967,5.193543,14.706188,4.938086,-4.669677,5.017838,-5.228861,-1.118001,2.071323,-1.638380,5.695592,-2.925544,16.906115,17.344116,-0.389353,-1.479778,-8.534369,4.269440,-2.184709,-7.391930,-0.100651,0.941335,10.304321,0.805350,-31.025669,8064.000000,0.000000,4.000000,,,,0.000000,4.000000,4.000000,4.000000,4.000000,4.000000,4.000000,4.000000,4.000000,4.000000,4.000000,4.000000,4.000000,4.000000,4.000000,4.000000,4.000000,4.000000,4.000000,4.000000,4.000000,4.000000,4.000000,4.000000,4.000000,4.000000,4.000000,4.000000,4.000000,4.000000,4.000000,4.000000,4.000000,100.000000
1614131583.881340,44.000000,0.000000,5.939683,-12.411076,-4.025105,2.468990,-5.009800,-0.974026,-10.184193,-2.918376,2.624248,11.101739,8.010071,-5.177828,8.602563,-0.608247,2.472861,13.864123,1.953002,12.356563,9.897895,27.658440,35.275490,13.457191,-0.965477,-0.320707,14.521581,-1.156883,-5.333256,-0.613370,4.530138,12.345299,0.291724,-29.456181,8064.000000,0.000000,4.000000,,,,0.000000,4.000000,4.000000,4.000000,4.000000,4.000000,4.000000,4.000000,4.000000,4.000000,4.000000,4.000000,4.000000,4.000000,4.000000,4.000000,4.000000,4.000000,4.000000,4.000000,4.000000,4.000000,4.000000,4.000000,4.000000,4.000000,4.000000,4.000000,4.000000,4.000000,4.000000,4.000000,4.000000,100.000000
1614131583.888989,45.000000,0.000000,6.959384,-12.911485,-2.995439,2.466521,-4.491970,-0.973052,-9.661187,10.930696,2.621623,4.423970,12.617445,-2.095727,15.260627,20.418001,15.803721,22.055387,6.053614,16.959591,9.887997,27.117960,36.778675,21.648861,1.599591,10.448845,12.968597,6.023761,-6.353564,-0.099937,6.064069,13.871415,0.804253,-23.785700,8064.000000,0.000000,4.000000,,,,0.000000,4.000000,4.000000,4.000000,4.000000,4.000000,4.000000,4.000000,4.000000,4.000000,4.000000,4.000000,4.000000,4.000000,4.000000,4.000000,4.000000,4.000000,4.000000,4.000000,4.000000,4.000000,4.000000,4.000000,4.000000,4.000000,4.000000,4.000000,4.000000,4.000000,4.000000,4.000000,4.000000,100.000000
1614131583.896738,46.000000,0.000000,13.619092,-11.872932,-0.428341,4.002516,9.871497,-0.972079,-9.651526,16.047970,15.952335,24.932367,13.630469,-0.042349,16.783829,38.859123,22.967405,22.546152,8.098842,18.481092,10.390929,29.654945,37.254719,22.652853,3.136453,15.053781,16.545372,13.197225,-3.783108,4.515548,6.570826,17.447287,2.854731,-18.633709,8064.000000,0.000000,4.000000,,,,0.000000,4.000000,4.000000,4.000000,4.000000,4.000000,4.000000,4.000000,4.000000,4.000000,4.000000,4.000000,4.000000,4.000000,4.000000,4.000000,4.000000,4.000000,4.000000,4.000000,4.000000,4.000000,4.000000,4.000000,4.000000,4.000000,4.000000,4.000000,4.000000,4.000000,4.000000,4.000000,4.000000,100.000000
1614131583.904387,47.000000,0.000000,18.220858,-9.809777,-1.453554,6.049796,13.451369,-0.971107,-10.154696,13.467819,14.397921,20.292049,14.642479,-2.093589,15.741404,37.281803,21.918797,20.985146,8.603563,15.898509,4.739513,23.471443,37.730286,19.040457,2.620496,15.038727,21.144213,13.696848,-1.728042,7.587955,8.615537,20.506763,4.903158,-18.615074,8064.000000,0.000000,4.000000,,,,0.000000,4.000000,4.000000,4.000000,4.000000,4.000000,4.000000,4.000000,4.000000,4.000000,4.000000,4.000000,4.000000,4.000000,4.000000,4.000000,4.000000,4.000000,4.000000,4.000000,4.000000,4.000000,4.000000,4.000000,4.000000,4.000000,4.000000,4.000000,4.000000,4.000000,4.000000,4.000000,4.000000,100.000000
1614131583.912236,48.000000,0.000000,17.689816,-8.261506,-2.990562,6.043746,5.745610,-0.970136,-7.067617,16.531275,4.127113,3.861501,21.807323,2.011069,18.289764,35.193237,22.922518,24.553904,9.107780,19.472355,1.145030,19.858229,30.513067,17.482956,2.617875,14.510867,18.046144,13.170330,-2.751955,7.580368,10.145383,19.973436,4.385435,-19.109280,8064.000000,0.000000,4.000000,,,,0.000000,4.000000,4.000000,4.000000,4.000000,4.000000,4.000000,4.000000,4.000000,4.000000,4.000000,4.000000,4.000000,4.000000,4.000000,4.000000,4.000000,4.000000,4.000000,4.000000,4.000000,4.000000,4.000000,4.000000,4.000000,4.000000,4.000000,4.000000,4.000000,4.000000,4.000000,4.000000,4.000000,100.000000
1614131583.919985,49.000000,0.000000,17.159306,-6.714783,-0.936289,6.037702,10.868070,-0.969166,-2.445165,16.514744,13.353755,23.857639,26.400902,12.265468,20.835577,38.747787,26.489340,29.144735,10.637135,31.247753,15.502859,27.530678,25.867168,19.516754,2.615258,12.957895,16.489637,14.182801,-2.749203,7.059967,9.622416,19.440641,4.381049,-16.526068,8064.000000,0.000000,4.000000,,,,0.000000,4.000000,4.000000,4.000000,4.000000,4.000000,4.000000,4.000000,4.000000,4.000000,4.000000,4.000000,4.000000,4.000000,4.000000,4.000000,4.000000,4.000000,4.000000,4.000000,4.000000,4.000000,4.000000,4.000000,4.000000,4.000000,4.000000,4.000000,4.000000,4.000000,4.000000,4.000000,4.000000,100.000000
1614131583.927834,50.000000,0.000000,15.603684,-4.656786,1.115929,6.031664,14.959765,-0.968197,-1.929900,11.370024,21.032709,37.679935,23.297577,12.766023,19.789101,32.555195,26.462851,25.525846,12.677779,27.626762,13.436074,21.862122,20.200275,15.907494,2.612642,11.919296,15.960327,12.630157,-2.233634,6.540086,9.612795,19.934021,6.940771,-14.458261,8064.000000,0.000000,4.000000,,,,0.000000,4.000000,4.000000,4.000000,4.000000,4.000000,4.000000,4.000000,4.000000,4.000000,4.000000,4.000000,4.000000,4.000000,4.000000,4.000000,4.000000,4.000000,4.000000,4.000000,4.000000,4.000000,4.000000,4.000000,4.000000,4.000000,4.000000,4.000000,4.000000,4.000000,4.000000,4.000000,4.000000,100.000000
1614131583.935583,51.000000,0.000000,13.536798,-5.164950,0.089172,6.025633,7.765318,-0.967228,-2.440790,9.307371,7.678343,18.155077,21.735819,7.112231,20.282131,24.317511,23.872284,21.397757,12.152281,9.650417,-18.885054,1.840260,0.180076,2.045433,2.610029,8.317634,8.252059,9.540604,-3.257041,3.969444,9.603182,19.401268,8.472291,-15.982264,8064.000000,0.000000,4.000000,,,,0.000000,4.000000,4.000000,4.000000,4.000000,4.000000,4.000000,4.000000,4.000000,4.000000,4.000000,4.000000,4.000000,4.000000,4.000000,4.000000,4.000000,4.000000,4.000000,4.000000,4.000000,4.000000,4.000000,4.000000,4.000000,4.000000,4.000000,4.000000,4.000000,4.000000,4.000000,4.000000,4.000000,100.000000
1614131583.943432,52.000000,0.000000,13.010442,-4.646964,0.089083,6.019607,9.296015,-0.966261,-2.438349,10.836526,3.568100,10.957435,20.688442,6.592299,20.774670,21.729092,22.309952,23.427641,12.140128,7.076665,-33.225143,-1.238504,-15.717541,-6.674562,2.094599,1.129828,1.064320,9.018242,-5.817887,2.939833,9.593578,16.817762,7.950998,-18.017563,8064.000000,0.000000,4.000000,,,,0.000000,4.000000,4.000000,4.000000,4.000000,4.000000,4.000000,4.000000,4.000000,4.000000,4.000000,4.000000,4.000000,4.000000,4.000000,4.000000,4.000000,4.000000,4.000000,4.000000,4.000000,4.000000,4.000000,4.000000,4.000000,4.000000,4.000000,4.000000,4.000000,4.000000,4.000000,4.000000,4.000000,100.000000
1614131583.951181,53.000000,0.000000,13.510252,-2.078215,0.601814,6.013587,11.850821,-0.965295,-1.923091,10.312869,10.231199,19.664425,16.565189,6.072886,16.651331,11.963772,20.749180,15.711905,12.127989,16.813177,-11.653457,6.967863,-6.983874,0.511600,2.605325,-1.948225,0.550435,9.522044,-6.837710,3.449714,9.583985,15.262484,7.943048,-19.025187,8064.000000,0.000000,4.000000,,,,0.000000,4.000000,4.000000,4.000000,4.000000,4.000000,4.000000,4.000000,4.000000,4.000000,4.000000,4.000000,4.000000,4.000000,4.000000,4.000000,4.000000,4.000000,4.000000,4.000000,4.000000,4.000000,4.000000,4.000000,4.000000,4.000000,4.000000,4.000000,4.000000,4.000000,4.000000,4.000000,4.000000,100.000000
1614131583.959030,54.000000,0.000000,12.983921,-2.588957,-1.450069,6.007574,2.095381,-0.964330,-2.433988,9.789736,5.605583,12.978095,13.471701,2.989890,12.532116,-1.894346,15.600225,0.824398,12.115861,16.796364,1.178709,6.960895,4.305161,6.664935,2.602720,-0.407815,1.062705,9.512523,-6.318051,3.446264,9.574401,15.247222,7.935104,-19.006161,8064.000000,0.000000,4.000000,,,,0.000000,4.000000,4.000000,4.000000,4.000000,4.000000,4.000000,4.000000,4.000000,4.000000,4.000000,4.000000,4.000000,4.000000,4.000000,4.000000,4.000000,4.000000,4.000000,4.000000,4.000000,4.000000,4.000000,4.000000,4.000000,4.000000,4.000000,4.000000,4.000000,4.000000,4.000000,4.000000,4.000000,100.000000
1614131583.966780,55.000000,0.000000,13.483758,-4.124830,-3.499901,6.001566,-3.034920,-0.963365,-2.431554,10.805587,3.035875,3.221527,12.945409,4.012541,12.006763,-4.969374,10.456420,5.951779,12.103745,16.779568,-1.899392,5.928293,5.839317,5.632629,2.600117,-1.433048,1.574463,9.503010,-6.311734,3.442818,9.564827,16.257616,7.927169,-18.987156,8064.000000,0.000000,4.000000,,,,0.000000,4.000000,4.000000,4.000000,4.000000,4.000000,4.000000,4.000000,4.000000,4.000000,4.000000,4.000000,4.000000,4.000000,4.000000,4.000000,4.000000,4.000000,4.000000,4.000000,4.000000,4.000000,4.000000,4.000000,4.000000,4.000000,4.000000,4.000000,4.000000,4.000000,4.000000,4.000000,4.000000,100.000000
1614131583.974628,56.000000,0.000000,13.470274,-2.069423,-4.009222,5.995565,1.583500,-0.962402,-2.429122,9.769140,11.237967,12.961895,11.394002,6.572631,11.481936,-2.400302,9.933143,21.330442,12.091640,20.352531,2.205071,9.512109,8.910401,9.729560,4.648799,-0.918794,4.136991,9.493506,-6.305422,3.439375,9.555262,15.215716,8.432063,-18.968168,8064.000000,0.000000,4.000000,,,,0.000000,4.000000,4.000000,4.000000,4.000000,4.000000,4.000000,4.000000,4.000000,4.000000,4.000000,4.000000,4.000000,4.000000,4.000000,4.000000,4.000000,4.000000,4.000000,4.000000,4.000000,4.000000,4.000000,4.000000,4.000000,4.000000,4.000000,4.000000,4.000000,4.000000,4.000000,4.000000,4.000000,100.000000
1614131583.982378,57.000000,0.000000,12.943983,-2.580174,-3.492392,5.989569,2.607557,-0.961440,-2.426693,6.682448,13.790832,23.205343,9.331326,6.566058,8.906352,-3.423543,10.948851,18.232189,12.079549,13.152693,2.202866,11.553879,13.516875,16.899319,9.259535,2.159047,5.158495,9.484014,-6.299116,3.435935,9.545707,12.636398,7.910810,-18.949200,8064.000000,0.000000,4.000000,,,,0.000000,4.000000,4.000000,4.000000,4.000000,4.000000,4.000000,4.000000,4.000000,4.000000,4.000000,4.000000,4.000000,4.000000,4.000000,4.000000,4.000000,4.000000,4.000000,4.000000,4.000000,4.000000,4.000000,4.000000,4.000000,4.000000,4.000000,4.000000,4.000000,4.000000,4.000000,4.000000,4.000000,100.000000
1614131583.990227,58.000000,0.000000,13.956680,-4.628876,-3.488900,5.983580,1.066488,-0.960478,-2.424267,6.675766,5.571913,6.259061,9.321994,6.559492,7.871804,-4.445761,10.425081,9.496008,12.067470,6.472873,-5.491645,10.516684,15.041821,18.933701,10.788736,2.156888,5.153337,9.474529,-6.292817,3.432500,9.536160,11.598121,7.902899,-18.930250,8064.000000,0.000000,4.000000,,,,0.000000,4.000000,4.000000,4.000000,4.000000,4.000000,4.000000,4.000000,4.000000,4.000000,4.000000,4.000000,4.000000,4.000000,4.000000,4.000000,4.000000,4.000000,4.000000,4.000000,4.000000,4.000000,4.000000,4.000000,4.000000,4.000000,4.000000,4.000000,4.000000,4.000000,4.000000,4.000000,4.000000,100.000000
1614131583.997976,59.000000,0.000000,13.429903,-5.137067,-3.485411,5.977596,2.091063,-0.959518,-2.421842,6.669090,1.976597,-16.824121,9.825493,6.552933,8.889574,-1.877212,10.927477,11.024974,11.542582,12.620247,-1.383589,10.506166,17.590881,18.914766,7.188204,4.718834,8.225106,9.465055,-5.773704,3.429067,9.526625,12.099343,8.407817,-18.911322,8064.000000,0.000000,4.000000,,,,0.000000,4.000000,4.000000,4.000000,4.000000,4.000000,4.000000,4.000000,4.000000,4.000000,4.000000,4.000000,4.000000,4.000000,4.000000,4.000000,4.000000,4.000000,4.000000,4.000000,4.000000,4.000000,4.000000,4.000000,4.000000,4.000000,4.000000,4.000000,4.000000,4.000000,4.000000,4.000000,4.000000,100.000000
1614131584.005825,60.000000,0.000000,8.801088,-8.208854,-3.481925,5.971619,2.601792,-0.958558,-3.957882,2.047036,3.000262,-9.114989,9.815667,4.495098,9.393504,2.227229,11.429370,12.039590,8.966936,15.171729,2.207538,11.008481,13.983546,16.331749,3.078452,10.867961,7.704061,9.455589,-6.280751,3.425638,7.465816,12.087244,6.860948,-18.379589,8064.000000,0.000000,4.000000,,,,0.000000,4.000000,4.000000,4.000000,4.000000,4.000000,4.000000,4.000000,4.000000,4.000000,4.000000,4.000000,4.000000,4.000000,4.000000,4.000000,4.000000,4.000000,4.000000,4.000000,4.000000,4.000000,4.000000,4.000000,4.000000,4.000000,4.000000,4.000000,4.000000,4.000000,4.000000,4.000000,4.000000,100.000000
1614131584.013574,61.000000,0.000000,6.228185,-12.816030,-3.478444,5.965647,2.599190,-0.957600,-6.005206,-1.544755,2.484441,12.432588,10.318672,2.439321,8.871290,6.327566,10.905120,11.514729,5.368226,9.515532,-4.461336,10.484653,8.328537,8.623110,1.536912,9.318632,5.132254,9.446134,-6.787291,3.422212,5.919888,11.562336,2.238702,-20.412491,8064.000000,0.000000,4.000000,,,,0.000000,4.000000,4.000000,4.000000,4.000000,4.000000,4.000000,4.000000,4.000000,4.000000,4.000000,4.000000,4.000000,4.000000,4.000000,4.000000,4.000000,4.000000,4.000000,4.000000,4.000000,4.000000,4.000000,4.000000,4.000000,4.000000,4.000000,4.000000,4.000000,4.000000,4.000000,4.000000,4.000000,100.000000
1614131584.021223,62.000000,0.000000,8.786059,-12.803213,-3.474965,5.959682,1.570950,-0.956642,-6.512022,-1.030389,1.969136,18.574001,9.282712,2.949702,8.862419,10.936623,11.407036,19.195522,4.337217,8.993196,-6.508157,10.986988,11.397132,6.563205,3.586657,3.668288,8.716866,9.436688,-2.677939,3.418790,5.913969,12.063595,0.185181,-22.443361,8064.000000,0.000000,4.000000,,,,0.000000,4.000000,4.000000,4.000000,4.000000,4.000000,4.000000,4.000000,4.000000,4.000000,4.000000,4.000000,4.000000,4.000000,4.000000,4.000000,4.000000,4.000000,4.000000,4.000000,4.000000,4.000000,4.000000,4.000000,4.000000,4.000000,4.000000,4.000000,4.000000,4.000000,4.000000,4.000000,4.000000,100.000000
1614131584.028972,63.000000,0.000000,10.828555,-12.277590,-3.471490,5.953722,2.595020,-0.955685,-5.479868,-0.516539,1.967167,13.940042,10.299070,3.972393,9.879198,13.489789,11.908449,22.253250,5.358521,8.471382,-12.655495,10.976001,4.206247,7.069462,5.634353,8.280004,11.785071,9.940072,-0.623979,3.415371,5.908055,12.051531,0.697817,-22.933739,8064.000000,0.000000,4.000000,,,,0.000000,4.000000,4.000000,4.000000,4.000000,4.000000,4.000000,4.000000,4.000000,4.000000,4.000000,4.000000,4.000000,4.000000,4.000000,4.000000,4.000000,4.000000,4.000000,4.000000,4.000000,4.000000,4.000000,4.000000,4.000000,4.000000,4.000000,4.000000,4.000000,4.000000,4.000000,4.000000,4.000000,100.000000
1614131584.036621,64.000000,0.000000,8.253624,-12.265312,-3.468019,5.947768,2.592425,-1.467550,-5.987209,-1.028843,0.939559,6.746615,10.801592,0.378677,5.766755,8.348094,5.229874,11.461766,3.814701,2.821885,-25.463352,7.375281,-13.746676,-2.168376,5.115898,10.835827,5.619440,8.391670,-6.264381,3.411956,5.902147,12.552299,0.697119,-22.910805,0.000000,214.000000,4.000000,,,,0.000000,4.000000,4.000000,4.000000,4.000000,4.000000,4.000000,4.000000,4.000000,4.000000,4.000000,4.000000,4.000000,4.000000,4.000000,4.000000,4.000000,4.000000,4.000000,4.000000,4.000000,4.000000,4.000000,4.000000,4.000000,4.000000,4.000000,4.000000,4.000000,4.000000,4.000000,4.000000,4.000000,100.000000
1614131584.044370,65.000000,0.000000,6.194088,-12.253046,-3.464551,5.941820,-4.076834,-3.517365,-10.083786,-0.514993,-2.138304,-6.593465,5.149765,-7.314009,-3.982602,-0.378203,-2.980484,3.245176,1.759604,5.895986,-16.719940,3.265342,-9.630366,-7.807234,3.059500,0.568580,0.485616,4.280715,-10.360681,3.408544,5.896245,12.539747,0.183601,-21.862253,0.000000,182.000000,4.000000,,,,0.000000,4.000000,4.000000,4.000000,4.000000,4.000000,4.000000,4.000000,4.000000,4.000000,4.000000,4.000000,4.000000,4.000000,4.000000,4.000000,4.000000,4.000000,4.000000,4.000000,4.000000,4.000000,4.000000,4.000000,4.000000,4.000000,4.000000,4.000000,4.000000,4.000000,4.000000,4.000000,4.000000,100.000000
1614131584.052019,66.000000,0.000000,6.187894,-12.240793,-3.973907,6.448699,-9.200962,-5.052309,-13.663445,-0.514478,-1.623345,-14.279180,-1.009231,-8.845157,-6.029902,-2.941927,-4.515965,3.241931,0.732203,12.043936,-2.344246,2.236436,10.379265,-0.619939,2.030799,-4.047373,3.562053,1.712331,-9.837500,3.405136,5.890348,12.014387,0.696238,-19.789108,0.000000,217.000000,4.000000,,,,0.000000,4.000000,4.000000,4.000000,4.000000,4.000000,4.000000,4.000000,4.000000,4.000000,4.000000,4.000000,4.000000,4.000000,4.000000,4.000000,4.000000,4.000000,4.000000,4.000000,4.000000,4.000000,4.000000,4.000000,4.000000,4.000000,4.000000,4.000000,4.000000,4.000000,4.000000,4.000000,4.000000,100.000000
1614131584.059768,67.000000,0.000000,6.181706,-12.228553,-3.457112,5.929430,-5.089197,-5.560077,-13.649782,-0.513964,2.993663,-5.034131,-2.033863,-4.733747,0.129975,-2.938985,-3.485808,4.264330,1.244291,11.006251,-4.906004,2.747020,12.932987,3.996065,3.054409,3.136162,5.609773,2.736260,-9.827662,3.401731,6.397278,12.515193,0.695542,-18.230858,0.000000,182.000000,4.000000,,,,0.000000,4.000000,4.000000,4.000000,4.000000,4.000000,4.000000,4.000000,4.000000,4.000000,4.000000,4.000000,4.000000,4.000000,4.000000,4.000000,4.000000,4.000000,4.000000,4.000000,4.000000,4.000000,4.000000,4.000000,4.000000,4.000000,4.000000,4.000000,4.000000,4.000000,4.000000,4.000000,4.000000,100.000000
1614131584.067418,68.000000,0.000000,6.175525,-12.216324,-1.915194,4.385039,-2.007185,-2.990414,-13.123312,-0.513450,6.067592,10.868340,-1.519009,-4.729014,2.181127,-2.936046,-3.995143,3.234425,1.755868,11.508065,-4.901098,3.769914,7.279029,0.402326,3.051355,7.235590,5.091343,0.682241,-9.817834,3.398329,5.878061,12.502678,0.694846,-19.238268,0.000000,199.000000,4.000000,,,,0.000000,4.000000,4.000000,4.000000,4.000000,4.000000,4.000000,4.000000,4.000000,4.000000,4.000000,4.000000,4.000000,4.000000,4.000000,4.000000,4.000000,4.000000,4.000000,4.000000,4.000000,4.000000,4.000000,4.000000,4.000000,4.000000,4.000000,4.000000,4.000000,4.000000,4.000000,4.000000,4.000000,100.000000
1614131584.075167,69.000000,0.000000,6.169349,-12.716928,0.138004,7.457577,-2.517998,1.627961,-13.623010,-0.512936,6.574345,12.395932,-1.517490,-7.801208,1.153305,-2.933110,-3.991148,0.667088,-1.322811,6.368352,-13.101325,2.740503,2.656365,-1.649359,1.509842,6.202713,4.573431,-4.446646,-11.346478,3.394930,3.820900,6.336329,0.694151,-19.219030,0.000000,185.000000,4.000000,,,,0.000000,4.000000,4.000000,4.000000,4.000000,4.000000,4.000000,4.000000,4.000000,4.000000,4.000000,4.000000,4.000000,4.000000,4.000000,4.000000,4.000000,4.000000,4.000000,4.000000,4.000000,4.000000,4.000000,4.000000,4.000000,4.000000,4.000000,4.000000,4.000000,4.000000,4.000000,4.000000,4.000000,100.000000
1614131584.082816,70.000000,0.000000,6.163180,-12.191391,0.650686,9.501401,0.048622,3.677615,-13.096566,-0.512423,6.567771,0.075844,-1.003152,-8.306227,1.664972,-2.930177,-3.474336,1.179241,-5.424053,0.720958,-33.601044,1.712121,-2.987317,-1.134889,-0.542950,6.709331,5.081678,-5.980661,-13.899234,3.391536,2.278618,-1.362315,0.180637,-18.686991,0.000000,214.000000,4.000000,,,,0.000000,4.000000,4.000000,4.000000,4.000000,4.000000,4.000000,4.000000,4.000000,4.000000,4.000000,4.000000,4.000000,4.000000,4.000000,4.000000,4.000000,4.000000,4.000000,4.000000,4.000000,4.000000,4.000000,4.000000,4.000000,4.000000,4.000000,4.000000,4.000000,4.000000,4.000000,4.000000,4.000000,100.000000
1614131584.090565,71.000000,0.000000,6.157016,-11.666379,-0.375606,4.363695,-4.053990,3.161117,-13.083469,-0.511911,3.997101,-6.078078,-1.514969,-7.272280,2.176127,-2.414427,-3.983682,6.819088,-4.905808,17.130493,-15.618725,9.402717,7.784902,4.507272,-1.568048,6.702621,5.589417,-4.949039,-11.321232,3.388144,1.763519,-2.386593,0.693277,-19.181124,0.000000,186.000000,4.000000,,,,0.000000,4.000000,4.000000,4.000000,4.000000,4.000000,4.000000,4.000000,4.000000,4.000000,4.000000,4.000000,4.000000,4.000000,4.000000,4.000000,4.000000,4.000000,4.000000,4.000000,4.000000,4.000000,4.000000,4.000000,4.000000,4.000000,4.000000,4.000000,4.000000,4.000000,4.000000,4.000000,4.000000,100.000000
1614131584.098214,72.000000,0.000000,6.150859,-13.193174,0.137591,4.872151,-11.229424,2.645135,-13.070386,0.001421,-1.135102,-4.020718,0.537828,-7.777828,1.661131,2.203372,-2.954058,7.325089,-2.336800,27.369774,15.166124,18.111263,26.238655,10.143790,-0.540839,7.721560,5.583827,-5.456911,-6.694526,3.384756,2.274576,0.179896,0.692583,-18.136301,0.000000,185.000000,4.000000,,,,0.000000,4.000000,4.000000,4.000000,4.000000,4.000000,4.000000,4.000000,4.000000,4.000000,4.000000,4.000000,4.000000,4.000000,4.000000,4.000000,4.000000,4.000000,4.000000,4.000000,4.000000,4.000000,4.000000,4.000000,4.000000,4.000000,4.000000,4.000000,4.000000,4.000000,4.000000,4.000000,4.000000,100.000000
1614131584.105963,73.000000,0.000000,6.144709,-11.641520,3.727196,14.098048,-2.500246,2.642490,-11.006033,-0.511400,-1.646787,-6.067979,9.255239,-7.770050,1.659470,7.329374,-0.387001,8.343405,-4.385745,4.778301,-2.797760,13.477767,20.058571,8.082364,-1.053118,12.842044,5.065423,-5.451454,-5.662191,3.381371,2.272301,1.718177,-0.333750,-12.477139,0.000000,191.000000,4.000000,,,,0.000000,4.000000,4.000000,4.000000,4.000000,4.000000,4.000000,4.000000,4.000000,4.000000,4.000000,4.000000,4.000000,4.000000,4.000000,4.000000,4.000000,4.000000,4.000000,4.000000,4.000000,4.000000,4.000000,4.000000,4.000000,4.000000,4.000000,4.000000,4.000000,4.000000,4.000000,4.000000,4.000000,100.000000
1614131584.113612,74.000000,0.000000,6.138564,-5.988852,8.338854,18.186514,10.322767,3.152668,-8.943746,0.001931,-0.106679,-5.036270,15.399830,-7.762280,1.657810,9.886147,1.151847,19.617113,-6.432641,0.158138,-16.128296,7.823264,10.807742,3.971718,-0.539245,13.342022,5.573178,-0.317797,-5.143708,3.377990,2.270029,3.767741,1.717866,-5.285175,0.000000,185.000000,4.000000,,,,0.000000,4.000000,4.000000,4.000000,4.000000,4.000000,4.000000,4.000000,4.000000,4.000000,4.000000,4.000000,4.000000,4.000000,4.000000,4.000000,4.000000,4.000000,4.000000,4.000000,4.000000,4.000000,4.000000,4.000000,4.000000,4.000000,4.000000,4.000000,4.000000,4.000000,4.000000,4.000000,4.000000,100.000000
1614131584.121461,75.000000,0.000000,6.132425,-5.982863,7.817695,16.629866,2.620137,2.123874,-8.934801,0.514750,-4.209136,2.148253,7.692122,-6.728877,1.656152,9.363441,0.637875,19.084675,-4.887747,22.209263,7.477577,10.379543,20.540524,2.942105,-0.025885,8.200475,5.054784,3.272264,-6.164206,3.374612,2.267759,5.302435,6.331532,-3.228608,0.000000,181.000000,4.000000,,,,0.000000,4.000000,4.000000,4.000000,4.000000,4.000000,4.000000,4.000000,4.000000,4.000000,4.000000,4.000000,4.000000,4.000000,4.000000,4.000000,4.000000,4.000000,4.000000,4.000000,4.000000,4.000000,4.000000,4.000000,4.000000,4.000000,4.000000,4.000000,4.000000,4.000000,4.000000,4.000000,4.000000,100.000000
1614131584.129211,76.000000,0.000000,6.126293,-11.105085,2.168851,15.587596,-9.177355,-2.493634,-11.489969,-4.101149,-8.307491,-0.930818,-4.623262,-7.234969,1.654496,4.225872,-0.388404,-0.934409,-7.959782,14.494745,0.803432,7.805061,16.417419,1.400701,-4.128423,6.653813,0.947166,1.730531,-9.747785,3.371237,2.265491,3.245851,6.325201,-6.302302,0.000000,201.000000,4.000000,,,,0.000000,4.000000,4.000000,4.000000,4.000000,4.000000,4.000000,4.000000,4.000000,4.000000,4.000000,4.000000,4.000000,4.000000,4.000000,4.000000,4.000000,4.000000,4.000000,4.000000,4.000000,4.000000,4.000000,4.000000,4.000000,4.000000,4.000000,4.000000,4.000000,4.000000,4.000000,4.000000,4.000000,100.000000
1614131584.137059,77.000000,0.000000,6.120167,-12.632442,0.115400,13.520726,-9.168178,-4.029602,-13.016941,-10.763715,-8.812004,-8.109374,-8.721203,-7.740554,1.652842,-1.932200,1.663267,-12.728347,-12.567207,-7.058211,-25.351217,0.104948,-8.727202,2.424942,-7.714038,6.647159,-4.181987,-1.348123,-12.814960,3.367866,2.263226,0.678502,4.267593,-8.347282,0.000000,186.000000,4.000000,,,,0.000000,4.000000,4.000000,4.000000,4.000000,4.000000,4.000000,4.000000,4.000000,4.000000,4.000000,4.000000,4.000000,4.000000,4.000000,4.000000,4.000000,4.000000,4.000000,4.000000,4.000000,4.000000,4.000000,4.000000,4.000000,4.000000,4.000000,4.000000,4.000000,4.000000,4.000000,4.000000,4.000000,100.000000
1614131584.144809,78.000000,0.000000,6.626867,-11.594169,2.166567,12.994385,-7.620548,-1.461470,-13.003923,-11.778592,-8.290372,-3.998701,-8.199661,-6.194352,1.651189,-3.468729,0.123142,-10.664336,-12.554640,-6.538332,-30.966892,-7.074644,-22.051809,-3.218509,-7.193504,-0.026155,-6.229087,-1.346775,-14.340607,3.364498,2.260962,1.190644,3.750505,-7.313294,0.000000,182.000000,4.000000,,,,0.000000,4.000000,4.000000,4.000000,4.000000,4.000000,4.000000,4.000000,4.000000,4.000000,4.000000,4.000000,4.000000,4.000000,4.000000,4.000000,4.000000,4.000000,4.000000,4.000000,4.000000,4.000000,4.000000,4.000000,4.000000,4.000000,4.000000,4.000000,4.000000,4.000000,4.000000,4.000000,4.000000,100.000000
1614131584.152658,79.000000,0.000000,6.107419,-12.095395,3.702862,16.058313,-9.151389,-0.434368,-12.478100,-10.741173,-8.282082,-4.507523,-8.704282,-8.752260,1.649538,-4.490901,-12.184673,-11.679313,-15.619008,-12.685640,-47.346180,-17.836800,-24.081039,-21.676828,-12.314515,-4.641513,-6.222857,-0.832608,-19.967291,3.361134,2.258702,1.189454,4.259575,-8.844442,0.000000,187.000000,4.000000,,,,0.000000,4.000000,4.000000,4.000000,4.000000,4.000000,4.000000,4.000000,4.000000,4.000000,4.000000,4.000000,4.000000,4.000000,4.000000,4.000000,4.000000,4.000000,4.000000,4.000000,4.000000,4.000000,4.000000,4.000000,4.000000,4.000000,4.000000,4.000000,4.000000,4.000000,4.000000,4.000000,4.000000,100.000000
1614131584.160407,80.000000,0.000000,4.050030,-12.083300,4.724800,16.555075,-9.655058,-1.459574,-14.004083,-12.781713,-8.786619,-19.887630,-9.208398,-17.974277,1.647888,-6.537693,-21.403257,-8.590711,-22.270056,-17.288340,-47.811657,-17.818964,-22.005676,-22.680794,-18.456047,-4.636872,-2.114071,-1.344596,-21.485786,3.357772,2.256443,1.188264,5.280957,-9.348418,0.000000,176.000000,4.000000,,,,0.000000,4.000000,4.000000,4.000000,4.000000,4.000000,4.000000,4.000000,4.000000,4.000000,4.000000,4.000000,4.000000,4.000000,4.000000,4.000000,4.000000,4.000000,4.000000,4.000000,4.000000,4.000000,4.000000,4.000000,4.000000,4.000000,4.000000,4.000000,4.000000,4.000000,4.000000,4.000000,4.000000,100.000000
1614131584.168256,81.000000,0.000000,2.507519,-13.096857,8.822639,16.538521,-8.619761,-0.945294,-16.554182,-15.333035,-8.265013,-29.611332,-8.173549,-23.084509,2.159061,-6.531155,-19.330572,-2.941094,-22.247786,4.267411,-14.943331,-2.929349,-8.650337,-4.196574,-14.335027,-5.145055,1.990608,-1.343251,-17.874556,3.354414,2.254186,3.238358,9.891061,1.430161,0.000000,146.000000,4.000000,,,,0.000000,4.000000,4.000000,4.000000,4.000000,4.000000,4.000000,4.000000,4.000000,4.000000,4.000000,4.000000,4.000000,4.000000,4.000000,4.000000,4.000000,4.000000,4.000000,4.000000,4.000000,4.000000,4.000000,4.000000,4.000000,2.000000,4.000000,4.000000,4.000000,4.000000,4.000000,4.000000,4.000000,83.333336
1614131584.176005,82.000000,0.000000,0.966549,-15.647863,11.377919,17.034803,-7.585501,-0.944349,-17.050447,-15.317701,-7.743927,-26.504799,-8.165376,-19.984501,1.644081,-6.011803,-17.772781,-7.553538,-19.661436,4.775964,-19.543772,-3.439241,-5.051943,-4.705198,-11.756590,-3.601449,-1.088306,-0.829087,-19.907965,3.351060,2.251932,5.286402,11.932451,11.172320,0.000000,197.000000,4.000000,,,,0.000000,4.000000,4.000000,4.000000,4.000000,4.000000,4.000000,4.000000,4.000000,4.000000,4.000000,4.000000,4.000000,4.000000,4.000000,4.000000,4.000000,4.000000,4.000000,4.000000,4.000000,4.000000,4.000000,4.000000,4.000000,2.000000,4.000000,4.000000,4.000000,4.000000,4.000000,4.000000,4.000000,83.333336
1614131584.183854,83.000000,0.000000,-1.085699,-12.555292,10.853721,15.479306,-10.654839,-1.456225,-16.520576,-14.789563,-8.249003,-17.247524,-7.644389,-17.913235,2.155257,-6.005791,-18.267828,-9.084446,-20.154594,-15.741632,-51.831921,-14.717853,-14.790481,-19.572287,-17.385859,-4.623488,-5.189782,-3.392361,-23.990620,3.347709,2.249680,4.768295,11.407699,6.032943,0.000000,200.000000,4.000000,,,,0.000000,4.000000,4.000000,4.000000,4.000000,4.000000,4.000000,4.000000,4.000000,4.000000,4.000000,4.000000,4.000000,4.000000,4.000000,4.000000,4.000000,4.000000,4.000000,4.000000,4.000000,4.000000,4.000000,4.000000,4.000000,2.000000,4.000000,4.000000,4.000000,4.000000,4.000000,4.000000,4.000000,83.333336
1614131584.191603,84.000000,0.000000,-1.597434,-8.440172,10.842867,13.412545,-12.182645,-0.429128,-16.504057,-14.774774,-8.753575,-5.435405,-5.585463,-18.920961,2.153102,-3.435683,-9.531612,2.206690,-17.570337,-2.905378,-34.857014,-3.933904,-12.211588,-16.475792,-17.368473,-10.772711,-5.697412,-8.004353,-19.864065,3.344361,2.247431,4.763526,11.396291,3.975628,0.000000,190.000000,4.000000,,,,0.000000,4.000000,4.000000,4.000000,4.000000,4.000000,4.000000,4.000000,4.000000,4.000000,4.000000,4.000000,4.000000,4.000000,4.000000,4.000000,4.000000,4.000000,4.000000,4.000000,4.000000,4.000000,4.000000,4.000000,4.000000,2.000000,4.000000,4.000000,4.000000,4.000000,4.000000,4.000000,4.000000,83.333336
1614131584.199452,85.000000,0.000000,-1.083016,-8.431732,10.832025,14.424773,-7.042257,1.622583,-16.487553,-14.759998,-8.232001,-2.353046,-4.041416,-18.902040,-1.438794,-1.893786,-6.445157,3.742945,-16.014305,8.892399,-7.642668,6.326440,-0.917325,-6.715726,-12.735720,-9.223476,-7.230177,-9.021990,-15.741637,3.341017,2.245183,4.758763,11.897715,15.253704,0.000000,190.000000,4.000000,,,,0.000000,4.000000,4.000000,4.000000,4.000000,4.000000,4.000000,4.000000,4.000000,4.000000,4.000000,4.000000,4.000000,4.000000,4.000000,4.000000,4.000000,4.000000,4.000000,4.000000,4.000000,4.000000,4.000000,4.000000,4.000000,2.000000,4.000000,4.000000,4.000000,4.000000,4.000000,4.000000,4.000000,83.333336
1614131584.207201,86.000000,0.000000,-1.081933,-8.423301,10.821193,15.435989,-6.522395,3.159422,-16.471064,-15.258060,-8.223769,-6.453257,-4.550195,-17.857498,-8.616843,-2.404712,-16.695122,-7.030029,-20.100855,-15.219058,-32.763229,-9.577322,0.109233,-9.785933,-15.799907,1.042157,-4.146024,-8.500147,-16.238716,3.337676,2.242938,5.266825,11.372997,19.341015,0.000000,192.000000,4.000000,,,,0.000000,4.000000,4.000000,4.000000,4.000000,4.000000,4.000000,4.000000,4.000000,4.000000,4.000000,4.000000,4.000000,4.000000,4.000000,4.000000,4.000000,4.000000,4.000000,4.000000,4.000000,4.000000,4.000000,4.000000,4.000000,2.000000,4.000000,4.000000,4.000000,4.000000,4.000000,4.000000,4.000000,83.333336
1614131584.215050,87.000000,0.000000,-1.080851,-7.902057,10.810371,13.369271,-16.772282,2.643442,-16.454594,-14.729980,-10.779648,-6.446804,-4.545645,-18.352461,-13.223611,-2.402308,-21.293812,-1.381973,-23.670498,-19.819223,-39.909954,-20.336975,-1.429337,-12.340251,-19.886671,2.066756,3.550430,-8.491647,-17.248119,3.334338,2.240695,5.261558,11.874444,9.065263,0.000000,206.000000,4.000000,,,,0.000000,4.000000,4.000000,4.000000,4.000000,4.000000,4.000000,4.000000,4.000000,4.000000,4.000000,4.000000,4.000000,4.000000,4.000000,4.000000,4.000000,4.000000,4.000000,4.000000,4.000000,4.000000,4.000000,4.000000,4.000000,2.000000,4.000000,4.000000,4.000000,4.000000,4.000000,4.000000,4.000000,83.333336
1614131584.222799,88.000000,0.000000,-1.079770,-8.919796,10.799561,11.817441,-21.370895,2.127979,-16.438139,-12.151148,-12.820150,-13.619844,-4.028279,-18.334108,-11.671926,-2.399905,-15.118671,11.439921,-23.646828,-1.850686,-19.870045,-11.598690,-0.915088,-10.276628,-18.841143,-4.089157,1.495598,-8.483155,-16.205229,3.331004,0.699993,4.743476,11.862570,2.389531,0.000000,168.000000,4.000000,,,,0.000000,4.000000,4.000000,4.000000,4.000000,4.000000,4.000000,4.000000,4.000000,4.000000,4.000000,4.000000,4.000000,4.000000,4.000000,4.000000,4.000000,4.000000,4.000000,4.000000,4.000000,4.000000,4.000000,4.000000,4.000000,2.000000,4.000000,4.000000,4.000000,4.000000,4.000000,4.000000,4.000000,83.333336
1614131584.230648,89.000000,0.000000,-1.078690,-5.321133,11.301581,12.318444,-12.631576,3.151491,-15.908880,-10.087715,-8.191945,-15.657507,-4.024251,-18.315775,-9.096151,-2.397506,-13.052271,6.813097,-23.623180,-6.464220,-30.106585,-10.048630,-5.016737,-13.856095,-18.822302,-4.597888,-5.685385,-7.961852,-16.189024,3.327673,-1.351989,4.738732,10.825067,2.899962,0.000000,176.000000,4.000000,,,,0.000000,4.000000,4.000000,4.000000,4.000000,4.000000,4.000000,4.000000,4.000000,4.000000,4.000000,4.000000,4.000000,4.000000,4.000000,4.000000,4.000000,4.000000,4.000000,4.000000,4.000000,4.000000,4.000000,4.000000,4.000000,2.000000,4.000000,4.000000,4.000000,4.000000,4.000000,4.000000,4.000000,83.333336
1614131584.238397,90.000000,0.000000,-1.077612,1.863676,11.290280,15.895869,-2.875354,5.712442,-16.918612,-10.590447,0.534195,6.409433,-4.020226,-18.297459,-9.087055,-1.369467,-15.090501,-4.475768,-23.086737,-12.611602,-38.794426,-12.089863,-9.114284,-14.355060,-18.803480,-3.054829,-0.038674,-8.466710,-16.685656,3.324345,-1.863458,5.759634,11.839882,3.409883,0.000000,198.000000,4.000000,,,,0.000000,4.000000,4.000000,4.000000,4.000000,4.000000,4.000000,4.000000,4.000000,4.000000,4.000000,4.000000,4.000000,4.000000,4.000000,4.000000,4.000000,4.000000,4.000000,4.000000,4.000000,4.000000,4.000000,4.000000,4.000000,2.000000,4.000000,4.000000,4.000000,4.000000,4.000000,4.000000,4.000000,83.333336
1614131584.246046,91.000000,0.000000,-1.076534,0.836171,10.253348,20.495358,-0.308376,6.732371,-15.876053,-11.605498,3.097764,13.069690,-5.041847,-18.279161,-9.590788,-1.880918,-13.024128,-0.881548,-21.012369,-1.829760,-20.294094,-5.923927,-8.079529,-9.212500,-16.733395,-4.077415,7.653672,-8.458243,-16.668970,3.321021,-1.348774,2.164131,10.802402,2.380832,0.000000,187.000000,4.000000,,,,0.000000,4.000000,4.000000,4.000000,4.000000,4.000000,4.000000,4.000000,4.000000,4.000000,4.000000,4.000000,4.000000,4.000000,4.000000,4.000000,4.000000,4.000000,4.000000,4.000000,4.000000,4.000000,4.000000,4.000000,4.000000,2.000000,4.000000,4.000000,4.000000,4.000000,4.000000,4.000000,4.000000,83.333336
1614131584.253795,92.000000,0.000000,-1.075458,-3.780050,11.268737,17.397940,-1.846529,6.212818,-13.808895,-8.004149,-1.007898,-12.071585,-4.011164,-18.260881,-8.555556,-3.417499,-9.934181,9.375744,-19.452894,-2.340750,-20.786621,-5.918003,-9.097090,-9.716107,-15.178200,-3.560517,4.569096,-8.962605,-16.652302,3.317700,-1.347425,-2.453417,4.637753,1.352810,0.000000,195.000000,4.000000,,,,0.000000,4.000000,4.000000,4.000000,4.000000,4.000000,4.000000,4.000000,4.000000,4.000000,4.000000,4.000000,4.000000,4.000000,4.000000,4.000000,4.000000,4.000000,4.000000,4.000000,4.000000,4.000000,4.000000,4.000000,4.000000,2.000000,4.000000,4.000000,4.000000,4.000000,4.000000,4.000000,4.000000,83.333336
1614131584.261644,93.000000,0.000000,-1.074382,-4.801911,11.257468,12.252337,-3.383144,6.206605,-12.769444,-6.457684,-4.596634,-17.187717,-4.519973,-18.242620,-9.059821,-0.849979,-9.924247,6.289445,-19.946262,-12.594820,-35.637627,-14.630033,-11.139276,-17.911520,-15.163021,-6.633880,-1.076499,-11.517746,-18.174110,3.314382,-2.371719,-1.425323,0.530551,-2.238286,0.000000,198.000000,4.000000,,,,0.000000,4.000000,4.000000,4.000000,4.000000,4.000000,4.000000,4.000000,4.000000,4.000000,4.000000,4.000000,4.000000,4.000000,4.000000,4.000000,4.000000,4.000000,4.000000,4.000000,4.000000,4.000000,4.000000,4.000000,4.000000,2.000000,4.000000,4.000000,4.000000,4.000000,4.000000,4.000000,4.000000,83.333336
1614131584.269393,94.000000,0.000000,-1.073308,-7.361211,5.092364,12.240084,-3.892582,6.713219,-15.320778,-14.656354,-4.592037,-3.324377,-11.182120,-18.224379,-12.127685,-3.926052,-12.991246,-8.588639,-19.926315,-14.120687,-28.422504,-15.641045,-10.615315,-19.432070,-15.147859,-11.242631,-2.613884,-16.634434,-21.232859,3.311068,-4.933449,-4.500821,-0.495621,-6.338612,0.000000,194.000000,4.000000,,,,0.000000,4.000000,4.000000,4.000000,4.000000,4.000000,4.000000,4.000000,4.000000,4.000000,4.000000,4.000000,4.000000,4.000000,4.000000,4.000000,4.000000,4.000000,4.000000,4.000000,4.000000,4.000000,4.000000,4.000000,4.000000,2.000000,4.000000,4.000000,4.000000,4.000000,4.000000,4.000000,4.000000,83.333336
1614131584.277042,95.000000,0.000000,-1.585055,-12.482056,-2.092215,11.715023,-5.427151,4.655224,-17.869560,-21.308365,-5.100266,-12.551822,-16.811964,-18.718975,-13.654018,-16.229818,-15.542357,-15.246717,-19.393570,-11.029643,-16.599209,-11.522840,-8.040597,-15.822894,-16.158352,-11.231388,-2.611270,-17.643440,-19.673164,3.307757,-5.441337,-7.573243,-1.007946,-8.383555,0.000000,172.000000,4.000000,,,,0.000000,4.000000,4.000000,4.000000,4.000000,4.000000,4.000000,4.000000,4.000000,4.000000,4.000000,4.000000,4.000000,4.000000,4.000000,4.000000,4.000000,4.000000,4.000000,4.000000,4.000000,4.000000,4.000000,4.000000,4.000000,2.000000,4.000000,4.000000,4.000000,4.000000,4.000000,4.000000,4.000000,83.333336
1614131584.284792,96.000000,0.000000,-1.070649,-13.495214,-0.038841,12.728950,-4.908903,2.599287,-14.774767,-14.107569,-8.172089,-24.334141,-13.205408,-18.187435,-10.563441,-18.777691,-12.962712,-7.026342,-17.835714,-4.864767,-19.146713,-11.511317,-9.058198,-14.781430,-14.090911,-8.143233,-2.095839,-8.907847,-15.038107,3.304449,-2.358972,5.254843,6.685370,-5.811069,8064.000000,0.000000,4.000000,,,,0.000000,4.000000,4.000000,4.000000,4.000000,4.000000,4.000000,4.000000,4.000000,4.000000,4.000000,4.000000,4.000000,4.000000,4.000000,4.000000,4.000000,4.000000,4.000000,4.000000,4.000000,4.000000,4.000000,4.000000,4.000000,2.000000,4.000000,4.000000,4.000000,4.000000,4.000000,4.000000,4.000000,83.333336
1614131584.292441,97.000000,0.000000,-0.556758,-9.379155,3.550941,17.331604,-4.391173,2.083867,-8.093326,-5.888333,-9.189557,-21.232883,-7.551177,-15.605145,-8.501595,-9.015324,-10.898467,-0.352649,-15.766596,3.858047,-19.640387,-11.499805,-10.074780,-15.792290,-8.948615,-7.622270,-3.119384,-0.693812,-12.458966,3.301145,-0.818152,14.480357,14.370993,-3.753977,8064.000000,0.000000,4.000000,,,,0.000000,4.000000,4.000000,4.000000,4.000000,4.000000,4.000000,4.000000,4.000000,4.000000,4.000000,4.000000,4.000000,4.000000,4.000000,4.000000,4.000000,4.000000,4.000000,4.000000,4.000000,4.000000,4.000000,4.000000,4.000000,2.000000,4.000000,4.000000,4.000000,4.000000,4.000000,4.000000,4.000000,83.333336
1614131584.300190,98.000000,0.000000,-3.633125,-8.344134,1.496108,18.339914,-8.489347,2.081783,-4.495489,-9.985009,-7.641906,-15.057805,-8.056446,-14.563899,-9.518735,-6.442205,-11.913210,-0.865117,-16.263651,6.931111,-14.492541,-6.360101,-5.962142,-15.263677,-8.426846,-8.127468,-3.629085,-6.334144,-12.959328,3.297843,-2.355795,1.645364,8.715596,-7.339966,8064.000000,0.000000,4.000000,,,,0.000000,4.000000,4.000000,4.000000,4.000000,4.000000,4.000000,4.000000,4.000000,4.000000,4.000000,4.000000,4.000000,4.000000,4.000000,4.000000,4.000000,4.000000,4.000000,4.000000,4.000000,4.000000,4.000000,4.000000,4.000000,2.000000,4.000000,4.000000,4.000000,4.000000,4.000000,4.000000,4.000000,83.333336
1614131584.307839,99.000000,0.000000,-3.629491,-9.361431,6.109997,17.295933,-11.044960,3.105342,-5.516634,-15.103229,-5.582983,2.905971,-9.586851,-14.036514,-7.970755,-4.897302,-3.183348,-0.351432,-16.247387,6.924181,-13.452408,-1.225536,-0.827974,-14.735593,-10.982522,-8.119341,2.015570,-7.866271,-12.946368,3.294546,-1.327798,-1.433204,5.117136,-6.819806,8064.000000,0.000000,4.000000,,,,0.000000,4.000000,4.000000,4.000000,4.000000,4.000000,4.000000,4.000000,4.000000,4.000000,4.000000,4.000000,4.000000,4.000000,4.000000,4.000000,4.000000,4.000000,4.000000,4.000000,4.000000,4.000000,4.000000,4.000000,4.000000,2.000000,4.000000,4.000000,4.000000,4.000000,4.000000,4.000000,4.000000,83.333336
1614131584.315588,100.000000,0.000000,0.989523,-5.762327,18.924400,21.894022,-7.444171,5.153519,-4.998297,-12.011203,-4.038938,15.210757,-3.936239,-9.407093,-2.834579,9.466570,7.589066,0.674561,-15.205498,6.404436,-18.054340,-3.788413,-0.314326,-13.182395,-8.407436,-8.111221,9.193042,4.449288,-12.420602,3.291251,4.827376,13.440024,14.855609,2.417783,8064.000000,0.000000,4.000000,,,,0.000000,4.000000,4.000000,4.000000,4.000000,4.000000,4.000000,4.000000,4.000000,4.000000,4.000000,4.000000,4.000000,4.000000,4.000000,4.000000,4.000000,4.000000,4.000000,4.000000,4.000000,4.000000,4.000000,4.000000,4.000000,2.000000,4.000000,4.000000,4.000000,4.000000,4.000000,4.000000,4.000000,83.333336
1614131584.323237,101.000000,0.000000,3.552636,1.422923,23.008039,23.410589,-3.846983,6.686827,-5.506119,-6.870986,-4.547719,-9.932659,2.734364,-6.320763,-0.780463,18.687872,2.453272,-0.351755,-16.728754,4.859570,-16.497824,-4.297445,1.224450,-9.066648,-7.373388,-4.513366,8.671028,11.624326,-12.921001,3.800780,10.463574,17.016327,19.968958,8.056392,8064.000000,0.000000,4.000000,,,,0.000000,4.000000,4.000000,4.000000,4.000000,4.000000,4.000000,4.000000,4.000000,4.000000,4.000000,4.000000,4.000000,4.000000,4.000000,4.000000,4.000000,4.000000,4.000000,4.000000,4.000000,4.000000,4.000000,4.000000,4.000000,2.000000,4.000000,4.000000,4.000000,4.000000,4.000000,4.000000,4.000000,83.333336
1614131584.330986,102.000000,0.000000,2.523442,2.447141,16.318365,20.310255,-4.868777,6.167320,-8.577537,-7.376936,-4.543172,-23.768881,3.757271,-6.827263,-1.805323,16.105082,-6.267130,4.263981,-15.686384,12.547018,-1.096711,10.578648,14.556559,1.198828,-6.853194,1.132173,10.713639,10.587060,-11.369619,3.284159,9.940290,16.999311,18.923349,6.509873,8064.000000,0.000000,4.000000,,,,0.000000,4.000000,4.000000,4.000000,4.000000,4.000000,4.000000,4.000000,4.000000,4.000000,4.000000,4.000000,4.000000,4.000000,4.000000,4.000000,4.000000,4.000000,4.000000,4.000000,4.000000,4.000000,4.000000,4.000000,4.000000,2.000000,4.000000,4.000000,4.000000,4.000000,4.000000,4.000000,4.000000,83.333336
1614131584.338635,103.000000,0.000000,2.520919,-1.145050,15.276405,20.289946,-4.863909,6.161152,-9.594600,-10.446482,-3.512988,6.511299,3.240693,-6.307615,-1.290697,16.601797,-2.671119,12.977666,-13.106595,17.662676,3.006950,23.388582,27.362514,11.966860,-1.718136,6.772066,20.446514,12.627755,-9.306968,3.280875,9.417529,28.777184,18.904425,6.503364,8192.000000,0.000000,4.000000,,,,0.000000,4.000000,4.000000,4.000000,4.000000,4.000000,4.000000,4.000000,4.000000,4.000000,4.000000,4.000000,4.000000,4.000000,4.000000,4.000000,4.000000,4.000000,4.000000,4.000000,4.000000,4.000000,4.000000,4.000000,4.000000,2.000000,4.000000,4.000000,4.000000,4.000000,4.000000,4.000000,4.000000,83.333336
1614131584.346385,104.000000,0.000000,2.005577,-1.143905,13.722668,18.731194,-5.371865,6.667812,-9.072185,-11.461677,-5.047936,20.350941,1.698991,-7.326948,-2.315048,15.046734,0.408475,14.503150,-16.683233,2.773218,-21.611441,7.980578,16.053101,5.288227,-2.229238,10.867858,16.323503,11.589486,-8.784840,4.303235,10.946573,25.671484,13.244495,5.984040,8064.000000,0.000000,4.000000,,,,0.000000,4.000000,4.000000,4.000000,4.000000,4.000000,4.000000,4.000000,4.000000,4.000000,4.000000,4.000000,4.000000,4.000000,4.000000,4.000000,4.000000,4.000000,4.000000,4.000000,4.000000,4.000000,4.000000,4.000000,4.000000,2.000000,4.000000,4.000000,4.000000,4.000000,4.000000,4.000000,4.000000,83.333336
1614131584.354034,105.000000,0.000000,-1.073352,-0.629940,1.914073,9.481694,-9.981878,6.148324,-9.063112,-10.424574,-10.171093,-3.771974,-0.866811,-14.499108,-4.876835,5.800918,-3.181677,10.898904,-23.333216,-8.511606,-42.615471,-16.129967,-8.578337,-14.204242,-11.457778,7.267247,-3.179999,1.834307,-9.288876,1.222009,3.756140,6.671453,4.513302,-1.714252,8064.000000,0.000000,4.000000,,,,0.000000,4.000000,4.000000,4.000000,4.000000,4.000000,4.000000,4.000000,4.000000,4.000000,4.000000,4.000000,4.000000,4.000000,4.000000,4.000000,4.000000,4.000000,4.000000,4.000000,4.000000,4.000000,4.000000,4.000000,4.000000,2.000000,4.000000,4.000000,4.000000,4.000000,4.000000,4.000000,4.000000,83.333336
1614131584.361783,106.000000,0.000000,-1.585099,-0.629310,-8.344252,4.344007,-12.535998,6.654996,-9.054049,-10.414149,-12.725025,-20.178457,-0.353124,-19.099995,-5.897599,0.154092,-4.204137,11.400825,-24.335524,0.727675,-32.316444,-17.652298,-18.313349,-21.882345,-16.061705,-2.996431,-11.381947,-5.347014,-9.279587,-3.394598,-5.991207,-2.053167,2.970327,-7.353563,8064.000000,0.000000,4.000000,,,,0.000000,4.000000,4.000000,4.000000,4.000000,4.000000,4.000000,4.000000,4.000000,4.000000,4.000000,4.000000,4.000000,4.000000,4.000000,4.000000,4.000000,4.000000,4.000000,4.000000,4.000000,4.000000,4.000000,4.000000,4.000000,2.000000,4.000000,4.000000,4.000000,4.000000,4.000000,4.000000,4.000000,83.333336
1614131584.369432,107.000000,0.000000,-1.070693,-1.141501,-8.848728,4.339663,-13.036283,5.622700,-9.044995,-11.429376,-11.686659,-16.568537,-1.378412,-18.568073,-5.378881,-1.897344,-3.687112,9.850963,-23.798368,5.855152,-16.386692,-12.506441,-17.269394,-20.322001,-15.532823,-8.121639,-10.857744,-6.880129,-8.757486,-4.416844,-5.472394,0.512989,3.480177,-8.884671,8064.000000,0.000000,4.000000,,,,0.000000,4.000000,4.000000,4.000000,4.000000,4.000000,4.000000,4.000000,4.000000,4.000000,4.000000,4.000000,4.000000,4.000000,4.000000,4.000000,4.000000,4.000000,4.000000,4.000000,4.000000,4.000000,4.000000,4.000000,4.000000,2.000000,4.000000,4.000000,4.000000,4.000000,4.000000,4.000000,4.000000,83.333336
1614131584.377281,108.000000,0.000000,-1.582443,-1.140360,-7.301417,4.848144,-11.997606,1.514513,-9.035951,-11.417947,-12.700613,-13.475044,-7.530879,-18.036686,-5.886323,-3.946729,-3.683425,3.174445,-22.748928,1.233912,-16.370306,-13.519575,-17.252125,-18.763218,-15.004470,-9.139159,-9.308425,-4.309146,-9.261550,-3.899607,0.686924,2.563758,3.476697,-8.362967,8064.000000,0.000000,4.000000,,,,0.000000,4.000000,4.000000,4.000000,4.000000,4.000000,4.000000,4.000000,4.000000,4.000000,4.000000,4.000000,4.000000,4.000000,4.000000,4.000000,4.000000,4.000000,4.000000,4.000000,4.000000,4.000000,4.000000,4.000000,4.000000,2.000000,4.000000,4.000000,4.000000,4.000000,4.000000,4.000000,4.000000,83.333336
1614131584.385030,109.000000,0.000000,2.008883,-0.626399,-7.806937,4.843296,-12.498428,-1.051104,-9.026915,-8.842426,-16.277657,-19.615416,-5.984887,-18.018648,-5.367616,-8.045346,-1.628459,0.094347,-18.623615,2.771140,-14.302653,-5.300928,-7.491282,-7.462403,-9.861259,-8.104379,0.957294,4.413112,-9.252288,-3.895707,2.737519,3.586835,8.088605,-7.841783,8064.000000,0.000000,4.000000,,,,0.000000,4.000000,4.000000,4.000000,4.000000,4.000000,4.000000,4.000000,4.000000,4.000000,4.000000,4.000000,4.000000,4.000000,4.000000,4.000000,4.000000,4.000000,4.000000,4.000000,4.000000,4.000000,4.000000,4.000000,4.000000,2.000000,4.000000,4.000000,4.000000,4.000000,4.000000,4.000000,4.000000,83.333336
1614131584.392879,110.000000,0.000000,6.109438,-1.651414,-8.311950,4.325632,-12.998751,-1.050053,-9.017887,-6.782302,-15.748558,-25.236826,4.277508,-15.436527,-5.362248,-7.524481,-4.190934,-0.931388,-16.553709,1.229907,-8.647326,9.576168,7.900825,5.878393,-4.210373,-0.403967,10.187105,9.536903,-9.243035,-4.404632,0.683499,3.070427,9.618979,-9.885223,8064.000000,0.000000,4.000000,,,,0.000000,4.000000,4.000000,4.000000,4.000000,4.000000,4.000000,4.000000,4.000000,4.000000,4.000000,4.000000,4.000000,4.000000,4.000000,4.000000,4.000000,4.000000,4.000000,4.000000,4.000000,4.000000,4.000000,4.000000,4.000000,2.000000,4.000000,4.000000,4.000000,4.000000,4.000000,4.000000,4.000000,83.333336
1614131584.400628,111.000000,0.000000,5.077688,-4.726686,-7.790818,4.321306,-7.857547,-2.587465,-9.008869,-7.801160,-10.091784,-10.339794,7.350154,-13.882629,-5.356886,6.329198,-7.263666,2.659287,-15.511515,1.741498,-5.561755,15.720438,17.636513,7.923797,-3.693342,6.775925,12.741021,9.527367,-9.233792,-3.887407,2.221277,5.631460,7.558077,-12.439441,8064.000000,0.000000,4.000000,,,,0.000000,4.000000,4.000000,4.000000,4.000000,4.000000,4.000000,4.000000,4.000000,4.000000,4.000000,4.000000,4.000000,4.000000,4.000000,4.000000,4.000000,4.000000,4.000000,4.000000,4.000000,4.000000,4.000000,4.000000,4.000000,2.000000,4.000000,4.000000,4.000000,4.000000,4.000000,4.000000,4.000000,83.333336
1614131584.408477,112.000000,0.000000,2.508508,-5.234779,-3.167642,8.932369,0.868259,-0.020775,-8.999861,-6.254898,-2.902205,18.901316,6.829983,-14.894387,-1.761786,28.374151,4.025649,18.554064,-5.752413,22.765398,11.879704,23.397026,30.952209,11.505616,-2.151187,6.769149,22.471870,14.646045,-9.737379,-3.883520,10.424185,15.882238,11.140263,-8.324437,8064.000000,0.000000,4.000000,,,,0.000000,4.000000,4.000000,4.000000,4.000000,4.000000,4.000000,4.000000,4.000000,4.000000,4.000000,4.000000,4.000000,4.000000,4.000000,4.000000,4.000000,4.000000,4.000000,4.000000,4.000000,4.000000,4.000000,4.000000,4.000000,2.000000,4.000000,4.000000,4.000000,4.000000,4.000000,4.000000,4.000000,83.333336
1614131584.416226,113.000000,0.000000,2.505999,-2.665442,0.425269,15.590104,3.431494,7.671554,-8.990861,-3.684540,-0.335200,25.549080,9.900076,-14.366673,2.342540,37.063725,13.252393,25.714996,2.458467,35.050323,25.713978,28.501833,37.075104,15.083855,0.927887,12.916225,30.141706,20.272425,-7.163539,-3.879636,17.080427,23.558664,17.795790,-4.726369,8192.000000,0.000000,4.000000,,,,0.000000,4.000000,4.000000,4.000000,4.000000,4.000000,4.000000,4.000000,4.000000,4.000000,4.000000,4.000000,4.000000,4.000000,4.000000,4.000000,4.000000,4.000000,4.000000,4.000000,4.000000,4.000000,4.000000,4.000000,4.000000,2.000000,4.000000,4.000000,4.000000,4.000000,4.000000,4.000000,4.000000,83.333336
1614131584.424075,114.000000,0.000000,1.477852,-0.611494,0.424844,17.625795,2.915242,9.715164,-8.981870,-6.244958,-0.847685,8.600454,6.813253,-13.326665,-2.275187,27.795893,-1.119834,9.279025,-9.338863,13.476812,1.072880,8.473331,18.576490,2.761078,-2.662784,19.057156,20.880795,17.688049,-5.617914,-3.875757,17.063347,23.022285,19.316454,-9.337028,8064.000000,0.000000,4.000000,,,,0.000000,4.000000,4.000000,4.000000,4.000000,4.000000,4.000000,4.000000,4.000000,4.000000,4.000000,4.000000,4.000000,4.000000,4.000000,4.000000,4.000000,4.000000,4.000000,4.000000,4.000000,4.000000,4.000000,4.000000,4.000000,2.000000,4.000000,4.000000,4.000000,4.000000,4.000000,4.000000,4.000000,83.333336
1614131584.431824,115.000000,0.000000,-1.087728,-1.123703,-0.088402,16.069708,2.912326,3.551603,-8.460068,-10.854098,-0.846838,-2.690197,-0.885868,-15.364620,-9.452399,19.562967,-15.990509,0.038977,-24.714140,-0.895639,-19.953835,-8.971039,5.737401,-8.010914,-7.275506,9.294509,11.629145,16.644720,-5.612297,-3.871881,16.020641,22.486443,18.271498,-10.353332,8064.000000,0.000000,4.000000,,,,0.000000,4.000000,4.000000,4.000000,4.000000,4.000000,4.000000,4.000000,4.000000,4.000000,4.000000,4.000000,4.000000,4.000000,4.000000,4.000000,4.000000,4.000000,4.000000,4.000000,4.000000,4.000000,4.000000,4.000000,4.000000,2.000000,4.000000,4.000000,4.000000,4.000000,4.000000,4.000000,4.000000,83.333336
1614131584.439673,116.000000,0.000000,-1.599461,-1.122580,0.424507,16.053638,1.370952,2.009590,-8.964428,-11.356065,-0.333170,-1.661866,-1.397802,-14.323614,-9.442946,19.543406,-5.718108,15.936374,-16.997118,20.643719,6.732786,8.986650,20.090637,-2.361877,-6.242590,-1.484017,16.745720,19.704998,-4.581043,-3.355188,17.030262,25.028057,18.253225,-2.650670,8064.000000,0.000000,4.000000,,,,0.000000,4.000000,4.000000,4.000000,4.000000,4.000000,4.000000,4.000000,4.000000,4.000000,4.000000,4.000000,4.000000,4.000000,4.000000,4.000000,4.000000,4.000000,4.000000,4.000000,4.000000,4.000000,4.000000,4.000000,4.000000,2.000000,4.000000,4.000000,4.000000,4.000000,4.000000,4.000000,4.000000,83.333336
1614131584.447422,117.000000,0.000000,-1.085041,-0.608637,-0.088738,17.063227,4.446505,3.546042,-8.955463,-10.319067,-0.845658,2.442360,2.193339,-8.668265,-3.792478,19.523861,4.031200,23.612745,-3.646787,33.956409,21.597849,21.798176,31.352598,3.794331,-3.672245,1.594390,20.831539,20.710934,-2.012360,-4.890295,17.013231,26.541491,19.260614,0.941724,8064.000000,0.000000,4.000000,,,,0.000000,4.000000,4.000000,4.000000,4.000000,4.000000,4.000000,4.000000,4.000000,4.000000,4.000000,4.000000,4.000000,4.000000,4.000000,4.000000,4.000000,4.000000,4.000000,4.000000,4.000000,4.000000,4.000000,4.000000,4.000000,2.000000,4.000000,4.000000,4.000000,4.000000,4.000000,4.000000,4.000000,83.333336
1614131584.455271,118.000000,0.000000,-1.083956,-1.633669,-0.088649,15.507701,5.980520,0.978393,-8.433687,-10.821568,-0.844812,0.388635,2.703966,-9.685238,-1.224583,18.478697,-4.177960,13.332723,-10.822628,8.794247,-10.731441,1.776378,25.680220,0.713613,-4.181393,7.233822,18.759426,20.177402,-1.497527,-6.936687,16.483398,26.514950,19.241352,-0.084859,8192.000000,0.000000,4.000000,,,,0.000000,4.000000,4.000000,4.000000,4.000000,4.000000,4.000000,4.000000,4.000000,4.000000,4.000000,4.000000,4.000000,4.000000,4.000000,4.000000,4.000000,4.000000,4.000000,4.000000,4.000000,4.000000,4.000000,4.000000,4.000000,2.000000,4.000000,4.000000,4.000000,4.000000,4.000000,4.000000,4.000000,83.333336
1614131584.463020,119.000000,0.000000,-1.082872,-4.196138,-0.088560,10.876809,-2.743410,-1.586688,-9.963716,-11.323567,-0.843967,-5.252779,2.188442,-13.778117,-2.761820,17.947397,-9.814807,8.704005,-20.555395,-7.624804,-28.156609,-7.968988,22.064796,-2.364023,-4.690032,6.713768,18.227846,19.644405,-2.008850,-7.955391,16.466915,23.411512,13.068266,-1.623235,8064.000000,0.000000,4.000000,,,,0.000000,4.000000,4.000000,4.000000,4.000000,4.000000,4.000000,4.000000,4.000000,4.000000,4.000000,4.000000,4.000000,4.000000,4.000000,4.000000,4.000000,4.000000,4.000000,4.000000,4.000000,4.000000,4.000000,4.000000,4.000000,2.000000,4.000000,4.000000,4.000000,4.000000,4.000000,4.000000,4.000000,83.333336
1614131584.470869,120.000000,0.000000,-1.081789,-5.217583,-0.088472,7.789009,-3.253487,-2.097922,-12.517855,-10.799423,-0.843123,6.034525,2.186253,-8.636134,-1.733417,18.955091,-3.138326,11.259403,-11.816891,15.459743,-3.000246,6.397955,19.991449,-0.310377,-4.172522,5.681413,19.235258,17.060658,-2.006841,-7.434615,15.937628,18.259895,5.875710,-3.672894,8064.000000,0.000000,4.000000,,,,0.000000,4.000000,4.000000,4.000000,4.000000,4.000000,4.000000,4.000000,4.000000,4.000000,4.000000,4.000000,4.000000,4.000000,4.000000,4.000000,4.000000,4.000000,4.000000,4.000000,4.000000,4.000000,4.000000,4.000000,4.000000,2.000000,4.000000,4.000000,4.000000,4.000000,4.000000,4.000000,4.000000,83.333336
1614131584.478618,121.000000,0.000000,-1.593528,-4.699545,-0.088383,8.294041,10.083100,-1.070183,-13.018157,-8.224522,-0.842280,27.054132,1.671246,-2.473651,4.422163,18.423315,4.044300,10.735324,-1.035843,27.239157,5.207882,12.032582,13.304791,2.254036,-4.168349,6.701372,18.703203,16.017956,-2.004834,-7.427180,16.947330,17.728815,7.408296,-3.669221,8064.000000,0.000000,4.000000,,,,0.000000,4.000000,4.000000,4.000000,4.000000,4.000000,4.000000,4.000000,4.000000,4.000000,4.000000,4.000000,4.000000,4.000000,4.000000,4.000000,4.000000,4.000000,4.000000,4.000000,4.000000,4.000000,4.000000,4.000000,4.000000,2.000000,4.000000,4.000000,4.000000,4.000000,4.000000,4.000000,4.000000,83.333336
1614131584.486268,122.000000,0.000000,-1.591934,-4.694845,-0.088295,8.798567,10.585837,1.494990,-12.492318,-4.626554,-0.841438,26.514257,3.208037,-3.496819,9.545945,16.866430,6.091537,9.186127,-1.034807,2.596532,-7.105018,10.482089,11.240205,2.251782,-4.164181,6.694671,19.710140,16.514759,-2.002829,-7.419753,15.391922,21.813650,6.888067,-3.665552,8064.000000,0.000000,4.000000,,,,0.000000,4.000000,4.000000,4.000000,4.000000,4.000000,4.000000,4.000000,4.000000,4.000000,4.000000,4.000000,4.000000,4.000000,4.000000,4.000000,4.000000,4.000000,4.000000,4.000000,4.000000,4.000000,4.000000,4.000000,4.000000,2.000000,4.000000,4.000000,4.000000,4.000000,4.000000,4.000000,4.000000,83.333336
1614131584.494017,123.000000,0.000000,-1.077522,-4.690150,-0.088207,7.764128,-1.219620,2.519136,-12.479826,-3.596286,-1.353417,11.615948,2.179188,-4.006143,10.049220,15.823923,7.111087,9.689761,-2.572234,-5.098372,0.594395,15.086991,14.818708,3.275171,-5.185658,6.687976,18.664789,14.959783,-2.000826,-7.412333,11.273966,21.791836,-0.298308,-11.354194,8064.000000,0.000000,4.000000,,,,0.000000,4.000000,4.000000,4.000000,4.000000,4.000000,4.000000,4.000000,4.000000,4.000000,4.000000,4.000000,4.000000,4.000000,4.000000,4.000000,4.000000,4.000000,4.000000,4.000000,4.000000,4.000000,4.000000,4.000000,4.000000,2.000000,4.000000,4.000000,4.000000,4.000000,4.000000,4.000000,4.000000,83.333336
1614131584.501666,124.000000,0.000000,-1.589265,-4.685460,-0.088118,8.782004,-0.705580,2.516617,-12.980166,-3.592690,-0.839243,8.527409,0.638547,-2.976495,9.013530,14.269638,7.103976,12.244174,-2.056841,17.470829,15.465595,18.148827,23.009018,10.451383,-3.129190,6.168468,18.646124,19.047388,-2.511646,-7.404921,9.211411,21.257225,4.830195,-15.445404,8064.000000,0.000000,4.000000,,,,0.000000,4.000000,4.000000,4.000000,4.000000,4.000000,4.000000,4.000000,4.000000,4.000000,4.000000,4.000000,4.000000,4.000000,4.000000,4.000000,4.000000,4.000000,4.000000,4.000000,4.000000,4.000000,4.000000,4.000000,4.000000,2.000000,4.000000,4.000000,4.000000,4.000000,4.000000,4.000000,4.000000,83.333336
1614131584.509415,125.000000,0.000000,-1.587676,-4.680775,-0.088030,13.388607,6.987433,5.078203,-8.864622,-1.024994,1.725699,11.082984,9.355857,-3.999160,8.491695,15.281010,10.173795,12.231930,-0.516323,27.196947,19.039873,24.284525,38.370625,17.620419,1.489324,7.187940,25.806965,29.797571,-0.970673,-7.397516,12.279121,30.466736,20.209980,-9.788933,8192.000000,0.000000,4.000000,,,,0.000000,4.000000,4.000000,4.000000,4.000000,4.000000,4.000000,4.000000,4.000000,4.000000,4.000000,4.000000,4.000000,4.000000,4.000000,4.000000,4.000000,4.000000,4.000000,4.000000,4.000000,4.000000,4.000000,4.000000,4.000000,2.000000,4.000000,4.000000,4.000000,4.000000,4.000000,4.000000,4.000000,83.333336
1614131584.517064,126.000000,0.000000,3.029297,-4.676094,0.424878,16.964962,6.467626,9.175689,-3.214732,2.565774,3.262435,8.507798,22.679834,-1.431058,14.637051,23.983677,16.317467,17.860723,6.663681,32.297955,29.277245,36.567932,46.024563,18.115620,4.051938,11.796137,29.883722,30.280594,1.594400,-7.390119,12.779663,35.564476,22.753874,-10.291965,8064.000000,0.000000,4.000000,,,,0.000000,4.000000,4.000000,4.000000,4.000000,4.000000,4.000000,4.000000,4.000000,4.000000,4.000000,4.000000,4.000000,4.000000,4.000000,4.000000,4.000000,4.000000,4.000000,4.000000,4.000000,4.000000,4.000000,4.000000,4.000000,2.000000,4.000000,4.000000,4.000000,4.000000,4.000000,4.000000,4.000000,83.333336
1614131584.524813,127.000000,0.000000,6.616011,-4.158597,-0.601188,16.435177,5.435517,9.166513,-1.160235,4.101670,2.746352,7.986470,24.195616,3.185758,22.827541,34.216103,22.454996,36.817223,13.323684,47.650272,40.017197,40.633930,37.260590,17.584682,3.022244,16.912546,21.648710,22.045185,2.105627,-7.382729,9.689960,25.272499,16.064453,-19.512442,8064.000000,0.000000,4.000000,,,,0.000000,4.000000,4.000000,4.000000,4.000000,4.000000,4.000000,4.000000,4.000000,4.000000,4.000000,4.000000,4.000000,4.000000,4.000000,4.000000,4.000000,4.000000,4.000000,4.000000,4.000000,4.000000,4.000000,4.000000,4.000000,2.000000,4.000000,4.000000,4.000000,4.000000,4.000000,4.000000,4.000000,83.333336
1614131584.532462,0.000000,0.000000,6.609395,-4.667259,-4.190330,15.905921,5.430081,6.080424,-1.671896,3.584748,2.743605,11.568228,17.504753,3.182572,20.753431,29.566504,23.458181,41.908611,13.310360,37.859032,23.566923,32.388165,28.505379,18.079918,3.019222,17.921274,14.447575,18.946217,1.590700,-7.375346,8.654630,18.067739,15.022747,-23.082672,0.000000,194.000000,4.000000,,,,0.000000,4.000000,4.000000,4.000000,4.000000,4.000000,4.000000,4.000000,4.000000,4.000000,4.000000,4.000000,4.000000,4.000000,4.000000,4.000000,4.000000,4.000000,4.000000,4.000000,4.000000,4.000000,4.000000,4.000000,4.000000,2.000000,4.000000,4.000000,4.000000,4.000000,4.000000,4.000000,4.000000,83.333336
1614131584.540211,1.000000,0.000000,6.089965,-4.149771,-7.775883,17.941298,6.450292,6.074343,-1.670224,3.581163,2.740862,6.941275,16.461609,0.102466,12.527550,19.793346,19.844980,19.815418,13.297050,11.667328,-8.764336,21.073727,24.887129,14.984916,3.529023,17.390533,14.945948,20.465733,2.101930,-7.367970,9.671616,21.639416,12.956442,-22.033949,0.000000,183.000000,4.000000,,,,0.000000,4.000000,4.000000,4.000000,4.000000,4.000000,4.000000,4.000000,4.000000,4.000000,4.000000,4.000000,4.000000,4.000000,4.000000,4.000000,4.000000,4.000000,4.000000,4.000000,4.000000,4.000000,4.000000,4.000000,4.000000,2.000000,4.000000,4.000000,4.000000,4.000000,4.000000,4.000000,4.000000,83.333336
1614131584.547861,2.000000,0.000000,6.596695,-3.632801,-7.255287,15.359253,8.495124,6.581089,-1.155733,3.577582,2.738121,4.883051,17.983608,-0.410457,12.002202,19.773554,19.312315,12.616117,13.283752,19.860788,-13.370955,15.924448,22.810961,13.944289,3.012674,16.860321,15.443823,19.932446,1.074187,-7.360602,8.636303,23.156239,8.328101,-20.986275,0.000000,198.000000,4.000000,,,,0.000000,4.000000,4.000000,4.000000,4.000000,4.000000,4.000000,4.000000,4.000000,4.000000,4.000000,4.000000,4.000000,4.000000,4.000000,4.000000,4.000000,4.000000,4.000000,4.000000,4.000000,4.000000,4.000000,4.000000,4.000000,2.000000,4.000000,4.000000,4.000000,4.000000,4.000000,4.000000,4.000000,83.333336
1614131584.555610,3.000000,0.000000,6.590099,-6.706091,-6.222391,9.190047,6.948167,5.036047,-1.667398,3.574004,3.248203,23.339706,16.939983,0.615595,16.092764,22.317883,24.421207,29.013758,13.270469,44.969135,19.462929,25.652113,32.531738,19.058550,3.009661,18.381924,15.941199,19.399693,-1.490989,-7.353242,6.063564,21.594620,5.755671,-22.503750,0.000000,183.000000,4.000000,,,,0.000000,4.000000,4.000000,4.000000,4.000000,4.000000,4.000000,4.000000,4.000000,4.000000,4.000000,4.000000,4.000000,4.000000,4.000000,4.000000,4.000000,4.000000,4.000000,4.000000,4.000000,4.000000,4.000000,4.000000,4.000000,2.000000,4.000000,4.000000,4.000000,4.000000,4.000000,4.000000,4.000000,83.333336
1614131584.563259,4.000000,0.000000,6.070688,-11.314770,-9.293092,5.591114,2.325835,2.979729,-1.665730,3.570430,1.706494,32.547134,16.410223,0.102159,16.076672,21.782743,24.396786,27.959103,13.770019,41.847240,38.417824,33.831589,42.242798,24.680517,3.006652,23.491745,18.489361,19.893114,-2.515140,-7.345889,5.544680,20.547384,2.160171,-29.660732,0.000000,199.000000,4.000000,,,,0.000000,4.000000,4.000000,4.000000,4.000000,4.000000,4.000000,4.000000,4.000000,4.000000,4.000000,4.000000,4.000000,4.000000,4.000000,4.000000,4.000000,4.000000,4.000000,4.000000,4.000000,4.000000,4.000000,4.000000,4.000000,2.000000,4.000000,4.000000,4.000000,4.000000,4.000000,4.000000,4.000000,83.333336
1614131584.571008,5.000000,0.000000,6.064618,-12.329096,-14.412004,1.482959,1.810688,2.463928,-1.664065,3.566860,3.243249,9.437666,16.906633,0.102056,15.547774,21.760962,16.680082,17.161913,11.192146,23.343855,10.174278,20.464424,30.918503,24.143017,3.003645,25.006716,17.445230,20.386042,-1.999804,-7.338542,5.539135,16.424273,-2.970194,-36.810558,0.000000,185.000000,4.000000,,,,0.000000,4.000000,4.000000,4.000000,4.000000,4.000000,4.000000,4.000000,4.000000,4.000000,4.000000,4.000000,4.000000,4.000000,4.000000,4.000000,4.000000,4.000000,4.000000,4.000000,4.000000,4.000000,4.000000,4.000000,4.000000,2.000000,4.000000,4.000000,4.000000,4.000000,4.000000,4.000000,4.000000,83.333336
1614131584.578657,6.000000,0.000000,6.058553,-11.803946,-14.910412,-4.672370,2.321698,2.461464,-1.662400,3.563293,8.368211,2.248741,15.351265,0.101954,16.045048,14.046892,13.586478,17.144751,4.514287,16.653845,-15.476922,9.161909,17.041431,19.503489,3.000641,22.417606,15.889323,19.852835,-1.997804,-7.331204,5.533597,14.356567,-3.992865,-37.286568,0.000000,216.000000,4.000000,,,,0.000000,4.000000,4.000000,4.000000,4.000000,4.000000,4.000000,4.000000,4.000000,4.000000,4.000000,4.000000,4.000000,4.000000,4.000000,4.000000,4.000000,4.000000,4.000000,4.000000,4.000000,4.000000,4.000000,4.000000,4.000000,2.000000,4.000000,4.000000,4.000000,4.000000,4.000000,4.000000,4.000000,83.333336
1614131584.586506,7.000000,0.000000,6.565315,-11.792143,-12.844219,-7.231801,1.806556,2.459003,-1.147918,3.559730,8.359842,20.195210,12.771811,0.101852,16.029001,0.186692,14.598534,8.922477,0.920030,22.278217,8.128299,19.409157,20.101313,17.945524,2.997641,20.343906,17.924717,18.294519,-1.995806,-7.323873,5.528063,14.855031,-2.963231,-36.223640,0.000000,190.000000,4.000000,,,,0.000000,4.000000,4.000000,4.000000,4.000000,4.000000,4.000000,4.000000,4.000000,4.000000,4.000000,4.000000,4.000000,4.000000,4.000000,4.000000,4.000000,2.000000,4.000000,4.000000,4.000000,4.000000,4.000000,4.000000,4.000000,2.000000,4.000000,4.000000,4.000000,4.000000,4.000000,4.000000,4.000000,66.666664
1614131584.594255,8.000000,0.000000,4.507468,-11.780351,-18.472401,-7.224569,2.317570,2.456544,-2.685231,3.556170,3.223277,14.021169,13.271860,0.101751,16.012972,4.801889,14.583935,1.221247,1.944751,24.307220,29.145811,25.543594,24.696596,17.414759,3.507463,21.349203,19.445253,17.250584,-1.993810,-7.316549,4.496894,13.301714,-6.037191,-36.187420,0.000000,152.000000,4.000000,,,,0.000000,4.000000,4.000000,4.000000,4.000000,4.000000,4.000000,4.000000,4.000000,4.000000,4.000000,4.000000,4.000000,4.000000,4.000000,4.000000,4.000000,2.000000,4.000000,4.000000,4.000000,4.000000,4.000000,4.000000,4.000000,2.000000,4.000000,4.000000,4.000000,4.000000,4.000000,4.000000,4.000000,66.666664
1614131584.602004,9.000000,0.000000,0.913216,-13.307032,-24.607775,-9.781446,1.289611,0.915626,-5.759469,3.552614,2.194413,-1.890288,16.335512,0.614469,15.996960,24.284267,16.107813,16.604641,1.942806,14.026504,5.014102,17.825743,22.107796,15.346061,1.965495,21.327854,18.912987,13.643590,-1.991817,-7.309233,2.441115,10.724310,-10.646539,-36.151230,0.000000,191.000000,4.000000,,,,0.000000,4.000000,4.000000,4.000000,4.000000,4.000000,4.000000,4.000000,4.000000,4.000000,4.000000,4.000000,4.000000,4.000000,4.000000,4.000000,4.000000,2.000000,4.000000,4.000000,4.000000,4.000000,4.000000,4.000000,4.000000,2.000000,4.000000,4.000000,4.000000,4.000000,4.000000,4.000000,4.000000,66.666664
1614131584.609654,10.000000,0.000000,-1.651799,-15.345007,-21.506245,-8.746024,2.313962,-1.136572,-8.830632,3.549061,2.705039,10.419294,16.831997,0.101034,15.980963,32.465111,17.117346,28.895729,0.915222,14.012477,-5.760143,18.833559,24.649792,13.279433,-0.087753,19.255245,18.381254,9.527383,-1.989825,-7.301923,1.413033,10.713586,-11.148712,-36.115078,0.000000,185.000000,4.000000,,,,0.000000,4.000000,4.000000,4.000000,4.000000,4.000000,4.000000,4.000000,4.000000,4.000000,4.000000,4.000000,4.000000,4.000000,4.000000,4.000000,4.000000,2.000000,4.000000,4.000000,4.000000,4.000000,4.000000,4.000000,4.000000,2.000000,4.000000,4.000000,4.000000,4.000000,4.000000,4.000000,4.000000,66.666664
1614131584.617502,11.000000,0.000000,-1.650148,-15.329661,-16.869352,-5.660355,9.491136,-1.648256,-9.334622,3.545512,3.215155,27.844772,16.302343,-2.463169,15.964982,28.330082,15.048946,21.174526,1.939948,32.972824,21.425104,26.507032,30.266167,13.778974,-0.600486,17.184708,18.875692,10.543496,-1.475014,-7.294621,1.924440,11.215693,-10.624743,-33.514862,0.000000,196.000000,4.000000,,,,0.000000,4.000000,4.000000,4.000000,4.000000,4.000000,4.000000,4.000000,4.000000,4.000000,4.000000,4.000000,4.000000,4.000000,4.000000,4.000000,4.000000,2.000000,4.000000,4.000000,4.000000,4.000000,4.000000,4.000000,4.000000,2.000000,4.000000,4.000000,4.000000,4.000000,4.000000,4.000000,4.000000,66.666664
1614131584.625252,12.000000,0.000000,-1.135677,-15.314332,-17.878124,-5.141874,16.661131,-1.133787,-8.812468,3.541967,7.314504,29.355389,16.798862,-3.999168,15.949017,29.840214,14.521076,17.563608,1.938008,31.401388,24.480602,22.377960,31.261541,13.765195,-1.625526,17.167522,18.856817,12.584234,-3.012001,-7.287327,2.435336,11.204477,-10.614119,-31.430065,0.000000,181.000000,4.000000,,,,0.000000,4.000000,4.000000,4.000000,4.000000,4.000000,4.000000,4.000000,4.000000,4.000000,4.000000,4.000000,4.000000,4.000000,4.000000,4.000000,4.000000,2.000000,4.000000,4.000000,4.000000,4.000000,4.000000,4.000000,4.000000,2.000000,4.000000,4.000000,4.000000,4.000000,4.000000,4.000000,4.000000,66.666664
1614131584.633101,13.000000,0.000000,-1.647362,-15.299018,-17.860247,-5.649553,17.157291,-1.645474,-8.803655,3.025604,9.358471,24.710649,16.782063,-3.482348,15.933068,31.861656,14.506556,22.161428,1.423249,12.908449,-1.184904,15.688916,28.153357,11.187327,-4.188004,17.150354,18.837961,10.007547,-5.573092,-7.280039,0.381619,10.680452,-11.116324,-36.014019,0.000000,196.000000,4.000000,,,,0.000000,4.000000,4.000000,4.000000,4.000000,4.000000,4.000000,4.000000,4.000000,4.000000,4.000000,4.000000,4.000000,4.000000,4.000000,4.000000,4.000000,2.000000,4.000000,4.000000,4.000000,4.000000,4.000000,4.000000,4.000000,2.000000,4.000000,4.000000,4.000000,4.000000,4.000000,4.000000,4.000000,66.666664
1614131584.640850,14.000000,0.000000,-1.132894,-15.283719,-18.868027,-5.643903,16.627314,-1.131008,-9.307672,3.535399,9.861933,13.403888,16.765282,-3.478866,15.917135,20.547743,14.492049,22.139267,2.960288,19.049387,2.918844,20.801434,26.586742,9.637678,-4.696636,14.569102,18.819122,7.946258,-6.080339,-7.272759,-2.182865,11.182592,-11.105208,-40.080570,0.000000,197.000000,4.000000,,,,0.000000,4.000000,4.000000,4.000000,4.000000,4.000000,4.000000,4.000000,4.000000,4.000000,4.000000,4.000000,4.000000,4.000000,4.000000,4.000000,4.000000,2.000000,4.000000,4.000000,4.000000,4.000000,4.000000,4.000000,4.000000,2.000000,4.000000,4.000000,4.000000,4.000000,4.000000,4.000000,4.000000,66.666664
1614131584.648699,15.000000,0.000000,-1.131761,-15.268435,-20.900442,-5.638259,16.097866,-1.129877,-8.785543,6.095966,11.390532,6.723817,16.235695,-3.475387,15.901217,6.168220,14.990377,20.065845,5.008609,22.107260,16.762079,24.370375,27.072977,10.140862,-3.666298,13.016071,18.800303,9.476773,-5.561438,-7.265487,-1.667862,11.171410,-10.068462,-39.014847,0.000000,157.000000,4.000000,,,,0.000000,4.000000,4.000000,4.000000,4.000000,4.000000,4.000000,4.000000,4.000000,4.000000,4.000000,4.000000,4.000000,4.000000,4.000000,4.000000,4.000000,2.000000,4.000000,4.000000,4.000000,4.000000,4.000000,4.000000,4.000000,2.000000,4.000000,4.000000,4.000000,4.000000,4.000000,4.000000,4.000000,66.666664
1614131584.656448,16.000000,0.000000,-1.130629,-15.253166,-21.392361,-5.632621,11.979203,-1.641567,-8.776758,9.166794,5.738117,13.896581,16.732281,-3.471911,15.885317,2.059488,11.898464,18.507318,4.490780,-3.555873,-3.767503,15.115235,26.020262,10.130720,-4.688273,13.515876,18.781504,7.928835,-5.555877,-7.258221,-1.666194,10.647417,-11.084035,-42.052757,0.000000,195.000000,4.000000,,,,0.000000,4.000000,4.000000,4.000000,4.000000,4.000000,4.000000,4.000000,4.000000,4.000000,4.000000,4.000000,4.000000,4.000000,4.000000,4.000000,4.000000,2.000000,4.000000,4.000000,4.000000,4.000000,4.000000,4.000000,4.000000,2.000000,4.000000,4.000000,4.000000,4.000000,4.000000,4.000000,4.000000,66.666664
1614131584.664297,17.000000,0.000000,-1.129498,-13.186631,-21.883789,-5.626988,10.941584,-0.101464,-9.280802,10.696088,3.168276,21.062170,16.715548,-3.468440,15.869431,3.595890,7.784001,17.975990,1.922187,-2.526676,-17.609890,8.946274,25.994242,10.120589,-3.657944,13.502360,18.762722,9.972188,-5.550321,-7.250963,-3.202990,11.149590,-11.072950,-43.036343,0.000000,155.000000,4.000000,,,,0.000000,4.000000,4.000000,4.000000,4.000000,4.000000,4.000000,4.000000,4.000000,4.000000,4.000000,4.000000,4.000000,4.000000,4.000000,4.000000,4.000000,2.000000,4.000000,4.000000,4.000000,4.000000,4.000000,4.000000,4.000000,4.000000,4.000000,4.000000,4.000000,4.000000,4.000000,4.000000,4.000000,83.333336
1614131584.672046,18.000000,0.000000,-1.128369,-11.122163,-21.349085,-6.134182,14.520386,2.462740,-8.245880,10.685392,14.959979,21.041109,16.186012,-3.464971,15.853561,3.592294,6.750576,17.445194,1.920265,27.219440,5.484643,16.116816,33.660557,10.110469,-1.090183,12.976037,19.256779,17.654524,-5.544771,-7.243712,3.979701,13.702543,-4.908031,-29.659975,0.000000,172.000000,4.000000,,,,0.000000,4.000000,4.000000,4.000000,4.000000,4.000000,4.000000,4.000000,4.000000,4.000000,4.000000,4.000000,4.000000,4.000000,4.000000,4.000000,4.000000,2.000000,4.000000,4.000000,4.000000,4.000000,4.000000,4.000000,4.000000,4.000000,4.000000,4.000000,4.000000,4.000000,4.000000,4.000000,4.000000,83.333336
1614131584.679895,19.000000,0.000000,-1.127241,-11.623861,-16.712351,-4.076766,15.531506,2.460277,-6.186352,10.674706,18.021942,16.917503,18.221107,-3.461506,15.324887,6.152804,6.743826,15.376467,1.918344,32.833248,23.427877,20.716084,32.088432,10.100359,-2.114734,13.475882,19.237522,19.688152,-5.539226,-7.236468,12.693669,15.227303,1.250723,-19.886724,0.000000,210.000000,4.000000,,,,0.000000,4.000000,4.000000,4.000000,4.000000,4.000000,4.000000,4.000000,4.000000,4.000000,4.000000,4.000000,4.000000,4.000000,4.000000,4.000000,4.000000,2.000000,4.000000,4.000000,4.000000,4.000000,4.000000,4.000000,4.000000,4.000000,4.000000,4.000000,4.000000,4.000000,4.000000,4.000000,4.000000,83.333336
1614131584.687644,20.000000,0.000000,-1.126113,-11.612237,-13.618716,-2.021407,12.439052,2.457817,-4.641704,10.664032,5.183408,19.977509,19.741348,-3.458045,15.822383,10.762036,6.737082,21.002115,2.429247,26.646568,17.763424,19.669725,18.723011,9.577437,-4.163901,13.462406,17.679823,14.540258,-5.533687,-7.229232,9.604053,14.699255,-1.314631,-27.046326,0.000000,216.000000,4.000000,,,,0.000000,4.000000,4.000000,4.000000,4.000000,4.000000,4.000000,4.000000,4.000000,4.000000,4.000000,4.000000,4.000000,4.000000,4.000000,4.000000,4.000000,2.000000,4.000000,4.000000,4.000000,4.000000,4.000000,4.000000,4.000000,4.000000,4.000000,4.000000,4.000000,4.000000,4.000000,4.000000,4.000000,83.333336
1614131584.695493,21.000000,0.000000,-1.124987,-11.600625,-13.605098,-1.506565,12.426612,2.455359,-5.149883,10.653368,4.665404,31.752403,18.183146,-3.454587,16.319382,11.776916,9.294448,28.673422,2.426817,34.825050,14.668736,20.675697,21.781212,10.593501,-4.159738,13.448943,19.713427,11.961616,-5.528153,-7.222003,5.491885,15.197376,-2.851778,-31.634665,0.000000,166.000000,4.000000,,,,0.000000,4.000000,4.000000,4.000000,4.000000,4.000000,4.000000,4.000000,4.000000,4.000000,4.000000,4.000000,4.000000,4.000000,4.000000,4.000000,4.000000,2.000000,4.000000,4.000000,4.000000,4.000000,4.000000,4.000000,4.000000,4.000000,4.000000,4.000000,4.000000,4.000000,4.000000,4.000000,4.000000,83.333336
1614131584.703242,22.000000,0.000000,-1.123862,-11.589025,-14.104313,-2.017879,13.439827,2.452904,-5.144733,10.642715,11.840225,26.079626,16.113680,-3.451132,12.200498,10.226677,9.285153,19.926800,-1.678174,30.687660,13.628428,19.629379,27.913277,8.531626,-5.181219,13.435494,19.693712,12.462474,-5.522624,-7.214780,5.999213,15.182178,-2.848926,-28.013285,0.000000,192.000000,4.000000,,,,0.000000,4.000000,4.000000,4.000000,4.000000,4.000000,4.000000,4.000000,4.000000,4.000000,4.000000,4.000000,4.000000,4.000000,4.000000,4.000000,4.000000,2.000000,4.000000,4.000000,4.000000,4.000000,4.000000,4.000000,4.000000,4.000000,4.000000,4.000000,4.000000,4.000000,4.000000,4.000000,4.000000,83.333336
1614131584.711091,23.000000,0.000000,-1.122738,-11.577435,-13.577388,-2.015861,11.887925,2.450451,-5.139588,10.632071,10.289924,7.592007,17.123207,-3.447681,8.085733,12.780553,7.224586,10.163282,-5.266239,17.323639,4.384029,16.532827,14.039209,5.446171,-7.740140,13.422059,10.443250,9.885909,-6.029922,-7.207566,2.403471,9.525970,-7.461462,-31.062195,0.000000,216.000000,4.000000,,,,0.000000,4.000000,4.000000,4.000000,4.000000,4.000000,4.000000,4.000000,4.000000,4.000000,4.000000,4.000000,4.000000,4.000000,4.000000,4.000000,4.000000,2.000000,4.000000,4.000000,4.000000,4.000000,4.000000,4.000000,4.000000,4.000000,4.000000,4.000000,4.000000,4.000000,4.000000,4.000000,4.000000,83.333336
1614131584.718840,24.000000,0.000000,-1.121616,-12.078678,-14.076631,-2.013845,14.440140,4.499282,-5.134449,10.621440,12.330916,19.379288,17.106085,-3.444233,10.641750,20.972900,11.832746,19.383888,-3.209691,20.896059,0.789902,21.131680,16.589273,8.004827,-6.193938,11.357355,7.355883,7.824741,-4.998251,-7.200358,-1.701497,3.875419,-9.505282,-36.159340,0.000000,186.000000,4.000000,,,,0.000000,4.000000,4.000000,4.000000,4.000000,4.000000,4.000000,4.000000,4.000000,4.000000,4.000000,4.000000,4.000000,4.000000,4.000000,4.000000,4.000000,2.000000,4.000000,4.000000,4.000000,4.000000,4.000000,4.000000,4.000000,4.000000,4.000000,4.000000,4.000000,4.000000,4.000000,4.000000,4.000000,83.333336
1614131584.726489,25.000000,0.000000,-1.120494,-11.553780,-14.062554,-2.011832,20.066725,6.546065,-3.590853,10.610818,15.908329,36.795807,15.550516,-0.876686,15.246493,26.592953,17.461939,26.031172,-1.155199,27.029009,6.430138,28.290035,38.111145,13.637848,-3.623642,9.807536,16.066477,8.842558,-2.941971,-7.193158,0.351487,2.845903,-4.880392,-36.123180,0.000000,197.000000,4.000000,,,,0.000000,4.000000,4.000000,4.000000,4.000000,4.000000,4.000000,4.000000,4.000000,4.000000,4.000000,4.000000,4.000000,4.000000,4.000000,4.000000,4.000000,2.000000,4.000000,4.000000,4.000000,4.000000,4.000000,4.000000,4.000000,4.000000,4.000000,4.000000,4.000000,4.000000,4.000000,4.000000,4.000000,83.333336
1614131584.734238,26.000000,0.000000,-1.119374,-8.978123,-14.048491,-2.009820,18.508198,5.513878,-1.535980,10.600207,9.225754,19.323112,16.560608,0.662652,16.769709,24.002258,18.982939,19.338474,-1.666864,22.899416,9.500630,26.210463,29.355085,13.111390,-4.132839,9.797729,17.076050,8.833715,-1.400568,-7.185965,-0.161685,3.355877,-5.901153,-38.138336,0.000000,197.000000,4.000000,,,,0.000000,4.000000,4.000000,4.000000,4.000000,4.000000,4.000000,4.000000,4.000000,4.000000,4.000000,4.000000,4.000000,4.000000,4.000000,4.000000,4.000000,2.000000,4.000000,4.000000,4.000000,4.000000,4.000000,4.000000,4.000000,4.000000,4.000000,4.000000,4.000000,4.000000,4.000000,4.000000,4.000000,83.333336
1614131584.741887,27.000000,0.000000,-1.118254,-7.430683,-14.034443,-2.520630,13.361484,6.534005,-1.534444,10.589607,7.678066,4.944814,16.544046,-1.389293,16.240118,16.285948,19.476776,16.242212,-1.665197,22.876516,8.465488,18.491945,9.838551,10.021356,-4.128706,9.787930,10.392307,8.824882,-1.911988,-7.178779,-1.187165,4.378162,-5.382431,-38.613022,0.000000,196.000000,4.000000,,,,0.000000,4.000000,4.000000,4.000000,4.000000,4.000000,4.000000,4.000000,4.000000,4.000000,4.000000,4.000000,4.000000,4.000000,4.000000,4.000000,4.000000,2.000000,4.000000,4.000000,4.000000,4.000000,4.000000,4.000000,4.000000,4.000000,4.000000,4.000000,4.000000,4.000000,4.000000,4.000000,4.000000,83.333336
1614131584.749636,28.000000,0.000000,-0.604315,-7.936073,-13.507588,-1.492469,11.809661,9.091574,-1.020089,10.579018,15.875517,19.298843,9.860836,-3.439186,11.095673,4.987610,13.816274,14.174687,-2.176353,20.289537,6.918562,15.909350,14.956918,10.524155,-4.124577,9.778143,13.458838,8.816056,-1.910076,-7.684421,3.429407,6.937887,4.366541,-33.446201,0.000000,199.000000,4.000000,,,,0.000000,4.000000,4.000000,4.000000,4.000000,4.000000,4.000000,4.000000,4.000000,4.000000,4.000000,4.000000,4.000000,4.000000,4.000000,4.000000,4.000000,2.000000,4.000000,4.000000,4.000000,4.000000,4.000000,4.000000,4.000000,4.000000,4.000000,4.000000,4.000000,4.000000,4.000000,4.000000,4.000000,83.333336
1614131584.757286,29.000000,0.000000,-1.629352,-5.876855,-14.519722,0.560306,12.823492,10.108123,-2.044710,10.055618,17.910923,23.894930,4.722770,-3.948567,4.417910,-2.196865,0.981944,5.955385,-5.251100,13.602581,8.962925,17.431902,16.480421,8.462348,-4.120452,9.768365,14.471021,8.807240,-1.395345,-7.163916,5.990080,7.443769,6.413456,-31.874294,0.000000,193.000000,4.000000,,,,0.000000,4.000000,4.000000,4.000000,4.000000,4.000000,4.000000,4.000000,4.000000,4.000000,4.000000,4.000000,4.000000,4.000000,4.000000,4.000000,4.000000,2.000000,4.000000,4.000000,4.000000,4.000000,4.000000,4.000000,4.000000,4.000000,4.000000,4.000000,4.000000,4.000000,4.000000,4.000000,4.000000,83.333336
1614131584.765035,30.000000,0.000000,-1.114902,-1.768414,-13.479561,2.611028,12.810669,9.585195,-1.529845,10.558383,16.867371,19.255650,9.846252,-3.431798,3.900672,4.984819,-3.121602,5.949430,-5.245848,15.640261,12.030886,18.440111,5.181890,3.325681,-4.116332,8.732955,8.302704,9.311254,-1.906770,-4.592649,5.471270,7.949146,3.330120,-30.816778,0.000000,194.000000,4.000000,,,,0.000000,4.000000,4.000000,4.000000,4.000000,4.000000,4.000000,4.000000,4.000000,4.000000,4.000000,4.000000,4.000000,4.000000,4.000000,4.000000,4.000000,2.000000,4.000000,4.000000,4.000000,4.000000,4.000000,4.000000,4.000000,4.000000,4.000000,4.000000,4.000000,4.000000,4.000000,4.000000,4.000000,83.333336
1614131584.772684,31.000000,0.000000,1.450315,-0.228184,-10.389158,4.146878,14.849140,9.575609,2.574249,11.060645,20.440247,22.826138,16.503073,-2.915545,5.948053,13.697783,0.471264,9.020403,-4.727782,14.086159,2.788085,14.831927,8.766452,1.783894,-4.112216,6.672940,9.320042,8.789122,-1.392043,-3.049595,8.029901,9.479659,6.916533,-25.657757,0.000000,176.000000,4.000000,,,,0.000000,4.000000,4.000000,4.000000,4.000000,4.000000,4.000000,4.000000,4.000000,4.000000,4.000000,4.000000,4.000000,4.000000,4.000000,4.000000,4.000000,2.000000,4.000000,4.000000,4.000000,4.000000,4.000000,4.000000,4.000000,4.000000,4.000000,4.000000,4.000000,4.000000,4.000000,4.000000,4.000000,83.333336
1614131584.780433,32.000000,0.000000,1.961685,-0.740776,-11.917231,5.681193,16.885572,10.078855,0.520393,7.459841,19.394167,16.136644,15.460929,-4.451091,2.865182,10.094342,-1.580490,7.985742,-7.799977,6.892586,-6.958292,9.176070,17.475634,2.807751,-4.108104,6.153447,14.951748,8.267512,-1.903471,-3.559366,9.560332,8.957358,3.832694,-25.632099,8064.000000,0.000000,4.000000,,,,0.000000,4.000000,4.000000,4.000000,4.000000,4.000000,4.000000,4.000000,4.000000,4.000000,4.000000,4.000000,4.000000,4.000000,4.000000,4.000000,4.000000,2.000000,4.000000,4.000000,4.000000,4.000000,4.000000,4.000000,4.000000,4.000000,4.000000,4.000000,4.000000,4.000000,4.000000,4.000000,4.000000,83.333336
1614131584.788082,33.000000,0.000000,-0.604379,-0.740035,-16.520699,5.675512,16.868687,8.017493,-5.121153,6.939560,14.246567,3.299996,16.471109,-3.933820,5.426419,9.058607,-0.553268,15.157243,-8.304997,17.654924,6.894820,11.218176,21.047903,2.804943,-4.103995,6.147294,13.398335,9.797707,-4.465671,-3.555806,9.550773,8.435580,-5.914729,-30.221851,8064.000000,0.000000,4.000000,,,,0.000000,4.000000,4.000000,4.000000,4.000000,4.000000,4.000000,4.000000,4.000000,4.000000,4.000000,4.000000,4.000000,4.000000,4.000000,4.000000,4.000000,2.000000,4.000000,4.000000,4.000000,4.000000,4.000000,4.000000,4.000000,4.000000,4.000000,4.000000,4.000000,4.000000,4.000000,4.000000,4.000000,83.333336
1614131584.795831,34.000000,0.000000,-1.629416,-0.226475,-18.042639,5.669836,16.851818,5.958194,-1.526288,10.522365,13.206679,7.912080,22.095663,0.172678,16.703045,17.254677,6.113952,25.398497,-5.732590,23.791115,10.990489,13.771061,18.975573,1.263677,-4.099892,6.141146,10.820833,7.736627,-5.999667,-3.039430,10.054042,6.375863,-7.447275,-31.730091,8064.000000,0.000000,4.000000,,,,0.000000,4.000000,4.000000,4.000000,4.000000,4.000000,4.000000,4.000000,4.000000,4.000000,4.000000,4.000000,4.000000,4.000000,4.000000,4.000000,4.000000,2.000000,4.000000,4.000000,4.000000,4.000000,4.000000,4.000000,4.000000,4.000000,4.000000,4.000000,4.000000,4.000000,4.000000,4.000000,4.000000,83.333336
1614131584.803480,35.000000,0.000000,-1.114966,-0.739069,-18.537416,5.664166,16.322147,5.952236,1.039340,7.947740,12.167831,18.673399,20.535107,-1.878777,16.173521,18.263063,2.005274,19.732073,-8.290960,-1.873702,-15.687168,4.526520,4.597622,-1.301690,-4.095792,6.135005,10.297192,0.549403,-4.968026,-6.626134,5.941424,1.241282,-8.465469,-36.313747,8064.000000,0.000000,4.000000,,,,0.000000,4.000000,4.000000,4.000000,4.000000,4.000000,4.000000,4.000000,4.000000,4.000000,4.000000,4.000000,4.000000,4.000000,4.000000,4.000000,4.000000,2.000000,4.000000,4.000000,4.000000,4.000000,4.000000,4.000000,4.000000,4.000000,4.000000,4.000000,4.000000,4.000000,4.000000,4.000000,4.000000,83.333336
1614131584.811230,36.000000,0.000000,-1.113851,-0.738330,-21.082983,5.145681,16.818645,5.946283,-7.166827,4.350049,13.694125,22.244469,16.412006,-6.492282,5.388116,15.167876,-3.637757,10.481571,-12.385233,-9.564136,-23.363789,-6.760057,-6.176206,-0.787567,-4.091696,4.590408,8.235613,-3.040890,-5.988699,-11.234893,-0.731184,-2.862523,-13.585209,-42.431278,8064.000000,0.000000,4.000000,,,,0.000000,4.000000,4.000000,4.000000,4.000000,4.000000,4.000000,4.000000,4.000000,4.000000,4.000000,4.000000,4.000000,4.000000,4.000000,4.000000,4.000000,2.000000,4.000000,4.000000,4.000000,4.000000,4.000000,4.000000,4.000000,4.000000,4.000000,4.000000,4.000000,4.000000,4.000000,4.000000,4.000000,83.333336
1614131584.818879,37.000000,0.000000,-1.625557,-0.737592,-21.574720,6.166177,17.314648,5.940337,-7.159660,10.499544,18.808636,17.094019,19.472517,0.180876,6.921190,20.793734,6.109470,15.086473,-9.295925,16.599274,0.249319,-4.702015,3.060739,1.777323,-4.087604,2.021716,8.227377,0.039074,-5.469890,-10.198017,-2.781735,-1.321199,-9.981880,-40.850384,8064.000000,0.000000,4.000000,,,,0.000000,4.000000,4.000000,4.000000,4.000000,4.000000,4.000000,4.000000,4.000000,4.000000,4.000000,4.000000,4.000000,4.000000,4.000000,4.000000,4.000000,2.000000,4.000000,4.000000,4.000000,4.000000,4.000000,4.000000,4.000000,4.000000,4.000000,4.000000,4.000000,4.000000,4.000000,4.000000,4.000000,83.333336
1614131584.826628,38.000000,0.000000,-1.623932,-0.736854,-21.040325,4.621549,11.143486,5.934397,0.539807,13.565968,16.738546,6.820516,17.914583,7.873003,12.042474,19.234480,15.846951,17.635490,-5.184065,22.223701,9.992659,4.533456,12.801269,1.775545,-4.083517,2.019694,10.783253,1.577496,-0.336215,-7.110896,-1.753312,-0.294237,-3.305231,-38.245434,8064.000000,0.000000,4.000000,,,,0.000000,4.000000,4.000000,4.000000,4.000000,4.000000,4.000000,4.000000,4.000000,4.000000,4.000000,4.000000,4.000000,4.000000,4.000000,4.000000,4.000000,2.000000,4.000000,4.000000,4.000000,4.000000,4.000000,4.000000,4.000000,4.000000,4.000000,4.000000,4.000000,4.000000,4.000000,4.000000,4.000000,83.333336
1614131584.834277,39.000000,0.000000,-1.109487,-1.248938,-21.019283,-2.049739,2.414394,4.902822,-3.563297,3.295992,10.055140,14.506002,7.640259,2.736925,5.876585,6.394732,12.241360,15.566572,-5.691701,8.868144,5.367282,9.144307,12.275646,4.337873,-4.079433,4.581777,11.798110,1.063098,2.228224,-7.103785,-1.751559,-0.293943,-2.276285,-38.720009,8064.000000,0.000000,4.000000,,,,0.000000,4.000000,4.000000,4.000000,4.000000,4.000000,4.000000,4.000000,4.000000,4.000000,4.000000,4.000000,4.000000,4.000000,4.000000,4.000000,4.000000,2.000000,4.000000,4.000000,4.000000,4.000000,4.000000,4.000000,4.000000,4.000000,4.000000,4.000000,4.000000,4.000000,4.000000,4.000000,4.000000,83.333336
1614131584.842126,40.000000,0.000000,-1.108378,-0.734868,-20.998264,-6.150253,0.360697,2.333816,-10.226400,-2.348330,8.506623,28.337650,5.068516,-3.932478,0.229683,1.772952,7.100914,18.627930,-5.173189,11.423378,8.951658,9.135162,16.365934,8.948919,-4.075354,6.115656,10.760671,1.062035,-1.876568,-7.609501,-2.775449,0.731992,-3.812470,-38.681286,8064.000000,0.000000,4.000000,,,,0.000000,4.000000,4.000000,4.000000,4.000000,4.000000,4.000000,4.000000,4.000000,4.000000,4.000000,4.000000,4.000000,4.000000,4.000000,4.000000,4.000000,2.000000,4.000000,4.000000,4.000000,4.000000,4.000000,4.000000,4.000000,4.000000,4.000000,4.000000,4.000000,4.000000,4.000000,4.000000,4.000000,83.333336
1614131584.849875,41.000000,0.000000,-1.620090,1.829969,-20.977266,-3.580001,1.898798,1.818662,-5.600789,3.295044,9.010938,11.899056,8.653192,-3.928546,-0.283367,2.796820,4.016890,11.429813,-5.680837,13.463237,9.455527,9.638848,18.400850,7.914329,-4.071278,6.109541,11.262731,1.060973,-5.977256,-7.089071,-1.747032,-0.807201,-3.295837,-38.642605,8064.000000,0.000000,4.000000,,,,0.000000,4.000000,4.000000,4.000000,4.000000,4.000000,4.000000,4.000000,4.000000,4.000000,4.000000,4.000000,4.000000,4.000000,4.000000,4.000000,4.000000,2.000000,4.000000,4.000000,4.000000,4.000000,4.000000,4.000000,4.000000,4.000000,4.000000,4.000000,4.000000,4.000000,4.000000,4.000000,4.000000,83.333336
1614131584.857724,42.000000,0.000000,-0.592829,3.366601,-20.443468,-1.525138,3.948181,2.329664,-1.492624,7.394313,10.027568,-2.984637,8.644538,-2.898976,0.742557,3.306844,3.500052,-2.940590,-5.675156,9.860030,5.856328,9.629210,10.690143,5.855133,-4.067207,6.103431,11.251468,2.085553,-5.971278,-6.056341,0.305997,2.270529,-1.241260,-37.065502,8064.000000,0.000000,4.000000,,,,0.000000,4.000000,4.000000,4.000000,4.000000,4.000000,4.000000,4.000000,4.000000,4.000000,4.000000,4.000000,4.000000,4.000000,4.000000,4.000000,4.000000,2.000000,4.000000,4.000000,4.000000,4.000000,4.000000,4.000000,4.000000,4.000000,4.000000,4.000000,4.000000,4.000000,4.000000,4.000000,4.000000,83.333336
1614131584.865473,43.000000,0.000000,1.971867,3.363234,-19.397385,-1.523613,7.021156,2.327334,0.560150,6.874098,16.171387,17.531168,12.738458,-0.331975,9.459764,15.611230,14.265782,7.831581,2.535648,21.645042,4.824831,10.132401,8.628170,9.439021,-4.063140,5.584507,11.240216,4.647570,-4.939666,-3.999003,2.356973,9.960566,1.324084,-36.515617,8064.000000,0.000000,4.000000,,,,0.000000,4.000000,4.000000,4.000000,4.000000,4.000000,4.000000,4.000000,4.000000,4.000000,4.000000,4.000000,4.000000,4.000000,4.000000,4.000000,4.000000,2.000000,4.000000,4.000000,4.000000,4.000000,4.000000,4.000000,4.000000,4.000000,4.000000,4.000000,4.000000,4.000000,4.000000,4.000000,4.000000,83.333336
1614131584.873322,44.000000,0.000000,2.995536,2.847050,-21.429270,-2.547731,8.552597,2.325006,4.662154,5.841583,19.232138,28.282867,21.956488,3.258101,21.757996,36.108440,25.533567,32.439133,10.225420,31.879807,3.794365,14.224833,13.747747,10.455223,-3.546256,7.117384,11.741796,5.155743,-2.883444,-2.969363,1.841796,8.412144,-0.728522,-42.120125,8064.000000,0.000000,4.000000,,,,0.000000,4.000000,4.000000,4.000000,4.000000,4.000000,4.000000,4.000000,4.000000,4.000000,4.000000,4.000000,4.000000,4.000000,4.000000,4.000000,4.000000,2.000000,4.000000,4.000000,4.000000,4.000000,4.000000,4.000000,4.000000,4.000000,4.000000,4.000000,4.000000,4.000000,4.000000,4.000000,4.000000,83.333336
1614131584.881071,45.000000,0.000000,2.479720,2.844203,-20.382198,-2.545183,9.056865,2.322681,4.144672,6.861382,16.135983,19.536636,24.498634,4.280484,23.787519,43.251816,26.020855,35.996437,6.112630,29.796646,16.098263,16.261889,17.836563,10.444768,-4.568351,12.238472,10.704414,4.637767,-1.854920,-3.479214,1.839954,0.711424,-2.779075,-45.154930,8192.000000,0.000000,4.000000,,,,0.000000,4.000000,4.000000,4.000000,4.000000,4.000000,4.000000,4.000000,4.000000,4.000000,4.000000,4.000000,4.000000,4.000000,4.000000,4.000000,4.000000,2.000000,4.000000,4.000000,4.000000,4.000000,4.000000,4.000000,4.000000,4.000000,4.000000,4.000000,4.000000,4.000000,4.000000,4.000000,4.000000,83.333336
1614131584.888920,46.000000,0.000000,2.477240,3.354180,-18.310534,1.047106,13.150372,2.320359,2.089245,7.367342,16.119846,27.722227,23.961315,3.763383,19.661169,36.541901,24.969193,28.780954,0.978312,33.869411,37.107807,16.245628,29.613600,17.613810,-3.025321,12.739054,11.206531,8.222873,-1.853065,-3.475735,1.838114,1.223533,-1.750655,-44.084133,8064.000000,0.000000,4.000000,,,,0.000000,4.000000,4.000000,4.000000,4.000000,4.000000,4.000000,4.000000,4.000000,4.000000,4.000000,4.000000,4.000000,4.000000,4.000000,4.000000,4.000000,2.000000,4.000000,4.000000,4.000000,4.000000,4.000000,4.000000,4.000000,4.000000,4.000000,4.000000,4.000000,4.000000,4.000000,4.000000,4.000000,83.333336
1614131584.896669,47.000000,0.000000,2.474763,1.812364,-29.574276,0.533238,16.726965,2.318038,4.651258,5.821513,18.667830,29.232967,23.424534,3.759619,19.128687,28.813049,25.457045,26.700891,3.028616,35.374004,36.045055,18.280664,44.968601,22.724401,0.054627,13.239136,14.785068,13.342854,-1.851212,-3.472259,1.836276,-3.905895,-8.928391,-60.450306,8064.000000,0.000000,4.000000,,,,0.000000,4.000000,4.000000,4.000000,4.000000,4.000000,4.000000,4.000000,4.000000,4.000000,4.000000,4.000000,4.000000,4.000000,4.000000,4.000000,4.000000,2.000000,4.000000,4.000000,4.000000,4.000000,4.000000,4.000000,4.000000,4.000000,4.000000,4.000000,4.000000,4.000000,4.000000,4.000000,4.000000,83.333336
1614131584.904518,48.000000,0.000000,2.472288,-0.240730,-43.903675,-7.672423,16.197418,2.315720,6.697889,7.354153,15.059418,7.665272,23.913929,4.268680,20.135199,25.707314,19.277742,22.058805,0.974306,19.441195,10.367986,11.082896,32.615940,11.419626,-3.022350,17.841282,12.206180,13.329512,-2.362181,-3.468787,1.834439,-16.722502,-20.714334,-83.466782,8064.000000,0.000000,4.000000,,,,0.000000,4.000000,4.000000,4.000000,4.000000,4.000000,4.000000,4.000000,4.000000,4.000000,4.000000,4.000000,4.000000,4.000000,4.000000,4.000000,4.000000,2.000000,4.000000,4.000000,4.000000,4.000000,4.000000,4.000000,4.000000,4.000000,4.000000,4.000000,4.000000,4.000000,4.000000,4.000000,4.000000,83.333336
1614131584.912267,49.000000,0.000000,2.469816,-1.266131,-39.757206,-9.716033,17.719681,2.313405,5.665550,12.475004,18.121281,12.785811,24.402836,4.777232,19.089422,25.168785,13.617438,18.447004,-5.693336,4.037138,-15.283408,-2.261520,1.814093,-2.950768,-8.147533,9.618312,4.501666,9.726439,-5.436742,-3.978139,1.832605,-16.192959,-20.693621,-78.255104,8064.000000,0.000000,4.000000,,,,0.000000,4.000000,4.000000,4.000000,4.000000,4.000000,4.000000,4.000000,4.000000,4.000000,4.000000,4.000000,4.000000,4.000000,4.000000,4.000000,4.000000,2.000000,4.000000,4.000000,4.000000,4.000000,4.000000,4.000000,4.000000,4.000000,4.000000,4.000000,4.000000,4.000000,4.000000,4.000000,4.000000,83.333336
1614131584.920116,50.000000,0.000000,2.467346,-0.752044,-31.512321,-3.552471,23.855808,2.311091,5.659884,13.488170,31.949314,40.978153,21.814331,2.721173,18.557512,24.630796,13.603821,21.505480,-5.687642,10.699768,-15.780945,5.945869,5.402023,1.154747,-6.088103,-3.724640,5.522805,9.203892,-5.431305,-2.948519,1.830772,-6.433177,-14.006261,-62.792236,8064.000000,0.000000,4.000000,,,,0.000000,4.000000,4.000000,4.000000,4.000000,4.000000,4.000000,4.000000,4.000000,4.000000,4.000000,4.000000,4.000000,4.000000,4.000000,4.000000,4.000000,2.000000,4.000000,4.000000,4.000000,4.000000,4.000000,4.000000,4.000000,4.000000,4.000000,4.000000,4.000000,4.000000,4.000000,4.000000,4.000000,83.333336
1614131584.927865,51.000000,0.000000,2.977699,-0.751292,-36.096195,-4.061739,23.319132,2.308780,5.654225,10.397758,33.968647,35.808971,17.177132,4.769733,19.051775,24.093346,13.590217,23.535257,-0.040929,31.714708,13.978426,29.016848,36.678673,17.051027,-0.953810,4.997033,12.183949,10.733150,-0.297669,-0.381468,1.828942,-6.426744,-13.479434,-68.370468,8064.000000,0.000000,4.000000,,,,0.000000,4.000000,4.000000,4.000000,4.000000,4.000000,4.000000,4.000000,4.000000,4.000000,4.000000,4.000000,4.000000,4.000000,4.000000,4.000000,4.000000,2.000000,4.000000,4.000000,4.000000,4.000000,4.000000,4.000000,4.000000,4.000000,4.000000,4.000000,4.000000,4.000000,4.000000,4.000000,4.000000,83.333336
1614131584.935714,52.000000,0.000000,5.026003,-0.750541,-39.649841,-9.185883,15.090685,2.306471,5.648571,11.925822,17.011600,13.721880,15.621493,9.893169,19.545544,24.582071,13.063807,24.537363,2.523215,36.298378,29.349062,29.500650,39.718918,22.162182,0.072785,23.453575,10.633304,4.568570,1.753911,0.644554,2.339933,-7.445958,-14.491595,-73.943123,8064.000000,0.000000,4.000000,,,,0.000000,4.000000,4.000000,4.000000,4.000000,4.000000,4.000000,4.000000,4.000000,4.000000,4.000000,4.000000,4.000000,4.000000,4.000000,4.000000,4.000000,2.000000,4.000000,4.000000,4.000000,4.000000,4.000000,4.000000,4.000000,4.000000,4.000000,4.000000,4.000000,4.000000,4.000000,4.000000,4.000000,83.333336
1614131584.943463,53.000000,0.000000,6.559439,-0.749790,-38.584549,-9.689517,11.485850,2.304165,5.642922,14.990820,7.251000,21.913286,16.118692,5.780712,17.987537,25.583132,14.076384,25.025646,2.007871,16.262081,6.755611,11.522432,21.217659,12.909251,-0.440109,23.942942,7.545747,-2.102665,-0.811946,-0.381731,1.311952,-3.848768,-13.451463,-70.279434,8064.000000,0.000000,4.000000,,,,0.000000,4.000000,4.000000,4.000000,4.000000,4.000000,4.000000,4.000000,4.000000,4.000000,4.000000,4.000000,4.000000,4.000000,4.000000,4.000000,4.000000,2.000000,4.000000,4.000000,4.000000,4.000000,4.000000,4.000000,4.000000,4.000000,4.000000,4.000000,4.000000,4.000000,4.000000,4.000000,4.000000,83.333336
