title:33, start timestamp:1614131814.693744, stop timestamp:1614131860.505593, headset type:EPOCFLEX, headset serial:F00001ED, headset firmware:f12, subject name:s08, channels:75, sampling rate:128, samples:5919      , version:2.0
Timestamp,EEG.Counter,EEG.Interpolated,EEG.Cz,EEG.Fz,EEG.Fp1,EEG.AF3,EEG.F7,EEG.F3,EEG.FC1,EEG.C3,EEG.FC5,EEG.T7,EEG.CP5,EEG.CP1,EEG.P3,EEG.P7,EEG.PO3,EEG.O1,EEG.Pz,EEG.Oz,EEG.O2,EEG.PO4,EEG.P8,EEG.P4,EEG.CP2,EEG.CP6,EEG.T8,EEG.FC6,EEG.C4,EEG.FC2,EEG.F4,EEG.F8,EEG.AF4,EEG.Fp2,EEG.HighBitFlex,EEG.RawCq,EEG.Battery,MarkerIndex,MarkerType,MarkerValueInt,EEG.MarkerHardware,CQ.Cz,CQ.Fz,CQ.Fp1,CQ.AF3,CQ.F7,CQ.F3,CQ.FC1,CQ.C3,CQ.FC5,CQ.T7,CQ.CP5,CQ.CP1,CQ.P3,CQ.P7,CQ.PO3,CQ.O1,CQ.Pz,CQ.Oz,CQ.O2,CQ.PO4,CQ.P8,CQ.P4,CQ.CP2,CQ.CP6,CQ.T8,CQ.FC6,CQ.C4,CQ.FC2,CQ.F4,CQ.F8,CQ.AF4,CQ.Fp2,CQ.Overall
1614131814.693744,4.000000,0.000000,-6.059759,10.418230,20.067484,19.745832,19.948940,21.400646,-3.473378,-5.158317,8.719493,4.277353,0.320063,-5.570831,-19.244020,-19.353140,-22.514513,-7.430069,-16.824038,-4.955181,-35.964588,-4.952167,-2.126287,2.136787,-5.417919,-1.645056,9.574511,-1.356836,-6.824180,-2.204840,7.131721,-5.003775,-0.108491,6.027112,0.000000,235.000000,4.000000,,,,0.000000,4.000000,4.000000,4.000000,4.000000,4.000000,4.000000,4.000000,4.000000,4.000000,4.000000,4.000000,4.000000,4.000000,4.000000,4.000000,4.000000,4.000000,4.000000,4.000000,4.000000,4.000000,4.000000,4.000000,4.000000,4.000000,4.000000,4.000000,4.000000,4.000000,4.000000,4.000000,4.000000,100.000000
1614131814.701593,5.000000,0.000000,-6.566520,9.894992,20.047415,20.238909,12.749503,20.353603,-6.034007,-5.153158,7.172311,1.196153,-9.423847,-9.667825,-19.737598,-21.897890,-23.517641,-7.935460,-17.832855,-12.642533,-39.518368,-7.511317,-2.636982,0.596189,-5.412500,-1.130590,4.949552,-1.355479,-6.817356,-2.202635,7.124589,-1.921848,-0.621203,8.072367,0.000000,185.000000,4.000000,,,,0.000000,4.000000,4.000000,4.000000,4.000000,4.000000,4.000000,4.000000,4.000000,4.000000,4.000000,4.000000,4.000000,4.000000,4.000000,4.000000,4.000000,4.000000,4.000000,4.000000,4.000000,4.000000,4.000000,4.000000,4.000000,4.000000,4.000000,4.000000,4.000000,4.000000,4.000000,4.000000,4.000000,100.000000
1614131814.709342,6.000000,0.000000,-5.534312,9.885097,19.514547,19.705849,4.018806,16.743507,-7.053614,-5.148005,8.703601,0.169315,-9.927243,-7.606875,-14.589655,-23.414454,-22.981302,-5.363421,-15.250919,-11.604250,-35.889107,-4.939703,-3.147165,6.749439,-5.407088,-1.642280,-1.722064,-1.866944,-6.810539,-1.687612,7.117465,-3.971208,-1.133403,7.038653,0.000000,163.000000,4.000000,,,,0.000000,4.000000,4.000000,4.000000,4.000000,4.000000,4.000000,4.000000,4.000000,4.000000,4.000000,4.000000,4.000000,4.000000,4.000000,4.000000,4.000000,4.000000,4.000000,4.000000,4.000000,4.000000,4.000000,4.000000,4.000000,4.000000,4.000000,4.000000,4.000000,4.000000,4.000000,4.000000,4.000000,100.000000
1614131814.717091,7.000000,0.000000,-2.964675,10.388032,20.007854,20.198963,13.758376,17.239584,-4.995278,-5.142857,15.361564,7.348633,2.903197,0.093040,-8.421219,-15.698730,-14.240372,0.795788,-4.979258,-2.361876,-26.622448,5.321647,0.958546,12.383715,-5.401681,-0.614997,4.433504,-0.839437,-6.803728,0.365358,7.110347,-2.428775,-0.619449,7.544435,0.000000,186.000000,4.000000,,,,0.000000,4.000000,4.000000,4.000000,4.000000,4.000000,4.000000,4.000000,4.000000,4.000000,4.000000,4.000000,4.000000,4.000000,4.000000,4.000000,4.000000,4.000000,4.000000,4.000000,4.000000,4.000000,4.000000,4.000000,4.000000,4.000000,4.000000,4.000000,4.000000,4.000000,4.000000,4.000000,4.000000,100.000000
1614131814.724740,8.000000,0.000000,-1.936070,9.864823,19.987846,20.178764,24.513849,20.299267,-3.451821,-5.137714,18.423124,14.520772,9.054139,3.682690,-7.387157,-5.939442,-7.046645,4.384736,2.205208,0.717409,-22.493261,8.906069,8.649895,11.345691,-5.396279,1.949721,13.659840,1.212685,-6.796925,1.903454,7.103237,-6.528911,-0.618829,5.998429,0.000000,216.000000,4.000000,,,,0.000000,4.000000,4.000000,4.000000,4.000000,4.000000,4.000000,4.000000,4.000000,4.000000,4.000000,4.000000,4.000000,4.000000,4.000000,4.000000,4.000000,4.000000,4.000000,4.000000,4.000000,4.000000,4.000000,4.000000,4.000000,4.000000,4.000000,4.000000,4.000000,4.000000,4.000000,4.000000,4.000000,100.000000
1614131814.732589,9.000000,0.000000,-2.446954,7.290856,19.967857,20.158585,22.950872,17.202045,-3.961190,-5.132576,15.327779,15.531892,6.480983,2.140546,-7.892590,-4.907862,-9.603701,5.918813,0.664542,0.203871,-22.983589,1.717675,11.205348,10.821524,-5.390883,2.973412,13.646180,2.237113,-6.790128,0.363089,7.096134,-13.701869,-0.618210,3.941149,0.000000,169.000000,4.000000,,,,0.000000,4.000000,4.000000,4.000000,4.000000,4.000000,4.000000,4.000000,4.000000,4.000000,4.000000,4.000000,4.000000,4.000000,4.000000,4.000000,4.000000,4.000000,4.000000,4.000000,4.000000,4.000000,4.000000,4.000000,4.000000,4.000000,4.000000,4.000000,4.000000,4.000000,4.000000,4.000000,4.000000,100.000000
1614131814.740338,10.000000,0.000000,-2.444507,5.745104,19.947889,20.138428,21.902281,13.595098,-3.957229,-5.127444,15.312451,15.516360,6.987322,2.138406,-7.371877,-4.390133,-14.209481,6.938535,-2.413046,-0.821974,-23.986246,-2.899427,8.630040,11.836344,-5.385492,2.970439,11.581251,2.747697,-6.783338,-2.201376,6.576217,-10.098423,-0.617592,3.424387,0.000000,184.000000,4.000000,,,,0.000000,4.000000,4.000000,4.000000,4.000000,4.000000,4.000000,4.000000,4.000000,4.000000,4.000000,4.000000,4.000000,4.000000,4.000000,4.000000,4.000000,4.000000,4.000000,4.000000,4.000000,4.000000,4.000000,4.000000,4.000000,4.000000,4.000000,4.000000,4.000000,4.000000,4.000000,4.000000,4.000000,100.000000
1614131814.748187,11.000000,0.000000,-2.442063,5.739359,19.415121,20.118288,23.418840,15.632786,-3.953272,-5.122316,16.322781,14.988024,7.493155,3.161908,-8.390146,-3.872923,-15.220913,8.470057,-2.410633,-1.333973,-25.500721,-2.896528,9.134231,10.798866,-5.380106,2.454648,13.620953,4.796231,-6.776554,-2.711996,7.082461,-3.421658,-1.642616,2.395322,0.000000,195.000000,4.000000,,,,0.000000,4.000000,4.000000,4.000000,4.000000,4.000000,4.000000,4.000000,4.000000,4.000000,4.000000,4.000000,4.000000,4.000000,4.000000,4.000000,4.000000,4.000000,4.000000,4.000000,4.000000,4.000000,4.000000,4.000000,4.000000,4.000000,4.000000,4.000000,4.000000,4.000000,4.000000,4.000000,4.000000,100.000000
1614131814.755936,12.000000,0.000000,-2.439620,6.246440,19.395706,19.585350,21.856960,17.668436,-3.949318,-5.117194,13.742354,13.947394,7.485662,1.620285,-7.868936,-11.048537,-16.744154,8.974408,-1.895402,6.872489,-21.885477,-1.355169,10.663558,10.788067,-5.887547,2.452193,12.581690,5.817076,-7.282598,-2.709284,8.613840,-3.418236,0.923130,3.931388,0.000000,202.000000,4.000000,,,,0.000000,4.000000,4.000000,4.000000,4.000000,4.000000,4.000000,4.000000,4.000000,4.000000,4.000000,4.000000,4.000000,4.000000,4.000000,4.000000,4.000000,4.000000,4.000000,4.000000,4.000000,4.000000,4.000000,4.000000,4.000000,4.000000,4.000000,4.000000,4.000000,4.000000,4.000000,4.000000,4.000000,100.000000
1614131814.763785,13.000000,0.000000,-2.437181,6.240193,19.889132,20.078585,22.860744,16.625126,-0.868446,-5.112077,11.677330,14.959088,5.426895,-0.945438,-9.399529,-18.729795,-14.676127,3.837229,-2.406327,6.352797,-29.043079,-4.943558,-2.680439,9.238818,-5.368839,2.449741,9.492186,6.324080,-6.762495,-2.193754,10.656508,-3.927639,3.999130,7.004380,0.000000,177.000000,4.000000,,,,0.000000,4.000000,4.000000,4.000000,4.000000,4.000000,4.000000,4.000000,4.000000,4.000000,4.000000,4.000000,4.000000,4.000000,4.000000,4.000000,4.000000,4.000000,4.000000,4.000000,4.000000,4.000000,4.000000,4.000000,4.000000,4.000000,4.000000,4.000000,4.000000,4.000000,4.000000,4.000000,4.000000,100.000000
1614131814.771534,14.000000,0.000000,-3.973205,5.721133,19.869242,20.058506,20.786602,16.608501,0.158063,-5.619785,11.152832,8.790282,-4.322122,-4.021416,-21.697821,-26.916195,-19.789656,-8.474300,-8.044947,-18.781761,-59.270447,-25.451435,-25.754683,1.024451,-5.363470,0.396009,8.457052,5.292114,-6.755733,-3.217201,10.133032,-4.949352,0.405387,0.843529,0.000000,173.000000,4.000000,,,,0.000000,4.000000,4.000000,4.000000,4.000000,4.000000,4.000000,4.000000,4.000000,4.000000,4.000000,4.000000,4.000000,4.000000,4.000000,4.000000,4.000000,4.000000,4.000000,4.000000,4.000000,4.000000,4.000000,4.000000,4.000000,4.000000,4.000000,4.000000,4.000000,4.000000,4.000000,4.000000,4.000000,100.000000
1614131814.779383,15.000000,0.000000,-6.533335,6.228232,18.823732,19.525627,10.509404,17.104713,-2.406197,-5.614166,9.090397,-7.628764,-15.087030,-5.555856,-35.009457,-43.812355,-39.769867,-15.645313,-14.703568,-30.557852,-71.006050,-41.323418,-33.934055,-6.156061,-6.383748,-4.219771,8.448595,0.671437,-8.287438,-2.701163,10.122898,-7.508505,-0.620660,-4.285520,0.000000,183.000000,4.000000,,,,0.000000,4.000000,4.000000,4.000000,4.000000,4.000000,4.000000,4.000000,4.000000,4.000000,4.000000,4.000000,4.000000,4.000000,4.000000,4.000000,4.000000,4.000000,4.000000,4.000000,4.000000,4.000000,4.000000,4.000000,4.000000,4.000000,4.000000,4.000000,4.000000,4.000000,4.000000,4.000000,4.000000,100.000000
1614131814.787133,16.000000,0.000000,-6.526802,8.273286,20.856190,20.018923,7.934793,16.574787,-2.403791,-4.582911,8.568486,-11.723700,-14.559123,-5.037479,-32.410343,-50.948029,-47.422405,-14.604028,-11.099121,-13.091396,-45.806835,-22.820557,-21.079609,-2.047341,-4.838902,-6.266834,8.440146,-2.406157,-5.715048,2.942564,13.189698,-1.859971,8.610730,4.436715,0.000000,198.000000,4.000000,,,,0.000000,4.000000,4.000000,4.000000,4.000000,4.000000,4.000000,4.000000,4.000000,4.000000,4.000000,4.000000,4.000000,4.000000,4.000000,4.000000,4.000000,4.000000,4.000000,4.000000,4.000000,4.000000,4.000000,4.000000,4.000000,4.000000,4.000000,4.000000,4.000000,4.000000,4.000000,4.000000,4.000000,100.000000
1614131814.794982,17.000000,0.000000,-2.930531,10.316295,25.963539,22.563005,17.670448,17.583853,0.162715,-3.039866,10.098379,7.775204,-7.365077,-5.545263,-18.531780,-31.922724,-26.349340,-7.922757,-2.882894,-0.770612,-30.889235,1.304827,-1.571349,9.236758,1.832603,-3.696464,10.995809,3.237275,3.008615,9.093467,17.279074,8.398299,14.755966,14.175868,0.000000,173.000000,4.000000,,,,0.000000,4.000000,4.000000,4.000000,4.000000,4.000000,4.000000,4.000000,4.000000,4.000000,4.000000,4.000000,4.000000,4.000000,4.000000,4.000000,4.000000,4.000000,4.000000,4.000000,4.000000,4.000000,4.000000,4.000000,4.000000,4.000000,4.000000,4.000000,4.000000,4.000000,4.000000,4.000000,4.000000,100.000000
1614131814.802731,18.000000,0.000000,0.662143,9.280337,27.476038,23.566084,23.293802,19.617552,-0.350268,-0.472724,11.626742,22.639223,-3.767968,-5.026897,-7.744018,-14.454903,-8.374274,2.341576,1.735374,2.819902,-32.396809,5.918907,14.840478,15.894188,6.446155,3.486719,15.600198,9.900704,9.159453,9.084373,20.338717,11.979645,13.715569,15.187333,0.000000,179.000000,4.000000,,,,0.000000,4.000000,4.000000,4.000000,4.000000,4.000000,4.000000,4.000000,4.000000,4.000000,4.000000,4.000000,4.000000,4.000000,4.000000,4.000000,4.000000,4.000000,4.000000,4.000000,4.000000,4.000000,4.000000,4.000000,4.000000,4.000000,4.000000,4.000000,4.000000,4.000000,4.000000,4.000000,4.000000,100.000000
1614131814.810580,19.000000,0.000000,1.687122,10.296699,26.422920,23.542517,21.732048,21.136396,-0.349918,4.143134,12.640757,16.462738,-4.789841,0.106335,-2.608068,-12.389166,-7.340259,7.980260,5.836203,13.073492,-11.851589,12.066834,23.543587,19.468037,7.978170,10.662720,16.610239,12.454906,8.124653,8.049648,21.344019,10.942023,17.291597,16.197786,0.000000,201.000000,4.000000,,,,0.000000,4.000000,4.000000,4.000000,4.000000,4.000000,4.000000,4.000000,4.000000,4.000000,4.000000,4.000000,4.000000,4.000000,4.000000,4.000000,4.000000,4.000000,4.000000,4.000000,4.000000,4.000000,4.000000,4.000000,4.000000,4.000000,4.000000,4.000000,4.000000,4.000000,4.000000,4.000000,4.000000,100.000000
1614131814.818329,20.000000,0.000000,1.172614,12.850504,26.909317,23.518974,22.223137,20.602438,2.727355,6.703093,15.192219,6.702686,-4.272231,5.747254,-0.041358,-8.274213,-6.820098,7.459460,8.907290,20.239906,9.698724,21.285538,25.571325,22.525492,9.508654,13.728980,16.080809,12.955272,7.603707,11.118522,21.322676,11.443902,20.864048,18.745691,0.000000,201.000000,4.000000,,,,0.000000,4.000000,4.000000,4.000000,4.000000,4.000000,4.000000,4.000000,4.000000,4.000000,4.000000,4.000000,4.000000,4.000000,4.000000,4.000000,4.000000,4.000000,4.000000,4.000000,4.000000,4.000000,4.000000,4.000000,4.000000,4.000000,4.000000,4.000000,4.000000,4.000000,4.000000,4.000000,4.000000,100.000000
1614131814.826178,21.000000,0.000000,1.684262,13.863295,26.882408,23.495457,22.200912,20.581837,1.698987,4.645108,15.689847,6.183163,-3.755138,3.177405,0.471504,-2.624913,-2.710714,9.503283,7.872741,20.219666,3.022358,16.648867,24.007292,23.015787,8.986324,13.715251,16.064728,13.455137,8.621745,12.645864,21.814173,11.432458,17.253441,18.214125,0.000000,168.000000,4.000000,,,,0.000000,4.000000,4.000000,4.000000,4.000000,4.000000,4.000000,4.000000,4.000000,4.000000,4.000000,4.000000,4.000000,4.000000,4.000000,4.000000,4.000000,4.000000,4.000000,4.000000,4.000000,4.000000,4.000000,4.000000,4.000000,4.000000,4.000000,4.000000,4.000000,4.000000,4.000000,4.000000,4.000000,100.000000
1614131814.833927,22.000000,0.000000,0.656937,13.336611,26.855526,23.471960,19.614609,20.561255,-3.430917,2.076360,15.161337,8.741082,-3.751383,-1.441157,-0.041788,1.993097,-1.169541,13.083523,5.300766,16.609703,-9.801177,8.427090,23.983284,21.967131,5.900415,13.701536,16.048662,13.441682,8.100303,12.120399,21.279539,10.908205,13.133623,17.683090,0.000000,193.000000,4.000000,,,,0.000000,4.000000,4.000000,4.000000,4.000000,4.000000,4.000000,4.000000,4.000000,4.000000,4.000000,4.000000,4.000000,4.000000,4.000000,4.000000,4.000000,4.000000,4.000000,4.000000,4.000000,4.000000,4.000000,4.000000,4.000000,4.000000,4.000000,4.000000,4.000000,4.000000,4.000000,4.000000,4.000000,100.000000
1614131814.841576,23.000000,0.000000,-1.907822,13.323274,26.315849,23.448488,18.056534,20.540693,-4.965948,2.587105,15.146175,11.296443,-4.260452,-1.439716,-0.554567,8.657770,-0.655551,11.531978,4.782645,10.952067,-10.304196,7.905842,24.984943,22.457983,5.381694,13.687835,16.032614,12.915420,6.040920,12.108278,18.694157,10.897297,11.582028,17.665407,0.000000,179.000000,4.000000,,,,0.000000,4.000000,4.000000,4.000000,4.000000,4.000000,4.000000,4.000000,4.000000,4.000000,4.000000,4.000000,4.000000,4.000000,4.000000,4.000000,4.000000,4.000000,4.000000,4.000000,4.000000,4.000000,4.000000,4.000000,4.000000,4.000000,4.000000,4.000000,4.000000,4.000000,4.000000,4.000000,4.000000,100.000000
1614131814.849325,24.000000,0.000000,-2.931556,13.309951,26.289534,23.425039,18.551296,20.520153,-3.422520,2.584517,15.131029,14.362070,-4.256192,-0.925456,-0.554012,6.597830,-0.654896,11.007625,5.803503,14.530859,-5.678507,10.974859,20.857393,20.897064,5.376313,13.161326,16.016581,12.902504,3.983597,12.096169,17.137001,10.886400,10.031985,17.647741,0.000000,178.000000,4.000000,,,,0.000000,4.000000,4.000000,4.000000,4.000000,4.000000,4.000000,4.000000,4.000000,4.000000,4.000000,4.000000,4.000000,4.000000,4.000000,4.000000,4.000000,4.000000,4.000000,4.000000,4.000000,4.000000,4.000000,4.000000,4.000000,4.000000,4.000000,4.000000,4.000000,4.000000,4.000000,4.000000,4.000000,100.000000
1614131814.856974,25.000000,0.000000,-2.415804,13.296640,26.263245,23.401615,18.532745,20.499632,-3.931918,2.069112,15.115898,14.860528,-4.251935,-1.437351,-0.040638,-0.075434,0.884221,12.535079,5.284879,14.003508,-11.313854,6.861320,9.554485,14.209500,5.370936,13.148165,16.000565,12.889602,3.466793,12.084073,17.119864,10.875513,9.509132,17.630095,0.000000,218.000000,4.000000,,,,0.000000,4.000000,4.000000,4.000000,4.000000,4.000000,4.000000,4.000000,4.000000,4.000000,4.000000,4.000000,4.000000,4.000000,4.000000,4.000000,4.000000,4.000000,4.000000,4.000000,4.000000,4.000000,4.000000,4.000000,4.000000,4.000000,4.000000,4.000000,4.000000,4.000000,4.000000,4.000000,4.000000,100.000000
1614131814.864723,26.000000,0.000000,-2.413388,13.283344,26.236982,23.378214,18.001392,20.479134,-4.440807,2.579864,15.100782,14.332848,-3.734863,-0.923093,-4.143161,-0.588179,-5.270510,7.394339,-2.925534,-6.010496,-33.353825,-10.068618,3.391084,3.938881,5.365565,13.135016,15.471744,12.876712,3.976147,12.071989,17.615564,10.864637,8.986803,17.612465,0.000000,194.000000,4.000000,,,,0.000000,4.000000,4.000000,4.000000,4.000000,4.000000,4.000000,4.000000,4.000000,4.000000,4.000000,4.000000,4.000000,4.000000,4.000000,4.000000,4.000000,4.000000,4.000000,4.000000,4.000000,4.000000,4.000000,4.000000,4.000000,4.000000,4.000000,4.000000,4.000000,4.000000,4.000000,4.000000,4.000000,100.000000
1614131814.872372,27.000000,0.000000,-2.923795,13.270061,26.210745,23.354836,18.496212,20.458654,-3.923545,1.551643,13.034399,15.344155,-5.269589,-3.486273,-12.856967,-11.869642,-28.854982,-3.382286,-11.640557,-19.337818,-45.115341,-21.340601,4.413334,-1.193263,5.360200,13.121881,16.481913,12.863835,3.972171,12.059917,17.085129,10.853773,10.516277,17.082031,0.000000,188.000000,4.000000,,,,0.000000,4.000000,4.000000,4.000000,4.000000,4.000000,4.000000,4.000000,4.000000,4.000000,4.000000,4.000000,4.000000,4.000000,4.000000,4.000000,4.000000,4.000000,4.000000,4.000000,4.000000,4.000000,4.000000,4.000000,4.000000,4.000000,4.000000,4.000000,4.000000,4.000000,4.000000,4.000000,4.000000,100.000000
1614131814.880122,28.000000,0.000000,-2.408051,13.256791,26.184534,23.331480,17.964895,20.438194,-3.919622,-2.552473,10.970083,13.277530,-8.341243,-8.098171,-19.510777,-36.473156,-46.774845,-9.532750,-14.193019,-12.138994,-37.890739,-16.703875,4.921741,-0.679249,5.354840,13.108760,16.465431,12.850971,3.968198,12.047857,17.068043,10.842919,15.633966,17.064949,0.000000,206.000000,4.000000,,,,0.000000,4.000000,4.000000,4.000000,4.000000,4.000000,4.000000,4.000000,4.000000,4.000000,4.000000,4.000000,4.000000,4.000000,4.000000,4.000000,4.000000,4.000000,4.000000,4.000000,4.000000,4.000000,4.000000,4.000000,4.000000,4.000000,4.000000,4.000000,4.000000,4.000000,4.000000,4.000000,4.000000,100.000000
1614131814.887771,29.000000,0.000000,-2.405643,13.243534,27.183990,23.308149,18.459751,20.417757,-3.915702,-5.626843,10.959113,8.648868,-9.358542,-9.628534,-21.029728,-46.693096,-40.574226,-8.497577,-14.178826,-10.588393,-42.468231,-13.097428,3.378358,-1.191391,5.349485,13.095651,12.346401,12.838120,3.964230,12.035810,18.076616,10.319256,17.669615,19.611986,0.000000,197.000000,4.000000,,,,0.000000,4.000000,4.000000,4.000000,4.000000,4.000000,4.000000,4.000000,4.000000,4.000000,4.000000,4.000000,4.000000,4.000000,4.000000,4.000000,4.000000,4.000000,4.000000,4.000000,4.000000,4.000000,4.000000,4.000000,4.000000,4.000000,4.000000,4.000000,4.000000,4.000000,4.000000,4.000000,4.000000,100.000000
1614131814.895520,30.000000,0.000000,-2.403237,13.230290,29.208088,23.284842,18.441292,20.397339,-3.911787,-5.621217,11.460975,7.101757,-7.810723,-8.080444,-19.983057,-42.543839,-30.790060,-3.873694,-13.651827,-13.141908,-49.092430,-15.135612,3.887800,-1.703020,5.344135,13.082555,8.231491,12.825282,3.960266,12.023774,20.622643,10.821757,17.139124,21.130836,0.000000,194.000000,4.000000,,,,0.000000,4.000000,4.000000,4.000000,4.000000,4.000000,4.000000,4.000000,4.000000,4.000000,4.000000,4.000000,4.000000,4.000000,4.000000,4.000000,4.000000,4.000000,4.000000,4.000000,4.000000,4.000000,4.000000,4.000000,4.000000,4.000000,4.000000,4.000000,4.000000,4.000000,4.000000,4.000000,4.000000,100.000000
1614131814.903169,31.000000,0.000000,-2.400834,13.217060,30.204521,22.748735,17.910028,20.376942,-3.907875,-5.102775,11.449513,4.017732,-8.828553,-9.098005,-19.963074,-45.578217,-30.759272,-6.946743,-10.561252,-6.974919,-34.684364,-10.505093,4.909554,2.401247,5.338791,13.069472,7.710439,12.812457,3.956306,12.011750,21.627661,12.349397,17.121984,21.109705,0.000000,184.000000,4.000000,,,,0.000000,4.000000,4.000000,4.000000,4.000000,4.000000,4.000000,4.000000,4.000000,4.000000,4.000000,4.000000,4.000000,4.000000,4.000000,4.000000,4.000000,4.000000,4.000000,4.000000,4.000000,4.000000,4.000000,4.000000,4.000000,4.000000,4.000000,4.000000,4.000000,4.000000,4.000000,4.000000,4.000000,100.000000
1614131814.910918,32.000000,0.000000,-2.398433,13.203843,30.174316,22.725986,18.404940,20.356565,-3.903967,-5.610493,10.925243,2.475253,-9.332545,-9.088907,-20.968752,-46.558281,-31.754152,-15.657745,-10.550691,-5.942304,-30.547115,-6.392023,3.366182,6.501410,5.333452,13.056403,8.728370,12.799644,3.952349,11.999739,21.606033,14.388330,17.104862,23.139877,8064.000000,0.000000,4.000000,,,,0.000000,4.000000,4.000000,4.000000,4.000000,4.000000,4.000000,4.000000,4.000000,4.000000,4.000000,4.000000,4.000000,4.000000,4.000000,4.000000,4.000000,4.000000,4.000000,4.000000,4.000000,4.000000,4.000000,4.000000,4.000000,4.000000,4.000000,4.000000,4.000000,4.000000,4.000000,4.000000,4.000000,100.000000
1614131814.918567,33.000000,0.000000,-2.396034,13.190639,30.144142,23.216082,20.950638,20.336208,-4.412883,-2.527959,10.914318,11.703547,1.958839,-4.464433,-13.768295,-23.434797,-21.978809,-4.872857,-9.001678,-1.320976,-34.619133,-4.847170,5.926919,8.033370,5.328119,13.043346,8.719641,12.786845,3.948397,9.936457,20.558786,14.886762,17.087759,25.168020,8064.000000,0.000000,4.000000,,,,0.000000,4.000000,4.000000,4.000000,4.000000,4.000000,4.000000,4.000000,4.000000,4.000000,4.000000,4.000000,4.000000,4.000000,4.000000,4.000000,4.000000,4.000000,4.000000,4.000000,4.000000,4.000000,4.000000,4.000000,4.000000,4.000000,4.000000,4.000000,4.000000,4.000000,4.000000,4.000000,4.000000,100.000000
1614131814.926416,34.000000,0.000000,-2.393638,13.177448,30.113998,23.192865,22.468147,20.315872,-2.870009,1.577133,12.954686,23.999535,19.905598,-0.870225,4.194191,9.409150,-0.931189,26.414066,2.802195,18.680344,-15.097334,5.926908,16.690222,11.102260,5.835611,13.030303,8.198101,12.774058,4.457269,8.388059,17.974125,14.359055,17.583490,24.630032,8064.000000,0.000000,4.000000,,,,0.000000,4.000000,4.000000,4.000000,4.000000,4.000000,4.000000,4.000000,4.000000,4.000000,4.000000,4.000000,4.000000,4.000000,4.000000,4.000000,4.000000,4.000000,4.000000,4.000000,4.000000,4.000000,4.000000,4.000000,4.000000,4.000000,4.000000,4.000000,4.000000,4.000000,4.000000,4.000000,4.000000,100.000000
1614131814.934165,35.000000,0.000000,-2.391245,13.164271,30.083883,22.144032,21.420038,20.295557,-0.815857,2.601197,15.505834,26.026817,27.065180,-1.382176,17.523331,27.861279,11.890255,40.233807,10.491700,27.892433,-0.210441,17.203033,24.365841,14.680902,5.829776,14.042914,8.702724,12.761284,3.939991,8.379670,16.930510,14.344695,16.540266,24.092581,8064.000000,0.000000,4.000000,,,,0.000000,4.000000,4.000000,4.000000,4.000000,4.000000,4.000000,4.000000,4.000000,4.000000,4.000000,4.000000,4.000000,4.000000,4.000000,4.000000,4.000000,4.000000,4.000000,4.000000,4.000000,4.000000,4.000000,4.000000,4.000000,4.000000,4.000000,4.000000,4.000000,4.000000,4.000000,4.000000,4.000000,100.000000
1614131814.942014,36.000000,0.000000,-2.388854,13.151107,30.053801,25.198811,21.911440,20.275261,0.210600,2.085775,15.490328,26.000792,26.012474,-0.867973,19.044268,30.910341,11.878365,37.116650,9.455567,20.172234,-5.851257,15.647368,23.315834,14.666221,5.311125,13.516050,11.258123,12.748523,3.936051,8.371291,17.939220,14.330351,17.036547,24.581308,8192.000000,0.000000,4.000000,,,,0.000000,4.000000,4.000000,4.000000,4.000000,4.000000,4.000000,4.000000,4.000000,4.000000,4.000000,4.000000,4.000000,4.000000,4.000000,4.000000,4.000000,4.000000,4.000000,4.000000,4.000000,4.000000,4.000000,4.000000,4.000000,4.000000,4.000000,4.000000,4.000000,4.000000,4.000000,4.000000,4.000000,100.000000
1614131814.949763,37.000000,0.000000,-2.386465,13.137956,30.023746,29.788996,23.940809,20.254986,-0.302431,2.596510,14.449197,25.974791,25.473640,1.696998,15.435480,25.751225,12.892128,32.976971,9.958933,17.587959,-4.306944,14.093259,24.318159,15.164374,6.331455,12.476893,12.785327,12.735774,4.957757,8.362920,16.382818,14.316021,19.583612,24.556728,8064.000000,0.000000,4.000000,,,,0.000000,4.000000,4.000000,4.000000,4.000000,4.000000,4.000000,4.000000,4.000000,4.000000,4.000000,4.000000,4.000000,4.000000,4.000000,4.000000,4.000000,4.000000,4.000000,4.000000,4.000000,4.000000,4.000000,4.000000,4.000000,4.000000,4.000000,4.000000,4.000000,4.000000,4.000000,4.000000,4.000000,100.000000
1614131814.957612,38.000000,0.000000,-1.871258,12.611998,29.993723,29.246387,25.455330,20.234730,-0.302129,2.081093,15.460388,17.743687,25.448166,1.695301,5.163635,7.776756,4.161287,16.020916,3.795128,13.467806,-7.379560,8.438140,21.216917,13.097928,4.273842,15.028520,11.234079,12.723039,1.363055,8.354556,13.802334,12.250422,19.051208,24.532171,8192.000000,0.000000,4.000000,,,,0.000000,4.000000,4.000000,4.000000,4.000000,4.000000,4.000000,4.000000,4.000000,4.000000,4.000000,4.000000,4.000000,4.000000,4.000000,4.000000,4.000000,4.000000,4.000000,4.000000,4.000000,4.000000,4.000000,4.000000,4.000000,4.000000,4.000000,4.000000,4.000000,4.000000,4.000000,4.000000,4.000000,100.000000
1614131814.965361,39.000000,0.000000,-2.895027,13.625027,29.963730,26.140217,25.429876,20.214497,-0.301827,2.591832,14.932107,10.033636,25.935539,-1.896138,-10.226145,-12.743841,-20.458260,-5.020747,-12.618924,-2.955918,-29.423462,-12.595939,2.221341,4.879702,-1.884278,11.936567,9.171563,11.171854,-6.843436,6.807740,13.275711,10.699711,14.416773,24.507639,8192.000000,0.000000,4.000000,,,,0.000000,4.000000,4.000000,4.000000,4.000000,4.000000,4.000000,4.000000,4.000000,4.000000,4.000000,4.000000,4.000000,4.000000,4.000000,4.000000,4.000000,4.000000,4.000000,4.000000,4.000000,4.000000,4.000000,4.000000,4.000000,4.000000,4.000000,4.000000,4.000000,4.000000,4.000000,4.000000,4.000000,100.000000
1614131814.973210,40.000000,0.000000,-4.943415,13.098580,29.933765,26.114077,25.404446,20.194281,0.211296,2.076420,12.865893,10.023602,21.807039,-4.971165,-18.933867,-24.013149,-34.796776,-7.579828,-21.324253,-15.260654,-43.240192,-33.096165,-19.319342,-3.843126,-7.523419,-0.383061,8.649571,9.109400,-11.451978,4.236830,13.775255,10.689011,12.863894,24.483131,8064.000000,0.000000,4.000000,,,,0.000000,4.000000,4.000000,4.000000,4.000000,4.000000,4.000000,4.000000,4.000000,4.000000,4.000000,4.000000,4.000000,4.000000,4.000000,4.000000,4.000000,4.000000,4.000000,4.000000,4.000000,4.000000,4.000000,4.000000,4.000000,4.000000,4.000000,4.000000,4.000000,4.000000,4.000000,4.000000,4.000000,100.000000
1614131814.980959,41.000000,0.000000,-6.476933,8.470098,29.903831,26.600784,23.840580,20.174088,-0.301736,0.023061,11.314566,7.449476,7.939078,-8.043118,-20.453394,-35.271187,-35.274799,-11.674812,-22.841391,-17.296675,-46.786697,-33.575890,-24.428226,-5.377745,-9.567178,-10.126267,6.589640,9.100290,-11.953346,5.258235,13.761480,10.165502,12.851030,24.458649,8064.000000,0.000000,4.000000,,,,0.000000,4.000000,4.000000,4.000000,4.000000,4.000000,4.000000,4.000000,4.000000,4.000000,4.000000,4.000000,4.000000,4.000000,4.000000,4.000000,4.000000,4.000000,4.000000,4.000000,4.000000,4.000000,4.000000,4.000000,4.000000,4.000000,4.000000,4.000000,4.000000,4.000000,4.000000,4.000000,4.000000,100.000000
1614131814.988808,42.000000,0.000000,-6.470456,5.897525,29.361107,26.061361,21.765457,18.615452,-1.327075,-2.028244,11.303251,3.339463,-3.863732,-7.009433,-18.894480,-48.056427,-34.726704,-23.970831,-19.741627,-14.202456,-43.150166,-20.208979,-15.685850,-2.808264,-8.531970,-9.603321,6.070230,8.578370,-9.377290,7.817079,14.260539,13.232259,14.376641,24.434189,8064.000000,0.000000,4.000000,,,,0.000000,4.000000,4.000000,4.000000,4.000000,4.000000,4.000000,4.000000,4.000000,4.000000,4.000000,4.000000,4.000000,4.000000,4.000000,4.000000,4.000000,4.000000,4.000000,4.000000,4.000000,4.000000,4.000000,4.000000,4.000000,4.000000,4.000000,4.000000,4.000000,4.000000,4.000000,4.000000,4.000000,100.000000
1614131814.996558,43.000000,0.000000,-5.438344,8.455730,29.844566,26.035301,21.230871,16.545553,2.776816,-2.539036,10.266307,3.848944,0.242695,-0.335757,-10.670457,-43.392986,-21.871464,-10.613526,-1.773167,-5.983125,-25.671118,-7.881077,-9.516318,-0.241354,-6.472156,-7.542436,8.115441,8.056971,-3.214067,8.834903,16.810381,19.885693,19.490469,23.896935,8064.000000,0.000000,4.000000,,,,0.000000,4.000000,4.000000,4.000000,4.000000,4.000000,4.000000,4.000000,4.000000,4.000000,4.000000,4.000000,4.000000,4.000000,4.000000,4.000000,4.000000,4.000000,4.000000,4.000000,4.000000,4.000000,4.000000,4.000000,4.000000,4.000000,4.000000,4.000000,4.000000,4.000000,4.000000,4.000000,4.000000,100.000000
1614131815.004407,44.000000,0.000000,-3.381624,9.985736,29.814722,26.009266,21.722460,16.016188,6.876603,0.540426,10.768861,7.434838,9.986042,4.279963,-0.916197,-30.016260,-6.977798,10.422729,13.100401,1.715166,-21.030062,-4.283453,-7.455520,1.810170,-5.440043,-7.534893,7.081685,9.587376,0.891712,8.313247,18.332033,19.865807,20.496620,23.873037,8064.000000,0.000000,4.000000,,,,0.000000,4.000000,4.000000,4.000000,4.000000,4.000000,4.000000,4.000000,4.000000,4.000000,4.000000,4.000000,4.000000,4.000000,4.000000,4.000000,4.000000,4.000000,4.000000,4.000000,4.000000,4.000000,4.000000,4.000000,4.000000,4.000000,4.000000,4.000000,4.000000,4.000000,4.000000,4.000000,4.000000,100.000000
1614131815.012156,45.000000,0.000000,-1.839781,8.950109,29.272087,27.008898,21.700739,16.512993,3.792803,2.078347,12.296554,6.914583,5.360672,3.250042,-0.915281,-34.088810,-12.099025,3.232819,7.959095,2.739091,-36.393646,-4.791990,-5.396782,4.372462,-5.434603,-5.476076,5.023321,8.039327,0.890820,8.304934,15.749598,13.692096,13.296637,24.874805,8064.000000,0.000000,4.000000,,,,0.000000,4.000000,4.000000,4.000000,4.000000,4.000000,4.000000,4.000000,4.000000,4.000000,4.000000,4.000000,4.000000,4.000000,4.000000,4.000000,4.000000,4.000000,4.000000,4.000000,4.000000,4.000000,4.000000,4.000000,4.000000,4.000000,4.000000,4.000000,4.000000,4.000000,4.000000,4.000000,4.000000,100.000000
1614131815.020005,46.000000,0.000000,-1.837941,9.453979,26.678713,26.469069,21.679037,16.496479,-0.826374,-1.000654,4.591949,1.779463,-8.490843,1.708331,-8.606673,-49.439335,-20.804874,-8.565286,1.797290,-0.853391,-37.895718,-3.248736,-5.904206,3.342449,-5.429168,-4.444959,3.992657,3.928723,0.889929,8.809449,11.118464,10.601480,9.180776,22.798649,8064.000000,0.000000,4.000000,,,,0.000000,4.000000,4.000000,4.000000,4.000000,4.000000,4.000000,4.000000,4.000000,4.000000,4.000000,4.000000,4.000000,4.000000,4.000000,4.000000,4.000000,4.000000,4.000000,4.000000,4.000000,4.000000,4.000000,4.000000,4.000000,4.000000,4.000000,4.000000,4.000000,4.000000,4.000000,4.000000,4.000000,100.000000
1614131815.027754,47.000000,0.000000,-2.861744,8.931705,25.113571,25.929779,21.144537,16.479982,-0.825548,-0.486833,-1.053668,-1.299239,-6.943890,2.732264,-8.085246,-48.364254,-16.168686,1.186869,1.795493,-2.390999,-27.601410,1.369897,-0.770097,2.826286,-5.423739,-5.466155,5.527126,9.052999,0.889039,8.287820,9.568884,10.590878,9.684416,19.698927,8064.000000,0.000000,4.000000,,,,0.000000,4.000000,4.000000,4.000000,4.000000,4.000000,4.000000,4.000000,4.000000,4.000000,4.000000,4.000000,4.000000,4.000000,4.000000,4.000000,4.000000,4.000000,4.000000,4.000000,4.000000,4.000000,4.000000,4.000000,4.000000,4.000000,4.000000,4.000000,4.000000,4.000000,4.000000,4.000000,4.000000,100.000000
1614131815.035603,48.000000,0.000000,-1.320421,9.948414,26.626921,28.980772,21.123394,16.463503,0.200919,4.641859,12.793539,2.291804,5.883566,2.216711,5.768993,-24.213327,-5.896106,15.544657,1.280877,11.457545,-9.625091,14.701860,21.794775,14.618331,-3.879854,-3.409407,8.598522,21.351639,0.888150,8.792353,10.072135,13.144391,9.674731,22.756151,8064.000000,0.000000,4.000000,,,,0.000000,4.000000,4.000000,4.000000,4.000000,4.000000,4.000000,4.000000,4.000000,4.000000,4.000000,4.000000,4.000000,4.000000,4.000000,4.000000,4.000000,4.000000,4.000000,4.000000,4.000000,4.000000,4.000000,4.000000,4.000000,4.000000,4.000000,4.000000,4.000000,4.000000,4.000000,4.000000,4.000000,100.000000
1614131815.043352,49.000000,0.000000,1.757823,10.451286,26.087473,30.490252,23.666372,16.447039,-0.824923,6.688499,24.062798,6.904896,11.005888,2.214494,18.070917,1.451912,7.443123,25.785522,7.433442,27.856344,13.974278,29.046133,40.747341,27.424225,-0.286230,6.337592,12.692488,22.868750,1.400082,8.783560,10.574883,14.669707,10.177876,27.348780,8064.000000,0.000000,4.000000,,,,0.000000,4.000000,4.000000,4.000000,4.000000,4.000000,4.000000,4.000000,4.000000,4.000000,4.000000,4.000000,4.000000,4.000000,4.000000,4.000000,4.000000,4.000000,4.000000,4.000000,4.000000,4.000000,4.000000,4.000000,4.000000,4.000000,4.000000,4.000000,4.000000,4.000000,4.000000,4.000000,4.000000,100.000000
1614131815.051201,50.000000,0.000000,-1.320858,7.363912,19.907539,23.793095,19.540142,16.430592,-0.824098,6.168990,12.756683,7.923633,9.969241,2.725100,14.975923,7.604307,10.512603,24.734095,7.426009,15.520796,4.729535,19.273497,26.347618,18.166033,-3.362867,12.485101,12.679795,14.640752,-3.729523,5.697853,8.513026,10.552474,8.629237,23.731688,8064.000000,0.000000,4.000000,,,,0.000000,4.000000,4.000000,4.000000,4.000000,4.000000,4.000000,4.000000,4.000000,4.000000,4.000000,4.000000,4.000000,4.000000,4.000000,4.000000,4.000000,4.000000,4.000000,4.000000,4.000000,4.000000,4.000000,4.000000,4.000000,4.000000,4.000000,4.000000,4.000000,4.000000,4.000000,4.000000,4.000000,100.000000
1614131815.058950,51.000000,0.000000,-9.011845,6.843728,15.272246,17.615456,10.802653,16.414162,-0.310454,5.650001,8.128542,6.377247,9.959271,2.209554,5.730177,-3.685349,-6.933807,7.273464,-8.991673,-2.956264,-27.070066,-2.284238,-0.858216,1.224789,-10.538991,2.216205,11.641474,11.036367,-9.879640,1.076771,6.453232,6.439357,9.133429,21.143852,8064.000000,0.000000,4.000000,,,,0.000000,4.000000,4.000000,4.000000,4.000000,4.000000,4.000000,4.000000,4.000000,4.000000,4.000000,4.000000,4.000000,4.000000,4.000000,4.000000,4.000000,4.000000,4.000000,4.000000,4.000000,4.000000,4.000000,4.000000,4.000000,4.000000,4.000000,4.000000,4.000000,4.000000,4.000000,4.000000,4.000000,100.000000
1614131815.066599,52.000000,0.000000,-10.028474,11.452269,17.308256,19.649122,15.407235,16.397747,-0.310143,5.644351,20.428106,7.396511,10.974954,2.720165,2.647524,-7.784228,-13.080719,4.189268,-14.623708,6.277462,-24.478893,-2.281954,-5.985563,-0.314897,-4.374606,-5.478319,13.168294,14.102254,-11.408221,0.050053,5.933958,6.432918,13.739679,24.199633,8064.000000,0.000000,4.000000,,,,0.000000,4.000000,4.000000,4.000000,4.000000,4.000000,4.000000,4.000000,4.000000,4.000000,4.000000,4.000000,4.000000,4.000000,4.000000,4.000000,4.000000,4.000000,4.000000,4.000000,4.000000,4.000000,4.000000,4.000000,4.000000,4.000000,4.000000,4.000000,4.000000,4.000000,4.000000,4.000000,4.000000,100.000000
1614131815.074348,53.000000,0.000000,-6.941523,9.389534,19.342230,17.065371,21.545673,16.381350,-0.309833,6.664347,22.458960,10.978858,11.476799,6.307189,4.696159,-4.699521,0.778515,20.082514,-4.352674,12.937851,-13.685184,0.284431,-7.005219,3.275162,5.886178,3.245108,12.129485,13.062510,-9.858352,1.075644,6.440845,6.939306,10.136196,19.560047,8064.000000,0.000000,4.000000,,,,0.000000,4.000000,4.000000,4.000000,4.000000,4.000000,4.000000,4.000000,4.000000,4.000000,4.000000,4.000000,4.000000,4.000000,4.000000,4.000000,4.000000,4.000000,4.000000,4.000000,4.000000,4.000000,4.000000,4.000000,4.000000,4.000000,4.000000,4.000000,4.000000,4.000000,4.000000,4.000000,4.000000,100.000000
1614131815.081997,54.000000,0.000000,-5.908940,2.713478,18.297247,8.843178,10.754897,16.364967,-0.309523,4.606401,12.692911,10.455059,6.337117,4.249599,2.127360,-16.489693,-6.401751,9.806022,-4.861141,-8.613548,-39.825344,-17.151751,-23.921291,-1.856319,-0.786374,6.318787,5.963509,4.331500,-10.361314,0.561748,6.434403,6.419546,-0.130350,9.284078,8064.000000,0.000000,4.000000,,,,0.000000,4.000000,4.000000,4.000000,4.000000,4.000000,4.000000,4.000000,4.000000,4.000000,4.000000,4.000000,4.000000,4.000000,4.000000,4.000000,4.000000,4.000000,4.000000,4.000000,4.000000,4.000000,4.000000,4.000000,4.000000,4.000000,4.000000,4.000000,4.000000,4.000000,4.000000,4.000000,4.000000,100.000000
1614131815.089746,55.000000,0.000000,-5.390211,3.223585,18.278950,9.859975,-0.025088,16.348602,-0.309214,-2.064872,10.116116,1.213835,-3.925630,-4.472599,-9.669640,-36.473202,-29.472271,-19.947374,-14.087049,-23.476730,-63.375263,-31.493574,-34.666599,-5.957026,-13.093280,-7.533686,0.829341,-1.826678,-10.863773,0.561186,6.427969,7.951588,2.946703,8.761973,8064.000000,0.000000,4.000000,,,,0.000000,4.000000,4.000000,4.000000,4.000000,4.000000,4.000000,4.000000,4.000000,4.000000,4.000000,4.000000,4.000000,4.000000,4.000000,4.000000,4.000000,4.000000,4.000000,4.000000,4.000000,4.000000,4.000000,4.000000,4.000000,4.000000,4.000000,4.000000,4.000000,4.000000,4.000000,4.000000,4.000000,100.000000
1614131815.097395,56.000000,0.000000,-7.436102,6.810105,18.773491,18.055244,4.590322,16.332254,-0.308904,-6.165371,10.618820,-6.992507,-9.049910,-9.596332,-20.429201,-47.718781,-36.109467,-25.568453,-14.585783,-19.350689,-62.286247,-29.923618,-27.452446,-4.925428,-13.593007,-14.705640,0.315691,0.226431,-10.852909,3.124727,6.421541,10.507739,13.200167,12.855775,8064.000000,0.000000,4.000000,,,,0.000000,4.000000,4.000000,4.000000,4.000000,4.000000,4.000000,4.000000,4.000000,4.000000,4.000000,4.000000,4.000000,4.000000,4.000000,4.000000,4.000000,4.000000,4.000000,4.000000,4.000000,4.000000,4.000000,4.000000,4.000000,4.000000,4.000000,4.000000,4.000000,4.000000,4.000000,4.000000,4.000000,100.000000
1614131815.105145,57.000000,0.000000,-8.967128,5.777654,18.754717,20.088470,7.662654,16.315922,-0.308595,-5.646385,5.479996,-8.523976,-8.528039,-9.073915,-20.408772,-54.337730,-36.586178,-17.337755,-13.032736,-22.921082,-60.685501,-27.329592,-20.758327,-3.894862,-11.528132,-9.049909,1.341016,2.277486,-10.329236,5.172885,6.415120,11.010052,12.161325,13.355740,8064.000000,0.000000,4.000000,,,,0.000000,4.000000,4.000000,4.000000,4.000000,4.000000,4.000000,4.000000,4.000000,4.000000,4.000000,4.000000,4.000000,4.000000,4.000000,4.000000,4.000000,4.000000,4.000000,4.000000,4.000000,4.000000,4.000000,4.000000,4.000000,4.000000,4.000000,4.000000,4.000000,4.000000,4.000000,4.000000,4.000000,100.000000
1614131815.112794,58.000000,0.000000,-6.906878,5.259056,18.223143,18.017099,6.629351,16.299606,-0.308287,-5.127919,2.397593,-8.515452,-8.519511,-8.552020,-18.849901,-63.514160,-42.190617,-19.371700,-13.019703,-28.539186,-56.009430,-24.225340,-18.686287,-2.865326,-12.542245,-8.528038,0.826854,0.736747,-9.806086,4.654891,6.408705,10.486221,9.072242,15.393666,8064.000000,0.000000,4.000000,,,,0.000000,4.000000,4.000000,4.000000,4.000000,4.000000,4.000000,4.000000,4.000000,4.000000,4.000000,4.000000,4.000000,4.000000,4.000000,4.000000,4.000000,4.000000,4.000000,4.000000,4.000000,4.000000,4.000000,4.000000,4.000000,4.000000,4.000000,4.000000,4.000000,4.000000,4.000000,4.000000,4.000000,100.000000
1614131815.120543,59.000000,0.000000,-6.899972,5.253797,17.692099,19.024723,8.674004,16.283306,-0.307979,-6.148432,3.420836,-7.994117,-9.536633,-9.569109,-21.907974,-68.066032,-33.943298,-17.813868,-9.929760,-14.151672,-38.004704,-14.970345,-8.411190,1.752924,-10.478421,-9.545151,0.313207,1.248831,-10.821921,4.650237,5.889475,10.475735,12.140092,18.968016,8064.000000,0.000000,4.000000,,,,0.000000,4.000000,4.000000,4.000000,4.000000,4.000000,4.000000,4.000000,4.000000,4.000000,4.000000,4.000000,4.000000,4.000000,4.000000,4.000000,4.000000,4.000000,4.000000,4.000000,4.000000,4.000000,4.000000,4.000000,4.000000,4.000000,4.000000,4.000000,4.000000,4.000000,4.000000,4.000000,4.000000,100.000000
1614131815.128192,60.000000,0.000000,-9.457174,5.248543,18.187227,19.518520,8.665329,16.267023,-0.820491,-5.629463,3.417415,-5.422020,-9.014276,-9.559540,-17.270681,-59.280018,-15.960636,-4.975541,-5.304446,8.426581,-20.017979,-3.160503,8.520298,11.494761,-8.416660,0.720804,2.876997,1.247582,-9.785458,4.645586,6.396406,10.465259,13.666413,21.000330,8064.000000,0.000000,4.000000,,,,0.000000,4.000000,4.000000,4.000000,4.000000,4.000000,4.000000,4.000000,4.000000,4.000000,4.000000,4.000000,4.000000,4.000000,4.000000,4.000000,4.000000,4.000000,4.000000,4.000000,4.000000,4.000000,4.000000,4.000000,4.000000,4.000000,4.000000,4.000000,4.000000,4.000000,4.000000,4.000000,4.000000,100.000000
1614131815.135941,61.000000,0.000000,-8.422076,5.756115,18.169041,18.986181,8.143844,16.250757,-0.306850,-5.623833,3.413998,-4.390957,-7.979620,-8.524340,-8.022641,-38.195095,-5.175445,4.773025,-0.683757,18.674564,-9.228730,5.560606,20.306650,20.714035,-8.921064,10.463674,7.489504,2.784796,-3.109006,4.640941,8.441292,10.454794,13.139927,20.466509,8064.000000,0.000000,4.000000,,,,0.000000,4.000000,4.000000,4.000000,4.000000,4.000000,4.000000,4.000000,4.000000,4.000000,4.000000,4.000000,4.000000,4.000000,4.000000,4.000000,4.000000,4.000000,4.000000,4.000000,4.000000,4.000000,4.000000,4.000000,4.000000,4.000000,4.000000,4.000000,4.000000,4.000000,4.000000,4.000000,4.000000,100.000000
1614131815.143590,62.000000,0.000000,-5.336731,4.724718,17.125231,18.454374,12.238264,16.234507,-0.306543,-5.105389,3.410584,-4.386566,-6.946000,-6.977354,-5.450516,-17.131260,-4.144629,7.845175,1.881030,17.630249,-7.168220,6.580687,21.311983,22.744602,-8.912143,10.453210,9.020476,5.858934,1.509488,4.636300,10.484133,9.931519,11.588326,18.907581,8064.000000,0.000000,4.000000,,,,0.000000,4.000000,4.000000,4.000000,4.000000,4.000000,4.000000,4.000000,4.000000,4.000000,4.000000,4.000000,4.000000,4.000000,4.000000,4.000000,4.000000,4.000000,4.000000,4.000000,4.000000,4.000000,4.000000,4.000000,4.000000,4.000000,4.000000,4.000000,4.000000,4.000000,4.000000,4.000000,4.000000,100.000000
1614131815.151339,63.000000,0.000000,-5.844215,6.258454,22.236309,18.948740,14.790128,16.218271,-1.331878,-2.023360,3.407173,1.258846,-3.349310,-4.919094,-2.368143,-7.883358,-3.627664,12.452714,1.879149,18.125441,-11.263616,5.035645,20.265030,21.183397,-8.903231,9.417115,8.498635,8.929998,-1.568945,4.631663,9.448008,10.434407,13.115198,25.042521,8064.000000,0.000000,4.000000,,,,0.000000,4.000000,4.000000,4.000000,4.000000,4.000000,4.000000,4.000000,4.000000,4.000000,4.000000,4.000000,4.000000,4.000000,4.000000,4.000000,4.000000,4.000000,4.000000,4.000000,4.000000,4.000000,4.000000,4.000000,4.000000,4.000000,4.000000,4.000000,4.000000,4.000000,4.000000,4.000000,4.000000,100.000000
1614131815.158989,64.000000,0.000000,-5.325550,14.457324,34.008945,21.493895,16.313799,16.202053,1.233557,4.645329,8.531971,9.975536,5.371988,-0.298790,8.916277,1.868114,5.606733,19.619749,3.415731,23.748341,-4.072865,13.235737,24.860151,22.187855,-8.894328,9.920519,9.002957,9.433889,-3.105837,4.627032,10.464201,12.988075,22.845673,38.863632,0.000000,194.000000,4.000000,,,,0.000000,4.000000,4.000000,4.000000,4.000000,4.000000,4.000000,4.000000,4.000000,4.000000,4.000000,4.000000,4.000000,4.000000,4.000000,4.000000,4.000000,4.000000,4.000000,4.000000,4.000000,4.000000,4.000000,4.000000,4.000000,4.000000,4.000000,4.000000,4.000000,4.000000,4.000000,4.000000,4.000000,100.000000
1614131815.166738,65.000000,0.000000,-2.243301,20.596714,38.077499,22.498041,17.835947,16.185850,7.898990,11.307351,14.677285,14.068125,12.546103,5.855355,16.086847,16.738041,18.421638,24.728334,5.976418,28.852797,6.700438,17.837887,22.271187,21.652845,-7.346972,10.936239,8.481133,8.911634,-2.589911,4.622405,13.017839,11.949447,26.925392,42.414513,0.000000,159.000000,4.000000,,,,0.000000,4.000000,4.000000,4.000000,4.000000,4.000000,4.000000,4.000000,4.000000,4.000000,4.000000,4.000000,4.000000,4.000000,4.000000,4.000000,4.000000,4.000000,4.000000,4.000000,4.000000,4.000000,4.000000,4.000000,4.000000,4.000000,4.000000,4.000000,4.000000,4.000000,4.000000,4.000000,4.000000,100.000000
1614131815.174387,66.000000,0.000000,-1.728238,20.576117,36.500961,21.962723,17.818111,16.169664,11.480834,13.860147,15.688250,14.566877,14.584839,7.387961,14.019479,18.259766,17.890398,27.780529,4.944800,26.772661,-3.562672,7.563638,6.351480,17.015808,-5.288343,9.386842,8.472652,8.389903,-3.100142,4.104962,13.517642,10.399035,20.744619,35.705429,0.000000,198.000000,4.000000,,,,0.000000,4.000000,4.000000,4.000000,4.000000,4.000000,4.000000,4.000000,4.000000,4.000000,4.000000,4.000000,4.000000,4.000000,4.000000,4.000000,4.000000,4.000000,4.000000,4.000000,4.000000,4.000000,4.000000,4.000000,4.000000,4.000000,4.000000,4.000000,4.000000,4.000000,4.000000,4.000000,4.000000,100.000000
1614131815.182136,67.000000,0.000000,-2.239330,20.555540,38.002922,22.453581,18.313114,16.153496,10.443712,12.820645,14.646920,14.552310,14.570254,4.816470,13.492639,5.933813,7.103276,21.598902,5.452676,16.489479,-26.123213,-0.136233,-6.475384,13.409049,-4.770234,6.300532,11.541102,9.407154,-1.558580,4.613678,13.504124,12.952739,23.287977,34.644085,0.000000,177.000000,4.000000,,,,0.000000,4.000000,4.000000,4.000000,4.000000,4.000000,4.000000,4.000000,4.000000,4.000000,4.000000,4.000000,4.000000,4.000000,4.000000,4.000000,4.000000,4.000000,4.000000,4.000000,4.000000,4.000000,4.000000,4.000000,4.000000,4.000000,4.000000,4.000000,4.000000,4.000000,4.000000,4.000000,4.000000,100.000000
1614131815.189785,68.000000,0.000000,-2.237091,20.022163,34.375175,22.431126,18.294800,16.137342,10.433269,13.833466,15.145094,14.537758,11.478761,2.760372,14.504787,-5.866993,-6.237161,0.038842,4.934403,5.703759,-38.404781,-0.136097,-9.033010,10.831538,-5.278285,5.781411,11.016741,11.961849,-0.018560,7.173166,13.490620,13.452607,26.341614,34.096619,0.000000,180.000000,4.000000,,,,0.000000,4.000000,4.000000,4.000000,4.000000,4.000000,4.000000,4.000000,4.000000,4.000000,4.000000,4.000000,4.000000,4.000000,4.000000,4.000000,4.000000,4.000000,4.000000,4.000000,4.000000,4.000000,4.000000,4.000000,4.000000,4.000000,4.000000,4.000000,4.000000,4.000000,4.000000,4.000000,4.000000,100.000000
1614131815.197634,69.000000,0.000000,-2.234854,14.873937,22.545929,19.331772,11.609839,15.608384,10.935657,12.793991,15.129949,12.984758,5.313436,2.244791,13.464642,-17.143177,-22.641180,-16.371454,-1.224378,-1.481432,-40.417660,-9.366731,-12.613722,10.307886,-6.811468,6.288450,5.877519,12.462708,-4.121105,8.704454,12.964309,10.362231,14.520400,24.318932,0.000000,186.000000,4.000000,,,,0.000000,4.000000,4.000000,4.000000,4.000000,4.000000,4.000000,4.000000,4.000000,4.000000,4.000000,4.000000,4.000000,4.000000,4.000000,4.000000,4.000000,4.000000,4.000000,4.000000,4.000000,4.000000,4.000000,4.000000,4.000000,4.000000,4.000000,4.000000,4.000000,4.000000,4.000000,4.000000,4.000000,100.000000
1614131815.205383,70.000000,0.000000,-2.232619,12.294960,16.369537,19.312441,7.495665,16.105597,10.924721,7.140171,14.601998,9.894851,2.231200,2.242546,13.451177,-29.433727,-31.849308,-11.739697,-6.351358,-10.710720,-45.505447,-22.690697,-15.165211,9.271936,-8.855938,0.128315,5.358821,11.937425,-7.193907,8.182930,13.976986,10.351869,9.890494,19.679230,0.000000,169.000000,4.000000,,,,0.000000,4.000000,4.000000,4.000000,4.000000,4.000000,4.000000,4.000000,4.000000,4.000000,4.000000,4.000000,4.000000,4.000000,4.000000,4.000000,4.000000,4.000000,4.000000,4.000000,4.000000,4.000000,4.000000,4.000000,4.000000,4.000000,4.000000,4.000000,4.000000,4.000000,4.000000,4.000000,4.000000,100.000000
1614131815.213232,71.000000,0.000000,-2.230386,14.333947,17.891628,23.908512,11.590734,18.140772,10.400975,5.081749,14.587396,10.397777,2.228968,2.240304,13.437725,-34.019676,-27.202074,-5.574111,-7.370648,-18.392317,-48.536865,-20.616724,-6.432096,9.262665,-8.334262,-6.538480,10.481668,13.463948,-7.186714,8.174747,16.527111,13.418440,20.649836,22.736473,0.000000,163.000000,4.000000,,,,0.000000,4.000000,4.000000,4.000000,4.000000,4.000000,4.000000,4.000000,4.000000,4.000000,4.000000,4.000000,4.000000,4.000000,4.000000,4.000000,4.000000,4.000000,4.000000,4.000000,4.000000,4.000000,4.000000,4.000000,4.000000,4.000000,4.000000,4.000000,4.000000,4.000000,4.000000,4.000000,4.000000,100.000000
1614131815.220981,72.000000,0.000000,-2.228156,16.370895,18.386557,26.448708,15.168886,19.661093,9.877753,8.153590,14.059988,12.951481,2.226739,2.238063,13.424288,-27.318991,-17.944103,-6.081358,-5.824816,-6.579053,-31.565250,-2.134569,12.035874,14.381607,-6.274645,-3.455018,12.522468,16.014587,-7.179527,8.166572,17.536224,14.430663,24.218929,23.739378,0.000000,208.000000,4.000000,,,,0.000000,4.000000,4.000000,4.000000,4.000000,4.000000,4.000000,4.000000,4.000000,4.000000,4.000000,4.000000,4.000000,4.000000,4.000000,4.000000,4.000000,4.000000,4.000000,4.000000,4.000000,4.000000,4.000000,4.000000,4.000000,4.000000,4.000000,4.000000,4.000000,4.000000,4.000000,4.000000,4.000000,100.000000
1614131815.228830,73.000000,0.000000,-2.225927,16.354525,17.342529,25.396618,13.615256,19.641432,10.893517,9.683898,14.558748,13.964170,2.737333,2.235825,13.410864,-16.009621,-9.721030,5.206775,-1.203606,17.017269,-6.405479,20.431667,32.023838,23.085175,-5.242730,5.266386,13.022766,16.511393,-5.633886,8.158405,17.005869,13.903412,20.092146,22.689997,0.000000,221.000000,4.000000,,,,0.000000,4.000000,4.000000,4.000000,4.000000,4.000000,4.000000,4.000000,4.000000,4.000000,4.000000,4.000000,4.000000,4.000000,4.000000,4.000000,4.000000,4.000000,4.000000,4.000000,4.000000,4.000000,4.000000,4.000000,4.000000,4.000000,4.000000,4.000000,4.000000,4.000000,4.000000,4.000000,4.000000,100.000000
1614131815.236579,74.000000,0.000000,-2.223701,15.312530,17.838007,25.371220,13.601641,19.621792,9.856982,8.648573,14.544189,13.950207,5.298698,2.233589,13.397452,-3.685919,-0.480540,21.099005,4.438623,26.231022,-0.758048,29.129185,44.299507,25.113371,-2.673384,9.363683,17.625128,15.469241,-0.500047,8.150247,16.988863,13.889508,18.020771,23.180128,0.000000,184.000000,4.000000,,,,0.000000,4.000000,4.000000,4.000000,4.000000,4.000000,4.000000,4.000000,4.000000,4.000000,4.000000,4.000000,4.000000,4.000000,4.000000,4.000000,4.000000,4.000000,4.000000,4.000000,4.000000,4.000000,4.000000,4.000000,4.000000,4.000000,4.000000,4.000000,4.000000,4.000000,4.000000,4.000000,4.000000,100.000000
1614131815.244428,75.000000,0.000000,-2.221478,13.245934,18.332991,25.858669,14.100860,19.602169,4.718920,8.639925,13.504004,13.936256,7.344682,2.231356,13.384055,8.112639,6.186607,23.129187,5.459825,22.615047,-6.911136,20.894928,43.742386,25.088259,-2.157891,9.354320,20.684425,16.479412,1.038915,8.142097,16.971874,13.875619,12.874545,23.669767,0.000000,214.000000,4.000000,,,,0.000000,4.000000,4.000000,4.000000,4.000000,4.000000,4.000000,4.000000,4.000000,4.000000,4.000000,4.000000,4.000000,4.000000,4.000000,4.000000,4.000000,4.000000,4.000000,4.000000,4.000000,4.000000,4.000000,4.000000,4.000000,4.000000,4.000000,4.000000,4.000000,4.000000,4.000000,4.000000,4.000000,100.000000
1614131815.252177,76.000000,0.000000,-2.219256,12.207047,18.314657,25.832811,14.086759,19.582567,3.688560,9.144105,16.567423,13.922320,9.901440,2.229125,13.370671,17.335295,8.231703,23.618877,4.941545,21.053970,-7.929866,13.694546,38.570438,25.575991,-5.745476,9.344965,19.125280,15.950112,0.525055,8.133955,16.442081,13.861743,9.271928,23.646097,0.000000,182.000000,4.000000,,,,0.000000,4.000000,4.000000,4.000000,4.000000,4.000000,4.000000,4.000000,4.000000,4.000000,4.000000,4.000000,4.000000,4.000000,4.000000,4.000000,4.000000,4.000000,4.000000,4.000000,4.000000,4.000000,4.000000,4.000000,4.000000,4.000000,4.000000,4.000000,4.000000,4.000000,4.000000,4.000000,4.000000,100.000000
1614131815.260026,77.000000,0.000000,-2.729858,12.194840,17.783522,25.294157,14.072672,19.562984,8.813077,9.134961,21.166241,13.908398,12.968461,2.226895,13.870121,21.933346,8.223471,32.313210,5.449424,22.571379,-7.409116,14.193671,36.480587,21.447849,-9.329474,9.848441,16.029232,13.370060,1.037351,8.125821,16.425638,13.847881,11.826758,23.622452,0.000000,195.000000,4.000000,,,,0.000000,4.000000,4.000000,4.000000,4.000000,4.000000,4.000000,4.000000,4.000000,4.000000,4.000000,4.000000,4.000000,4.000000,4.000000,4.000000,4.000000,4.000000,4.000000,4.000000,4.000000,4.000000,4.000000,4.000000,4.000000,4.000000,4.000000,4.000000,4.000000,4.000000,4.000000,4.000000,4.000000,100.000000
1614131815.267775,78.000000,0.000000,-2.214307,12.182646,17.765739,25.268864,13.032958,19.543421,10.855546,9.125826,21.145075,13.894489,13.981133,2.224669,12.830609,19.860130,7.702427,29.716793,5.956795,22.548807,-8.940168,8.538452,29.264620,15.272556,-8.807324,9.838593,15.500381,11.818229,0.010673,7.604874,16.922033,13.834033,12.840572,23.598829,0.000000,192.000000,4.000000,,,,0.000000,4.000000,4.000000,4.000000,4.000000,4.000000,4.000000,4.000000,4.000000,4.000000,4.000000,4.000000,4.000000,4.000000,4.000000,4.000000,4.000000,4.000000,4.000000,4.000000,4.000000,4.000000,4.000000,4.000000,4.000000,4.000000,4.000000,4.000000,4.000000,4.000000,4.000000,4.000000,4.000000,100.000000
1614131815.275624,79.000000,0.000000,-1.699272,12.683284,18.260794,25.756414,15.071207,19.523878,9.819049,9.116700,18.047007,13.880595,13.454332,2.222444,9.740856,15.224885,7.181904,20.969128,5.438018,16.885233,-15.597895,-2.752137,16.927662,12.693181,-8.798517,9.828753,15.997702,12.319231,-2.553441,8.110090,16.905111,13.820199,12.314911,23.575232,0.000000,182.000000,4.000000,,,,0.000000,4.000000,4.000000,4.000000,4.000000,4.000000,4.000000,4.000000,4.000000,4.000000,4.000000,4.000000,4.000000,4.000000,4.000000,4.000000,4.000000,4.000000,4.000000,4.000000,4.000000,4.000000,4.000000,4.000000,4.000000,4.000000,4.000000,4.000000,4.000000,4.000000,4.000000,4.000000,4.000000,100.000000
1614131815.283373,80.000000,0.000000,-3.236035,12.157780,17.729712,25.217838,19.671520,19.504354,11.860513,8.594764,17.516138,13.866714,13.440878,2.220221,8.705474,10.081455,6.661901,22.486620,3.894118,13.791424,-23.787424,-3.775026,8.192785,12.680488,-9.302539,9.306105,13.930422,11.281270,-3.576528,10.153262,14.836925,12.780738,11.276956,23.038836,0.000000,202.000000,4.000000,,,,0.000000,4.000000,4.000000,4.000000,4.000000,4.000000,4.000000,4.000000,4.000000,4.000000,4.000000,4.000000,4.000000,4.000000,4.000000,4.000000,4.000000,4.000000,4.000000,4.000000,4.000000,4.000000,4.000000,4.000000,4.000000,4.000000,4.000000,4.000000,4.000000,4.000000,4.000000,4.000000,4.000000,100.000000
1614131815.291222,81.000000,0.000000,-0.155876,12.145622,17.199162,24.166979,20.677490,19.484850,14.412754,10.124630,18.011444,13.852848,13.427437,2.218001,11.260871,0.840604,4.603958,13.233363,4.403045,13.264812,-25.302099,-2.745610,-5.148740,14.206269,-9.806057,8.783978,8.788286,12.295630,-3.060131,11.681570,18.924652,13.280778,10.752858,22.502975,0.000000,181.000000,4.000000,,,,0.000000,4.000000,4.000000,4.000000,4.000000,4.000000,4.000000,4.000000,4.000000,4.000000,4.000000,4.000000,4.000000,4.000000,4.000000,4.000000,4.000000,4.000000,4.000000,4.000000,4.000000,4.000000,4.000000,4.000000,4.000000,4.000000,4.000000,4.000000,4.000000,4.000000,4.000000,4.000000,4.000000,100.000000
1614131815.298971,82.000000,0.000000,4.972486,16.236040,20.258886,28.245377,21.169634,19.465364,13.885521,13.191428,18.506252,13.326174,13.414009,2.215783,6.634226,-7.878185,-3.605775,-13.446537,6.449924,-0.594607,-36.558849,-11.460814,-25.143591,7.525396,-8.770610,9.800835,7.241037,16.898720,-3.057071,13.721170,27.110855,13.780317,18.434412,23.506113,0.000000,194.000000,4.000000,,,,0.000000,4.000000,4.000000,4.000000,4.000000,4.000000,4.000000,4.000000,4.000000,4.000000,4.000000,4.000000,4.000000,4.000000,4.000000,4.000000,4.000000,4.000000,4.000000,4.000000,4.000000,4.000000,4.000000,4.000000,4.000000,4.000000,4.000000,4.000000,4.000000,4.000000,4.000000,4.000000,4.000000,100.000000
1614131815.306621,83.000000,0.000000,3.941872,19.809547,24.341190,31.806875,21.148464,19.445900,13.871635,12.152596,16.949286,13.312848,12.374954,2.213567,-7.218562,-11.972871,-15.909861,-19.586937,-2.274475,-14.952987,-54.471008,-20.167301,-33.323578,-6.328283,-9.787480,6.201291,6.720975,19.445923,-5.105296,15.245911,25.545282,12.228076,23.031363,22.456966,0.000000,196.000000,4.000000,,,,0.000000,4.000000,4.000000,4.000000,4.000000,4.000000,4.000000,4.000000,4.000000,4.000000,4.000000,4.000000,4.000000,4.000000,4.000000,4.000000,4.000000,4.000000,4.000000,4.000000,4.000000,4.000000,4.000000,4.000000,4.000000,4.000000,4.000000,4.000000,4.000000,4.000000,4.000000,4.000000,4.000000,100.000000
1614131815.314370,84.000000,0.000000,-1.703096,19.789738,25.342491,28.185324,17.537571,19.426455,13.857764,8.550700,14.368233,13.812356,12.875400,1.698533,-12.852369,-10.935257,-14.868310,4.022394,-10.477329,-2.117520,-42.621666,-17.070211,-20.982561,-5.296314,-9.777693,-0.984398,7.739895,19.426477,-7.151473,15.230665,20.904354,14.267130,21.469870,21.921688,0.000000,214.000000,4.000000,,,,0.000000,4.000000,4.000000,4.000000,4.000000,4.000000,4.000000,4.000000,4.000000,4.000000,4.000000,4.000000,4.000000,4.000000,4.000000,4.000000,4.000000,4.000000,4.000000,4.000000,4.000000,4.000000,4.000000,4.000000,4.000000,4.000000,4.000000,4.000000,4.000000,4.000000,4.000000,4.000000,4.000000,100.000000
1614131815.322019,85.000000,0.000000,-2.727034,20.282770,25.317148,30.721241,19.571316,19.407026,13.843906,9.567790,15.892326,13.285723,14.913807,3.235296,-4.634389,-2.206373,0.531174,18.890167,1.328020,15.833315,-18.476479,-4.232628,-1.474398,12.657701,-2.075608,-0.983414,17.475744,22.483974,-6.118680,15.215434,26.011654,25.022093,32.730450,31.130537,0.000000,187.000000,4.000000,,,,0.000000,4.000000,4.000000,4.000000,4.000000,4.000000,4.000000,4.000000,4.000000,4.000000,4.000000,4.000000,4.000000,4.000000,4.000000,4.000000,4.000000,4.000000,4.000000,4.000000,4.000000,4.000000,4.000000,4.000000,4.000000,4.000000,4.000000,4.000000,4.000000,4.000000,4.000000,4.000000,4.000000,100.000000
1614131815.329768,86.000000,0.000000,-1.698665,23.339409,27.855934,44.023853,29.295334,19.387621,14.342883,17.763351,21.004639,13.272437,15.924534,5.283343,4.601015,9.077885,6.684488,17.845636,15.685667,15.304661,-16.406721,11.669041,19.039896,25.978376,5.105955,8.248339,28.227501,28.102516,-4.061280,15.200219,32.652309,34.740662,47.569515,43.407097,0.000000,192.000000,4.000000,,,,0.000000,4.000000,4.000000,4.000000,4.000000,4.000000,4.000000,4.000000,4.000000,4.000000,4.000000,4.000000,4.000000,4.000000,4.000000,4.000000,4.000000,4.000000,4.000000,4.000000,4.000000,4.000000,4.000000,4.000000,4.000000,4.000000,4.000000,4.000000,4.000000,4.000000,4.000000,4.000000,4.000000,100.000000
1614131815.337417,87.000000,0.000000,-2.209787,23.828890,29.366539,48.082394,31.317322,19.368233,13.302899,20.822510,22.009275,18.387369,18.985533,6.303701,10.237439,18.812397,7.703445,24.494457,17.208443,30.161152,3.609686,30.118910,43.636242,35.695988,6.639311,16.445219,30.763374,29.612875,-2.005936,15.185019,31.081196,35.731560,43.419384,45.927795,0.000000,217.000000,4.000000,,,,0.000000,4.000000,4.000000,4.000000,4.000000,4.000000,4.000000,4.000000,4.000000,4.000000,4.000000,4.000000,4.000000,4.000000,4.000000,4.000000,4.000000,4.000000,4.000000,4.000000,4.000000,4.000000,4.000000,4.000000,4.000000,4.000000,4.000000,4.000000,4.000000,4.000000,4.000000,4.000000,4.000000,100.000000
1614131815.345166,88.000000,0.000000,-2.720398,23.292242,28.824352,42.393288,28.209082,19.348864,14.315237,19.776047,21.474445,25.035648,26.658855,8.348680,14.329766,33.152557,21.541895,35.239193,19.242516,57.310478,36.426590,43.934944,60.002861,43.865421,9.196774,24.121080,33.296715,30.608902,0.047352,15.169834,31.050114,35.183010,39.273399,44.856224,0.000000,185.000000,4.000000,,,,0.000000,4.000000,4.000000,4.000000,4.000000,4.000000,4.000000,4.000000,4.000000,4.000000,4.000000,4.000000,4.000000,4.000000,4.000000,4.000000,4.000000,4.000000,4.000000,4.000000,4.000000,4.000000,4.000000,4.000000,4.000000,4.000000,4.000000,4.000000,4.000000,4.000000,4.000000,4.000000,4.000000,100.000000
1614131815.352815,89.000000,0.000000,-2.204857,23.268950,28.795528,39.786789,28.180872,19.329515,17.377846,20.781912,21.965792,23.472153,28.683477,10.904433,14.315436,40.298893,25.110098,33.665493,17.684813,47.509579,21.005548,33.634602,50.712090,33.565144,9.700397,29.225166,32.750599,30.578293,1.072945,15.154664,31.531885,36.173466,44.362331,46.349831,0.000000,214.000000,4.000000,,,,0.000000,4.000000,4.000000,4.000000,4.000000,4.000000,4.000000,4.000000,4.000000,4.000000,4.000000,4.000000,4.000000,4.000000,4.000000,4.000000,4.000000,4.000000,4.000000,4.000000,4.000000,4.000000,4.000000,4.000000,4.000000,4.000000,4.000000,4.000000,4.000000,4.000000,4.000000,4.000000,4.000000,100.000000
1614131815.360565,90.000000,0.000000,-1.689832,23.245680,28.766733,37.182899,24.562948,19.310186,15.822005,17.684206,18.354082,18.320475,20.962486,6.790965,10.711377,22.822697,5.597807,22.349775,1.256871,15.154375,-11.323151,5.908658,27.071634,14.557220,0.459928,24.067736,23.999897,29.522074,1.071872,15.139509,26.884968,34.086010,37.651302,40.149635,0.000000,211.000000,4.000000,,,,0.000000,4.000000,4.000000,4.000000,4.000000,4.000000,4.000000,4.000000,4.000000,4.000000,4.000000,4.000000,4.000000,4.000000,4.000000,4.000000,4.000000,4.000000,4.000000,4.000000,4.000000,4.000000,4.000000,4.000000,4.000000,4.000000,4.000000,4.000000,4.000000,4.000000,4.000000,4.000000,4.000000,100.000000
1614131815.368214,91.000000,0.000000,-2.200962,23.735254,26.686684,30.479052,17.871717,19.290876,10.677979,8.435754,14.233164,17.276514,16.326139,2.168789,7.110922,5.363976,-6.715483,17.199221,-11.052078,8.985374,-12.337468,-3.328020,18.326612,8.901637,-5.181557,14.812898,18.847692,26.928450,0.557980,15.124370,23.268339,32.000645,26.331598,30.365894,0.000000,188.000000,4.000000,,,,0.000000,4.000000,4.000000,4.000000,4.000000,4.000000,4.000000,4.000000,4.000000,4.000000,4.000000,4.000000,4.000000,4.000000,4.000000,4.000000,4.000000,4.000000,4.000000,4.000000,4.000000,4.000000,4.000000,4.000000,4.000000,4.000000,4.000000,4.000000,4.000000,4.000000,4.000000,4.000000,4.000000,100.000000
1614131815.375963,92.000000,0.000000,-2.198761,23.198700,25.121536,27.371649,16.315384,19.271585,9.128839,4.324753,13.706110,17.259237,17.335455,2.679440,5.565350,6.384254,-3.119024,18.720482,-10.528206,21.284082,1.008203,1.803513,20.872389,9.405556,-2.612273,13.259624,18.316025,25.363060,1.070243,15.622066,23.245071,30.943003,25.279627,28.797068,0.000000,196.000000,4.000000,,,,0.000000,4.000000,4.000000,4.000000,4.000000,4.000000,4.000000,4.000000,4.000000,4.000000,4.000000,4.000000,4.000000,4.000000,4.000000,4.000000,4.000000,4.000000,4.000000,4.000000,4.000000,4.000000,4.000000,4.000000,4.000000,4.000000,4.000000,4.000000,4.000000,4.000000,4.000000,4.000000,4.000000,100.000000
1614131815.383612,93.000000,0.000000,-1.683742,22.662680,24.070772,27.857098,16.299068,19.252314,10.145351,7.910172,13.692404,18.267618,17.318119,1.138300,7.098246,0.736844,-8.756930,13.573557,-10.517677,9.467926,-24.121010,-9.993162,4.954081,3.755125,-4.660943,13.246364,11.631042,27.388979,1.069172,15.093623,23.734646,28.860777,24.741526,30.306732,0.000000,219.000000,4.000000,,,,0.000000,4.000000,4.000000,4.000000,4.000000,4.000000,4.000000,4.000000,4.000000,4.000000,4.000000,4.000000,4.000000,4.000000,4.000000,4.000000,4.000000,4.000000,4.000000,4.000000,4.000000,4.000000,4.000000,4.000000,4.000000,4.000000,4.000000,4.000000,4.000000,4.000000,4.000000,4.000000,4.000000,100.000000
1614131815.391361,94.000000,0.000000,-2.707700,24.178478,25.585163,28.342062,17.308411,18.720240,10.135205,8.927903,14.191532,16.198069,14.223878,-4.503864,5.039866,-17.212612,-26.184071,-5.414375,-14.096904,-20.797953,-56.404583,-32.547272,-27.358566,-6.505041,-8.758846,6.566451,7.004026,24.284666,-3.034461,14.052889,23.198092,27.293455,23.178324,29.250784,0.000000,194.000000,4.000000,,,,0.000000,4.000000,4.000000,4.000000,4.000000,4.000000,4.000000,4.000000,4.000000,4.000000,4.000000,4.000000,4.000000,4.000000,4.000000,4.000000,4.000000,4.000000,4.000000,4.000000,4.000000,4.000000,4.000000,4.000000,4.000000,4.000000,4.000000,4.000000,4.000000,4.000000,4.000000,4.000000,4.000000,100.000000
1614131815.399010,95.000000,0.000000,-6.807556,20.564556,24.533937,28.826540,16.265461,19.214340,9.612250,7.893334,13.151700,6.951101,9.081449,-6.550642,-5.221584,-23.862066,-33.337376,-18.229473,-17.672550,-27.443821,-59.937920,-40.207031,-45.279926,-16.242126,-11.314190,-4.209346,6.997022,10.927049,-8.672452,11.474733,22.662073,26.753342,21.616684,29.221533,0.000000,189.000000,4.000000,,,,0.000000,4.000000,4.000000,4.000000,4.000000,4.000000,4.000000,4.000000,4.000000,4.000000,4.000000,4.000000,4.000000,4.000000,4.000000,4.000000,4.000000,4.000000,4.000000,4.000000,4.000000,4.000000,4.000000,4.000000,4.000000,4.000000,4.000000,4.000000,4.000000,4.000000,4.000000,4.000000,4.000000,100.000000
1614131815.406859,96.000000,0.000000,-10.390491,10.287582,15.278634,25.720791,8.044068,19.195126,10.115458,7.885441,9.548804,0.790304,5.482624,-5.518451,-13.421491,-22.299742,-24.586088,-11.544578,-17.654877,-5.877916,-46.031830,-33.500160,-41.132080,-15.200242,-14.892619,-11.384624,3.400282,2.198173,-11.227882,6.847874,19.562487,23.649664,16.466862,29.192312,8064.000000,0.000000,4.000000,,,,0.000000,4.000000,4.000000,4.000000,4.000000,4.000000,4.000000,4.000000,4.000000,4.000000,4.000000,4.000000,4.000000,4.000000,4.000000,4.000000,4.000000,4.000000,4.000000,4.000000,4.000000,4.000000,4.000000,4.000000,4.000000,4.000000,4.000000,4.000000,4.000000,4.000000,4.000000,4.000000,4.000000,100.000000
1614131815.414608,97.000000,0.000000,-9.354461,7.200371,9.622330,24.669428,7.010383,17.637470,9.592523,8.390376,11.590538,3.866437,4.451500,-5.000112,-13.920890,-22.277441,-15.843553,-1.276623,-12.509018,0.794629,-42.908875,-26.287170,-29.296078,-3.390170,-15.390547,-9.321958,5.960984,8.349821,-11.216655,4.276924,19.542925,23.626015,18.501677,28.650299,8064.000000,0.000000,4.000000,,,,0.000000,4.000000,4.000000,4.000000,4.000000,4.000000,4.000000,4.000000,4.000000,4.000000,4.000000,4.000000,4.000000,4.000000,4.000000,4.000000,4.000000,4.000000,4.000000,4.000000,4.000000,4.000000,4.000000,4.000000,4.000000,4.000000,4.000000,4.000000,4.000000,4.000000,4.000000,4.000000,4.000000,100.000000
1614131815.422357,98.000000,0.000000,-6.268183,13.347017,16.792194,30.285784,20.849525,19.671114,9.582930,8.894806,21.322536,6.426673,6.498331,-6.533573,-13.906969,-13.024395,-13.776427,-1.788167,-11.470867,-5.360012,-36.712120,-11.901910,-8.753961,8.920912,-13.836695,-5.210071,19.801176,20.649164,-10.179796,6.836749,24.138767,27.704952,30.278046,31.185751,8064.000000,0.000000,4.000000,,,,0.000000,4.000000,4.000000,4.000000,4.000000,4.000000,4.000000,4.000000,4.000000,4.000000,4.000000,4.000000,4.000000,4.000000,4.000000,4.000000,4.000000,4.000000,4.000000,4.000000,4.000000,4.000000,4.000000,4.000000,4.000000,4.000000,4.000000,4.000000,4.000000,4.000000,4.000000,4.000000,4.000000,100.000000
1614131815.430007,99.000000,0.000000,-6.261915,15.384953,24.980532,31.793961,29.033806,24.779648,10.086167,7.347450,25.916599,12.061272,11.620037,-4.475758,-10.303318,6.988629,-6.583164,5.905929,-7.356833,14.132527,-3.854894,15.289479,20.485563,21.219683,-11.771576,-0.589477,27.473682,25.243898,-6.579873,7.855554,26.678730,31.266991,34.863152,32.693027,8192.000000,0.000000,4.000000,,,,0.000000,4.000000,4.000000,4.000000,4.000000,4.000000,4.000000,4.000000,4.000000,4.000000,4.000000,4.000000,4.000000,4.000000,4.000000,4.000000,4.000000,4.000000,4.000000,4.000000,4.000000,4.000000,4.000000,4.000000,4.000000,4.000000,4.000000,4.000000,4.000000,4.000000,4.000000,4.000000,4.000000,100.000000
1614131815.437856,100.000000,0.000000,-5.230012,15.369567,24.442730,29.198063,28.491951,26.293329,9.563261,9.391384,24.352221,26.408186,16.736622,1.682564,4.578780,24.417538,14.449060,30.515408,10.599242,36.169678,23.841269,37.838291,40.977898,33.506157,-0.990574,12.744446,26.420568,24.705833,0.093373,7.334877,27.164873,36.363930,34.315468,33.173153,8192.000000,0.000000,4.000000,,,,0.000000,4.000000,4.000000,4.000000,4.000000,4.000000,4.000000,4.000000,4.000000,4.000000,4.000000,4.000000,4.000000,4.000000,4.000000,4.000000,4.000000,4.000000,4.000000,4.000000,4.000000,4.000000,4.000000,4.000000,4.000000,4.000000,4.000000,4.000000,4.000000,4.000000,4.000000,4.000000,4.000000,100.000000
1614131815.445605,101.000000,0.000000,-3.173500,20.482403,25.443928,34.809891,32.053204,26.779858,9.553698,17.587122,26.379150,37.151009,21.848091,7.321907,22.010098,35.675171,33.921791,47.407970,24.434797,39.723251,24.330248,44.467121,54.270252,42.703419,11.318109,31.193241,31.522352,30.322155,7.272767,8.866004,28.676168,45.045513,39.409359,39.293827,8192.000000,0.000000,4.000000,,,,0.000000,4.000000,4.000000,4.000000,4.000000,4.000000,4.000000,4.000000,4.000000,4.000000,4.000000,4.000000,4.000000,4.000000,4.000000,4.000000,4.000000,4.000000,4.000000,4.000000,4.000000,4.000000,4.000000,4.000000,4.000000,4.000000,4.000000,4.000000,4.000000,4.000000,4.000000,4.000000,4.000000,100.000000
1614131815.453454,102.000000,0.000000,-1.631865,24.051664,29.008228,43.493031,36.636536,31.368462,13.646708,23.723381,29.942514,36.601036,28.492910,9.365868,34.295780,40.767700,41.580177,48.899021,28.512926,59.170708,40.716175,54.166245,75.241623,59.583794,14.383714,39.367176,40.721600,40.035423,12.906520,11.421241,31.211596,50.128674,42.446873,46.946842,8192.000000,0.000000,4.000000,,,,0.000000,4.000000,4.000000,4.000000,4.000000,4.000000,4.000000,4.000000,4.000000,4.000000,4.000000,4.000000,4.000000,4.000000,4.000000,4.000000,4.000000,4.000000,4.000000,4.000000,4.000000,4.000000,4.000000,4.000000,4.000000,4.000000,4.000000,4.000000,4.000000,4.000000,4.000000,4.000000,4.000000,100.000000
1614131815.461203,103.000000,0.000000,-1.630233,23.514791,28.979219,43.449535,36.087078,34.414017,17.735624,23.699657,28.374111,34.513153,31.541340,9.869322,37.338409,44.829498,42.051418,48.337303,34.125439,80.137177,64.265198,62.830025,84.909973,70.806259,14.369330,42.404732,41.706520,42.046669,16.996178,11.922640,30.667562,49.052906,41.378784,48.951176,8192.000000,0.000000,4.000000,,,,0.000000,4.000000,4.000000,4.000000,4.000000,4.000000,4.000000,4.000000,4.000000,4.000000,4.000000,4.000000,4.000000,4.000000,4.000000,4.000000,4.000000,4.000000,4.000000,4.000000,4.000000,4.000000,4.000000,4.000000,4.000000,4.000000,4.000000,4.000000,4.000000,4.000000,4.000000,4.000000,4.000000,100.000000
1614131815.469052,104.000000,0.000000,-2.141423,22.978456,27.924599,38.277882,33.999706,32.841141,17.717890,23.163137,28.345737,37.555565,31.509798,8.833812,28.070301,43.759029,31.752956,42.647942,24.860544,53.903194,35.995808,40.203094,63.799419,49.709812,11.278038,43.900787,33.972504,37.902058,15.953541,11.397897,30.124075,45.926929,40.311764,47.876583,8192.000000,0.000000,4.000000,,,,0.000000,4.000000,4.000000,4.000000,4.000000,4.000000,4.000000,4.000000,4.000000,4.000000,4.000000,4.000000,4.000000,4.000000,4.000000,4.000000,4.000000,4.000000,4.000000,4.000000,4.000000,4.000000,4.000000,4.000000,4.000000,4.000000,4.000000,4.000000,4.000000,4.000000,4.000000,4.000000,4.000000,100.000000
1614131815.476801,105.000000,0.000000,-4.190564,22.442657,29.435137,33.111401,30.375965,30.244198,17.187351,24.165615,29.343033,34.441086,31.478289,5.235234,12.144794,25.766550,9.669921,24.656574,-2.343804,21.541599,3.652120,7.855198,31.940750,20.429335,1.010349,33.600475,25.733404,32.223129,8.245279,11.386498,30.606771,41.778439,37.194530,46.803066,8064.000000,0.000000,4.000000,,,,0.000000,4.000000,4.000000,4.000000,4.000000,4.000000,4.000000,4.000000,4.000000,4.000000,4.000000,4.000000,4.000000,4.000000,4.000000,4.000000,4.000000,4.000000,4.000000,4.000000,4.000000,4.000000,4.000000,4.000000,4.000000,4.000000,4.000000,4.000000,4.000000,4.000000,4.000000,4.000000,4.000000,100.000000
1614131815.484650,106.000000,0.000000,-6.237655,19.856112,25.815958,27.437262,23.678921,27.649851,17.682983,23.115808,23.159843,21.073311,31.446810,2.153076,2.901880,2.151040,-5.724365,8.734482,-16.187614,12.289288,-4.556661,-3.434709,6.267784,11.690956,-6.170148,20.233543,20.579466,23.985779,0.031906,11.375113,30.576164,36.608452,33.567593,43.166519,8064.000000,0.000000,4.000000,,,,0.000000,4.000000,4.000000,4.000000,4.000000,4.000000,4.000000,4.000000,4.000000,4.000000,4.000000,4.000000,4.000000,4.000000,4.000000,4.000000,4.000000,4.000000,4.000000,4.000000,4.000000,4.000000,4.000000,4.000000,4.000000,4.000000,4.000000,4.000000,4.000000,4.000000,4.000000,4.000000,4.000000,100.000000
1614131815.492399,107.000000,0.000000,-6.231418,18.810616,17.072193,23.820082,19.552679,23.519636,17.152481,23.092691,14.418735,13.359929,30.389723,1.638102,0.847696,-4.004957,-6.744281,7.700107,-15.145785,10.225717,-8.654668,-10.610761,-15.276946,5.525419,-6.676798,14.059464,17.481964,18.833588,-0.480947,11.363737,30.545589,34.007744,33.021206,39.020790,8064.000000,0.000000,4.000000,,,,0.000000,4.000000,4.000000,4.000000,4.000000,4.000000,4.000000,4.000000,4.000000,4.000000,4.000000,4.000000,4.000000,4.000000,4.000000,4.000000,4.000000,4.000000,4.000000,4.000000,4.000000,4.000000,4.000000,4.000000,4.000000,4.000000,4.000000,4.000000,4.000000,4.000000,4.000000,4.000000,4.000000,100.000000
1614131815.500248,108.000000,0.000000,-4.686725,19.304625,19.619223,23.796261,20.045946,21.444836,17.135328,23.582420,12.353034,19.500416,31.897795,2.149285,1.872489,-5.026593,-4.686255,10.769329,-13.592177,2.523183,-29.158834,-24.446304,-26.543720,-5.762158,-5.644481,8.917199,17.977303,20.866035,1.057996,11.352373,30.515043,33.973736,32.475361,40.520229,8064.000000,0.000000,4.000000,,,,0.000000,4.000000,4.000000,4.000000,4.000000,4.000000,4.000000,4.000000,4.000000,4.000000,4.000000,4.000000,4.000000,4.000000,4.000000,4.000000,4.000000,4.000000,4.000000,4.000000,4.000000,4.000000,4.000000,4.000000,4.000000,4.000000,4.000000,4.000000,4.000000,4.000000,4.000000,4.000000,4.000000,100.000000
1614131815.507997,109.000000,0.000000,-2.630756,19.285320,28.317553,24.285286,20.538721,21.936211,17.118193,20.994736,13.879142,17.942453,28.788973,1.634315,-0.693486,-21.944643,-8.784133,1.527791,-11.014482,-0.043443,-34.770702,-26.985960,-29.594099,-9.346140,-5.638836,3.780077,18.472145,22.383631,-0.994344,11.341021,30.484528,33.939762,33.981350,43.556633,8064.000000,0.000000,4.000000,,,,0.000000,4.000000,4.000000,4.000000,4.000000,4.000000,4.000000,4.000000,4.000000,4.000000,4.000000,4.000000,4.000000,4.000000,4.000000,4.000000,4.000000,4.000000,4.000000,4.000000,4.000000,4.000000,4.000000,4.000000,4.000000,4.000000,4.000000,4.000000,4.000000,4.000000,4.000000,4.000000,4.000000,100.000000
1614131815.515846,110.000000,0.000000,-2.115304,18.753214,23.673851,24.261000,18.466900,21.914274,17.101074,16.358356,13.352443,4.591177,18.503775,1.632681,-3.256895,-31.153467,-10.313810,-11.294250,-7.413725,1.495062,-22.428238,-16.702564,-27.513224,-3.695768,-6.658838,3.776296,12.299827,21.335608,1.057932,11.329680,30.454044,33.905823,32.921726,41.461796,8064.000000,0.000000,4.000000,,,,0.000000,4.000000,4.000000,4.000000,4.000000,4.000000,4.000000,4.000000,4.000000,4.000000,4.000000,4.000000,4.000000,4.000000,4.000000,4.000000,4.000000,4.000000,4.000000,4.000000,4.000000,4.000000,4.000000,4.000000,4.000000,4.000000,4.000000,4.000000,4.000000,4.000000,4.000000,4.000000,4.000000,100.000000
1614131815.523595,111.000000,0.000000,-2.113189,19.247282,16.983511,24.749559,16.909971,22.405180,17.083973,14.803535,13.851911,7.663509,12.844245,3.682330,7.002772,-11.635135,3.029837,-1.539366,-0.226824,13.801260,-2.918630,1.262856,-9.536992,11.692543,-3.062436,3.772520,12.287527,21.827091,6.697900,11.318351,30.423590,33.871914,24.170856,36.804947,8064.000000,0.000000,4.000000,,,,0.000000,4.000000,4.000000,4.000000,4.000000,4.000000,4.000000,4.000000,4.000000,4.000000,4.000000,4.000000,4.000000,4.000000,4.000000,4.000000,4.000000,4.000000,4.000000,4.000000,4.000000,4.000000,4.000000,4.000000,4.000000,4.000000,4.000000,4.000000,4.000000,4.000000,4.000000,4.000000,4.000000,100.000000
1614131815.531244,112.000000,0.000000,-2.111076,19.228035,22.094732,24.724810,16.893063,22.382776,17.066891,15.814373,13.325238,19.963539,15.395503,7.781212,22.380384,11.453424,20.975525,26.154482,16.183659,35.325920,20.674032,23.312876,19.190493,33.732132,8.735498,8.384132,22.018829,22.318085,8.742484,11.819853,30.393166,33.838043,19.018480,35.742500,8064.000000,0.000000,4.000000,,,,0.000000,4.000000,4.000000,4.000000,4.000000,4.000000,4.000000,4.000000,4.000000,4.000000,4.000000,4.000000,4.000000,4.000000,4.000000,4.000000,4.000000,4.000000,4.000000,4.000000,4.000000,4.000000,4.000000,4.000000,4.000000,4.000000,4.000000,4.000000,4.000000,4.000000,4.000000,4.000000,4.000000,100.000000
1614131815.538993,113.000000,0.000000,-2.108965,19.208807,23.611099,24.187265,16.876169,19.283470,17.049824,15.798559,13.824734,17.892292,16.405748,9.311893,25.434927,16.570175,26.595575,39.974480,26.936707,46.572647,33.473869,35.597256,35.068737,44.467632,13.854968,20.683441,26.099375,22.295767,8.220921,11.808033,30.362772,33.804207,23.614845,37.245220,8192.000000,0.000000,4.000000,,,,0.000000,4.000000,4.000000,4.000000,4.000000,4.000000,4.000000,4.000000,4.000000,4.000000,4.000000,4.000000,4.000000,4.000000,4.000000,4.000000,4.000000,4.000000,4.000000,4.000000,4.000000,4.000000,4.000000,4.000000,4.000000,4.000000,4.000000,4.000000,4.000000,4.000000,4.000000,4.000000,4.000000,100.000000
1614131815.546642,114.000000,0.000000,-2.106856,19.189598,17.946463,24.675898,16.859293,18.751366,17.545593,15.782761,17.400652,14.284657,15.363702,10.328221,25.409492,15.527964,26.056158,40.447327,27.422590,46.526073,37.030140,38.638580,38.623413,44.935986,7.174446,28.355064,21.970711,22.273472,9.238341,10.257763,30.332411,33.770401,27.180975,35.669514,8064.000000,0.000000,4.000000,,,,0.000000,4.000000,4.000000,4.000000,4.000000,4.000000,4.000000,4.000000,4.000000,4.000000,4.000000,4.000000,4.000000,4.000000,4.000000,4.000000,4.000000,4.000000,4.000000,4.000000,4.000000,4.000000,4.000000,4.000000,4.000000,4.000000,4.000000,4.000000,4.000000,4.000000,4.000000,4.000000,4.000000,100.000000
1614131815.554391,115.000000,0.000000,-2.104749,19.170408,15.877234,25.164043,16.329613,18.732615,16.502407,15.766977,16.870432,24.013962,16.886799,9.805073,23.332802,17.563719,23.466000,39.894058,23.292604,42.889805,34.429008,35.523018,40.636074,41.814125,2.551887,27.813889,21.948740,22.251198,4.613718,8.709044,30.302078,34.249451,25.102512,36.659485,8064.000000,0.000000,4.000000,,,,0.000000,4.000000,4.000000,4.000000,4.000000,4.000000,4.000000,4.000000,4.000000,4.000000,4.000000,4.000000,4.000000,4.000000,4.000000,4.000000,4.000000,4.000000,4.000000,4.000000,4.000000,4.000000,4.000000,4.000000,4.000000,4.000000,4.000000,4.000000,4.000000,4.000000,4.000000,4.000000,4.000000,100.000000
1614131815.562041,116.000000,0.000000,-2.102644,19.151237,17.912638,22.061956,13.749181,14.098497,12.383341,15.751210,7.109971,30.143793,13.280169,4.154242,7.924853,17.033333,11.134842,30.623396,9.423157,34.641785,24.138168,16.000317,34.441589,29.977440,-0.014767,27.786076,22.952433,22.228947,-4.108844,6.136232,29.246134,34.215202,25.590229,37.648468,8064.000000,0.000000,4.000000,,,,0.000000,4.000000,4.000000,4.000000,4.000000,4.000000,4.000000,4.000000,4.000000,4.000000,4.000000,4.000000,4.000000,4.000000,4.000000,4.000000,4.000000,4.000000,4.000000,4.000000,4.000000,4.000000,4.000000,4.000000,4.000000,4.000000,4.000000,4.000000,4.000000,4.000000,4.000000,4.000000,4.000000,100.000000
1614131815.569790,117.000000,0.000000,-2.100542,19.132086,17.381905,16.911688,9.632868,11.007476,9.294034,16.248280,0.949015,24.472624,9.164325,-2.003758,-5.929225,12.400916,-1.696806,18.797901,-5.458061,31.017399,22.062748,-1.451581,28.766123,21.229513,-6.681419,28.271109,21.903839,22.206718,-7.694479,2.540352,24.088682,34.180988,26.590281,32.482613,8064.000000,0.000000,4.000000,,,,0.000000,4.000000,4.000000,4.000000,4.000000,4.000000,4.000000,4.000000,4.000000,4.000000,4.000000,4.000000,4.000000,4.000000,4.000000,4.000000,4.000000,4.000000,4.000000,4.000000,4.000000,4.000000,4.000000,4.000000,4.000000,4.000000,4.000000,4.000000,4.000000,4.000000,4.000000,4.000000,4.000000,100.000000
1614131815.577439,118.000000,0.000000,-2.098441,19.112955,17.877344,17.920418,9.623235,13.560571,9.284740,15.719211,7.101912,19.832767,13.770545,-2.001755,-4.384835,8.798771,-1.182288,17.240641,-4.939783,28.935101,21.527864,1.113973,25.147614,19.669823,-10.264482,27.217197,23.420397,20.646049,-6.661144,-0.026291,19.449209,34.146805,26.050869,29.886028,8192.000000,0.000000,4.000000,,,,0.000000,4.000000,4.000000,4.000000,4.000000,4.000000,4.000000,4.000000,4.000000,4.000000,4.000000,4.000000,4.000000,4.000000,4.000000,4.000000,4.000000,4.000000,4.000000,4.000000,4.000000,4.000000,4.000000,4.000000,4.000000,4.000000,4.000000,4.000000,4.000000,4.000000,4.000000,4.000000,4.000000,100.000000
1614131815.585188,119.000000,0.000000,-2.096343,19.093842,16.833826,20.979422,10.126431,15.598292,9.788276,12.113749,13.761477,20.325754,17.346518,-1.486933,-0.790706,9.302793,2.921458,16.710581,-3.909202,12.495909,-4.134688,-4.528167,4.609645,8.880921,-9.228576,28.728441,20.320053,18.061300,-6.654482,-0.026264,18.404119,34.625481,26.024818,34.984348,8192.000000,0.000000,4.000000,,,,0.000000,4.000000,4.000000,4.000000,4.000000,4.000000,4.000000,4.000000,4.000000,4.000000,4.000000,4.000000,4.000000,4.000000,4.000000,4.000000,4.000000,4.000000,4.000000,4.000000,4.000000,4.000000,4.000000,4.000000,4.000000,4.000000,4.000000,4.000000,4.000000,4.000000,4.000000,4.000000,4.000000,100.000000
1614131815.592837,120.000000,0.000000,-2.094246,19.074747,14.252889,17.881517,7.039382,14.557053,9.265667,7.999070,12.209254,20.818251,15.790710,-1.998266,-2.841198,7.242208,-2.209669,15.668228,-7.495036,-2.388382,-33.361324,-24.523638,-23.087273,-3.948472,-9.732167,22.033047,6.966400,18.043240,-7.673469,-0.026238,19.411356,31.513931,25.998795,34.949364,8064.000000,0.000000,4.000000,,,,0.000000,4.000000,4.000000,4.000000,4.000000,4.000000,4.000000,4.000000,4.000000,4.000000,4.000000,4.000000,4.000000,4.000000,4.000000,4.000000,4.000000,4.000000,4.000000,4.000000,4.000000,4.000000,4.000000,4.000000,4.000000,4.000000,4.000000,4.000000,4.000000,4.000000,4.000000,4.000000,4.000000,100.000000
1614131815.600586,121.000000,0.000000,-2.092152,19.055674,14.751456,13.761072,3.442599,14.542496,9.256401,7.991071,9.632942,18.746149,16.287741,0.055014,-2.325536,-3.021444,-6.310023,18.216663,-0.820874,-1.360353,-36.404884,-27.576038,-31.269314,-3.944524,-6.645513,5.087937,-2.271336,18.538017,-7.152975,-0.026212,18.879124,28.918314,25.972795,27.222107,8064.000000,0.000000,4.000000,,,,0.000000,4.000000,4.000000,4.000000,4.000000,4.000000,4.000000,4.000000,4.000000,4.000000,4.000000,4.000000,4.000000,4.000000,4.000000,4.000000,4.000000,4.000000,4.000000,4.000000,4.000000,4.000000,4.000000,4.000000,4.000000,4.000000,4.000000,4.000000,4.000000,4.000000,4.000000,4.000000,4.000000,100.000000
1614131815.608235,122.000000,0.000000,-2.090060,19.036617,10.634141,13.747312,-0.150587,15.040773,9.247145,8.495901,10.136129,15.137660,15.245811,2.619062,-1.297570,-16.864576,-4.252431,5.377933,7.385075,-0.846172,-34.830017,-20.368975,-32.263683,-1.889297,-4.587585,-7.224844,-0.730603,16.981018,-6.633001,-0.026186,18.860245,26.838114,24.921181,24.117962,8064.000000,0.000000,4.000000,,,,0.000000,4.000000,4.000000,4.000000,4.000000,4.000000,4.000000,4.000000,4.000000,4.000000,4.000000,4.000000,4.000000,4.000000,4.000000,4.000000,4.000000,4.000000,4.000000,4.000000,4.000000,4.000000,4.000000,4.000000,4.000000,4.000000,4.000000,4.000000,4.000000,4.000000,4.000000,4.000000,4.000000,100.000000
1614131815.615984,123.000000,0.000000,-2.087970,19.017580,0.367096,8.605359,-7.842744,15.025733,10.263538,7.974585,10.638814,13.071240,5.486976,2.103622,-1.809093,-28.129763,-5.786640,-15.653086,3.787946,-4.947890,-33.256725,-21.374247,-32.231422,-2.400228,-7.659920,-8.243259,0.295769,14.912754,-7.139189,-0.026159,18.841385,21.683071,22.332157,25.119484,8064.000000,0.000000,4.000000,,,,0.000000,4.000000,4.000000,4.000000,4.000000,4.000000,4.000000,4.000000,4.000000,4.000000,4.000000,4.000000,4.000000,4.000000,4.000000,4.000000,4.000000,4.000000,4.000000,4.000000,4.000000,4.000000,4.000000,4.000000,4.000000,4.000000,4.000000,4.000000,4.000000,4.000000,4.000000,4.000000,4.000000,100.000000
1614131815.623634,124.000000,0.000000,-2.085882,18.998564,0.366729,2.442908,-9.373363,15.010707,8.714813,7.966610,9.089714,12.545348,0.353284,2.101519,-1.807283,-22.973429,-3.729571,-10.509228,3.271338,4.287827,-12.197829,-11.609282,-11.686369,5.294480,-6.626619,-3.619632,-2.781450,13.872201,-6.619229,0.486687,19.335365,19.610106,21.797005,25.094364,8064.000000,0.000000,4.000000,,,,0.000000,4.000000,4.000000,4.000000,4.000000,4.000000,4.000000,4.000000,4.000000,4.000000,4.000000,4.000000,4.000000,4.000000,4.000000,4.000000,4.000000,4.000000,4.000000,4.000000,4.000000,4.000000,4.000000,4.000000,4.000000,4.000000,4.000000,4.000000,4.000000,4.000000,4.000000,4.000000,4.000000,100.000000
1614131815.631383,125.000000,0.000000,-2.083796,18.979565,8.571491,5.517388,2.430882,14.995697,9.218920,8.471463,10.106265,12.019982,8.045238,2.099417,2.297088,-0.899173,12.684415,13.091025,10.960374,25.822001,13.968215,10.453609,18.068907,21.699442,0.559494,4.589116,2.862357,14.883969,-4.048508,3.563124,19.316029,25.231522,22.288029,27.120552,8064.000000,0.000000,4.000000,,,,0.000000,4.000000,4.000000,4.000000,4.000000,4.000000,4.000000,4.000000,4.000000,4.000000,4.000000,4.000000,4.000000,4.000000,4.000000,4.000000,4.000000,4.000000,4.000000,4.000000,4.000000,4.000000,4.000000,4.000000,4.000000,4.000000,4.000000,4.000000,4.000000,4.000000,4.000000,4.000000,4.000000,100.000000
1614131815.639032,126.000000,0.000000,-2.081712,18.960585,9.075740,10.127254,10.633579,14.980700,15.363546,8.462993,10.096159,15.597706,13.165398,2.097318,6.910175,16.024803,26.517883,22.308702,14.026337,39.642334,27.800400,19.673923,28.820068,31.934153,3.635858,13.815296,14.141546,18.458830,-0.454715,7.149304,18.783892,29.821674,22.265739,28.119074,8064.000000,0.000000,4.000000,,,,0.000000,4.000000,4.000000,4.000000,4.000000,4.000000,4.000000,4.000000,4.000000,4.000000,4.000000,4.000000,4.000000,4.000000,4.000000,4.000000,4.000000,4.000000,4.000000,4.000000,4.000000,4.000000,4.000000,4.000000,4.000000,4.000000,4.000000,4.000000,4.000000,4.000000,4.000000,4.000000,4.000000,100.000000
1614131815.646781,127.000000,0.000000,-2.079631,18.941624,6.502562,9.604307,8.571664,14.965720,19.963568,8.454529,8.547601,22.248775,11.613771,2.095220,5.364804,17.547239,21.875982,19.722292,11.448208,36.525768,31.362345,17.602968,27.765608,30.876577,2.093760,19.442507,19.768431,21.517294,1.084201,8.167796,19.790751,30.817493,21.730654,29.116594,8064.000000,0.000000,4.000000,,,,0.000000,4.000000,4.000000,4.000000,4.000000,4.000000,4.000000,4.000000,4.000000,4.000000,4.000000,4.000000,4.000000,4.000000,4.000000,4.000000,4.000000,4.000000,4.000000,4.000000,4.000000,4.000000,4.000000,4.000000,4.000000,4.000000,4.000000,4.000000,4.000000,4.000000,4.000000,4.000000,4.000000,100.000000
1614131815.654430,0.000000,0.000000,-2.077551,18.922682,11.624264,12.671626,12.152836,14.950754,17.892323,8.446074,12.128797,24.790628,15.704721,2.093125,5.359439,25.222000,16.725901,24.317955,7.847016,29.822575,26.715597,16.559725,31.840406,28.281599,2.091667,20.961525,21.287123,22.521418,0.057476,7.646808,22.335062,35.402061,22.734564,33.702862,0.000000,195.000000,4.000000,,,,0.000000,4.000000,4.000000,4.000000,4.000000,4.000000,4.000000,4.000000,4.000000,4.000000,4.000000,4.000000,4.000000,4.000000,4.000000,4.000000,4.000000,4.000000,4.000000,4.000000,4.000000,4.000000,4.000000,4.000000,4.000000,4.000000,4.000000,4.000000,4.000000,4.000000,4.000000,4.000000,4.000000,100.000000
1614131815.662279,1.000000,0.000000,-2.075473,18.903759,15.715204,16.761518,17.781710,15.448625,16.848789,8.437629,19.808975,24.253017,23.381325,2.091032,12.533566,38.530113,21.837379,34.550045,5.275066,40.049164,29.252983,18.594446,42.064976,29.278957,3.115216,19.402102,22.804298,24.037357,1.083059,7.639161,23.338367,39.469223,25.788754,37.258904,0.000000,180.000000,4.000000,,,,0.000000,4.000000,4.000000,4.000000,4.000000,4.000000,4.000000,4.000000,4.000000,4.000000,4.000000,4.000000,4.000000,4.000000,4.000000,4.000000,4.000000,4.000000,4.000000,4.000000,4.000000,4.000000,4.000000,4.000000,4.000000,4.000000,4.000000,4.000000,4.000000,4.000000,4.000000,4.000000,4.000000,100.000000
1614131815.670028,2.000000,0.000000,-2.073398,19.397676,14.673848,15.206295,11.610081,15.433176,16.831940,8.942012,19.276346,24.741585,23.357943,2.601762,16.110777,30.799274,21.815542,37.592419,4.756971,53.342445,42.044243,23.191236,47.663937,28.736858,3.112101,21.433983,22.781494,25.551781,5.697361,8.144342,22.802208,37.891293,26.275785,37.221645,0.000000,195.000000,4.000000,,,,0.000000,4.000000,4.000000,4.000000,4.000000,4.000000,4.000000,4.000000,4.000000,4.000000,4.000000,4.000000,4.000000,4.000000,4.000000,4.000000,4.000000,4.000000,4.000000,4.000000,4.000000,4.000000,4.000000,4.000000,4.000000,4.000000,4.000000,4.000000,4.000000,4.000000,4.000000,4.000000,4.000000,100.000000
1614131815.677877,3.000000,0.000000,-2.071325,18.865459,12.607892,13.652628,5.957445,14.904922,16.815107,8.420249,13.616044,23.691202,18.206381,2.086339,8.915179,8.204372,12.050137,25.759956,4.752214,42.007053,33.797070,23.168045,35.821400,26.656839,2.596168,28.079214,22.245892,26.039049,8.768586,8.136198,23.292227,37.340580,25.736689,36.158783,0.000000,190.000000,4.000000,,,,0.000000,4.000000,4.000000,4.000000,4.000000,4.000000,4.000000,4.000000,4.000000,4.000000,4.000000,4.000000,4.000000,4.000000,4.000000,4.000000,4.000000,4.000000,4.000000,4.000000,4.000000,4.000000,4.000000,4.000000,4.000000,4.000000,4.000000,4.000000,4.000000,4.000000,4.000000,4.000000,4.000000,100.000000
1614131815.685626,4.000000,0.000000,-2.069253,19.359413,12.082463,14.151795,12.618155,15.402838,19.362396,8.411829,13.602428,25.205973,16.649712,2.084253,5.829340,-0.008961,4.345779,16.503426,4.747462,24.529148,6.070967,12.375647,12.195836,28.681465,0.029470,24.974213,22.223646,25.500191,8.246997,7.615241,23.268934,38.841702,26.223772,36.122623,0.000000,198.000000,4.000000,,,,0.000000,4.000000,4.000000,4.000000,4.000000,4.000000,4.000000,4.000000,4.000000,4.000000,4.000000,4.000000,4.000000,4.000000,4.000000,4.000000,4.000000,4.000000,4.000000,4.000000,4.000000,4.000000,4.000000,4.000000,4.000000,4.000000,4.000000,4.000000,4.000000,4.000000,4.000000,4.000000,4.000000,100.000000
1614131815.693475,5.000000,0.000000,-2.067184,19.340054,9.506278,13.112002,11.579895,14.874614,19.343033,8.916238,13.076005,24.155127,16.120241,3.107810,6.336332,1.016689,2.802972,18.538204,5.255535,21.427696,-1.114592,6.209425,-4.226616,23.524578,-0.483380,15.205648,17.586037,22.397768,8.238750,8.120446,19.143101,33.161835,24.146267,37.112141,0.000000,185.000000,4.000000,,,,0.000000,4.000000,4.000000,4.000000,4.000000,4.000000,4.000000,4.000000,4.000000,4.000000,4.000000,4.000000,4.000000,4.000000,4.000000,4.000000,4.000000,4.000000,4.000000,4.000000,4.000000,4.000000,4.000000,4.000000,4.000000,4.000000,4.000000,4.000000,4.000000,4.000000,4.000000,4.000000,4.000000,100.000000
1614131815.701224,6.000000,0.000000,-1.552296,15.730970,-0.759638,10.534788,-4.841941,9.218714,12.657023,7.368860,8.447545,10.284817,11.488737,0.027779,-0.849492,-8.727917,0.236066,10.314539,1.147715,11.149858,-1.626297,1.075010,-16.017262,2.988233,-4.585461,12.626341,11.927425,18.272806,6.692050,7.599505,15.534215,21.333801,16.429813,33.998108,0.000000,202.000000,4.000000,,,,0.000000,4.000000,4.000000,4.000000,4.000000,4.000000,4.000000,4.000000,4.000000,4.000000,4.000000,4.000000,4.000000,4.000000,4.000000,4.000000,4.000000,4.000000,4.000000,4.000000,4.000000,4.000000,4.000000,4.000000,4.000000,4.000000,4.000000,4.000000,4.000000,4.000000,4.000000,4.000000,4.000000,100.000000
1614131815.709073,7.000000,0.000000,-3.602026,10.587034,-11.015288,8.472971,-14.580688,3.568470,8.541802,2.746106,5.874995,-4.597263,5.323402,-6.638916,-9.566591,-20.514061,-4.892375,-6.618853,-2.955997,-7.322830,-26.752876,-11.746577,-24.719193,-11.886550,-14.837286,7.998330,10.377037,17.741713,0.531512,3.489342,15.005860,14.132979,10.772357,22.682056,0.000000,183.000000,4.000000,,,,0.000000,4.000000,4.000000,4.000000,4.000000,4.000000,4.000000,4.000000,4.000000,4.000000,4.000000,4.000000,4.000000,4.000000,4.000000,4.000000,4.000000,4.000000,4.000000,4.000000,4.000000,4.000000,4.000000,4.000000,4.000000,4.000000,4.000000,4.000000,4.000000,4.000000,4.000000,4.000000,4.000000,100.000000
1614131815.716822,8.000000,0.000000,-5.649706,7.499524,-12.542735,4.874754,-12.514826,3.564901,9.046081,0.179257,4.330658,-7.156768,4.292438,-9.709200,-10.069845,-22.032009,-5.400303,-7.637875,-1.414579,-6.802687,-38.008175,-10.709189,-18.027807,-6.746459,-20.463474,-3.804541,8.315377,18.236792,-4.084404,-0.103891,15.503675,14.631667,10.761584,13.428606,0.000000,205.000000,4.000000,,,,0.000000,4.000000,4.000000,4.000000,4.000000,4.000000,4.000000,4.000000,4.000000,4.000000,4.000000,4.000000,4.000000,4.000000,4.000000,4.000000,4.000000,4.000000,4.000000,4.000000,4.000000,4.000000,4.000000,4.000000,4.000000,4.000000,4.000000,4.000000,4.000000,4.000000,4.000000,4.000000,4.000000,100.000000
1614131815.724671,9.000000,0.000000,-6.156877,7.492025,-12.530192,2.305777,-11.989491,4.074157,6.472932,1.204719,2.787866,-6.123971,5.313786,-8.673850,-8.521314,-22.009977,-4.882082,-3.527673,0.638117,-1.667679,-15.918884,4.686135,-1.599523,3.516698,-17.878908,-5.339198,6.768600,17.705734,-3.567499,-0.103787,14.975350,14.617035,10.750823,12.902357,0.000000,203.000000,4.000000,,,,0.000000,4.000000,4.000000,4.000000,4.000000,4.000000,4.000000,4.000000,4.000000,4.000000,4.000000,4.000000,4.000000,4.000000,4.000000,4.000000,4.000000,4.000000,4.000000,4.000000,4.000000,4.000000,4.000000,4.000000,4.000000,4.000000,4.000000,4.000000,4.000000,4.000000,4.000000,4.000000,4.000000,100.000000
1614131815.732420,10.000000,0.000000,-5.637899,7.484533,-12.004842,2.303472,-12.490322,3.044441,4.927998,1.203515,2.272258,-6.630667,4.795652,-9.177997,-9.025613,-19.936684,-6.415662,-6.088248,-1.413803,-5.255754,-7.185017,9.296833,12.248231,9.154207,-15.809748,2.358449,9.838755,17.688028,-3.051111,0.409137,14.960375,16.140881,10.740072,14.940737,0.000000,183.000000,4.000000,,,,0.000000,4.000000,4.000000,4.000000,4.000000,4.000000,4.000000,4.000000,4.000000,4.000000,4.000000,4.000000,4.000000,4.000000,4.000000,4.000000,4.000000,4.000000,4.000000,4.000000,4.000000,4.000000,4.000000,4.000000,4.000000,4.000000,4.000000,4.000000,4.000000,4.000000,4.000000,4.000000,4.000000,100.000000
1614131815.740269,11.000000,0.000000,-5.632262,7.477048,-2.762068,2.813989,-9.913729,3.554218,5.948711,0.689490,2.269985,1.068272,4.790856,-8.655998,-9.016587,-6.583415,-1.281041,4.687071,-3.463671,9.108476,-6.665011,11.338819,26.082136,14.786078,-14.255476,5.945835,13.418660,18.183161,-3.560881,-0.104093,15.458236,19.201662,11.242153,16.977077,0.000000,190.000000,4.000000,,,,0.000000,4.000000,4.000000,4.000000,4.000000,4.000000,4.000000,4.000000,4.000000,4.000000,4.000000,4.000000,4.000000,4.000000,4.000000,4.000000,4.000000,4.000000,4.000000,4.000000,4.000000,4.000000,4.000000,4.000000,4.000000,4.000000,4.000000,4.000000,4.000000,4.000000,4.000000,4.000000,4.000000,100.000000
1614131815.748019,12.000000,0.000000,-5.626629,7.982392,3.394541,2.811175,-7.852533,4.576304,5.429942,1.201622,2.780536,9.272331,7.862988,-5.570419,-9.520391,8.807784,6.412548,22.631102,-2.434566,36.278854,17.957039,22.609531,36.825283,19.899498,-9.625836,12.093735,14.943703,18.677797,-3.044499,-0.103989,14.929956,18.156818,10.718090,17.472921,0.000000,222.000000,4.000000,,,,0.000000,4.000000,4.000000,4.000000,4.000000,4.000000,4.000000,4.000000,4.000000,4.000000,4.000000,4.000000,4.000000,4.000000,4.000000,4.000000,4.000000,4.000000,4.000000,4.000000,4.000000,4.000000,4.000000,4.000000,4.000000,4.000000,4.000000,4.000000,4.000000,4.000000,4.000000,4.000000,4.000000,100.000000
1614131815.755868,13.000000,0.000000,-5.621003,7.974409,0.827044,2.808363,-5.793398,3.033267,5.424512,2.738881,4.829037,10.288700,10.932049,-5.052028,-6.946768,14.952823,5.893315,25.685394,-2.432132,39.832317,29.733953,21.561281,39.865383,21.418060,-7.564928,19.773949,17.492861,18.146299,-3.041455,0.408936,15.940668,21.215586,11.733013,17.455448,0.000000,217.000000,4.000000,,,,0.000000,4.000000,4.000000,4.000000,4.000000,4.000000,4.000000,4.000000,4.000000,4.000000,4.000000,4.000000,4.000000,4.000000,4.000000,4.000000,4.000000,4.000000,4.000000,4.000000,4.000000,4.000000,4.000000,4.000000,4.000000,4.000000,4.000000,4.000000,4.000000,4.000000,4.000000,4.000000,4.000000,100.000000
1614131815.763617,14.000000,0.000000,-5.615382,7.966435,-0.199424,2.805555,-4.249144,5.081515,7.983190,5.300245,6.875490,12.329694,12.459579,-4.021335,-2.324437,17.501972,8.451524,27.710991,-2.429700,29.536076,9.191399,11.796129,38.287056,20.371000,-8.583004,20.266994,18.501009,18.128153,-3.038414,0.408527,18.488829,28.886677,14.285382,21.540556,0.000000,179.000000,4.000000,,,,0.000000,4.000000,4.000000,4.000000,4.000000,4.000000,4.000000,4.000000,4.000000,4.000000,4.000000,4.000000,4.000000,4.000000,4.000000,4.000000,4.000000,4.000000,4.000000,4.000000,4.000000,4.000000,4.000000,4.000000,4.000000,4.000000,4.000000,4.000000,4.000000,4.000000,4.000000,4.000000,4.000000,100.000000
1614131815.771266,15.000000,0.000000,-5.609766,7.958468,-1.737687,3.315570,-4.244895,12.255921,9.513668,7.859047,6.355794,14.368646,12.959939,-1.453211,-0.270830,16.458830,17.161020,31.273024,-2.427270,30.532181,5.079643,11.784333,27.992359,20.350630,-8.574421,20.759548,13.867125,19.135666,-3.035375,0.408119,18.470341,27.319330,12.219815,22.031837,0.000000,183.000000,4.000000,,,,0.000000,4.000000,4.000000,4.000000,4.000000,4.000000,4.000000,4.000000,4.000000,4.000000,4.000000,4.000000,4.000000,4.000000,4.000000,4.000000,4.000000,4.000000,4.000000,4.000000,4.000000,4.000000,4.000000,4.000000,4.000000,4.000000,4.000000,4.000000,4.000000,4.000000,4.000000,4.000000,4.000000,100.000000
1614131815.779015,16.000000,0.000000,-5.604156,7.950510,-8.915436,3.312254,-4.240650,14.294947,9.504154,8.876829,6.349439,8.200431,12.946980,-2.477399,-1.296200,7.724422,12.528476,17.908417,-2.424843,27.937546,11.741230,9.208447,7.964366,18.791817,-8.053026,19.713148,10.263514,16.039608,-3.032340,0.407710,14.349306,19.599703,5.028108,11.753395,0.000000,190.000000,4.000000,,,,0.000000,4.000000,4.000000,4.000000,4.000000,4.000000,4.000000,4.000000,4.000000,4.000000,4.000000,4.000000,4.000000,4.000000,4.000000,4.000000,4.000000,4.000000,4.000000,4.000000,4.000000,4.000000,4.000000,4.000000,4.000000,4.000000,4.000000,4.000000,4.000000,4.000000,4.000000,4.000000,4.000000,100.000000
1614131815.786664,17.000000,0.000000,-5.598552,7.942559,-11.470623,0.232019,-3.723588,11.203729,9.494650,8.867952,6.343089,3.064025,12.421211,-5.039024,-1.294904,-2.026892,0.208255,1.480252,-2.422418,14.063456,-4.680768,-0.031531,-6.915393,14.157640,-8.557794,7.385743,10.253250,11.408183,-3.029307,0.407303,11.770854,18.554462,2.971798,6.613436,0.000000,175.000000,4.000000,,,,0.000000,4.000000,4.000000,4.000000,4.000000,4.000000,4.000000,4.000000,4.000000,4.000000,4.000000,4.000000,4.000000,4.000000,4.000000,4.000000,4.000000,4.000000,4.000000,4.000000,4.000000,4.000000,4.000000,4.000000,4.000000,4.000000,4.000000,4.000000,4.000000,4.000000,4.000000,4.000000,4.000000,100.000000
1614131815.794413,18.000000,0.000000,-5.592954,7.934617,-8.895050,-0.793854,-5.258327,11.705346,9.485156,8.859085,6.849566,1.522500,12.921611,-2.982703,-0.780789,-5.614609,-1.843235,0.453131,-2.419995,9.434007,-15.445317,-2.595603,-10.498221,9.015278,-8.549236,-3.390874,10.242997,10.371134,-3.026278,0.919716,11.759084,19.048727,3.994467,12.247849,0.000000,173.000000,4.000000,,,,0.000000,4.000000,4.000000,4.000000,4.000000,4.000000,4.000000,4.000000,4.000000,4.000000,4.000000,4.000000,4.000000,4.000000,4.000000,4.000000,4.000000,4.000000,4.000000,4.000000,4.000000,4.000000,4.000000,4.000000,4.000000,4.000000,4.000000,4.000000,4.000000,4.000000,4.000000,4.000000,4.000000,100.000000
1614131815.802062,19.000000,0.000000,-5.587361,5.875400,-9.398975,0.745401,-3.714607,10.667999,9.475671,8.850225,6.842717,-2.068766,12.908689,-1.441259,-1.292829,-8.685917,-2.354213,2.503960,-2.417575,8.911753,-13.891411,-6.695571,-13.564647,8.493443,-8.540687,-3.387483,10.745574,10.873583,-3.023252,0.405976,11.747325,19.029678,3.477652,14.799703,0.000000,215.000000,4.000000,,,,0.000000,4.000000,4.000000,4.000000,4.000000,4.000000,4.000000,4.000000,4.000000,4.000000,4.000000,4.000000,4.000000,4.000000,4.000000,4.000000,4.000000,4.000000,4.000000,4.000000,4.000000,4.000000,4.000000,4.000000,4.000000,4.000000,4.000000,4.000000,4.000000,4.000000,4.000000,4.000000,4.000000,100.000000
1614131815.809811,20.000000,0.000000,-5.581773,4.331063,-11.440859,-4.383549,-4.223712,3.477844,9.466195,7.815734,3.758951,-6.169261,9.818857,-4.516740,-1.804356,-15.343898,-7.480064,1.475815,-2.927978,1.210533,-27.210854,-14.381183,-17.140825,7.972128,-8.532146,-2.871275,9.709188,7.785787,-5.071510,-2.158533,11.222756,19.010649,3.986995,11.707980,0.000000,221.000000,4.000000,,,,0.000000,4.000000,4.000000,4.000000,4.000000,4.000000,4.000000,4.000000,4.000000,4.000000,4.000000,4.000000,4.000000,4.000000,4.000000,4.000000,4.000000,4.000000,4.000000,4.000000,4.000000,4.000000,4.000000,4.000000,4.000000,4.000000,4.000000,4.000000,4.000000,4.000000,4.000000,4.000000,4.000000,100.000000
1614131815.817461,21.000000,0.000000,-5.576192,4.326732,-13.993521,-13.609935,-14.988720,-0.628198,8.943908,4.218175,-0.860192,-6.163092,3.142372,-6.050685,-2.315372,-21.482401,-10.549507,0.961518,-2.925050,0.183682,-25.645180,-7.187315,-10.969838,6.938515,-8.523614,-3.381224,5.596914,6.239539,-6.604900,-3.694836,11.211534,14.889074,1.931726,10.157811,0.000000,190.000000,4.000000,,,,0.000000,4.000000,4.000000,4.000000,4.000000,4.000000,4.000000,4.000000,4.000000,4.000000,4.000000,4.000000,4.000000,4.000000,4.000000,4.000000,4.000000,4.000000,4.000000,4.000000,4.000000,4.000000,4.000000,4.000000,4.000000,4.000000,4.000000,4.000000,4.000000,4.000000,4.000000,4.000000,4.000000,100.000000
1614131815.825210,22.000000,0.000000,-5.570615,4.322405,-18.082090,-16.673248,-23.178860,-0.114749,8.934964,0.111393,-1.372153,-5.644109,1.087947,-5.531814,-1.287416,-22.999380,-9.513316,0.960557,-2.409305,6.337344,-2.029792,5.127565,3.912926,13.598244,-8.515090,2.776003,8.668241,7.258941,-7.623937,-3.178321,11.713143,11.284442,-0.121488,9.634832,0.000000,184.000000,4.000000,,,,0.000000,4.000000,4.000000,4.000000,4.000000,4.000000,4.000000,4.000000,4.000000,4.000000,4.000000,4.000000,4.000000,4.000000,4.000000,4.000000,4.000000,4.000000,4.000000,4.000000,4.000000,4.000000,4.000000,4.000000,4.000000,4.000000,4.000000,4.000000,4.000000,4.000000,4.000000,4.000000,4.000000,100.000000
1614131815.832859,23.000000,0.000000,-5.565045,4.318083,-15.499907,-15.118114,-19.565937,0.398186,9.951671,-2.965642,-0.857960,-6.151285,1.599680,-3.475000,-1.798949,-16.822535,-6.426880,7.626263,-2.919716,5.818186,-2.027762,4.609617,17.242348,23.328236,-9.019396,8.414253,18.915983,7.251682,-5.565031,-3.175142,11.701429,16.401363,2.442736,13.214941,0.000000,204.000000,4.000000,,,,0.000000,4.000000,4.000000,4.000000,4.000000,4.000000,4.000000,4.000000,4.000000,4.000000,4.000000,4.000000,4.000000,4.000000,4.000000,4.000000,4.000000,4.000000,4.000000,4.000000,4.000000,4.000000,4.000000,4.000000,4.000000,4.000000,4.000000,4.000000,4.000000,4.000000,4.000000,4.000000,4.000000,100.000000
1614131815.840608,24.000000,0.000000,-6.072300,4.313765,-11.894663,-15.615815,-14.930986,-0.627853,8.916078,-5.013958,-0.857102,-3.581031,-0.453202,-2.445884,-1.797150,-6.549301,-1.292248,17.875048,-2.403976,11.453394,-6.641119,10.758853,23.891771,23.817726,-8.497556,9.431479,22.999630,7.244430,-0.431261,-3.684788,11.689729,22.025988,7.055678,19.355572,0.000000,189.000000,4.000000,,,,0.000000,4.000000,4.000000,4.000000,4.000000,4.000000,4.000000,4.000000,4.000000,4.000000,4.000000,4.000000,4.000000,4.000000,4.000000,4.000000,4.000000,4.000000,4.000000,4.000000,4.000000,4.000000,4.000000,4.000000,4.000000,4.000000,4.000000,4.000000,4.000000,4.000000,4.000000,4.000000,4.000000,100.000000
1614131815.848257,25.000000,0.000000,-5.040587,4.309451,-11.882768,-15.087379,-12.864773,0.398416,8.907162,2.170543,-1.369066,1.037935,6.213918,-1.930618,4.871314,5.764940,6.401352,21.959736,1.700992,35.544506,22.596292,29.209633,31.560186,25.845192,-5.924955,8.909227,21.438169,9.801288,3.671735,-2.655462,10.652397,22.003962,8.074264,21.900320,0.000000,190.000000,4.000000,,,,0.000000,4.000000,4.000000,4.000000,4.000000,4.000000,4.000000,4.000000,4.000000,4.000000,4.000000,4.000000,4.000000,4.000000,4.000000,4.000000,4.000000,4.000000,4.000000,4.000000,4.000000,4.000000,4.000000,4.000000,4.000000,4.000000,4.000000,4.000000,4.000000,4.000000,4.000000,4.000000,4.000000,100.000000
1614131815.856006,26.000000,0.000000,-2.471444,4.305142,-5.717039,-10.969728,-6.185242,2.962120,13.513638,15.501706,-0.854876,7.190742,22.617960,4.737980,14.610032,20.118151,19.728285,26.553162,9.391599,50.380756,39.496773,35.334270,36.144012,35.562935,-4.380569,13.002883,21.929552,11.329948,4.693704,-0.601524,11.667386,24.033239,7.040548,22.391239,0.000000,197.000000,4.000000,,,,0.000000,4.000000,4.000000,4.000000,4.000000,4.000000,4.000000,4.000000,4.000000,4.000000,4.000000,4.000000,4.000000,4.000000,4.000000,4.000000,4.000000,4.000000,4.000000,4.000000,4.000000,4.000000,4.000000,4.000000,4.000000,4.000000,4.000000,4.000000,4.000000,4.000000,4.000000,4.000000,4.000000,100.000000
1614131815.863655,27.000000,0.000000,-1.443331,4.300837,-5.198502,-7.881835,-3.614954,4.497620,17.089869,21.127230,-0.854021,10.773295,27.210728,10.887088,19.723627,26.764698,29.452147,29.090710,13.484772,40.073963,18.944454,28.632269,25.338636,32.450451,-4.376189,19.143726,21.394802,8.754516,5.714652,0.937539,11.655719,24.522026,7.546328,20.830387,0.000000,191.000000,4.000000,,,,0.000000,4.000000,4.000000,4.000000,4.000000,4.000000,4.000000,4.000000,4.000000,4.000000,4.000000,4.000000,4.000000,4.000000,4.000000,4.000000,4.000000,4.000000,4.000000,4.000000,4.000000,4.000000,4.000000,4.000000,4.000000,4.000000,4.000000,4.000000,4.000000,4.000000,4.000000,4.000000,4.000000,100.000000
1614131815.871404,28.000000,0.000000,-1.954709,4.296536,-18.013817,-7.873953,-6.688262,3.980301,15.021497,17.516359,-0.853167,9.736881,18.978388,3.183893,16.626980,17.507164,20.191925,24.959055,9.881543,28.239017,1.489613,20.911329,6.338939,14.982102,-4.884633,17.586121,16.245201,7.207300,1.606373,0.423781,8.567140,16.292376,8.051602,14.655710,0.000000,184.000000,4.000000,,,,0.000000,4.000000,4.000000,4.000000,4.000000,4.000000,4.000000,4.000000,4.000000,4.000000,4.000000,4.000000,4.000000,4.000000,4.000000,4.000000,4.000000,4.000000,4.000000,4.000000,4.000000,4.000000,4.000000,4.000000,4.000000,4.000000,4.000000,4.000000,4.000000,4.000000,4.000000,4.000000,4.000000,100.000000
1614131815.879054,29.000000,0.000000,-1.952754,4.292239,-20.559904,-6.840438,-8.220036,3.976321,12.442373,15.960381,-0.852314,9.214324,16.908129,-5.537240,6.866764,4.156324,8.889681,22.882814,3.204995,29.749241,3.026585,7.557084,-2.898169,6.249171,-4.366928,8.337766,13.664854,7.200092,-5.574721,0.423357,9.584214,11.147879,7.530730,10.025670,0.000000,216.000000,4.000000,,,,0.000000,4.000000,4.000000,4.000000,4.000000,4.000000,4.000000,4.000000,4.000000,4.000000,4.000000,4.000000,4.000000,4.000000,4.000000,4.000000,4.000000,4.000000,4.000000,4.000000,4.000000,4.000000,4.000000,4.000000,4.000000,4.000000,4.000000,4.000000,4.000000,4.000000,4.000000,4.000000,4.000000,100.000000
1614131815.886803,30.000000,0.000000,-1.950801,4.287947,-9.770114,-4.269495,-7.698995,3.972345,12.942751,14.918779,-0.851462,11.256392,13.814297,-2.454779,-0.832411,-7.129884,6.316689,17.731726,1.150508,30.745132,6.613302,-2.706883,-0.331168,8.807025,-3.849740,4.226863,13.651189,7.192893,-5.569146,0.422934,16.754116,14.213654,7.523200,13.092567,0.000000,185.000000,4.000000,,,,0.000000,4.000000,4.000000,4.000000,4.000000,4.000000,4.000000,4.000000,4.000000,4.000000,4.000000,4.000000,4.000000,4.000000,4.000000,4.000000,4.000000,4.000000,4.000000,4.000000,4.000000,4.000000,4.000000,4.000000,4.000000,4.000000,4.000000,4.000000,4.000000,4.000000,4.000000,4.000000,4.000000,100.000000
1614131815.894452,31.000000,0.000000,-1.436030,4.283659,-7.709062,-3.752405,-8.204116,3.968373,12.929809,10.288476,-0.850610,3.552828,0.467149,-2.452324,-3.395681,-21.994549,-8.048602,-3.824467,1.662178,18.919516,-4.162542,-3.216997,-0.330837,7.259756,-7.435634,7.812380,14.150358,7.185699,-2.486654,0.422511,19.814285,15.737902,7.515676,14.617936,0.000000,178.000000,4.000000,,,,0.000000,4.000000,4.000000,4.000000,4.000000,4.000000,4.000000,4.000000,4.000000,4.000000,4.000000,4.000000,4.000000,4.000000,4.000000,4.000000,4.000000,4.000000,4.000000,4.000000,4.000000,4.000000,4.000000,4.000000,4.000000,4.000000,4.000000,4.000000,4.000000,4.000000,4.000000,4.000000,4.000000,100.000000
1614131815.902301,32.000000,0.000000,-2.973055,4.279376,-12.316737,-4.261473,-8.195912,3.964404,12.404058,7.714085,-0.849760,-10.296879,-7.225626,-8.603719,-8.007669,-30.177683,-22.912348,-17.153976,0.122054,3.003160,-30.312225,-12.444550,-12.125379,0.585830,-12.043583,6.778927,13.623387,6.665693,-4.535450,0.422088,18.768831,13.670881,7.508161,13.577678,8064.000000,0.000000,4.000000,,,,0.000000,4.000000,4.000000,4.000000,4.000000,4.000000,4.000000,4.000000,4.000000,4.000000,4.000000,4.000000,4.000000,4.000000,4.000000,4.000000,4.000000,4.000000,4.000000,4.000000,4.000000,4.000000,4.000000,4.000000,4.000000,4.000000,4.000000,4.000000,4.000000,4.000000,4.000000,4.000000,4.000000,100.000000
1614131815.910050,33.000000,0.000000,-5.021364,4.275096,-11.791600,-4.257212,-8.187716,3.960440,12.391654,6.680730,-0.848910,-13.363505,-3.115836,-10.133576,-13.640688,-28.609043,-19.812513,-7.906053,-2.442170,-5.717792,-39.512684,-22.175695,-16.728638,0.072423,-12.544360,1.131122,13.609764,7.171848,-7.095016,0.421666,18.750061,14.170032,7.500652,13.564099,8064.000000,0.000000,4.000000,,,,0.000000,4.000000,4.000000,4.000000,4.000000,4.000000,4.000000,4.000000,4.000000,4.000000,4.000000,4.000000,4.000000,4.000000,4.000000,4.000000,4.000000,4.000000,4.000000,4.000000,4.000000,4.000000,4.000000,4.000000,4.000000,4.000000,4.000000,4.000000,4.000000,4.000000,4.000000,4.000000,4.000000,100.000000
1614131815.917899,34.000000,0.000000,-6.041984,4.270821,-10.241347,-3.740134,-8.179528,3.956479,12.892083,4.622767,-0.848061,-6.683475,-2.087079,-8.584981,-13.114226,-29.606075,-16.202957,-2.769941,-2.952549,-3.147972,-18.447529,-6.768903,1.236809,7.251838,-11.506175,0.104350,14.621796,7.164676,-7.087922,0.421244,16.167210,15.181502,6.980331,14.063356,8064.000000,0.000000,4.000000,,,,0.000000,4.000000,4.000000,4.000000,4.000000,4.000000,4.000000,4.000000,4.000000,4.000000,4.000000,4.000000,4.000000,4.000000,4.000000,4.000000,4.000000,4.000000,4.000000,4.000000,4.000000,4.000000,4.000000,4.000000,4.000000,4.000000,4.000000,4.000000,4.000000,4.000000,4.000000,4.000000,4.000000,100.000000
1614131815.925648,35.000000,0.000000,-5.523121,4.266550,-10.743926,-3.736394,-8.171349,3.952523,12.879190,4.105324,-0.847213,-5.138330,-3.623454,-7.550755,-12.588292,-25.986725,-15.673934,-0.203069,-1.923955,9.162868,3.109380,11.699404,17.645828,14.936893,-12.007489,3.693989,14.094354,6.644691,-7.080833,0.420823,15.638222,14.653501,7.998992,14.049293,8064.000000,0.000000,4.000000,,,,0.000000,4.000000,4.000000,4.000000,4.000000,4.000000,4.000000,4.000000,4.000000,4.000000,4.000000,4.000000,4.000000,4.000000,4.000000,4.000000,4.000000,4.000000,4.000000,4.000000,4.000000,4.000000,4.000000,4.000000,4.000000,4.000000,4.000000,4.000000,4.000000,4.000000,4.000000,4.000000,4.000000,100.000000
1614131815.933497,36.000000,0.000000,-5.517598,4.262284,-11.246003,-4.245478,-8.163177,3.948570,12.866311,4.614039,-0.846366,-5.646012,0.995555,-5.491922,-11.550062,-9.037662,-1.299285,15.694571,-2.434852,24.025501,14.388322,14.764627,19.679464,15.947598,-11.995481,7.792860,13.567438,7.150867,-2.971189,0.420402,20.237968,14.638846,10.042275,14.035243,8064.000000,0.000000,4.000000,,,,0.000000,4.000000,4.000000,4.000000,4.000000,4.000000,4.000000,4.000000,4.000000,4.000000,4.000000,4.000000,4.000000,4.000000,4.000000,4.000000,4.000000,4.000000,4.000000,4.000000,4.000000,4.000000,4.000000,4.000000,4.000000,4.000000,4.000000,4.000000,4.000000,4.000000,4.000000,4.000000,4.000000,100.000000
1614131815.941246,37.000000,0.000000,-5.512081,3.745201,-11.747578,-3.728412,-8.155014,3.944622,12.853445,4.609425,-0.845519,-2.563443,5.609943,-4.460789,-8.974410,3.791889,9.984065,22.345543,-2.432417,27.078398,19.502138,16.288324,25.813631,16.957291,-11.983486,10.861990,16.630795,11.759101,3.185629,0.419982,21.243370,21.803696,11.057874,13.508388,8064.000000,0.000000,4.000000,,,,0.000000,4.000000,4.000000,4.000000,4.000000,4.000000,4.000000,4.000000,4.000000,4.000000,4.000000,4.000000,4.000000,4.000000,4.000000,4.000000,4.000000,4.000000,4.000000,4.000000,4.000000,4.000000,4.000000,4.000000,4.000000,4.000000,4.000000,4.000000,4.000000,4.000000,4.000000,4.000000,4.000000,100.000000
1614131815.949095,38.000000,0.000000,-5.506569,4.254276,-10.710189,-3.724684,-8.146859,3.940677,12.840591,4.604815,-0.844674,-0.509598,5.604334,-4.969149,-7.939795,3.275276,3.307415,12.579607,-1.404343,15.769269,6.149303,14.220755,27.839100,21.042898,-11.971502,12.389589,18.665445,14.824265,4.720905,-0.093259,18.145205,31.012661,10.533996,14.007700,8064.000000,0.000000,4.000000,,,,0.000000,4.000000,4.000000,4.000000,4.000000,4.000000,4.000000,4.000000,4.000000,4.000000,4.000000,4.000000,4.000000,4.000000,4.000000,4.000000,4.000000,4.000000,4.000000,4.000000,4.000000,4.000000,4.000000,4.000000,4.000000,4.000000,4.000000,4.000000,4.000000,4.000000,4.000000,4.000000,4.000000,100.000000
1614131815.956844,39.000000,0.000000,-5.501062,4.250022,-11.212299,-6.797882,-8.138712,3.936736,12.827751,4.087390,-0.331008,-1.534729,5.598729,-4.451359,-8.444675,3.784822,-1.311278,10.515745,-4.992682,5.497089,-14.369666,-1.178082,9.349723,15.893650,-11.959531,12.377199,13.518575,14.296619,5.229004,0.419655,18.127060,32.007290,11.036282,13.993692,8064.000000,0.000000,4.000000,,,,0.000000,4.000000,4.000000,4.000000,4.000000,4.000000,4.000000,4.000000,4.000000,4.000000,4.000000,4.000000,4.000000,4.000000,4.000000,4.000000,4.000000,4.000000,4.000000,4.000000,4.000000,4.000000,4.000000,4.000000,4.000000,4.000000,4.000000,4.000000,4.000000,4.000000,4.000000,4.000000,4.000000,100.000000
1614131815.964693,40.000000,0.000000,-5.495561,3.220131,-16.329292,-11.406468,-8.130573,3.932800,12.814923,1.519200,-1.869139,-1.020374,5.080310,-5.472549,-7.923410,3.268216,0.228495,8.966768,-12.167177,3.953130,-18.970682,-12.971776,-3.480140,1.005962,-12.973212,10.313540,6.838389,14.282323,2.659673,0.419236,18.621752,29.924000,11.025246,13.466878,8064.000000,0.000000,4.000000,,,,0.000000,4.000000,4.000000,4.000000,4.000000,4.000000,4.000000,4.000000,4.000000,4.000000,4.000000,4.000000,4.000000,4.000000,4.000000,4.000000,4.000000,4.000000,4.000000,4.000000,4.000000,4.000000,4.000000,4.000000,4.000000,4.000000,4.000000,4.000000,4.000000,4.000000,4.000000,4.000000,4.000000,100.000000
1614131815.972442,41.000000,0.000000,-5.490066,5.781013,-18.364244,-11.907883,-8.122443,3.928867,12.802109,0.492040,-3.918552,-0.506533,5.588050,-8.031179,-8.428307,-5.453001,-2.848656,-0.785789,-14.206292,3.436357,-17.413250,-12.958804,-2.963839,-3.610429,-15.524342,7.226304,6.318730,14.268041,-2.984013,-0.094004,18.603130,29.381254,10.501400,14.991873,8064.000000,0.000000,4.000000,,,,0.000000,4.000000,4.000000,4.000000,4.000000,4.000000,4.000000,4.000000,4.000000,4.000000,4.000000,4.000000,4.000000,4.000000,4.000000,4.000000,4.000000,4.000000,4.000000,4.000000,4.000000,4.000000,4.000000,4.000000,4.000000,4.000000,4.000000,4.000000,4.000000,4.000000,4.000000,4.000000,4.000000,100.000000
1614131815.980291,42.000000,0.000000,-4.971755,10.390616,-13.217675,-11.383154,-6.063039,3.924938,12.789307,1.004369,-4.940274,-2.044488,6.095283,-9.048789,-9.445519,-13.139855,-5.922730,0.753459,-13.166445,2.407279,-18.934298,-13.971486,-10.653183,-0.017075,-16.534458,4.654975,6.825233,14.253773,0.095894,0.931731,24.225554,29.351873,14.593463,17.028162,8064.000000,0.000000,4.000000,,,,0.000000,4.000000,4.000000,4.000000,4.000000,4.000000,4.000000,4.000000,4.000000,4.000000,4.000000,4.000000,4.000000,4.000000,4.000000,4.000000,4.000000,4.000000,4.000000,4.000000,4.000000,4.000000,4.000000,4.000000,4.000000,4.000000,4.000000,4.000000,4.000000,4.000000,4.000000,4.000000,4.000000,100.000000
1614131815.988040,43.000000,0.000000,-2.915501,12.431508,-10.127535,-11.371771,-4.005693,3.921013,12.776517,1.003364,-4.422513,-1.016803,1.986623,-8.526919,-7.897613,-21.331844,-4.378346,8.957833,-13.666099,2.917693,-19.941004,-13.957515,-15.770735,0.495763,-11.389719,3.624679,6.818407,14.752339,7.788106,6.059004,30.355173,33.425087,21.758356,17.523954,8064.000000,0.000000,4.000000,,,,0.000000,4.000000,4.000000,4.000000,4.000000,4.000000,4.000000,4.000000,4.000000,4.000000,4.000000,4.000000,4.000000,4.000000,4.000000,4.000000,4.000000,4.000000,4.000000,4.000000,4.000000,4.000000,4.000000,4.000000,4.000000,4.000000,4.000000,4.000000,4.000000,4.000000,4.000000,4.000000,4.000000,100.000000
1614131815.995889,44.000000,0.000000,-0.861304,11.393435,-13.194330,-11.873219,-4.001688,3.917092,12.763741,1.002361,-4.418091,-0.502965,-5.194850,-8.518393,-10.453817,-34.131023,-6.938071,-3.871637,-13.652432,-5.290353,-25.049269,-12.405095,-17.293427,1.520908,-7.275765,4.133874,6.811589,13.199125,5.729036,8.617048,28.273537,30.827559,23.787880,18.532072,8064.000000,0.000000,4.000000,,,,0.000000,4.000000,4.000000,4.000000,4.000000,4.000000,4.000000,4.000000,4.000000,4.000000,4.000000,4.000000,4.000000,4.000000,4.000000,4.000000,4.000000,4.000000,4.000000,4.000000,4.000000,4.000000,4.000000,4.000000,4.000000,4.000000,4.000000,4.000000,4.000000,4.000000,4.000000,4.000000,4.000000,100.000000
1614131816.003638,45.000000,0.000000,-2.398904,11.382042,-14.719597,-11.348526,-5.536148,3.913175,12.750977,1.001359,-4.413673,-7.681950,-6.728117,-8.509874,-17.110031,-43.327663,-18.726004,-27.970329,-13.638781,-20.156858,-37.331913,-22.649101,-35.224850,-0.531895,-10.858232,4.129741,3.215034,10.621824,0.595102,5.531507,23.117058,16.437756,17.097425,15.949437,8064.000000,0.000000,4.000000,,,,0.000000,4.000000,4.000000,4.000000,4.000000,4.000000,4.000000,4.000000,4.000000,4.000000,4.000000,4.000000,4.000000,4.000000,4.000000,4.000000,4.000000,4.000000,4.000000,4.000000,4.000000,4.000000,4.000000,4.000000,4.000000,4.000000,4.000000,4.000000,4.000000,4.000000,4.000000,4.000000,4.000000,100.000000
1614131816.011487,46.000000,0.000000,-7.524710,11.883481,-15.730518,-11.337177,-7.581893,3.909262,11.199764,1.000357,-4.409259,-15.879395,-5.695748,-9.014185,-14.528818,-45.335617,-25.886766,-27.429539,-13.625141,-18.085419,-43.448425,-28.267477,-49.035778,-5.659568,-15.975580,-2.028235,-1.403566,9.585561,0.081686,3.474694,20.529839,10.267472,9.388021,7.215539,8064.000000,0.000000,4.000000,,,,0.000000,4.000000,4.000000,4.000000,4.000000,4.000000,4.000000,4.000000,4.000000,4.000000,4.000000,4.000000,4.000000,4.000000,4.000000,4.000000,4.000000,4.000000,4.000000,4.000000,4.000000,4.000000,4.000000,4.000000,4.000000,4.000000,4.000000,4.000000,4.000000,4.000000,4.000000,4.000000,4.000000,100.000000
