title:3, start timestamp:1614129189.564702, stop timestamp:1614129235.144607, headset type:EPOCFLEX, headset serial:F00001ED, headset firmware:f12, subject name:s08, channels:75, sampling rate:128, samples:5879      , version:2.0
Timestamp,EEG.Counter,EEG.Interpolated,EEG.Cz,EEG.Fz,EEG.Fp1,EEG.AF3,EEG.F7,EEG.F3,EEG.FC1,EEG.C3,EEG.FC5,EEG.T7,EEG.CP5,EEG.CP1,EEG.P3,EEG.P7,EEG.PO3,EEG.O1,EEG.Pz,EEG.Oz,EEG.O2,EEG.PO4,EEG.P8,EEG.P4,EEG.CP2,EEG.CP6,EEG.T8,EEG.FC6,EEG.C4,EEG.FC2,EEG.F4,EEG.F8,EEG.AF4,EEG.Fp2,EEG.HighBitFlex,EEG.RawCq,EEG.Battery,MarkerIndex,MarkerType,MarkerValueInt,EEG.MarkerHardware,CQ.Cz,CQ.Fz,CQ.Fp1,CQ.AF3,CQ.F7,CQ.F3,CQ.FC1,CQ.C3,CQ.FC5,CQ.T7,CQ.CP5,CQ.CP1,CQ.P3,CQ.P7,CQ.PO3,CQ.O1,CQ.Pz,CQ.Oz,CQ.O2,CQ.PO4,CQ.P8,CQ.P4,CQ.CP2,CQ.CP6,CQ.T8,CQ.FC6,CQ.C4,CQ.FC2,CQ.F4,CQ.F8,CQ.AF4,CQ.Fp2,CQ.Overall
1614129189.564702,54.000000,0.000000,-4.220429,4.237043,8.841756,21.648251,12.219225,24.823210,27.472061,31.151825,5.186568,-14.364183,3.128369,2.677425,5.368869,-3.474269,7.211705,-13.420567,-1.908484,11.452910,-34.805893,-0.565809,0.204821,-2.845171,-11.039055,6.537517,4.938299,7.189716,-9.410878,10.025286,8.403518,1.100187,0.016433,-21.381220,8064.000000,0.000000,4.000000,,,,0.000000,4.000000,4.000000,4.000000,4.000000,4.000000,4.000000,2.000000,4.000000,4.000000,4.000000,4.000000,4.000000,4.000000,4.000000,4.000000,4.000000,4.000000,4.000000,4.000000,4.000000,4.000000,4.000000,4.000000,4.000000,4.000000,4.000000,4.000000,4.000000,4.000000,4.000000,4.000000,4.000000,83.333336
1614129189.572352,55.000000,0.000000,-5.241850,4.232806,8.832913,22.139423,12.719827,25.311207,-4.863103,31.120674,6.207022,-18.965204,-1.490144,2.674747,1.773756,-13.727205,1.563467,-20.586634,-1.906575,1.185047,-47.591599,-7.744730,-11.077435,-5.406429,-11.540836,4.479697,-2.758947,7.182526,-9.914288,10.015261,8.395114,3.663190,0.016417,-21.359838,8064.000000,0.000000,4.000000,,,,0.000000,4.000000,4.000000,4.000000,4.000000,4.000000,4.000000,2.000000,4.000000,4.000000,4.000000,4.000000,4.000000,4.000000,4.000000,4.000000,4.000000,4.000000,4.000000,4.000000,4.000000,4.000000,4.000000,4.000000,4.000000,4.000000,4.000000,4.000000,4.000000,4.000000,4.000000,4.000000,4.000000,83.333336
1614129189.580101,56.000000,0.000000,-4.723788,4.228573,8.824080,21.091642,12.707107,24.773075,-11.012086,31.602373,11.329021,-17.407776,7.742116,2.159252,5.874547,-4.995529,9.254211,-11.335278,1.685075,0.158221,-41.902981,-2.095960,-11.579178,-5.401022,-12.554936,4.475217,-4.807470,7.175344,-8.878732,10.005245,8.386719,4.172347,0.016401,-21.338478,8064.000000,0.000000,4.000000,,,,0.000000,4.000000,4.000000,4.000000,4.000000,4.000000,4.000000,2.000000,4.000000,4.000000,4.000000,4.000000,4.000000,4.000000,4.000000,4.000000,4.000000,4.000000,4.000000,4.000000,4.000000,4.000000,4.000000,4.000000,4.000000,4.000000,4.000000,4.000000,4.000000,4.000000,4.000000,4.000000,4.000000,83.333336
1614129189.587750,57.000000,0.000000,-4.719064,4.224344,8.815257,18.506449,12.694400,22.184200,-1.770305,31.570770,11.830512,-14.313446,11.324118,2.669913,13.560980,8.342800,21.552650,6.111955,5.273133,24.260628,-15.707233,13.290751,1.765735,5.373610,-9.978279,3.445101,3.915286,7.680989,-9.895494,9.995240,8.378332,4.168175,0.016384,-21.317141,8064.000000,0.000000,4.000000,,,,0.000000,4.000000,4.000000,4.000000,4.000000,4.000000,4.000000,2.000000,4.000000,4.000000,4.000000,4.000000,4.000000,4.000000,4.000000,4.000000,4.000000,4.000000,4.000000,4.000000,4.000000,4.000000,4.000000,4.000000,4.000000,4.000000,4.000000,4.000000,4.000000,4.000000,4.000000,4.000000,4.000000,83.333336
1614129189.595499,58.000000,0.000000,-4.714345,4.220120,8.806441,17.462301,12.681705,20.623554,31.051979,31.539200,10.793040,-14.811953,9.774331,5.231346,18.675625,12.949841,27.172123,12.772510,6.806322,36.031239,3.795654,25.585154,22.789610,22.804132,-4.840096,7.544220,15.706243,9.724589,-8.859958,10.498066,8.369954,4.676827,0.016368,-21.295824,8192.000000,0.000000,4.000000,,,,0.000000,4.000000,4.000000,4.000000,4.000000,4.000000,4.000000,2.000000,4.000000,4.000000,4.000000,4.000000,4.000000,4.000000,4.000000,4.000000,4.000000,4.000000,4.000000,4.000000,4.000000,4.000000,4.000000,4.000000,4.000000,4.000000,4.000000,4.000000,4.000000,4.000000,4.000000,4.000000,4.000000,83.333336
1614129189.603148,59.000000,0.000000,-4.709630,4.215900,8.797635,17.957661,12.669024,21.115751,38.200413,31.507660,11.295068,-15.309961,10.277378,5.226115,18.656948,11.911251,27.144951,5.580250,6.286695,15.482387,-4.413270,24.021107,34.048870,24.832611,-4.322435,19.844368,21.331562,11.766148,-3.722893,9.974747,8.361584,0.056766,0.016351,-21.274527,8192.000000,0.000000,4.000000,,,,0.000000,4.000000,4.000000,4.000000,4.000000,4.000000,4.000000,2.000000,4.000000,4.000000,4.000000,4.000000,4.000000,4.000000,4.000000,4.000000,4.000000,4.000000,4.000000,4.000000,4.000000,4.000000,4.000000,4.000000,4.000000,4.000000,4.000000,4.000000,4.000000,4.000000,4.000000,4.000000,4.000000,83.333336
1614129189.610897,60.000000,0.000000,-4.704921,4.211684,8.788837,16.401241,12.656354,21.094635,5.854521,31.476152,11.796593,-14.781831,10.779921,2.656786,18.125471,13.437801,26.604984,-0.066356,5.767588,2.646391,-23.896036,10.150931,28.373796,18.653933,-7.395036,22.388626,20.797409,10.728740,-2.693529,7.400670,8.353222,-8.661240,0.016335,-20.740433,8064.000000,0.000000,4.000000,,,,0.000000,4.000000,4.000000,4.000000,4.000000,4.000000,4.000000,2.000000,4.000000,4.000000,4.000000,4.000000,4.000000,4.000000,4.000000,4.000000,4.000000,4.000000,4.000000,4.000000,4.000000,4.000000,4.000000,4.000000,4.000000,4.000000,4.000000,4.000000,4.000000,4.000000,4.000000,4.000000,4.000000,83.333336
1614129189.618546,61.000000,0.000000,-4.700216,4.207472,8.780048,13.307917,12.643698,21.073540,-9.535949,31.444677,11.271976,-14.767049,10.769141,2.141309,18.620167,13.937183,24.527098,-0.066290,6.274641,1.105283,-32.077271,1.422832,17.576193,18.635279,-7.900461,10.058546,17.699690,6.615447,-5.767758,5.854807,8.344869,-11.729502,0.016319,-21.232513,8064.000000,0.000000,4.000000,,,,0.000000,4.000000,4.000000,4.000000,4.000000,4.000000,4.000000,2.000000,4.000000,4.000000,4.000000,4.000000,4.000000,4.000000,4.000000,4.000000,4.000000,4.000000,4.000000,4.000000,4.000000,4.000000,4.000000,4.000000,4.000000,4.000000,4.000000,4.000000,4.000000,4.000000,4.000000,4.000000,4.000000,83.333336
1614129189.626295,62.000000,0.000000,-5.208336,4.203265,8.771269,14.320250,12.631054,21.052467,23.294100,31.413233,11.260704,-14.752282,10.245551,3.164808,15.524623,10.333503,15.784622,-3.143146,4.217084,-12.229156,-34.096474,0.908588,10.891950,14.514079,-9.431023,2.356179,14.092246,3.531909,-6.274811,6.361773,8.336524,-11.204951,0.016302,-21.211281,8064.000000,0.000000,4.000000,,,,0.000000,4.000000,4.000000,4.000000,4.000000,4.000000,4.000000,2.000000,4.000000,4.000000,4.000000,4.000000,4.000000,4.000000,4.000000,4.000000,4.000000,4.000000,4.000000,4.000000,4.000000,4.000000,4.000000,4.000000,4.000000,4.000000,4.000000,4.000000,4.000000,4.000000,4.000000,4.000000,4.000000,83.333336
1614129189.633944,63.000000,0.000000,-4.690307,3.686241,8.762497,16.870031,12.618423,21.031414,47.373371,30.868999,11.249443,-14.737530,6.132741,2.648823,9.868073,9.297528,6.538068,-9.806670,-5.017902,-18.370773,-40.729042,-4.733346,4.727211,4.755975,-11.472874,4.917926,12.026872,3.015556,-5.242896,6.355412,8.328188,-11.193747,0.016286,-20.164429,8064.000000,0.000000,4.000000,,,,0.000000,4.000000,4.000000,4.000000,4.000000,4.000000,4.000000,2.000000,4.000000,4.000000,4.000000,4.000000,4.000000,4.000000,4.000000,4.000000,4.000000,4.000000,4.000000,4.000000,4.000000,4.000000,4.000000,4.000000,4.000000,4.000000,4.000000,4.000000,4.000000,4.000000,4.000000,4.000000,4.000000,83.333336
1614129189.641693,64.000000,0.000000,-4.685617,4.195375,8.753735,16.340342,12.605804,21.010384,15.018304,31.350950,11.238194,-14.722793,2.536865,2.646174,6.781281,8.262589,2.941787,-12.873786,-12.192371,-8.095991,-45.303699,-11.395279,-3.995464,2.187117,-11.461401,4.913008,10.476383,3.525361,-6.263294,6.349056,8.319860,-11.182553,0.016270,-23.734007,0.000000,196.000000,4.000000,,,,0.000000,4.000000,4.000000,4.000000,4.000000,4.000000,4.000000,2.000000,4.000000,4.000000,4.000000,4.000000,4.000000,4.000000,4.000000,4.000000,4.000000,4.000000,4.000000,4.000000,4.000000,4.000000,4.000000,4.000000,4.000000,4.000000,4.000000,4.000000,4.000000,4.000000,4.000000,4.000000,4.000000,83.333336
1614129189.649342,65.000000,0.000000,-5.193752,3.678360,8.744981,14.272718,12.593199,20.989372,12.439183,31.832420,10.714135,-14.708070,2.021508,2.130708,6.261680,1.074840,3.451665,-12.348092,-4.487872,-5.523793,-43.719933,-4.204397,-8.094033,2.697750,-12.475580,2.856813,8.414624,2.496195,-5.744210,6.342707,8.311540,-11.684191,0.016254,-30.889761,0.000000,166.000000,4.000000,,,,0.000000,4.000000,4.000000,4.000000,4.000000,4.000000,4.000000,2.000000,4.000000,4.000000,4.000000,4.000000,4.000000,4.000000,4.000000,4.000000,4.000000,4.000000,4.000000,4.000000,4.000000,4.000000,4.000000,4.000000,4.000000,4.000000,4.000000,4.000000,4.000000,4.000000,4.000000,4.000000,4.000000,83.333336
1614129189.657191,66.000000,0.000000,-3.650097,3.674681,8.736237,13.745625,12.580606,20.968384,41.144691,30.262125,11.729062,-14.693361,2.532307,2.641397,7.281059,-3.028799,7.037957,-11.822924,7.824309,-2.441346,-38.035187,7.594679,-3.983375,3.720694,-11.437464,4.905238,8.919030,3.006519,-0.610260,6.336364,8.303228,-10.646866,0.016237,-33.422974,0.000000,152.000000,4.000000,,,,0.000000,4.000000,4.000000,4.000000,4.000000,4.000000,4.000000,2.000000,4.000000,4.000000,4.000000,4.000000,4.000000,4.000000,4.000000,4.000000,4.000000,4.000000,4.000000,4.000000,4.000000,4.000000,4.000000,4.000000,4.000000,4.000000,4.000000,4.000000,4.000000,4.000000,4.000000,4.000000,4.000000,83.333336
1614129189.664940,67.000000,0.000000,0.968938,6.747930,8.727500,14.244700,12.055204,20.947414,43.667652,31.770325,13.768615,-14.678668,3.042595,4.177217,6.760957,0.563973,8.056561,-11.298280,9.354946,9.355968,-31.843307,9.638367,0.123173,3.716973,-5.785000,9.515718,8.910111,3.516333,2.467273,6.330028,8.294925,-4.995193,0.016221,-30.312628,0.000000,166.000000,4.000000,,,,0.000000,4.000000,4.000000,4.000000,4.000000,4.000000,4.000000,2.000000,4.000000,4.000000,4.000000,4.000000,4.000000,4.000000,4.000000,4.000000,4.000000,4.000000,4.000000,4.000000,4.000000,4.000000,4.000000,4.000000,4.000000,4.000000,4.000000,4.000000,4.000000,4.000000,4.000000,4.000000,4.000000,83.333336
1614129189.672789,68.000000,0.000000,3.019251,10.843746,7.693131,14.230455,12.555970,20.926468,47.726547,34.815479,15.293308,-14.663989,2.526732,-0.442344,6.241376,0.050589,6.510042,-12.312623,2.166104,6.269688,-31.298643,7.577446,0.123049,1.661974,-5.266395,10.531843,6.337099,2.487176,1.439165,6.323698,8.286630,0.650828,0.016205,-28.231031,0.000000,187.000000,4.000000,,,,0.000000,4.000000,4.000000,4.000000,4.000000,4.000000,4.000000,2.000000,4.000000,4.000000,4.000000,4.000000,4.000000,4.000000,4.000000,4.000000,4.000000,4.000000,4.000000,4.000000,4.000000,4.000000,4.000000,4.000000,4.000000,4.000000,4.000000,4.000000,4.000000,4.000000,4.000000,4.000000,4.000000,83.333336
1614129189.680538,69.000000,0.000000,3.016232,11.858543,8.711080,14.216226,12.543414,20.905540,30.242924,31.703739,14.765194,-14.649325,2.011385,-3.518825,9.312057,3.640282,14.708660,-6.659285,4.728040,1.135213,-30.241703,9.621151,4.738311,7.814158,-6.799590,7.957208,4.792300,4.535971,1.950546,6.317374,8.278343,0.650177,0.016189,-28.715622,0.000000,174.000000,4.000000,,,,0.000000,4.000000,4.000000,4.000000,4.000000,4.000000,4.000000,2.000000,4.000000,4.000000,4.000000,4.000000,4.000000,4.000000,4.000000,4.000000,4.000000,4.000000,4.000000,4.000000,4.000000,4.000000,4.000000,4.000000,4.000000,4.000000,4.000000,4.000000,4.000000,4.000000,4.000000,4.000000,4.000000,83.333336
1614129189.688387,70.000000,0.000000,3.013216,11.333864,9.215189,14.202009,12.530870,20.884636,-2.095012,28.082293,14.750429,-14.121856,8.676040,3.151360,15.969412,20.046898,29.565746,7.193529,12.928440,15.493052,-19.442230,12.688453,16.528444,20.114037,-2.177406,7.436430,4.787508,11.710922,5.025518,6.311057,8.270065,1.162347,0.016172,-27.661264,0.000000,180.000000,4.000000,,,,0.000000,4.000000,4.000000,4.000000,4.000000,4.000000,4.000000,2.000000,4.000000,4.000000,4.000000,4.000000,4.000000,4.000000,4.000000,4.000000,4.000000,4.000000,4.000000,4.000000,4.000000,4.000000,4.000000,4.000000,4.000000,4.000000,4.000000,4.000000,4.000000,4.000000,4.000000,4.000000,4.000000,83.333336
1614129189.696136,71.000000,0.000000,0.446100,11.322530,7.154691,14.187807,13.543981,20.863750,10.214775,30.618313,14.735679,-14.620554,17.385313,5.712312,19.030365,27.206339,31.587463,9.750438,10.864230,19.067303,-11.217661,12.162944,21.127300,18.042641,-2.175229,8.454636,7.346823,15.801775,2.456390,6.304746,8.261795,0.648364,0.016156,-25.069502,0.000000,176.000000,4.000000,,,,0.000000,4.000000,4.000000,4.000000,4.000000,4.000000,4.000000,2.000000,4.000000,4.000000,4.000000,4.000000,4.000000,4.000000,4.000000,4.000000,4.000000,4.000000,4.000000,4.000000,4.000000,4.000000,4.000000,4.000000,4.000000,4.000000,4.000000,4.000000,4.000000,4.000000,4.000000,4.000000,4.000000,83.333336
1614129189.703985,72.000000,0.000000,-4.169731,11.824028,10.737280,13.660799,15.068898,20.842888,43.025074,31.100515,15.233764,-15.631575,17.880749,-2.498529,15.934412,21.025286,23.350748,-2.567005,2.135417,-0.438944,-19.924393,8.561037,17.003609,5.204084,-12.429463,7.933360,8.877937,13.221870,-3.699912,6.298441,8.253533,-5.506130,0.016140,-24.018791,0.000000,195.000000,4.000000,,,,0.000000,4.000000,4.000000,4.000000,4.000000,4.000000,4.000000,2.000000,4.000000,4.000000,4.000000,4.000000,4.000000,4.000000,4.000000,4.000000,4.000000,4.000000,4.000000,4.000000,4.000000,4.000000,4.000000,4.000000,4.000000,4.000000,4.000000,4.000000,4.000000,4.000000,4.000000,4.000000,4.000000,83.333336
1614129189.711734,73.000000,0.000000,-5.191202,11.299383,22.521416,14.159959,16.592291,20.822044,36.315380,27.992491,14.705709,-13.051841,16.324406,-5.060133,14.892837,17.927338,21.276114,-8.718285,1.107641,-8.130813,-30.673698,8.552477,16.986607,2.121957,-15.493958,7.925426,8.869060,10.644547,-6.260315,6.292142,8.245279,-11.141650,0.016124,-24.507593,0.000000,174.000000,4.000000,,,,0.000000,4.000000,4.000000,4.000000,4.000000,4.000000,4.000000,2.000000,4.000000,4.000000,4.000000,4.000000,4.000000,4.000000,4.000000,4.000000,4.000000,4.000000,4.000000,4.000000,4.000000,4.000000,4.000000,4.000000,4.000000,4.000000,4.000000,4.000000,4.000000,4.000000,4.000000,4.000000,4.000000,83.333336
1614129189.719583,74.000000,0.000000,-4.673191,11.288084,25.575817,14.145799,16.575699,20.801222,3.971374,30.015779,12.126901,-15.602891,13.743979,-3.516611,14.877944,10.729923,18.690735,-6.145463,3.670635,-0.943195,-30.130203,10.082385,14.405517,4.683938,-11.375899,7.917501,8.860190,10.633902,-5.741234,6.285851,8.237034,-11.643329,0.016108,-24.483086,0.000000,185.000000,4.000000,,,,0.000000,4.000000,4.000000,4.000000,4.000000,4.000000,4.000000,2.000000,4.000000,4.000000,4.000000,4.000000,4.000000,4.000000,4.000000,4.000000,4.000000,4.000000,4.000000,4.000000,4.000000,4.000000,4.000000,4.000000,4.000000,4.000000,4.000000,4.000000,4.000000,4.000000,4.000000,4.000000,4.000000,83.333336
1614129189.727332,75.000000,0.000000,-4.668517,11.276796,17.857933,13.618832,11.430918,20.780420,3.967402,29.472944,10.576312,-25.330879,4.499465,-11.205402,11.786143,-1.075679,8.928455,-8.190599,1.102862,-0.942251,-33.689816,1.354354,4.647521,3.653613,-12.390164,7.909584,8.851331,11.136088,-5.735493,6.279564,8.228797,-10.606045,0.016092,-23.945782,0.000000,193.000000,4.000000,,,,0.000000,4.000000,4.000000,4.000000,4.000000,4.000000,4.000000,2.000000,4.000000,4.000000,4.000000,4.000000,4.000000,4.000000,4.000000,4.000000,4.000000,4.000000,4.000000,4.000000,4.000000,4.000000,4.000000,4.000000,4.000000,4.000000,4.000000,4.000000,4.000000,4.000000,4.000000,4.000000,4.000000,83.333336
1614129189.735181,76.000000,0.000000,-5.176669,11.265519,16.814434,15.143675,9.368205,20.759640,26.014717,20.725523,11.078556,-27.356829,-1.146060,-15.296762,7.671793,-2.613065,3.791322,-9.208051,-1.462343,-2.479771,-44.938179,-9.416231,-0.485331,3.137139,-15.454698,7.901674,8.842479,10.612132,-6.242578,6.273285,8.220569,-10.595438,0.016076,-24.434656,0.000000,200.000000,4.000000,,,,0.000000,4.000000,4.000000,4.000000,4.000000,4.000000,4.000000,2.000000,4.000000,4.000000,4.000000,4.000000,4.000000,4.000000,4.000000,4.000000,4.000000,4.000000,4.000000,4.000000,4.000000,4.000000,4.000000,4.000000,4.000000,4.000000,4.000000,4.000000,4.000000,4.000000,4.000000,4.000000,4.000000,83.333336
1614129189.742930,77.000000,0.000000,-4.658672,11.254253,19.874542,19.743916,15.512683,20.738880,32.655369,15.576591,11.067478,-20.149986,-1.144914,-11.691721,5.100019,-8.251477,3.274710,-6.634740,-1.460881,-0.938829,-46.431702,-10.945276,1.053615,1.082720,-15.439242,7.893773,8.833636,9.063058,-5.723515,6.267012,8.212348,-11.610484,0.016060,-24.410221,0.000000,174.000000,4.000000,,,,0.000000,4.000000,4.000000,4.000000,4.000000,4.000000,4.000000,2.000000,4.000000,4.000000,4.000000,4.000000,4.000000,4.000000,4.000000,4.000000,4.000000,4.000000,4.000000,4.000000,4.000000,4.000000,4.000000,4.000000,4.000000,4.000000,4.000000,4.000000,4.000000,4.000000,4.000000,4.000000,4.000000,83.333336
1614129189.750779,78.000000,0.000000,-4.654013,11.242999,19.341848,22.288275,20.625376,20.718142,41.340664,15.561015,11.056411,-19.104195,-9.861717,-14.244132,-0.033287,-27.217585,-5.959334,-16.371695,-2.485061,-7.604557,-41.769886,-9.395869,1.052562,0.568816,-17.475084,7.885879,8.824803,7.002713,-5.204970,6.773565,8.204136,-11.086053,0.016044,-24.898632,0.000000,200.000000,4.000000,,,,0.000000,4.000000,4.000000,4.000000,4.000000,4.000000,4.000000,2.000000,4.000000,4.000000,4.000000,4.000000,4.000000,4.000000,4.000000,4.000000,4.000000,4.000000,4.000000,4.000000,4.000000,4.000000,4.000000,4.000000,4.000000,4.000000,4.000000,4.000000,4.000000,4.000000,4.000000,4.000000,4.000000,83.333336
1614129189.758529,79.000000,0.000000,-4.649359,11.231756,19.322506,19.701883,19.579109,20.697424,25.401886,12.981352,11.045354,-22.674833,-14.467240,-19.358093,-4.648638,-27.703188,-11.081580,-27.637375,-5.046679,-11.699517,-43.266579,-9.899294,2.077150,3.132350,-17.970430,7.877993,9.328798,6.995710,-5.712586,5.228330,8.195931,-4.408300,0.016027,-23.848091,0.000000,181.000000,4.000000,,,,0.000000,4.000000,4.000000,4.000000,4.000000,4.000000,4.000000,2.000000,4.000000,4.000000,4.000000,4.000000,4.000000,4.000000,4.000000,4.000000,4.000000,4.000000,4.000000,4.000000,4.000000,4.000000,4.000000,4.000000,4.000000,4.000000,4.000000,4.000000,4.000000,4.000000,4.000000,4.000000,4.000000,83.333336
1614129189.766178,80.000000,0.000000,-4.644710,11.220525,18.277542,17.630899,19.046709,20.676725,11.530330,14.506832,11.034308,-20.088057,0.419022,-11.133606,3.561139,-1.521638,1.237194,-16.327686,-5.041632,1.645516,-30.915619,-0.658625,7.203278,3.642038,-15.901178,8.382936,9.319470,6.988715,-5.706873,3.171820,6.136453,0.724313,0.016011,-23.824244,0.000000,192.000000,4.000000,,,,0.000000,4.000000,4.000000,4.000000,4.000000,4.000000,4.000000,2.000000,4.000000,4.000000,4.000000,4.000000,4.000000,4.000000,4.000000,4.000000,4.000000,4.000000,4.000000,4.000000,4.000000,4.000000,4.000000,4.000000,4.000000,4.000000,4.000000,4.000000,4.000000,4.000000,4.000000,4.000000,4.000000,83.333336
1614129189.773927,81.000000,0.000000,-4.640065,11.209304,13.643880,17.613268,19.540483,20.656050,44.339314,22.184633,11.023274,-17.503866,15.290398,-0.866062,19.967834,16.428602,16.107752,5.227104,-1.959667,18.054127,-5.243677,15.239470,11.811460,3.638396,-14.859636,7.861732,8.284510,6.981726,-3.137064,2.143007,4.591856,-2.353334,0.015995,-25.338881,0.000000,182.000000,4.000000,,,,0.000000,4.000000,4.000000,4.000000,4.000000,4.000000,4.000000,2.000000,4.000000,4.000000,4.000000,4.000000,4.000000,4.000000,4.000000,4.000000,4.000000,4.000000,4.000000,4.000000,4.000000,4.000000,4.000000,4.000000,4.000000,4.000000,4.000000,4.000000,4.000000,4.000000,4.000000,4.000000,4.000000,83.333336
1614129189.781576,82.000000,0.000000,-4.635425,11.198095,15.681519,17.595655,19.520943,20.122574,59.679588,24.726551,11.012251,-17.486362,13.736646,-1.378017,21.486328,16.924994,21.219849,7.785979,-0.419246,20.087355,-3.699972,19.326794,15.389392,4.147578,-15.357596,7.341050,8.789045,7.487565,-1.595466,2.653684,4.587264,-1.325340,0.015979,-22.749439,0.000000,197.000000,4.000000,,,,0.000000,4.000000,4.000000,4.000000,4.000000,4.000000,4.000000,2.000000,4.000000,4.000000,4.000000,4.000000,4.000000,4.000000,4.000000,4.000000,4.000000,4.000000,4.000000,4.000000,4.000000,4.000000,4.000000,4.000000,4.000000,4.000000,4.000000,4.000000,4.000000,4.000000,4.000000,4.000000,4.000000,83.333336
1614129189.789325,83.000000,0.000000,-4.630790,11.186897,22.332504,17.578060,19.501421,20.615271,27.312218,23.676184,11.001239,-17.981695,8.594704,-7.017664,5.567406,13.831145,19.660168,-1.452576,-2.982929,8.272396,-28.824478,6.486954,11.784259,-0.471954,-14.316598,9.384991,10.831538,5.941616,-3.132332,2.651031,4.582676,0.727268,0.015963,-17.598486,0.000000,194.000000,4.000000,,,,0.000000,4.000000,4.000000,4.000000,4.000000,4.000000,4.000000,2.000000,4.000000,4.000000,4.000000,4.000000,4.000000,4.000000,4.000000,4.000000,4.000000,4.000000,4.000000,4.000000,4.000000,4.000000,4.000000,4.000000,4.000000,4.000000,4.000000,4.000000,4.000000,4.000000,4.000000,4.000000,4.000000,83.333336
1614129189.796974,84.000000,0.000000,-4.626159,11.175710,21.284531,17.047661,18.969099,20.594656,11.387468,23.652508,10.477417,-20.014996,7.047648,-8.549109,-5.207393,11.766032,11.948200,-4.528047,-7.082510,-2.505107,-42.641808,-6.852866,1.003244,-3.548405,-15.840743,7.324324,4.154040,0.807469,-5.693302,2.648380,4.578094,-9.017050,0.015948,-21.170630,0.000000,213.000000,4.000000,,,,0.000000,4.000000,4.000000,4.000000,4.000000,4.000000,4.000000,2.000000,4.000000,4.000000,4.000000,4.000000,4.000000,4.000000,4.000000,4.000000,4.000000,4.000000,4.000000,4.000000,4.000000,4.000000,4.000000,4.000000,4.000000,4.000000,4.000000,4.000000,4.000000,4.000000,4.000000,4.000000,4.000000,83.333336
1614129189.804723,85.000000,0.000000,-4.621533,11.164535,19.211964,17.030613,18.950130,19.548420,44.196594,24.141674,11.492580,-20.507801,7.553421,-6.489277,-2.638083,9.190164,5.269585,-2.985057,-7.588248,0.061500,-34.906857,-2.230628,-3.100324,3.121810,-14.286441,-2.939411,-2.003960,-1.244621,-5.687609,2.645731,4.573515,-17.725981,0.015932,-27.816126,0.000000,188.000000,4.000000,,,,0.000000,4.000000,4.000000,4.000000,4.000000,4.000000,4.000000,2.000000,4.000000,4.000000,4.000000,4.000000,4.000000,4.000000,4.000000,4.000000,4.000000,4.000000,4.000000,4.000000,4.000000,4.000000,4.000000,4.000000,4.000000,4.000000,4.000000,4.000000,4.000000,4.000000,4.000000,4.000000,4.000000,83.333336
1614129189.812372,86.000000,0.000000,-5.129732,11.153370,21.756853,18.552044,24.572206,22.092974,58.511372,25.655994,13.019549,-16.384729,9.597149,0.183879,1.467119,7.642512,6.802777,-4.007713,-5.529378,5.189644,-31.282207,6.489551,-2.584403,6.708432,-6.579847,-4.987753,4.664711,0.807906,-5.681921,2.643085,4.568942,-13.092871,0.015916,-28.301130,0.000000,199.000000,4.000000,,,,0.000000,4.000000,4.000000,4.000000,4.000000,4.000000,4.000000,2.000000,4.000000,4.000000,4.000000,4.000000,4.000000,4.000000,4.000000,4.000000,4.000000,4.000000,4.000000,4.000000,4.000000,4.000000,4.000000,4.000000,4.000000,4.000000,4.000000,4.000000,4.000000,4.000000,4.000000,4.000000,4.000000,83.333336
1614129189.820122,87.000000,0.000000,-2.047679,11.142217,20.709455,21.097595,29.675838,26.686266,48.709270,26.655979,15.057812,-14.317063,8.049090,3.773438,2.491293,7.634869,7.308794,-6.567808,-5.523849,-4.046315,-49.199642,-7.363092,-13.863870,1.573518,-4.521985,2.709542,8.249789,2.858380,-5.676239,2.640443,4.564373,-9.490034,0.015900,-27.247189,0.000000,208.000000,4.000000,,,,0.000000,4.000000,4.000000,4.000000,4.000000,4.000000,4.000000,2.000000,4.000000,4.000000,4.000000,4.000000,4.000000,4.000000,4.000000,4.000000,4.000000,4.000000,4.000000,4.000000,4.000000,4.000000,4.000000,4.000000,4.000000,4.000000,4.000000,4.000000,4.000000,4.000000,4.000000,4.000000,4.000000,83.333336
1614129189.827771,88.000000,0.000000,0.518471,11.131074,19.663105,21.589317,28.620522,28.198042,43.532356,26.629324,14.529934,-14.815567,7.015400,0.179921,1.975982,3.524670,2.686101,-8.612522,-5.518325,-13.785858,-64.022240,-25.817268,-31.285904,-6.120363,-10.158488,0.142730,0.036412,3.368342,-6.696204,2.637802,4.559809,-11.019006,0.015884,-28.245583,0.000000,205.000000,4.000000,,,,0.000000,4.000000,4.000000,4.000000,4.000000,4.000000,4.000000,2.000000,4.000000,4.000000,4.000000,4.000000,4.000000,4.000000,4.000000,4.000000,4.000000,4.000000,4.000000,4.000000,4.000000,4.000000,4.000000,4.000000,4.000000,4.000000,4.000000,4.000000,4.000000,4.000000,4.000000,4.000000,4.000000,83.333336
1614129189.835520,89.000000,0.000000,-5.123073,11.119943,24.771648,21.054909,26.540619,27.657022,21.950363,27.115515,13.489763,-14.287930,6.495564,-4.948463,-0.590097,-5.196803,0.632133,-11.168013,-5.512806,-5.566945,-47.035137,-17.073502,-30.228977,-9.703986,-12.199612,-11.139464,-3.040548,3.364974,-9.766431,2.635164,4.555249,-11.520807,0.015868,-25.653234,0.000000,217.000000,4.000000,,,,0.000000,4.000000,4.000000,4.000000,4.000000,4.000000,4.000000,2.000000,4.000000,4.000000,4.000000,4.000000,4.000000,4.000000,4.000000,4.000000,4.000000,4.000000,4.000000,4.000000,4.000000,4.000000,4.000000,4.000000,4.000000,4.000000,4.000000,4.000000,4.000000,4.000000,4.000000,4.000000,4.000000,83.333336
1614129189.843169,90.000000,0.000000,-7.682052,11.108823,25.259697,21.033854,26.001259,27.629366,33.723286,26.062757,15.527555,-15.812104,4.437787,-5.456336,1.974596,-7.242888,-0.906961,-13.208126,-5.507294,10.848879,-22.885540,3.969213,-8.660286,0.049308,-10.648951,-12.153966,0.552236,2.848788,-9.243844,2.119709,4.550694,-9.970824,-0.496968,-24.089119,0.000000,205.000000,4.000000,,,,0.000000,4.000000,4.000000,4.000000,4.000000,4.000000,4.000000,2.000000,4.000000,4.000000,4.000000,4.000000,4.000000,4.000000,4.000000,4.000000,4.000000,4.000000,4.000000,4.000000,4.000000,4.000000,4.000000,4.000000,4.000000,4.000000,4.000000,4.000000,4.000000,4.000000,4.000000,4.000000,4.000000,83.333336
1614129189.850918,91.000000,0.000000,0.530758,11.097714,22.670334,21.012819,26.488077,27.601736,65.484436,27.575157,20.127413,-12.719369,14.176939,1.215787,14.280313,13.277175,3.709331,-2.425687,2.190521,14.940594,-18.247269,16.272936,16.989401,16.972336,-11.151122,-3.423863,2.602966,3.871581,-6.670497,2.630409,4.546143,-7.909572,0.529170,-24.065031,0.000000,184.000000,4.000000,,,,0.000000,4.000000,4.000000,4.000000,4.000000,4.000000,4.000000,2.000000,4.000000,4.000000,4.000000,4.000000,4.000000,4.000000,4.000000,4.000000,4.000000,4.000000,4.000000,4.000000,4.000000,4.000000,4.000000,4.000000,4.000000,4.000000,4.000000,4.000000,4.000000,4.000000,4.000000,4.000000,4.000000,83.333336
1614129189.858567,92.000000,0.000000,7.709714,11.086617,27.775869,20.991806,29.025692,27.574135,33.111256,35.752708,22.158567,-1.424598,35.188404,8.906879,26.573725,45.058769,19.603058,17.063917,11.419100,12.361551,-17.203381,24.461790,31.331385,21.570747,-10.114330,5.297510,7.215748,5.918991,-5.638186,5.191882,4.541597,-5.850380,2.579922,-22.502504,0.000000,212.000000,4.000000,,,,0.000000,4.000000,4.000000,4.000000,4.000000,4.000000,4.000000,2.000000,4.000000,4.000000,4.000000,4.000000,4.000000,4.000000,4.000000,4.000000,4.000000,4.000000,4.000000,4.000000,4.000000,4.000000,4.000000,4.000000,4.000000,4.000000,4.000000,4.000000,4.000000,4.000000,4.000000,4.000000,4.000000,83.333336
1614129189.866316,93.000000,0.000000,6.676363,11.075530,34.414761,20.970816,32.586411,30.110662,0.770452,42.383625,21.623589,4.217852,38.742958,10.949254,31.162537,52.706020,32.403969,20.636597,13.971784,15.938933,-7.442588,27.001432,31.812874,14.882510,-7.540113,8.881955,12.336737,7.451534,-5.119727,6.725151,4.537055,-7.382991,4.115804,-19.915899,0.000000,197.000000,4.000000,,,,0.000000,4.000000,4.000000,4.000000,4.000000,4.000000,4.000000,2.000000,4.000000,4.000000,4.000000,4.000000,4.000000,4.000000,4.000000,4.000000,4.000000,4.000000,4.000000,4.000000,4.000000,4.000000,4.000000,4.000000,4.000000,4.000000,4.000000,4.000000,4.000000,4.000000,4.000000,4.000000,4.000000,83.333336
1614129189.873965,94.000000,0.000000,5.644046,11.064454,33.867523,20.949844,34.092285,31.619013,33.590195,40.289959,21.601965,1.136711,22.806780,9.912664,28.054451,30.602030,31.345922,10.872372,13.957811,21.051199,-5.896684,18.769302,32.293880,13.841987,-7.532573,7.847433,12.837221,6.931262,-2.550505,6.205606,4.532518,-6.862788,4.111688,-19.895983,0.000000,198.000000,4.000000,,,,0.000000,4.000000,4.000000,4.000000,4.000000,4.000000,4.000000,2.000000,4.000000,4.000000,4.000000,4.000000,4.000000,4.000000,4.000000,4.000000,4.000000,4.000000,4.000000,4.000000,4.000000,4.000000,4.000000,4.000000,4.000000,4.000000,4.000000,4.000000,4.000000,4.000000,4.000000,4.000000,4.000000,83.333336
1614129189.881714,95.000000,0.000000,6.664043,11.053390,32.808018,20.928894,33.545372,31.074574,66.377113,37.685566,22.093184,0.109933,16.117306,10.415572,20.334089,14.161172,22.596628,7.271755,11.892571,15.901943,-16.147198,12.083866,31.235947,15.879427,-6.499400,8.352406,12.311563,6.924330,-1.009493,6.199400,4.527986,-5.317463,4.107576,-20.388906,0.000000,190.000000,4.000000,,,,0.000000,4.000000,4.000000,4.000000,4.000000,4.000000,4.000000,2.000000,4.000000,4.000000,4.000000,4.000000,4.000000,4.000000,4.000000,4.000000,4.000000,4.000000,4.000000,4.000000,4.000000,4.000000,4.000000,4.000000,4.000000,4.000000,4.000000,4.000000,4.000000,4.000000,4.000000,4.000000,4.000000,83.333336
1614129189.889363,96.000000,0.000000,6.657379,11.042336,33.288029,20.907965,32.486187,31.043499,34.003048,37.135059,21.558270,-0.915818,17.126829,8.353874,14.159908,12.608549,10.266338,-0.940645,4.188372,7.168092,-24.336178,7.456398,17.358557,14.325086,-5.467259,11.420977,12.812072,6.917406,-1.521304,6.193201,4.523458,-10.953172,3.077828,-20.368519,8064.000000,0.000000,4.000000,,,,0.000000,4.000000,4.000000,4.000000,4.000000,4.000000,4.000000,2.000000,4.000000,4.000000,4.000000,4.000000,4.000000,4.000000,4.000000,4.000000,4.000000,4.000000,4.000000,4.000000,4.000000,4.000000,4.000000,4.000000,4.000000,4.000000,4.000000,4.000000,4.000000,4.000000,4.000000,4.000000,4.000000,83.333336
1614129189.897212,97.000000,0.000000,6.137901,11.031294,33.767559,20.887056,30.402418,31.525276,1.661352,33.508183,21.536711,-5.530287,10.443036,2.704495,13.632928,4.903633,-0.513158,-16.837139,-1.969663,5.622463,-23.286201,1.295095,2.469404,13.797940,-6.487433,7.819812,12.799260,6.397668,-3.571064,6.187007,4.518934,-14.019141,3.587571,-20.348150,8064.000000,0.000000,4.000000,,,,0.000000,4.000000,4.000000,4.000000,4.000000,4.000000,4.000000,2.000000,4.000000,4.000000,4.000000,4.000000,4.000000,4.000000,4.000000,4.000000,4.000000,4.000000,4.000000,4.000000,4.000000,4.000000,4.000000,4.000000,4.000000,4.000000,4.000000,4.000000,4.000000,4.000000,4.000000,4.000000,4.000000,83.333336
1614129189.904961,98.000000,0.000000,6.131763,11.020263,33.733795,20.866171,29.859196,31.493752,34.480206,29.884930,22.027994,-6.550397,5.304388,-0.887953,14.644936,-4.332040,-2.563927,-19.384405,-1.967693,6.642481,-23.775736,0.268159,-0.609989,14.296963,-7.506587,1.145325,12.273641,6.904091,-5.618775,6.180820,4.514415,-6.825635,4.609624,-19.814981,8064.000000,0.000000,4.000000,,,,0.000000,4.000000,4.000000,4.000000,4.000000,4.000000,4.000000,2.000000,4.000000,4.000000,4.000000,4.000000,4.000000,4.000000,4.000000,4.000000,4.000000,4.000000,4.000000,4.000000,4.000000,4.000000,4.000000,4.000000,4.000000,4.000000,4.000000,4.000000,4.000000,4.000000,4.000000,4.000000,4.000000,83.333336
1614129189.912810,99.000000,0.000000,6.125632,11.009243,31.648777,20.845304,29.829336,30.949436,59.573929,30.367865,20.467505,-9.107949,4.786263,-1.399886,13.604650,0.800497,-0.510081,-12.698355,-1.452905,4.071736,-30.418627,2.831993,0.416262,14.282666,-7.499080,-0.394282,12.261367,7.410007,-5.613157,6.174640,4.509901,-2.716245,-1.036011,-19.795166,8064.000000,0.000000,4.000000,,,,0.000000,4.000000,4.000000,4.000000,4.000000,4.000000,4.000000,2.000000,4.000000,4.000000,4.000000,4.000000,4.000000,4.000000,4.000000,4.000000,4.000000,4.000000,4.000000,4.000000,4.000000,4.000000,4.000000,4.000000,4.000000,4.000000,4.000000,4.000000,4.000000,4.000000,4.000000,4.000000,4.000000,83.333336
1614129189.920559,100.000000,0.000000,6.119506,10.998234,29.053026,20.824459,29.286686,30.918488,54.898972,29.824677,17.882935,-11.662944,5.807118,-0.885665,13.078225,9.517646,0.003249,-12.685656,-1.964273,9.195869,-25.772823,5.393264,2.467128,13.755563,-8.004401,0.631754,12.249105,5.351315,-5.607543,6.168465,4.505391,-7.328914,-7.701642,-20.288191,8064.000000,0.000000,4.000000,,,,0.000000,4.000000,4.000000,4.000000,4.000000,4.000000,4.000000,2.000000,4.000000,4.000000,4.000000,4.000000,4.000000,4.000000,4.000000,4.000000,4.000000,4.000000,4.000000,4.000000,4.000000,4.000000,4.000000,4.000000,4.000000,4.000000,4.000000,4.000000,4.000000,4.000000,4.000000,4.000000,4.000000,83.333336
1614129189.928408,101.000000,0.000000,6.113387,10.987235,29.536793,20.803635,29.770220,31.400389,42.536377,29.794851,17.865051,-5.497435,10.929516,-1.397600,13.577967,12.585051,0.003246,-8.057586,-1.962308,20.468725,-12.413717,10.003255,6.567225,14.254627,-3.893833,0.631122,12.749677,8.935707,-5.601936,6.162296,4.500885,-3.219021,-3.078556,-19.755083,8064.000000,0.000000,4.000000,,,,0.000000,4.000000,4.000000,4.000000,4.000000,4.000000,4.000000,2.000000,4.000000,4.000000,4.000000,4.000000,4.000000,4.000000,4.000000,4.000000,4.000000,4.000000,4.000000,4.000000,4.000000,4.000000,4.000000,4.000000,4.000000,4.000000,4.000000,4.000000,4.000000,4.000000,4.000000,4.000000,4.000000,83.333336
1614129189.936157,102.000000,0.000000,6.107273,10.976248,28.994436,20.782831,28.201988,28.292067,29.673330,31.303518,17.334366,-5.491938,12.969869,-2.421844,14.590030,12.572466,0.516063,0.155600,-1.447526,18.909794,-17.016687,11.018893,9.124761,14.753194,-0.300196,3.707414,11.198465,16.619080,-5.596334,6.156134,4.496385,7.553429,3.591190,-19.735329,8192.000000,0.000000,4.000000,,,,0.000000,4.000000,4.000000,4.000000,4.000000,4.000000,4.000000,2.000000,4.000000,4.000000,4.000000,4.000000,4.000000,4.000000,4.000000,4.000000,4.000000,4.000000,4.000000,4.000000,4.000000,4.000000,4.000000,4.000000,4.000000,4.000000,4.000000,4.000000,4.000000,4.000000,4.000000,4.000000,4.000000,83.333336
1614129189.944006,103.000000,0.000000,6.101166,10.965272,22.811596,20.762047,24.071222,23.648390,57.848785,27.169651,12.701648,-21.383881,4.751770,-4.470704,11.498517,4.354765,0.515547,-1.383017,-1.446078,7.608834,-28.281723,8.443771,9.628456,14.225619,-3.889639,7.806271,9.135984,15.576819,-5.590738,6.149978,4.491888,7.033055,2.561957,-22.792515,8064.000000,0.000000,4.000000,,,,0.000000,4.000000,4.000000,4.000000,4.000000,4.000000,4.000000,2.000000,4.000000,4.000000,4.000000,4.000000,4.000000,4.000000,4.000000,4.000000,4.000000,4.000000,4.000000,4.000000,4.000000,4.000000,4.000000,4.000000,4.000000,4.000000,4.000000,4.000000,4.000000,4.000000,4.000000,4.000000,4.000000,83.333336
1614129189.951755,104.000000,0.000000,6.607885,8.903025,18.173399,20.741285,21.483047,22.599100,90.611450,23.552738,9.612022,-27.516344,3.721377,-5.491874,8.922916,1.273487,2.053493,-1.894455,-1.957453,10.165327,-13.381646,10.486609,10.644468,13.698574,-6.962672,8.311285,8.101208,7.868935,-5.585147,6.656649,4.487396,-0.153465,-0.004707,-26.872288,8064.000000,0.000000,4.000000,,,,0.000000,4.000000,4.000000,4.000000,4.000000,4.000000,4.000000,2.000000,4.000000,4.000000,4.000000,4.000000,4.000000,4.000000,4.000000,4.000000,4.000000,4.000000,4.000000,4.000000,4.000000,4.000000,4.000000,4.000000,4.000000,4.000000,4.000000,4.000000,4.000000,4.000000,4.000000,4.000000,4.000000,83.333336
1614129189.959604,105.000000,0.000000,5.062816,7.355660,20.206509,20.720545,21.974386,23.602142,58.213146,28.657391,11.653693,-14.668315,16.538168,-3.435100,17.631943,22.297855,8.718106,9.389491,-0.417034,21.437214,3.554813,15.604328,13.710748,17.787439,-4.391607,8.302974,8.605927,5.809784,-5.579562,6.137171,4.482909,-3.230235,-1.030343,-27.871056,8064.000000,0.000000,4.000000,,,,0.000000,4.000000,4.000000,4.000000,4.000000,4.000000,4.000000,2.000000,4.000000,4.000000,4.000000,4.000000,4.000000,4.000000,4.000000,4.000000,4.000000,4.000000,4.000000,4.000000,4.000000,4.000000,4.000000,4.000000,4.000000,4.000000,4.000000,4.000000,4.000000,4.000000,4.000000,4.000000,4.000000,83.333336
1614129189.967353,106.000000,0.000000,3.006471,7.348304,22.750404,21.212645,25.029335,23.065720,25.847239,34.782578,14.206141,-5.935698,22.675476,-1.380383,26.845079,37.660172,15.376055,17.072409,1.634666,18.338854,-10.294896,16.101545,16.773960,18.282473,-5.412857,11.371593,8.597322,7.342436,-5.573982,6.643855,4.478426,-3.227005,-2.567775,-27.330364,8192.000000,0.000000,4.000000,,,,0.000000,4.000000,4.000000,4.000000,4.000000,4.000000,4.000000,2.000000,4.000000,4.000000,4.000000,4.000000,4.000000,4.000000,4.000000,4.000000,4.000000,4.000000,4.000000,4.000000,4.000000,4.000000,4.000000,4.000000,4.000000,4.000000,4.000000,4.000000,4.000000,4.000000,4.000000,4.000000,4.000000,83.333336
1614129189.975202,107.000000,0.000000,1.977823,7.340956,22.214834,20.678612,26.542767,23.042654,44.282932,32.696514,14.191936,-6.955403,18.550238,-0.866182,21.690029,22.750717,16.386320,11.414311,2.145851,7.551283,-27.720499,15.572622,14.705904,6.982139,-7.971546,12.385863,8.075903,6.822273,-5.568408,6.637211,4.473948,-2.710957,-3.590848,-27.303034,8064.000000,0.000000,4.000000,,,,0.000000,4.000000,4.000000,4.000000,4.000000,4.000000,4.000000,2.000000,4.000000,4.000000,4.000000,4.000000,4.000000,4.000000,4.000000,4.000000,4.000000,4.000000,4.000000,4.000000,4.000000,4.000000,4.000000,4.000000,4.000000,4.000000,4.000000,4.000000,4.000000,4.000000,4.000000,4.000000,4.000000,83.333336
1614129189.982951,108.000000,0.000000,2.488666,7.333615,21.679798,21.170753,25.490583,23.532431,77.059158,29.586895,13.664923,-7.461268,15.967585,-0.865316,13.463211,7.343351,13.805831,4.736230,2.143706,5.492450,-27.179956,14.018588,5.973249,-1.229972,-7.450754,7.758092,8.580648,6.815450,-5.562840,3.040830,4.469474,-3.733887,-5.125719,-27.275730,8064.000000,0.000000,4.000000,,,,0.000000,4.000000,4.000000,4.000000,4.000000,4.000000,4.000000,2.000000,4.000000,4.000000,4.000000,4.000000,4.000000,4.000000,4.000000,4.000000,4.000000,4.000000,4.000000,4.000000,4.000000,4.000000,4.000000,4.000000,4.000000,4.000000,4.000000,4.000000,4.000000,4.000000,4.000000,4.000000,4.000000,83.333336
1614129189.990800,109.000000,0.000000,2.486177,7.326281,22.683760,21.149582,26.490732,23.508900,71.341072,30.070127,14.164079,-6.428166,17.490078,1.699652,13.962568,7.848828,12.253564,2.680212,1.628741,6.512599,-26.127136,9.389185,-4.801955,0.309720,-11.033047,4.673411,8.572067,6.295815,-5.557277,-1.064775,4.465004,-8.345538,-7.171875,-28.274096,8064.000000,0.000000,4.000000,,,,0.000000,4.000000,4.000000,4.000000,4.000000,4.000000,4.000000,2.000000,4.000000,4.000000,4.000000,4.000000,4.000000,4.000000,4.000000,4.000000,4.000000,4.000000,4.000000,4.000000,4.000000,4.000000,4.000000,4.000000,4.000000,4.000000,4.000000,4.000000,4.000000,4.000000,4.000000,4.000000,4.000000,83.333336
1614129189.998549,110.000000,0.000000,2.483691,7.318955,22.148254,17.538689,27.489883,23.485390,43.577427,30.552879,14.149915,-6.421738,17.472588,3.236414,12.922964,8.353800,11.728490,3.703173,2.139933,3.941983,-26.101009,8.866976,-8.899717,1.847871,-15.637399,3.643097,8.050674,3.725416,-6.577361,-2.089351,4.460539,-11.414116,-7.677524,-30.809925,8064.000000,0.000000,4.000000,,,,0.000000,4.000000,4.000000,4.000000,4.000000,4.000000,4.000000,2.000000,4.000000,4.000000,4.000000,4.000000,4.000000,4.000000,4.000000,4.000000,4.000000,4.000000,4.000000,4.000000,4.000000,4.000000,4.000000,4.000000,4.000000,4.000000,4.000000,4.000000,4.000000,4.000000,4.000000,4.000000,4.000000,83.333336
1614129190.006398,111.000000,0.000000,2.481208,7.311636,20.074825,11.367305,17.718803,23.461905,30.713337,30.009506,14.135765,-6.928136,15.403833,2.720357,9.833118,7.319806,11.716762,5.750752,4.701896,13.168811,-11.203114,13.986314,7.006618,7.999870,-10.493556,2.100992,8.042624,2.696050,-5.545143,-1.574441,4.456079,-7.812958,-7.157025,-30.266294,8064.000000,0.000000,4.000000,,,,0.000000,4.000000,4.000000,4.000000,4.000000,4.000000,4.000000,2.000000,4.000000,4.000000,4.000000,4.000000,4.000000,4.000000,4.000000,4.000000,4.000000,4.000000,4.000000,4.000000,4.000000,4.000000,4.000000,4.000000,4.000000,4.000000,4.000000,4.000000,4.000000,4.000000,4.000000,4.000000,4.000000,83.333336
1614129190.014147,112.000000,0.000000,2.478726,7.304325,18.003468,9.304655,5.393393,23.438442,31.195444,29.466675,14.121629,-8.459670,13.337148,2.717636,14.951490,9.363768,11.192224,6.770642,8.799758,30.078718,1.628603,16.536430,33.153458,24.914948,-1.252293,8.765558,11.111505,3.206174,-3.488315,-0.547226,4.451622,-2.676940,-7.149868,-27.671925,8064.000000,0.000000,4.000000,,,,0.000000,4.000000,4.000000,4.000000,4.000000,4.000000,4.000000,2.000000,4.000000,4.000000,4.000000,4.000000,4.000000,4.000000,4.000000,4.000000,4.000000,4.000000,4.000000,4.000000,4.000000,4.000000,4.000000,4.000000,4.000000,4.000000,4.000000,4.000000,4.000000,4.000000,4.000000,4.000000,4.000000,83.333336
1614129190.021796,113.000000,0.000000,2.476248,7.297020,18.498285,10.320992,4.362358,23.415005,63.984760,29.950029,14.107508,-10.502492,13.323811,3.227739,21.603205,11.405686,11.181031,6.763871,9.816599,27.997358,-9.142257,14.468612,41.838253,35.146442,0.800241,21.577305,13.151675,3.202968,-1.946365,2.017424,4.447171,-2.161442,-7.142719,-26.618612,8064.000000,0.000000,4.000000,,,,0.000000,4.000000,4.000000,4.000000,4.000000,4.000000,4.000000,2.000000,4.000000,4.000000,4.000000,4.000000,4.000000,4.000000,4.000000,4.000000,4.000000,4.000000,4.000000,4.000000,4.000000,4.000000,4.000000,4.000000,4.000000,4.000000,4.000000,4.000000,4.000000,4.000000,4.000000,4.000000,4.000000,83.333336
1614129190.029545,114.000000,0.000000,2.473771,7.802544,18.479786,9.285029,8.460560,23.391590,92.638725,29.920078,14.093400,-11.004810,12.797667,2.198870,21.581602,17.548126,11.682672,6.244287,9.293962,15.148848,-19.902346,16.505424,37.693851,32.034374,-0.739021,25.658293,11.087241,3.199765,1.645325,2.528227,4.955544,-3.697742,-7.648396,-26.591993,8064.000000,0.000000,4.000000,,,,0.000000,4.000000,4.000000,4.000000,4.000000,4.000000,4.000000,2.000000,4.000000,4.000000,4.000000,4.000000,4.000000,4.000000,4.000000,4.000000,4.000000,4.000000,4.000000,4.000000,4.000000,4.000000,4.000000,4.000000,4.000000,4.000000,4.000000,4.000000,4.000000,4.000000,4.000000,4.000000,4.000000,83.333336
1614129190.037195,115.000000,0.000000,2.471298,7.281920,17.948486,9.275744,7.426458,23.368198,60.238396,29.890160,14.079307,-10.480985,13.297689,3.735133,20.534380,24.710066,11.670988,6.750863,14.925694,17.184980,-3.985007,25.719688,44.322823,32.515160,0.287359,23.068531,14.153077,3.196565,8.310346,3.551340,4.437768,-2.668404,-6.615107,-27.078222,8064.000000,0.000000,4.000000,,,,0.000000,4.000000,4.000000,4.000000,4.000000,4.000000,4.000000,2.000000,4.000000,4.000000,4.000000,4.000000,4.000000,4.000000,4.000000,4.000000,4.000000,4.000000,4.000000,4.000000,4.000000,4.000000,4.000000,4.000000,4.000000,4.000000,4.000000,4.000000,4.000000,4.000000,4.000000,4.000000,4.000000,83.333336
1614129190.044944,116.000000,0.000000,2.468826,6.761818,18.443357,10.292109,6.906211,23.857651,27.870462,29.860270,14.065228,-10.983324,15.848495,6.295501,21.539486,28.275099,11.659317,9.308215,23.628717,24.860104,10.890773,31.334995,46.842602,34.533924,0.287072,25.609566,21.831232,3.706189,10.866138,6.111891,4.433331,-0.101633,-1.993107,-26.538324,8064.000000,0.000000,4.000000,,,,0.000000,4.000000,4.000000,4.000000,4.000000,4.000000,4.000000,2.000000,4.000000,4.000000,4.000000,4.000000,4.000000,4.000000,4.000000,4.000000,4.000000,4.000000,4.000000,4.000000,4.000000,4.000000,4.000000,4.000000,4.000000,4.000000,4.000000,4.000000,4.000000,4.000000,4.000000,4.000000,4.000000,83.333336
1614129190.052593,117.000000,0.000000,2.466357,7.780697,17.912094,7.717715,7.412126,23.320972,60.663105,29.830408,14.563982,-10.972341,15.319825,3.212282,21.517946,25.682722,11.647658,11.350189,22.066628,24.835243,-3.479092,24.124172,27.821402,26.807083,-0.226036,25.071135,22.835041,3.189662,6.239887,7.131420,4.941718,-2.152813,1.085809,-26.511786,8064.000000,0.000000,4.000000,,,,0.000000,4.000000,4.000000,4.000000,4.000000,4.000000,4.000000,2.000000,4.000000,4.000000,4.000000,4.000000,4.000000,4.000000,4.000000,4.000000,4.000000,4.000000,4.000000,4.000000,4.000000,4.000000,4.000000,4.000000,4.000000,4.000000,4.000000,4.000000,4.000000,4.000000,4.000000,4.000000,4.000000,83.333336
1614129190.060342,118.000000,0.000000,2.463891,6.747276,15.330080,3.094613,7.917534,20.733549,93.422958,29.800579,13.523777,-10.448548,12.740402,-1.406315,20.983608,15.913449,11.636010,7.749095,12.813790,22.246305,-20.911510,13.843637,8.819221,17.549507,-0.225810,19.917858,15.119899,0.622370,0.079801,4.047366,1.347032,-9.842968,-0.453738,-29.049376,8064.000000,0.000000,4.000000,,,,0.000000,4.000000,4.000000,4.000000,4.000000,4.000000,4.000000,2.000000,4.000000,4.000000,4.000000,4.000000,4.000000,4.000000,4.000000,4.000000,4.000000,4.000000,4.000000,4.000000,4.000000,4.000000,4.000000,4.000000,4.000000,4.000000,4.000000,4.000000,4.000000,4.000000,4.000000,4.000000,4.000000,83.333336
1614129190.067991,119.000000,0.000000,2.461427,1.612323,14.289108,1.553056,10.473719,19.174353,61.021839,29.770777,10.946151,-10.438100,13.753304,-1.404909,20.962626,12.307792,11.624374,6.715705,8.698413,19.147137,-20.890598,10.752872,4.707838,15.993497,-0.225584,18.359480,11.002214,-0.916714,-2.484381,2.504857,-5.320982,-13.935689,-3.017387,-32.610069,8064.000000,0.000000,4.000000,,,,0.000000,4.000000,4.000000,4.000000,4.000000,4.000000,4.000000,2.000000,4.000000,4.000000,4.000000,4.000000,4.000000,4.000000,4.000000,4.000000,4.000000,4.000000,4.000000,4.000000,4.000000,4.000000,4.000000,4.000000,4.000000,4.000000,4.000000,4.000000,4.000000,4.000000,4.000000,4.000000,4.000000,83.333336
1614129190.075740,120.000000,0.000000,2.458966,0.072249,14.787640,2.577144,10.976066,19.667999,28.653126,29.741007,9.909564,-10.427662,16.303652,-0.890683,19.916021,22.039074,11.099930,12.862835,10.740996,15.538246,-19.844067,10.742118,3.677489,17.515965,-0.225358,14.751376,12.016853,-0.402976,-1.969076,2.502352,-8.392584,-14.434574,-3.527190,-35.141563,8064.000000,0.000000,4.000000,,,,0.000000,4.000000,4.000000,4.000000,4.000000,4.000000,4.000000,2.000000,4.000000,4.000000,4.000000,4.000000,4.000000,4.000000,4.000000,4.000000,4.000000,4.000000,4.000000,4.000000,4.000000,4.000000,4.000000,4.000000,4.000000,4.000000,4.000000,4.000000,4.000000,4.000000,4.000000,4.000000,4.000000,83.333336
1614129190.083389,121.000000,0.000000,2.456507,4.687562,13.747211,2.061747,11.990730,19.648331,52.214218,29.198446,9.899654,-10.930055,15.774529,-1.402613,20.408926,23.042675,10.576009,12.849973,12.781537,18.599630,-20.337044,11.757017,3.160991,16.472807,-0.225133,7.557138,11.492017,-1.428215,-1.967107,2.499850,-5.307268,-14.932960,-3.523663,-35.106422,8064.000000,0.000000,4.000000,,,,0.000000,4.000000,4.000000,4.000000,4.000000,4.000000,4.000000,2.000000,4.000000,4.000000,4.000000,4.000000,4.000000,4.000000,4.000000,4.000000,4.000000,4.000000,4.000000,4.000000,4.000000,4.000000,4.000000,4.000000,4.000000,4.000000,4.000000,4.000000,4.000000,4.000000,4.000000,4.000000,4.000000,83.333336
1614129190.091138,122.000000,0.000000,2.454050,8.272617,15.784746,1.034044,16.081305,19.628683,84.982513,28.656425,9.376934,-11.431945,16.784395,-0.888390,20.388517,8.660659,11.591074,5.144815,12.255936,23.196415,-16.726963,13.796542,8.798856,16.456335,-0.737728,6.011119,10.967704,0.111675,-2.990781,2.497350,-1.199396,-10.302642,-4.032960,-29.430288,8064.000000,0.000000,4.000000,,,,0.000000,4.000000,4.000000,4.000000,4.000000,4.000000,4.000000,2.000000,4.000000,4.000000,4.000000,4.000000,4.000000,4.000000,4.000000,4.000000,4.000000,4.000000,4.000000,4.000000,4.000000,4.000000,4.000000,4.000000,4.000000,4.000000,4.000000,4.000000,4.000000,4.000000,4.000000,4.000000,4.000000,83.333336
1614129190.098787,123.000000,0.000000,2.451596,7.238704,21.409986,2.571471,19.142145,19.096233,115.666763,29.653412,10.393198,-10.394872,15.741969,-1.913142,16.265564,1.472511,10.553842,2.575567,11.730859,23.173220,-13.633313,14.808387,10.841339,17.465519,-0.224170,7.030749,11.982377,5.239769,-1.962149,1.982032,0.853085,-3.625673,-3.516107,-22.734192,8064.000000,0.000000,4.000000,,,,0.000000,4.000000,4.000000,4.000000,4.000000,4.000000,4.000000,2.000000,4.000000,4.000000,4.000000,4.000000,4.000000,4.000000,4.000000,4.000000,4.000000,4.000000,4.000000,4.000000,4.000000,4.000000,4.000000,4.000000,4.000000,4.000000,4.000000,4.000000,4.000000,4.000000,4.000000,4.000000,4.000000,83.333336
1614129190.106636,124.000000,0.000000,2.449145,7.231465,20.362936,2.056079,18.610184,19.589958,98.628021,29.623758,10.382805,-10.897298,11.623663,-0.372768,16.762119,6.086423,10.543288,5.137094,13.257589,23.662867,-7.465834,17.357681,11.856139,16.422413,-0.736766,7.023718,10.431933,7.285811,0.091095,2.492870,0.852232,-2.596406,-3.512590,-24.762739,8064.000000,0.000000,4.000000,,,,0.000000,4.000000,4.000000,4.000000,4.000000,4.000000,4.000000,2.000000,4.000000,4.000000,4.000000,4.000000,4.000000,4.000000,4.000000,4.000000,4.000000,4.000000,4.000000,4.000000,4.000000,4.000000,4.000000,4.000000,4.000000,4.000000,4.000000,4.000000,4.000000,4.000000,4.000000,4.000000,4.000000,83.333336
1614129190.114385,125.000000,0.000000,1.933875,7.737054,13.675906,1.028382,17.565931,19.570368,66.221703,28.055672,8.833961,-12.424862,16.227425,6.294271,29.565870,16.849567,18.737873,7.183239,15.808434,26.203306,2.798042,24.006990,23.639154,18.970093,-0.736030,7.016695,11.959963,6.765705,1.629465,2.490377,0.851380,-3.106630,-4.021898,-28.327721,8064.000000,0.000000,4.000000,,,,0.000000,4.000000,4.000000,4.000000,4.000000,4.000000,4.000000,2.000000,4.000000,4.000000,4.000000,4.000000,4.000000,4.000000,4.000000,4.000000,4.000000,4.000000,4.000000,4.000000,4.000000,4.000000,4.000000,4.000000,4.000000,4.000000,4.000000,4.000000,4.000000,4.000000,4.000000,4.000000,4.000000,83.333336
1614129190.122134,126.000000,0.000000,2.957582,7.216497,14.687872,7.694021,19.086828,19.037977,90.770859,32.130180,17.030254,-4.207309,30.057350,10.903362,39.792713,34.781437,30.514008,13.329903,16.305447,27.715565,7.923450,29.624008,38.487309,24.592148,2.341630,9.060960,22.204412,8.810221,4.191938,1.975067,1.363349,3.563143,-1.453774,-17.530163,8064.000000,0.000000,4.000000,,,,0.000000,4.000000,4.000000,4.000000,4.000000,4.000000,4.000000,2.000000,4.000000,4.000000,4.000000,4.000000,4.000000,4.000000,4.000000,4.000000,4.000000,4.000000,4.000000,4.000000,4.000000,4.000000,4.000000,4.000000,4.000000,4.000000,4.000000,4.000000,4.000000,4.000000,4.000000,4.000000,4.000000,83.333336
1614129190.129783,127.000000,0.000000,5.518727,7.209280,22.878311,18.455557,25.734407,19.531759,123.500603,41.328819,30.346558,8.617412,36.693958,10.379638,39.752922,48.592808,34.586056,21.008881,16.801962,27.687849,7.915526,31.132847,44.089848,29.182941,6.954672,14.692924,31.412977,12.903975,8.290311,2.998733,0.849165,9.713426,2.137424,-4.179299,8064.000000,0.000000,4.000000,,,,0.000000,4.000000,4.000000,4.000000,4.000000,4.000000,4.000000,2.000000,4.000000,4.000000,4.000000,4.000000,4.000000,4.000000,4.000000,4.000000,4.000000,4.000000,4.000000,4.000000,4.000000,4.000000,4.000000,4.000000,4.000000,4.000000,4.000000,4.000000,4.000000,4.000000,4.000000,4.000000,4.000000,83.333336
1614129190.137632,0.000000,0.000000,6.538849,7.202071,25.932356,22.026846,32.375340,21.563511,99.787361,45.390057,29.803391,13.224178,34.093163,10.369259,39.200348,49.057037,34.038651,23.039154,16.272339,27.660160,5.343508,30.076073,40.968834,28.640938,7.460538,21.344898,30.868744,14.429532,9.820482,5.559836,0.848316,7.139610,4.186568,-5.713581,0.000000,196.000000,4.000000,,,,0.000000,4.000000,4.000000,4.000000,4.000000,4.000000,4.000000,2.000000,4.000000,4.000000,4.000000,4.000000,4.000000,4.000000,4.000000,4.000000,4.000000,4.000000,4.000000,4.000000,4.000000,4.000000,4.000000,4.000000,4.000000,4.000000,4.000000,4.000000,4.000000,4.000000,4.000000,4.000000,4.000000,83.333336
1614129190.145381,1.000000,0.000000,6.019490,7.194869,24.880783,20.466356,33.368607,23.080408,67.379883,43.806202,21.055639,11.159673,34.571892,9.846068,39.673969,48.495159,34.004612,20.452011,16.256067,26.094040,-1.841323,29.533176,35.286842,28.099476,6.940257,23.374836,29.299414,13.902283,8.785021,6.579917,0.847467,1.491445,4.182382,-11.861713,0.000000,169.000000,4.000000,,,,0.000000,4.000000,4.000000,4.000000,4.000000,4.000000,4.000000,2.000000,4.000000,4.000000,4.000000,4.000000,4.000000,4.000000,4.000000,4.000000,4.000000,4.000000,4.000000,4.000000,4.000000,4.000000,4.000000,4.000000,4.000000,4.000000,4.000000,4.000000,4.000000,4.000000,4.000000,4.000000,4.000000,83.333336
1614129190.153230,2.000000,0.000000,6.013471,7.187674,25.368723,20.958712,32.309597,23.057327,85.261215,44.275219,20.521763,11.148513,35.562962,10.861864,39.634293,49.985126,37.560352,20.944380,18.803913,24.016663,-7.993328,31.042105,29.610529,29.097017,7.446137,20.787357,31.321396,14.401200,9.289056,6.060517,0.846620,-0.048508,3.152558,-11.849852,0.000000,127.000000,4.000000,,,,0.000000,4.000000,4.000000,4.000000,4.000000,4.000000,4.000000,2.000000,4.000000,4.000000,4.000000,4.000000,4.000000,4.000000,4.000000,4.000000,4.000000,4.000000,4.000000,4.000000,4.000000,4.000000,4.000000,4.000000,4.000000,4.000000,4.000000,4.000000,4.000000,4.000000,4.000000,4.000000,4.000000,83.333336
1614129190.160980,3.000000,0.000000,6.007457,7.180487,25.856174,21.450573,32.790108,23.034271,117.996468,43.718121,22.552523,9.086082,34.501755,12.902284,38.056198,41.217190,38.548431,21.949078,20.836391,22.454185,-11.575078,26.908497,20.862970,26.503819,5.900230,19.228109,30.264435,14.386800,7.741305,6.054457,1.358594,1.490002,-0.440338,-11.838002,0.000000,169.000000,4.000000,,,,0.000000,4.000000,4.000000,4.000000,4.000000,4.000000,4.000000,2.000000,4.000000,4.000000,4.000000,4.000000,4.000000,4.000000,4.000000,4.000000,4.000000,4.000000,4.000000,4.000000,4.000000,4.000000,4.000000,4.000000,4.000000,4.000000,4.000000,4.000000,4.000000,4.000000,4.000000,4.000000,4.000000,83.333336
1614129190.168829,4.000000,0.000000,6.001450,7.173306,24.804678,20.403481,32.757317,23.011236,108.647705,40.597481,20.478689,4.461611,33.954433,9.299638,31.351475,25.791359,29.791935,11.157897,14.661709,16.790705,-21.819914,13.035436,5.970312,17.759365,3.330227,18.183241,26.131605,12.321131,3.118180,6.048402,0.844415,0.462871,-3.516821,-15.415908,0.000000,192.000000,4.000000,,,,0.000000,4.000000,4.000000,4.000000,4.000000,4.000000,4.000000,2.000000,4.000000,4.000000,4.000000,4.000000,4.000000,4.000000,4.000000,4.000000,4.000000,4.000000,4.000000,4.000000,4.000000,4.000000,4.000000,4.000000,4.000000,4.000000,4.000000,4.000000,4.000000,4.000000,4.000000,4.000000,4.000000,83.333336
1614129190.176578,5.000000,0.000000,5.995448,7.678953,25.805513,20.383078,32.724560,22.988226,89.564697,40.044064,20.971029,3.431509,33.920479,3.136492,18.499611,17.560438,13.864707,-7.827620,6.441919,9.081607,-28.464760,3.278810,-1.215146,10.049298,2.814076,15.600954,22.515730,10.257527,1.063779,6.042354,1.356391,-0.050413,-3.513304,-16.426132,0.000000,165.000000,4.000000,,,,0.000000,4.000000,4.000000,4.000000,4.000000,4.000000,4.000000,2.000000,4.000000,4.000000,4.000000,4.000000,4.000000,4.000000,4.000000,4.000000,4.000000,4.000000,4.000000,4.000000,4.000000,4.000000,4.000000,4.000000,4.000000,4.000000,4.000000,4.000000,4.000000,4.000000,4.000000,4.000000,4.000000,83.333336
1614129190.184427,6.000000,0.000000,5.989453,7.158454,28.343811,20.362696,32.179012,22.965237,61.270004,40.004021,24.026981,3.428077,33.886559,1.594894,10.788804,17.542879,6.671355,-7.819792,4.384195,4.457140,-24.846552,2.762711,5.452736,9.013608,2.811262,11.482789,19.929111,9.734449,1.575536,6.036312,0.842214,3.026561,-3.509791,-15.384066,0.000000,209.000000,4.000000,,,,0.000000,4.000000,4.000000,4.000000,4.000000,4.000000,4.000000,2.000000,4.000000,4.000000,4.000000,4.000000,4.000000,4.000000,4.000000,4.000000,4.000000,4.000000,4.000000,4.000000,4.000000,4.000000,4.000000,4.000000,4.000000,4.000000,4.000000,4.000000,4.000000,4.000000,4.000000,4.000000,4.000000,83.333336
1614129190.192176,7.000000,0.000000,5.983463,5.100013,26.777006,18.291050,32.146835,22.942272,53.516426,37.399914,23.490135,3.937470,33.852673,2.106120,15.393399,17.525335,14.356991,5.521361,5.405452,3.939863,-24.821705,4.811230,12.113950,13.107159,3.834092,9.420025,18.883543,10.237535,1.573960,6.030275,-2.748372,3.023534,-3.506281,-16.907143,0.000000,206.000000,4.000000,,,,0.000000,4.000000,4.000000,4.000000,4.000000,4.000000,4.000000,2.000000,4.000000,4.000000,4.000000,4.000000,4.000000,4.000000,4.000000,4.000000,4.000000,4.000000,4.000000,4.000000,4.000000,4.000000,4.000000,4.000000,4.000000,4.000000,4.000000,4.000000,4.000000,4.000000,4.000000,4.000000,4.000000,83.333336
1614129190.200025,8.000000,0.000000,5.977480,3.556452,24.698946,16.221478,32.114689,22.919329,86.283424,36.849693,20.902542,2.907891,34.331638,5.180937,23.583134,16.994989,24.599045,9.618403,4.887226,10.089769,-19.155857,18.139753,10.563375,19.247898,5.881540,10.949066,18.351839,10.227298,1.059566,6.024245,-6.335367,-1.594874,-4.528416,-21.505621,0.000000,175.000000,4.000000,,,,0.000000,4.000000,4.000000,4.000000,4.000000,4.000000,4.000000,2.000000,4.000000,4.000000,4.000000,4.000000,4.000000,4.000000,4.000000,4.000000,4.000000,4.000000,4.000000,4.000000,4.000000,4.000000,4.000000,4.000000,4.000000,4.000000,4.000000,4.000000,4.000000,4.000000,4.000000,4.000000,4.000000,83.333336
1614129190.207774,9.000000,0.000000,5.971502,3.040075,24.674248,16.718077,32.082573,22.896410,103.120216,39.376945,20.368818,0.853701,34.297310,13.893704,28.174936,21.593380,30.215471,13.711349,4.882339,23.413013,4.965862,39.147255,11.578452,23.844034,7.414120,15.553501,18.333487,10.729891,1.571327,6.018220,-7.354672,-7.234304,-6.575169,-24.561039,0.000000,189.000000,4.000000,,,,0.000000,4.000000,4.000000,4.000000,4.000000,4.000000,4.000000,2.000000,4.000000,4.000000,4.000000,4.000000,4.000000,4.000000,4.000000,4.000000,4.000000,4.000000,4.000000,4.000000,4.000000,4.000000,4.000000,4.000000,4.000000,4.000000,4.000000,4.000000,4.000000,4.000000,4.000000,4.000000,4.000000,83.333336
1614129190.215623,10.000000,0.000000,5.965531,3.549855,25.162394,16.701359,32.050491,22.873514,70.709404,40.363209,20.861271,-0.172793,34.263012,18.495195,30.198044,28.751272,33.774998,26.518150,4.877457,32.107548,17.268589,46.287594,21.823284,24.845831,6.893885,19.127691,18.827972,10.206341,1.569756,6.012202,-5.808856,-7.739891,-7.594235,-22.485195,0.000000,203.000000,4.000000,,,,0.000000,4.000000,4.000000,4.000000,4.000000,4.000000,4.000000,2.000000,4.000000,4.000000,4.000000,4.000000,4.000000,4.000000,4.000000,4.000000,4.000000,4.000000,4.000000,4.000000,4.000000,4.000000,4.000000,4.000000,4.000000,4.000000,4.000000,4.000000,4.000000,4.000000,4.000000,4.000000,4.000000,83.333336
1614129190.223372,11.000000,0.000000,5.959565,3.033485,24.624411,16.171837,32.018440,22.850639,62.433567,39.297203,20.840410,-0.172621,33.715927,15.912598,31.193485,33.337906,36.818146,29.568556,4.359758,29.511339,2.379525,43.164383,32.057869,24.308165,6.886992,17.570103,18.296326,10.708955,1.568186,6.006190,1.376440,-0.552664,-7.073820,-18.360146,0.000000,193.000000,4.000000,,,,0.000000,4.000000,4.000000,4.000000,4.000000,4.000000,4.000000,2.000000,4.000000,4.000000,4.000000,4.000000,4.000000,4.000000,4.000000,4.000000,4.000000,4.000000,4.000000,4.000000,4.000000,4.000000,4.000000,4.000000,4.000000,4.000000,4.000000,4.000000,4.000000,4.000000,4.000000,4.000000,4.000000,83.333336
1614129190.231221,12.000000,0.000000,5.953606,3.543272,24.599787,16.668486,31.986422,22.827789,95.191643,39.770729,20.819569,-0.172448,34.707851,17.435146,31.675114,33.304569,38.832611,22.359499,5.381040,30.507467,-6.340803,40.044296,33.564274,24.796677,6.880105,18.578173,18.278028,10.698246,1.053797,6.000184,8.041730,7.653017,-7.066747,-15.264862,0.000000,200.000000,4.000000,,,,0.000000,4.000000,4.000000,4.000000,4.000000,4.000000,4.000000,2.000000,4.000000,4.000000,4.000000,4.000000,4.000000,4.000000,4.000000,4.000000,4.000000,4.000000,4.000000,4.000000,4.000000,4.000000,4.000000,4.000000,4.000000,4.000000,4.000000,4.000000,4.000000,4.000000,4.000000,4.000000,4.000000,83.333336
1614129190.238970,13.000000,0.000000,6.460473,3.539729,25.088007,16.651815,31.954435,22.804962,96.634918,39.730957,20.798750,0.340545,32.109043,18.443352,31.643438,31.219982,34.691216,21.311499,6.401300,33.553883,-3.770360,25.645277,23.274300,24.771881,7.386045,19.072416,19.285391,6.072163,1.565564,5.994184,4.443944,4.568441,-7.059680,-15.249598,0.000000,194.000000,4.000000,,,,0.000000,4.000000,4.000000,4.000000,4.000000,4.000000,4.000000,2.000000,4.000000,4.000000,4.000000,4.000000,4.000000,4.000000,4.000000,4.000000,4.000000,4.000000,4.000000,4.000000,4.000000,4.000000,4.000000,4.000000,4.000000,4.000000,4.000000,4.000000,4.000000,4.000000,4.000000,4.000000,4.000000,83.333336
1614129190.246619,14.000000,0.000000,5.941192,3.023368,24.550098,12.532600,31.922482,21.243694,64.230591,40.204048,20.777950,-0.685437,25.410267,9.194139,29.560513,29.137480,26.451395,17.187624,4.343616,19.161356,-17.612743,4.593990,3.251026,20.644545,6.865839,11.361035,17.727644,-0.600576,-1.000104,5.475369,-2.739987,-3.641256,-7.052620,-17.798450,0.000000,205.000000,4.000000,,,,0.000000,4.000000,4.000000,4.000000,4.000000,4.000000,4.000000,2.000000,4.000000,4.000000,4.000000,4.000000,4.000000,4.000000,4.000000,4.000000,4.000000,4.000000,4.000000,4.000000,4.000000,4.000000,4.000000,4.000000,4.000000,4.000000,4.000000,4.000000,4.000000,4.000000,4.000000,4.000000,4.000000,83.333336
1614129190.254368,15.000000,0.000000,5.935250,4.045986,25.038370,9.443145,31.890558,18.658348,49.294563,39.138203,20.757174,-0.171931,22.820753,3.543920,26.966850,29.108343,20.271097,8.452487,6.390555,3.757579,-33.492565,1.512473,-8.547097,16.521336,5.833332,2.631726,15.145814,-1.625616,-3.563207,5.982714,-3.250067,-7.227358,-7.558388,-18.806293,0.000000,171.000000,4.000000,,,,0.000000,4.000000,4.000000,4.000000,4.000000,4.000000,4.000000,2.000000,4.000000,4.000000,4.000000,4.000000,4.000000,4.000000,4.000000,4.000000,4.000000,4.000000,4.000000,4.000000,4.000000,4.000000,4.000000,4.000000,4.000000,4.000000,4.000000,4.000000,4.000000,4.000000,4.000000,4.000000,4.000000,83.333336
1614129190.262017,16.000000,0.000000,9.006238,6.093222,27.064613,11.484983,31.858667,18.639690,67.706810,39.611885,20.736416,4.443626,26.387676,12.258325,26.939882,29.079233,20.763647,12.033778,20.230318,17.599976,-19.612919,12.280191,5.820424,15.991994,9.930062,4.680376,17.181952,-0.085529,0.030100,9.053655,-2.221176,-7.732951,-4.986727,-16.736204,0.000000,193.000000,4.000000,,,,0.000000,4.000000,4.000000,4.000000,4.000000,4.000000,4.000000,2.000000,4.000000,4.000000,4.000000,4.000000,4.000000,4.000000,4.000000,4.000000,4.000000,4.000000,4.000000,4.000000,4.000000,4.000000,4.000000,4.000000,4.000000,4.000000,4.000000,4.000000,4.000000,4.000000,4.000000,4.000000,4.000000,83.333336
1614129190.269766,17.000000,0.000000,10.535693,7.625590,28.576010,13.524780,31.826809,19.133871,83.023712,40.597912,20.715679,8.541746,27.386930,18.399912,27.425764,29.050154,21.768524,20.226873,23.799831,38.095196,3.996437,18.934578,25.814604,17.001644,10.432953,11.855183,21.267332,1.965838,7.209557,10.070242,-3.244596,-4.648295,-2.930458,-13.129725,0.000000,173.000000,4.000000,,,,0.000000,4.000000,4.000000,4.000000,4.000000,4.000000,4.000000,2.000000,4.000000,4.000000,4.000000,4.000000,4.000000,4.000000,4.000000,4.000000,4.000000,4.000000,4.000000,4.000000,4.000000,4.000000,4.000000,4.000000,4.000000,4.000000,4.000000,4.000000,4.000000,4.000000,4.000000,4.000000,4.000000,83.333336
1614129190.277416,18.000000,0.000000,5.909773,7.105144,28.547434,12.485615,31.794983,18.601917,100.889412,36.967571,20.694963,7.507564,24.282619,16.330231,26.885517,29.021105,20.721115,15.591262,9.417057,30.877613,6.556543,17.890003,29.378532,16.984642,0.678930,16.458712,21.246065,5.040796,9.766450,6.470428,-3.241351,1.510199,-3.440348,-12.090954,0.000000,209.000000,4.000000,,,,0.000000,4.000000,4.000000,4.000000,4.000000,4.000000,4.000000,2.000000,4.000000,4.000000,4.000000,4.000000,4.000000,4.000000,4.000000,4.000000,4.000000,4.000000,4.000000,4.000000,4.000000,4.000000,4.000000,4.000000,4.000000,4.000000,4.000000,4.000000,4.000000,4.000000,4.000000,4.000000,4.000000,83.333336
1614129190.285165,19.000000,0.000000,1.801299,7.098039,28.006065,12.473129,31.763187,19.096136,105.403908,32.828041,20.674269,7.500056,22.719875,15.801080,27.371452,28.479263,20.187572,8.909003,5.305076,21.615967,-1.142321,16.846472,26.272232,16.454836,-3.937134,18.493536,18.660717,6.574216,8.731043,6.463958,-3.750931,5.098433,-2.924088,-12.078863,0.000000,171.000000,4.000000,,,,0.000000,4.000000,4.000000,4.000000,4.000000,4.000000,4.000000,2.000000,4.000000,4.000000,4.000000,4.000000,4.000000,4.000000,4.000000,4.000000,4.000000,4.000000,4.000000,4.000000,4.000000,4.000000,4.000000,4.000000,4.000000,4.000000,4.000000,4.000000,4.000000,4.000000,4.000000,4.000000,4.000000,83.333336
1614129190.292814,20.000000,0.000000,3.850780,7.090941,28.490881,12.973476,31.731424,21.641142,92.477989,36.384956,20.653595,8.518197,23.209976,17.323740,29.908182,28.963604,23.757130,19.156506,19.145926,34.927685,-0.628359,24.009111,26.245958,18.489664,5.810393,18.475042,18.129236,6.567642,8.722312,9.534417,-1.695897,7.144617,-0.357061,-10.015502,0.000000,203.000000,4.000000,,,,0.000000,4.000000,4.000000,4.000000,4.000000,4.000000,4.000000,2.000000,4.000000,4.000000,4.000000,4.000000,4.000000,4.000000,4.000000,4.000000,4.000000,4.000000,4.000000,4.000000,4.000000,4.000000,4.000000,4.000000,4.000000,4.000000,4.000000,4.000000,4.000000,4.000000,4.000000,4.000000,4.000000,83.333336
1614129190.300563,21.000000,0.000000,6.411032,7.083850,28.462389,12.960504,31.699694,23.157963,105.718842,37.887032,20.632940,3.894294,23.186766,17.306417,31.416737,29.447460,28.861576,33.496323,25.280624,43.610706,0.910731,31.677410,27.758175,21.035276,11.958429,17.943747,18.623926,6.561075,9.739230,8.499242,2.921183,8.675933,0.668937,-7.954205,0.000000,189.000000,4.000000,,,,0.000000,4.000000,4.000000,4.000000,4.000000,4.000000,4.000000,2.000000,4.000000,4.000000,4.000000,4.000000,4.000000,4.000000,4.000000,4.000000,4.000000,4.000000,4.000000,4.000000,4.000000,4.000000,4.000000,4.000000,4.000000,4.000000,4.000000,4.000000,4.000000,4.000000,4.000000,4.000000,4.000000,83.333336
1614129190.308212,22.000000,0.000000,5.891800,7.076766,28.433928,12.947543,31.667994,22.621984,131.254150,33.233761,20.612309,-2.776267,23.676401,16.776289,30.872499,27.366732,29.858356,29.873083,22.691242,31.259401,-8.833769,24.979067,27.730417,19.475780,7.843906,18.951445,18.605303,6.554513,7.678209,5.926640,5.482364,5.077514,0.155448,-7.946250,0.000000,206.000000,4.000000,,,,0.000000,4.000000,4.000000,4.000000,4.000000,4.000000,4.000000,2.000000,4.000000,4.000000,4.000000,4.000000,4.000000,4.000000,4.000000,4.000000,4.000000,4.000000,4.000000,4.000000,4.000000,4.000000,4.000000,4.000000,4.000000,4.000000,4.000000,4.000000,4.000000,4.000000,4.000000,4.000000,4.000000,83.333336
1614129190.315961,23.000000,0.000000,5.885909,7.069689,28.405493,12.934595,31.636326,22.599361,109.584435,34.738987,20.591696,-4.311952,22.114262,16.759514,30.328806,24.262442,27.777216,15.484235,22.668550,17.381989,-19.081347,11.620754,16.420635,14.328099,6.297601,17.394032,18.073877,6.547959,4.080787,5.920713,4.451241,0.457052,0.155292,-8.451125,0.000000,204.000000,4.000000,,,,0.000000,4.000000,4.000000,4.000000,4.000000,4.000000,4.000000,2.000000,4.000000,4.000000,4.000000,4.000000,4.000000,4.000000,4.000000,4.000000,4.000000,4.000000,4.000000,4.000000,4.000000,4.000000,4.000000,4.000000,4.000000,4.000000,4.000000,4.000000,4.000000,4.000000,4.000000,4.000000,4.000000,83.333336
1614129190.323610,24.000000,0.000000,3.828741,7.062620,27.864267,11.896020,31.604689,22.576763,77.167160,39.832455,20.058283,-3.794820,22.092148,16.742754,30.811298,23.725359,28.262259,10.853367,22.645882,12.749222,-20.087906,9.557852,-1.031683,11.236848,7.316945,12.761252,18.055803,6.028591,1.512604,5.914792,4.446790,-1.081867,0.155137,-8.955494,0.000000,187.000000,4.000000,,,,0.000000,4.000000,4.000000,4.000000,4.000000,4.000000,4.000000,2.000000,4.000000,4.000000,4.000000,4.000000,4.000000,4.000000,4.000000,4.000000,4.000000,4.000000,4.000000,4.000000,4.000000,4.000000,4.000000,4.000000,4.000000,4.000000,4.000000,4.000000,4.000000,4.000000,4.000000,4.000000,4.000000,83.333336
1614129190.331359,25.000000,0.000000,2.286450,7.055557,28.349224,12.909764,31.573084,22.554186,85.807938,39.279800,20.551046,-4.816666,23.608517,16.726011,30.780487,24.727274,28.233997,14.432257,19.546312,12.736472,-21.093458,10.573935,-5.133216,9.687149,7.309628,10.184388,18.037748,6.022562,0.998271,5.396057,4.955163,-0.055144,0.154982,-8.433719,0.000000,196.000000,4.000000,,,,0.000000,4.000000,4.000000,4.000000,4.000000,4.000000,4.000000,2.000000,4.000000,4.000000,4.000000,4.000000,4.000000,4.000000,4.000000,4.000000,4.000000,4.000000,4.000000,4.000000,4.000000,4.000000,4.000000,4.000000,4.000000,4.000000,4.000000,4.000000,4.000000,4.000000,4.000000,4.000000,4.000000,83.333336
1614129190.339008,26.000000,0.000000,2.284164,7.048501,27.808054,13.409676,32.054333,22.531631,96.491364,38.727699,20.530495,-3.786208,19.482346,15.683644,28.698423,18.548700,20.513454,9.289619,19.013947,8.621172,-29.790314,5.435156,-2.051160,8.651821,6.276677,10.687024,19.558170,6.529360,1.510093,6.416302,3.924567,0.457732,0.154827,-7.912464,0.000000,198.000000,4.000000,,,,0.000000,4.000000,4.000000,4.000000,4.000000,4.000000,4.000000,2.000000,4.000000,4.000000,4.000000,4.000000,4.000000,4.000000,4.000000,4.000000,4.000000,4.000000,4.000000,4.000000,4.000000,4.000000,4.000000,4.000000,4.000000,4.000000,4.000000,4.000000,4.000000,4.000000,4.000000,4.000000,4.000000,83.333336
1614129190.346857,27.000000,0.000000,0.743418,7.041453,24.703323,8.268061,32.022278,22.509100,89.728203,39.201794,17.945862,-2.756781,11.770555,13.103858,24.054340,10.837845,8.185249,-2.514542,19.507753,6.048448,-28.734882,7.993823,-1.536288,8.643169,5.244759,9.650697,18.000151,5.497190,0.995762,2.820142,0.843720,-4.670931,-0.358148,-10.468654,0.000000,189.000000,4.000000,,,,0.000000,4.000000,4.000000,4.000000,4.000000,4.000000,4.000000,2.000000,4.000000,4.000000,4.000000,4.000000,4.000000,4.000000,4.000000,4.000000,4.000000,4.000000,4.000000,4.000000,4.000000,4.000000,4.000000,4.000000,4.000000,4.000000,4.000000,4.000000,4.000000,4.000000,4.000000,4.000000,4.000000,83.333336
1614129190.354606,28.000000,0.000000,-1.308607,7.034411,24.678619,6.721331,31.477434,22.486591,85.535912,38.649773,17.415094,-3.779665,15.348528,12.065113,21.466185,22.621878,12.279629,1.590536,18.975424,19.888554,-11.270250,21.831984,13.337044,11.198628,2.675412,10.666687,17.982151,7.030154,1.507587,-1.798063,0.330055,-2.614978,0.155030,-9.945365,0.000000,167.000000,4.000000,,,,0.000000,4.000000,4.000000,4.000000,4.000000,4.000000,4.000000,2.000000,4.000000,4.000000,4.000000,4.000000,4.000000,4.000000,4.000000,4.000000,4.000000,4.000000,4.000000,4.000000,4.000000,4.000000,4.000000,4.000000,4.000000,4.000000,4.000000,4.000000,4.000000,4.000000,4.000000,4.000000,4.000000,83.333336
1614129190.362455,29.000000,0.000000,0.231163,7.027377,29.269325,14.919738,32.984421,22.464104,61.347813,41.688046,22.525885,3.403602,30.204975,14.617150,28.624205,48.753101,33.292992,22.614588,19.469269,41.407127,1.048712,30.015280,36.400631,17.341276,2.672736,15.784225,23.605194,13.176970,1.506080,1.793479,4.432290,15.849175,2.206157,-2.243112,0.000000,196.000000,4.000000,,,,0.000000,4.000000,4.000000,4.000000,4.000000,4.000000,4.000000,2.000000,4.000000,4.000000,4.000000,4.000000,4.000000,4.000000,4.000000,4.000000,4.000000,4.000000,4.000000,4.000000,4.000000,4.000000,4.000000,4.000000,4.000000,4.000000,4.000000,4.000000,4.000000,4.000000,4.000000,4.000000,4.000000,83.333336
1614129190.370204,30.000000,0.000000,1.769393,7.020350,32.316978,21.571486,35.515537,22.441641,54.106976,45.748920,27.631565,17.246351,39.918358,16.653816,37.313530,54.345375,45.567390,33.361202,21.501083,47.519566,0.022023,29.985264,43.030895,23.477781,7.798269,18.332544,24.607231,17.779177,1.504573,8.971172,8.530421,30.705120,3.742413,3.400157,0.000000,193.000000,4.000000,,,,0.000000,4.000000,4.000000,4.000000,4.000000,4.000000,4.000000,2.000000,4.000000,4.000000,4.000000,4.000000,4.000000,4.000000,4.000000,4.000000,4.000000,4.000000,4.000000,4.000000,4.000000,4.000000,4.000000,4.000000,4.000000,4.000000,4.000000,4.000000,4.000000,4.000000,4.000000,4.000000,4.000000,83.333336
1614129190.378053,31.000000,0.000000,4.331727,7.013330,31.771841,20.011452,33.941559,22.419199,86.873383,46.728813,27.603933,17.741926,35.263058,16.637161,34.712112,38.906414,40.906437,29.738098,23.530863,44.907944,0.022001,29.955278,41.449402,24.992765,10.867393,18.314211,15.351854,18.274220,2.015889,10.500663,9.034712,29.135954,5.277132,2.371116,0.000000,161.000000,4.000000,,,,0.000000,4.000000,4.000000,4.000000,4.000000,4.000000,4.000000,2.000000,4.000000,4.000000,4.000000,4.000000,4.000000,4.000000,4.000000,4.000000,4.000000,4.000000,4.000000,4.000000,4.000000,4.000000,4.000000,4.000000,4.000000,4.000000,4.000000,4.000000,4.000000,4.000000,4.000000,4.000000,4.000000,83.333336
1614129190.385803,32.000000,0.000000,8.942780,7.006316,31.227249,19.991440,26.728130,22.396780,101.145485,46.682083,27.063509,1.313928,24.458563,16.620525,27.497913,31.688021,34.711685,29.708361,22.994513,45.375854,0.021979,27.874041,41.920773,23.942131,10.343706,19.834358,9.695477,17.743124,1.501053,8.951701,7.487215,26.029896,7.323137,3.394386,8192.000000,0.000000,4.000000,,,,0.000000,4.000000,4.000000,4.000000,4.000000,4.000000,4.000000,2.000000,4.000000,4.000000,4.000000,4.000000,4.000000,4.000000,4.000000,4.000000,4.000000,4.000000,4.000000,4.000000,4.000000,4.000000,4.000000,4.000000,4.000000,4.000000,4.000000,4.000000,4.000000,4.000000,4.000000,4.000000,4.000000,83.333336
1614129190.393652,33.000000,0.000000,8.421016,6.999310,29.657560,19.971449,21.060377,22.374382,68.736649,46.122581,27.549265,-8.943796,18.793077,16.603905,25.931955,29.605051,30.061588,25.576088,21.945877,38.150993,-5.619069,23.230783,32.135265,24.431009,11.359003,21.865807,11.224243,17.212561,0.986731,9.455569,8.505369,24.978224,7.828634,2.365350,8064.000000,0.000000,4.000000,,,,0.000000,4.000000,4.000000,4.000000,4.000000,4.000000,4.000000,2.000000,4.000000,4.000000,4.000000,4.000000,4.000000,4.000000,4.000000,4.000000,4.000000,4.000000,4.000000,4.000000,4.000000,4.000000,4.000000,4.000000,4.000000,4.000000,4.000000,4.000000,4.000000,4.000000,4.000000,4.000000,4.000000,83.333336
1614129190.401401,34.000000,0.000000,6.361313,6.992311,28.089441,17.387375,20.526497,22.352009,58.924320,39.922611,27.521715,-6.883571,19.287106,16.587299,27.444485,20.344677,20.800758,9.140255,23.462393,23.241047,-11.767296,21.156269,19.282616,21.842476,10.322003,22.356760,11.213018,18.733809,2.011386,9.958935,9.522505,17.260939,7.820806,-6.354964,8064.000000,0.000000,4.000000,,,,0.000000,4.000000,4.000000,4.000000,4.000000,4.000000,4.000000,2.000000,4.000000,4.000000,4.000000,4.000000,4.000000,4.000000,4.000000,4.000000,4.000000,4.000000,4.000000,4.000000,4.000000,4.000000,4.000000,4.000000,4.000000,4.000000,4.000000,4.000000,4.000000,4.000000,4.000000,4.000000,4.000000,83.333336
1614129190.409250,35.000000,0.000000,6.354952,6.985318,28.061352,15.831526,20.505970,22.329657,91.685905,34.754486,27.494194,-6.876687,19.267818,17.083532,26.391399,15.708947,13.600470,0.413166,22.926109,12.448575,-24.576042,13.955626,11.058205,11.564223,2.106553,20.283121,10.176165,16.663794,0.470913,9.948976,3.871956,6.987267,7.812984,-13.015276,8192.000000,0.000000,4.000000,,,,0.000000,4.000000,4.000000,4.000000,4.000000,4.000000,4.000000,2.000000,4.000000,4.000000,4.000000,4.000000,4.000000,4.000000,4.000000,4.000000,4.000000,4.000000,4.000000,4.000000,4.000000,4.000000,4.000000,4.000000,4.000000,4.000000,4.000000,4.000000,4.000000,4.000000,4.000000,4.000000,4.000000,83.333336
1614129190.416999,36.000000,0.000000,2.758853,6.978333,27.520470,16.328514,19.459824,22.307327,96.209610,34.719730,27.466700,-8.408272,18.222910,15.527988,26.877829,16.206059,8.971484,0.925574,15.210876,4.230999,-43.013004,1.121158,-0.747725,0.783428,-5.075041,12.057711,10.678809,7.929181,-6.196225,7.887744,-5.875505,0.826434,3.189787,-13.002260,8064.000000,0.000000,4.000000,,,,0.000000,4.000000,4.000000,4.000000,4.000000,4.000000,4.000000,2.000000,4.000000,4.000000,4.000000,4.000000,4.000000,4.000000,4.000000,4.000000,4.000000,4.000000,4.000000,4.000000,4.000000,4.000000,4.000000,4.000000,4.000000,4.000000,4.000000,4.000000,4.000000,4.000000,4.000000,4.000000,4.000000,83.333336
1614129190.424848,37.000000,0.000000,-1.346470,6.971354,27.492949,16.312187,20.978825,22.285019,63.805706,34.685009,27.439234,-4.810120,18.717506,12.948358,26.338129,16.702673,9.475333,0.924648,10.580280,3.713947,-40.918709,2.658499,-4.336721,1.295465,-5.069966,5.891807,10.668130,2.280226,-9.779772,5.828575,-7.920912,-0.712854,-0.403146,-11.963617,8064.000000,0.000000,4.000000,,,,0.000000,4.000000,4.000000,4.000000,4.000000,4.000000,4.000000,2.000000,4.000000,4.000000,4.000000,4.000000,4.000000,4.000000,4.000000,4.000000,4.000000,4.000000,4.000000,4.000000,4.000000,4.000000,4.000000,4.000000,4.000000,4.000000,4.000000,4.000000,4.000000,4.000000,4.000000,4.000000,4.000000,83.333336
1614129190.432597,38.000000,0.000000,0.193338,6.964383,27.978277,15.783053,24.034769,22.262733,52.972668,35.163147,27.411795,-0.189925,19.211611,12.422588,26.311790,27.968021,18.696627,11.180134,18.262007,21.146132,-14.211123,18.040455,11.565051,9.499298,-3.013614,6.911556,15.272846,4.842049,-6.180249,5.309926,-1.759145,-0.712141,0.622898,-12.464474,8064.000000,0.000000,4.000000,,,,0.000000,4.000000,4.000000,4.000000,4.000000,4.000000,4.000000,2.000000,4.000000,4.000000,4.000000,4.000000,4.000000,4.000000,4.000000,4.000000,4.000000,4.000000,4.000000,4.000000,4.000000,4.000000,4.000000,4.000000,4.000000,4.000000,4.000000,4.000000,4.000000,4.000000,4.000000,4.000000,4.000000,83.333336
1614129190.440446,39.000000,0.000000,1.218786,6.957419,25.899017,16.280090,24.010735,22.240471,60.612003,37.692085,26.871561,0.835906,19.192398,12.922987,31.413685,42.811848,29.447161,29.630491,26.961695,40.099342,3.238985,26.227543,23.348358,15.643645,-1.984959,9.468747,20.898600,6.375668,-2.584325,5.817436,1.319538,-1.224250,-0.403366,-12.452009,8064.000000,0.000000,4.000000,,,,0.000000,4.000000,4.000000,4.000000,4.000000,4.000000,4.000000,2.000000,4.000000,4.000000,4.000000,4.000000,4.000000,4.000000,4.000000,4.000000,4.000000,4.000000,4.000000,4.000000,4.000000,4.000000,4.000000,4.000000,4.000000,4.000000,4.000000,4.000000,4.000000,4.000000,4.000000,4.000000,4.000000,83.333336
1614129190.448195,40.000000,0.000000,-1.346535,6.950461,24.334656,16.263811,25.525185,22.218231,86.705238,38.680035,27.357512,0.322249,19.173206,12.910064,32.920734,41.743397,35.058739,33.703426,25.909092,40.572063,0.671644,25.688496,22.299368,17.166462,-0.444513,11.510560,22.416162,6.882113,-2.068920,5.811619,0.292577,2.366718,-0.402963,-11.926737,8192.000000,0.000000,4.000000,,,,0.000000,4.000000,4.000000,4.000000,4.000000,4.000000,4.000000,2.000000,4.000000,4.000000,4.000000,4.000000,4.000000,4.000000,4.000000,4.000000,4.000000,4.000000,4.000000,4.000000,4.000000,4.000000,4.000000,4.000000,4.000000,4.000000,4.000000,4.000000,4.000000,4.000000,4.000000,4.000000,4.000000,83.333336
1614129190.455844,41.000000,0.000000,-2.370830,6.943511,26.361603,16.247547,31.140686,22.196012,110.208275,39.154175,28.355795,0.321927,19.154034,12.897154,27.246786,37.086269,32.459579,22.900492,23.319080,33.864826,-3.944413,25.149986,25.353992,17.662117,-0.444068,16.114435,22.393745,9.439333,1.010072,5.805807,0.805105,10.569480,7.289748,-8.325067,8064.000000,0.000000,4.000000,,,,0.000000,4.000000,4.000000,4.000000,4.000000,4.000000,4.000000,2.000000,4.000000,4.000000,4.000000,4.000000,4.000000,4.000000,4.000000,4.000000,4.000000,4.000000,4.000000,4.000000,4.000000,4.000000,4.000000,4.000000,4.000000,4.000000,4.000000,4.000000,4.000000,4.000000,4.000000,4.000000,4.000000,83.333336
1614129190.463593,42.000000,0.000000,-1.342818,6.936567,28.386524,16.231300,32.135185,22.173817,77.790375,39.115021,24.737696,0.321605,18.622059,12.884256,22.091333,34.997898,21.145067,16.723745,22.270119,33.318142,-4.453289,25.124836,31.995306,16.105993,-0.443624,18.662422,21.858532,10.455535,5.111626,5.800002,1.317120,15.174294,10.872202,-4.726998,8192.000000,0.000000,4.000000,,,,0.000000,4.000000,4.000000,4.000000,4.000000,4.000000,4.000000,2.000000,4.000000,4.000000,4.000000,4.000000,4.000000,4.000000,4.000000,4.000000,4.000000,4.000000,4.000000,4.000000,4.000000,4.000000,4.000000,4.000000,4.000000,4.000000,4.000000,4.000000,4.000000,4.000000,4.000000,4.000000,4.000000,83.333336
1614129190.471242,43.000000,0.000000,-1.341475,6.416811,27.845318,14.676607,26.974846,22.151644,45.404892,33.434879,19.584751,-0.191537,18.090616,12.358552,22.069242,21.116749,14.457256,17.732662,22.247850,33.284821,-1.884733,25.099710,33.501770,15.577066,-0.443181,17.105299,19.785391,9.419438,5.619335,5.794201,0.802983,14.133479,2.143381,-4.209450,8064.000000,0.000000,4.000000,,,,0.000000,4.000000,4.000000,4.000000,4.000000,4.000000,4.000000,2.000000,4.000000,4.000000,4.000000,4.000000,4.000000,4.000000,4.000000,4.000000,4.000000,4.000000,4.000000,4.000000,4.000000,4.000000,4.000000,4.000000,4.000000,4.000000,4.000000,4.000000,4.000000,4.000000,4.000000,4.000000,4.000000,83.333336
1614129190.478991,44.000000,0.000000,-1.340134,7.436035,27.304651,12.610648,23.870947,22.129492,78.180000,26.734779,20.077988,-0.191345,19.610987,12.859014,21.534353,6.223836,12.391517,11.561083,24.276884,26.584871,-0.344387,20.459227,30.904167,18.638412,-0.442737,17.601013,17.714323,9.410019,5.100895,5.788407,0.802180,15.657807,-3.499788,-4.718061,8064.000000,0.000000,4.000000,,,,0.000000,4.000000,4.000000,4.000000,4.000000,4.000000,4.000000,2.000000,4.000000,4.000000,4.000000,4.000000,4.000000,4.000000,4.000000,4.000000,4.000000,4.000000,4.000000,4.000000,4.000000,4.000000,4.000000,4.000000,4.000000,4.000000,4.000000,4.000000,4.000000,4.000000,4.000000,4.000000,4.000000,83.333336
1614129190.486641,45.000000,0.000000,-1.338794,9.479880,27.790167,12.085217,23.847076,21.594542,110.922333,27.220865,18.519449,0.321666,18.052914,11.820514,15.871793,3.140689,-1.467029,-5.886375,17.073120,13.737773,-17.267118,5.054152,18.565571,10.927466,-0.442295,18.609055,18.209431,10.426250,5.095794,5.269798,0.801377,14.616508,1.631917,-4.713344,8064.000000,0.000000,4.000000,,,,0.000000,4.000000,4.000000,4.000000,4.000000,4.000000,4.000000,2.000000,4.000000,4.000000,4.000000,4.000000,4.000000,4.000000,4.000000,4.000000,4.000000,4.000000,4.000000,4.000000,4.000000,4.000000,4.000000,4.000000,4.000000,4.000000,4.000000,4.000000,4.000000,4.000000,4.000000,4.000000,4.000000,83.333336
1614129190.494390,46.000000,0.000000,-1.337455,11.008862,27.762377,12.585952,24.336050,21.572947,78.503716,26.680822,14.911185,-0.191476,14.445118,9.244591,9.702075,7.240113,-8.132228,-11.008694,5.261175,4.493266,-37.762672,-6.745774,2.649569,-1.903974,-0.954673,10.898137,17.678400,8.877362,5.090698,5.777349,0.800576,5.371123,4.194387,-4.708630,8064.000000,0.000000,4.000000,,,,0.000000,4.000000,4.000000,4.000000,4.000000,4.000000,4.000000,2.000000,4.000000,4.000000,4.000000,4.000000,4.000000,4.000000,4.000000,4.000000,4.000000,4.000000,4.000000,4.000000,4.000000,4.000000,4.000000,4.000000,4.000000,4.000000,4.000000,4.000000,4.000000,4.000000,4.000000,4.000000,4.000000,83.333336
1614129190.502039,47.000000,0.000000,-1.336117,10.485033,27.734615,12.060546,26.362997,24.115477,46.117523,26.141321,21.562941,0.834357,21.097340,8.209705,17.384682,23.643129,14.952827,11.053596,9.871298,16.796465,-21.827475,8.645588,10.339227,7.841520,0.071923,1.143649,17.660721,9.381306,5.085608,6.284392,0.799776,4.340111,2.651731,-4.703921,8064.000000,0.000000,4.000000,,,,0.000000,4.000000,4.000000,4.000000,4.000000,4.000000,4.000000,2.000000,4.000000,4.000000,4.000000,4.000000,4.000000,4.000000,4.000000,4.000000,4.000000,4.000000,4.000000,4.000000,4.000000,4.000000,4.000000,4.000000,4.000000,4.000000,4.000000,4.000000,4.000000,4.000000,4.000000,4.000000,4.000000,83.333336
1614129190.509788,48.000000,0.000000,-1.334781,10.474548,27.194059,12.561306,27.362274,25.629822,78.379097,35.345951,33.336250,7.500189,34.922394,11.791239,36.854477,50.798973,38.014797,36.683567,26.784504,42.420696,11.014866,39.406174,34.944271,31.423422,3.148774,7.296351,21.745625,16.551411,4.567701,4.226826,0.286155,15.105001,3.674721,-5.212038,8064.000000,0.000000,4.000000,,,,0.000000,4.000000,4.000000,4.000000,4.000000,4.000000,4.000000,2.000000,4.000000,4.000000,4.000000,4.000000,4.000000,4.000000,4.000000,4.000000,4.000000,4.000000,4.000000,4.000000,4.000000,4.000000,4.000000,4.000000,4.000000,4.000000,4.000000,4.000000,4.000000,4.000000,4.000000,4.000000,4.000000,83.333336
1614129190.517437,49.000000,0.000000,-1.333447,10.464073,27.679686,12.035924,27.334911,25.604193,105.993027,45.567013,34.328556,14.672176,38.477219,16.394833,50.150955,57.927662,41.053707,40.749451,30.860283,47.506477,15.619236,47.059074,43.114456,37.033024,6.735369,21.135210,25.826443,24.227167,5.075954,7.812343,0.798690,16.628359,3.158226,-5.206826,8064.000000,0.000000,4.000000,,,,0.000000,4.000000,4.000000,4.000000,4.000000,4.000000,4.000000,2.000000,4.000000,4.000000,4.000000,4.000000,4.000000,4.000000,4.000000,4.000000,4.000000,4.000000,4.000000,4.000000,4.000000,4.000000,4.000000,4.000000,4.000000,4.000000,4.000000,4.000000,4.000000,4.000000,4.000000,4.000000,4.000000,83.333336
1614129190.525186,50.000000,0.000000,-1.332113,10.453609,29.703289,12.023888,29.358858,27.117050,108.963959,46.547089,30.191662,13.631863,34.848995,16.891258,47.536701,45.562042,41.012653,34.554855,29.290962,36.689743,3.808745,31.627399,31.789291,32.380608,7.241454,26.755100,25.800617,25.228582,7.634981,14.984017,0.797891,10.970704,3.667888,-5.201619,8064.000000,0.000000,4.000000,,,,0.000000,4.000000,4.000000,4.000000,4.000000,4.000000,4.000000,2.000000,4.000000,4.000000,4.000000,4.000000,4.000000,4.000000,4.000000,4.000000,4.000000,4.000000,4.000000,4.000000,4.000000,4.000000,4.000000,4.000000,4.000000,4.000000,4.000000,4.000000,4.000000,4.000000,4.000000,4.000000,4.000000,83.333336
1614129190.532835,51.000000,0.000000,-1.330781,10.443155,31.212046,14.063147,31.380783,29.654036,76.547302,45.474899,30.674290,11.566949,33.275684,15.848725,35.694294,36.798531,34.304974,30.930555,31.312952,33.576130,5.343398,24.929106,25.090836,30.809765,6.721392,24.677063,25.261995,24.177711,9.165808,13.943392,-0.228548,13.523836,9.818067,-3.145135,8064.000000,0.000000,4.000000,,,,0.000000,4.000000,4.000000,4.000000,4.000000,4.000000,4.000000,2.000000,4.000000,4.000000,4.000000,4.000000,4.000000,4.000000,4.000000,4.000000,4.000000,4.000000,4.000000,4.000000,4.000000,4.000000,4.000000,4.000000,4.000000,4.000000,4.000000,4.000000,4.000000,4.000000,4.000000,4.000000,4.000000,83.333336
1614129190.540584,52.000000,0.000000,-1.329450,10.432713,31.180834,16.100365,31.349401,29.624382,44.163059,46.455067,31.156437,10.016920,30.678307,16.858519,25.402187,25.992502,16.834770,22.181677,25.640614,25.850245,-5.431176,23.878536,26.091385,23.086647,6.714671,20.549822,25.236734,25.179174,8.643821,9.314064,2.335783,19.151337,14.936453,0.447753,8064.000000,0.000000,4.000000,,,,0.000000,4.000000,4.000000,4.000000,4.000000,4.000000,4.000000,2.000000,4.000000,4.000000,4.000000,4.000000,4.000000,4.000000,4.000000,4.000000,4.000000,4.000000,4.000000,4.000000,4.000000,4.000000,4.000000,4.000000,4.000000,4.000000,4.000000,4.000000,4.000000,4.000000,4.000000,4.000000,4.000000,83.333336
1614129190.548234,53.000000,0.000000,-1.328121,10.422279,30.636833,16.084265,30.805231,29.081936,71.298386,42.818867,30.099640,4.878698,27.057886,16.328838,20.248581,10.581893,7.587166,9.338982,13.820102,4.798754,-32.605232,13.598247,25.552473,12.807150,6.707956,14.888246,26.237139,24.128355,8.635178,11.356032,6.948832,19.132187,14.921516,5.062690,8064.000000,0.000000,4.000000,,,,0.000000,4.000000,4.000000,4.000000,4.000000,4.000000,4.000000,2.000000,4.000000,4.000000,4.000000,4.000000,4.000000,4.000000,4.000000,4.000000,4.000000,4.000000,4.000000,4.000000,4.000000,4.000000,4.000000,4.000000,4.000000,4.000000,4.000000,4.000000,4.000000,4.000000,4.000000,4.000000,4.000000,83.333336
1614129190.555983,54.000000,0.000000,-1.326793,10.411858,31.119017,15.555360,31.287247,29.052855,104.047600,38.160664,30.069540,-0.767206,26.005186,11.697125,19.202690,6.981568,8.092400,4.714258,9.703717,-0.847071,-33.085449,4.866700,23.988459,11.255881,6.701248,12.822076,25.698080,24.617046,8.626542,11.344676,8.480345,20.651516,13.880954,8.647371,8064.000000,0.000000,4.000000,,,,0.000000,4.000000,4.000000,4.000000,4.000000,4.000000,4.000000,2.000000,4.000000,4.000000,4.000000,4.000000,4.000000,4.000000,4.000000,4.000000,4.000000,4.000000,4.000000,4.000000,4.000000,4.000000,4.000000,4.000000,4.000000,4.000000,4.000000,4.000000,4.000000,4.000000,4.000000,4.000000,4.000000,83.333336
1614129190.563632,55.000000,0.000000,-1.325466,10.401445,31.087898,16.052626,31.255960,29.023802,76.251244,37.609684,30.552290,-0.766439,20.850977,8.608505,17.132206,10.051510,1.417640,2.145441,11.745296,8.384545,-14.078003,4.861833,24.477291,12.783087,6.694547,13.834894,19.518536,24.592430,8.617915,6.205126,7.959044,22.682146,14.892715,10.177185,8064.000000,0.000000,4.000000,,,,0.000000,4.000000,4.000000,4.000000,4.000000,4.000000,4.000000,2.000000,4.000000,4.000000,4.000000,4.000000,4.000000,4.000000,4.000000,4.000000,4.000000,4.000000,4.000000,4.000000,4.000000,4.000000,4.000000,4.000000,4.000000,4.000000,4.000000,4.000000,4.000000,4.000000,4.000000,4.000000,4.000000,83.333336
1614129190.571380,56.000000,0.000000,-1.324140,10.391045,30.543989,15.523752,31.224703,28.994778,43.867302,38.084892,30.521738,0.259969,14.676279,8.599896,15.063792,3.374791,-3.199162,-3.497730,11.220730,9.914622,-13.038284,5.882612,23.939993,11.744663,6.687852,13.308239,13.857992,18.413992,8.609298,4.660460,7.951085,22.146643,14.877822,9.654187,8064.000000,0.000000,4.000000,,,,0.000000,4.000000,4.000000,4.000000,4.000000,4.000000,4.000000,2.000000,4.000000,4.000000,4.000000,4.000000,4.000000,4.000000,4.000000,4.000000,4.000000,4.000000,4.000000,4.000000,4.000000,4.000000,4.000000,4.000000,4.000000,4.000000,4.000000,4.000000,4.000000,4.000000,4.000000,4.000000,4.000000,83.333336
1614129190.579029,57.000000,0.000000,-1.322816,10.380653,30.513445,16.021049,30.680658,28.965784,76.643944,38.046810,30.491217,-0.253112,18.251347,8.591297,15.048728,6.448339,6.034807,2.659614,10.183868,12.468810,-20.717554,6.389550,22.377592,12.245739,6.681164,12.782110,13.331314,12.754552,8.600688,6.194261,8.455955,22.124496,14.350123,9.644533,8064.000000,0.000000,4.000000,,,,0.000000,4.000000,4.000000,4.000000,4.000000,4.000000,4.000000,2.000000,4.000000,4.000000,4.000000,4.000000,4.000000,4.000000,4.000000,4.000000,4.000000,4.000000,4.000000,4.000000,4.000000,4.000000,4.000000,4.000000,4.000000,4.000000,4.000000,4.000000,4.000000,4.000000,4.000000,4.000000,4.000000,83.333336
1614129190.586778,58.000000,0.000000,-1.321493,10.370273,30.995752,18.569130,31.162798,28.936817,109.387817,37.495941,30.460726,-0.252859,25.925404,9.608347,15.546500,31.570097,19.874926,23.169775,11.199326,25.276855,-17.619913,4.844699,20.816753,12.233493,6.674483,13.794970,14.343623,12.228977,8.592088,5.675246,7.934678,20.563911,14.335773,9.634889,8064.000000,0.000000,4.000000,,,,0.000000,4.000000,4.000000,4.000000,4.000000,4.000000,4.000000,2.000000,4.000000,4.000000,4.000000,4.000000,4.000000,4.000000,4.000000,4.000000,4.000000,4.000000,4.000000,4.000000,4.000000,4.000000,4.000000,4.000000,4.000000,4.000000,4.000000,4.000000,4.000000,4.000000,4.000000,4.000000,4.000000,83.333336
1614129190.594427,59.000000,0.000000,-1.320172,10.359902,30.451937,20.089022,31.131636,28.907881,92.355347,37.971268,30.430265,0.260215,26.925117,12.162841,15.530953,48.974422,29.085819,33.403015,13.752229,30.892603,-13.499729,7.403957,20.283115,11.708439,6.667809,13.268353,13.816460,13.242389,8.583495,5.156750,7.926743,14.389501,14.321437,9.625254,8064.000000,0.000000,4.000000,,,,0.000000,4.000000,4.000000,4.000000,4.000000,4.000000,4.000000,2.000000,4.000000,4.000000,4.000000,4.000000,4.000000,4.000000,4.000000,4.000000,4.000000,4.000000,4.000000,4.000000,4.000000,4.000000,4.000000,4.000000,4.000000,4.000000,4.000000,4.000000,4.000000,4.000000,4.000000,4.000000,4.000000,83.333336
1614129190.602276,60.000000,0.000000,-1.318852,10.349543,30.934305,19.556112,29.562042,28.878973,59.955303,37.933296,30.399834,0.259955,22.795630,12.150678,15.515423,38.669041,28.031094,24.651663,15.276937,24.707865,-13.999050,20.217066,23.339756,15.799294,6.661141,13.767906,13.802643,12.716326,8.574912,5.664414,7.918816,10.272547,14.307116,9.102808,8064.000000,0.000000,4.000000,,,,0.000000,4.000000,4.000000,4.000000,4.000000,4.000000,4.000000,2.000000,4.000000,4.000000,4.000000,4.000000,4.000000,4.000000,4.000000,4.000000,4.000000,4.000000,4.000000,4.000000,4.000000,4.000000,4.000000,4.000000,4.000000,4.000000,4.000000,4.000000,4.000000,4.000000,4.000000,4.000000,4.000000,83.333336
1614129190.610025,61.000000,0.000000,-1.317533,10.339192,33.467472,19.536556,27.481197,28.850094,54.254322,36.356899,30.369434,0.259695,19.183090,9.574425,14.474266,24.271395,17.233831,14.883422,15.261661,22.631874,-11.420948,29.940439,26.906158,20.398880,6.654480,16.318241,14.301661,12.703609,9.079158,5.658750,7.910897,10.262275,14.292809,9.093705,8192.000000,0.000000,4.000000,,,,0.000000,4.000000,4.000000,4.000000,4.000000,4.000000,4.000000,2.000000,4.000000,4.000000,4.000000,4.000000,4.000000,4.000000,4.000000,4.000000,4.000000,4.000000,4.000000,4.000000,4.000000,4.000000,4.000000,4.000000,4.000000,4.000000,4.000000,4.000000,4.000000,4.000000,4.000000,4.000000,4.000000,83.333336
1614129190.617874,62.000000,0.000000,-1.316215,10.328854,34.972466,20.029840,26.940897,28.821243,57.276989,34.269260,30.851885,0.259435,18.138266,9.052030,11.895689,24.247124,10.549931,13.330077,15.246399,23.634884,-10.896707,26.320755,28.417715,19.865662,6.647825,17.840384,14.287359,13.203727,8.557258,5.653091,7.902987,10.764832,14.791336,10.623074,8064.000000,0.000000,4.000000,,,,0.000000,4.000000,4.000000,4.000000,4.000000,4.000000,4.000000,2.000000,4.000000,4.000000,4.000000,4.000000,4.000000,4.000000,4.000000,4.000000,4.000000,4.000000,4.000000,4.000000,4.000000,4.000000,4.000000,4.000000,4.000000,4.000000,4.000000,4.000000,4.000000,4.000000,4.000000,4.000000,4.000000,83.333336
1614129190.625623,63.000000,0.000000,-1.314899,10.318524,34.424675,20.009811,27.426777,28.792423,76.706894,33.722172,30.308214,0.259175,18.632948,8.530157,11.370974,25.761339,9.513740,11.778286,15.231153,20.534327,-10.885810,25.268793,29.927759,20.358616,6.641178,17.309723,14.273071,13.190523,8.548700,5.647438,7.895083,10.754068,13.750904,13.176553,8064.000000,0.000000,4.000000,,,,0.000000,4.000000,4.000000,4.000000,4.000000,4.000000,4.000000,2.000000,4.000000,4.000000,4.000000,4.000000,4.000000,4.000000,4.000000,4.000000,4.000000,4.000000,4.000000,4.000000,4.000000,4.000000,4.000000,4.000000,4.000000,4.000000,4.000000,4.000000,4.000000,4.000000,4.000000,4.000000,4.000000,83.333336
1614129190.633472,64.000000,0.000000,-1.313584,10.308207,34.390251,19.476980,27.399349,28.763630,98.681465,34.201271,30.277905,0.258916,18.614315,8.521627,11.872422,21.120193,3.863200,8.689584,14.703101,23.077894,-9.849283,25.243525,25.795267,18.799795,6.634536,17.292414,14.258799,13.177332,9.052973,5.641790,7.887188,10.743314,14.249973,13.676196,0.000000,181.000000,4.000000,,,,0.000000,4.000000,4.000000,4.000000,4.000000,4.000000,4.000000,2.000000,4.000000,4.000000,4.000000,4.000000,4.000000,4.000000,4.000000,4.000000,4.000000,4.000000,4.000000,4.000000,4.000000,4.000000,4.000000,4.000000,4.000000,4.000000,4.000000,4.000000,4.000000,4.000000,4.000000,4.000000,4.000000,83.333336
1614129190.641221,65.000000,0.000000,-1.312271,10.297898,34.868679,19.457504,27.371950,28.734867,66.275093,34.167068,31.273268,-0.766984,18.082880,9.538747,10.834909,17.509329,-2.294509,8.680895,15.201219,22.029175,-15.993280,7.782383,11.410497,3.396380,5.602261,17.275122,14.244540,13.164155,7.505458,5.636148,7.879301,9.706929,16.799826,13.149700,0.000000,195.000000,4.000000,,,,0.000000,4.000000,4.000000,4.000000,4.000000,4.000000,4.000000,2.000000,4.000000,4.000000,4.000000,4.000000,4.000000,4.000000,4.000000,4.000000,4.000000,4.000000,4.000000,4.000000,4.000000,4.000000,4.000000,4.000000,4.000000,4.000000,4.000000,4.000000,4.000000,4.000000,4.000000,4.000000,4.000000,83.333336
1614129190.649070,66.000000,0.000000,-1.310958,10.287601,32.269707,19.950867,25.806116,28.706131,33.901127,32.594440,27.139431,-3.330319,18.577618,3.375361,8.259972,14.927717,-1.779394,7.133752,15.698838,4.058428,-32.900364,-8.122835,3.193958,-10.965990,3.545377,13.155282,14.230295,13.150990,3.908209,5.630512,7.871422,12.261325,17.295847,13.649370,0.000000,153.000000,4.000000,,,,0.000000,4.000000,4.000000,4.000000,4.000000,4.000000,4.000000,4.000000,4.000000,4.000000,4.000000,4.000000,4.000000,4.000000,4.000000,4.000000,4.000000,4.000000,4.000000,4.000000,4.000000,4.000000,4.000000,4.000000,4.000000,4.000000,4.000000,4.000000,4.000000,4.000000,4.000000,4.000000,4.000000,100.000000
1614129190.656819,67.000000,0.000000,-1.309647,10.277312,28.134874,16.853992,23.729029,29.190247,66.687737,30.510563,18.907164,-3.839809,18.559040,-2.269039,6.713250,11.323046,0.786488,4.049695,14.144677,-6.714861,-39.534130,1.116057,6.267687,-3.775537,2.003370,6.988280,14.216065,13.137840,0.827378,5.624882,7.863551,10.197782,12.663167,12.097260,0.000000,180.000000,4.000000,,,,0.000000,4.000000,4.000000,4.000000,4.000000,4.000000,4.000000,4.000000,4.000000,4.000000,4.000000,4.000000,4.000000,4.000000,4.000000,4.000000,4.000000,4.000000,4.000000,4.000000,4.000000,4.000000,4.000000,4.000000,4.000000,4.000000,4.000000,4.000000,4.000000,4.000000,4.000000,4.000000,4.000000,100.000000
1614129190.664668,68.000000,0.000000,-1.308338,10.267035,26.568277,11.708934,23.192478,29.161055,99.441566,29.967232,14.272871,-3.323149,18.540482,6.451178,11.321921,14.901466,8.990829,8.148210,16.694635,9.702110,-25.135622,18.038017,10.363984,13.151315,3.539828,6.981292,14.201849,13.124701,0.826550,5.619257,7.855687,-1.094467,10.086401,10.033880,0.000000,217.000000,4.000000,,,,0.000000,4.000000,4.000000,4.000000,4.000000,4.000000,4.000000,4.000000,4.000000,4.000000,4.000000,4.000000,4.000000,4.000000,4.000000,4.000000,4.000000,4.000000,4.000000,4.000000,4.000000,4.000000,4.000000,4.000000,4.000000,4.000000,4.000000,4.000000,4.000000,4.000000,4.000000,4.000000,4.000000,100.000000
1614129190.672417,69.000000,0.000000,-1.307029,10.256768,27.054531,8.107481,24.194927,27.080612,67.034431,30.450085,15.284240,-3.319826,18.521940,17.213959,17.464445,27.194258,19.751070,12.755446,21.806147,23.538563,-10.751512,22.122543,10.353620,20.317652,6.100390,12.102516,14.700467,13.111577,1.338544,5.613638,7.847831,-2.631834,10.589135,9.511026,0.000000,181.000000,4.000000,,,,0.000000,4.000000,4.000000,4.000000,4.000000,4.000000,4.000000,4.000000,4.000000,4.000000,4.000000,4.000000,4.000000,4.000000,4.000000,4.000000,4.000000,4.000000,4.000000,4.000000,4.000000,4.000000,4.000000,4.000000,4.000000,4.000000,4.000000,4.000000,4.000000,4.000000,4.000000,4.000000,4.000000,100.000000
1614129190.680266,70.000000,0.000000,-1.305722,10.246511,26.514656,8.099374,23.145092,25.515070,50.044319,30.932455,15.781775,-3.316506,18.503418,17.196743,20.011084,32.295269,20.244139,8.640126,19.733057,16.848356,-14.330503,16.459396,7.266343,16.707590,6.607111,14.141695,13.147305,13.098466,0.824385,5.608024,7.839983,8.140028,10.578546,6.937412,0.000000,207.000000,4.000000,,,,0.000000,4.000000,4.000000,4.000000,4.000000,4.000000,4.000000,4.000000,4.000000,4.000000,4.000000,4.000000,4.000000,4.000000,4.000000,4.000000,4.000000,4.000000,4.000000,4.000000,4.000000,4.000000,4.000000,4.000000,4.000000,4.000000,4.000000,4.000000,4.000000,4.000000,4.000000,4.000000,4.000000,100.000000
1614129190.688016,71.000000,0.000000,-1.304417,10.749085,26.488140,7.578454,19.019382,23.438272,82.814789,28.850241,14.740353,-3.313190,18.484915,15.641086,18.965431,27.134768,14.582870,5.041743,12.533837,12.728944,-19.444378,10.801910,7.259077,10.537036,7.113324,13.101912,10.570056,13.085367,1.336381,5.602416,5.780861,9.670350,10.055147,5.904834,0.000000,193.000000,4.000000,,,,0.000000,4.000000,4.000000,4.000000,4.000000,4.000000,4.000000,4.000000,4.000000,4.000000,4.000000,4.000000,4.000000,4.000000,4.000000,4.000000,4.000000,4.000000,4.000000,4.000000,4.000000,4.000000,4.000000,4.000000,4.000000,4.000000,4.000000,4.000000,4.000000,4.000000,4.000000,4.000000,4.000000,100.000000
1614129190.695864,72.000000,0.000000,-1.303112,9.199875,26.461653,8.083696,15.923440,19.825090,96.578125,25.231647,15.751254,-3.309876,18.466431,16.651085,18.946466,23.517889,13.542645,8.113625,9.957201,16.818779,-10.194164,11.303929,18.533869,11.552140,7.106211,13.088811,11.072306,13.072282,1.335045,5.596814,4.236619,2.994013,10.557912,8.463032,0.000000,179.000000,4.000000,,,,0.000000,4.000000,4.000000,4.000000,4.000000,4.000000,4.000000,4.000000,4.000000,4.000000,4.000000,4.000000,4.000000,4.000000,4.000000,4.000000,4.000000,4.000000,4.000000,4.000000,4.000000,4.000000,4.000000,4.000000,4.000000,4.000000,4.000000,4.000000,4.000000,4.000000,4.000000,4.000000,4.000000,100.000000
1614129190.703614,73.000000,0.000000,-1.301809,7.139393,24.896729,8.588432,15.907516,17.241163,75.968727,23.667953,15.735502,-3.306567,18.447964,16.634434,22.004442,23.494371,16.093204,9.643972,11.998526,14.750678,-7.107048,13.343907,28.771746,15.643152,6.586284,14.614183,11.061234,13.572030,1.333710,5.591217,4.232382,2.991019,10.547354,7.428928,0.000000,198.000000,4.000000,,,,0.000000,4.000000,4.000000,4.000000,4.000000,4.000000,4.000000,4.000000,4.000000,4.000000,4.000000,4.000000,4.000000,4.000000,4.000000,4.000000,4.000000,4.000000,4.000000,4.000000,4.000000,4.000000,4.000000,4.000000,4.000000,4.000000,4.000000,4.000000,4.000000,4.000000,4.000000,4.000000,4.000000,100.000000
1614129190.711263,74.000000,0.000000,-1.300507,6.106612,22.820551,7.554203,16.404428,17.223923,56.405579,26.208389,15.719767,-5.354542,18.942337,16.617800,24.033720,25.009338,18.641214,9.121508,11.473707,13.710287,-19.920454,12.817742,29.255795,16.140329,7.092518,13.573928,9.511711,13.558458,1.332376,5.585626,4.228150,4.013669,10.536807,5.883037,0.000000,186.000000,4.000000,,,,0.000000,4.000000,4.000000,4.000000,4.000000,4.000000,4.000000,4.000000,4.000000,4.000000,4.000000,4.000000,4.000000,4.000000,4.000000,4.000000,4.000000,4.000000,4.000000,4.000000,4.000000,4.000000,4.000000,4.000000,4.000000,4.000000,4.000000,4.000000,4.000000,4.000000,4.000000,4.000000,4.000000,100.000000
1614129190.719012,75.000000,0.000000,-1.299207,6.613327,22.284910,10.110751,15.362384,17.206699,29.682507,27.207821,16.216867,-7.400470,18.410574,15.062720,18.368662,23.958689,15.032830,9.112386,8.898130,20.876064,-18.362072,14.856207,29.739359,16.637009,6.572605,13.047534,14.117584,12.519258,1.331044,5.580040,3.198281,2.984014,10.526270,10.492538,0.000000,187.000000,4.000000,,,,0.000000,4.000000,4.000000,4.000000,4.000000,4.000000,4.000000,4.000000,4.000000,4.000000,4.000000,4.000000,4.000000,4.000000,4.000000,4.000000,4.000000,4.000000,4.000000,4.000000,4.000000,4.000000,4.000000,4.000000,4.000000,4.000000,4.000000,4.000000,4.000000,4.000000,4.000000,4.000000,4.000000,100.000000
1614129190.726661,76.000000,0.000000,-1.297908,6.093893,24.313906,17.280128,16.372662,16.676672,48.114361,26.154972,14.662189,-7.393069,15.828060,10.432274,11.683626,15.729601,3.735746,5.513530,7.350771,18.803905,-8.600120,12.277248,23.042953,13.543449,0.412186,14.060127,21.282953,12.506740,1.329713,5.574460,3.707903,6.570774,10.002923,13.046149,0.000000,194.000000,4.000000,,,,0.000000,4.000000,4.000000,4.000000,4.000000,4.000000,4.000000,4.000000,4.000000,4.000000,4.000000,4.000000,4.000000,4.000000,4.000000,4.000000,4.000000,4.000000,4.000000,4.000000,4.000000,4.000000,4.000000,4.000000,4.000000,4.000000,4.000000,4.000000,4.000000,4.000000,4.000000,4.000000,4.000000,100.000000
1614129190.734410,77.000000,0.000000,-1.296610,6.087799,26.340876,19.826950,18.920393,18.711277,80.886765,26.128819,11.570604,-7.898497,14.273771,7.857738,10.646301,12.124128,-2.421836,1.405452,7.343420,3.913307,-22.437674,-2.606824,-0.569834,1.735034,-5.229251,13.020426,13.056542,13.519874,0.815563,5.568885,4.729836,5.025742,9.992920,10.981821,0.000000,196.000000,4.000000,,,,0.000000,4.000000,4.000000,4.000000,4.000000,4.000000,4.000000,4.000000,4.000000,4.000000,4.000000,4.000000,4.000000,4.000000,4.000000,4.000000,4.000000,4.000000,4.000000,4.000000,4.000000,4.000000,4.000000,4.000000,4.000000,4.000000,4.000000,4.000000,4.000000,4.000000,4.000000,4.000000,4.000000,100.000000
1614129190.742059,78.000000,0.000000,-1.808134,6.081711,24.776072,15.704559,20.439934,20.743847,48.498180,26.615509,12.071854,-6.864957,14.259498,8.362701,11.661296,22.881235,1.170329,3.968150,7.848897,2.883752,-37.287029,-7.732422,-11.338494,-7.497470,-5.224022,6.340739,0.222973,8.378149,0.814747,5.050496,1.135363,-5.748515,10.495748,8.919557,0.000000,194.000000,4.000000,,,,0.000000,4.000000,4.000000,4.000000,4.000000,4.000000,4.000000,4.000000,4.000000,4.000000,4.000000,4.000000,4.000000,4.000000,4.000000,4.000000,4.000000,4.000000,4.000000,4.000000,4.000000,4.000000,4.000000,4.000000,4.000000,4.000000,4.000000,4.000000,4.000000,4.000000,4.000000,4.000000,4.000000,100.000000
1614129190.749808,79.000000,0.000000,-1.293505,6.588449,21.161552,10.560650,18.368212,20.723104,16.141991,26.076073,11.546962,-7.370913,14.758059,8.867159,10.623994,26.960918,6.810184,6.015463,7.328228,13.137279,-26.993334,5.095823,-0.045105,-2.874588,-1.629055,1.206193,1.248391,1.190283,0.813932,5.558266,1.134228,-7.794049,9.459611,7.372176,0.000000,170.000000,4.000000,,,,0.000000,4.000000,4.000000,4.000000,4.000000,4.000000,4.000000,4.000000,4.000000,4.000000,4.000000,4.000000,4.000000,4.000000,4.000000,4.000000,4.000000,4.000000,4.000000,4.000000,4.000000,4.000000,4.000000,4.000000,4.000000,4.000000,4.000000,4.000000,4.000000,4.000000,4.000000,4.000000,4.000000,100.000000
1614129190.757458,80.000000,0.000000,0.759071,10.684425,24.730135,12.088551,19.888306,22.753662,48.946362,26.049997,10.509773,-8.389183,14.230479,10.396753,12.151832,16.164726,10.905938,4.470986,8.346540,13.636962,-18.761211,13.808676,7.647248,6.871876,-1.114605,3.256269,8.426630,6.317298,1.325939,7.603990,10.876683,8.624002,11.501433,11.467367,0.000000,184.000000,4.000000,,,,0.000000,4.000000,4.000000,4.000000,4.000000,4.000000,4.000000,4.000000,4.000000,4.000000,4.000000,4.000000,4.000000,4.000000,4.000000,4.000000,4.000000,4.000000,4.000000,4.000000,4.000000,4.000000,4.000000,4.000000,4.000000,4.000000,4.000000,4.000000,4.000000,4.000000,4.000000,4.000000,4.000000,100.000000
1614129190.765207,81.000000,0.000000,2.809593,15.801946,36.500275,21.307232,30.637648,28.371935,81.717926,28.588049,18.191572,-3.252589,14.216249,12.437639,17.780704,12.045997,14.484776,7.543438,11.415117,19.264351,-15.152707,15.333329,11.742165,11.480389,-1.113490,8.381218,14.572049,19.131495,3.375895,9.647668,19.583755,24.512814,20.207880,23.250772,0.000000,173.000000,4.000000,,,,0.000000,4.000000,4.000000,4.000000,4.000000,4.000000,4.000000,4.000000,4.000000,4.000000,4.000000,4.000000,4.000000,4.000000,4.000000,4.000000,4.000000,4.000000,4.000000,4.000000,4.000000,4.000000,4.000000,4.000000,4.000000,4.000000,4.000000,4.000000,4.000000,4.000000,4.000000,4.000000,4.000000,100.000000
1614129190.772856,82.000000,0.000000,2.293963,17.837425,44.668903,29.491053,40.863419,33.984589,49.328518,32.662025,29.455431,6.494254,15.740495,12.425201,19.814207,18.700617,14.470291,13.176921,11.403702,28.988676,-8.470887,20.959021,24.550936,12.494550,2.477367,12.475401,24.813887,24.240568,8.500724,9.125200,19.051352,28.590864,28.392801,32.971111,0.000000,200.000000,4.000000,,,,0.000000,4.000000,4.000000,4.000000,4.000000,4.000000,4.000000,4.000000,4.000000,4.000000,4.000000,4.000000,4.000000,4.000000,4.000000,4.000000,4.000000,4.000000,4.000000,4.000000,4.000000,4.000000,4.000000,4.000000,4.000000,4.000000,4.000000,4.000000,4.000000,4.000000,4.000000,4.000000,4.000000,100.000000
1614129190.780605,83.000000,0.000000,2.291669,17.306768,44.624237,29.974382,42.361019,36.001884,19.022779,34.167824,28.913155,8.026221,17.263216,12.412776,18.255930,20.733198,10.353257,12.650924,8.315375,18.703278,-16.667545,18.886780,30.167410,12.482056,6.577453,14.001387,29.404459,23.703506,12.081967,9.116075,18.519480,29.075094,28.877230,32.425320,0.000000,174.000000,4.000000,,,,0.000000,4.000000,4.000000,4.000000,4.000000,4.000000,4.000000,4.000000,4.000000,4.000000,4.000000,4.000000,4.000000,4.000000,4.000000,4.000000,4.000000,4.000000,4.000000,4.000000,4.000000,4.000000,4.000000,4.000000,4.000000,4.000000,4.000000,4.000000,4.000000,4.000000,4.000000,4.000000,4.000000,100.000000
1614129190.788254,84.000000,0.000000,2.289378,17.289461,44.579613,29.944407,40.780197,35.453064,51.824268,33.108017,25.294498,6.992554,17.758772,12.400363,18.237675,18.661184,9.830083,11.612632,7.794240,12.017907,-20.240620,12.201226,29.111601,13.495214,7.083696,13.474565,26.810951,23.679802,12.582705,9.106958,19.013781,30.584480,28.335531,28.290331,0.000000,202.000000,4.000000,,,,0.000000,4.000000,4.000000,4.000000,4.000000,4.000000,4.000000,4.000000,4.000000,4.000000,4.000000,4.000000,4.000000,4.000000,4.000000,4.000000,4.000000,4.000000,4.000000,4.000000,4.000000,4.000000,4.000000,4.000000,4.000000,4.000000,4.000000,4.000000,4.000000,4.000000,4.000000,4.000000,4.000000,100.000000
1614129190.796103,85.000000,0.000000,2.287088,17.784992,45.047852,30.940104,42.277878,35.417610,68.695526,33.587730,27.833307,9.549664,18.766655,12.387963,19.757898,20.693804,13.922817,14.165121,6.247984,23.800762,-3.297303,13.214666,31.646593,13.481719,6.563792,13.973911,26.271320,24.681765,12.057302,9.097852,18.994766,27.476973,29.845657,25.697937,0.000000,189.000000,4.000000,,,,0.000000,4.000000,4.000000,4.000000,4.000000,4.000000,4.000000,4.000000,4.000000,4.000000,4.000000,4.000000,4.000000,4.000000,4.000000,4.000000,4.000000,4.000000,4.000000,4.000000,4.000000,4.000000,4.000000,4.000000,4.000000,4.000000,4.000000,4.000000,4.000000,4.000000,4.000000,4.000000,4.000000,100.000000
1614129190.803852,86.000000,0.000000,2.284801,17.254387,41.925880,26.806601,42.235600,35.895012,46.062725,34.066963,22.677269,0.822166,16.183786,12.375575,14.609936,18.109009,8.267869,6.971469,0.087890,15.059011,-9.960672,12.688631,23.409819,9.365673,6.557229,13.959937,21.629663,24.657082,12.558065,9.088754,18.462952,19.244368,27.251709,21.056854,0.000000,172.000000,4.000000,,,,0.000000,4.000000,4.000000,4.000000,4.000000,4.000000,4.000000,4.000000,4.000000,4.000000,4.000000,4.000000,4.000000,4.000000,4.000000,4.000000,4.000000,4.000000,4.000000,4.000000,4.000000,4.000000,4.000000,4.000000,4.000000,4.000000,4.000000,4.000000,4.000000,4.000000,4.000000,4.000000,4.000000,100.000000
1614129190.811601,87.000000,0.000000,2.282516,17.237133,40.345493,22.677229,38.090797,35.346298,33.708969,32.494434,15.475103,-13.537631,10.013756,10.824738,6.903018,9.885771,-3.535271,-7.907297,-5.040403,-3.417586,-33.027634,6.522097,1.847947,4.740923,6.550671,11.894695,9.300342,21.042681,12.032687,9.079665,16.393206,14.096919,20.044970,13.856311,0.000000,204.000000,4.000000,,,,0.000000,4.000000,4.000000,4.000000,4.000000,4.000000,4.000000,4.000000,4.000000,4.000000,4.000000,4.000000,4.000000,4.000000,4.000000,4.000000,4.000000,4.000000,4.000000,4.000000,4.000000,4.000000,4.000000,4.000000,4.000000,4.000000,4.000000,4.000000,4.000000,4.000000,4.000000,4.000000,4.000000,100.000000
1614129190.819250,88.000000,0.000000,2.280234,17.219896,44.407711,24.193014,37.539886,35.823772,26.495773,34.000401,24.177578,-6.857427,15.131948,8.762631,11.511499,11.927167,-0.454812,-4.822467,-3.496902,11.457626,-20.174095,10.105318,-0.205184,5.249002,6.544120,8.805877,8.265401,16.919075,12.020655,9.070585,14.838351,14.082822,16.435181,12.303992,0.000000,171.000000,4.000000,,,,0.000000,4.000000,4.000000,4.000000,4.000000,4.000000,4.000000,4.000000,4.000000,4.000000,4.000000,4.000000,4.000000,4.000000,4.000000,4.000000,4.000000,4.000000,4.000000,4.000000,4.000000,4.000000,4.000000,4.000000,4.000000,4.000000,4.000000,4.000000,4.000000,4.000000,4.000000,4.000000,4.000000,100.000000
1614129190.827099,89.000000,0.000000,2.277954,17.202675,43.850483,26.732924,41.604912,36.300770,35.187225,38.581783,33.896988,8.021226,27.424507,11.830791,25.858963,27.299856,15.443078,14.669535,2.660442,24.266682,-8.871869,13.684957,6.461689,5.243753,6.537576,9.822712,15.436623,18.440617,12.521454,9.061515,14.823513,14.068739,17.444387,17.419893,0.000000,180.000000,4.000000,,,,0.000000,4.000000,4.000000,4.000000,4.000000,4.000000,4.000000,4.000000,4.000000,4.000000,4.000000,4.000000,4.000000,4.000000,4.000000,4.000000,4.000000,4.000000,4.000000,4.000000,4.000000,4.000000,4.000000,4.000000,4.000000,4.000000,4.000000,4.000000,4.000000,4.000000,4.000000,4.000000,4.000000,100.000000
1614129190.834848,90.000000,0.000000,2.275676,17.185472,36.114326,26.193369,38.486385,33.187546,67.972549,41.107304,31.298990,7.500384,29.448364,15.408704,31.474129,36.503326,22.094301,19.270250,7.785986,2.703954,-33.478382,5.466143,-7.390927,2.161587,6.531039,9.812890,12.344263,19.960638,11.483292,9.052453,14.808689,13.029029,17.426943,20.479397,0.000000,196.000000,4.000000,,,,0.000000,4.000000,4.000000,4.000000,4.000000,4.000000,4.000000,4.000000,4.000000,4.000000,4.000000,4.000000,4.000000,4.000000,4.000000,4.000000,4.000000,4.000000,4.000000,4.000000,4.000000,4.000000,4.000000,4.000000,4.000000,4.000000,4.000000,4.000000,4.000000,4.000000,4.000000,4.000000,4.000000,100.000000
1614129190.842697,91.000000,0.000000,2.273400,17.168287,33.001289,26.167175,31.781231,32.128716,55.596886,40.553379,29.729229,4.928781,26.854815,16.418936,29.391373,28.261694,17.969643,8.994570,8.291020,-10.632084,-42.162853,-1.205990,-20.204048,0.620963,6.524508,4.674871,5.152431,19.427856,11.984629,9.043401,14.281060,9.939077,16.896696,19.946096,0.000000,189.000000,4.000000,,,,0.000000,4.000000,4.000000,4.000000,4.000000,4.000000,4.000000,4.000000,4.000000,4.000000,4.000000,4.000000,4.000000,4.000000,4.000000,4.000000,4.000000,4.000000,4.000000,4.000000,4.000000,4.000000,4.000000,4.000000,4.000000,4.000000,4.000000,4.000000,4.000000,4.000000,4.000000,4.000000,4.000000,100.000000
1614129190.850446,92.000000,0.000000,2.271127,17.663940,32.968288,26.141008,29.698168,32.609409,23.233597,40.000004,28.673859,1.846929,25.289497,16.915339,29.361982,13.361637,13.336289,5.908652,7.257089,-1.390682,-30.325817,1.872139,-10.953075,1.645984,7.030804,2.618915,5.660100,20.434071,12.998285,9.034357,15.805241,8.390676,17.905439,18.900511,0.000000,170.000000,4.000000,,,,0.000000,4.000000,4.000000,4.000000,4.000000,4.000000,4.000000,4.000000,4.000000,4.000000,4.000000,4.000000,4.000000,4.000000,4.000000,4.000000,4.000000,4.000000,4.000000,4.000000,4.000000,4.000000,4.000000,4.000000,4.000000,4.000000,4.000000,4.000000,4.000000,4.000000,4.000000,4.000000,4.000000,100.000000
1614129190.858295,93.000000,0.000000,2.268856,16.107815,26.268652,20.986662,22.488983,26.422953,32.953953,40.472824,16.850313,-12.513892,16.546259,12.795858,24.717236,4.117506,7.681927,5.389923,8.275473,0.661991,-34.910877,3.921549,-4.275456,1.131517,5.485312,7.744501,7.705721,16.823893,8.882723,9.025323,13.225332,6.843824,13.784970,9.138020,0.000000,197.000000,4.000000,,,,0.000000,4.000000,4.000000,4.000000,4.000000,4.000000,4.000000,4.000000,4.000000,4.000000,4.000000,4.000000,4.000000,4.000000,4.000000,4.000000,4.000000,4.000000,4.000000,4.000000,4.000000,4.000000,4.000000,4.000000,4.000000,4.000000,4.000000,4.000000,4.000000,4.000000,4.000000,4.000000,4.000000,100.000000
1614129190.866044,94.000000,0.000000,2.266587,14.040424,18.550076,15.324651,12.210083,17.165760,65.741516,40.432350,7.602694,-23.270609,6.786124,4.577935,11.359184,1.549286,-2.069345,-5.384698,8.267198,-0.364312,-35.901608,1.866346,-3.245540,1.643206,2.915724,10.813680,6.159554,9.627582,1.694353,9.016297,6.032620,3.760057,7.617339,-1.640349,0.000000,185.000000,4.000000,,,,0.000000,4.000000,4.000000,4.000000,4.000000,4.000000,4.000000,4.000000,4.000000,4.000000,4.000000,4.000000,4.000000,4.000000,4.000000,4.000000,4.000000,4.000000,4.000000,4.000000,4.000000,4.000000,4.000000,4.000000,4.000000,4.000000,4.000000,4.000000,4.000000,4.000000,4.000000,4.000000,4.000000,100.000000
1614129190.873893,95.000000,0.000000,2.777141,13.000743,17.505884,14.283685,9.633771,15.610133,47.214233,40.391918,10.159194,-23.247339,5.753696,0.470793,2.629876,1.034916,-6.169839,-8.456236,7.746109,9.379642,-19.968269,2.890120,4.962834,3.692845,2.399987,9.264404,6.153394,9.617953,2.718300,9.520102,2.949665,3.756297,5.045619,-0.613068,0.000000,172.000000,4.000000,,,,0.000000,4.000000,4.000000,4.000000,4.000000,4.000000,4.000000,4.000000,4.000000,4.000000,4.000000,4.000000,4.000000,4.000000,4.000000,4.000000,4.000000,4.000000,4.000000,4.000000,4.000000,4.000000,4.000000,4.000000,4.000000,4.000000,4.000000,4.000000,4.000000,4.000000,4.000000,4.000000,4.000000,100.000000
1614129190.881642,96.000000,0.000000,1.235902,11.449281,18.514019,14.782222,11.162599,16.620163,14.859326,40.351528,9.636214,-21.685629,6.773584,1.495963,3.140067,3.597984,-0.522644,1.295810,7.738363,16.036928,-11.743173,5.964153,12.137359,5.740434,2.910408,9.255140,6.660061,15.249361,8.356607,7.459300,3.972356,9.906387,6.579035,5.028571,8192.000000,0.000000,4.000000,,,,0.000000,4.000000,4.000000,4.000000,4.000000,4.000000,4.000000,4.000000,4.000000,4.000000,4.000000,4.000000,4.000000,4.000000,4.000000,4.000000,4.000000,4.000000,4.000000,4.000000,4.000000,4.000000,4.000000,4.000000,4.000000,4.000000,4.000000,4.000000,4.000000,4.000000,4.000000,4.000000,4.000000,100.000000
1614129190.889491,97.000000,0.000000,-1.329436,9.386549,18.495506,14.767440,11.151436,16.603544,28.177799,40.311176,3.985552,-22.176764,6.766810,-0.043995,3.649748,5.132847,3.067622,6.422719,7.730625,16.020891,-8.141685,6.983830,11.099580,5.734694,2.907497,10.271525,6.653401,16.772573,8.861071,5.400558,3.968384,13.999045,8.623738,5.023542,8064.000000,0.000000,4.000000,,,,0.000000,4.000000,4.000000,4.000000,4.000000,4.000000,4.000000,4.000000,4.000000,4.000000,4.000000,4.000000,4.000000,4.000000,4.000000,4.000000,4.000000,4.000000,4.000000,4.000000,4.000000,4.000000,4.000000,4.000000,4.000000,4.000000,4.000000,4.000000,4.000000,4.000000,4.000000,4.000000,4.000000,100.000000
