title:8, start timestamp:1615771634.147880, stop timestamp:1615771679.782415, headset type:EPOCFLEX, headset serial:F00001ED, headset firmware:f12, subject name:s19, channels:75, sampling rate:128, samples:5890      , version:2.0
Timestamp,EEG.Counter,EEG.Interpolated,EEG.Cz,EEG.Fz,EEG.Fp1,EEG.AF3,EEG.F7,EEG.F3,EEG.FC1,EEG.C3,EEG.FC5,EEG.T7,EEG.CP5,EEG.CP1,EEG.P3,EEG.P7,EEG.PO3,EEG.O1,EEG.Pz,EEG.Oz,EEG.O2,EEG.PO4,EEG.P8,EEG.P4,EEG.CP2,EEG.CP6,EEG.T8,EEG.FC6,EEG.C4,EEG.FC2,EEG.F4,EEG.F8,EEG.AF4,EEG.Fp2,EEG.HighBitFlex,EEG.RawCq,EEG.Battery,MarkerIndex,MarkerType,MarkerValueInt,EEG.MarkerHardware,CQ.Cz,CQ.Fz,CQ.Fp1,CQ.AF3,CQ.F7,CQ.F3,CQ.FC1,CQ.C3,CQ.FC5,CQ.T7,CQ.CP5,CQ.CP1,CQ.P3,CQ.P7,CQ.PO3,CQ.O1,CQ.Pz,CQ.Oz,CQ.O2,CQ.PO4,CQ.P8,CQ.P4,CQ.CP2,CQ.CP6,CQ.T8,CQ.FC6,CQ.C4,CQ.FC2,CQ.F4,CQ.F8,CQ.AF4,CQ.Fp2,CQ.Overall
1615771634.147880,4.000000,0.000000,-4.913195,-2.975049,-3.196044,12.271483,22.561508,9.430296,8.230709,2.862028,-4.868076,29.445873,4.735280,-0.367795,0.310647,1.191880,1.310894,-0.789200,-2.699527,6.082817,4.736643,-9.772436,-4.877046,-2.563939,2.204092,6.731050,-30.276728,-8.167490,-2.608219,0.662231,-1.962503,-42.130138,6.670917,8.870224,0.000000,201.000000,4.000000,,,,0.000000,4.000000,4.000000,4.000000,4.000000,4.000000,4.000000,4.000000,4.000000,4.000000,4.000000,4.000000,4.000000,4.000000,4.000000,4.000000,4.000000,4.000000,4.000000,4.000000,4.000000,4.000000,4.000000,4.000000,4.000000,4.000000,4.000000,4.000000,4.000000,4.000000,4.000000,4.000000,4.000000,100.000000
1615771634.155729,5.000000,0.000000,-4.908282,-2.972073,-3.192848,12.259212,21.513306,9.420866,8.222478,2.859166,1.290638,29.929249,3.704903,-0.880248,0.310336,0.677867,0.796763,4.852615,-2.696827,7.102375,5.757548,-16.429331,-5.897810,-4.099837,2.201887,-3.019270,-31.272091,-19.441374,-4.656892,0.661569,-1.960541,-42.600830,6.664246,8.861354,0.000000,186.000000,4.000000,,,,0.000000,4.000000,4.000000,4.000000,4.000000,4.000000,4.000000,4.000000,4.000000,4.000000,4.000000,4.000000,4.000000,4.000000,4.000000,4.000000,4.000000,4.000000,4.000000,4.000000,4.000000,4.000000,4.000000,4.000000,4.000000,4.000000,4.000000,4.000000,4.000000,4.000000,4.000000,4.000000,4.000000,100.000000
1615771634.163478,6.000000,0.000000,-4.903373,-2.969101,-3.189655,12.246953,22.004612,9.411446,8.214255,2.856307,0.776527,29.899319,6.265301,-0.366547,0.310026,0.164369,0.795966,-5.921468,-2.694131,6.069631,5.751790,-17.438541,-5.379091,-3.582916,2.199686,-6.605994,-30.215178,-12.242446,-5.677876,0.660908,-1.958580,-38.968483,6.657582,8.852492,0.000000,181.000000,4.000000,,,,0.000000,4.000000,4.000000,4.000000,4.000000,4.000000,4.000000,4.000000,4.000000,4.000000,4.000000,4.000000,4.000000,4.000000,4.000000,4.000000,4.000000,4.000000,4.000000,4.000000,4.000000,4.000000,4.000000,4.000000,4.000000,4.000000,4.000000,4.000000,4.000000,4.000000,4.000000,4.000000,4.000000,100.000000
1615771634.171327,7.000000,0.000000,-4.898470,-2.966132,-3.186466,13.773168,26.597992,9.402034,8.206041,2.853450,-1.275532,29.869419,6.259036,1.685101,0.309716,0.677025,3.359273,-2.325803,-2.691437,6.063561,2.669115,-16.908283,-5.373712,-4.092154,2.197486,-5.060927,-30.697783,-1.460973,-5.159378,0.660247,-1.956621,-38.416695,6.650924,8.843640,0.000000,188.000000,4.000000,,,,0.000000,4.000000,4.000000,4.000000,4.000000,4.000000,4.000000,4.000000,4.000000,4.000000,4.000000,4.000000,4.000000,4.000000,4.000000,4.000000,4.000000,4.000000,4.000000,4.000000,4.000000,4.000000,4.000000,4.000000,4.000000,4.000000,4.000000,4.000000,4.000000,4.000000,4.000000,4.000000,4.000000,100.000000
1615771634.179076,8.000000,0.000000,-4.893572,-2.963166,-3.183279,16.836317,29.135498,9.392632,8.197835,2.850597,6.930872,29.839550,7.791238,3.221878,0.309406,3.240451,9.509760,27.932932,-2.688745,8.621600,1.640805,-16.378553,-5.368338,-3.062421,2.195288,-5.568686,-31.179907,-1.972332,-5.154219,0.659586,-1.954665,-38.891098,6.131453,7.296335,0.000000,200.000000,4.000000,,,,0.000000,4.000000,4.000000,4.000000,4.000000,4.000000,4.000000,4.000000,4.000000,4.000000,4.000000,4.000000,4.000000,4.000000,4.000000,4.000000,4.000000,4.000000,4.000000,4.000000,4.000000,4.000000,4.000000,4.000000,4.000000,4.000000,4.000000,4.000000,4.000000,4.000000,4.000000,4.000000,4.000000,100.000000
1615771634.186925,9.000000,0.000000,-4.888678,-2.960203,-3.180096,16.306660,25.516619,9.383239,8.189637,2.847746,8.975223,30.322531,13.424473,3.218656,0.821917,4.775671,13.089993,36.110126,-2.686056,11.689902,3.177626,-11.746791,-4.850150,-0.495256,2.193093,-6.075938,-30.635906,-3.508821,-5.149065,0.658927,-1.439890,-40.903488,6.638142,4.212115,0.000000,203.000000,4.000000,,,,0.000000,4.000000,4.000000,4.000000,4.000000,4.000000,4.000000,4.000000,4.000000,4.000000,4.000000,4.000000,4.000000,4.000000,4.000000,4.000000,4.000000,4.000000,4.000000,4.000000,4.000000,4.000000,4.000000,4.000000,4.000000,4.000000,4.000000,4.000000,4.000000,4.000000,4.000000,4.000000,4.000000,100.000000
1615771634.194674,10.000000,0.000000,-4.883790,-2.957243,-3.176916,10.136507,21.901358,9.373856,8.181448,2.844898,-3.854265,30.292208,11.359766,3.215437,0.821095,4.258075,9.999981,11.971454,-2.170550,10.139750,1.123166,-9.170941,-4.845299,0.530880,2.190900,-5.557042,-30.092449,-6.582235,-5.143916,0.658268,-3.489732,-45.477970,7.144324,1.643801,0.000000,203.000000,4.000000,,,,0.000000,4.000000,4.000000,4.000000,4.000000,4.000000,4.000000,4.000000,4.000000,4.000000,4.000000,4.000000,4.000000,4.000000,4.000000,4.000000,4.000000,4.000000,4.000000,4.000000,4.000000,4.000000,4.000000,4.000000,4.000000,4.000000,4.000000,4.000000,4.000000,4.000000,4.000000,4.000000,4.000000,100.000000
1615771634.202523,11.000000,0.000000,-4.878906,-2.954285,-3.173739,4.485345,21.366636,9.364482,8.173266,3.354874,-10.004257,28.723455,3.656098,3.212222,-0.205367,4.253818,7.425878,6.318457,-2.681200,9.616791,0.609223,-9.674591,-5.353274,0.017529,2.188709,-5.551485,-32.626461,-15.293602,-5.138772,-1.393672,-5.537524,-45.945313,4.573078,1.129336,0.000000,182.000000,4.000000,,,,0.000000,4.000000,4.000000,4.000000,4.000000,4.000000,4.000000,4.000000,4.000000,4.000000,4.000000,4.000000,4.000000,4.000000,4.000000,4.000000,4.000000,4.000000,4.000000,4.000000,4.000000,4.000000,4.000000,4.000000,4.000000,4.000000,4.000000,4.000000,4.000000,4.000000,4.000000,4.000000,4.000000,100.000000
1615771634.210272,12.000000,0.000000,-4.874027,-2.951331,-3.170565,4.480860,19.293987,9.355118,8.165093,1.300237,-7.942971,26.643450,2.113981,3.721830,0.820480,4.762384,9.982554,23.748035,-2.678519,15.248199,11.890664,-5.562353,-4.835101,0.530332,2.186520,-5.545933,-34.645115,-15.278308,-5.133633,-2.930740,-5.019166,-45.386547,3.542863,1.641028,0.000000,196.000000,4.000000,,,,0.000000,4.000000,4.000000,4.000000,4.000000,4.000000,4.000000,4.000000,4.000000,4.000000,4.000000,4.000000,4.000000,4.000000,4.000000,4.000000,4.000000,4.000000,4.000000,4.000000,4.000000,4.000000,4.000000,4.000000,4.000000,4.000000,4.000000,4.000000,4.000000,4.000000,4.000000,4.000000,4.000000,100.000000
1615771634.218121,13.000000,0.000000,-4.869153,-2.948380,-3.167395,4.989200,17.736233,9.345762,8.156928,-0.752345,-10.499130,25.078344,3.650328,3.205288,1.332480,4.757622,7.921290,21.673006,-2.163019,12.156028,10.853133,-6.582431,-4.317445,1.042622,2.184334,-5.540387,-31.533546,-7.570723,-4.615679,-2.927809,-2.450044,-46.879623,8.154705,1.639387,0.000000,190.000000,4.000000,,,,0.000000,4.000000,4.000000,4.000000,4.000000,4.000000,4.000000,4.000000,4.000000,4.000000,4.000000,4.000000,4.000000,4.000000,4.000000,4.000000,4.000000,4.000000,4.000000,4.000000,4.000000,4.000000,4.000000,4.000000,4.000000,4.000000,4.000000,4.000000,4.000000,4.000000,4.000000,4.000000,4.000000,100.000000
1615771634.225870,14.000000,0.000000,-4.864284,-2.945431,-3.164227,4.471390,17.718496,9.336416,8.148771,-1.264413,-11.514272,21.463522,3.133857,3.202082,-4.309878,2.701582,-5.419964,0.625692,-3.186497,-6.317667,-14.798746,-18.883541,-9.441333,-1.522523,2.182150,-4.509206,-30.476372,-7.050331,-5.123884,-2.924882,-1.421953,-42.730179,10.710653,1.637747,0.000000,178.000000,4.000000,,,,0.000000,4.000000,4.000000,4.000000,4.000000,4.000000,4.000000,4.000000,4.000000,4.000000,4.000000,4.000000,4.000000,4.000000,4.000000,4.000000,4.000000,4.000000,4.000000,4.000000,4.000000,4.000000,4.000000,4.000000,4.000000,4.000000,4.000000,4.000000,4.000000,4.000000,4.000000,4.000000,4.000000,100.000000
1615771634.233719,15.000000,0.000000,-4.859419,-2.942486,-3.161063,4.979739,18.213598,9.327080,8.140622,-0.750328,-6.887373,18.365135,2.617903,3.711701,-10.459414,0.134778,-15.670955,-11.682627,-7.798696,-11.439554,-24.014717,-21.941580,-16.611378,-3.572283,2.179967,-5.530338,-36.086922,-7.556101,-5.631580,-2.921957,-1.420531,-38.072063,10.699943,1.636109,0.000000,189.000000,4.000000,,,,0.000000,4.000000,4.000000,4.000000,4.000000,4.000000,4.000000,4.000000,4.000000,4.000000,4.000000,4.000000,4.000000,4.000000,4.000000,4.000000,4.000000,4.000000,4.000000,4.000000,4.000000,4.000000,4.000000,4.000000,4.000000,4.000000,4.000000,4.000000,4.000000,4.000000,4.000000,4.000000,4.000000,100.000000
1615771634.241468,16.000000,0.000000,-4.854560,-2.939543,-2.645081,4.974759,17.682564,9.317753,8.132482,-0.749578,-6.880486,18.346771,3.128106,3.195168,-8.910494,0.647464,-9.501438,-7.055559,-10.355000,2.930860,-2.452240,-11.150408,-16.594767,-3.055890,2.177788,-5.524807,-37.589294,-7.035725,-3.574667,-2.919035,-2.957572,-45.726299,10.689242,2.147294,0.000000,162.000000,4.000000,,,,0.000000,4.000000,4.000000,4.000000,4.000000,4.000000,4.000000,4.000000,4.000000,4.000000,4.000000,4.000000,4.000000,4.000000,4.000000,4.000000,4.000000,4.000000,4.000000,4.000000,4.000000,4.000000,4.000000,4.000000,4.000000,4.000000,4.000000,4.000000,4.000000,4.000000,4.000000,4.000000,4.000000,100.000000
1615771634.249317,17.000000,0.000000,-4.849705,-2.936604,-3.155257,4.969784,18.177702,9.308435,8.124350,-2.800111,-11.488990,18.841244,3.124978,1.140691,-6.337481,1.672457,-2.825270,2.182266,-10.344645,4.466391,6.268161,-8.575155,-16.065351,-5.104116,1.662789,-2.442359,-38.064526,-16.772278,-7.673656,-2.916116,-6.544358,-52.860062,8.114450,1.632326,0.000000,178.000000,4.000000,,,,0.000000,4.000000,4.000000,4.000000,4.000000,4.000000,4.000000,4.000000,4.000000,4.000000,4.000000,4.000000,4.000000,4.000000,4.000000,4.000000,4.000000,4.000000,4.000000,4.000000,4.000000,4.000000,4.000000,4.000000,4.000000,4.000000,4.000000,4.000000,4.000000,4.000000,4.000000,4.000000,4.000000,100.000000
1615771634.257066,18.000000,0.000000,-4.844855,-2.933667,-7.254666,4.964815,18.159523,9.811948,8.116225,-4.335772,-13.015963,18.309582,3.121853,-0.911731,-8.895246,-2.944600,-8.976291,2.180083,-10.334300,-9.384230,-7.584261,-12.669145,-22.715954,-10.227217,1.661126,-2.952738,-42.641846,-27.011917,-15.358290,-2.913200,-9.101916,-50.755917,2.978131,-0.933409,0.000000,214.000000,4.000000,,,,0.000000,4.000000,4.000000,4.000000,4.000000,4.000000,4.000000,4.000000,4.000000,4.000000,4.000000,4.000000,4.000000,4.000000,4.000000,4.000000,4.000000,4.000000,4.000000,4.000000,4.000000,4.000000,4.000000,4.000000,4.000000,4.000000,4.000000,4.000000,4.000000,4.000000,4.000000,4.000000,4.000000,100.000000
1615771634.264715,19.000000,0.000000,-4.840011,-2.930734,-10.837154,3.934209,18.141365,7.750854,8.108109,-4.331436,-11.977305,18.291273,3.118731,-0.910820,-10.424812,-9.095502,-13.582699,-0.386199,-9.811145,-12.964589,-11.166421,-12.656475,-23.718878,-11.242631,2.172286,-11.667734,-43.624847,-23.907982,-13.291650,-2.910287,-9.605635,-48.653881,1.949512,-2.470937,0.000000,204.000000,4.000000,,,,0.000000,4.000000,4.000000,4.000000,4.000000,4.000000,4.000000,4.000000,4.000000,4.000000,4.000000,4.000000,4.000000,4.000000,4.000000,4.000000,4.000000,4.000000,4.000000,4.000000,4.000000,4.000000,4.000000,4.000000,4.000000,4.000000,4.000000,4.000000,4.000000,4.000000,4.000000,4.000000,4.000000,100.000000
1615771634.272464,20.000000,0.000000,-4.835171,-2.927803,-10.826318,1.366172,18.123222,5.691821,8.100000,-4.327105,-11.965328,18.272982,3.115612,-0.397088,-10.414388,-10.624867,-11.005013,-0.898634,-9.801333,-9.361881,-5.001408,-13.156639,-16.002851,-10.205747,1.657293,-15.758630,-38.965836,-16.191767,-5.586051,-2.907376,-9.596029,-49.118046,2.973203,-1.955645,0.000000,180.000000,4.000000,,,,0.000000,4.000000,4.000000,4.000000,4.000000,4.000000,4.000000,4.000000,4.000000,4.000000,4.000000,4.000000,4.000000,4.000000,4.000000,4.000000,4.000000,4.000000,4.000000,4.000000,4.000000,4.000000,4.000000,4.000000,4.000000,4.000000,4.000000,4.000000,4.000000,4.000000,4.000000,4.000000,4.000000,100.000000
1615771634.280114,21.000000,0.000000,-4.830336,-2.924875,-10.815491,0.851985,18.105099,5.173308,8.091901,-4.835598,-12.466184,20.305990,2.599676,-0.909512,-10.916794,-11.127063,-8.942726,-2.949017,-10.304353,-5.762775,-3.457945,-9.040918,-11.884285,-6.605798,2.168456,-11.127487,-36.875587,-14.637113,-4.042003,-2.904469,-8.560792,-44.453545,2.457410,-1.953690,0.000000,183.000000,4.000000,,,,0.000000,4.000000,4.000000,4.000000,4.000000,4.000000,4.000000,4.000000,4.000000,4.000000,4.000000,4.000000,4.000000,4.000000,4.000000,4.000000,4.000000,4.000000,4.000000,4.000000,4.000000,4.000000,4.000000,4.000000,4.000000,4.000000,4.000000,4.000000,4.000000,4.000000,4.000000,4.000000,4.000000,100.000000
1615771634.287863,22.000000,0.000000,-4.825505,-2.921950,-10.804676,1.876774,18.086994,5.680955,8.083809,-2.779480,-12.966537,22.336967,3.109897,-0.395782,-5.777671,-9.577475,-0.215835,6.797522,-5.678664,6.550680,4.237821,4.814277,-12.385221,3.144398,5.756032,-9.065077,-33.248970,-13.596834,-6.089243,-2.901564,-5.988129,-42.357807,2.967773,-1.951736,0.000000,207.000000,4.000000,,,,0.000000,4.000000,4.000000,4.000000,4.000000,4.000000,4.000000,4.000000,4.000000,4.000000,4.000000,4.000000,4.000000,4.000000,4.000000,4.000000,4.000000,4.000000,4.000000,4.000000,4.000000,4.000000,4.000000,4.000000,4.000000,4.000000,4.000000,4.000000,4.000000,4.000000,4.000000,4.000000,4.000000,100.000000
1615771634.295512,23.000000,0.000000,-4.820680,-2.919028,-7.204127,3.926180,18.068907,5.675274,8.075725,-0.725419,-9.876648,21.801809,5.670889,2.168717,5.510158,-4.439692,12.092073,28.842007,0.480861,14.236437,19.105377,11.988950,-7.244631,9.807920,8.827198,-8.543192,-26.549055,-10.506314,-5.057513,-2.898663,-4.956500,-44.879555,6.041728,-1.949784,0.000000,196.000000,4.000000,,,,0.000000,4.000000,4.000000,4.000000,4.000000,4.000000,4.000000,4.000000,4.000000,4.000000,4.000000,4.000000,4.000000,4.000000,4.000000,4.000000,4.000000,4.000000,4.000000,4.000000,4.000000,4.000000,4.000000,4.000000,4.000000,4.000000,4.000000,4.000000,4.000000,4.000000,4.000000,4.000000,4.000000,100.000000
1615771634.303261,24.000000,0.000000,-4.815859,-2.916109,-3.094359,4.947895,17.538017,5.669599,8.067649,-0.724693,-4.738566,22.805649,7.203680,3.705009,9.607211,1.205773,10.541519,26.761883,-1.570902,8.068354,16.009350,-0.843552,-3.134822,4.157086,7.279910,-5.970546,-24.984043,-10.495809,-4.539635,-2.895764,-5.464364,-42.783390,7.061327,-2.460655,0.000000,187.000000,4.000000,,,,0.000000,4.000000,4.000000,4.000000,4.000000,4.000000,4.000000,4.000000,4.000000,4.000000,4.000000,4.000000,4.000000,4.000000,4.000000,4.000000,4.000000,4.000000,4.000000,4.000000,4.000000,4.000000,4.000000,4.000000,4.000000,4.000000,4.000000,4.000000,4.000000,4.000000,4.000000,4.000000,4.000000,100.000000
1615771634.310910,25.000000,0.000000,-4.811043,-2.913193,-2.578444,4.942946,18.033300,5.663929,8.059582,-0.723969,-5.246648,22.270023,6.683656,3.188484,3.443758,1.717388,0.274568,-0.957187,-6.184716,2.419260,-2.981019,-14.176043,-6.208610,-0.975276,5.734168,-5.451755,-26.497520,-10.485312,-5.560736,-2.892869,-5.458899,-38.125225,6.541445,-0.919733,0.000000,204.000000,4.000000,,,,0.000000,4.000000,4.000000,4.000000,4.000000,4.000000,4.000000,4.000000,4.000000,4.000000,4.000000,4.000000,4.000000,4.000000,4.000000,4.000000,4.000000,4.000000,4.000000,4.000000,4.000000,4.000000,4.000000,4.000000,4.000000,4.000000,4.000000,4.000000,4.000000,4.000000,4.000000,4.000000,4.000000,100.000000
1615771634.318659,26.000000,0.000000,-4.806232,-2.910280,-3.088686,4.938004,18.528088,5.658266,8.051522,-0.723245,-4.728581,18.658009,7.189793,3.185295,-0.662250,0.690030,-3.315450,-9.674179,-6.178531,2.416841,-7.080602,-10.572123,-2.612658,0.564161,6.241254,-4.933483,-25.958202,-7.910725,-4.529534,-3.402796,-4.940620,-37.574280,6.534904,1.645289,0.000000,205.000000,4.000000,,,,0.000000,4.000000,4.000000,4.000000,4.000000,4.000000,4.000000,4.000000,4.000000,4.000000,4.000000,4.000000,4.000000,4.000000,4.000000,4.000000,4.000000,4.000000,4.000000,4.000000,4.000000,4.000000,4.000000,4.000000,4.000000,4.000000,4.000000,4.000000,4.000000,4.000000,4.000000,4.000000,4.000000,100.000000
1615771634.326308,27.000000,0.000000,-4.801426,-2.907370,-2.572777,4.933066,15.945457,6.165428,8.043470,-0.722522,0.404353,20.177813,9.746706,3.182110,4.466618,0.689340,0.790429,9.309855,-3.095429,4.465706,4.208530,0.207680,5.082263,0.563597,6.235013,-0.313165,-25.932245,-6.877173,-2.473722,-2.373752,-5.448500,-38.562344,6.528369,2.669285,0.000000,214.000000,4.000000,,,,0.000000,4.000000,4.000000,4.000000,4.000000,4.000000,4.000000,4.000000,4.000000,4.000000,4.000000,4.000000,4.000000,4.000000,4.000000,4.000000,4.000000,4.000000,4.000000,4.000000,4.000000,4.000000,4.000000,4.000000,4.000000,4.000000,4.000000,4.000000,4.000000,4.000000,4.000000,4.000000,4.000000,100.000000
1615771634.334057,28.000000,0.000000,-4.796625,-2.904462,-3.083025,4.928133,14.391050,5.646442,8.035427,-0.721799,-2.160154,27.337122,11.275420,3.178928,4.462151,2.227112,3.353741,22.121058,-1.553873,7.025343,5.742783,0.720293,2.000257,-0.462608,6.228778,2.764072,-26.419134,-7.383116,-0.932787,0.192724,-5.443051,-38.010963,6.521841,1.640975,0.000000,217.000000,4.000000,,,,0.000000,4.000000,4.000000,4.000000,4.000000,4.000000,4.000000,4.000000,4.000000,4.000000,4.000000,4.000000,4.000000,4.000000,4.000000,4.000000,4.000000,4.000000,4.000000,4.000000,4.000000,4.000000,4.000000,4.000000,4.000000,4.000000,4.000000,4.000000,4.000000,4.000000,4.000000,4.000000,4.000000,100.000000
1615771634.341707,29.000000,0.000000,-4.791828,-2.901558,-2.567121,4.923204,16.940762,5.127975,8.027391,-0.721077,-7.799020,26.796965,8.187222,3.175749,-8.875645,-1.877679,-3.829100,4.663039,-4.116421,2.402933,0.608835,-6.972735,-4.668410,0.050675,4.171268,1.735667,-26.905535,-5.324451,-1.444675,1.218172,-1.847865,-37.460129,6.002499,2.152154,0.000000,165.000000,4.000000,,,,0.000000,4.000000,4.000000,4.000000,4.000000,4.000000,4.000000,4.000000,4.000000,4.000000,4.000000,4.000000,4.000000,4.000000,4.000000,4.000000,4.000000,4.000000,4.000000,4.000000,4.000000,4.000000,4.000000,4.000000,4.000000,4.000000,4.000000,4.000000,4.000000,4.000000,4.000000,4.000000,4.000000,100.000000
1615771634.349456,30.000000,0.000000,-4.787036,-2.898656,-3.590195,4.405461,15.898180,6.148488,8.019364,-1.233177,1.439548,21.641962,2.538009,3.172573,-20.661640,-10.593750,-15.620142,-19.957008,-9.240510,-5.804598,0.608226,-10.555506,-3.125280,-0.462196,0.064532,1.221110,-27.391449,-3.780665,-1.443230,0.704134,-1.333197,-37.935490,6.509316,2.150002,0.000000,215.000000,4.000000,,,,0.000000,4.000000,4.000000,4.000000,4.000000,4.000000,4.000000,4.000000,4.000000,4.000000,4.000000,4.000000,4.000000,4.000000,4.000000,4.000000,4.000000,4.000000,4.000000,4.000000,4.000000,4.000000,4.000000,4.000000,4.000000,4.000000,4.000000,4.000000,4.000000,4.000000,4.000000,4.000000,4.000000,100.000000
1615771634.357105,31.000000,0.000000,-4.782249,-2.895758,-8.201989,4.913876,11.266897,4.603878,8.011345,-0.206303,5.027853,21.620319,2.022650,3.169401,-14.487133,-11.608798,-14.066061,-12.244744,-10.256910,-0.670588,2.146079,-7.980848,-1.583693,0.051087,-1.986815,1.732710,-26.338417,-4.289705,-1.441787,0.703430,-6.460068,-37.897556,6.502807,-1.441891,0.000000,171.000000,4.000000,,,,0.000000,4.000000,4.000000,4.000000,4.000000,4.000000,4.000000,4.000000,4.000000,4.000000,4.000000,4.000000,4.000000,4.000000,4.000000,4.000000,4.000000,4.000000,4.000000,4.000000,4.000000,4.000000,4.000000,4.000000,4.000000,4.000000,4.000000,4.000000,4.000000,4.000000,4.000000,4.000000,4.000000,100.000000
1615771634.364854,32.000000,0.000000,-4.777467,-2.892862,-10.757890,4.908962,10.229989,-0.528931,8.003333,-0.206096,-13.438714,22.111521,5.610372,3.166231,-3.703415,-4.930522,-6.359687,6.741859,-7.169731,1.894185,1.118292,-5.921585,-5.171853,0.563856,-1.472007,1.730977,-26.824900,-3.259774,-1.440345,0.702726,-9.017711,-37.859657,5.983484,-5.543014,8064.000000,0.000000,4.000000,,,,0.000000,4.000000,4.000000,4.000000,4.000000,4.000000,4.000000,4.000000,4.000000,4.000000,4.000000,4.000000,4.000000,4.000000,4.000000,4.000000,4.000000,4.000000,4.000000,4.000000,4.000000,4.000000,4.000000,4.000000,4.000000,4.000000,4.000000,4.000000,4.000000,4.000000,4.000000,4.000000,4.000000,100.000000
1615771634.372503,33.000000,0.000000,-4.772689,-2.889969,-9.208671,3.365592,9.194118,0.497239,7.995330,-2.769993,-22.656044,22.089409,6.117581,3.163065,-3.186891,-2.874310,-6.353327,-0.444370,-6.136919,-7.338479,1.117174,-5.915663,-5.679502,-1.487990,-1.983356,1.216426,-27.823715,-4.282156,-1.951725,0.702023,-6.444591,-38.334618,7.003141,-7.075932,8064.000000,0.000000,4.000000,,,,0.000000,4.000000,4.000000,4.000000,4.000000,4.000000,4.000000,4.000000,4.000000,4.000000,4.000000,4.000000,4.000000,4.000000,4.000000,4.000000,4.000000,4.000000,4.000000,4.000000,4.000000,4.000000,4.000000,4.000000,4.000000,4.000000,4.000000,4.000000,4.000000,4.000000,4.000000,4.000000,4.000000,100.000000
1615771634.380252,34.000000,0.000000,-4.767917,-2.887079,-6.635360,5.926329,11.236206,7.163408,7.987335,0.822521,-4.684670,25.657063,6.111464,3.159902,-4.722166,-3.384256,-5.321333,-9.161874,-7.156424,-5.279858,1.628877,-5.909748,-1.058438,0.564781,-1.981372,1.215209,-22.154865,-4.790694,-1.436953,0.701321,-5.925325,-38.809105,11.611523,-5.530395,8064.000000,0.000000,4.000000,,,,0.000000,4.000000,4.000000,4.000000,4.000000,4.000000,4.000000,4.000000,4.000000,4.000000,4.000000,4.000000,4.000000,4.000000,4.000000,4.000000,4.000000,4.000000,4.000000,4.000000,4.000000,4.000000,4.000000,4.000000,4.000000,4.000000,4.000000,4.000000,4.000000,4.000000,4.000000,4.000000,4.000000,100.000000
1615771634.387901,35.000000,0.000000,-4.763149,-2.884192,-4.064621,13.612710,17.891636,10.233168,7.979348,6.975544,8.653348,29.733971,12.259199,3.156742,-1.127700,-2.868051,0.325014,0.590878,-5.610806,10.622858,0.601607,-3.852556,4.070826,6.718062,0.584712,4.803738,-12.389121,5.983327,0.615766,0.700620,-4.893759,-37.231834,14.676834,-0.909480,8064.000000,0.000000,4.000000,,,,0.000000,4.000000,4.000000,4.000000,4.000000,4.000000,4.000000,4.000000,4.000000,4.000000,4.000000,4.000000,4.000000,4.000000,4.000000,4.000000,4.000000,4.000000,4.000000,4.000000,4.000000,4.000000,4.000000,4.000000,4.000000,4.000000,4.000000,4.000000,4.000000,4.000000,4.000000,4.000000,4.000000,100.000000
1615771634.395750,36.000000,0.000000,-5.271206,-2.881308,-3.547736,15.137559,14.796822,8.684473,7.971368,0.301902,3.003669,29.704235,17.887964,3.666406,0.411889,-3.378004,1.350330,9.821056,-3.553913,15.227619,2.652288,-2.310241,6.118037,5.172882,2.635409,8.901498,-10.838271,14.695293,2.666432,0.699919,-2.837583,-37.707424,12.610875,1.142712,8064.000000,0.000000,4.000000,,,,0.000000,4.000000,4.000000,4.000000,4.000000,4.000000,4.000000,4.000000,4.000000,4.000000,4.000000,4.000000,4.000000,4.000000,4.000000,4.000000,4.000000,4.000000,4.000000,4.000000,4.000000,4.000000,4.000000,4.000000,4.000000,4.000000,4.000000,4.000000,4.000000,4.000000,4.000000,4.000000,4.000000,100.000000
1615771634.403499,37.000000,0.000000,-3.727473,-3.391247,-3.544189,11.532678,7.089717,9.188609,7.963397,-7.903528,1.975024,28.136070,17.870077,3.149919,1.437118,1.240759,5.964365,19.554825,-2.524718,13.673930,9.829123,-0.256649,5.599099,5.167709,2.119953,9.405417,-11.853073,9.552393,2.150945,0.699219,-2.834746,-39.720997,14.136726,1.654390,8064.000000,0.000000,4.000000,,,,0.000000,4.000000,4.000000,4.000000,4.000000,4.000000,4.000000,4.000000,4.000000,4.000000,4.000000,4.000000,4.000000,4.000000,4.000000,4.000000,4.000000,4.000000,4.000000,4.000000,4.000000,4.000000,4.000000,4.000000,4.000000,4.000000,4.000000,4.000000,4.000000,4.000000,4.000000,4.000000,4.000000,100.000000
1615771634.411348,38.000000,0.000000,-1.672464,-2.362215,1.587561,12.546786,17.339039,9.692242,7.955433,0.822324,11.716639,30.159216,17.339386,3.146769,5.538245,10.470287,15.701990,26.714758,2.606012,16.737179,13.409038,3.333351,7.131961,15.418952,2.117833,8.883191,-8.764297,7.491558,2.148794,0.698520,1.783473,-31.476149,21.814898,5.755300,8064.000000,0.000000,4.000000,,,,0.000000,4.000000,4.000000,4.000000,4.000000,4.000000,4.000000,4.000000,4.000000,4.000000,4.000000,4.000000,4.000000,4.000000,4.000000,4.000000,4.000000,4.000000,4.000000,4.000000,4.000000,4.000000,4.000000,4.000000,4.000000,4.000000,4.000000,4.000000,4.000000,4.000000,4.000000,4.000000,4.000000,100.000000
1615771634.419097,39.000000,0.000000,-0.645150,0.204250,8.252640,16.123983,29.116571,9.169728,7.947478,8.000989,11.192101,34.744442,17.834867,3.656443,8.609631,10.972638,14.660646,12.329068,6.705970,14.669160,12.369987,5.894120,7.637650,16.941994,2.115715,9.387129,-7.729892,11.073811,2.146645,0.697822,9.986818,-20.162621,25.895647,10.364928,8064.000000,0.000000,4.000000,,,,0.000000,4.000000,4.000000,4.000000,4.000000,4.000000,4.000000,4.000000,4.000000,4.000000,4.000000,4.000000,4.000000,4.000000,4.000000,4.000000,4.000000,4.000000,4.000000,4.000000,4.000000,4.000000,4.000000,4.000000,4.000000,4.000000,4.000000,4.000000,4.000000,4.000000,4.000000,4.000000,4.000000,100.000000
1615771634.426946,40.000000,0.000000,-1.157326,1.229687,6.705925,16.107859,22.933607,9.160559,7.939530,-0.724960,0.411679,36.760979,15.765751,0.575863,7.062559,5.320640,3.876755,2.573149,-0.993044,9.526286,12.357617,5.888226,3.527448,3.591719,2.113600,9.377741,-12.850368,2.344788,2.144499,0.697124,11.515293,-23.732203,23.305649,8.816102,8064.000000,0.000000,4.000000,,,,0.000000,4.000000,4.000000,4.000000,4.000000,4.000000,4.000000,4.000000,4.000000,4.000000,4.000000,4.000000,4.000000,4.000000,4.000000,4.000000,4.000000,4.000000,4.000000,4.000000,4.000000,4.000000,4.000000,4.000000,4.000000,4.000000,4.000000,4.000000,4.000000,4.000000,4.000000,4.000000,4.000000,100.000000
1615771634.434696,41.000000,0.000000,-1.156168,0.715637,4.647937,15.066110,16.244007,9.151399,7.931591,-5.339620,-0.101554,36.211399,13.698703,-4.040097,5.004214,4.802498,1.821597,15.903910,-8.684359,12.080862,12.858080,5.369517,1.472638,-2.052898,2.111486,7.317081,-16.427261,-3.298583,2.142354,0.696427,8.426855,-30.375135,20.205420,5.730363,8064.000000,0.000000,4.000000,,,,0.000000,4.000000,4.000000,4.000000,4.000000,4.000000,4.000000,4.000000,4.000000,4.000000,4.000000,4.000000,4.000000,4.000000,4.000000,4.000000,4.000000,4.000000,4.000000,4.000000,4.000000,4.000000,4.000000,4.000000,4.000000,4.000000,4.000000,4.000000,4.000000,4.000000,4.000000,4.000000,4.000000,100.000000
1615771634.442545,42.000000,0.000000,-1.155012,0.714921,7.207392,15.563864,20.330328,9.142247,7.923659,-0.718896,6.565215,36.175186,13.685004,-4.548878,3.973569,4.797696,4.896698,19.477749,-5.085930,14.120063,12.332401,5.876968,2.496807,1.026078,2.109374,5.258482,-14.872372,8.499588,2.140212,0.695730,8.931249,-27.780659,21.210855,6.750274,8064.000000,0.000000,4.000000,,,,0.000000,4.000000,4.000000,4.000000,4.000000,4.000000,4.000000,4.000000,4.000000,4.000000,4.000000,4.000000,4.000000,4.000000,4.000000,4.000000,4.000000,4.000000,4.000000,4.000000,4.000000,4.000000,4.000000,4.000000,4.000000,4.000000,4.000000,4.000000,4.000000,4.000000,4.000000,4.000000,4.000000,100.000000
1615771634.450294,43.000000,0.000000,-1.153857,0.714206,5.661723,15.548301,22.361279,9.133104,7.915736,-0.205356,0.917624,37.164654,13.671319,-1.980226,3.969596,4.280077,4.378981,17.919809,-2.003922,12.054661,12.320069,5.358271,-1.608254,-0.513410,2.107265,4.740403,-14.857499,15.157755,2.138072,0.695035,9.435138,-26.214417,21.702465,10.333267,8064.000000,0.000000,4.000000,,,,0.000000,4.000000,4.000000,4.000000,4.000000,4.000000,4.000000,4.000000,4.000000,4.000000,4.000000,4.000000,4.000000,4.000000,4.000000,4.000000,4.000000,4.000000,4.000000,4.000000,4.000000,4.000000,4.000000,4.000000,4.000000,4.000000,4.000000,4.000000,4.000000,4.000000,4.000000,4.000000,4.000000,100.000000
1615771634.458143,44.000000,0.000000,-2.178344,0.200671,0.015036,15.019932,20.800457,8.611151,7.395000,-1.230792,-2.160217,35.589027,13.657648,-0.952605,7.042549,7.352721,11.041268,38.927532,-2.001918,17.170811,12.307749,5.352912,-5.709210,-1.025717,2.105158,5.248484,-21.509308,8.988750,1.623113,0.181519,8.912882,-30.290766,17.065378,8.784472,8064.000000,0.000000,4.000000,,,,0.000000,4.000000,4.000000,4.000000,4.000000,4.000000,4.000000,4.000000,4.000000,4.000000,4.000000,4.000000,4.000000,4.000000,4.000000,4.000000,4.000000,4.000000,4.000000,4.000000,4.000000,4.000000,4.000000,4.000000,4.000000,4.000000,4.000000,4.000000,4.000000,4.000000,4.000000,4.000000,4.000000,100.000000
1615771634.465892,45.000000,0.000000,-1.150525,0.713291,-0.497800,15.517732,20.779655,9.115360,7.387604,-1.229561,6.559892,36.066257,13.643991,0.073989,7.035507,6.319727,19.235355,48.632195,0.051366,22.794666,12.295442,5.347559,-5.703501,0.513770,2.615873,5.243235,-27.128824,5.902839,2.134310,0.181338,8.903969,-31.286116,10.894466,-0.455081,8064.000000,0.000000,4.000000,,,,0.000000,4.000000,4.000000,4.000000,4.000000,4.000000,4.000000,4.000000,4.000000,4.000000,4.000000,4.000000,4.000000,4.000000,4.000000,4.000000,4.000000,4.000000,4.000000,4.000000,4.000000,4.000000,4.000000,4.000000,4.000000,4.000000,4.000000,4.000000,4.000000,4.000000,4.000000,4.000000,4.000000,100.000000
1615771634.473741,46.000000,0.000000,-0.636554,0.199757,0.015519,16.015036,18.707594,9.106245,7.893037,-3.279614,0.912306,37.055832,12.091885,-1.464547,-0.151016,-3.943003,8.446889,23.455357,-1.999967,16.618025,12.283146,5.342212,-5.697797,-2.563666,0.561975,4.212351,-26.588875,4.871295,2.132176,0.693977,8.895065,-29.716368,8.832290,-6.608472,8064.000000,0.000000,4.000000,,,,0.000000,4.000000,4.000000,4.000000,4.000000,4.000000,4.000000,4.000000,4.000000,4.000000,4.000000,4.000000,4.000000,4.000000,4.000000,4.000000,4.000000,4.000000,4.000000,4.000000,4.000000,4.000000,4.000000,4.000000,4.000000,4.000000,4.000000,4.000000,4.000000,4.000000,4.000000,4.000000,4.000000,100.000000
1615771634.481490,47.000000,0.000000,-2.687199,0.712378,0.015503,14.973379,17.150425,8.071498,7.372324,-7.378898,-14.986042,31.890572,10.028511,-7.104108,-7.330352,-8.041624,-9.510276,-0.157843,-5.587711,8.909100,12.270863,5.336870,-4.666459,-3.073923,-1.489869,2.156856,-23.998184,3.840783,1.617224,0.180462,9.398991,-30.712294,9.336278,-5.063403,8064.000000,0.000000,4.000000,,,,0.000000,4.000000,4.000000,4.000000,4.000000,4.000000,4.000000,4.000000,4.000000,4.000000,4.000000,4.000000,4.000000,4.000000,4.000000,4.000000,4.000000,4.000000,4.000000,4.000000,4.000000,4.000000,4.000000,4.000000,4.000000,4.000000,4.000000,4.000000,4.000000,4.000000,4.000000,4.000000,4.000000,100.000000
1615771634.489339,48.000000,0.000000,-0.120410,5.327050,5.143692,17.009687,19.697378,10.627529,7.877772,-9.935622,-7.278748,25.704834,8.992842,-5.558542,-8.861484,-3.931018,-11.039227,-5.285891,-4.043662,9.925832,12.258592,5.331533,-0.046407,5.647099,-2.001199,1.129058,-20.897263,8.452327,2.641247,0.180282,10.928053,-30.168760,12.403865,-2.494236,8064.000000,0.000000,4.000000,,,,0.000000,4.000000,4.000000,4.000000,4.000000,4.000000,4.000000,4.000000,4.000000,4.000000,4.000000,4.000000,4.000000,4.000000,4.000000,4.000000,4.000000,4.000000,4.000000,4.000000,4.000000,4.000000,4.000000,4.000000,4.000000,4.000000,4.000000,4.000000,4.000000,4.000000,4.000000,4.000000,4.000000,100.000000
1615771634.497088,49.000000,0.000000,10.136121,10.962749,11.805216,21.608063,21.728962,17.796389,11.459638,-6.848763,12.728531,28.243233,10.522310,4.190606,-3.211596,-2.388626,-1.797418,1.386062,-2.501156,14.018470,12.246333,5.326201,2.517741,11.795299,-1.999198,1.127929,-16.773802,14.084900,7.766811,4.795486,12.968407,-27.574490,16.494024,-2.491742,8064.000000,0.000000,4.000000,,,,0.000000,4.000000,4.000000,4.000000,4.000000,4.000000,4.000000,4.000000,4.000000,4.000000,4.000000,4.000000,4.000000,4.000000,4.000000,4.000000,4.000000,4.000000,4.000000,4.000000,4.000000,4.000000,4.000000,4.000000,4.000000,4.000000,4.000000,4.000000,4.000000,4.000000,4.000000,4.000000,4.000000,100.000000
1615771634.504937,50.000000,0.000000,13.202909,10.951786,11.793410,20.047993,21.194412,19.829874,15.037922,2.388855,13.741444,33.343193,12.563069,8.288980,8.586487,-3.411878,4.358225,16.256472,-2.498655,13.491632,12.234087,5.320875,2.515224,11.783504,-1.484379,2.152442,-14.192925,14.583635,10.323147,8.380434,12.955439,-26.008453,17.503172,-2.489251,8064.000000,0.000000,4.000000,,,,0.000000,4.000000,4.000000,4.000000,4.000000,4.000000,4.000000,4.000000,4.000000,4.000000,4.000000,4.000000,4.000000,4.000000,4.000000,4.000000,4.000000,4.000000,4.000000,4.000000,4.000000,4.000000,4.000000,4.000000,4.000000,4.000000,4.000000,4.000000,4.000000,4.000000,4.000000,4.000000,4.000000,100.000000
1615771634.512686,51.000000,0.000000,6.010218,7.863911,8.191874,12.848457,20.660398,16.220301,15.535705,6.489030,3.984112,32.284210,13.576148,6.742229,12.167645,-3.408466,4.866687,14.188932,-1.470515,11.426857,12.734674,5.828375,2.512709,11.258899,-0.970074,4.714393,-14.691552,14.056231,7.235901,8.372054,10.378381,-26.495266,14.921566,-2.999582,8064.000000,0.000000,4.000000,,,,0.000000,4.000000,4.000000,4.000000,4.000000,4.000000,4.000000,4.000000,4.000000,4.000000,4.000000,4.000000,4.000000,4.000000,4.000000,4.000000,4.000000,4.000000,4.000000,4.000000,4.000000,4.000000,4.000000,4.000000,4.000000,4.000000,4.000000,4.000000,4.000000,4.000000,4.000000,4.000000,4.000000,100.000000
1615771634.520335,52.000000,0.000000,1.388823,7.856047,7.158041,10.271506,21.152557,15.691260,15.007348,3.405618,5.518589,31.739105,13.562572,6.735487,3.950348,-2.892237,-0.266384,-3.261154,-5.571609,9.364148,11.183477,5.309726,-0.566727,8.170717,-2.507565,5.735319,-15.189682,14.554996,5.177383,7.850861,8.829540,-26.981590,13.368183,-1.458121,8064.000000,0.000000,4.000000,,,,0.000000,4.000000,4.000000,4.000000,4.000000,4.000000,4.000000,4.000000,4.000000,4.000000,4.000000,4.000000,4.000000,4.000000,4.000000,4.000000,4.000000,4.000000,4.000000,4.000000,4.000000,4.000000,4.000000,4.000000,4.000000,4.000000,4.000000,4.000000,4.000000,4.000000,4.000000,4.000000,4.000000,100.000000
1615771634.528084,53.000000,0.000000,2.925896,8.361012,7.663703,12.312517,21.644226,17.214029,14.992341,2.376571,12.179737,33.245827,13.549009,7.754392,1.382295,-1.350884,3.836446,3.921594,-4.540396,10.893246,8.608191,5.304416,-1.078981,4.059982,-0.966596,5.216763,-14.661672,14.540441,5.685026,8.355831,10.871993,-25.928968,12.841994,5.722825,8064.000000,0.000000,4.000000,,,,0.000000,4.000000,4.000000,4.000000,4.000000,4.000000,4.000000,4.000000,4.000000,4.000000,4.000000,4.000000,4.000000,4.000000,4.000000,4.000000,4.000000,4.000000,4.000000,4.000000,4.000000,4.000000,4.000000,4.000000,4.000000,4.000000,4.000000,4.000000,4.000000,4.000000,4.000000,4.000000,4.000000,100.000000
1615771634.535733,54.000000,0.000000,2.922970,7.839830,7.656039,11.787384,20.084120,15.145535,16.002989,4.938297,4.988070,30.648479,14.048281,8.259459,8.047580,1.214570,20.242867,29.045877,6.746195,14.472096,9.112403,6.837574,4.050303,4.568743,5.701037,5.211546,-13.621368,15.038721,6.192162,8.347475,12.912403,-25.903038,13.341972,10.332486,8064.000000,0.000000,4.000000,,,,0.000000,4.000000,4.000000,4.000000,4.000000,4.000000,4.000000,4.000000,4.000000,4.000000,4.000000,4.000000,4.000000,4.000000,4.000000,4.000000,4.000000,4.000000,4.000000,4.000000,4.000000,4.000000,4.000000,4.000000,4.000000,4.000000,4.000000,4.000000,4.000000,4.000000,4.000000,4.000000,4.000000,100.000000
1615771634.543482,55.000000,0.000000,2.407227,7.831990,6.622742,10.237135,17.499933,12.566286,15.474166,2.369256,-10.401533,25.489626,13.521412,7.225558,9.065173,1.726176,21.761086,26.965549,5.200988,13.944803,10.128932,4.779454,-1.594773,0.974431,5.182516,6.231976,-16.684669,11.946759,6.185969,7.826307,12.386670,-28.954060,13.328630,7.758051,8064.000000,0.000000,4.000000,,,,0.000000,4.000000,4.000000,4.000000,4.000000,4.000000,4.000000,4.000000,4.000000,4.000000,4.000000,4.000000,4.000000,4.000000,4.000000,4.000000,4.000000,4.000000,4.000000,4.000000,4.000000,4.000000,4.000000,4.000000,4.000000,4.000000,4.000000,4.000000,4.000000,4.000000,4.000000,4.000000,4.000000,100.000000
1615771634.551132,56.000000,0.000000,1.891999,7.824159,7.128940,12.791000,17.482433,12.040899,14.433051,3.905349,-9.878311,23.925674,13.507891,4.141409,4.953544,0.698809,7.380349,10.528328,-5.060624,9.315475,6.016239,-0.353531,-9.285485,-5.693211,-1.489334,4.174462,-22.309011,4.242505,5.154142,7.818481,11.861464,-30.463566,12.289661,9.801576,8064.000000,0.000000,4.000000,,,,0.000000,4.000000,4.000000,4.000000,4.000000,4.000000,4.000000,4.000000,4.000000,4.000000,4.000000,4.000000,4.000000,4.000000,4.000000,4.000000,4.000000,4.000000,4.000000,4.000000,4.000000,4.000000,4.000000,4.000000,4.000000,4.000000,4.000000,4.000000,4.000000,4.000000,4.000000,4.000000,4.000000,100.000000
1615771634.558881,57.000000,0.000000,2.402927,8.329155,14.814118,17.393595,20.541874,13.054500,15.957079,10.055289,5.003362,25.953032,14.007203,4.137268,4.435770,1.210930,4.808867,8.979339,-0.440178,10.331800,4.984581,-0.865998,-0.045431,1.491970,3.127540,1.606185,-22.286703,3.212621,5.661808,7.810662,12.875243,-27.356180,13.815833,20.048183,8064.000000,0.000000,4.000000,,,,0.000000,4.000000,4.000000,4.000000,4.000000,4.000000,4.000000,4.000000,4.000000,4.000000,4.000000,4.000000,4.000000,4.000000,4.000000,4.000000,4.000000,4.000000,4.000000,4.000000,4.000000,4.000000,4.000000,4.000000,4.000000,4.000000,4.000000,4.000000,4.000000,4.000000,4.000000,4.000000,4.000000,100.000000
1615771634.566530,58.000000,0.000000,3.426165,7.808005,21.978792,17.889021,20.008512,12.015803,14.915482,6.968311,8.075282,24.901436,9.890632,2.081849,2.892873,1.209719,4.804058,4.867795,3.150005,11.347109,7.030879,-2.916414,6.108460,6.105863,8.252618,2.117399,-22.264416,4.747870,7.194608,5.751570,11.836726,-28.354464,18.417402,25.156342,8064.000000,0.000000,4.000000,,,,0.000000,4.000000,4.000000,4.000000,4.000000,4.000000,4.000000,4.000000,4.000000,4.000000,4.000000,4.000000,4.000000,4.000000,4.000000,4.000000,4.000000,4.000000,4.000000,4.000000,4.000000,4.000000,4.000000,4.000000,4.000000,4.000000,4.000000,4.000000,4.000000,4.000000,4.000000,4.000000,4.000000,100.000000
1615771634.574279,59.000000,0.000000,0.345816,4.723274,19.905531,14.794209,16.911581,9.952506,6.695437,-5.346350,-0.137921,19.748331,2.188433,-8.689464,-5.315148,-3.919696,-11.611003,-14.624252,-10.699299,-3.023212,-5.283844,-15.734011,-12.872006,-9.284859,-2.012045,1.089641,-29.934460,-4.487647,1.546388,4.207356,7.209505,-37.044060,18.398985,20.002979,8064.000000,0.000000,4.000000,,,,0.000000,4.000000,4.000000,4.000000,4.000000,4.000000,4.000000,4.000000,4.000000,4.000000,4.000000,4.000000,4.000000,4.000000,4.000000,4.000000,4.000000,4.000000,4.000000,4.000000,4.000000,4.000000,4.000000,4.000000,4.000000,4.000000,4.000000,4.000000,4.000000,4.000000,4.000000,4.000000,4.000000,100.000000
1615771634.581928,60.000000,0.000000,-6.834017,3.692910,19.885626,14.266594,16.894669,8.404092,-0.490745,-9.956388,-2.701886,16.651659,-1.916319,-16.885902,-10.950859,-11.095263,-21.342981,-22.301935,-19.919369,-16.866343,-23.227278,-23.923405,-28.756571,-19.019163,-8.676700,-5.065295,-36.058372,-15.252390,-7.173107,4.203149,4.125372,-42.135220,16.842123,16.393232,8064.000000,0.000000,4.000000,,,,0.000000,4.000000,4.000000,4.000000,4.000000,4.000000,4.000000,4.000000,4.000000,4.000000,4.000000,4.000000,4.000000,4.000000,4.000000,4.000000,4.000000,4.000000,4.000000,4.000000,4.000000,4.000000,4.000000,4.000000,4.000000,4.000000,4.000000,4.000000,4.000000,4.000000,4.000000,4.000000,4.000000,100.000000
1615771634.589677,61.000000,0.000000,-6.827183,6.766140,24.481125,15.790790,17.390594,8.908508,0.022566,-7.382329,0.890559,17.660648,-1.401582,-13.792094,-10.939908,-14.161091,-13.116510,-7.920660,-14.771244,-9.157169,-21.152769,-17.232815,-24.625250,-10.282196,0.049926,-10.188435,-34.483852,-14.211497,-7.165934,4.198946,7.198170,-41.580265,19.902205,18.940943,8064.000000,0.000000,4.000000,,,,0.000000,4.000000,4.000000,4.000000,4.000000,4.000000,4.000000,4.000000,4.000000,4.000000,4.000000,4.000000,4.000000,4.000000,4.000000,4.000000,4.000000,4.000000,4.000000,4.000000,4.000000,4.000000,4.000000,4.000000,4.000000,4.000000,4.000000,4.000000,4.000000,4.000000,4.000000,4.000000,4.000000,100.000000
1615771634.597326,62.000000,0.000000,-2.204971,7.272194,21.892540,14.749357,17.373203,8.899600,1.048185,-7.887767,-2.187254,16.617346,-0.887360,-11.214199,-9.903327,-13.634109,-7.975189,2.856492,-12.705191,0.082757,-9.849565,-11.574556,-19.472420,-6.169350,2.613979,-9.152605,-32.398087,-10.094722,-1.517742,4.194747,9.242254,-39.487400,19.882303,19.947641,8064.000000,0.000000,4.000000,,,,0.000000,4.000000,4.000000,4.000000,4.000000,4.000000,4.000000,4.000000,4.000000,4.000000,4.000000,4.000000,4.000000,4.000000,4.000000,4.000000,4.000000,4.000000,4.000000,4.000000,4.000000,4.000000,4.000000,4.000000,4.000000,4.000000,4.000000,4.000000,4.000000,4.000000,4.000000,4.000000,4.000000,100.000000
1615771634.605075,63.000000,0.000000,-1.177125,2.136717,18.793726,14.221787,17.355831,8.377880,-1.516966,-8.905520,-9.877375,13.523806,-1.399293,-12.228626,-10.919065,-13.620475,-10.531316,0.289533,-13.718126,-7.609633,-11.890997,-13.101443,-20.478588,-7.701642,-1.491199,-6.066530,-33.391327,-11.623088,-1.003404,4.190552,8.207371,-37.909454,15.759856,18.389233,8064.000000,0.000000,4.000000,,,,0.000000,4.000000,4.000000,4.000000,4.000000,4.000000,4.000000,4.000000,4.000000,4.000000,4.000000,4.000000,4.000000,4.000000,4.000000,4.000000,4.000000,4.000000,4.000000,4.000000,4.000000,4.000000,4.000000,4.000000,4.000000,4.000000,4.000000,4.000000,4.000000,4.000000,4.000000,4.000000,4.000000,100.000000
1615771634.612725,64.000000,0.000000,0.875334,0.596119,26.980061,19.335772,17.851295,10.933604,3.099935,-6.332512,-6.790574,15.561564,-1.397894,-8.626654,-10.395326,-14.119676,-9.495144,-1.762039,-13.704409,-12.217408,-17.520132,-12.575521,-19.945290,-2.565735,0.048753,-5.547643,-33.357937,-12.124286,-2.540862,4.186362,9.224805,-36.845901,20.359482,20.422127,0.000000,165.000000,4.000000,,,,0.000000,4.000000,4.000000,4.000000,4.000000,4.000000,4.000000,4.000000,4.000000,4.000000,4.000000,4.000000,4.000000,4.000000,4.000000,4.000000,4.000000,4.000000,4.000000,4.000000,4.000000,4.000000,4.000000,4.000000,4.000000,4.000000,4.000000,4.000000,4.000000,4.000000,4.000000,4.000000,4.000000,100.000000
1615771634.620474,65.000000,0.000000,5.489843,3.672446,33.619747,24.957460,17.320623,12.973953,11.814784,-3.762077,2.959806,20.674208,-0.883676,-4.002643,-9.359289,-13.592735,-8.460008,-0.734636,-12.665063,-8.102627,-16.476971,-11.024484,-18.899702,1.539395,3.125628,-5.542095,-32.811756,-9.548059,-1.512680,4.694996,11.266862,-36.296234,27.518608,22.965807,0.000000,184.000000,4.000000,,,,0.000000,4.000000,4.000000,4.000000,4.000000,4.000000,4.000000,4.000000,4.000000,4.000000,4.000000,4.000000,4.000000,4.000000,4.000000,4.000000,4.000000,4.000000,4.000000,4.000000,4.000000,4.000000,4.000000,4.000000,4.000000,4.000000,4.000000,4.000000,4.000000,4.000000,4.000000,4.000000,4.000000,100.000000
1615771634.628123,66.000000,0.000000,2.920251,4.694414,31.534845,26.470964,17.303303,12.448158,8.726047,-4.783956,0.905564,21.166353,-0.369972,-3.485819,-11.914032,-14.091963,-9.990009,-1.246722,-13.165218,-10.658627,-16.460493,-13.577562,-19.393623,-0.000606,2.096861,-5.023732,-32.778946,-7.487228,-0.998347,2.639019,9.717134,-33.695839,26.465448,21.917200,0.000000,199.000000,4.000000,,,,0.000000,4.000000,4.000000,4.000000,4.000000,4.000000,4.000000,4.000000,4.000000,4.000000,4.000000,4.000000,4.000000,4.000000,4.000000,4.000000,4.000000,4.000000,4.000000,4.000000,4.000000,4.000000,4.000000,4.000000,4.000000,4.000000,4.000000,4.000000,4.000000,4.000000,4.000000,4.000000,4.000000,100.000000
1615771634.635972,67.000000,0.000000,-1.698054,3.664079,32.016129,25.418854,17.285999,12.435710,1.025013,-7.856095,-5.762008,21.658009,-2.420884,-4.507975,-13.953401,-13.565050,-9.980020,-3.296757,-13.664874,-9.622327,-13.879930,-11.512702,-19.374229,0.512215,2.094764,-5.531529,-32.746166,-6.966921,-1.510169,0.072277,8.681775,-32.636501,23.874882,21.895283,0.000000,155.000000,4.000000,,,,0.000000,4.000000,4.000000,4.000000,4.000000,4.000000,4.000000,4.000000,4.000000,4.000000,4.000000,4.000000,4.000000,4.000000,4.000000,4.000000,4.000000,4.000000,4.000000,4.000000,4.000000,4.000000,4.000000,4.000000,4.000000,4.000000,4.000000,4.000000,4.000000,4.000000,4.000000,4.000000,4.000000,100.000000
1615771634.643721,68.000000,0.000000,-1.696356,4.173235,31.984114,25.906254,14.704611,13.448915,4.613731,-7.848239,-4.217784,22.149170,-4.469745,-3.477825,-13.426626,-13.038665,-9.970039,-7.396024,-13.138389,-2.946038,-8.737845,-8.424267,-18.329214,-0.001118,1.067028,-5.013177,-32.713421,-7.472775,-1.508659,0.585025,11.237196,-35.680786,23.851006,24.950310,0.000000,201.000000,4.000000,,,,0.000000,4.000000,4.000000,4.000000,4.000000,4.000000,4.000000,4.000000,4.000000,4.000000,4.000000,4.000000,4.000000,4.000000,4.000000,4.000000,4.000000,4.000000,4.000000,4.000000,4.000000,4.000000,4.000000,4.000000,4.000000,4.000000,4.000000,4.000000,4.000000,4.000000,4.000000,4.000000,4.000000,100.000000
1615771634.651570,69.000000,0.000000,-0.669018,4.681882,25.798285,25.880348,9.048881,8.820082,6.660399,-7.327570,-6.264849,16.485996,-4.465275,-3.987168,-16.490122,-15.589728,-16.626736,-19.183500,-13.125250,-15.763605,-14.882954,-18.672253,-21.387808,-4.103681,-0.985321,-4.495343,-32.680706,-7.978122,-0.994330,0.584440,11.738779,-37.183567,20.750233,25.438181,0.000000,192.000000,4.000000,,,,0.000000,4.000000,4.000000,4.000000,4.000000,4.000000,4.000000,4.000000,4.000000,4.000000,4.000000,4.000000,4.000000,4.000000,4.000000,4.000000,4.000000,4.000000,4.000000,4.000000,4.000000,4.000000,4.000000,4.000000,4.000000,4.000000,4.000000,4.000000,4.000000,4.000000,4.000000,4.000000,4.000000,100.000000
1615771634.659319,70.000000,0.000000,-1.693990,3.651560,27.310947,25.854467,6.475729,1.631775,-1.038569,-8.345883,-14.463712,10.315664,-4.460810,-4.496002,-21.089018,-17.625422,-23.789597,-26.343803,-14.650586,-30.619637,-20.509096,-26.858709,-25.981806,-8.202141,-2.009977,-11.157515,-32.648026,-10.534246,-2.531797,-2.493067,8.650118,-36.633564,18.165379,25.925562,0.000000,170.000000,4.000000,,,,0.000000,4.000000,4.000000,4.000000,4.000000,4.000000,4.000000,4.000000,4.000000,4.000000,4.000000,4.000000,4.000000,4.000000,4.000000,4.000000,4.000000,4.000000,4.000000,4.000000,4.000000,4.000000,4.000000,4.000000,4.000000,4.000000,4.000000,4.000000,4.000000,4.000000,4.000000,4.000000,4.000000,100.000000
1615771634.667168,71.000000,0.000000,-1.692297,4.160728,38.052868,25.315792,10.058997,2.655784,-2.575992,-7.824718,-13.423607,11.330989,-4.456349,-2.953044,-17.478184,-12.479590,-14.022217,-13.496947,-11.046192,-14.178760,-10.232178,-15.549799,-22.366079,-7.681118,-2.520787,-15.761742,-32.615379,-12.062174,-4.580547,-3.003395,8.128647,-36.596931,21.736958,35.643227,0.000000,200.000000,4.000000,,,,0.000000,4.000000,4.000000,4.000000,4.000000,4.000000,4.000000,4.000000,4.000000,4.000000,4.000000,4.000000,4.000000,4.000000,4.000000,4.000000,4.000000,4.000000,4.000000,4.000000,4.000000,4.000000,4.000000,4.000000,4.000000,4.000000,4.000000,4.000000,4.000000,4.000000,4.000000,4.000000,4.000000,100.000000
1615771634.674917,72.000000,0.000000,-1.177784,6.720670,42.630199,25.290478,12.613041,8.294154,3.580431,-5.252790,-5.717876,14.396582,-4.451893,-0.898809,-9.255578,-6.313265,4.966164,4.978088,-3.855659,6.861060,2.598568,-4.252197,-15.677048,-4.596514,0.558657,-12.156237,-32.582764,-8.973188,-3.037505,2.127814,8.633339,-37.073154,24.279324,44.325531,0.000000,200.000000,4.000000,,,,0.000000,4.000000,4.000000,4.000000,4.000000,4.000000,4.000000,4.000000,4.000000,4.000000,4.000000,4.000000,4.000000,4.000000,4.000000,4.000000,4.000000,4.000000,4.000000,4.000000,4.000000,4.000000,4.000000,4.000000,4.000000,4.000000,4.000000,4.000000,4.000000,4.000000,4.000000,4.000000,4.000000,100.000000
1615771634.682766,73.000000,0.000000,-1.176606,8.252411,44.126030,27.829288,15.677351,8.798680,5.115312,-3.709076,-3.660876,13.869364,-4.447441,0.127731,-6.169400,-5.794131,9.063763,8.562854,-1.287700,4.290096,2.595969,-6.812048,-15.148550,-3.566277,5.173483,-9.067157,-32.550182,-4.348831,-0.983186,5.202609,8.624705,-37.036079,25.793505,44.794029,0.000000,207.000000,4.000000,,,,0.000000,4.000000,4.000000,4.000000,4.000000,4.000000,4.000000,4.000000,4.000000,4.000000,4.000000,4.000000,4.000000,4.000000,4.000000,4.000000,4.000000,4.000000,4.000000,4.000000,4.000000,4.000000,4.000000,4.000000,4.000000,4.000000,4.000000,4.000000,4.000000,4.000000,4.000000,4.000000,4.000000,100.000000
1615771634.690515,74.000000,0.000000,-1.175429,7.731339,47.158829,29.339922,18.225777,8.277061,3.571735,-3.705367,-5.195677,13.342674,-4.442993,-0.385217,-6.676051,-6.301157,1.362391,5.477368,-2.312054,-1.868040,1.054912,-10.394979,-16.159042,-4.075531,4.655489,-8.545269,-33.030453,-3.318841,-2.007844,3.658945,8.103260,-34.434940,29.357456,44.236412,0.000000,180.000000,4.000000,,,,0.000000,4.000000,4.000000,4.000000,4.000000,4.000000,4.000000,4.000000,4.000000,4.000000,4.000000,4.000000,4.000000,4.000000,4.000000,4.000000,4.000000,4.000000,4.000000,4.000000,4.000000,4.000000,4.000000,4.000000,4.000000,4.000000,4.000000,4.000000,4.000000,4.000000,4.000000,4.000000,4.000000,100.000000
1615771634.698364,75.000000,0.000000,-1.174254,7.723607,45.060387,29.310581,14.104986,8.781605,3.568163,-4.214482,-5.190481,13.842153,-4.438550,-0.384832,-6.156554,-6.294856,1.873849,8.035993,1.280002,-0.840531,2.592318,-8.333302,-15.630063,-2.020173,2.086731,-5.972621,-31.971779,-3.828343,-1.493015,4.680927,8.607977,-32.349224,30.866560,47.269100,0.000000,175.000000,4.000000,,,,0.000000,4.000000,4.000000,4.000000,4.000000,4.000000,4.000000,4.000000,4.000000,4.000000,4.000000,4.000000,4.000000,4.000000,4.000000,4.000000,4.000000,4.000000,4.000000,4.000000,4.000000,4.000000,4.000000,4.000000,4.000000,4.000000,4.000000,4.000000,4.000000,4.000000,4.000000,4.000000,4.000000,100.000000
1615771634.706113,76.000000,0.000000,-1.173080,7.715883,48.605068,28.768450,15.629343,9.285644,4.590236,-3.697447,-3.134008,15.366772,-4.434112,-0.384447,-6.150398,-5.775741,7.000180,5.976675,4.868465,0.698771,2.589726,-7.299328,-15.101612,2.084411,4.135926,-5.453828,-27.837244,-3.824514,1.585401,7.753170,10.650651,-33.855335,31.348513,49.273113,0.000000,196.000000,4.000000,,,,0.000000,4.000000,4.000000,4.000000,4.000000,4.000000,4.000000,4.000000,4.000000,4.000000,4.000000,4.000000,4.000000,4.000000,4.000000,4.000000,4.000000,4.000000,4.000000,4.000000,4.000000,4.000000,4.000000,4.000000,4.000000,4.000000,4.000000,4.000000,4.000000,4.000000,4.000000,4.000000,4.000000,100.000000
1615771634.713962,77.000000,0.000000,-1.171906,7.708168,62.915440,29.252502,25.357304,10.814819,6.636928,-3.693749,-0.566772,17.402687,-4.942498,-0.384063,-6.144247,-1.667401,8.018821,6.483519,5.889238,4.287816,2.074316,-5.753567,-12.522408,4.133609,6.695893,-3.909913,-24.732483,-3.307869,2.609456,8.258237,12.691283,-31.257380,33.881268,50.249481,0.000000,196.000000,4.000000,,,,0.000000,4.000000,4.000000,4.000000,4.000000,4.000000,4.000000,4.000000,4.000000,4.000000,4.000000,4.000000,4.000000,4.000000,4.000000,4.000000,4.000000,4.000000,4.000000,4.000000,4.000000,4.000000,4.000000,4.000000,4.000000,4.000000,4.000000,4.000000,4.000000,4.000000,4.000000,4.000000,4.000000,100.000000
1615771634.721711,78.000000,0.000000,-1.170735,7.700459,66.955086,29.223249,24.819126,12.342466,8.168753,-5.741338,-1.591846,17.385284,-4.937556,-0.383679,-6.138103,1.411190,9.549264,16.733446,5.370528,3.257887,0.533780,-5.234993,-10.971424,4.129475,5.663556,0.709381,-24.707750,-3.817382,2.094026,7.737158,12.165771,-23.533813,34.873028,51.224873,0.000000,201.000000,4.000000,,,,0.000000,4.000000,4.000000,4.000000,4.000000,4.000000,4.000000,4.000000,4.000000,4.000000,4.000000,4.000000,4.000000,4.000000,4.000000,4.000000,4.000000,4.000000,4.000000,4.000000,4.000000,4.000000,4.000000,4.000000,4.000000,4.000000,4.000000,4.000000,4.000000,4.000000,4.000000,4.000000,4.000000,100.000000
1615771634.729560,79.000000,0.000000,-1.169564,7.692759,59.195824,28.681206,14.025075,12.330124,7.647763,-7.786879,-4.154357,17.367899,-3.906977,-2.434577,-7.670426,-1.154324,5.949971,9.537225,0.749773,-4.950499,-2.030857,-5.229758,-14.550197,4.125346,5.657892,0.195852,-25.195864,-3.813565,2.091932,7.729421,12.153605,-22.484640,34.325333,51.173649,0.000000,189.000000,4.000000,,,,0.000000,4.000000,4.000000,4.000000,4.000000,4.000000,4.000000,4.000000,4.000000,4.000000,4.000000,4.000000,4.000000,4.000000,4.000000,4.000000,4.000000,4.000000,4.000000,4.000000,4.000000,4.000000,4.000000,4.000000,4.000000,4.000000,4.000000,4.000000,4.000000,4.000000,4.000000,4.000000,4.000000,100.000000
1615771634.737309,80.000000,0.000000,-1.168394,7.685066,56.572525,28.652525,12.472589,12.317794,7.640115,-7.779091,-5.175844,17.863352,-5.441532,-4.483425,-9.714038,-3.204452,-6.363671,-19.190262,-5.404823,-9.560933,-2.028826,-4.711708,-14.535646,2.069938,5.652234,-4.932549,-24.657846,-3.809751,2.089840,7.721691,12.141452,-25.539078,34.291008,50.609653,0.000000,195.000000,4.000000,,,,0.000000,4.000000,4.000000,4.000000,4.000000,4.000000,4.000000,4.000000,4.000000,4.000000,4.000000,4.000000,4.000000,4.000000,4.000000,4.000000,4.000000,4.000000,4.000000,4.000000,4.000000,4.000000,4.000000,4.000000,4.000000,4.000000,4.000000,4.000000,4.000000,4.000000,4.000000,4.000000,4.000000,100.000000
1615771634.745058,81.000000,0.000000,-1.167226,7.677381,54.977493,28.623873,13.485757,12.305475,7.632475,-7.771312,-4.657847,16.307026,-4.923270,-4.478941,-10.729965,-2.688427,-10.459872,-26.863379,-6.937880,-9.551373,-3.565259,-7.271099,-9.905725,0.016586,5.646582,-5.953258,-25.146009,-3.805941,2.087751,7.713970,12.129311,-25.513538,33.231075,51.071865,0.000000,199.000000,4.000000,,,,0.000000,4.000000,4.000000,4.000000,4.000000,4.000000,4.000000,4.000000,4.000000,4.000000,4.000000,4.000000,4.000000,4.000000,4.000000,4.000000,4.000000,4.000000,4.000000,4.000000,4.000000,4.000000,4.000000,4.000000,4.000000,4.000000,4.000000,4.000000,4.000000,4.000000,4.000000,4.000000,4.000000,100.000000
1615771634.752807,82.000000,0.000000,-1.166059,7.669704,47.230206,28.595249,12.446630,12.293170,7.624843,-7.763541,-4.653189,18.342001,2.773961,-3.961642,-10.206414,-2.685739,2.371101,-7.349336,-6.418121,-5.952077,-6.638616,-8.289469,-7.844538,0.016570,5.640935,-5.434484,-25.633684,-3.802135,1.572842,7.706256,12.117181,-27.026487,30.633743,50.507973,0.000000,213.000000,4.000000,,,,0.000000,4.000000,4.000000,4.000000,4.000000,4.000000,4.000000,4.000000,4.000000,4.000000,4.000000,4.000000,4.000000,4.000000,4.000000,4.000000,4.000000,4.000000,4.000000,4.000000,4.000000,4.000000,4.000000,4.000000,4.000000,4.000000,4.000000,4.000000,4.000000,4.000000,4.000000,4.000000,4.000000,100.000000
1615771634.760457,83.000000,0.000000,-1.164893,7.662034,46.157337,29.079473,19.100851,12.280877,7.617218,-5.704495,-5.161356,22.426224,10.463495,-4.470500,-10.196208,-2.683053,11.086679,0.863142,-6.411703,2.771824,-0.990952,-3.665794,-7.836693,-1.009088,5.635294,-5.941870,-25.095230,-3.798333,2.084090,7.698549,11.592243,-29.050741,29.577467,50.457462,0.000000,199.000000,4.000000,,,,0.000000,4.000000,4.000000,4.000000,4.000000,4.000000,4.000000,4.000000,4.000000,4.000000,4.000000,4.000000,4.000000,4.000000,4.000000,4.000000,4.000000,4.000000,4.000000,4.000000,4.000000,4.000000,4.000000,4.000000,4.000000,4.000000,4.000000,4.000000,4.000000,4.000000,4.000000,4.000000,4.000000,100.000000
1615771634.768206,84.000000,0.000000,-1.676548,7.654372,49.188103,28.537575,23.697134,12.268596,7.609601,-3.647509,-4.130554,16.249950,11.478673,-4.466030,-10.186012,-2.680370,7.998669,-3.753106,-5.379650,6.871616,8.753629,-0.072385,-7.828857,1.556024,6.142480,-5.423108,-24.557314,-3.794535,2.594826,7.690851,12.093472,-24.406307,30.573532,50.407005,0.000000,194.000000,4.000000,,,,0.000000,4.000000,4.000000,4.000000,4.000000,4.000000,4.000000,4.000000,4.000000,4.000000,4.000000,4.000000,4.000000,4.000000,4.000000,4.000000,4.000000,4.000000,4.000000,4.000000,4.000000,4.000000,4.000000,4.000000,4.000000,4.000000,4.000000,4.000000,4.000000,4.000000,4.000000,4.000000,4.000000,100.000000
1615771634.775855,85.000000,0.000000,-1.162051,7.646718,48.113274,29.021856,18.032412,11.743507,7.601991,-3.643862,-4.126424,11.105496,9.415912,-2.923103,-10.688646,-2.677689,8.503490,6.507058,-3.322989,8.403206,9.257695,-1.097954,-8.333848,8.221134,8.700439,-5.930505,-25.558399,-4.303561,1.566591,7.683160,14.645480,-21.304977,30.030138,50.356598,0.000000,201.000000,4.000000,,,,0.000000,4.000000,4.000000,4.000000,4.000000,4.000000,4.000000,4.000000,4.000000,4.000000,4.000000,4.000000,4.000000,4.000000,4.000000,4.000000,4.000000,4.000000,4.000000,4.000000,4.000000,4.000000,4.000000,4.000000,4.000000,4.000000,4.000000,4.000000,4.000000,4.000000,4.000000,4.000000,4.000000,100.000000
1615771634.783604,86.000000,0.000000,1.916034,7.639071,52.167725,31.556938,18.527199,13.270225,7.594389,-4.153038,-5.660759,18.273878,10.432137,-0.356077,-9.652317,-2.162191,16.700115,22.397985,-0.755563,15.574290,10.786900,0.441606,-4.222950,11.802657,9.717381,-5.411754,-24.507198,-3.273616,3.103486,7.675477,16.169296,-21.796494,29.487288,50.306244,0.000000,225.000000,4.000000,,,,0.000000,4.000000,4.000000,4.000000,4.000000,4.000000,4.000000,4.000000,4.000000,4.000000,4.000000,4.000000,4.000000,4.000000,4.000000,4.000000,4.000000,4.000000,4.000000,4.000000,4.000000,4.000000,4.000000,4.000000,4.000000,4.000000,4.000000,4.000000,4.000000,4.000000,4.000000,4.000000,4.000000,100.000000
1615771634.791253,87.000000,0.000000,2.939759,7.631432,59.807861,32.551022,24.149698,15.308237,7.586795,-3.636065,-2.578175,18.768425,11.447346,0.157100,-4.514459,-2.160029,16.170595,17.247383,4.373398,15.558716,17.442780,7.107831,2.447939,11.790854,9.194842,-0.278137,-18.841665,-0.706240,5.664485,8.180622,15.640306,-20.236235,31.509081,50.255936,0.000000,192.000000,4.000000,,,,0.000000,4.000000,4.000000,4.000000,4.000000,4.000000,4.000000,4.000000,4.000000,4.000000,4.000000,4.000000,4.000000,4.000000,4.000000,4.000000,4.000000,4.000000,4.000000,4.000000,4.000000,4.000000,4.000000,4.000000,4.000000,4.000000,4.000000,4.000000,4.000000,4.000000,4.000000,4.000000,4.000000,100.000000
1615771634.799002,88.000000,0.000000,0.885537,8.136621,58.722416,32.518471,20.535805,16.318569,7.579208,-3.632428,2.039788,11.570169,8.358975,-0.355878,-2.458663,-4.721972,4.359552,0.307059,5.394665,5.286747,12.297132,5.049441,-3.195534,8.702140,6.621545,5.875987,-17.284363,0.320107,3.607538,7.146800,15.624666,-17.139076,33.528854,50.205681,0.000000,188.000000,4.000000,,,,0.000000,4.000000,4.000000,4.000000,4.000000,4.000000,4.000000,4.000000,4.000000,4.000000,4.000000,4.000000,4.000000,4.000000,4.000000,4.000000,4.000000,4.000000,4.000000,4.000000,4.000000,4.000000,4.000000,4.000000,4.000000,4.000000,4.000000,4.000000,4.000000,4.000000,4.000000,4.000000,4.000000,100.000000
1615771634.806651,89.000000,0.000000,-1.166631,6.590023,53.535488,32.485950,12.822961,15.789431,7.571629,-5.167258,-0.013534,14.635522,3.735232,-0.355522,-5.020307,-6.255711,-3.337115,-3.795812,0.773886,-0.872386,-3.612602,-11.878685,-14.987210,1.513951,5.589283,5.357291,-23.933744,-0.193033,-1.524275,4.575551,15.609042,-18.660398,34.008144,50.155476,0.000000,225.000000,4.000000,,,,0.000000,4.000000,4.000000,4.000000,4.000000,4.000000,4.000000,4.000000,4.000000,4.000000,4.000000,4.000000,4.000000,4.000000,4.000000,4.000000,4.000000,4.000000,4.000000,4.000000,4.000000,4.000000,4.000000,4.000000,4.000000,4.000000,4.000000,4.000000,4.000000,4.000000,4.000000,4.000000,4.000000,100.000000
1615771634.814400,90.000000,0.000000,-1.165464,4.532151,51.430668,31.427826,12.297318,15.773641,7.564057,-7.726193,-6.680187,15.133707,2.193035,-0.355166,-6.553748,-6.249455,-2.308137,1.336189,-2.816631,-4.461257,-11.814117,-25.200140,-21.126070,-4.128589,5.583694,1.762190,-29.038017,-0.192840,-2.035571,4.058155,15.593432,-21.205841,33.974136,50.618141,0.000000,197.000000,4.000000,,,,0.000000,4.000000,4.000000,4.000000,4.000000,4.000000,4.000000,4.000000,4.000000,4.000000,4.000000,4.000000,4.000000,4.000000,4.000000,4.000000,4.000000,4.000000,4.000000,4.000000,4.000000,4.000000,4.000000,4.000000,4.000000,4.000000,4.000000,4.000000,4.000000,4.000000,4.000000,4.000000,4.000000,100.000000
1615771634.822050,91.000000,0.000000,-1.164298,3.501977,50.353596,28.832294,13.823482,15.757868,8.069313,-8.231287,-8.724789,5.374983,1.165201,-0.354811,-7.572835,-7.781667,-3.844290,-8.921557,-2.300994,-11.123463,-8.212560,-22.098017,-19.053661,-4.124460,5.578110,-0.803675,-28.496159,-0.192648,-1.007894,4.054097,15.577840,-21.697454,33.940163,50.054699,0.000000,194.000000,4.000000,,,,0.000000,4.000000,4.000000,4.000000,4.000000,4.000000,4.000000,4.000000,4.000000,4.000000,4.000000,4.000000,4.000000,4.000000,4.000000,4.000000,4.000000,4.000000,4.000000,4.000000,4.000000,4.000000,4.000000,4.000000,4.000000,4.000000,4.000000,4.000000,4.000000,4.000000,4.000000,4.000000,4.000000,100.000000
1615771634.829799,92.000000,0.000000,-1.163134,4.011296,48.251961,28.290642,13.296838,16.254930,7.035603,-7.710236,-8.203244,6.908070,-0.887246,-0.354457,-9.616545,-9.825168,-7.430190,-20.707508,-2.298693,-13.163622,-3.076142,-13.870790,-8.778197,-3.094695,5.572532,-1.828512,-27.954842,0.320366,-1.519707,4.050043,15.562262,-21.675758,33.906223,50.004646,0.000000,199.000000,4.000000,,,,0.000000,4.000000,4.000000,4.000000,4.000000,4.000000,4.000000,4.000000,4.000000,4.000000,4.000000,4.000000,4.000000,4.000000,4.000000,4.000000,4.000000,4.000000,4.000000,4.000000,4.000000,4.000000,4.000000,4.000000,4.000000,4.000000,4.000000,4.000000,4.000000,4.000000,4.000000,4.000000,4.000000,100.000000
1615771634.837448,93.000000,0.000000,-1.161971,4.007285,48.716530,28.775171,12.257900,14.700213,4.977285,-7.702525,-8.195041,13.567828,-1.399179,0.158718,-10.119748,-10.328163,-5.884298,-10.943211,-2.296395,-11.611997,-2.047425,-12.318459,-2.102753,-1.040318,6.079780,-1.826684,-28.952528,-0.192775,-2.031008,4.558813,15.546700,-21.141262,33.872318,50.467461,0.000000,204.000000,4.000000,,,,0.000000,4.000000,4.000000,4.000000,4.000000,4.000000,4.000000,4.000000,4.000000,4.000000,4.000000,4.000000,4.000000,4.000000,4.000000,4.000000,4.000000,4.000000,4.000000,4.000000,4.000000,4.000000,4.000000,4.000000,4.000000,4.000000,4.000000,4.000000,4.000000,4.000000,4.000000,4.000000,4.000000,100.000000
1615771634.845197,94.000000,0.000000,-0.647988,4.003277,48.667812,28.746397,9.681540,12.634232,3.433847,-7.694823,-8.699666,12.015800,-0.884960,-0.354261,-10.109629,-9.805015,-2.288670,1.888245,-2.294098,-11.600385,-2.558198,-12.818960,-9.792957,0.499184,5.560879,-1.824857,-28.923574,-2.756685,-1.516156,3.528613,15.531153,-23.684223,32.812805,48.878532,0.000000,222.000000,4.000000,,,,0.000000,4.000000,4.000000,4.000000,4.000000,4.000000,4.000000,4.000000,4.000000,4.000000,4.000000,4.000000,4.000000,4.000000,4.000000,4.000000,4.000000,4.000000,4.000000,4.000000,4.000000,4.000000,4.000000,4.000000,4.000000,4.000000,4.000000,4.000000,4.000000,4.000000,4.000000,4.000000,4.000000,100.000000
1615771634.852846,95.000000,0.000000,-1.160161,3.999274,48.619144,28.204830,9.671858,11.595956,3.943233,-7.687128,-8.690967,12.516603,-0.371254,0.158914,-10.099519,-9.795210,-2.286381,-3.241848,-2.291804,-12.101604,-1.529999,-12.293321,-15.424191,-1.552597,6.068139,-1.823032,-28.381830,-4.292390,-1.514640,0.960982,15.515621,-29.814384,30.215889,46.778374,0.000000,201.000000,4.000000,,,,0.000000,4.000000,4.000000,4.000000,4.000000,4.000000,4.000000,4.000000,4.000000,4.000000,4.000000,4.000000,4.000000,4.000000,4.000000,4.000000,4.000000,4.000000,4.000000,4.000000,4.000000,4.000000,4.000000,4.000000,4.000000,4.000000,4.000000,4.000000,4.000000,4.000000,4.000000,4.000000,4.000000,100.000000
1615771634.860695,96.000000,0.000000,-0.646180,4.508095,49.083347,28.689445,13.251930,12.097180,4.452111,-7.166620,-7.656634,15.581011,-0.370883,0.158755,-9.576599,-9.785415,-2.284095,-4.264247,-1.776692,-11.576682,-2.041289,-11.255386,-9.254920,-3.602327,7.087712,-1.821209,-28.353449,-3.775277,-1.513125,0.447201,15.500106,-32.861492,29.672852,46.218773,8064.000000,0.000000,4.000000,,,,0.000000,4.000000,4.000000,4.000000,4.000000,4.000000,4.000000,4.000000,4.000000,4.000000,4.000000,4.000000,4.000000,4.000000,4.000000,4.000000,4.000000,4.000000,4.000000,4.000000,4.000000,4.000000,4.000000,4.000000,4.000000,4.000000,4.000000,4.000000,4.000000,4.000000,4.000000,4.000000,4.000000,100.000000
1615771634.868444,97.000000,0.000000,-1.158355,4.503587,48.521442,27.635115,11.700216,12.597904,2.396376,-8.697915,-8.161798,11.975686,-3.960256,-3.431147,-12.131124,-9.775629,-1.768990,-0.157419,-1.774915,-11.565105,-6.654633,-11.756951,-8.732844,-3.598725,0.413957,-1.819388,-28.325096,-3.771502,-1.511612,0.446753,15.484606,-29.751709,30.156000,46.172554,8064.000000,0.000000,4.000000,,,,0.000000,4.000000,4.000000,4.000000,4.000000,4.000000,4.000000,4.000000,4.000000,4.000000,4.000000,4.000000,4.000000,4.000000,4.000000,4.000000,4.000000,4.000000,4.000000,4.000000,4.000000,4.000000,4.000000,4.000000,4.000000,4.000000,4.000000,4.000000,4.000000,4.000000,4.000000,4.000000,4.000000,100.000000
1615771634.876293,98.000000,0.000000,-6.285401,0.909340,46.421638,24.530558,10.150055,11.046844,-2.221405,-10.740499,-10.204919,9.912428,-8.571680,-11.120024,-16.734379,-10.278674,-4.844144,-14.516236,-5.875704,-12.066361,-9.724901,-12.770836,-15.903599,-3.082305,-8.304405,-1.304748,-28.296770,-5.819012,-1.510101,-1.604975,15.469121,-28.183495,29.613024,46.126381,8064.000000,0.000000,4.000000,,,,0.000000,4.000000,4.000000,4.000000,4.000000,4.000000,4.000000,4.000000,4.000000,4.000000,4.000000,4.000000,4.000000,4.000000,4.000000,4.000000,4.000000,4.000000,4.000000,4.000000,4.000000,4.000000,4.000000,4.000000,4.000000,4.000000,4.000000,4.000000,4.000000,4.000000,4.000000,4.000000,4.000000,100.000000
1615771634.884042,99.000000,0.000000,-11.920141,-3.194133,45.349579,21.429104,10.652725,7.446054,-4.270465,-11.755400,-12.245996,9.389695,-8.563108,-15.211468,-17.743284,-9.755574,-9.454685,-24.758129,-9.972393,-11.541474,-9.202355,-15.322167,-16.400517,-3.592043,-9.834562,-1.303444,-27.755653,-7.351655,-1.508590,-3.654653,15.453652,-29.180952,29.583410,46.080257,8064.000000,0.000000,4.000000,,,,0.000000,4.000000,4.000000,4.000000,4.000000,4.000000,4.000000,4.000000,4.000000,4.000000,4.000000,4.000000,4.000000,4.000000,4.000000,4.000000,4.000000,4.000000,4.000000,4.000000,4.000000,4.000000,4.000000,4.000000,4.000000,4.000000,4.000000,4.000000,4.000000,4.000000,4.000000,4.000000,4.000000,100.000000
1615771634.891891,100.000000,0.000000,-12.421042,-3.703760,43.252945,20.894854,1.411303,4.361685,-3.240554,-11.230824,-11.720929,3.226459,-7.016084,-15.196257,-17.212721,-9.745819,-9.958051,-12.425679,-9.962420,-11.017113,-8.680332,-16.332487,-14.332833,-3.588451,-8.286266,-3.353422,-28.240719,-7.344303,-1.507082,-3.650998,15.438198,-28.638952,29.553827,46.034176,8064.000000,0.000000,4.000000,,,,0.000000,4.000000,4.000000,4.000000,4.000000,4.000000,4.000000,4.000000,4.000000,4.000000,4.000000,4.000000,4.000000,4.000000,4.000000,4.000000,4.000000,4.000000,4.000000,4.000000,4.000000,4.000000,4.000000,4.000000,4.000000,4.000000,4.000000,4.000000,4.000000,4.000000,4.000000,4.000000,4.000000,100.000000
1615771634.899640,101.000000,0.000000,-11.895801,-3.187235,39.107128,20.873959,-8.846519,4.357323,-3.237313,-11.219593,-11.709208,6.300156,-10.085991,-14.668240,-17.195509,-10.248894,-10.460913,-11.900434,-9.439637,-12.544557,-9.697293,-15.803333,-16.369781,-3.584863,-9.303621,-5.401351,-28.212477,-7.336959,-1.505575,-3.134526,15.422760,-28.097492,29.524273,45.988140,8064.000000,0.000000,4.000000,,,,0.000000,4.000000,4.000000,4.000000,4.000000,4.000000,4.000000,4.000000,4.000000,4.000000,4.000000,4.000000,4.000000,4.000000,4.000000,4.000000,4.000000,4.000000,4.000000,4.000000,4.000000,4.000000,4.000000,4.000000,4.000000,4.000000,4.000000,4.000000,4.000000,4.000000,4.000000,4.000000,4.000000,100.000000
1615771634.907489,102.000000,0.000000,-12.396726,-3.696869,37.016739,20.853085,-2.683826,4.865787,-3.746896,-11.721194,-11.697499,16.550266,-12.127187,-15.166392,-17.178312,-9.725824,-9.424811,-21.119303,-9.430198,-11.506371,-8.661955,-15.787530,-12.763669,-3.068458,-9.294317,-5.395949,-25.107342,-6.816802,-0.991249,-3.131392,15.407337,-29.607857,30.007570,45.942154,8064.000000,0.000000,4.000000,,,,0.000000,4.000000,4.000000,4.000000,4.000000,4.000000,4.000000,4.000000,4.000000,4.000000,4.000000,4.000000,4.000000,4.000000,4.000000,4.000000,4.000000,4.000000,4.000000,4.000000,4.000000,4.000000,4.000000,4.000000,4.000000,4.000000,4.000000,4.000000,4.000000,4.000000,4.000000,4.000000,4.000000,100.000000
1615771634.915238,103.000000,0.000000,-11.871508,-3.693172,37.492542,20.832232,7.062448,4.348100,-3.230329,-11.196652,-11.685802,14.995255,-8.012496,-14.638405,-16.648314,-5.100714,-3.774361,-7.764849,-9.420768,-3.289737,-9.166114,-15.771743,-4.545777,-4.603851,-8.772202,-5.390553,-24.569414,-7.322805,-2.528719,-3.128260,15.391930,-32.142349,29.977562,45.896210,8192.000000,0.000000,4.000000,,,,0.000000,4.000000,4.000000,4.000000,4.000000,4.000000,4.000000,4.000000,4.000000,4.000000,4.000000,4.000000,4.000000,4.000000,4.000000,4.000000,4.000000,4.000000,4.000000,4.000000,4.000000,4.000000,4.000000,4.000000,4.000000,4.000000,4.000000,4.000000,4.000000,4.000000,4.000000,4.000000,4.000000,100.000000
1615771634.923087,104.000000,0.000000,-12.372457,-3.176658,37.455051,21.324221,6.542565,4.856573,-3.227098,-11.185455,-11.674115,9.852054,-4.414740,-15.136587,-17.657307,-2.018690,-4.283407,-0.577597,-9.411346,-2.773626,-12.233871,-16.268791,-8.130975,-7.676170,-8.763431,-5.385163,-30.698690,-7.828303,-5.090293,-3.637953,15.376538,-32.623028,29.434763,45.850315,8064.000000,0.000000,4.000000,,,,0.000000,4.000000,4.000000,4.000000,4.000000,4.000000,4.000000,4.000000,4.000000,4.000000,4.000000,4.000000,4.000000,4.000000,4.000000,4.000000,4.000000,4.000000,4.000000,4.000000,4.000000,4.000000,4.000000,4.000000,4.000000,4.000000,4.000000,4.000000,4.000000,4.000000,4.000000,4.000000,4.000000,100.000000
1615771634.930836,105.000000,0.000000,-11.847264,-3.173481,37.417595,21.302896,4.997561,4.338895,-3.223871,-11.174271,-11.662441,14.457586,-4.410325,-14.608630,-16.614008,-2.016671,-7.356047,-13.910353,-9.401936,-7.899058,-13.760098,-16.765343,-17.353613,-8.181314,-8.754667,-5.379778,-35.796196,-6.282013,-5.598023,-2.608674,15.361161,-31.564764,30.430969,46.317284,8064.000000,0.000000,4.000000,,,,0.000000,4.000000,4.000000,4.000000,4.000000,4.000000,4.000000,4.000000,4.000000,4.000000,4.000000,4.000000,4.000000,4.000000,4.000000,4.000000,4.000000,4.000000,4.000000,4.000000,4.000000,4.000000,4.000000,4.000000,4.000000,4.000000,4.000000,4.000000,4.000000,4.000000,4.000000,4.000000,4.000000,100.000000
1615771634.938685,106.000000,0.000000,-7.220032,-3.170308,37.380177,21.281593,6.531024,4.847377,-3.220648,-9.624635,-11.650779,18.545692,-3.893094,-12.029919,-12.494830,-1.501834,0.856438,-5.691315,-8.366893,-1.224492,-11.695056,-14.184475,-19.387541,-5.609030,-8.745913,-5.374398,-35.247581,-7.301372,-4.566784,-0.041963,15.858621,-32.558842,33.477463,46.270969,8064.000000,0.000000,4.000000,,,,0.000000,4.000000,4.000000,4.000000,4.000000,4.000000,4.000000,4.000000,4.000000,4.000000,4.000000,4.000000,4.000000,4.000000,4.000000,4.000000,4.000000,4.000000,4.000000,4.000000,4.000000,4.000000,4.000000,4.000000,4.000000,4.000000,4.000000,4.000000,4.000000,4.000000,4.000000,4.000000,4.000000,100.000000
1615771634.946435,107.000000,0.000000,-5.161530,-3.167138,37.342796,21.260311,6.524494,6.893812,-3.217427,-7.563728,-11.639129,18.014326,-4.402021,-10.992248,-14.533618,-1.500332,4.445325,7.647710,-8.871346,0.315194,-13.221823,-15.708752,-18.855333,-7.654704,-8.737166,-4.856203,-35.212334,-13.447917,-6.613499,0.983720,14.817122,-32.013462,32.418343,45.711876,8064.000000,0.000000,4.000000,,,,0.000000,4.000000,4.000000,4.000000,4.000000,4.000000,4.000000,4.000000,4.000000,4.000000,4.000000,4.000000,4.000000,4.000000,4.000000,4.000000,4.000000,4.000000,4.000000,4.000000,4.000000,4.000000,4.000000,4.000000,4.000000,4.000000,4.000000,4.000000,4.000000,4.000000,4.000000,4.000000,4.000000,100.000000
1615771634.954284,108.000000,0.000000,-7.207651,-3.163970,37.818275,21.239052,6.005148,8.938200,-3.214210,-7.556164,-11.627489,16.457851,-4.397619,-10.981256,-20.160110,-3.037293,-3.251428,-3.129168,-10.913756,-8.403069,-12.695780,-17.744326,-18.323658,-8.672689,-8.728430,-5.364167,-35.177120,-13.434469,-8.658168,0.469916,15.315125,-28.904526,29.821823,46.178986,8064.000000,0.000000,4.000000,,,,0.000000,4.000000,4.000000,4.000000,4.000000,4.000000,4.000000,4.000000,4.000000,4.000000,4.000000,4.000000,4.000000,4.000000,4.000000,4.000000,4.000000,4.000000,4.000000,4.000000,4.000000,4.000000,4.000000,4.000000,4.000000,4.000000,4.000000,4.000000,4.000000,4.000000,4.000000,4.000000,4.000000,100.000000
1615771634.962033,109.000000,0.000000,-8.738904,-2.647986,37.267635,21.217812,5.999144,8.416441,-3.210995,-7.548608,-11.615862,16.441393,2.786266,-7.380531,-16.037386,-1.495795,7.008234,0.463704,-7.313099,6.477128,2.701531,-6.444530,-7.023283,2.105214,-8.719701,-5.358803,-32.577843,-5.728727,-5.572587,0.469446,15.812630,-28.875620,30.304821,46.645626,8064.000000,0.000000,4.000000,,,,0.000000,4.000000,4.000000,4.000000,4.000000,4.000000,4.000000,4.000000,4.000000,4.000000,4.000000,4.000000,4.000000,4.000000,4.000000,4.000000,4.000000,4.000000,4.000000,4.000000,4.000000,4.000000,4.000000,4.000000,4.000000,4.000000,4.000000,4.000000,4.000000,4.000000,4.000000,4.000000,4.000000,100.000000
1615771634.969682,110.000000,0.000000,-7.704525,-4.696620,34.666267,19.658133,5.993145,8.408025,-3.207784,-7.028239,-11.604246,18.476234,6.373223,-4.296227,-9.354681,-4.058402,19.821737,19.437599,-4.741683,22.880907,12.442419,5.869607,1.188869,9.795416,-8.710981,-2.789342,-32.545261,-5.210177,-1.464450,0.468977,12.719894,-31.923668,27.197594,42.496418,8064.000000,0.000000,4.000000,,,,0.000000,4.000000,4.000000,4.000000,4.000000,4.000000,4.000000,4.000000,4.000000,4.000000,4.000000,4.000000,4.000000,4.000000,4.000000,4.000000,4.000000,4.000000,4.000000,4.000000,4.000000,4.000000,4.000000,4.000000,4.000000,4.000000,4.000000,4.000000,4.000000,4.000000,4.000000,4.000000,4.000000,100.000000
1615771634.977431,111.000000,0.000000,-7.696820,-6.230385,33.605961,17.587193,5.987151,8.399617,-3.717397,-9.585313,-11.592642,14.868013,-0.812638,-8.394495,-16.524815,-17.387676,0.314737,1.982265,-16.018993,0.806744,-0.903357,-6.956775,-9.581551,-2.009251,-8.702271,-0.735270,-35.589642,-11.358813,-1.462986,0.468508,7.578969,-32.404564,19.990910,37.838535,8064.000000,0.000000,4.000000,,,,0.000000,4.000000,4.000000,4.000000,4.000000,4.000000,4.000000,4.000000,4.000000,4.000000,4.000000,4.000000,4.000000,4.000000,4.000000,4.000000,4.000000,4.000000,4.000000,4.000000,4.000000,4.000000,4.000000,4.000000,4.000000,4.000000,4.000000,4.000000,4.000000,4.000000,4.000000,4.000000,4.000000,100.000000
1615771634.985080,112.000000,0.000000,-8.201943,-4.172873,34.085175,17.569605,5.981164,8.904037,-3.200859,-11.114189,-11.581049,4.083915,-5.427209,-11.463023,-25.226238,-24.549776,-19.685577,-25.199205,-24.208103,-15.604319,-15.261428,-22.847254,-19.828381,-11.750832,-9.206388,-4.837099,-35.554050,-11.347455,-1.461522,0.468039,9.109852,-30.833698,17.919636,38.313519,8064.000000,0.000000,4.000000,,,,0.000000,4.000000,4.000000,4.000000,4.000000,4.000000,4.000000,4.000000,4.000000,4.000000,4.000000,4.000000,4.000000,4.000000,4.000000,4.000000,4.000000,4.000000,4.000000,4.000000,4.000000,4.000000,4.000000,4.000000,4.000000,4.000000,4.000000,4.000000,4.000000,4.000000,4.000000,4.000000,4.000000,100.000000
1615771634.992829,113.000000,0.000000,-8.193742,-3.143059,31.486986,17.039215,5.462362,8.382313,-3.197658,-5.462049,-11.569468,5.105472,-2.344859,-6.323356,-21.098448,-15.294456,-8.383841,-13.379134,-14.440305,1.847183,-16.784628,-17.696201,-18.782909,-7.636517,-8.171541,-8.934826,-34.492855,-9.797646,-0.947240,0.467571,11.664845,-32.341328,18.414537,38.275204,8064.000000,0.000000,4.000000,,,,0.000000,4.000000,4.000000,4.000000,4.000000,4.000000,4.000000,4.000000,4.000000,4.000000,4.000000,4.000000,4.000000,4.000000,4.000000,4.000000,4.000000,4.000000,4.000000,4.000000,4.000000,4.000000,4.000000,4.000000,4.000000,4.000000,4.000000,4.000000,4.000000,4.000000,4.000000,4.000000,4.000000,100.000000
1615771635.000478,114.000000,0.000000,-8.185548,-2.627095,30.942678,17.022177,5.456900,7.861110,-4.220102,0.184438,-11.557899,18.433701,-0.804053,-2.727288,-12.872221,-6.048393,3.419415,6.121425,-3.656634,7.999182,-17.280664,-11.524660,-18.764128,-7.628880,-5.599267,-9.438712,-35.996826,-12.351951,-1.459114,0.467104,8.063437,-33.334625,18.396122,35.672825,8064.000000,0.000000,4.000000,,,,0.000000,4.000000,4.000000,4.000000,4.000000,4.000000,4.000000,4.000000,4.000000,4.000000,4.000000,4.000000,4.000000,4.000000,4.000000,4.000000,4.000000,4.000000,4.000000,4.000000,4.000000,4.000000,4.000000,4.000000,4.000000,4.000000,4.000000,4.000000,4.000000,4.000000,4.000000,4.000000,4.000000,100.000000
1615771635.008227,115.000000,0.000000,-8.177362,-0.573186,35.527119,20.594898,5.964263,10.417352,-1.651779,0.184254,-11.033520,18.928087,-1.316069,-3.750202,-10.295246,-2.965422,1.877534,8.166585,-5.704259,-0.213945,-13.160819,-11.513135,-18.232542,-6.595610,-4.568027,-8.916452,-34.422367,-7.211393,-0.944834,0.466637,9.081014,-27.147446,20.941828,37.175613,8064.000000,0.000000,4.000000,,,,0.000000,4.000000,4.000000,4.000000,4.000000,4.000000,4.000000,4.000000,4.000000,4.000000,4.000000,4.000000,4.000000,4.000000,4.000000,4.000000,4.000000,4.000000,4.000000,4.000000,4.000000,4.000000,4.000000,4.000000,4.000000,4.000000,4.000000,4.000000,4.000000,4.000000,4.000000,4.000000,4.000000,100.000000
1615771635.015877,116.000000,0.000000,-8.169185,0.965849,37.030056,21.599943,5.445479,12.458217,3.478078,0.184070,-11.535307,7.627108,-0.801933,-3.746452,-10.284951,-2.962456,0.850015,4.055855,-6.724196,1.324730,-8.532273,-6.886237,-12.573284,2.128934,-5.076279,-9.420357,-29.772560,0.488126,1.620213,0.466170,15.225779,-24.043375,22.972168,39.189720,8064.000000,0.000000,4.000000,,,,0.000000,4.000000,4.000000,4.000000,4.000000,4.000000,4.000000,4.000000,4.000000,4.000000,4.000000,4.000000,4.000000,4.000000,4.000000,4.000000,4.000000,4.000000,4.000000,4.000000,4.000000,4.000000,4.000000,4.000000,4.000000,4.000000,4.000000,4.000000,4.000000,4.000000,4.000000,4.000000,4.000000,100.000000
1615771635.023626,117.000000,0.000000,-8.161016,0.452062,33.403282,15.424498,5.440033,8.343194,4.500241,-2.380217,-13.062233,4.542557,-3.878054,-3.229885,-12.838768,-7.062058,-5.304681,-6.204611,-4.666190,-5.856082,-17.754511,-8.930634,-12.560711,-1.975759,-5.071203,-8.898116,-27.178684,-3.102106,-0.432689,0.465704,12.133630,-33.250099,19.359453,34.535149,8064.000000,0.000000,4.000000,,,,0.000000,4.000000,4.000000,4.000000,4.000000,4.000000,4.000000,4.000000,4.000000,4.000000,4.000000,4.000000,4.000000,4.000000,4.000000,4.000000,4.000000,4.000000,4.000000,4.000000,4.000000,4.000000,4.000000,4.000000,4.000000,4.000000,4.000000,4.000000,4.000000,4.000000,4.000000,4.000000,4.000000,100.000000
1615771635.031275,118.000000,0.000000,-8.152855,0.451610,33.369877,15.921893,9.537157,5.257928,1.418818,-6.993221,-15.100453,7.614938,-4.899817,-3.226655,-16.415674,-8.080637,-7.350658,-8.762509,-5.174344,-13.542534,-21.839319,-15.075549,-16.137894,-9.666091,-4.553311,-8.889217,-27.151506,-6.688747,-4.534821,0.465238,8.531753,-34.755314,20.365734,36.551895,8064.000000,0.000000,4.000000,,,,0.000000,4.000000,4.000000,4.000000,4.000000,4.000000,4.000000,4.000000,4.000000,4.000000,4.000000,4.000000,4.000000,4.000000,4.000000,4.000000,4.000000,4.000000,4.000000,4.000000,4.000000,4.000000,4.000000,4.000000,4.000000,4.000000,4.000000,4.000000,4.000000,4.000000,4.000000,4.000000,4.000000,100.000000
1615771635.039024,119.000000,0.000000,-8.144702,0.963979,36.926250,23.085459,14.143004,9.868054,0.391758,-5.960587,-15.085353,9.145784,2.797391,-3.223428,-16.912079,-0.380249,2.913102,4.579587,-5.681990,1.855624,-5.920045,-7.368165,-8.942269,-1.964117,-4.548758,-8.880328,-23.534611,-1.041033,-5.043106,0.977593,13.651426,-22.412865,26.499214,45.233292,8192.000000,0.000000,4.000000,,,,0.000000,4.000000,4.000000,4.000000,4.000000,4.000000,4.000000,4.000000,4.000000,4.000000,4.000000,4.000000,4.000000,4.000000,4.000000,4.000000,4.000000,4.000000,4.000000,4.000000,4.000000,4.000000,4.000000,4.000000,4.000000,4.000000,4.000000,4.000000,4.000000,4.000000,4.000000,4.000000,4.000000,100.000000
1615771635.046673,120.000000,0.000000,-8.136558,0.963015,36.376507,21.523912,13.103221,12.935110,0.904186,-0.826421,-15.070268,9.649459,6.897157,-5.271487,-15.869525,2.697055,0.346087,2.010904,-5.163487,11.084538,3.829465,-2.745413,-1.753840,4.704514,-5.057030,-6.820166,-22.485435,-2.065633,-5.550883,1.489436,13.124954,-24.954554,24.421434,40.059853,8064.000000,0.000000,4.000000,,,,0.000000,4.000000,4.000000,4.000000,4.000000,4.000000,4.000000,4.000000,4.000000,4.000000,4.000000,4.000000,4.000000,4.000000,4.000000,4.000000,4.000000,4.000000,4.000000,4.000000,4.000000,4.000000,4.000000,4.000000,4.000000,4.000000,4.000000,4.000000,4.000000,4.000000,4.000000,4.000000,4.000000,100.000000
1615771635.054422,121.000000,0.000000,-8.128421,-0.063589,34.288845,13.297259,12.577297,9.845251,0.390462,0.200046,-15.055197,9.639810,1.762055,-7.317498,-17.392117,-1.408206,-14.526054,-20.042389,-6.183965,4.406787,-1.815390,-11.460616,-5.341829,0.084425,-5.051972,-4.762064,-26.052692,-10.781516,-8.622255,-2.614617,8.496445,-35.186008,18.755987,27.712101,8064.000000,0.000000,4.000000,,,,0.000000,4.000000,4.000000,4.000000,4.000000,4.000000,4.000000,4.000000,4.000000,4.000000,4.000000,4.000000,4.000000,4.000000,4.000000,4.000000,4.000000,4.000000,4.000000,4.000000,4.000000,4.000000,4.000000,4.000000,4.000000,4.000000,4.000000,4.000000,4.000000,4.000000,4.000000,4.000000,4.000000,100.000000
1615771635.062071,122.000000,0.000000,-8.120293,0.962116,33.741737,12.771142,15.641643,7.784124,0.390071,-0.312975,-15.040142,10.142990,-1.316630,-7.310180,-16.861904,-2.432439,-13.998708,-24.124910,-8.741883,7.479303,-1.300754,-16.577360,-8.413410,0.084340,-4.534100,-4.757302,-23.975359,-10.257915,-8.613633,-2.612003,10.539230,-26.945696,21.301332,29.735670,8064.000000,0.000000,4.000000,,,,0.000000,4.000000,4.000000,4.000000,4.000000,4.000000,4.000000,4.000000,4.000000,4.000000,4.000000,4.000000,4.000000,4.000000,4.000000,4.000000,4.000000,4.000000,4.000000,4.000000,4.000000,4.000000,4.000000,4.000000,4.000000,4.000000,4.000000,4.000000,4.000000,4.000000,4.000000,4.000000,4.000000,100.000000
1615771635.069820,123.000000,0.000000,-8.112172,0.961154,29.092611,14.809652,5.882411,8.289161,0.389681,-1.338303,-15.537922,9.620027,-0.289672,-7.302870,-15.819402,-1.917186,-4.241119,-9.741811,-9.758782,7.471824,-1.299453,-16.047962,-7.379356,0.084256,-5.042387,-4.239724,-24.977024,-6.657913,-9.630661,-1.583750,7.964589,-21.277725,21.280031,34.321320,8064.000000,0.000000,4.000000,,,,0.000000,4.000000,4.000000,4.000000,4.000000,4.000000,4.000000,4.000000,4.000000,4.000000,4.000000,4.000000,4.000000,4.000000,4.000000,4.000000,4.000000,4.000000,4.000000,4.000000,4.000000,4.000000,4.000000,4.000000,4.000000,4.000000,4.000000,4.000000,4.000000,4.000000,4.000000,4.000000,4.000000,100.000000
1615771635.077470,124.000000,0.000000,-8.104060,-3.655192,19.832748,11.717920,-9.508086,6.229589,-2.174811,-4.926708,-15.009563,6.020663,-4.904768,-9.859670,-20.931787,-8.069116,-5.775340,-8.193607,-8.723383,-12.022827,-13.605846,-22.185760,-10.961720,-9.146598,-7.601447,-6.286767,-39.311020,-11.779460,-12.185133,-12.351397,-2.299786,-37.153881,10.489521,26.081869,8064.000000,0.000000,4.000000,,,,0.000000,4.000000,4.000000,4.000000,4.000000,4.000000,4.000000,4.000000,4.000000,4.000000,4.000000,4.000000,4.000000,4.000000,4.000000,4.000000,4.000000,4.000000,4.000000,4.000000,4.000000,4.000000,4.000000,4.000000,4.000000,4.000000,4.000000,4.000000,4.000000,4.000000,4.000000,4.000000,4.000000,100.000000
1615771635.085219,125.000000,0.000000,-8.095956,-6.215640,17.761635,9.654920,-4.370373,3.659257,-3.711098,-6.973063,-14.481733,5.501822,-8.489606,-11.388271,-27.577522,-13.702072,-10.384949,-18.441824,-10.253121,-24.831318,-23.848650,-27.804600,-15.053323,-15.291297,-8.619486,-10.895864,-46.451199,-15.870245,-12.685768,-19.518532,-2.297487,-45.321857,5.863647,20.927582,8064.000000,0.000000,4.000000,,,,0.000000,4.000000,4.000000,4.000000,4.000000,4.000000,4.000000,4.000000,4.000000,4.000000,4.000000,4.000000,4.000000,4.000000,4.000000,4.000000,4.000000,4.000000,4.000000,4.000000,4.000000,4.000000,4.000000,4.000000,4.000000,4.000000,4.000000,4.000000,4.000000,4.000000,4.000000,4.000000,4.000000,100.000000
1615771635.092868,126.000000,0.000000,-8.087860,-2.106860,21.846436,9.645265,9.480151,4.681239,-3.194566,-8.504552,-18.056995,8.060423,-5.404193,-10.864063,-24.985842,-13.688370,-9.348923,-15.859280,-12.294150,-19.678282,-24.850443,-26.751156,-15.551090,-14.763186,-8.610867,-12.936251,-39.225258,-14.315913,-12.160262,-7.704142,3.858657,-38.609867,7.909065,26.034861,8064.000000,0.000000,4.000000,,,,0.000000,4.000000,4.000000,4.000000,4.000000,4.000000,4.000000,4.000000,4.000000,4.000000,4.000000,4.000000,4.000000,4.000000,4.000000,4.000000,4.000000,4.000000,4.000000,4.000000,4.000000,4.000000,4.000000,4.000000,4.000000,4.000000,4.000000,4.000000,4.000000,4.000000,4.000000,4.000000,4.000000,100.000000
1615771635.100717,127.000000,0.000000,-8.079772,-0.566291,21.824591,9.635620,7.419389,4.676558,-3.191371,-7.983227,-19.064579,9.078003,-4.373148,-10.853199,-19.832651,-13.161860,-8.313932,-4.561369,-13.307497,-17.607321,-22.774311,-26.211584,-16.048359,-14.235601,-8.602256,-12.923314,-40.211674,-14.814418,-12.148102,1.021511,3.854798,-40.622540,6.362695,27.547287,8064.000000,0.000000,4.000000,,,,0.000000,4.000000,4.000000,4.000000,4.000000,4.000000,4.000000,4.000000,4.000000,4.000000,4.000000,4.000000,4.000000,4.000000,4.000000,4.000000,4.000000,4.000000,4.000000,4.000000,4.000000,4.000000,4.000000,4.000000,4.000000,4.000000,4.000000,4.000000,4.000000,4.000000,4.000000,4.000000,4.000000,100.000000
1615771635.108466,0.000000,0.000000,-8.071692,-2.617007,22.315586,10.651625,7.411970,3.646240,-3.701001,-1.308577,-12.378848,10.607387,-3.855955,-10.842345,-20.838459,-13.661519,-8.818439,-10.197834,-12.781369,-21.179457,-16.597691,-26.185371,-12.442568,-14.221366,-8.593654,-12.910391,-41.197105,-13.773962,-10.597492,-5.646177,5.389405,-40.069099,9.433255,26.494099,0.000000,187.000000,4.000000,,,,0.000000,4.000000,4.000000,4.000000,4.000000,4.000000,4.000000,4.000000,4.000000,4.000000,4.000000,4.000000,4.000000,4.000000,4.000000,4.000000,4.000000,4.000000,4.000000,4.000000,4.000000,4.000000,4.000000,4.000000,4.000000,4.000000,4.000000,4.000000,4.000000,4.000000,4.000000,4.000000,4.000000,100.000000
1615771635.116315,1.000000,0.000000,-8.063621,-1.075929,29.472757,12.692256,18.173788,7.745158,-2.158838,3.820937,-6.725444,15.724985,-1.287996,-10.831503,-19.791981,-13.135037,-10.860903,-23.008148,-12.768587,-15.517252,-9.401606,-26.672007,-4.737817,-11.643043,-8.585060,-9.820558,-24.745651,-7.093521,-8.022792,-8.204634,11.025042,-23.618773,21.218695,32.621452,0.000000,172.000000,4.000000,,,,0.000000,4.000000,4.000000,4.000000,4.000000,4.000000,4.000000,4.000000,4.000000,4.000000,4.000000,4.000000,4.000000,4.000000,4.000000,4.000000,4.000000,4.000000,4.000000,4.000000,4.000000,4.000000,4.000000,4.000000,4.000000,4.000000,4.000000,4.000000,4.000000,4.000000,4.000000,4.000000,4.000000,100.000000
1615771635.124064,2.000000,0.000000,-8.055557,0.976429,34.058670,14.218025,19.694077,12.352798,0.407423,-0.285448,-7.231539,17.247721,-1.799529,-10.820672,-16.182444,-13.121902,-12.901324,-18.369757,-12.755819,-6.270966,-8.879383,-26.132515,-2.681797,-10.092937,-8.063654,-5.195352,-16.002956,-2.471043,-8.014769,-5.632327,12.552478,-13.851563,27.351322,38.742676,0.000000,203.000000,4.000000,,,,0.000000,4.000000,4.000000,4.000000,4.000000,4.000000,4.000000,4.000000,4.000000,4.000000,4.000000,4.000000,4.000000,4.000000,4.000000,4.000000,4.000000,4.000000,4.000000,4.000000,4.000000,4.000000,4.000000,4.000000,4.000000,4.000000,4.000000,4.000000,4.000000,4.000000,4.000000,4.000000,4.000000,100.000000
1615771635.131913,3.000000,0.000000,-8.047502,0.462633,33.511791,13.690987,10.956433,10.801983,0.919836,-4.387727,-7.737128,12.102268,-4.361832,-10.809851,-18.217545,-13.108781,-12.888423,-12.197540,-12.230243,-10.880079,-12.460247,-24.055099,-7.294500,-10.595665,-8.568411,-4.164516,-23.679260,-2.981393,-8.519575,-6.139515,11.514284,-22.042841,26.298328,33.575729,0.000000,166.000000,4.000000,,,,0.000000,4.000000,4.000000,4.000000,4.000000,4.000000,4.000000,4.000000,4.000000,4.000000,4.000000,4.000000,4.000000,4.000000,4.000000,4.000000,4.000000,4.000000,4.000000,4.000000,4.000000,4.000000,4.000000,4.000000,4.000000,4.000000,4.000000,4.000000,4.000000,4.000000,4.000000,4.000000,4.000000,100.000000
1615771635.139662,4.000000,0.000000,-8.039454,0.974990,32.965458,13.677296,8.381374,8.227078,0.406096,-3.357698,-7.729391,9.013243,-2.306188,-10.799041,-19.224968,-13.095672,-12.875534,-19.877649,-12.730833,-16.510225,-13.473428,-22.492582,-7.287206,-10.585070,-8.047022,-5.185992,-27.758146,-3.491232,-7.998235,-6.646196,11.502770,-30.738747,25.246389,26.362665,0.000000,195.000000,4.000000,,,,0.000000,4.000000,4.000000,4.000000,4.000000,4.000000,4.000000,4.000000,4.000000,4.000000,4.000000,4.000000,4.000000,4.000000,4.000000,4.000000,4.000000,4.000000,4.000000,4.000000,4.000000,4.000000,4.000000,4.000000,4.000000,4.000000,4.000000,4.000000,4.000000,4.000000,4.000000,4.000000,4.000000,100.000000
1615771635.147511,5.000000,0.000000,-8.031414,-0.564446,33.445313,13.663618,10.424275,8.218851,0.405690,-3.867161,-7.721661,10.029871,-0.252600,-10.788242,-14.590358,-13.082576,-12.862659,-19.857773,-12.718102,-8.288587,-10.895852,-22.470091,-6.767098,-10.061664,-8.038976,-4.667986,-29.268848,-2.974920,-7.990236,-7.152370,12.004087,-33.272110,22.144220,26.849123,0.000000,209.000000,4.000000,,,,0.000000,4.000000,4.000000,4.000000,4.000000,4.000000,4.000000,4.000000,4.000000,4.000000,4.000000,4.000000,4.000000,4.000000,4.000000,4.000000,4.000000,4.000000,4.000000,4.000000,4.000000,4.000000,4.000000,4.000000,4.000000,4.000000,4.000000,4.000000,4.000000,4.000000,4.000000,4.000000,4.000000,100.000000
1615771635.155260,6.000000,0.000000,-8.023383,-2.102343,33.411869,13.649955,9.388209,8.723454,0.405284,-3.863294,-6.175478,10.019841,-0.765167,-10.777454,-12.011665,-13.069493,-12.849796,-13.171248,-12.192563,-9.305939,-12.423418,-22.447620,-15.478279,-10.564423,-10.595039,-4.663318,-36.419067,-3.484766,-8.495067,-6.632397,11.479263,-34.264481,18.019512,27.847914,0.000000,193.000000,4.000000,,,,0.000000,4.000000,4.000000,4.000000,4.000000,4.000000,4.000000,4.000000,4.000000,4.000000,4.000000,4.000000,4.000000,4.000000,4.000000,4.000000,4.000000,4.000000,4.000000,4.000000,4.000000,4.000000,4.000000,4.000000,4.000000,4.000000,4.000000,4.000000,4.000000,4.000000,4.000000,4.000000,4.000000,100.000000
1615771635.163109,7.000000,0.000000,-8.015360,-0.048959,32.865635,13.636305,8.866001,8.201909,0.404879,-3.346610,-11.297508,9.497001,-0.764402,-10.766677,-13.025294,-13.056424,-13.349767,-16.747820,-14.744473,-25.194069,-24.718687,-22.937994,-23.155109,-11.066679,-11.610085,-5.171475,-36.382648,-3.481281,-8.486571,-4.574482,11.467784,-33.204575,20.052774,26.281605,0.000000,201.000000,4.000000,,,,0.000000,4.000000,4.000000,4.000000,4.000000,4.000000,4.000000,4.000000,4.000000,4.000000,4.000000,4.000000,4.000000,4.000000,4.000000,4.000000,4.000000,4.000000,4.000000,4.000000,4.000000,4.000000,4.000000,4.000000,4.000000,4.000000,4.000000,4.000000,4.000000,4.000000,4.000000,4.000000,4.000000,100.000000
1615771635.170858,8.000000,0.000000,-8.007344,-0.048910,32.832771,13.622668,8.857135,8.193707,0.404474,-7.445827,-18.978518,9.487504,-0.763638,-10.755910,-13.012269,-13.043367,-12.310776,-16.731073,-16.268190,-17.989388,-26.745251,-22.402235,-20.567852,-10.542791,-9.547193,-5.166304,-31.218061,-3.477800,-8.478086,-2.518626,11.456316,-31.632908,24.648106,26.255323,0.000000,237.000000,4.000000,,,,0.000000,4.000000,4.000000,4.000000,4.000000,4.000000,4.000000,4.000000,4.000000,4.000000,4.000000,4.000000,4.000000,4.000000,4.000000,4.000000,4.000000,4.000000,4.000000,4.000000,4.000000,4.000000,4.000000,4.000000,4.000000,4.000000,4.000000,4.000000,4.000000,4.000000,4.000000,4.000000,4.000000,100.000000
1615771635.178707,9.000000,0.000000,-7.999337,-2.612963,32.799938,13.609045,8.848278,8.185513,0.404070,-10.002484,-14.344154,9.478016,-0.762874,-10.745153,-12.486436,-13.030324,-9.734363,-10.047675,-14.200641,2.541423,-10.821069,-18.277269,-18.496002,-7.455326,-7.999184,-5.161137,-30.674023,-3.987142,-8.469607,-3.028928,11.444860,-31.601274,25.649099,26.229069,0.000000,224.000000,4.000000,,,,0.000000,4.000000,4.000000,4.000000,4.000000,4.000000,4.000000,4.000000,4.000000,4.000000,4.000000,4.000000,4.000000,4.000000,4.000000,4.000000,4.000000,4.000000,4.000000,4.000000,4.000000,4.000000,4.000000,4.000000,4.000000,4.000000,4.000000,4.000000,4.000000,4.000000,4.000000,4.000000,4.000000,100.000000
1615771635.186456,10.000000,0.000000,-7.991338,-3.635992,32.767136,13.595436,9.865070,8.177328,0.916486,-5.889917,-5.099041,9.468538,0.263530,-10.221588,-12.986771,-13.017294,-9.211808,-11.063268,-12.647978,-2.076504,-4.656402,-15.182068,-18.477505,-5.909409,-8.504005,-5.155976,-31.156168,-2.957514,-8.461138,-3.025899,11.433415,-31.056852,25.110630,27.228479,0.000000,172.000000,4.000000,,,,0.000000,4.000000,4.000000,4.000000,4.000000,4.000000,4.000000,4.000000,4.000000,4.000000,4.000000,4.000000,4.000000,4.000000,4.000000,4.000000,4.000000,4.000000,4.000000,4.000000,4.000000,4.000000,4.000000,4.000000,4.000000,4.000000,4.000000,4.000000,4.000000,4.000000,4.000000,4.000000,4.000000,100.000000
1615771635.194305,11.000000,0.000000,-7.983346,-3.119535,32.734371,13.581841,8.829564,8.681972,0.402749,-4.858387,-10.222148,9.459069,-1.788016,-11.237008,-12.973783,-13.004276,-8.689775,-9.000923,-11.096869,-10.792376,-12.344053,-14.654066,-14.869285,-6.929141,-8.495502,-5.150820,-30.612192,-2.954557,-8.452676,-3.022873,11.421982,-31.538616,26.111160,26.688431,0.000000,200.000000,4.000000,,,,0.000000,4.000000,4.000000,4.000000,4.000000,4.000000,4.000000,4.000000,4.000000,4.000000,4.000000,4.000000,4.000000,4.000000,4.000000,4.000000,4.000000,4.000000,4.000000,4.000000,4.000000,4.000000,4.000000,4.000000,4.000000,4.000000,4.000000,4.000000,4.000000,4.000000,4.000000,4.000000,4.000000,100.000000
1615771635.202054,12.000000,0.000000,-7.975363,-3.116416,32.701637,13.568259,5.230991,6.622007,0.402346,-7.417631,-15.340131,9.449611,-3.837510,-9.687309,-12.960810,-12.478452,-6.116983,0.238847,-6.983208,1.013288,-4.639401,-11.562489,-10.751851,-5.383750,-7.974185,-5.145669,-30.581579,-4.490064,-8.444223,-3.019850,11.410560,-31.507078,25.572227,26.148922,0.000000,211.000000,4.000000,,,,0.000000,4.000000,4.000000,4.000000,4.000000,4.000000,4.000000,4.000000,4.000000,4.000000,4.000000,4.000000,4.000000,4.000000,4.000000,4.000000,4.000000,4.000000,4.000000,4.000000,4.000000,4.000000,4.000000,4.000000,4.000000,4.000000,4.000000,4.000000,4.000000,4.000000,4.000000,4.000000,4.000000,100.000000
1615771635.209903,13.000000,0.000000,-7.454567,-3.113299,33.181755,13.554691,7.789863,4.564103,0.914764,-5.871752,-11.222226,9.440161,-0.243929,-7.113519,-12.947849,-10.414691,-3.033943,2.289891,-4.924942,9.730224,12.288315,-7.448362,-10.741099,0.775480,-8.479032,-5.140524,-26.961254,-0.383009,-8.435780,-3.016830,11.399149,-27.885826,25.546656,33.815083,0.000000,203.000000,4.000000,,,,0.000000,4.000000,4.000000,4.000000,4.000000,4.000000,4.000000,4.000000,4.000000,4.000000,4.000000,4.000000,4.000000,4.000000,4.000000,4.000000,4.000000,4.000000,4.000000,4.000000,4.000000,4.000000,4.000000,4.000000,4.000000,4.000000,4.000000,4.000000,4.000000,4.000000,4.000000,4.000000,4.000000,100.000000
1615771635.217652,14.000000,0.000000,-7.959933,-3.110186,33.148571,13.541136,14.961560,4.046719,-0.111791,-4.840239,-15.313568,9.430720,3.346059,-7.619226,-12.934901,-8.865815,-0.979627,5.364524,-4.407197,8.182033,12.788847,-6.928093,-10.730358,0.774705,-8.470552,-5.135383,-21.293268,4.232758,-8.427343,-3.013814,11.387750,-23.242556,26.033930,39.935112,0.000000,196.000000,4.000000,,,,0.000000,4.000000,4.000000,4.000000,4.000000,4.000000,4.000000,4.000000,4.000000,4.000000,4.000000,4.000000,4.000000,4.000000,4.000000,4.000000,4.000000,4.000000,4.000000,4.000000,4.000000,4.000000,4.000000,4.000000,4.000000,4.000000,4.000000,4.000000,4.000000,4.000000,4.000000,4.000000,4.000000,100.000000
1615771635.225302,15.000000,0.000000,-7.951973,-3.107076,32.602604,13.527596,15.459419,4.555492,-4.214244,-6.886681,-25.041843,9.421290,-0.247031,-10.175710,-12.921967,-8.856949,-2.004289,7.410441,-6.454072,2.020004,-0.557275,-7.946806,-11.745269,-8.456840,-8.462082,-5.130248,-18.707872,0.125961,-8.418917,-3.010800,11.376362,-23.219315,23.443794,33.741329,0.000000,184.000000,4.000000,,,,0.000000,4.000000,4.000000,4.000000,4.000000,4.000000,4.000000,4.000000,4.000000,4.000000,4.000000,4.000000,4.000000,4.000000,4.000000,4.000000,4.000000,4.000000,4.000000,4.000000,4.000000,4.000000,4.000000,4.000000,4.000000,4.000000,4.000000,4.000000,4.000000,4.000000,4.000000,4.000000,4.000000,100.000000
1615771635.233051,16.000000,0.000000,-7.431201,-3.103969,33.595642,13.514068,9.802934,4.550937,-7.286952,-7.392614,-21.939878,9.411869,-4.862168,-10.678354,-12.909044,-10.899374,-9.181771,-14.135430,-11.063003,-12.853811,-20.043898,-10.502962,-15.836087,-15.115049,-7.940800,-5.125118,-19.201984,-7.053652,-8.410498,-3.007789,11.364985,-23.708916,19.317785,30.117846,0.000000,186.000000,4.000000,,,,0.000000,4.000000,4.000000,4.000000,4.000000,4.000000,4.000000,4.000000,4.000000,4.000000,4.000000,4.000000,4.000000,4.000000,4.000000,4.000000,4.000000,4.000000,4.000000,4.000000,4.000000,4.000000,4.000000,4.000000,4.000000,4.000000,4.000000,4.000000,4.000000,4.000000,4.000000,4.000000,4.000000,100.000000
1615771635.240700,17.000000,0.000000,-9.475051,-3.100865,33.049225,13.500553,8.767490,4.546386,-7.279665,-8.923683,-18.328196,9.402457,-4.344486,-10.154856,-12.896135,-12.939757,-13.275154,-30.018732,-13.103221,-18.994802,-32.331547,-14.082202,-19.409994,-14.074293,-8.445680,-5.119992,-20.721245,-5.508137,-8.402087,-3.004781,11.353621,-23.172386,17.247185,34.190292,0.000000,215.000000,4.000000,,,,0.000000,4.000000,4.000000,4.000000,4.000000,4.000000,4.000000,4.000000,4.000000,4.000000,4.000000,4.000000,4.000000,4.000000,4.000000,4.000000,4.000000,4.000000,4.000000,4.000000,4.000000,4.000000,4.000000,4.000000,4.000000,4.000000,4.000000,4.000000,4.000000,4.000000,4.000000,4.000000,4.000000,100.000000
1615771635.248449,18.000000,0.000000,-11.004038,-3.097764,28.913612,13.487053,9.784364,4.541840,-6.759565,-10.966042,-21.899611,9.393054,-4.340141,-10.657521,-12.883239,-13.439638,-5.056750,-13.065636,-10.526015,-7.693757,-20.504343,-15.606582,-17.852123,-11.496117,-8.950054,-5.114872,-22.751804,-3.451346,-8.393684,-3.001776,10.829447,-24.687675,17.742760,30.566359,0.000000,197.000000,4.000000,,,,0.000000,4.000000,4.000000,4.000000,4.000000,4.000000,4.000000,4.000000,4.000000,4.000000,4.000000,4.000000,4.000000,4.000000,4.000000,4.000000,4.000000,4.000000,4.000000,4.000000,4.000000,4.000000,4.000000,4.000000,4.000000,4.000000,4.000000,4.000000,4.000000,4.000000,4.000000,4.000000,4.000000,100.000000
1615771635.256098,19.000000,0.000000,-9.454573,-3.094666,25.294954,13.473566,9.261759,4.537298,-7.265626,-7.365332,-18.287968,9.383661,-4.848622,-10.646864,-12.870356,-11.374916,2.640614,-0.744878,-8.977028,-1.019397,-2.535120,-13.539693,-13.731708,-10.971800,-4.838540,-5.109757,-23.241873,-3.960716,-8.385291,-2.998775,11.844258,-26.714270,18.750658,26.433228,0.000000,196.000000,4.000000,,,,0.000000,4.000000,4.000000,4.000000,4.000000,4.000000,4.000000,4.000000,4.000000,4.000000,4.000000,4.000000,4.000000,4.000000,4.000000,4.000000,4.000000,4.000000,4.000000,4.000000,4.000000,4.000000,4.000000,4.000000,4.000000,4.000000,4.000000,4.000000,4.000000,4.000000,4.000000,4.000000,4.000000,100.000000
1615771635.263847,20.000000,0.000000,-7.393836,-3.091571,25.269661,13.460093,8.739676,4.532761,-6.745540,-4.793864,-10.064552,9.374278,-4.330953,-10.636217,-12.857486,-9.312259,-1.464591,-10.487722,-8.968051,-4.095301,-2.532585,-11.474872,-11.153872,-10.448008,-3.808060,-5.104648,-23.218632,-0.879832,-8.376905,-2.995776,14.396517,-25.149094,20.783188,33.586281,0.000000,218.000000,4.000000,,,,0.000000,4.000000,4.000000,4.000000,4.000000,4.000000,4.000000,4.000000,4.000000,4.000000,4.000000,4.000000,4.000000,4.000000,4.000000,4.000000,4.000000,4.000000,4.000000,4.000000,4.000000,4.000000,4.000000,4.000000,4.000000,4.000000,4.000000,4.000000,4.000000,4.000000,4.000000,4.000000,4.000000,100.000000
1615771635.271496,21.000000,0.000000,-7.899262,-3.088480,24.218750,13.446632,9.243757,4.528228,-6.738795,-7.353173,-14.157051,9.364903,-4.839442,-10.625581,-12.844628,-8.790127,-6.078511,-9.964415,-8.959083,-3.065564,-5.094155,-11.463396,-10.629899,-10.437559,-11.496560,-5.099543,-23.195414,-0.366131,-8.368529,-2.992780,15.407761,-23.072662,21.788046,38.680901,0.000000,182.000000,4.000000,,,,0.000000,4.000000,4.000000,4.000000,4.000000,4.000000,4.000000,4.000000,4.000000,4.000000,4.000000,4.000000,4.000000,4.000000,4.000000,4.000000,4.000000,4.000000,4.000000,4.000000,4.000000,4.000000,4.000000,4.000000,4.000000,4.000000,4.000000,4.000000,4.000000,4.000000,4.000000,4.000000,4.000000,100.000000
1615771635.279245,22.000000,0.000000,-7.891363,-3.085391,22.143250,13.946006,9.234513,4.523699,-6.732056,-7.345820,-21.322382,8.842718,-4.321782,-10.614955,-12.831783,-9.294157,-5.559612,-1.236501,-8.950124,0.527245,-0.986496,-11.451933,-11.132090,-10.427122,-14.049166,-5.094444,-23.172218,-3.955509,-8.360160,-2.989787,14.879533,-23.562410,21.766258,34.026836,0.000000,219.000000,4.000000,,,,0.000000,4.000000,4.000000,4.000000,4.000000,4.000000,4.000000,4.000000,4.000000,4.000000,4.000000,4.000000,4.000000,4.000000,4.000000,4.000000,4.000000,4.000000,4.000000,4.000000,4.000000,4.000000,4.000000,4.000000,4.000000,4.000000,4.000000,4.000000,4.000000,4.000000,4.000000,4.000000,4.000000,100.000000
1615771635.286895,23.000000,0.000000,-7.370651,-3.082306,21.095465,13.419239,9.225279,4.519176,-6.725324,-4.261551,-22.326700,9.859516,-1.753358,-10.604340,-10.767670,-9.284863,-4.528411,1.328838,-7.915533,0.526718,-3.036792,-10.927661,-10.608136,-10.416695,-4.291527,-5.089349,-23.149046,0.663831,-7.326159,-3.499618,14.864654,-23.538847,21.744492,29.890244,0.000000,219.000000,4.000000,,,,0.000000,4.000000,4.000000,4.000000,4.000000,4.000000,4.000000,4.000000,4.000000,4.000000,4.000000,4.000000,4.000000,4.000000,4.000000,4.000000,4.000000,4.000000,4.000000,4.000000,4.000000,4.000000,4.000000,4.000000,4.000000,4.000000,4.000000,4.000000,4.000000,4.000000,4.000000,4.000000,4.000000,100.000000
1615771635.294644,24.000000,0.000000,-7.876101,-3.079224,22.100010,13.405820,9.216054,4.514657,-6.718598,-3.231648,-21.278732,11.900939,0.299678,-10.593736,-8.705620,-9.275578,-5.549524,-0.210952,-5.856335,-1.012270,-8.674781,-10.916733,-10.597528,-10.406278,3.405072,-5.084260,-23.125896,7.842655,-5.267551,-2.470477,14.849789,-23.515308,21.722748,29.860353,0.000000,188.000000,4.000000,,,,0.000000,4.000000,4.000000,4.000000,4.000000,4.000000,4.000000,4.000000,4.000000,4.000000,4.000000,4.000000,4.000000,4.000000,4.000000,4.000000,4.000000,4.000000,4.000000,4.000000,4.000000,4.000000,4.000000,4.000000,4.000000,4.000000,4.000000,4.000000,4.000000,4.000000,4.000000,4.000000,4.000000,100.000000
1615771635.302293,25.000000,0.000000,-7.868225,-3.076144,23.103552,14.418056,9.719658,4.510142,-6.711880,-3.741237,-21.770275,13.427500,-1.239084,-10.583142,-9.209735,-9.266302,-7.082436,-4.826126,-6.876120,-0.498438,-8.666106,-11.418636,-10.586931,-10.395871,2.376026,-5.079175,-23.102770,6.296350,-4.236642,-0.416725,14.834939,-22.978973,21.701025,30.856134,0.000000,206.000000,4.000000,,,,0.000000,4.000000,4.000000,4.000000,4.000000,4.000000,4.000000,4.000000,4.000000,4.000000,4.000000,4.000000,4.000000,4.000000,4.000000,4.000000,4.000000,4.000000,4.000000,4.000000,4.000000,4.000000,4.000000,4.000000,4.000000,4.000000,4.000000,4.000000,4.000000,4.000000,4.000000,4.000000,4.000000,100.000000
1615771635.310042,26.000000,0.000000,-8.373178,-3.073068,17.952242,12.352355,8.684298,4.505632,-7.217988,-4.250317,-22.774145,12.901252,-1.237845,-10.572558,-10.226166,-9.257036,-6.049712,-2.770018,-8.920526,0.014881,-9.683081,-11.407218,-11.089165,-10.898296,2.373650,-5.074096,-23.079668,4.238772,-4.232406,1.122153,14.820104,-22.955994,21.679323,30.312458,0.000000,217.000000,4.000000,,,,0.000000,4.000000,4.000000,4.000000,4.000000,4.000000,4.000000,4.000000,4.000000,4.000000,4.000000,4.000000,4.000000,4.000000,4.000000,4.000000,4.000000,4.000000,4.000000,4.000000,4.000000,4.000000,4.000000,4.000000,4.000000,4.000000,4.000000,4.000000,4.000000,4.000000,4.000000,4.000000,4.000000,100.000000
1615771635.317691,27.000000,0.000000,-7.851984,-3.069995,8.703521,5.673337,5.598690,4.501126,-6.697950,-3.733246,-22.238550,12.888350,0.301855,-10.561986,-9.190299,-9.247779,-5.018022,3.899419,-8.911605,-1.523595,-15.314424,-10.882991,-10.565255,-10.374578,2.884097,-5.069022,-23.056587,3.721713,-6.279455,0.608211,14.805284,-26.009962,20.119183,23.102657,0.000000,195.000000,4.000000,,,,0.000000,4.000000,4.000000,4.000000,4.000000,4.000000,4.000000,4.000000,4.000000,4.000000,4.000000,4.000000,4.000000,4.000000,4.000000,4.000000,4.000000,4.000000,4.000000,4.000000,4.000000,4.000000,4.000000,4.000000,4.000000,4.000000,4.000000,4.000000,4.000000,4.000000,4.000000,4.000000,4.000000,100.000000
1615771635.325540,28.000000,0.000000,-7.844131,-3.066925,6.130715,2.077919,5.080271,3.983804,-6.691252,-3.216692,-21.190670,13.388282,-5.852293,-10.551424,-8.155467,-9.751351,-12.192491,-6.873712,-11.466796,-3.573354,-17.863213,-13.436210,-11.067510,-10.364202,-1.734172,-5.063953,-23.033531,-1.410214,-8.324458,0.607602,14.790479,-30.599337,18.047781,14.874427,0.000000,196.000000,4.000000,,,,0.000000,4.000000,4.000000,4.000000,4.000000,4.000000,4.000000,4.000000,4.000000,4.000000,4.000000,4.000000,4.000000,4.000000,4.000000,4.000000,4.000000,4.000000,4.000000,4.000000,4.000000,4.000000,4.000000,4.000000,4.000000,4.000000,4.000000,4.000000,4.000000,4.000000,4.000000,4.000000,4.000000,100.000000
1615771635.333289,29.000000,0.000000,-8.349108,-3.063858,7.663046,2.588662,6.100832,5.005462,-7.197381,-4.751936,-22.707941,12.862074,-12.513107,-11.053694,-10.711414,-9.228780,-18.334145,-20.712992,-13.506612,-4.595421,-13.742785,-14.961235,-13.107724,-11.379479,-4.809361,-5.058889,-23.010498,-2.434445,-8.316133,0.606995,14.775688,-31.081556,18.029734,15.885194,0.000000,192.000000,4.000000,,,,0.000000,4.000000,4.000000,4.000000,4.000000,4.000000,4.000000,4.000000,4.000000,4.000000,4.000000,4.000000,4.000000,4.000000,4.000000,4.000000,4.000000,4.000000,4.000000,4.000000,4.000000,4.000000,4.000000,4.000000,4.000000,4.000000,4.000000,4.000000,4.000000,4.000000,4.000000,4.000000,4.000000,100.000000
1615771635.341138,30.000000,0.000000,-7.827939,-3.060794,6.629742,2.586073,4.043449,7.051738,-6.677363,-3.208723,-21.659594,12.849212,-4.808287,-10.016998,-5.572498,-6.142628,-5.495297,-8.384586,-8.877720,-4.078005,-9.113657,-11.356530,-14.120258,-8.803998,-2.753269,-4.541010,-22.987488,-1.406369,-8.307817,0.606388,14.760912,-31.050476,18.011703,18.946232,0.000000,202.000000,4.000000,,,,0.000000,4.000000,4.000000,4.000000,4.000000,4.000000,4.000000,4.000000,4.000000,4.000000,4.000000,4.000000,4.000000,4.000000,4.000000,4.000000,4.000000,4.000000,4.000000,4.000000,4.000000,4.000000,4.000000,4.000000,4.000000,4.000000,4.000000,4.000000,4.000000,4.000000,4.000000,4.000000,4.000000,100.000000
1615771635.348887,31.000000,0.000000,-3.204726,-3.057734,7.648753,2.070667,7.629149,8.070328,-2.055301,6.538075,-10.868702,15.400465,8.017035,-4.878777,8.279228,-2.033921,13.484557,10.598157,-2.202176,-4.073927,-8.591722,-8.268250,-12.054855,-2.128527,-0.699234,-5.562110,-22.964500,-7.558809,-8.299510,0.605781,14.746151,-30.506605,17.480871,18.414465,0.000000,186.000000,4.000000,,,,0.000000,4.000000,4.000000,4.000000,4.000000,4.000000,4.000000,4.000000,4.000000,4.000000,4.000000,4.000000,4.000000,4.000000,4.000000,4.000000,4.000000,4.000000,4.000000,4.000000,4.000000,4.000000,4.000000,4.000000,4.000000,4.000000,4.000000,4.000000,4.000000,4.000000,4.000000,4.000000,4.000000,100.000000
1615771635.356736,32.000000,0.000000,-0.124598,-3.054676,13.794950,2.068596,17.365110,8.575078,1.023677,11.659742,-1.627064,16.923527,9.547479,0.254307,12.373513,-1.519067,18.599277,12.638842,-1.174333,-3.557033,-7.044670,-6.208701,-8.965878,1.976166,0.839927,-5.043727,-22.941536,-9.089712,-8.291210,0.605176,14.731405,-28.424816,17.976212,21.985794,8064.000000,0.000000,4.000000,,,,0.000000,4.000000,4.000000,4.000000,4.000000,4.000000,4.000000,4.000000,4.000000,4.000000,4.000000,4.000000,4.000000,4.000000,4.000000,4.000000,4.000000,4.000000,4.000000,4.000000,4.000000,4.000000,4.000000,4.000000,4.000000,4.000000,4.000000,4.000000,4.000000,4.000000,4.000000,4.000000,4.000000,100.000000
1615771635.364485,33.000000,0.000000,-0.124473,-3.051621,14.806796,2.579348,17.860565,7.540862,1.022653,4.468596,-4.702361,16.906603,3.896906,0.766874,2.617550,-2.030368,16.529396,10.062099,-2.198799,-3.040655,-4.473522,-4.151210,-6.905630,0.948548,2.377548,-0.936119,-22.405773,-1.901135,-8.282919,0.604571,14.716674,-26.345108,16.932594,26.579193,8064.000000,0.000000,4.000000,,,,0.000000,4.000000,4.000000,4.000000,4.000000,4.000000,4.000000,4.000000,4.000000,4.000000,4.000000,4.000000,4.000000,4.000000,4.000000,4.000000,4.000000,4.000000,4.000000,4.000000,4.000000,4.000000,4.000000,4.000000,4.000000,4.000000,4.000000,4.000000,4.000000,4.000000,4.000000,4.000000,4.000000,100.000000
1615771635.372334,34.000000,0.000000,-0.637169,-3.048569,9.663784,1.038307,10.150396,4.969218,0.508810,-1.176899,-10.338684,16.376875,2.867368,0.253286,-3.026093,-1.002697,17.025686,8.000755,-1.170959,-4.063256,-3.956228,-3.634238,-6.385904,0.434779,2.887991,2.654560,-22.896189,-0.873593,-8.787457,0.603966,12.650675,-26.831585,14.351560,25.014153,8064.000000,0.000000,4.000000,,,,0.000000,4.000000,4.000000,4.000000,4.000000,4.000000,4.000000,4.000000,4.000000,4.000000,4.000000,4.000000,4.000000,4.000000,4.000000,4.000000,4.000000,4.000000,4.000000,4.000000,4.000000,4.000000,4.000000,4.000000,4.000000,4.000000,4.000000,4.000000,4.000000,4.000000,4.000000,4.000000,4.000000,100.000000
1615771635.380083,35.000000,0.000000,-0.123712,-3.045521,6.577198,-1.526834,8.088964,4.451428,1.021122,-0.150081,-10.328345,16.873320,3.377321,0.765853,-1.484606,-2.540155,18.034302,7.992755,-1.169788,-3.546372,-3.952272,-3.117783,-8.430799,1.459986,2.372283,2.651906,-22.873293,-1.385540,-6.214566,0.603362,11.099563,-26.804752,13.824388,21.912214,8064.000000,0.000000,4.000000,,,,0.000000,4.000000,4.000000,4.000000,4.000000,4.000000,4.000000,4.000000,4.000000,4.000000,4.000000,4.000000,4.000000,4.000000,4.000000,4.000000,4.000000,4.000000,4.000000,4.000000,4.000000,4.000000,4.000000,4.000000,4.000000,4.000000,4.000000,4.000000,4.000000,4.000000,4.000000,4.000000,4.000000,100.000000
1615771635.387932,36.000000,0.000000,-0.636409,-3.042475,7.596262,-0.499666,10.132157,7.523900,0.507280,0.362890,-10.318017,16.856445,3.373944,0.765088,-1.483121,-5.101718,16.477806,6.446301,-1.681439,-3.030005,-5.486781,-3.627486,-9.448010,0.432885,2.369911,2.649254,-21.824778,3.231230,-4.157070,0.602759,10.575643,-26.265127,16.374666,23.428764,8064.000000,0.000000,4.000000,,,,0.000000,4.000000,4.000000,4.000000,4.000000,4.000000,4.000000,4.000000,4.000000,4.000000,4.000000,4.000000,4.000000,4.000000,4.000000,4.000000,4.000000,4.000000,4.000000,4.000000,4.000000,4.000000,4.000000,4.000000,4.000000,4.000000,4.000000,4.000000,4.000000,4.000000,4.000000,4.000000,4.000000,100.000000
1615771635.395681,37.000000,0.000000,-0.635772,-3.039433,8.101485,2.064936,9.096384,8.542017,0.506773,-0.663114,-10.820519,15.301127,2.857749,0.764323,-2.507279,-5.096616,6.717739,-10.483223,-1.679758,-9.693642,-13.686422,-10.290525,-12.002665,-1.618830,2.367541,1.620963,-24.367056,0.151076,-6.204195,0.602156,11.077888,-26.238863,18.409573,23.405336,8064.000000,0.000000,4.000000,,,,0.000000,4.000000,4.000000,4.000000,4.000000,4.000000,4.000000,4.000000,4.000000,4.000000,4.000000,4.000000,4.000000,4.000000,4.000000,4.000000,4.000000,4.000000,4.000000,4.000000,4.000000,4.000000,4.000000,4.000000,4.000000,4.000000,4.000000,4.000000,4.000000,4.000000,4.000000,4.000000,4.000000,100.000000
1615771635.403530,38.000000,0.000000,-0.635136,-3.036394,7.067743,3.088512,8.574468,8.020655,0.506266,-0.149631,-10.809699,13.234545,1.316430,0.250738,-1.991951,-6.629981,-6.622312,-29.959919,-1.678078,-17.889076,-21.877865,-18.485363,-19.170149,-3.155673,2.877994,-4.021683,-29.470894,-7.028562,-8.249272,0.601554,11.066810,-26.725445,17.878344,15.689623,8064.000000,0.000000,4.000000,,,,0.000000,4.000000,4.000000,4.000000,4.000000,4.000000,4.000000,4.000000,4.000000,4.000000,4.000000,4.000000,4.000000,4.000000,4.000000,4.000000,4.000000,4.000000,4.000000,4.000000,4.000000,4.000000,4.000000,4.000000,4.000000,4.000000,4.000000,4.000000,4.000000,4.000000,4.000000,4.000000,4.000000,100.000000
1615771635.411279,39.000000,0.000000,-0.634501,-3.033357,7.060676,2.059783,9.591534,8.012634,0.505760,-0.149481,-13.362991,12.195669,-0.736169,0.250487,-1.989959,-11.751556,-11.231074,-27.878677,-1.676400,-19.922470,-24.420090,-20.005339,-22.740723,-3.665338,0.823834,-9.145866,-30.467064,-7.534354,-8.241023,0.600952,11.055743,-26.698719,17.347643,10.545728,8064.000000,0.000000,4.000000,,,,0.000000,4.000000,4.000000,4.000000,4.000000,4.000000,4.000000,4.000000,4.000000,4.000000,4.000000,4.000000,4.000000,4.000000,4.000000,4.000000,4.000000,4.000000,4.000000,4.000000,4.000000,4.000000,4.000000,4.000000,4.000000,4.000000,4.000000,4.000000,4.000000,4.000000,4.000000,4.000000,4.000000,100.000000
1615771635.419128,40.000000,0.000000,-0.633867,-3.030324,8.079256,2.570544,8.043481,6.466160,0.505254,-0.149331,-17.965014,12.696294,-0.735432,0.763057,-1.987969,-13.791087,-9.168561,-16.055927,-1.674724,-19.389727,-23.882849,-18.446873,-20.153879,-3.661673,-1.228272,-9.649541,-28.898134,-9.065282,-7.719962,0.600351,11.044687,-26.159199,18.355938,14.637746,8064.000000,0.000000,4.000000,,,,0.000000,4.000000,4.000000,4.000000,4.000000,4.000000,4.000000,4.000000,4.000000,4.000000,4.000000,4.000000,4.000000,4.000000,4.000000,4.000000,4.000000,4.000000,4.000000,4.000000,4.000000,4.000000,4.000000,4.000000,4.000000,4.000000,4.000000,4.000000,4.000000,4.000000,4.000000,4.000000,4.000000,100.000000
1615771635.426878,41.000000,0.000000,-0.633233,-3.027293,6.532715,3.080794,3.932873,4.921232,0.504749,0.363638,-17.947048,12.683598,-0.734697,-0.263347,-2.498802,-12.238834,-9.672213,-10.398845,-2.185869,-18.344696,-22.833324,-18.428425,-17.056803,-3.145190,-1.227044,-9.639892,-35.023083,-10.594678,-8.225062,0.599751,11.033643,-28.697144,18.337582,14.623109,8064.000000,0.000000,4.000000,,,,0.000000,4.000000,4.000000,4.000000,4.000000,4.000000,4.000000,4.000000,4.000000,4.000000,4.000000,4.000000,4.000000,4.000000,4.000000,4.000000,4.000000,4.000000,4.000000,4.000000,4.000000,4.000000,4.000000,4.000000,4.000000,4.000000,4.000000,4.000000,4.000000,4.000000,4.000000,4.000000,4.000000,100.000000
1615771635.434727,42.000000,0.000000,-0.119779,-3.537087,-0.140484,2.564892,1.364838,4.403491,1.017065,-0.662366,-17.416281,12.670914,-2.785244,-3.852827,-5.573226,-13.765057,-12.739464,-13.465369,-3.722145,-18.839170,-24.348953,-21.999741,-19.091028,-3.142045,-2.764278,-9.117432,-42.167545,-8.532801,-8.216837,0.086331,11.022609,-33.796650,15.755141,7.941819,8064.000000,0.000000,4.000000,,,,0.000000,4.000000,4.000000,4.000000,4.000000,4.000000,4.000000,4.000000,4.000000,4.000000,4.000000,4.000000,4.000000,4.000000,4.000000,4.000000,4.000000,4.000000,4.000000,4.000000,4.000000,4.000000,4.000000,4.000000,4.000000,4.000000,4.000000,4.000000,4.000000,4.000000,4.000000,4.000000,4.000000,100.000000
1615771635.442476,43.000000,0.000000,-1.145300,-3.020729,-3.217267,2.049507,1.876293,4.399087,1.016047,-4.251448,-18.937326,12.658243,-4.833741,-7.951539,-10.183038,-17.341036,-13.752365,-19.605749,-6.795346,-20.358793,-23.811783,-21.464920,-22.661680,-4.164544,-5.325617,-8.595493,-39.048458,-8.011448,-8.208620,0.599065,11.011586,-34.275673,14.713745,10.497979,8064.000000,0.000000,4.000000,,,,0.000000,4.000000,4.000000,4.000000,4.000000,4.000000,4.000000,4.000000,4.000000,4.000000,4.000000,4.000000,4.000000,4.000000,4.000000,4.000000,4.000000,4.000000,4.000000,4.000000,4.000000,4.000000,4.000000,4.000000,4.000000,4.000000,4.000000,4.000000,4.000000,4.000000,4.000000,4.000000,4.000000,100.000000
1615771635.450125,44.000000,0.000000,-0.631335,-0.966426,-0.649947,4.611560,1.874417,6.445970,0.502211,-3.734375,-11.226081,12.645584,-4.316087,-6.917946,-8.121572,-15.272412,-8.097588,-14.457939,-4.224448,-9.569204,-13.531562,-12.725507,-15.972352,0.455005,-0.192086,-10.125360,-33.881203,-4.926513,-8.200412,2.649748,11.000575,-31.164476,16.750313,21.256712,8064.000000,0.000000,4.000000,,,,0.000000,4.000000,4.000000,4.000000,4.000000,4.000000,4.000000,4.000000,4.000000,4.000000,4.000000,4.000000,4.000000,4.000000,4.000000,4.000000,4.000000,4.000000,4.000000,4.000000,4.000000,4.000000,4.000000,4.000000,4.000000,4.000000,4.000000,4.000000,4.000000,4.000000,4.000000,4.000000,4.000000,100.000000
1615771635.457874,45.000000,0.000000,2.959040,1.085822,0.889164,6.658230,1.359722,9.003627,1.014529,3.448846,-3.009727,12.632939,-3.798950,-1.270002,0.604498,-8.590473,-0.910003,2.992416,3.984905,5.824980,-0.697517,-3.994832,-3.648687,8.146857,9.551696,-3.961388,-33.334503,-0.819022,-8.192211,4.698380,10.989574,-31.133312,18.784845,23.799559,8064.000000,0.000000,4.000000,,,,0.000000,4.000000,4.000000,4.000000,4.000000,4.000000,4.000000,4.000000,4.000000,4.000000,4.000000,4.000000,4.000000,4.000000,4.000000,4.000000,4.000000,4.000000,4.000000,4.000000,4.000000,4.000000,4.000000,4.000000,4.000000,4.000000,4.000000,4.000000,4.000000,4.000000,4.000000,4.000000,4.000000,100.000000
1615771635.465523,46.000000,0.000000,1.417620,0.571916,-0.650186,2.549008,1.871183,4.379238,1.013515,2.419756,-12.237486,12.620306,-4.307972,-1.268733,1.116714,-9.094704,-2.447554,5.040706,4.493740,3.767873,-0.183999,-2.965197,-5.183500,6.087429,10.054965,7.837445,-33.813988,-4.920768,-8.184019,4.180861,9.952944,-34.179100,15.689137,19.160374,8064.000000,0.000000,4.000000,,,,0.000000,4.000000,4.000000,4.000000,4.000000,4.000000,4.000000,4.000000,4.000000,4.000000,4.000000,4.000000,4.000000,4.000000,4.000000,4.000000,4.000000,4.000000,4.000000,4.000000,4.000000,4.000000,4.000000,4.000000,4.000000,4.000000,4.000000,4.000000,4.000000,4.000000,4.000000,4.000000,4.000000,100.000000
