title:34, start timestamp:1615774172.351305, stop timestamp:1615774218.155522, headset type:EPOCFLEX, headset serial:F00001ED, headset firmware:f12, subject name:s19, channels:75, sampling rate:128, samples:5912      , version:2.0
Timestamp,EEG.Counter,EEG.Interpolated,EEG.Cz,EEG.Fz,EEG.Fp1,EEG.AF3,EEG.F7,EEG.F3,EEG.FC1,EEG.C3,EEG.FC5,EEG.T7,EEG.CP5,EEG.CP1,EEG.P3,EEG.P7,EEG.PO3,EEG.O1,EEG.Pz,EEG.Oz,EEG.O2,EEG.PO4,EEG.P8,EEG.P4,EEG.CP2,EEG.CP6,EEG.T8,EEG.FC6,EEG.C4,EEG.FC2,EEG.F4,EEG.F8,EEG.AF4,EEG.Fp2,EEG.HighBitFlex,EEG.RawCq,EEG.Battery,MarkerIndex,MarkerType,MarkerValueInt,EEG.MarkerHardware,CQ.Cz,CQ.Fz,CQ.Fp1,CQ.AF3,CQ.F7,CQ.F3,CQ.FC1,CQ.C3,CQ.FC5,CQ.T7,CQ.CP5,CQ.CP1,CQ.P3,CQ.P7,CQ.PO3,CQ.O1,CQ.Pz,CQ.Oz,CQ.O2,CQ.PO4,CQ.P8,CQ.P4,CQ.CP2,CQ.CP6,CQ.T8,CQ.FC6,CQ.C4,CQ.FC2,CQ.F4,CQ.F8,CQ.AF4,CQ.Fp2,CQ.Overall
1615774172.351305,5.000000,0.000000,-2.769646,8.755393,-35.241634,8.144414,-23.422958,36.863789,-2.383179,9.133064,22.773449,5.811765,40.860905,5.194926,-19.472420,-16.683186,0.335573,19.682722,-6.086028,16.620415,22.419233,-14.234222,-13.148917,-15.614782,-0.462267,-16.472685,-29.221165,-5.975617,-28.430817,7.903474,-2.206908,-3.952411,21.236578,-22.908964,0.000000,186.000000,4.000000,,,,0.000000,4.000000,4.000000,4.000000,4.000000,4.000000,4.000000,4.000000,4.000000,4.000000,4.000000,4.000000,4.000000,4.000000,4.000000,4.000000,4.000000,4.000000,4.000000,4.000000,4.000000,4.000000,4.000000,4.000000,4.000000,4.000000,4.000000,4.000000,4.000000,4.000000,4.000000,4.000000,4.000000,100.000000
1615774172.358954,6.000000,0.000000,-0.715594,9.772278,-34.693573,8.649090,-24.425177,38.878208,-2.380796,12.200854,22.750675,17.088005,45.435429,4.164090,-17.401665,-16.666502,0.335238,20.688681,-4.028660,15.578154,22.396814,-25.502039,-17.238333,-18.163271,-0.461805,-16.456211,-29.191942,-5.456821,-39.171616,7.895571,-1.691880,-0.871536,21.215342,-22.886055,0.000000,203.000000,4.000000,,,,0.000000,4.000000,4.000000,4.000000,4.000000,4.000000,4.000000,4.000000,4.000000,4.000000,4.000000,4.000000,4.000000,4.000000,4.000000,4.000000,4.000000,4.000000,4.000000,4.000000,4.000000,4.000000,4.000000,4.000000,4.000000,4.000000,4.000000,4.000000,4.000000,4.000000,4.000000,4.000000,4.000000,100.000000
1615774172.366803,7.000000,0.000000,-1.227699,9.249685,-34.658878,8.127621,-26.964853,38.326508,-2.378415,13.727116,22.727924,9.378609,52.056660,4.672747,-12.768879,-16.137016,0.847723,20.667992,1.103574,12.998472,19.810314,-33.168846,-21.323658,-17.632286,0.051478,-16.952576,-29.162750,-5.964185,-37.593983,7.887675,-2.203009,-1.896305,20.681305,-22.863169,0.000000,200.000000,4.000000,,,,0.000000,4.000000,4.000000,4.000000,4.000000,4.000000,4.000000,4.000000,4.000000,4.000000,4.000000,4.000000,4.000000,4.000000,4.000000,4.000000,4.000000,4.000000,4.000000,4.000000,4.000000,4.000000,4.000000,4.000000,4.000000,4.000000,4.000000,4.000000,4.000000,4.000000,4.000000,4.000000,4.000000,100.000000
1615774172.374553,8.000000,0.000000,-1.226471,9.240436,-35.137039,8.119493,-26.937889,37.262539,-2.376037,13.200567,22.705196,-2.938462,47.389217,5.180894,-11.217649,-16.633699,-0.178766,19.108862,0.589650,12.985474,19.790504,-31.084394,-21.302336,-17.101833,-1.999856,-16.422802,-29.646408,-5.445400,-30.376904,7.879787,-1.687985,-1.381589,21.173445,-23.353127,0.000000,200.000000,4.000000,,,,0.000000,4.000000,4.000000,4.000000,4.000000,4.000000,4.000000,4.000000,4.000000,4.000000,4.000000,4.000000,4.000000,4.000000,4.000000,4.000000,4.000000,4.000000,4.000000,4.000000,4.000000,4.000000,4.000000,4.000000,4.000000,4.000000,4.000000,4.000000,4.000000,4.000000,4.000000,4.000000,4.000000,100.000000
1615774172.382402,9.000000,0.000000,-1.225245,9.231195,-32.024979,8.111374,-26.398130,38.250919,-2.373661,13.700188,22.682491,0.141400,34.521317,4.662893,-11.719252,-14.052963,1.359875,24.730780,1.101880,17.587873,20.283533,-31.053310,-20.255392,-16.571911,-3.536318,-16.406380,-27.565479,-5.439955,-37.526012,7.871908,0.364985,-1.380207,20.639452,-22.304132,0.000000,211.000000,4.000000,,,,0.000000,4.000000,4.000000,4.000000,4.000000,4.000000,4.000000,4.000000,4.000000,4.000000,4.000000,4.000000,4.000000,4.000000,4.000000,4.000000,4.000000,4.000000,4.000000,4.000000,4.000000,4.000000,4.000000,4.000000,4.000000,4.000000,4.000000,4.000000,4.000000,4.000000,4.000000,4.000000,4.000000,100.000000
1615774172.390151,10.000000,0.000000,-1.224020,9.221964,-29.941673,8.103262,-26.371733,38.212669,-2.371287,14.199308,22.659809,6.807925,28.845770,4.145410,-11.707533,-9.423526,5.973899,33.936817,7.254625,20.134388,19.750429,-29.996614,-18.696674,-14.504057,-1.481499,-17.415615,-25.486633,-5.434515,-40.052589,7.864036,2.415902,-1.891647,21.644453,-19.717726,0.000000,201.000000,4.000000,,,,0.000000,4.000000,4.000000,4.000000,4.000000,4.000000,4.000000,4.000000,4.000000,4.000000,4.000000,4.000000,4.000000,4.000000,4.000000,4.000000,4.000000,4.000000,4.000000,4.000000,4.000000,4.000000,4.000000,4.000000,4.000000,4.000000,4.000000,4.000000,4.000000,4.000000,4.000000,4.000000,4.000000,100.000000
1615774172.398000,11.000000,0.000000,-1.222796,9.212742,-36.065578,8.095159,-26.858181,34.584713,-2.368916,10.595366,21.098688,6.288297,35.483589,4.654085,-11.695825,-8.901281,8.532028,31.851599,11.349935,17.550150,19.217859,-25.864056,-17.652336,-13.463912,0.058444,-15.346917,-24.948326,-5.941901,-30.781767,7.856172,1.900665,-1.889756,20.084347,-19.185188,0.000000,203.000000,4.000000,,,,0.000000,4.000000,4.000000,4.000000,4.000000,4.000000,4.000000,4.000000,4.000000,4.000000,4.000000,4.000000,4.000000,4.000000,4.000000,4.000000,4.000000,4.000000,4.000000,4.000000,4.000000,4.000000,4.000000,4.000000,4.000000,4.000000,4.000000,4.000000,4.000000,4.000000,4.000000,4.000000,4.000000,100.000000
1615774172.405749,12.000000,0.000000,-1.221573,9.203529,-42.183357,8.087064,-26.831324,30.447563,-2.366547,6.995026,18.513487,5.256367,39.550671,4.649431,-12.196950,-12.482123,8.010675,24.640261,9.800123,14.968498,19.711462,-23.786909,-17.634686,-13.963269,-0.454435,-10.716186,-25.436197,-8.500061,-34.853550,7.848315,1.898765,-3.426327,12.884775,-19.166002,0.000000,197.000000,4.000000,,,,0.000000,4.000000,4.000000,4.000000,4.000000,4.000000,4.000000,4.000000,4.000000,4.000000,4.000000,4.000000,4.000000,4.000000,4.000000,4.000000,4.000000,4.000000,4.000000,4.000000,4.000000,4.000000,4.000000,4.000000,4.000000,4.000000,4.000000,4.000000,4.000000,4.000000,4.000000,4.000000,4.000000,100.000000
1615774172.413598,13.000000,0.000000,-1.220351,9.194325,-40.602715,8.078977,-26.291672,31.955578,-2.364181,8.013672,19.007793,6.276752,37.972660,4.131961,-10.646291,-12.469642,8.002665,23.589979,10.303144,15.466351,19.691750,-24.275942,-17.617050,-13.949306,-0.453981,-8.141367,-25.410761,-9.517202,-40.459721,7.840467,1.896866,-5.474183,9.794968,-18.634016,0.000000,185.000000,4.000000,,,,0.000000,4.000000,4.000000,4.000000,4.000000,4.000000,4.000000,4.000000,4.000000,4.000000,4.000000,4.000000,4.000000,4.000000,4.000000,4.000000,4.000000,4.000000,4.000000,4.000000,4.000000,4.000000,4.000000,4.000000,4.000000,4.000000,4.000000,4.000000,4.000000,4.000000,4.000000,4.000000,4.000000,100.000000
1615774172.421347,14.000000,0.000000,-1.219131,9.185131,-37.485188,8.070898,-27.291021,34.487724,-2.361816,9.031300,21.552889,6.783296,42.037251,6.691931,-10.122825,-9.380249,8.507483,25.104851,10.292840,15.450884,19.159239,-24.251667,-17.599432,-13.935356,-0.453527,-9.158866,-25.385351,-9.507686,-33.239777,7.832627,1.894969,-5.981530,11.836454,-21.692305,0.000000,210.000000,4.000000,,,,0.000000,4.000000,4.000000,4.000000,4.000000,4.000000,4.000000,4.000000,4.000000,4.000000,4.000000,4.000000,4.000000,4.000000,4.000000,4.000000,4.000000,4.000000,4.000000,4.000000,4.000000,4.000000,4.000000,4.000000,4.000000,4.000000,4.000000,4.000000,4.000000,4.000000,4.000000,4.000000,4.000000,100.000000
1615774172.429196,15.000000,0.000000,-1.217912,9.175946,-37.960522,8.062827,-31.879114,33.940414,-2.359455,10.560730,20.505693,6.776512,54.815727,10.787804,-8.061419,-8.858048,7.986155,24.054104,9.769727,15.435432,20.678539,-24.227415,-17.581833,-13.921421,-0.453073,-9.149708,-25.359966,-11.036639,-31.668074,7.824794,1.893074,-5.462728,10.798977,-26.285997,0.000000,191.000000,4.000000,,,,0.000000,4.000000,4.000000,4.000000,4.000000,4.000000,4.000000,4.000000,4.000000,4.000000,4.000000,4.000000,4.000000,4.000000,4.000000,4.000000,4.000000,4.000000,4.000000,4.000000,4.000000,4.000000,4.000000,4.000000,4.000000,4.000000,4.000000,4.000000,4.000000,4.000000,4.000000,4.000000,4.000000,100.000000
1615774172.436945,16.000000,0.000000,-1.216694,9.166770,-38.435383,8.054764,-34.411339,33.393654,-2.357095,15.165554,18.433907,5.744095,58.863476,12.828298,-1.899512,-9.362011,7.978168,23.517229,10.785598,15.419997,23.221964,-23.690367,-17.564251,-13.907499,-0.452620,-9.140557,-25.334606,-13.589705,-40.354355,7.816969,1.891181,-5.457265,8.736896,-26.772532,0.000000,162.000000,4.000000,,,,0.000000,4.000000,4.000000,4.000000,4.000000,4.000000,4.000000,4.000000,4.000000,4.000000,4.000000,4.000000,4.000000,4.000000,4.000000,4.000000,4.000000,4.000000,4.000000,4.000000,4.000000,4.000000,4.000000,4.000000,4.000000,4.000000,4.000000,4.000000,4.000000,4.000000,4.000000,4.000000,4.000000,100.000000
1615774172.444794,17.000000,0.000000,-1.215477,9.157603,-37.884129,8.046709,-34.376926,33.873081,-2.354738,15.663209,20.466755,4.712710,44.958458,11.277008,-2.410433,-7.301366,7.457370,23.493713,7.697889,15.404577,23.711563,-24.179497,-17.546688,-13.893592,-0.452168,-8.618596,-25.309271,-13.576116,-40.826820,7.809152,1.889290,-5.451807,9.240979,-26.232939,0.000000,201.000000,4.000000,,,,0.000000,4.000000,4.000000,4.000000,4.000000,4.000000,4.000000,4.000000,4.000000,4.000000,4.000000,4.000000,4.000000,4.000000,4.000000,4.000000,4.000000,4.000000,4.000000,4.000000,4.000000,4.000000,4.000000,4.000000,4.000000,4.000000,4.000000,4.000000,4.000000,4.000000,4.000000,4.000000,4.000000,100.000000
1615774172.452543,18.000000,0.000000,-1.727082,9.148446,-37.846245,8.038663,-34.342548,33.839207,-2.352383,13.596263,22.497570,7.784920,30.554523,8.701629,-11.638792,-5.242783,7.449913,23.983040,-0.002116,15.389173,23.175030,-26.719419,-17.529140,-13.879699,-0.451715,-9.122799,-25.283962,-13.049719,-36.683430,7.801343,1.374580,-5.446356,9.231738,-26.206705,0.000000,202.000000,4.000000,,,,0.000000,4.000000,4.000000,4.000000,4.000000,4.000000,4.000000,4.000000,4.000000,4.000000,4.000000,4.000000,4.000000,4.000000,4.000000,4.000000,4.000000,4.000000,4.000000,4.000000,4.000000,4.000000,4.000000,4.000000,4.000000,4.000000,4.000000,4.000000,4.000000,4.000000,4.000000,4.000000,4.000000,100.000000
1615774172.460192,19.000000,0.000000,-0.699714,9.139297,-37.808395,8.030623,-32.769745,33.805370,-2.350031,15.633949,22.475073,4.700212,34.113712,8.180106,-12.652794,-4.724720,7.955283,23.959057,-2.053396,15.373784,23.151855,-26.692701,-17.511612,-13.865819,-0.451264,-11.677778,-25.258678,-13.036669,-37.159565,7.793542,2.398846,-5.440909,11.786610,-26.693319,0.000000,192.000000,4.000000,,,,0.000000,4.000000,4.000000,4.000000,4.000000,4.000000,4.000000,4.000000,4.000000,4.000000,4.000000,4.000000,4.000000,4.000000,4.000000,4.000000,4.000000,4.000000,4.000000,4.000000,4.000000,4.000000,4.000000,4.000000,4.000000,4.000000,4.000000,4.000000,4.000000,4.000000,4.000000,4.000000,4.000000,100.000000
1615774172.467941,20.000000,0.000000,1.352268,9.130158,-38.283409,8.022593,-30.685694,33.771564,-2.347681,17.156776,23.991058,-2.483975,46.387291,8.171926,-4.947834,-5.232816,6.921687,23.422277,1.538401,15.358410,23.128704,-25.127546,-17.494101,-13.851953,-0.450812,-11.666101,-25.233419,-13.023632,-37.635227,7.785748,4.960550,-4.922648,16.390207,-26.153807,0.000000,198.000000,4.000000,,,,0.000000,4.000000,4.000000,4.000000,4.000000,4.000000,4.000000,4.000000,4.000000,4.000000,4.000000,4.000000,4.000000,4.000000,4.000000,4.000000,4.000000,4.000000,4.000000,4.000000,4.000000,4.000000,4.000000,4.000000,4.000000,4.000000,4.000000,4.000000,4.000000,4.000000,4.000000,4.000000,4.000000,100.000000
1615774172.475590,21.000000,0.000000,2.889377,9.121028,-37.732304,7.501750,-31.167828,33.224972,-2.345333,16.626799,26.018349,7.774919,45.315266,8.163754,-3.917245,-5.740403,7.940406,24.937317,2.562503,15.343052,23.105576,-26.640881,-17.989426,-13.838101,-0.450362,-6.526229,-25.208185,-13.010609,-37.597591,7.777963,5.981231,-6.456187,14.835356,-26.640472,0.000000,186.000000,4.000000,,,,0.000000,4.000000,4.000000,4.000000,4.000000,4.000000,4.000000,4.000000,4.000000,4.000000,4.000000,4.000000,4.000000,4.000000,4.000000,4.000000,4.000000,4.000000,4.000000,4.000000,4.000000,4.000000,4.000000,4.000000,4.000000,4.000000,4.000000,4.000000,4.000000,4.000000,4.000000,4.000000,4.000000,100.000000
1615774172.483339,22.000000,0.000000,2.373667,9.111907,-33.592010,10.058351,-28.059738,34.730209,-2.342988,16.610172,26.505152,27.767143,40.654564,7.642770,-4.938968,-4.196201,14.599133,27.476480,2.559941,15.327708,23.082470,-25.588598,-16.432976,-13.311442,-0.449911,-4.468421,-25.182978,-12.997598,-36.021534,7.770185,5.462429,-4.398448,13.794879,-26.101011,0.000000,195.000000,4.000000,,,,0.000000,4.000000,4.000000,4.000000,4.000000,4.000000,4.000000,4.000000,4.000000,4.000000,4.000000,4.000000,4.000000,4.000000,4.000000,4.000000,4.000000,4.000000,4.000000,4.000000,4.000000,4.000000,4.000000,4.000000,4.000000,4.000000,4.000000,4.000000,4.000000,4.000000,4.000000,4.000000,4.000000,100.000000
1615774172.490989,23.000000,0.000000,2.371294,9.102796,-29.455853,12.612395,-22.903473,37.772400,-2.340645,16.080742,26.478647,22.098351,52.408783,8.147947,-1.857106,-1.115082,20.225559,27.961824,5.121483,15.312381,23.059387,-20.947624,-13.852440,-13.298131,-0.449461,-5.489594,-24.644974,-12.984600,-32.908588,7.762414,5.456966,-0.291486,16.345186,-25.562090,0.000000,197.000000,4.000000,,,,0.000000,4.000000,4.000000,4.000000,4.000000,4.000000,4.000000,4.000000,4.000000,4.000000,4.000000,4.000000,4.000000,4.000000,4.000000,4.000000,4.000000,4.000000,4.000000,4.000000,4.000000,4.000000,4.000000,4.000000,4.000000,4.000000,4.000000,4.000000,4.000000,4.000000,4.000000,4.000000,4.000000,100.000000
1615774172.498738,24.000000,0.000000,2.881743,9.093693,-29.939217,10.548501,-24.931850,37.221809,-2.338304,17.603123,25.426527,3.101894,65.689705,8.139800,0.196033,-1.626788,19.179691,27.933863,6.654823,15.297069,23.549149,-21.952318,-13.325767,-15.336115,-0.449012,-4.971283,-25.133150,-13.484436,-34.926964,8.267472,5.451509,-5.932220,15.816021,-26.562168,0.000000,179.000000,4.000000,,,,0.000000,4.000000,4.000000,4.000000,4.000000,4.000000,4.000000,4.000000,4.000000,4.000000,4.000000,4.000000,4.000000,4.000000,4.000000,4.000000,4.000000,4.000000,4.000000,4.000000,4.000000,4.000000,4.000000,4.000000,4.000000,4.000000,4.000000,4.000000,4.000000,4.000000,4.000000,4.000000,4.000000,100.000000
1615774172.506387,25.000000,0.000000,2.878861,9.084599,-30.422098,8.486670,-23.881279,37.184586,-2.335966,22.713724,26.426741,8.226997,52.803505,8.131660,0.195837,-1.112340,18.647692,27.393108,6.648169,15.794592,23.525599,-22.443186,-13.312441,-17.372061,-0.448563,-4.966312,-24.595196,-12.958132,-31.815113,7.746385,5.446058,-12.080134,13.748923,-25.509966,0.000000,204.000000,4.000000,,,,0.000000,4.000000,4.000000,4.000000,4.000000,4.000000,4.000000,4.000000,4.000000,4.000000,4.000000,4.000000,4.000000,4.000000,4.000000,4.000000,4.000000,4.000000,4.000000,4.000000,4.000000,4.000000,4.000000,4.000000,4.000000,4.000000,4.000000,4.000000,4.000000,4.000000,4.000000,4.000000,4.000000,100.000000
1615774172.514136,26.000000,0.000000,2.363162,9.075514,-29.366035,11.042286,-16.165089,40.224323,-2.333630,23.716652,32.554161,21.552103,31.212238,8.123528,-0.317180,1.965695,20.167505,27.878536,6.128700,18.342899,22.989252,-14.215615,-12.786308,-16.841867,-0.448114,-4.961346,-24.057779,-10.893891,-26.142271,7.738638,5.953433,-5.914208,16.299276,-18.304968,0.000000,201.000000,4.000000,,,,0.000000,4.000000,4.000000,4.000000,4.000000,4.000000,4.000000,4.000000,4.000000,4.000000,4.000000,4.000000,4.000000,4.000000,4.000000,4.000000,4.000000,4.000000,4.000000,4.000000,4.000000,4.000000,4.000000,4.000000,4.000000,4.000000,4.000000,4.000000,4.000000,4.000000,4.000000,4.000000,4.000000,100.000000
1615774172.521785,27.000000,0.000000,2.873619,9.066439,-30.875132,11.031243,-19.738668,39.158459,-2.331296,21.641653,32.521606,15.889525,31.693846,8.115405,-2.880965,-3.164476,17.070415,27.850658,6.122571,20.375839,23.479084,-13.175758,-17.388906,-17.850668,-0.447666,-4.956385,-27.110645,-8.831716,-36.885361,8.756540,3.896197,-3.344191,16.795797,-13.671279,0.000000,191.000000,4.000000,,,,0.000000,4.000000,4.000000,4.000000,4.000000,4.000000,4.000000,4.000000,4.000000,4.000000,4.000000,4.000000,4.000000,4.000000,4.000000,4.000000,4.000000,4.000000,4.000000,4.000000,4.000000,4.000000,4.000000,4.000000,4.000000,4.000000,4.000000,4.000000,4.000000,4.000000,4.000000,4.000000,4.000000,100.000000
1615774172.529534,28.000000,0.000000,3.383566,7.006090,-34.946819,6.404828,-32.539444,34.503918,-2.328965,21.107191,23.258316,6.130046,46.021126,8.107289,-2.365263,-13.930542,9.873857,22.181782,6.629269,16.765720,23.968426,-22.906172,-26.602287,-20.396919,-0.447218,-8.541172,-31.698919,-9.335704,-50.181808,5.670861,1.841019,-15.135718,14.214900,-17.760172,0.000000,196.000000,4.000000,,,,0.000000,4.000000,4.000000,4.000000,4.000000,4.000000,4.000000,4.000000,4.000000,4.000000,4.000000,4.000000,4.000000,4.000000,4.000000,4.000000,4.000000,4.000000,4.000000,4.000000,4.000000,4.000000,4.000000,4.000000,4.000000,4.000000,4.000000,4.000000,4.000000,4.000000,4.000000,4.000000,4.000000,100.000000
1615774172.537183,29.000000,0.000000,-1.748023,5.460622,-37.988796,3.321500,-35.583824,31.905310,-2.326636,16.983521,17.594032,4.072634,45.462284,8.099182,-4.927001,-17.506355,5.248599,17.031395,5.084178,10.082287,18.303432,-28.524292,-29.139788,-22.940624,-0.446771,-14.173656,-32.692860,-9.326368,-45.003422,-1.001477,1.326357,-21.787251,12.662223,-23.896257,0.000000,183.000000,4.000000,,,,0.000000,4.000000,4.000000,4.000000,4.000000,4.000000,4.000000,4.000000,4.000000,4.000000,4.000000,4.000000,4.000000,4.000000,4.000000,4.000000,4.000000,4.000000,4.000000,4.000000,4.000000,4.000000,4.000000,4.000000,4.000000,4.000000,4.000000,4.000000,4.000000,4.000000,4.000000,4.000000,4.000000,100.000000
1615774172.544932,30.000000,0.000000,-8.925762,5.455162,-37.950806,4.343820,-32.471317,30.847763,-2.324309,12.351151,18.089258,-1.059643,33.621952,7.578262,-16.204124,-15.950387,3.704889,15.475902,2.002171,6.995282,12.131282,-27.982946,-28.597826,-25.994608,-0.959145,-16.723585,-33.685810,-9.317042,-40.855854,-4.077398,1.837851,-19.714180,11.623919,-25.410824,0.000000,206.000000,4.000000,,,,0.000000,4.000000,4.000000,4.000000,4.000000,4.000000,4.000000,4.000000,4.000000,4.000000,4.000000,4.000000,4.000000,4.000000,4.000000,4.000000,4.000000,4.000000,4.000000,4.000000,4.000000,4.000000,4.000000,4.000000,4.000000,4.000000,4.000000,4.000000,4.000000,4.000000,4.000000,4.000000,4.000000,100.000000
1615774172.552582,31.000000,0.000000,-8.916837,5.449707,-37.400036,4.339476,-33.977310,29.278454,-2.321985,21.056749,18.583990,-5.673968,44.357559,7.057864,-15.675100,-16.960077,4.214005,14.947605,1.487349,8.013927,11.093510,-26.929323,-29.082050,-29.045536,-0.445365,-18.758144,-36.216225,-9.307725,-48.507305,-3.047680,1.836013,-19.694466,9.561014,-25.898233,0.000000,186.000000,4.000000,,,,0.000000,4.000000,4.000000,4.000000,4.000000,4.000000,4.000000,4.000000,4.000000,4.000000,4.000000,4.000000,4.000000,4.000000,4.000000,4.000000,4.000000,4.000000,4.000000,4.000000,4.000000,4.000000,4.000000,4.000000,4.000000,4.000000,4.000000,4.000000,4.000000,4.000000,4.000000,4.000000,4.000000,100.000000
1615774172.560431,32.000000,0.000000,-4.805356,5.444257,-37.875458,3.822316,-34.456154,29.249176,-2.319663,27.702358,18.052586,0.485552,65.338844,8.589267,-1.300451,-14.379015,6.261073,21.086504,5.075605,7.493093,11.595237,-24.851112,-25.976044,-28.503670,-0.444920,-19.765026,-36.180012,-9.298417,-46.920338,-3.557453,1.834177,-20.187592,9.038632,-25.872335,8064.000000,0.000000,4.000000,,,,0.000000,4.000000,4.000000,4.000000,4.000000,4.000000,4.000000,4.000000,4.000000,4.000000,4.000000,4.000000,4.000000,4.000000,4.000000,4.000000,4.000000,4.000000,4.000000,4.000000,4.000000,4.000000,4.000000,4.000000,4.000000,4.000000,4.000000,4.000000,4.000000,4.000000,4.000000,4.000000,4.000000,100.000000
1615774172.568180,33.000000,0.000000,-5.826191,5.438813,-37.324760,4.331314,-33.396053,29.732748,-2.317343,14.341324,17.521711,6.638912,52.452991,7.555037,-2.837612,-9.236431,7.793273,29.270546,5.583350,7.485600,11.583641,-24.313440,-21.334684,-27.962345,-1.470116,-17.693979,-35.118191,-9.289119,-37.642647,-3.553895,1.832343,-18.116123,9.542415,-26.359283,8064.000000,0.000000,4.000000,,,,0.000000,4.000000,4.000000,4.000000,4.000000,4.000000,4.000000,4.000000,4.000000,4.000000,4.000000,4.000000,4.000000,4.000000,4.000000,4.000000,4.000000,4.000000,4.000000,4.000000,4.000000,4.000000,4.000000,4.000000,4.000000,4.000000,4.000000,4.000000,4.000000,4.000000,4.000000,4.000000,4.000000,100.000000
1615774172.576029,34.000000,0.000000,-5.307544,4.920553,-37.287437,4.326982,-33.362659,29.703014,-2.315026,3.044931,18.017012,6.119453,24.195410,3.444918,-11.552723,-8.714374,7.272659,27.702814,5.577766,10.555037,13.623340,-24.289127,-20.800528,-29.472845,0.582636,-16.137823,-36.108711,-9.279830,-35.553722,-0.986239,1.830511,-15.533904,9.532872,-25.820103,8064.000000,0.000000,4.000000,,,,0.000000,4.000000,4.000000,4.000000,4.000000,4.000000,4.000000,4.000000,4.000000,4.000000,4.000000,4.000000,4.000000,4.000000,4.000000,4.000000,4.000000,4.000000,4.000000,4.000000,4.000000,4.000000,4.000000,4.000000,4.000000,4.000000,4.000000,4.000000,4.000000,4.000000,4.000000,4.000000,4.000000,100.000000
1615774172.583778,35.000000,0.000000,1.364430,5.941274,-37.250149,4.322656,-32.816475,29.673311,-2.312711,14.323937,23.640020,6.113333,32.376343,10.108139,-2.823222,-7.680018,7.778207,25.111008,11.726035,11.057302,15.660998,-20.162273,-19.241266,-24.827988,7.761540,-15.608866,-34.534142,-9.270550,-36.543808,0.553209,1.828680,-13.467088,9.523339,-25.794283,8064.000000,0.000000,4.000000,,,,0.000000,4.000000,4.000000,4.000000,4.000000,4.000000,4.000000,4.000000,4.000000,4.000000,4.000000,4.000000,4.000000,4.000000,4.000000,4.000000,4.000000,4.000000,4.000000,4.000000,4.000000,4.000000,4.000000,4.000000,4.000000,4.000000,4.000000,4.000000,4.000000,4.000000,4.000000,4.000000,4.000000,100.000000
1615774172.591627,36.000000,0.000000,7.004091,7.986615,-37.212898,4.318333,-33.296478,29.643639,-2.310398,28.155767,30.283047,6.620040,57.984993,24.457006,7.948833,-3.569774,10.334532,31.752563,18.380976,12.584707,16.670979,-15.013906,-17.683563,-15.572390,11.343523,-13.541975,-29.884222,-9.261279,-35.994446,1.578297,1.826852,-12.427979,9.513816,-25.768488,8064.000000,0.000000,4.000000,,,,0.000000,4.000000,4.000000,4.000000,4.000000,4.000000,4.000000,4.000000,4.000000,4.000000,4.000000,4.000000,4.000000,4.000000,4.000000,4.000000,4.000000,4.000000,4.000000,4.000000,4.000000,4.000000,4.000000,4.000000,4.000000,4.000000,4.000000,4.000000,4.000000,4.000000,4.000000,4.000000,4.000000,100.000000
1615774172.599376,37.000000,0.000000,6.997087,9.004269,-37.175686,4.314014,-33.263184,30.126816,-2.308088,26.589149,29.227121,5.074959,56.901367,24.432549,7.940884,-0.489282,11.349838,34.797733,15.285671,17.187508,18.705589,-16.024534,-19.204342,-11.967074,10.819359,-11.989971,-28.828697,-9.252018,-36.471272,3.628000,1.825025,-11.902731,9.504302,-25.742720,8064.000000,0.000000,4.000000,,,,0.000000,4.000000,4.000000,4.000000,4.000000,4.000000,4.000000,4.000000,4.000000,4.000000,4.000000,4.000000,4.000000,4.000000,4.000000,4.000000,4.000000,4.000000,4.000000,4.000000,4.000000,4.000000,4.000000,4.000000,4.000000,4.000000,4.000000,4.000000,4.000000,4.000000,4.000000,4.000000,4.000000,100.000000
1615774172.607225,38.000000,0.000000,5.451628,9.508085,-37.138508,4.309700,-32.717098,29.583868,-2.305780,19.895893,25.608150,6.095525,44.023952,15.177347,6.394481,0.024028,11.851309,31.686014,13.219104,19.221601,20.225346,-16.521330,-19.697958,-12.980748,10.808539,-12.490802,-30.851151,-9.242766,-35.409161,4.650013,1.823200,-11.378008,9.494798,-25.204157,8064.000000,0.000000,4.000000,,,,0.000000,4.000000,4.000000,4.000000,4.000000,4.000000,4.000000,4.000000,4.000000,4.000000,4.000000,4.000000,4.000000,4.000000,4.000000,4.000000,4.000000,4.000000,4.000000,4.000000,4.000000,4.000000,4.000000,4.000000,4.000000,4.000000,4.000000,4.000000,4.000000,4.000000,4.000000,4.000000,4.000000,100.000000
1615774172.614974,39.000000,0.000000,6.471818,8.985757,-36.588551,4.305391,-34.735664,26.990181,-2.303474,19.875998,26.095364,5.576609,42.954288,14.136529,1.259881,-4.591381,10.813816,30.115866,14.744346,16.638277,18.666658,-14.966347,-20.703901,-12.967768,8.746449,-12.478311,-33.897224,-9.233523,-37.937851,4.645364,1.821377,-13.417912,9.485303,-25.178953,8064.000000,0.000000,4.000000,,,,0.000000,4.000000,4.000000,4.000000,4.000000,4.000000,4.000000,4.000000,4.000000,4.000000,4.000000,4.000000,4.000000,4.000000,4.000000,4.000000,4.000000,4.000000,4.000000,4.000000,4.000000,4.000000,4.000000,4.000000,4.000000,4.000000,4.000000,4.000000,4.000000,4.000000,4.000000,4.000000,4.000000,100.000000
1615774172.622823,40.000000,0.000000,6.978167,7.438310,-37.064781,4.301085,-39.316315,25.424730,-2.301171,20.881763,25.043627,-5.198198,48.039539,16.686495,-4.382404,-13.304738,9.264541,24.957544,7.550115,15.083178,16.083889,-19.566765,-29.401146,-15.518902,3.609497,-12.465833,-37.453068,-9.224290,-46.105042,3.102257,1.819555,-18.532700,9.475818,-27.717876,8064.000000,0.000000,4.000000,,,,0.000000,4.000000,4.000000,4.000000,4.000000,4.000000,4.000000,4.000000,4.000000,4.000000,4.000000,4.000000,4.000000,4.000000,4.000000,4.000000,4.000000,4.000000,4.000000,4.000000,4.000000,4.000000,4.000000,4.000000,4.000000,4.000000,4.000000,4.000000,4.000000,4.000000,4.000000,4.000000,4.000000,100.000000
1615774172.630572,41.000000,0.000000,3.894265,5.379589,-37.027718,4.296784,-40.815460,25.912125,-2.298870,18.809599,22.454481,-11.346847,42.350471,14.105705,-3.865201,-16.368357,7.203995,16.214640,-1.175384,14.042454,15.554985,-28.777967,-36.038410,-17.041845,2.067426,-12.453366,-39.466900,-9.215065,-49.135860,1.047872,1.817736,-20.052628,9.466342,-29.228621,8064.000000,0.000000,4.000000,,,,0.000000,4.000000,4.000000,4.000000,4.000000,4.000000,4.000000,4.000000,4.000000,4.000000,4.000000,4.000000,4.000000,4.000000,4.000000,4.000000,4.000000,4.000000,4.000000,4.000000,4.000000,4.000000,4.000000,4.000000,4.000000,4.000000,4.000000,4.000000,4.000000,4.000000,4.000000,4.000000,4.000000,100.000000
1615774172.638421,42.000000,0.000000,-0.725014,5.374209,-36.477871,4.292488,-40.261822,25.886213,-2.296571,13.662584,21.406385,8.664500,28.461969,11.527497,-8.476721,-12.762244,7.709611,15.172783,-0.148568,11.977129,15.539430,-32.338932,-35.489552,-16.511982,3.091000,-12.440913,-38.914612,-9.205851,-44.984161,0.021183,1.815918,-19.006935,9.456875,-29.199392,8064.000000,0.000000,4.000000,,,,0.000000,4.000000,4.000000,4.000000,4.000000,4.000000,4.000000,4.000000,4.000000,4.000000,4.000000,4.000000,4.000000,4.000000,4.000000,4.000000,4.000000,4.000000,4.000000,4.000000,4.000000,4.000000,4.000000,4.000000,4.000000,4.000000,4.000000,4.000000,4.000000,4.000000,4.000000,4.000000,4.000000,100.000000
1615774172.646170,43.000000,0.000000,-2.262750,5.368835,-37.467033,4.288195,-39.708740,25.860327,-2.294274,11.084820,21.897800,27.630196,26.382225,10.490329,-14.109269,-11.723841,7.701901,19.260174,2.928504,10.939510,15.523890,-30.768133,-35.454063,-20.085215,3.087909,-12.428473,-38.875698,-9.196645,-42.887894,0.533983,1.814102,-20.526388,9.447418,-30.708654,8064.000000,0.000000,4.000000,,,,0.000000,4.000000,4.000000,4.000000,4.000000,4.000000,4.000000,4.000000,4.000000,4.000000,4.000000,4.000000,4.000000,4.000000,4.000000,4.000000,4.000000,4.000000,4.000000,4.000000,4.000000,4.000000,4.000000,4.000000,4.000000,4.000000,4.000000,4.000000,4.000000,4.000000,4.000000,4.000000,4.000000,100.000000
1615774172.654019,44.000000,0.000000,-1.234846,5.363466,-41.532131,4.796728,-40.181854,26.347288,-2.291980,13.637837,21.875902,7.602565,42.766098,12.018300,-9.479775,-13.250579,7.694200,19.753735,1.899934,11.441392,15.508367,-31.250185,-33.880146,-24.167692,2.059180,-12.416044,-38.836819,-9.187448,-43.870647,0.020628,1.299467,-23.069965,9.437971,-33.242046,8064.000000,0.000000,4.000000,,,,0.000000,4.000000,4.000000,4.000000,4.000000,4.000000,4.000000,4.000000,4.000000,4.000000,4.000000,4.000000,4.000000,4.000000,4.000000,4.000000,4.000000,4.000000,4.000000,4.000000,4.000000,4.000000,4.000000,4.000000,4.000000,4.000000,4.000000,4.000000,4.000000,4.000000,4.000000,4.000000,4.000000,100.000000
1615774172.661768,45.000000,0.000000,-1.233612,5.358103,-43.541882,4.279110,-40.654491,25.295300,-2.289688,18.239584,21.854027,-12.405038,54.005383,14.570384,-3.316450,-12.211687,7.686505,19.221161,4.974957,11.429951,15.492858,-30.706114,-26.153959,-22.605064,3.595582,-12.403627,-38.797985,-9.178261,-43.826778,0.020608,2.323809,-23.559715,9.428533,-33.208805,8064.000000,0.000000,4.000000,,,,0.000000,4.000000,4.000000,4.000000,4.000000,4.000000,4.000000,4.000000,4.000000,4.000000,4.000000,4.000000,4.000000,4.000000,4.000000,4.000000,4.000000,4.000000,4.000000,4.000000,4.000000,4.000000,4.000000,4.000000,4.000000,4.000000,4.000000,4.000000,4.000000,4.000000,4.000000,4.000000,4.000000,100.000000
1615774172.669617,46.000000,0.000000,-1.745198,5.352745,-41.447056,4.274831,-38.049732,25.782824,-2.287398,19.246984,21.832172,9.145829,49.848816,14.555814,-4.338774,-12.199475,7.678819,19.714760,9.585367,11.418520,15.477365,-27.598484,-23.563704,-20.018356,6.156089,-12.391224,-38.759186,-8.656261,-42.757309,1.046228,4.885588,-23.023336,9.419105,-32.662777,8064.000000,0.000000,4.000000,,,,0.000000,4.000000,4.000000,4.000000,4.000000,4.000000,4.000000,4.000000,4.000000,4.000000,4.000000,4.000000,4.000000,4.000000,4.000000,4.000000,4.000000,4.000000,4.000000,4.000000,4.000000,4.000000,4.000000,4.000000,4.000000,4.000000,4.000000,4.000000,4.000000,4.000000,4.000000,4.000000,4.000000,100.000000
1615774172.677366,47.000000,0.000000,-1.230633,5.347392,-39.867146,4.783377,-35.447582,26.782682,-2.285111,16.663635,21.810339,22.982838,48.773323,11.977156,-4.334435,-12.187276,8.183961,20.207865,10.088602,11.407102,15.461888,-26.545246,-24.052959,-20.511158,7.175574,-12.378833,-38.720425,-9.160426,-40.663269,-1.006100,5.393523,-23.000313,9.409685,-32.630112,8064.000000,0.000000,4.000000,,,,0.000000,4.000000,4.000000,4.000000,4.000000,4.000000,4.000000,4.000000,4.000000,4.000000,4.000000,4.000000,4.000000,4.000000,4.000000,4.000000,4.000000,4.000000,4.000000,4.000000,4.000000,4.000000,4.000000,4.000000,4.000000,4.000000,4.000000,4.000000,4.000000,4.000000,4.000000,4.000000,4.000000,100.000000
1615774172.685015,48.000000,0.000000,-1.229402,5.342045,-40.340099,1.188850,-39.001877,23.166157,-2.282826,15.621331,21.788530,-3.193992,51.801476,11.452358,-3.817281,-12.175089,7.150136,18.649197,9.565693,11.395695,15.446426,-26.518700,-23.003265,-21.003468,6.655578,-12.366454,-38.681705,-11.202548,-39.084145,-2.543556,5.388129,-23.490133,9.400276,-32.597485,8064.000000,0.000000,4.000000,,,,0.000000,4.000000,4.000000,4.000000,4.000000,4.000000,4.000000,4.000000,4.000000,4.000000,4.000000,4.000000,4.000000,4.000000,4.000000,4.000000,4.000000,4.000000,4.000000,4.000000,4.000000,4.000000,4.000000,4.000000,4.000000,4.000000,4.000000,4.000000,4.000000,4.000000,4.000000,4.000000,4.000000,100.000000
1615774172.692764,49.000000,0.000000,-1.228173,4.823882,-40.812580,-3.427724,-44.091080,19.040426,-2.280543,16.631351,21.766741,-16.011311,48.672749,10.928085,-4.326284,-12.162913,4.578883,16.579266,9.556128,11.384299,15.430980,-27.005001,-26.570005,-20.469643,6.648922,-12.354088,-38.130203,-12.729807,-39.557880,1.048732,5.895562,-23.466642,9.390876,-32.564884,8064.000000,0.000000,4.000000,,,,0.000000,4.000000,4.000000,4.000000,4.000000,4.000000,4.000000,4.000000,4.000000,4.000000,4.000000,4.000000,4.000000,4.000000,4.000000,4.000000,4.000000,4.000000,4.000000,4.000000,4.000000,4.000000,4.000000,4.000000,4.000000,4.000000,4.000000,4.000000,4.000000,4.000000,4.000000,4.000000,4.000000,100.000000
1615774172.700414,50.000000,0.000000,-1.226945,5.844699,-39.746128,-3.424296,-41.995708,21.585487,-2.278262,16.101898,21.744974,-3.174787,41.957409,11.942798,-3.296316,-12.150750,4.061483,15.537045,10.059392,11.372915,15.415549,-28.516459,-31.671640,-20.449173,6.642273,-12.341734,-38.604893,-13.229897,-39.518322,4.637426,3.325563,-21.904715,9.381485,-32.532322,8064.000000,0.000000,4.000000,,,,0.000000,4.000000,4.000000,4.000000,4.000000,4.000000,4.000000,4.000000,4.000000,4.000000,4.000000,4.000000,4.000000,4.000000,4.000000,4.000000,4.000000,4.000000,4.000000,4.000000,4.000000,4.000000,4.000000,4.000000,4.000000,4.000000,4.000000,4.000000,4.000000,4.000000,4.000000,4.000000,4.000000,100.000000
1615774172.708163,51.000000,0.000000,-1.225718,8.402957,-37.655098,-0.856769,-36.312687,26.179287,-2.275984,15.572977,21.210409,2.982234,36.274429,12.443676,-5.857123,-12.138599,4.057422,16.034328,9.536511,11.361542,15.400133,-31.052044,-27.024584,-20.428724,6.635631,-12.329391,-38.566288,-12.703847,-38.965984,4.632789,1.270956,-20.857168,8.859282,-32.499790,8064.000000,0.000000,4.000000,,,,0.000000,4.000000,4.000000,4.000000,4.000000,4.000000,4.000000,4.000000,4.000000,4.000000,4.000000,4.000000,4.000000,4.000000,4.000000,4.000000,4.000000,4.000000,4.000000,4.000000,4.000000,4.000000,4.000000,4.000000,4.000000,4.000000,4.000000,4.000000,4.000000,4.000000,4.000000,4.000000,4.000000,100.000000
1615774172.715812,52.000000,0.000000,-1.224492,9.420196,-36.078983,0.682549,-35.763554,25.640287,-2.273708,15.557404,21.189198,10.671559,35.725334,4.738924,-10.466650,-12.126461,0.976442,15.505473,7.988514,11.350181,15.384733,-31.020992,-19.305252,-20.408297,6.628995,-12.317062,-34.937981,-13.203963,-39.952660,3.602515,5.372249,-18.785028,9.363244,-32.980110,8064.000000,0.000000,4.000000,,,,0.000000,4.000000,4.000000,4.000000,4.000000,4.000000,4.000000,4.000000,4.000000,4.000000,4.000000,4.000000,4.000000,4.000000,4.000000,4.000000,4.000000,4.000000,4.000000,4.000000,4.000000,4.000000,4.000000,4.000000,4.000000,4.000000,4.000000,4.000000,4.000000,4.000000,4.000000,4.000000,4.000000,100.000000
1615774172.723561,53.000000,0.000000,-1.223267,8.897955,-36.555725,0.681867,-37.266251,25.101826,-2.271434,16.054667,23.732111,14.250631,46.458839,2.682903,-9.430543,-12.114335,0.462645,16.002789,5.929243,11.338830,15.369349,-29.964331,-20.311588,-20.387888,6.622366,-12.304746,-31.313297,-12.677939,-38.887066,4.624554,8.956620,-13.125218,9.353881,-32.434307,8064.000000,0.000000,4.000000,,,,0.000000,4.000000,4.000000,4.000000,4.000000,4.000000,4.000000,4.000000,4.000000,4.000000,4.000000,4.000000,4.000000,4.000000,4.000000,4.000000,4.000000,4.000000,4.000000,4.000000,4.000000,4.000000,4.000000,4.000000,4.000000,4.000000,4.000000,4.000000,4.000000,4.000000,4.000000,4.000000,4.000000,100.000000
1615774172.731210,54.000000,0.000000,-1.222044,8.889056,-36.519169,-0.344456,-35.690525,25.589546,-2.269163,16.551432,25.759661,-4.225157,51.540585,11.910990,-7.369830,-12.102221,0.975002,17.012426,5.410493,11.840312,15.353979,-30.960007,-23.368200,-19.854679,7.128565,-12.292440,-32.820446,-12.665261,-36.284077,4.107109,6.896381,-14.137734,8.831706,-32.401875,8064.000000,0.000000,4.000000,,,,0.000000,4.000000,4.000000,4.000000,4.000000,4.000000,4.000000,4.000000,4.000000,4.000000,4.000000,4.000000,4.000000,4.000000,4.000000,4.000000,4.000000,4.000000,4.000000,4.000000,4.000000,4.000000,4.000000,4.000000,4.000000,4.000000,4.000000,4.000000,4.000000,4.000000,4.000000,4.000000,4.000000,100.000000
1615774172.738959,55.000000,0.000000,-1.220822,8.880168,-36.482651,1.194350,-31.039448,25.051136,-2.266894,16.022060,25.221081,-5.246573,43.283916,13.950360,-8.388102,-12.602939,-1.077255,14.944132,5.405083,10.802831,15.851445,-29.903406,-23.857653,-20.860466,7.121436,-12.280149,-34.326088,-13.165417,-37.273434,4.103002,4.838203,-19.251802,9.335695,-33.395115,8064.000000,0.000000,4.000000,,,,0.000000,4.000000,4.000000,4.000000,4.000000,4.000000,4.000000,4.000000,4.000000,4.000000,4.000000,4.000000,4.000000,4.000000,4.000000,4.000000,4.000000,4.000000,4.000000,4.000000,4.000000,4.000000,4.000000,4.000000,4.000000,4.000000,4.000000,4.000000,4.000000,4.000000,4.000000,4.000000,4.000000,100.000000
1615774172.746608,56.000000,0.000000,-1.219601,8.871287,-36.446167,5.808540,-27.931486,27.590187,-2.264627,16.006039,25.708681,13.220212,53.497044,11.885128,-4.277149,-11.564694,5.077669,18.006111,6.938139,12.330489,15.322774,-25.770939,-23.833794,-20.326784,5.575853,-12.267868,-31.727659,-11.613790,-39.287441,4.098898,5.346186,-14.617166,13.941744,-31.823257,8064.000000,0.000000,4.000000,,,,0.000000,4.000000,4.000000,4.000000,4.000000,4.000000,4.000000,4.000000,4.000000,4.000000,4.000000,4.000000,4.000000,4.000000,4.000000,4.000000,4.000000,4.000000,4.000000,4.000000,4.000000,4.000000,4.000000,4.000000,4.000000,4.000000,4.000000,4.000000,4.000000,4.000000,4.000000,4.000000,4.000000,100.000000
1615774172.754357,57.000000,0.000000,-1.218382,8.862416,-36.409721,8.879655,-28.416374,31.665161,-2.262362,19.066956,28.247074,5.001863,73.443542,19.052731,2.906615,-8.989028,20.457207,26.706053,8.982483,14.369441,15.307451,-22.155424,-22.784319,-17.229534,7.621559,-12.255600,-30.157469,-9.038073,-37.196873,4.094800,5.853660,-7.423061,17.517546,-26.663229,8064.000000,0.000000,4.000000,,,,0.000000,4.000000,4.000000,4.000000,4.000000,4.000000,4.000000,4.000000,4.000000,4.000000,4.000000,4.000000,4.000000,4.000000,4.000000,4.000000,4.000000,4.000000,4.000000,4.000000,4.000000,4.000000,4.000000,4.000000,4.000000,4.000000,4.000000,4.000000,4.000000,4.000000,4.000000,4.000000,4.000000,100.000000
1615774172.762007,58.000000,0.000000,-1.217163,8.853554,-37.398952,7.845134,-29.413599,32.659138,-2.260100,20.586349,29.244469,-2.695446,56.959846,20.059319,-0.686035,-7.954398,16.847006,22.063963,9.999142,12.816609,15.804964,-22.133268,-25.325638,-16.699484,10.178041,-11.730524,-31.152952,-8.516214,-35.108395,4.090705,5.334986,-10.492561,14.935925,-24.585283,8064.000000,0.000000,4.000000,,,,0.000000,4.000000,4.000000,4.000000,4.000000,4.000000,4.000000,4.000000,4.000000,4.000000,4.000000,4.000000,4.000000,4.000000,4.000000,4.000000,4.000000,4.000000,4.000000,4.000000,4.000000,4.000000,4.000000,4.000000,4.000000,4.000000,4.000000,4.000000,4.000000,4.000000,4.000000,4.000000,4.000000,100.000000
1615774172.769756,59.000000,0.000000,-1.215946,8.844700,-36.848732,7.324468,-28.358545,33.139297,-2.257840,15.950379,28.702404,13.204685,24.595192,9.270028,-9.916118,-8.459264,-2.657021,5.118822,9.476322,8.701229,13.737877,-25.700878,-31.966978,-21.298170,4.014016,-13.257256,-31.121799,-9.020518,-35.586105,4.086614,5.329651,-9.969248,13.382528,-25.073519,8064.000000,0.000000,4.000000,,,,0.000000,4.000000,4.000000,4.000000,4.000000,4.000000,4.000000,4.000000,4.000000,4.000000,4.000000,4.000000,4.000000,4.000000,4.000000,4.000000,4.000000,4.000000,4.000000,4.000000,4.000000,4.000000,4.000000,4.000000,4.000000,4.000000,4.000000,4.000000,4.000000,4.000000,4.000000,4.000000,4.000000,100.000000
1615774172.777405,60.000000,0.000000,-1.214730,8.835855,-32.709320,7.829964,-28.330187,35.157440,-2.255582,11.831864,28.673702,6.011993,29.185982,5.671015,-11.444663,-8.450805,-7.269748,2.549601,9.466846,7.666887,9.621575,-29.777742,-33.473473,-24.353794,-3.169485,-16.320921,-30.577858,-8.498677,-35.037701,4.082528,5.324321,-4.831073,15.933249,-25.048445,8064.000000,0.000000,4.000000,,,,0.000000,4.000000,4.000000,4.000000,4.000000,4.000000,4.000000,4.000000,4.000000,4.000000,4.000000,4.000000,4.000000,4.000000,4.000000,4.000000,4.000000,4.000000,4.000000,4.000000,4.000000,4.000000,4.000000,4.000000,4.000000,4.000000,4.000000,4.000000,4.000000,4.000000,4.000000,4.000000,4.000000,100.000000
1615774172.785154,61.000000,0.000000,-1.213515,8.827020,-29.086866,7.822134,-30.865959,36.660744,-2.253326,12.845674,28.645027,-7.840173,49.669617,8.229446,-7.843475,-8.442353,0.429829,11.777821,9.457379,7.659220,9.611954,-30.773605,-30.875896,-23.816620,-2.140675,-15.278959,-31.060101,-8.490179,-36.541122,4.078445,5.318997,-10.467268,15.404494,-25.023396,8064.000000,0.000000,4.000000,,,,0.000000,4.000000,4.000000,4.000000,4.000000,4.000000,4.000000,4.000000,4.000000,4.000000,4.000000,4.000000,4.000000,4.000000,4.000000,4.000000,4.000000,4.000000,4.000000,4.000000,4.000000,4.000000,4.000000,4.000000,4.000000,4.000000,4.000000,4.000000,4.000000,4.000000,4.000000,4.000000,4.000000,100.000000
1615774172.792803,62.000000,0.000000,-1.212302,8.818192,-29.057779,7.301492,-32.373554,36.111263,-2.251073,11.294367,28.616383,13.706129,47.568665,7.708396,-7.322811,-8.433911,0.942220,13.304504,9.447922,8.164381,11.653624,-30.230011,-30.332201,-23.792805,-0.600072,-12.699577,-31.029039,-9.507330,-40.094326,4.074367,5.313678,-19.687571,12.312167,-24.998373,8064.000000,0.000000,4.000000,,,,0.000000,4.000000,4.000000,4.000000,4.000000,4.000000,4.000000,4.000000,4.000000,4.000000,4.000000,4.000000,4.000000,4.000000,4.000000,4.000000,4.000000,4.000000,4.000000,4.000000,4.000000,4.000000,4.000000,4.000000,4.000000,4.000000,4.000000,4.000000,4.000000,4.000000,4.000000,4.000000,4.000000,100.000000
1615774172.800652,63.000000,0.000000,-1.211090,8.809375,-26.977440,7.807011,-30.802719,36.075153,-2.248822,8.206149,28.074945,20.871910,36.751865,6.675047,-10.905231,-8.425477,-1.110005,11.239918,9.438474,8.156217,11.641970,-30.199781,-31.327509,-24.281832,-4.189216,-12.174057,-31.510832,-8.472181,-38.515770,4.070292,4.795544,-20.180702,12.299854,-21.896452,8064.000000,0.000000,4.000000,,,,0.000000,4.000000,4.000000,4.000000,4.000000,4.000000,4.000000,4.000000,4.000000,4.000000,4.000000,4.000000,4.000000,4.000000,4.000000,4.000000,4.000000,4.000000,4.000000,4.000000,4.000000,4.000000,4.000000,4.000000,4.000000,4.000000,4.000000,4.000000,4.000000,4.000000,4.000000,4.000000,4.000000,100.000000
1615774172.808401,64.000000,0.000000,-1.209879,8.800565,-20.796616,10.876127,-28.207813,36.039078,-2.246573,13.838969,28.559690,-4.277167,41.330498,7.181192,-12.432788,-8.417051,0.429567,12.254318,9.429035,5.071137,11.117507,-30.682402,-32.321823,-23.744730,-5.210668,-12.161883,-33.530602,-8.976530,-38.990074,4.066222,5.816389,-19.134882,12.800375,-18.284811,0.000000,191.000000,4.000000,,,,0.000000,4.000000,4.000000,4.000000,4.000000,4.000000,4.000000,4.000000,4.000000,4.000000,4.000000,4.000000,4.000000,4.000000,4.000000,4.000000,4.000000,4.000000,4.000000,4.000000,4.000000,4.000000,4.000000,4.000000,4.000000,4.000000,4.000000,4.000000,4.000000,4.000000,4.000000,4.000000,4.000000,100.000000
1615774172.816250,65.000000,0.000000,-1.208669,8.791764,-14.109153,14.454994,-28.692427,36.003036,-2.244327,18.953335,30.582413,-5.811351,47.443012,7.686832,-9.856253,-8.408635,-0.596504,11.216423,9.419606,0.963502,11.619210,-30.138899,-34.340782,-23.720985,-4.179816,-12.149721,-37.086815,-15.634220,-50.233135,4.062156,4.272111,-19.115746,12.787575,-17.240885,0.000000,192.000000,4.000000,,,,0.000000,4.000000,4.000000,4.000000,4.000000,4.000000,4.000000,4.000000,4.000000,4.000000,4.000000,4.000000,4.000000,4.000000,4.000000,4.000000,4.000000,4.000000,4.000000,4.000000,4.000000,4.000000,4.000000,4.000000,4.000000,4.000000,4.000000,4.000000,4.000000,4.000000,4.000000,4.000000,4.000000,100.000000
1615774172.823999,66.000000,0.000000,-1.207460,8.782972,-11.018121,15.466180,-29.176554,35.967033,-2.242082,15.344638,32.090294,10.604716,32.523777,8.191965,-12.923320,-8.400226,-3.160010,8.641105,9.410187,-0.063102,11.607592,-30.108761,-34.306442,-23.184443,-4.175636,-16.240135,-37.562550,-20.233971,-54.285465,4.058094,1.703736,-14.481246,11.749146,-18.249287,0.000000,195.000000,4.000000,,,,0.000000,4.000000,4.000000,4.000000,4.000000,4.000000,4.000000,4.000000,4.000000,4.000000,4.000000,4.000000,4.000000,4.000000,4.000000,4.000000,4.000000,4.000000,4.000000,4.000000,4.000000,4.000000,4.000000,4.000000,4.000000,4.000000,4.000000,4.000000,4.000000,4.000000,4.000000,4.000000,4.000000,100.000000
1615774172.831848,67.000000,0.000000,-1.206253,8.774190,-10.494282,14.937894,-28.634558,35.931068,-1.727020,13.278011,32.058201,7.004368,15.055355,6.645312,-17.525782,-8.391826,-3.669670,8.119642,9.400777,0.449781,11.595984,-29.565830,-34.272137,-23.161259,-4.171461,-20.326460,-35.473705,-16.111172,-40.897846,4.054035,4.266135,-11.389842,13.275859,-17.718216,0.000000,187.000000,4.000000,,,,0.000000,4.000000,4.000000,4.000000,4.000000,4.000000,4.000000,4.000000,4.000000,4.000000,4.000000,4.000000,4.000000,4.000000,4.000000,4.000000,4.000000,4.000000,4.000000,4.000000,4.000000,4.000000,4.000000,4.000000,4.000000,4.000000,4.000000,4.000000,4.000000,4.000000,4.000000,4.000000,4.000000,100.000000
1615774172.839597,68.000000,0.000000,-1.205046,8.765415,-10.483788,14.922956,-28.605923,35.895138,-2.238113,15.828835,32.026146,-0.694944,31.963377,8.177128,-11.354409,-8.383434,-3.153180,8.624344,9.391376,0.449332,11.584388,-30.049086,-34.237865,-23.650917,-4.680110,-16.716391,-33.899769,-11.992497,-30.087719,4.049981,8.877254,-11.891273,15.313865,-15.649216,0.000000,201.000000,4.000000,,,,0.000000,4.000000,4.000000,4.000000,4.000000,4.000000,4.000000,4.000000,4.000000,4.000000,4.000000,4.000000,4.000000,4.000000,4.000000,4.000000,4.000000,4.000000,4.000000,4.000000,4.000000,4.000000,4.000000,4.000000,4.000000,4.000000,4.000000,4.000000,4.000000,4.000000,4.000000,4.000000,4.000000,100.000000
1615774172.847446,69.000000,0.000000,-1.203841,8.756650,-10.473304,14.908032,-28.577316,35.859241,-1.723054,15.813007,31.994118,-5.309634,57.572437,15.861259,-3.650747,-8.375051,-3.150027,8.615719,9.894805,0.448882,11.572803,-30.019037,-34.203625,-23.114447,-4.162609,-12.597109,-34.378689,-12.493325,-34.673016,4.045931,7.842735,-11.879381,16.324192,-14.095105,0.000000,186.000000,4.000000,,,,0.000000,4.000000,4.000000,4.000000,4.000000,4.000000,4.000000,4.000000,4.000000,4.000000,4.000000,4.000000,4.000000,4.000000,4.000000,4.000000,4.000000,4.000000,4.000000,4.000000,4.000000,4.000000,4.000000,4.000000,4.000000,4.000000,4.000000,4.000000,4.000000,4.000000,4.000000,4.000000,4.000000,100.000000
1615774172.855195,70.000000,0.000000,-1.202637,8.747893,-10.975651,14.893125,-28.548740,35.823383,0.842771,16.310015,31.962124,-4.791503,48.796917,17.896679,-7.236840,-8.366675,-3.146877,8.607103,8.859269,0.448433,11.561231,-29.476196,-34.169422,-23.091331,-3.645626,-15.148615,-34.344311,-12.993652,-39.766548,4.041885,4.757969,-11.354681,16.820688,-14.081010,0.000000,197.000000,4.000000,,,,0.000000,4.000000,4.000000,4.000000,4.000000,4.000000,4.000000,4.000000,4.000000,4.000000,4.000000,4.000000,4.000000,4.000000,4.000000,4.000000,4.000000,4.000000,4.000000,4.000000,4.000000,4.000000,4.000000,4.000000,4.000000,4.000000,4.000000,4.000000,4.000000,4.000000,4.000000,4.000000,4.000000,100.000000
1615774172.863044,71.000000,0.000000,-1.201435,8.739145,-10.451855,14.878232,-28.520191,35.787560,0.841928,13.729602,31.930162,13.162006,34.901966,10.699296,-12.357808,-7.845489,-3.143730,8.598496,5.260666,0.447985,11.549669,-29.959541,-34.135254,-26.657984,-6.206083,-19.748850,-33.797146,-11.955018,-38.188320,4.037844,5.266032,-12.368968,18.855150,-14.579749,0.000000,196.000000,4.000000,,,,0.000000,4.000000,4.000000,4.000000,4.000000,4.000000,4.000000,4.000000,4.000000,4.000000,4.000000,4.000000,4.000000,4.000000,4.000000,4.000000,4.000000,4.000000,4.000000,4.000000,4.000000,4.000000,4.000000,4.000000,4.000000,4.000000,4.000000,4.000000,4.000000,4.000000,4.000000,4.000000,4.000000,100.000000
1615774172.870793,72.000000,0.000000,-1.200233,8.730407,-10.954224,14.863354,-28.491671,35.751770,-3.774298,3.459462,31.898232,19.302691,47.174759,6.586032,-11.319809,-9.376104,-3.140586,8.589898,2.178482,0.447537,11.538119,-33.006504,-34.101116,-30.733891,-7.225518,-19.729101,-34.276169,-12.455883,-37.637310,4.033806,5.260766,-11.843778,20.374756,-14.052349,0.000000,200.000000,4.000000,,,,0.000000,4.000000,4.000000,4.000000,4.000000,4.000000,4.000000,4.000000,4.000000,4.000000,4.000000,4.000000,4.000000,4.000000,4.000000,4.000000,4.000000,4.000000,4.000000,4.000000,4.000000,4.000000,4.000000,4.000000,4.000000,4.000000,4.000000,4.000000,4.000000,4.000000,4.000000,4.000000,4.000000,100.000000
1615774172.878642,73.000000,0.000000,-1.199033,8.721676,-17.097116,14.848490,-28.463179,35.716019,-6.334626,3.456003,32.379154,-4.306356,49.178864,8.117908,-10.795669,-11.418011,-3.137446,8.581308,1.663483,-0.065731,11.526582,-33.486320,-34.067017,-31.215977,-3.628549,-18.683731,-34.241894,-12.443427,-38.625317,4.029772,5.255506,-11.319114,19.841560,-14.551117,0.000000,203.000000,4.000000,,,,0.000000,4.000000,4.000000,4.000000,4.000000,4.000000,4.000000,4.000000,4.000000,4.000000,4.000000,4.000000,4.000000,4.000000,4.000000,4.000000,4.000000,4.000000,4.000000,4.000000,4.000000,4.000000,4.000000,4.000000,4.000000,4.000000,4.000000,4.000000,4.000000,4.000000,4.000000,4.000000,4.000000,100.000000
1615774172.886391,74.000000,0.000000,-1.197834,8.712955,-22.208223,14.320821,-28.434715,35.680305,-5.815471,15.760239,31.833954,-8.404613,27.591225,7.596970,-11.810514,-12.432234,-3.134308,8.059906,2.174640,0.959976,11.515055,-30.375910,-35.058590,-30.671940,-0.035176,-19.177868,-34.207653,-12.430984,-39.099510,4.025742,7.301532,-12.846256,19.821720,-14.023746,0.000000,211.000000,4.000000,,,,0.000000,4.000000,4.000000,4.000000,4.000000,4.000000,4.000000,4.000000,4.000000,4.000000,4.000000,4.000000,4.000000,4.000000,4.000000,4.000000,4.000000,4.000000,4.000000,4.000000,4.000000,4.000000,4.000000,4.000000,4.000000,4.000000,4.000000,4.000000,4.000000,4.000000,4.000000,4.000000,4.000000,100.000000
1615774172.894240,75.000000,0.000000,-1.196636,11.268344,-20.134733,14.819321,-28.406281,35.644623,-5.809656,20.359863,31.289299,14.680714,19.871325,7.076552,-11.285883,-11.906981,-3.131174,9.590308,2.172466,3.523118,11.503540,-31.371174,-32.972252,-30.641268,-0.547962,-19.671511,-34.173443,-12.418552,-38.547588,4.021717,8.832692,-10.269307,19.801897,-11.445620,0.000000,202.000000,4.000000,,,,0.000000,4.000000,4.000000,4.000000,4.000000,4.000000,4.000000,4.000000,4.000000,4.000000,4.000000,4.000000,4.000000,4.000000,4.000000,4.000000,4.000000,4.000000,4.000000,4.000000,4.000000,4.000000,4.000000,4.000000,4.000000,4.000000,4.000000,4.000000,4.000000,4.000000,4.000000,4.000000,4.000000,100.000000
1615774172.901990,76.000000,0.000000,-1.195440,12.795537,-17.550495,14.804502,-28.377874,35.608978,-6.316667,16.236938,32.283653,14.666033,32.159145,7.582296,-11.274597,-11.895074,-3.128043,12.144820,2.170293,4.032416,11.492036,-32.878265,-29.862354,-30.610628,-0.547414,-19.139019,-34.139271,-12.406135,-38.509041,4.017694,8.823859,-5.130833,19.782095,-9.895712,0.000000,191.000000,4.000000,,,,0.000000,4.000000,4.000000,4.000000,4.000000,4.000000,4.000000,4.000000,4.000000,4.000000,4.000000,4.000000,4.000000,4.000000,4.000000,4.000000,4.000000,4.000000,4.000000,4.000000,4.000000,4.000000,4.000000,4.000000,4.000000,4.000000,4.000000,4.000000,4.000000,4.000000,4.000000,4.000000,4.000000,100.000000
1615774172.909838,77.000000,0.000000,-1.194244,10.731460,-18.558586,14.276876,-28.862318,35.573368,-5.797530,15.707882,30.712906,-2.271710,36.229549,8.087534,-11.263323,-11.883179,-3.124915,12.645495,2.168123,4.541204,11.480544,-30.794106,-32.909416,-31.092836,0.478775,-19.119881,-34.105133,-12.393728,-38.470535,4.013677,8.815035,-6.151343,19.762314,-10.398637,0.000000,206.000000,4.000000,,,,0.000000,4.000000,4.000000,4.000000,4.000000,4.000000,4.000000,4.000000,4.000000,4.000000,4.000000,4.000000,4.000000,4.000000,4.000000,4.000000,4.000000,4.000000,4.000000,4.000000,4.000000,4.000000,4.000000,4.000000,4.000000,4.000000,4.000000,4.000000,4.000000,4.000000,4.000000,4.000000,4.000000,100.000000
1615774172.917588,78.000000,0.000000,-1.193050,8.669446,-19.052849,14.775420,-28.833456,35.537796,-5.791732,13.128072,26.066809,-2.269438,26.962553,7.566626,-11.252060,-11.871295,-3.121790,11.607209,2.165955,6.587945,10.956244,-29.737669,-32.876507,-30.036102,-0.547345,-19.100760,-34.071026,-12.381334,-38.432064,4.009663,8.806220,-11.273396,19.742552,-10.388238,0.000000,203.000000,4.000000,,,,0.000000,4.000000,4.000000,4.000000,4.000000,4.000000,4.000000,4.000000,4.000000,4.000000,4.000000,4.000000,4.000000,4.000000,4.000000,4.000000,4.000000,4.000000,4.000000,4.000000,4.000000,4.000000,4.000000,4.000000,4.000000,4.000000,4.000000,4.000000,4.000000,4.000000,4.000000,4.000000,4.000000,100.000000
1615774172.925237,79.000000,0.000000,-1.191857,8.660776,-18.008154,16.811926,-26.753340,35.502258,-5.785940,11.576482,25.015100,0.296934,28.986872,6.533418,-11.240808,-11.859424,-3.118668,12.108422,2.163789,8.119819,11.458107,-28.169470,-27.202604,-27.441965,-0.033977,-19.081659,-34.036957,-12.368953,-38.393631,4.005653,8.797414,-12.800585,19.722809,-9.865029,0.000000,186.000000,4.000000,,,,0.000000,4.000000,4.000000,4.000000,4.000000,4.000000,4.000000,4.000000,4.000000,4.000000,4.000000,4.000000,4.000000,4.000000,4.000000,4.000000,4.000000,4.000000,4.000000,4.000000,4.000000,4.000000,4.000000,4.000000,4.000000,4.000000,4.000000,4.000000,4.000000,4.000000,4.000000,4.000000,4.000000,100.000000
1615774172.932986,80.000000,0.000000,-1.190665,8.652116,-17.990147,18.333576,-24.675304,35.466755,-5.780154,15.154649,27.554188,-6.882850,47.932243,8.578167,-11.229567,-11.847565,-3.115549,13.121955,2.161625,8.111698,12.472290,-25.577198,-29.739504,-26.388882,-0.033943,-19.062578,-34.002918,-12.356585,-38.355236,4.001648,8.788616,-11.249323,19.703087,-10.367985,0.000000,181.000000,4.000000,,,,0.000000,4.000000,4.000000,4.000000,4.000000,4.000000,4.000000,4.000000,4.000000,4.000000,4.000000,4.000000,4.000000,4.000000,4.000000,4.000000,4.000000,4.000000,4.000000,4.000000,4.000000,4.000000,4.000000,4.000000,4.000000,4.000000,4.000000,4.000000,4.000000,4.000000,4.000000,4.000000,4.000000,100.000000
1615774172.940635,81.000000,0.000000,-0.676654,8.643464,-18.997797,18.315243,-24.650629,35.431290,-5.774374,11.036930,28.039455,1.841981,46.858669,7.543948,-11.218337,-11.835717,-3.112434,9.519090,2.672284,7.590766,9.895716,-29.654184,-37.402073,-26.875313,-6.187756,-19.043516,-33.968914,-12.344228,-38.316883,3.997646,8.779828,-11.750895,19.683382,-12.921720,0.000000,200.000000,4.000000,,,,0.000000,4.000000,4.000000,4.000000,4.000000,4.000000,4.000000,4.000000,4.000000,4.000000,4.000000,4.000000,4.000000,4.000000,4.000000,4.000000,4.000000,4.000000,4.000000,4.000000,4.000000,4.000000,4.000000,4.000000,4.000000,4.000000,4.000000,4.000000,4.000000,4.000000,4.000000,4.000000,4.000000,100.000000
1615774172.948384,82.000000,0.000000,-1.188798,8.634820,-17.953159,18.296926,-24.113157,35.395859,-5.768600,1.795124,27.498594,20.814499,19.632324,-0.155904,-13.771221,-12.336702,-3.622142,6.945468,1.643971,7.070355,11.937101,-32.701454,-36.339027,-26.848438,-11.822594,-19.024471,-32.396484,-11.819063,-38.278564,4.506469,8.771049,-12.251964,19.663700,-14.447260,0.000000,202.000000,4.000000,,,,0.000000,4.000000,4.000000,4.000000,4.000000,4.000000,4.000000,4.000000,4.000000,4.000000,4.000000,4.000000,4.000000,4.000000,4.000000,4.000000,4.000000,4.000000,4.000000,4.000000,4.000000,4.000000,4.000000,4.000000,4.000000,4.000000,4.000000,4.000000,4.000000,4.000000,4.000000,4.000000,4.000000,100.000000
1615774172.956033,83.000000,0.000000,-1.187609,8.626185,-14.858282,18.278631,-21.524942,35.360462,-5.762831,7.434355,27.983917,17.203939,17.561411,1.895534,-15.295912,-12.324366,-3.618520,14.630830,2.155147,7.576105,20.643114,-27.540548,-33.225765,-26.308769,-9.759489,-19.005447,-29.799986,-13.345705,-38.240288,3.989142,8.762278,-11.726892,19.644035,-14.432813,0.000000,199.000000,4.000000,,,,0.000000,4.000000,4.000000,4.000000,4.000000,4.000000,4.000000,4.000000,4.000000,4.000000,4.000000,4.000000,4.000000,4.000000,4.000000,4.000000,4.000000,4.000000,4.000000,4.000000,4.000000,4.000000,4.000000,4.000000,4.000000,4.000000,4.000000,4.000000,4.000000,4.000000,4.000000,4.000000,4.000000,100.000000
1615774172.963782,84.000000,0.000000,-0.673601,8.617559,-15.356244,18.260351,-20.477776,35.325104,-6.269889,19.221792,27.955933,0.263659,43.184875,13.688510,-14.254974,-11.799220,-3.102081,23.334148,2.665812,8.594170,20.109650,-27.513006,-33.705360,-27.820921,-7.185627,-18.986443,-29.770185,-15.896462,-38.202045,1.933871,8.753515,-11.715164,19.624392,-13.905559,0.000000,201.000000,4.000000,,,,0.000000,4.000000,4.000000,4.000000,4.000000,4.000000,4.000000,4.000000,4.000000,4.000000,4.000000,4.000000,4.000000,4.000000,4.000000,4.000000,4.000000,4.000000,4.000000,4.000000,4.000000,4.000000,4.000000,4.000000,4.000000,4.000000,4.000000,4.000000,4.000000,4.000000,4.000000,4.000000,4.000000,100.000000
1615774172.971432,85.000000,0.000000,-3.237030,8.608942,-17.904991,18.242092,-20.970119,35.289776,-5.237978,19.715391,27.927977,2.827498,46.731434,11.110720,-11.676617,-12.300241,-3.611799,21.259531,-0.413776,6.534294,9.320310,-33.126518,-33.671658,-29.844383,-7.691262,-18.967455,-32.304520,-16.393387,-38.163845,0.393476,8.744761,-11.703449,19.604767,-14.404474,0.000000,179.000000,4.000000,,,,0.000000,4.000000,4.000000,4.000000,4.000000,4.000000,4.000000,4.000000,4.000000,4.000000,4.000000,4.000000,4.000000,4.000000,4.000000,4.000000,4.000000,4.000000,4.000000,4.000000,4.000000,4.000000,4.000000,4.000000,4.000000,4.000000,4.000000,4.000000,4.000000,4.000000,4.000000,4.000000,4.000000,100.000000
1615774172.979181,86.000000,0.000000,-7.849177,8.600332,-15.835804,18.223850,-20.949148,35.254486,-3.181458,15.080291,29.951330,14.619543,34.889832,1.356019,-9.613659,-12.800762,-2.582546,20.725452,-5.028747,9.091862,9.310989,-33.606213,-34.663624,-30.327358,-8.196391,-18.948488,-33.810677,-15.864172,-38.125679,-0.119738,8.736016,-11.691746,19.585163,-13.877249,0.000000,188.000000,4.000000,,,,0.000000,4.000000,4.000000,4.000000,4.000000,4.000000,4.000000,4.000000,4.000000,4.000000,4.000000,4.000000,4.000000,4.000000,4.000000,4.000000,4.000000,4.000000,4.000000,4.000000,4.000000,4.000000,4.000000,4.000000,4.000000,4.000000,4.000000,4.000000,4.000000,4.000000,4.000000,4.000000,4.000000,100.000000
1615774172.986830,87.000000,0.000000,-8.866969,8.591732,-13.255865,18.205626,-20.928200,35.732052,-1.639815,15.578031,31.459841,11.528000,45.111351,6.995688,-8.065583,-7.146935,1.522600,28.909855,-3.485257,22.416103,20.070910,-27.931581,-30.526398,-30.297031,-7.675374,-18.929539,-33.776867,-15.848308,-38.087555,0.393202,8.727281,-11.680054,19.565577,-13.863372,0.000000,190.000000,4.000000,,,,0.000000,4.000000,4.000000,4.000000,4.000000,4.000000,4.000000,4.000000,4.000000,4.000000,4.000000,4.000000,4.000000,4.000000,4.000000,4.000000,4.000000,4.000000,4.000000,4.000000,4.000000,4.000000,4.000000,4.000000,4.000000,4.000000,4.000000,4.000000,4.000000,4.000000,4.000000,4.000000,4.000000,100.000000
1615774172.994579,88.000000,0.000000,-8.345282,8.583140,-15.293892,18.700241,-20.907272,35.696320,-2.150995,17.613735,31.428381,4.336985,64.040596,16.219461,-7.031877,-0.985942,7.162104,36.060432,1.646433,31.624456,24.153402,-20.724163,-20.239462,-29.753914,-7.667698,-18.910610,-33.743088,-15.832459,-37.536648,0.392809,8.718554,-11.668374,19.546011,-13.849508,0.000000,190.000000,4.000000,,,,0.000000,4.000000,4.000000,4.000000,4.000000,4.000000,4.000000,4.000000,4.000000,4.000000,4.000000,4.000000,4.000000,4.000000,4.000000,4.000000,4.000000,4.000000,4.000000,4.000000,4.000000,4.000000,4.000000,4.000000,4.000000,4.000000,4.000000,4.000000,4.000000,4.000000,4.000000,4.000000,4.000000,100.000000
1615774173.002228,89.000000,0.000000,-8.336936,8.574557,-17.842701,18.168720,-20.886364,33.609344,-2.148844,14.006377,31.396954,5.871109,58.848354,14.664781,-5.999204,-0.472136,10.231864,34.998730,2.670428,22.362062,21.052326,-17.626516,-20.219221,-27.160057,-7.660031,-18.378880,-33.709347,-15.816628,-39.037571,0.392416,8.709835,-11.656706,19.526466,-13.835659,0.000000,204.000000,4.000000,,,,0.000000,4.000000,4.000000,4.000000,4.000000,4.000000,4.000000,4.000000,4.000000,4.000000,4.000000,4.000000,4.000000,4.000000,4.000000,4.000000,4.000000,4.000000,4.000000,4.000000,4.000000,4.000000,4.000000,4.000000,4.000000,4.000000,4.000000,4.000000,4.000000,4.000000,4.000000,4.000000,4.000000,100.000000
1615774173.009977,90.000000,0.000000,-8.841420,8.565983,-17.824858,18.150551,-20.865479,31.524452,-2.146696,5.274423,30.852736,10.480623,28.020273,11.060372,-10.095769,-0.984484,5.606248,26.758604,1.642117,8.493547,18.979992,-24.275557,-30.455414,-27.132898,-7.652371,-18.360500,-34.188457,-15.800811,-41.049816,-0.120797,8.701125,-11.645049,20.019760,-13.821823,0.000000,200.000000,4.000000,,,,0.000000,4.000000,4.000000,4.000000,4.000000,4.000000,4.000000,4.000000,4.000000,4.000000,4.000000,4.000000,4.000000,4.000000,4.000000,4.000000,4.000000,4.000000,4.000000,4.000000,4.000000,4.000000,4.000000,4.000000,4.000000,4.000000,4.000000,4.000000,4.000000,4.000000,4.000000,4.000000,4.000000,100.000000
1615774173.017626,91.000000,0.000000,-8.319758,8.557417,-19.858315,18.645222,-20.844612,32.005749,-2.144549,0.140943,28.770601,9.444501,10.556355,6.946748,-18.803621,-0.983500,-5.168589,15.449794,2.153295,6.946592,18.961012,-29.379486,-34.527523,-29.669867,-7.644719,-19.367781,-33.641449,-15.785010,-41.521587,0.392144,8.692424,-11.633404,18.461279,-13.808002,0.000000,197.000000,4.000000,,,,0.000000,4.000000,4.000000,4.000000,4.000000,4.000000,4.000000,4.000000,4.000000,4.000000,4.000000,4.000000,4.000000,4.000000,4.000000,4.000000,4.000000,4.000000,4.000000,4.000000,4.000000,4.000000,4.000000,4.000000,4.000000,4.000000,4.000000,4.000000,4.000000,4.000000,4.000000,4.000000,4.000000,100.000000
1615774173.025475,92.000000,0.000000,-8.311439,8.548860,-21.376919,16.062473,-20.823769,28.896818,-2.142405,0.140802,27.716188,3.281211,31.571440,0.273135,-21.348921,-5.085081,-11.830087,10.306139,2.663962,8.478106,18.429230,-27.811644,-32.441711,-30.153017,-7.637074,-18.322771,-33.094986,-15.769225,-42.505707,0.904573,9.196552,-11.621771,16.391535,-13.794193,0.000000,176.000000,4.000000,,,,0.000000,4.000000,4.000000,4.000000,4.000000,4.000000,4.000000,4.000000,4.000000,4.000000,4.000000,4.000000,4.000000,4.000000,4.000000,4.000000,4.000000,4.000000,4.000000,4.000000,4.000000,4.000000,4.000000,4.000000,4.000000,4.000000,4.000000,4.000000,4.000000,4.000000,4.000000,4.000000,4.000000,100.000000
1615774173.033224,93.000000,0.000000,-8.303127,8.540311,-21.355541,11.431026,-20.802944,24.252537,-2.140262,2.704764,27.175652,1.739468,52.052689,1.811323,-18.763470,-8.156919,-9.766975,12.347115,2.661298,6.418347,18.410801,-31.373577,-33.434910,-29.610044,-7.629436,-17.791628,-33.574711,-15.240635,-45.027302,-2.173255,8.674535,-11.610148,15.349503,-13.780399,0.000000,200.000000,4.000000,,,,0.000000,4.000000,4.000000,4.000000,4.000000,4.000000,4.000000,4.000000,4.000000,4.000000,4.000000,4.000000,4.000000,4.000000,4.000000,4.000000,4.000000,4.000000,4.000000,4.000000,4.000000,4.000000,4.000000,4.000000,4.000000,4.000000,4.000000,4.000000,4.000000,4.000000,4.000000,4.000000,4.000000,100.000000
1615774173.041073,94.000000,0.000000,-8.294824,8.531771,-22.359827,9.881133,-20.782141,23.202644,-2.138122,6.804623,28.174118,9.430036,40.718586,6.937717,-18.744705,-5.584659,-7.193105,14.386049,1.120175,10.001672,20.443672,-36.983227,-34.427116,-30.093254,-7.621807,-23.414862,-34.053955,-16.251036,-46.520737,-3.196723,8.665860,-11.598538,16.359795,-13.766619,0.000000,215.000000,4.000000,,,,0.000000,4.000000,4.000000,4.000000,4.000000,4.000000,4.000000,4.000000,4.000000,4.000000,4.000000,4.000000,4.000000,4.000000,4.000000,4.000000,4.000000,4.000000,4.000000,4.000000,4.000000,4.000000,4.000000,4.000000,4.000000,4.000000,4.000000,4.000000,4.000000,4.000000,4.000000,4.000000,4.000000,100.000000
1615774173.048822,95.000000,0.000000,-8.286529,8.523238,-19.773365,12.948175,-20.761358,24.205082,-2.135984,8.849100,30.710047,11.984709,36.062481,7.443600,-14.623397,-4.553433,-6.160271,14.371663,2.657517,17.171158,21.961689,-28.741117,-29.777306,-30.575981,-5.562903,-25.442730,-29.917339,-15.721964,-44.422935,1.934679,9.170015,-11.074120,15.830614,-13.752852,0.000000,156.000000,4.000000,,,,0.000000,4.000000,4.000000,4.000000,4.000000,4.000000,4.000000,4.000000,4.000000,4.000000,4.000000,4.000000,4.000000,4.000000,4.000000,4.000000,4.000000,4.000000,4.000000,4.000000,4.000000,4.000000,4.000000,4.000000,4.000000,4.000000,4.000000,4.000000,4.000000,4.000000,4.000000,4.000000,4.000000,100.000000
1615774173.056671,96.000000,0.000000,-8.278242,8.514715,-14.625385,14.473689,-21.253418,23.668056,-1.621027,8.327431,28.115234,7.870160,53.975136,7.436156,-7.429286,-5.061700,-3.590008,14.870112,2.654859,16.128345,21.939728,-21.020069,-25.644964,-31.058226,-4.018879,-17.212158,-25.784857,-15.193421,-44.891331,5.009667,7.109563,-13.114327,15.814783,-13.739100,8064.000000,0.000000,4.000000,,,,0.000000,4.000000,4.000000,4.000000,4.000000,4.000000,4.000000,4.000000,4.000000,4.000000,4.000000,4.000000,4.000000,4.000000,4.000000,4.000000,4.000000,4.000000,4.000000,4.000000,4.000000,4.000000,4.000000,4.000000,4.000000,4.000000,4.000000,4.000000,4.000000,4.000000,4.000000,4.000000,4.000000,100.000000
1615774173.064421,97.000000,0.000000,-8.269964,8.506201,-18.200504,12.407933,-21.232164,23.644388,-3.157868,8.319103,24.497375,6.836648,56.485264,6.915900,-8.960319,-4.543818,-3.073598,16.393703,-3.501642,10.984012,22.430609,-31.255459,-27.670601,-33.591270,-4.014860,-16.169306,-29.861637,-18.767971,-53.051567,2.440555,2.487069,-15.152495,16.311789,-13.725360,8064.000000,0.000000,4.000000,,,,0.000000,4.000000,4.000000,4.000000,4.000000,4.000000,4.000000,4.000000,4.000000,4.000000,4.000000,4.000000,4.000000,4.000000,4.000000,4.000000,4.000000,4.000000,4.000000,4.000000,4.000000,4.000000,4.000000,4.000000,4.000000,4.000000,4.000000,4.000000,4.000000,4.000000,4.000000,4.000000,4.000000,100.000000
1615774173.072269,98.000000,0.000000,-8.261694,8.497694,-25.361790,10.857063,-20.185291,24.133564,-5.205992,8.823605,26.011339,2.214427,40.018524,4.857702,-14.592383,-4.539274,-3.070524,15.864490,-4.523781,9.947387,22.408178,-37.378048,-30.719854,-34.583321,-4.010845,-25.383905,-33.421520,-22.851768,-56.075439,-0.125988,0.433300,-15.650163,13.218554,-13.711635,8064.000000,0.000000,4.000000,,,,0.000000,4.000000,4.000000,4.000000,4.000000,4.000000,4.000000,4.000000,4.000000,4.000000,4.000000,4.000000,4.000000,4.000000,4.000000,4.000000,4.000000,4.000000,4.000000,4.000000,4.000000,4.000000,4.000000,4.000000,4.000000,4.000000,4.000000,4.000000,4.000000,4.000000,4.000000,4.000000,4.000000,100.000000
1615774173.080019,99.000000,0.000000,-8.253432,8.489197,-25.336430,10.846207,-20.677927,23.596611,-6.226427,8.301961,25.472507,-1.890351,31.773376,3.314382,-13.552151,-3.509094,0.009469,15.335805,4.711512,12.501542,21.360128,-27.084261,-24.535288,-26.856430,-4.006835,-25.871342,-29.285532,-19.239172,-44.224495,0.386959,1.458507,-15.121693,9.102772,-13.697923,8064.000000,0.000000,4.000000,,,,0.000000,4.000000,4.000000,4.000000,4.000000,4.000000,4.000000,4.000000,4.000000,4.000000,4.000000,4.000000,4.000000,4.000000,4.000000,4.000000,4.000000,4.000000,4.000000,4.000000,4.000000,4.000000,4.000000,4.000000,4.000000,4.000000,4.000000,4.000000,4.000000,4.000000,4.000000,4.000000,4.000000,100.000000
1615774173.087868,100.000000,0.000000,-8.757999,6.429426,-24.798271,10.322540,-21.170069,24.598654,-5.707380,8.293659,25.447035,13.496155,35.844166,3.823889,-10.461675,1.622620,3.086383,23.525597,10.860646,16.078785,25.954153,-19.877689,-15.792804,-19.137266,-4.002828,-17.127522,-25.666504,-12.553267,-35.975140,0.386572,1.457049,-15.106571,8.068027,-13.684225,8064.000000,0.000000,4.000000,,,,0.000000,4.000000,4.000000,4.000000,4.000000,4.000000,4.000000,4.000000,4.000000,4.000000,4.000000,4.000000,4.000000,4.000000,4.000000,4.000000,4.000000,4.000000,4.000000,4.000000,4.000000,4.000000,4.000000,4.000000,4.000000,4.000000,4.000000,4.000000,4.000000,4.000000,4.000000,4.000000,4.000000,100.000000
1615774173.095617,101.000000,0.000000,-7.723600,4.884534,-25.286295,11.337858,-16.533514,26.625338,-5.701673,8.285365,29.524151,26.815992,44.013451,3.820065,-10.451214,3.159459,4.621758,29.655918,9.311324,18.626808,28.492302,-21.909094,-16.802652,-19.630949,-1.434722,-14.033471,-25.128017,-12.027893,-37.477627,0.386185,0.942771,-15.091464,8.572781,-13.670541,8064.000000,0.000000,4.000000,,,,0.000000,4.000000,4.000000,4.000000,4.000000,4.000000,4.000000,4.000000,4.000000,4.000000,4.000000,4.000000,4.000000,4.000000,4.000000,4.000000,4.000000,4.000000,4.000000,4.000000,4.000000,4.000000,4.000000,4.000000,4.000000,4.000000,4.000000,4.000000,4.000000,4.000000,4.000000,4.000000,4.000000,100.000000
1615774173.103466,102.000000,0.000000,-5.664595,4.879650,-20.645622,13.890623,-11.901596,27.624353,-5.695971,8.277080,28.981808,13.968663,44.995079,3.303424,-10.953583,-0.433444,4.617136,21.421133,9.302013,18.095360,20.771502,-22.912827,-20.375593,-21.662600,0.105174,-15.045079,-24.077248,-12.015865,-36.927330,0.385799,1.454649,-15.076373,8.564207,-13.656871,8064.000000,0.000000,4.000000,,,,0.000000,4.000000,4.000000,4.000000,4.000000,4.000000,4.000000,4.000000,4.000000,4.000000,4.000000,4.000000,4.000000,4.000000,4.000000,4.000000,4.000000,4.000000,4.000000,4.000000,4.000000,4.000000,4.000000,4.000000,4.000000,4.000000,4.000000,4.000000,4.000000,4.000000,4.000000,4.000000,4.000000,100.000000
1615774173.111215,103.000000,0.000000,-4.633289,4.874770,-17.035234,13.363912,-18.556362,27.596729,-5.690275,7.243162,24.337440,1.134181,33.668034,3.812941,-14.019552,-4.535574,3.074058,11.143302,9.292711,17.564445,14.596884,-22.889914,-23.944962,-22.666578,-1.433393,-16.568495,-26.617273,-11.491029,-37.403221,0.385413,1.453194,-15.061296,8.042823,-13.643213,8064.000000,0.000000,4.000000,,,,0.000000,4.000000,4.000000,4.000000,4.000000,4.000000,4.000000,4.000000,4.000000,4.000000,4.000000,4.000000,4.000000,4.000000,4.000000,4.000000,4.000000,4.000000,4.000000,4.000000,4.000000,4.000000,4.000000,4.000000,4.000000,4.000000,4.000000,4.000000,4.000000,4.000000,4.000000,4.000000,4.000000,100.000000
1615774173.119064,104.000000,0.000000,-4.628656,4.869895,-18.556660,10.786446,-28.281395,27.569132,-5.684585,4.671816,23.800283,2.671509,34.660007,3.296308,-18.620916,-11.710526,1.019701,10.106518,6.719316,18.572521,13.556646,-24.918304,-33.151787,-30.849039,-3.483241,-19.628849,-29.667580,-15.069281,-45.058125,0.385028,1.451741,-15.046235,8.547601,-13.629570,8064.000000,0.000000,4.000000,,,,0.000000,4.000000,4.000000,4.000000,4.000000,4.000000,4.000000,4.000000,4.000000,4.000000,4.000000,4.000000,4.000000,4.000000,4.000000,4.000000,4.000000,4.000000,4.000000,4.000000,4.000000,4.000000,4.000000,4.000000,4.000000,4.000000,4.000000,4.000000,4.000000,4.000000,4.000000,4.000000,4.000000,100.000000
1615774173.126813,105.000000,0.000000,-4.624027,4.865026,-20.589386,10.775659,-27.740294,27.541563,-5.678900,3.641503,21.725201,-0.920906,50.522781,3.805832,-18.602297,-16.314199,-0.519780,12.147693,5.686955,18.041128,11.491808,-28.483130,-34.657097,-37.997677,-3.992579,-22.686144,-30.663551,-18.643955,-48.602814,0.384643,1.450289,-15.031189,8.539053,-13.103120,8064.000000,0.000000,4.000000,,,,0.000000,4.000000,4.000000,4.000000,4.000000,4.000000,4.000000,4.000000,4.000000,4.000000,4.000000,4.000000,4.000000,4.000000,4.000000,4.000000,4.000000,4.000000,4.000000,4.000000,4.000000,4.000000,4.000000,4.000000,4.000000,4.000000,4.000000,4.000000,4.000000,4.000000,4.000000,4.000000,4.000000,100.000000
1615774173.134662,106.000000,0.000000,-4.619403,4.347340,-21.594437,10.764883,-24.122808,28.026842,-5.673221,6.714785,19.139372,-0.407165,46.369694,5.853308,-13.968309,-9.118399,1.019202,18.289392,4.655627,17.510267,14.557239,-28.967468,-22.827566,-30.780193,-4.501407,-23.176279,-29.607248,-17.086849,-45.477287,0.384258,1.448839,-15.016158,8.017694,-13.602838,8064.000000,0.000000,4.000000,,,,0.000000,4.000000,4.000000,4.000000,4.000000,4.000000,4.000000,4.000000,4.000000,4.000000,4.000000,4.000000,4.000000,4.000000,4.000000,4.000000,4.000000,4.000000,4.000000,4.000000,4.000000,4.000000,4.000000,4.000000,4.000000,4.000000,4.000000,4.000000,4.000000,4.000000,4.000000,4.000000,4.000000,100.000000
1615774173.142411,107.000000,0.000000,-4.101964,5.368634,-20.547201,10.754118,-24.098686,30.050098,-6.180368,11.836275,26.299721,14.977858,31.451530,7.898737,-10.877419,-0.904152,4.607926,29.553154,6.702254,19.544039,23.260630,-23.810295,-14.086790,-20.493002,-2.958443,-19.050539,-26.500717,-15.018481,-43.893349,0.383874,1.447390,-15.001142,8.522496,-13.589235,8064.000000,0.000000,4.000000,,,,0.000000,4.000000,4.000000,4.000000,4.000000,4.000000,4.000000,4.000000,4.000000,4.000000,4.000000,4.000000,4.000000,4.000000,4.000000,4.000000,4.000000,4.000000,4.000000,4.000000,4.000000,4.000000,4.000000,4.000000,4.000000,4.000000,4.000000,4.000000,4.000000,4.000000,4.000000,4.000000,4.000000,100.000000
1615774173.150160,108.000000,0.000000,-2.046579,7.927368,-16.936911,11.256185,-24.587408,31.558510,-5.148547,16.439823,29.863165,20.603905,36.548283,7.378017,-10.866541,-0.390428,7.680241,33.113342,11.310936,21.575777,25.288652,-17.632639,-14.585524,-18.421228,-1.417024,-12.877642,-21.858831,-15.003463,-43.849453,0.383490,1.445943,-14.986140,11.590897,-12.037184,8064.000000,0.000000,4.000000,,,,0.000000,4.000000,4.000000,4.000000,4.000000,4.000000,4.000000,4.000000,4.000000,4.000000,4.000000,4.000000,4.000000,4.000000,4.000000,4.000000,4.000000,4.000000,4.000000,4.000000,4.000000,4.000000,4.000000,4.000000,4.000000,4.000000,4.000000,4.000000,4.000000,4.000000,4.000000,4.000000,4.000000,100.000000
1615774173.157909,109.000000,0.000000,-0.506071,8.945082,-21.022539,9.706467,-24.050001,31.014130,-2.066475,20.525948,24.192276,9.814071,50.870708,7.370639,-10.855674,-1.415678,8.185381,30.516129,11.812446,22.067020,21.673620,-17.102186,-15.596580,-18.915627,-2.954068,-9.787841,-21.836973,-16.014101,-44.318424,0.383106,1.444497,-14.971154,12.604947,-15.614890,8064.000000,0.000000,4.000000,,,,0.000000,4.000000,4.000000,4.000000,4.000000,4.000000,4.000000,4.000000,4.000000,4.000000,4.000000,4.000000,4.000000,4.000000,4.000000,4.000000,4.000000,4.000000,4.000000,4.000000,4.000000,4.000000,4.000000,4.000000,4.000000,4.000000,4.000000,4.000000,4.000000,4.000000,4.000000,4.000000,4.000000,100.000000
1615774173.165558,110.000000,0.000000,-1.018386,8.423316,-28.181004,7.132658,-24.025949,30.983116,-3.602870,19.992601,24.680904,10.317078,51.845482,7.876090,-10.331998,-0.388622,7.664375,29.972792,9.236531,21.532133,21.651945,-18.623545,-19.170727,-18.383890,-4.489575,-10.803694,-22.327957,-15.998086,-45.299747,0.382723,1.443052,-14.956183,12.079521,-20.214661,8064.000000,0.000000,4.000000,,,,0.000000,4.000000,4.000000,4.000000,4.000000,4.000000,4.000000,4.000000,4.000000,4.000000,4.000000,4.000000,4.000000,4.000000,4.000000,4.000000,4.000000,4.000000,4.000000,4.000000,4.000000,4.000000,4.000000,4.000000,4.000000,4.000000,4.000000,4.000000,4.000000,4.000000,4.000000,4.000000,4.000000,100.000000
1615774173.173307,111.000000,0.000000,-0.504547,8.927713,-25.075899,7.638346,-24.001925,31.977774,-5.137729,11.254660,30.810068,22.614452,46.665428,7.355393,-10.321666,-0.388233,7.656711,30.455639,8.714474,22.023422,22.655935,-17.066460,-21.715658,-18.365507,-3.972265,-11.305711,-20.767168,-11.879524,-41.151882,0.382341,1.954430,-14.428407,13.093082,-20.194445,8064.000000,0.000000,4.000000,,,,0.000000,4.000000,4.000000,4.000000,4.000000,4.000000,4.000000,4.000000,4.000000,4.000000,4.000000,4.000000,4.000000,4.000000,4.000000,4.000000,4.000000,4.000000,4.000000,4.000000,4.000000,4.000000,4.000000,4.000000,4.000000,4.000000,4.000000,4.000000,4.000000,4.000000,4.000000,4.000000,4.000000,100.000000
1615774173.180956,112.000000,0.000000,-1.529683,7.380324,-24.538002,6.605067,-23.977922,30.407335,-5.645412,5.089559,28.727976,14.899530,49.182865,7.348037,-10.824164,-0.900665,8.161875,30.425184,9.731400,22.514219,22.120459,-17.562214,-21.181122,-18.347141,-3.968293,-9.755943,-23.823322,-11.867644,-39.059448,0.381958,0.926834,-14.413978,10.515887,-22.738354,8064.000000,0.000000,4.000000,,,,0.000000,4.000000,4.000000,4.000000,4.000000,4.000000,4.000000,4.000000,4.000000,4.000000,4.000000,4.000000,4.000000,4.000000,4.000000,4.000000,4.000000,4.000000,4.000000,4.000000,4.000000,4.000000,4.000000,4.000000,4.000000,4.000000,4.000000,4.000000,4.000000,4.000000,4.000000,4.000000,4.000000,100.000000
1615774173.188705,113.000000,0.000000,-4.092256,1.731918,-38.872440,0.957436,-23.953945,26.274363,-9.229510,8.161392,22.032581,-6.141010,55.287529,7.853510,-10.813340,-0.899765,7.640893,29.881937,9.208848,21.978884,21.585518,-24.211319,-24.236864,-20.380075,-3.964325,-10.771829,-30.466166,-20.060905,-51.328083,0.381576,-2.151016,-15.938025,1.787423,-32.972027,8064.000000,0.000000,4.000000,,,,0.000000,4.000000,4.000000,4.000000,4.000000,4.000000,4.000000,4.000000,4.000000,4.000000,4.000000,4.000000,4.000000,4.000000,4.000000,4.000000,4.000000,4.000000,4.000000,4.000000,4.000000,4.000000,4.000000,4.000000,4.000000,4.000000,4.000000,4.000000,4.000000,4.000000,4.000000,4.000000,4.000000,100.000000
1615774173.196355,114.000000,0.000000,-5.113805,-2.885199,-47.551514,-3.658906,-23.929991,23.171165,-12.810024,7.127590,19.446447,-5.622049,41.386089,7.332836,-10.802527,-0.898865,5.581970,27.287952,8.686819,21.444084,20.538290,-29.828133,-25.751089,-24.975080,-3.960361,-17.427723,-34.025444,-22.604946,-57.943420,0.381195,-2.148865,-17.460548,-3.342570,-39.605721,8064.000000,0.000000,4.000000,,,,0.000000,4.000000,4.000000,4.000000,4.000000,4.000000,4.000000,4.000000,4.000000,4.000000,4.000000,4.000000,4.000000,4.000000,4.000000,4.000000,4.000000,4.000000,4.000000,4.000000,4.000000,4.000000,4.000000,4.000000,4.000000,4.000000,4.000000,4.000000,4.000000,4.000000,4.000000,4.000000,4.000000,100.000000
1615774173.204104,115.000000,0.000000,-4.595870,-2.882313,-41.350117,-4.168068,-23.906061,23.147995,-10.745933,0.966616,19.939821,7.716907,16.216497,4.761400,-11.304545,-0.897966,3.012285,26.235023,8.678132,21.422640,22.056213,-29.798304,-25.212517,-26.488567,-3.956400,-22.538500,-33.478600,-16.428495,-48.654709,0.380813,-2.146716,-19.494371,-2.826407,-39.566116,8064.000000,0.000000,4.000000,,,,0.000000,4.000000,4.000000,4.000000,4.000000,4.000000,4.000000,4.000000,4.000000,4.000000,4.000000,4.000000,4.000000,4.000000,4.000000,4.000000,4.000000,4.000000,4.000000,4.000000,4.000000,4.000000,4.000000,4.000000,4.000000,4.000000,4.000000,4.000000,4.000000,4.000000,4.000000,4.000000,4.000000,100.000000
1615774173.211753,116.000000,0.000000,-5.104095,-2.879431,-39.770306,-3.651079,-23.882154,23.637667,-8.683905,4.555393,19.407061,5.657907,26.456692,3.730998,-10.780420,-0.897068,3.522093,24.157507,9.182275,17.811474,21.521338,-29.255686,-34.418072,-26.462078,-3.952444,-22.515963,-32.932301,-18.976170,-46.554771,0.380433,-4.195851,-21.526157,-2.310760,-39.013729,8064.000000,0.000000,4.000000,,,,0.000000,4.000000,4.000000,4.000000,4.000000,4.000000,4.000000,4.000000,4.000000,4.000000,4.000000,4.000000,4.000000,4.000000,4.000000,4.000000,4.000000,4.000000,4.000000,4.000000,4.000000,4.000000,4.000000,4.000000,4.000000,4.000000,4.000000,4.000000,4.000000,4.000000,4.000000,4.000000,4.000000,100.000000
1615774173.219502,117.000000,0.000000,-4.586171,-2.876552,-43.320278,-4.160249,-23.858273,23.101210,-9.188041,9.166223,19.387653,1.036865,52.071259,3.214447,-10.256820,-0.896171,4.031392,14.389760,8.660272,5.998791,13.807508,-29.226429,-39.511860,-26.948437,-3.948491,-21.980625,-33.412186,-26.136681,-50.610783,0.380052,-6.242937,-22.530273,-2.821270,-38.974712,8064.000000,0.000000,4.000000,,,,0.000000,4.000000,4.000000,4.000000,4.000000,4.000000,4.000000,4.000000,4.000000,4.000000,4.000000,4.000000,4.000000,4.000000,4.000000,4.000000,4.000000,4.000000,4.000000,4.000000,4.000000,4.000000,4.000000,4.000000,4.000000,4.000000,4.000000,4.000000,4.000000,4.000000,4.000000,4.000000,4.000000,100.000000
1615774173.227151,118.000000,0.000000,-5.094405,-2.360855,-42.764137,-4.156088,-23.834414,23.590929,-9.691673,6.080133,19.881086,3.087110,41.762779,3.211232,-11.272203,-0.895275,2.488899,9.759986,8.651611,-0.161054,11.742419,-26.633101,-27.677477,-23.331745,-4.457363,-22.471466,-33.891594,-27.136185,-43.893505,0.379672,-5.723874,-21.994923,-2.818449,-39.448559,8064.000000,0.000000,4.000000,,,,0.000000,4.000000,4.000000,4.000000,4.000000,4.000000,4.000000,4.000000,4.000000,4.000000,4.000000,4.000000,4.000000,4.000000,4.000000,4.000000,4.000000,4.000000,4.000000,4.000000,4.000000,4.000000,4.000000,4.000000,4.000000,4.000000,4.000000,4.000000,4.000000,4.000000,4.000000,4.000000,4.000000,100.000000
1615774173.234900,119.000000,0.000000,-4.576490,-3.896955,-43.234196,-4.151932,-24.323400,23.567337,-9.169161,13.253540,19.348385,-3.069823,35.054348,7.310585,-10.235291,-0.894379,5.563333,21.545097,10.694242,5.992954,21.987087,-22.503904,-17.906210,-16.641747,-3.427265,-19.372070,-32.832062,-27.109049,-40.259865,0.379292,-5.718150,-22.485748,-2.302809,-38.896290,8064.000000,0.000000,4.000000,,,,0.000000,4.000000,4.000000,4.000000,4.000000,4.000000,4.000000,4.000000,4.000000,4.000000,4.000000,4.000000,4.000000,4.000000,4.000000,4.000000,4.000000,4.000000,4.000000,4.000000,4.000000,4.000000,4.000000,4.000000,4.000000,4.000000,4.000000,4.000000,4.000000,4.000000,4.000000,4.000000,4.000000,100.000000
1615774173.242549,120.000000,0.000000,-0.469349,0.209506,-39.601215,-2.609319,-23.786257,23.543770,-9.159992,26.060801,19.841858,-2.041112,61.173141,13.457121,-5.609670,-0.893485,12.737257,35.369705,14.273292,13.679268,29.144587,-16.840374,-17.375483,-14.061003,-1.372556,-17.814238,-28.183846,-24.517838,-39.193966,0.378913,-5.712431,-21.437620,0.263596,-34.242008,8064.000000,0.000000,4.000000,,,,0.000000,4.000000,4.000000,4.000000,4.000000,4.000000,4.000000,4.000000,4.000000,4.000000,4.000000,4.000000,4.000000,4.000000,4.000000,4.000000,4.000000,4.000000,4.000000,4.000000,4.000000,4.000000,4.000000,4.000000,4.000000,4.000000,4.000000,4.000000,4.000000,4.000000,4.000000,4.000000,4.000000,100.000000
1615774173.250299,121.000000,0.000000,2.608043,6.875963,-29.818026,-0.042607,-21.198368,23.520226,-9.150832,18.342432,22.386118,21.037851,59.573505,14.469304,-3.552779,-0.379771,15.801442,37.385620,16.310301,14.178410,29.115442,-11.182508,-10.178620,-15.072582,0.167278,-18.822063,-25.078739,-13.211267,-27.872721,0.378534,-5.706719,-18.852081,1.801794,-27.541101,8064.000000,0.000000,4.000000,,,,0.000000,4.000000,4.000000,4.000000,4.000000,4.000000,4.000000,4.000000,4.000000,4.000000,4.000000,4.000000,4.000000,4.000000,4.000000,4.000000,4.000000,4.000000,4.000000,4.000000,4.000000,4.000000,4.000000,4.000000,4.000000,4.000000,4.000000,4.000000,4.000000,4.000000,4.000000,4.000000,4.000000,100.000000
1615774173.257948,122.000000,0.000000,2.605435,7.894728,-28.762568,0.470256,-19.638708,23.496706,-9.654502,4.477935,24.415014,30.247583,27.206240,11.377912,-6.113328,-0.379391,15.272820,36.835411,16.806810,14.164231,29.086327,-9.632864,-8.629980,-15.057510,-0.345709,-17.264780,-25.053659,-6.018569,-24.255104,0.378156,-5.701013,-17.807589,1.287171,-26.487919,8064.000000,0.000000,4.000000,,,,0.000000,4.000000,4.000000,4.000000,4.000000,4.000000,4.000000,4.000000,4.000000,4.000000,4.000000,4.000000,4.000000,4.000000,4.000000,4.000000,4.000000,4.000000,4.000000,4.000000,4.000000,4.000000,4.000000,4.000000,4.000000,4.000000,4.000000,4.000000,4.000000,4.000000,4.000000,4.000000,4.000000,100.000000
1615774173.265797,123.000000,0.000000,3.628471,4.809910,-37.451752,-0.043035,-20.131889,23.473209,-7.593565,11.652945,23.364958,12.781439,28.204676,10.340893,-7.645677,-1.404653,14.744727,36.285755,16.790003,14.662888,25.467497,-10.136052,-21.441862,-14.529632,-0.858184,-14.683414,-25.541428,-11.140756,-36.538540,0.377778,-5.695312,-18.302601,1.285884,-27.487072,8064.000000,0.000000,4.000000,,,,0.000000,4.000000,4.000000,4.000000,4.000000,4.000000,4.000000,4.000000,4.000000,4.000000,4.000000,4.000000,4.000000,4.000000,4.000000,4.000000,4.000000,4.000000,4.000000,4.000000,4.000000,4.000000,4.000000,4.000000,4.000000,4.000000,4.000000,4.000000,4.000000,4.000000,4.000000,4.000000,4.000000,100.000000
1615774173.273546,124.000000,0.000000,6.188945,4.805100,-39.465584,-0.042992,-19.598936,23.449736,-3.483407,23.948984,23.341593,0.460965,53.304676,12.894655,-6.612390,-0.377607,15.242803,33.685368,16.260393,14.648225,21.852285,-10.125916,-26.548626,-15.027923,0.681136,-14.155910,-25.003065,-15.745000,-40.604568,0.377400,-5.689616,-18.284298,1.284598,-26.946764,8064.000000,0.000000,4.000000,,,,0.000000,4.000000,4.000000,4.000000,4.000000,4.000000,4.000000,4.000000,4.000000,4.000000,4.000000,4.000000,4.000000,4.000000,4.000000,4.000000,4.000000,4.000000,4.000000,4.000000,4.000000,4.000000,4.000000,4.000000,4.000000,4.000000,4.000000,4.000000,4.000000,4.000000,4.000000,4.000000,4.000000,100.000000
1615774173.281395,125.000000,0.000000,6.695576,5.825936,-34.810734,-0.042949,-19.579338,23.426287,-1.428642,21.873753,24.856712,2.511786,53.251369,14.420221,-7.631419,0.135591,15.740381,33.651684,16.756952,15.146397,24.394535,-10.628611,-19.855412,-15.012895,2.731736,-14.654574,-24.978062,-14.703614,-32.871655,0.377022,-5.683927,-18.266014,1.283314,-27.432638,8064.000000,0.000000,4.000000,,,,0.000000,4.000000,4.000000,4.000000,4.000000,4.000000,4.000000,4.000000,4.000000,4.000000,4.000000,4.000000,4.000000,4.000000,4.000000,4.000000,4.000000,4.000000,4.000000,4.000000,4.000000,4.000000,4.000000,4.000000,4.000000,4.000000,4.000000,4.000000,4.000000,4.000000,4.000000,4.000000,4.000000,100.000000
1615774173.289144,126.000000,0.000000,6.688880,5.307290,-35.801563,-0.042906,-23.149502,23.402861,-1.940034,18.262135,20.216471,2.509274,41.403248,12.867340,-10.700710,-7.044032,13.673358,30.028288,16.740196,11.541507,24.370142,-12.669264,-17.784273,-14.997882,3.754646,-14.639919,-24.953085,-14.688910,-31.300322,0.376645,-5.678243,-18.760569,1.282031,-27.405207,8064.000000,0.000000,4.000000,,,,0.000000,4.000000,4.000000,4.000000,4.000000,4.000000,4.000000,4.000000,4.000000,4.000000,4.000000,4.000000,4.000000,4.000000,4.000000,4.000000,4.000000,4.000000,4.000000,4.000000,4.000000,4.000000,4.000000,4.000000,4.000000,4.000000,4.000000,4.000000,4.000000,4.000000,4.000000,4.000000,4.000000,100.000000
1615774173.296993,127.000000,0.000000,5.143730,3.763521,-38.842686,-0.042863,-26.716097,23.892277,-1.938094,17.731052,13.016768,0.455483,39.823383,10.803190,-11.202830,-15.754936,6.993018,18.203388,12.620892,5.376119,17.679104,-17.271978,-19.304951,-14.982884,3.238071,-14.625279,-28.005054,-15.699862,-34.858765,0.889089,-6.185385,-18.228987,1.280748,-27.377800,8064.000000,0.000000,4.000000,,,,0.000000,4.000000,4.000000,4.000000,4.000000,4.000000,4.000000,4.000000,4.000000,4.000000,4.000000,4.000000,4.000000,4.000000,4.000000,4.000000,4.000000,4.000000,4.000000,4.000000,4.000000,4.000000,4.000000,4.000000,4.000000,4.000000,4.000000,4.000000,4.000000,4.000000,4.000000,4.000000,4.000000,100.000000
1615774173.304742,0.000000,0.000000,2.574484,1.708475,-38.803841,-0.555640,-28.740662,21.817102,-1.423335,15.662040,13.003751,1.993489,44.911766,10.792387,-11.191628,-15.739182,2.370641,13.569799,8.505707,2.293820,12.533220,-23.408554,-18.772825,-14.967901,3.234833,-14.610654,-31.566793,-15.684162,-36.362366,-1.163082,-5.666379,-18.210758,0.766647,-29.401705,0.000000,191.000000,4.000000,,,,0.000000,4.000000,4.000000,4.000000,4.000000,4.000000,4.000000,4.000000,4.000000,4.000000,4.000000,4.000000,4.000000,4.000000,4.000000,4.000000,4.000000,4.000000,4.000000,4.000000,4.000000,4.000000,4.000000,4.000000,4.000000,4.000000,4.000000,4.000000,4.000000,4.000000,4.000000,4.000000,4.000000,100.000000
1615774173.312591,1.000000,0.000000,2.571909,0.681126,-37.739399,-0.042264,-30.763205,19.744003,-1.934732,14.620736,16.580490,0.965854,46.405315,11.294415,-10.667615,-12.133698,3.906732,19.197256,7.984381,2.291526,13.033507,-24.923607,-18.241232,-14.952933,3.231598,-15.108864,-33.073689,-15.155658,-36.326004,-3.213201,-2.583790,-18.705368,1.278701,-30.397943,0.000000,198.000000,4.000000,,,,0.000000,4.000000,4.000000,4.000000,4.000000,4.000000,4.000000,4.000000,4.000000,4.000000,4.000000,4.000000,4.000000,4.000000,4.000000,4.000000,4.000000,4.000000,4.000000,4.000000,4.000000,4.000000,4.000000,4.000000,4.000000,4.000000,4.000000,4.000000,4.000000,4.000000,4.000000,4.000000,4.000000,100.000000
1615774173.320340,2.000000,0.000000,2.056517,1.193265,-38.727299,-0.042222,-31.245260,19.211439,-1.932798,14.606115,15.538269,1.477709,32.512756,10.770301,-10.656947,-12.121565,3.902825,21.742161,9.002037,4.853337,18.148680,-22.334579,-15.146068,-14.937981,3.228366,-14.068114,-33.553432,-15.140502,-36.289680,-3.722808,-1.555565,-17.661022,0.764602,-28.316263,0.000000,209.000000,4.000000,,,,0.000000,4.000000,4.000000,4.000000,4.000000,4.000000,4.000000,4.000000,4.000000,4.000000,4.000000,4.000000,4.000000,4.000000,4.000000,4.000000,4.000000,4.000000,4.000000,4.000000,4.000000,4.000000,4.000000,4.000000,4.000000,4.000000,4.000000,4.000000,4.000000,4.000000,4.000000,4.000000,4.000000,100.000000
1615774173.328189,3.000000,0.000000,2.054461,1.192072,-38.688572,-1.067821,-31.214016,19.705050,-1.930865,9.976125,15.522731,9.681359,19.659729,10.759530,-11.671931,-12.109444,2.360461,21.720419,7.967394,11.515150,23.771557,-21.286604,-11.541178,-14.923042,3.225138,-12.002764,-30.442957,-15.125361,-36.766209,-3.206265,-3.092471,-13.027976,0.763837,-26.749487,0.000000,189.000000,4.000000,,,,0.000000,4.000000,4.000000,4.000000,4.000000,4.000000,4.000000,4.000000,4.000000,4.000000,4.000000,4.000000,4.000000,4.000000,4.000000,4.000000,4.000000,4.000000,4.000000,4.000000,4.000000,4.000000,4.000000,4.000000,4.000000,4.000000,4.000000,4.000000,4.000000,4.000000,4.000000,4.000000,4.000000,100.000000
1615774173.335938,4.000000,0.000000,4.103688,1.190880,-35.572960,-0.041112,-30.669981,19.172523,-1.928934,7.402046,18.584131,13.774242,33.486225,10.748771,-10.121799,-10.046052,5.435023,26.314083,8.472247,15.093379,25.286245,-21.778139,-10.503996,-14.908119,3.221913,-10.965120,-23.745848,-15.110236,-36.216621,-3.715879,-0.525276,-10.450846,3.839997,-27.235558,0.000000,201.000000,4.000000,,,,0.000000,4.000000,4.000000,4.000000,4.000000,4.000000,4.000000,4.000000,4.000000,4.000000,4.000000,4.000000,4.000000,4.000000,4.000000,4.000000,4.000000,4.000000,4.000000,4.000000,4.000000,4.000000,4.000000,4.000000,4.000000,4.000000,4.000000,4.000000,4.000000,4.000000,4.000000,4.000000,4.000000,100.000000
1615774173.343787,5.000000,0.000000,6.150867,1.189689,-31.434822,4.061493,-27.562387,19.666172,-1.927005,13.035669,20.104010,6.068160,53.965557,10.738022,-5.496292,-7.471903,10.044972,29.877512,11.027878,14.052645,24.748140,-21.243540,-10.493492,-14.893211,3.218691,-10.954155,-20.645180,-15.095126,-31.565022,-3.199343,6.654737,-11.466036,7.938721,-27.721142,0.000000,201.000000,4.000000,,,,0.000000,4.000000,4.000000,4.000000,4.000000,4.000000,4.000000,4.000000,4.000000,4.000000,4.000000,4.000000,4.000000,4.000000,4.000000,4.000000,4.000000,4.000000,4.000000,4.000000,4.000000,4.000000,4.000000,4.000000,4.000000,4.000000,4.000000,4.000000,4.000000,4.000000,4.000000,4.000000,4.000000,100.000000
1615774173.351536,6.000000,0.000000,6.144716,1.188499,-30.377747,7.134355,-23.945082,19.133684,-1.925078,18.663660,19.571085,4.010810,51.347488,10.727283,-2.413872,-5.413149,11.573389,29.334814,12.042491,14.551413,25.236212,-21.222296,-13.559921,-14.878318,3.215472,-10.943201,-21.650175,-15.080031,-27.943714,-0.632041,9.725005,-11.454570,8.956423,-27.693420,0.000000,189.000000,4.000000,,,,0.000000,4.000000,4.000000,4.000000,4.000000,4.000000,4.000000,4.000000,4.000000,4.000000,4.000000,4.000000,4.000000,4.000000,4.000000,4.000000,4.000000,4.000000,4.000000,4.000000,4.000000,4.000000,4.000000,4.000000,4.000000,4.000000,4.000000,4.000000,4.000000,4.000000,4.000000,4.000000,4.000000,100.000000
1615774173.359385,7.000000,0.000000,8.189853,1.187311,-30.860189,7.127221,-22.895496,19.114552,-1.923153,19.157816,19.038692,9.135004,43.603836,10.716557,-3.437099,-3.869275,11.048995,28.792658,13.056089,14.536861,25.210976,-21.201075,-20.213028,-14.863440,3.212256,-10.932258,-21.628525,-15.577771,-29.454231,0.907053,8.689639,-10.417474,7.921825,-26.640087,0.000000,193.000000,4.000000,,,,0.000000,4.000000,4.000000,4.000000,4.000000,4.000000,4.000000,4.000000,4.000000,4.000000,4.000000,4.000000,4.000000,4.000000,4.000000,4.000000,4.000000,4.000000,4.000000,4.000000,4.000000,4.000000,4.000000,4.000000,4.000000,4.000000,4.000000,4.000000,4.000000,4.000000,4.000000,4.000000,4.000000,100.000000
1615774173.367134,8.000000,0.000000,10.232945,0.673303,-30.829330,10.197017,-23.385422,20.633898,-1.921230,18.625837,19.532475,6.048946,52.791000,10.193020,-3.433662,-3.865406,11.037947,27.738226,15.094316,9.906940,24.672945,-21.179873,-21.731277,-14.848577,3.209044,-10.408505,-21.094076,-15.562194,-32.501701,0.393325,8.680949,-11.432697,8.939545,-24.562164,0.000000,200.000000,4.000000,,,,0.000000,4.000000,4.000000,4.000000,4.000000,4.000000,4.000000,4.000000,4.000000,4.000000,4.000000,4.000000,4.000000,4.000000,4.000000,4.000000,4.000000,4.000000,4.000000,4.000000,4.000000,4.000000,4.000000,4.000000,4.000000,4.000000,4.000000,4.000000,4.000000,4.000000,4.000000,4.000000,4.000000,100.000000
1615774173.374983,9.000000,0.000000,9.709891,1.185450,-30.285679,11.725281,-23.362036,22.664545,-1.919309,19.120033,19.512941,0.914692,62.481800,11.721288,-2.917408,-4.374361,11.539729,25.146385,16.617683,6.307289,25.161091,-21.158693,-19.145443,-14.833728,3.205835,-8.346814,-21.585802,-12.469708,-32.982018,0.392932,8.672269,-11.421265,8.417785,-24.024782,0.000000,194.000000,4.000000,,,,0.000000,4.000000,4.000000,4.000000,4.000000,4.000000,4.000000,4.000000,4.000000,4.000000,4.000000,4.000000,4.000000,4.000000,4.000000,4.000000,4.000000,4.000000,4.000000,4.000000,4.000000,4.000000,4.000000,4.000000,4.000000,4.000000,4.000000,4.000000,4.000000,4.000000,4.000000,4.000000,4.000000,100.000000
1615774173.382732,10.000000,0.000000,9.700182,1.184265,-30.768215,9.662273,-23.338675,23.667522,-1.917389,18.588093,18.467789,3.990700,50.111626,13.760849,-3.427311,-4.369986,11.015368,24.608418,16.088243,6.300982,23.084648,-21.137535,-20.151937,-14.818894,3.202629,-6.800006,-21.564217,-11.431598,-32.436214,0.392539,9.176416,-5.255998,7.896546,-21.436655,0.000000,223.000000,4.000000,,,,0.000000,4.000000,4.000000,4.000000,4.000000,4.000000,4.000000,4.000000,4.000000,4.000000,4.000000,4.000000,4.000000,4.000000,4.000000,4.000000,4.000000,4.000000,4.000000,4.000000,4.000000,4.000000,4.000000,4.000000,4.000000,4.000000,4.000000,4.000000,4.000000,4.000000,4.000000,4.000000,4.000000,100.000000
1615774173.390381,11.000000,0.000000,9.690481,0.670260,-30.737446,14.780816,-22.289694,25.695137,-1.915472,19.082325,20.500603,5.525171,30.574333,14.259909,-3.423884,-4.365616,11.004354,25.096630,16.072157,5.781860,21.523102,-21.116396,-21.670248,-14.804075,3.199427,-7.306026,-22.055473,-12.445807,-32.403782,0.392146,11.218522,0.390284,9.427112,-17.312654,0.000000,188.000000,4.000000,,,,0.000000,4.000000,4.000000,4.000000,4.000000,4.000000,4.000000,4.000000,4.000000,4.000000,4.000000,4.000000,4.000000,4.000000,4.000000,4.000000,4.000000,4.000000,4.000000,4.000000,4.000000,4.000000,4.000000,4.000000,4.000000,4.000000,4.000000,4.000000,4.000000,4.000000,4.000000,4.000000,4.000000,100.000000
1615774173.398130,12.000000,0.000000,7.629509,1.695231,-31.219530,21.945522,-20.216122,27.207903,-1.913556,18.550423,25.095486,5.519646,29.518118,14.245648,-3.420460,-4.361251,10.993349,25.071533,16.056084,8.340181,23.040041,-21.095280,-19.084475,-14.789271,3.196227,-7.298721,-21.520597,-8.843617,-32.884197,0.391754,12.745766,0.389894,10.956146,-16.269701,0.000000,195.000000,4.000000,,,,0.000000,4.000000,4.000000,4.000000,4.000000,4.000000,4.000000,4.000000,4.000000,4.000000,4.000000,4.000000,4.000000,4.000000,4.000000,4.000000,4.000000,4.000000,4.000000,4.000000,4.000000,4.000000,4.000000,4.000000,4.000000,4.000000,4.000000,4.000000,4.000000,4.000000,4.000000,4.000000,4.000000,100.000000
1615774173.405780,13.000000,0.000000,5.570598,4.257638,-31.701130,16.795372,-19.683086,27.180695,-1.911643,14.429307,27.121674,12.180793,39.745010,14.231403,-3.417040,-4.356889,11.495176,25.046461,16.040028,15.511328,24.555462,-21.074184,-17.526930,-14.774482,3.193031,-7.291422,-19.447794,-1.655287,-32.338493,0.391363,12.220200,-0.636137,11.970831,-15.227789,0.000000,191.000000,4.000000,,,,0.000000,4.000000,4.000000,4.000000,4.000000,4.000000,4.000000,4.000000,4.000000,4.000000,4.000000,4.000000,4.000000,4.000000,4.000000,4.000000,4.000000,4.000000,4.000000,4.000000,4.000000,4.000000,4.000000,4.000000,4.000000,4.000000,4.000000,4.000000,4.000000,4.000000,4.000000,4.000000,4.000000,100.000000
1615774173.413529,14.000000,0.000000,6.077847,4.766201,-30.643787,10.624730,-19.663403,26.640694,-1.909731,11.337955,26.581730,15.245536,41.756546,14.217172,-2.900802,-4.352532,10.970860,25.021416,16.023989,18.572741,24.530907,-21.053110,-17.509401,-14.759707,3.189838,-7.284131,-17.889885,0.397650,-29.742050,0.390971,12.207979,0.390140,14.010142,-10.597177,0.000000,186.000000,4.000000,,,,0.000000,4.000000,4.000000,4.000000,4.000000,4.000000,4.000000,4.000000,4.000000,4.000000,4.000000,4.000000,4.000000,4.000000,4.000000,4.000000,4.000000,4.000000,4.000000,4.000000,4.000000,4.000000,4.000000,4.000000,4.000000,4.000000,4.000000,4.000000,4.000000,4.000000,4.000000,4.000000,4.000000,100.000000
1615774173.421178,15.000000,0.000000,6.071770,5.274255,-31.638786,15.229490,-20.156559,26.614054,-2.420642,13.377899,26.555149,8.050803,40.176331,14.202954,-4.436363,-4.861001,10.447069,24.996393,15.495143,16.502886,26.557657,-21.544878,-14.927791,-15.257768,2.673828,-7.276846,-17.359175,-0.628388,-28.173847,-0.122240,12.195771,0.389750,15.021772,-8.022477,0.000000,190.000000,4.000000,,,,0.000000,4.000000,4.000000,4.000000,4.000000,4.000000,4.000000,4.000000,4.000000,4.000000,4.000000,4.000000,4.000000,4.000000,4.000000,4.000000,4.000000,4.000000,4.000000,4.000000,4.000000,4.000000,4.000000,4.000000,4.000000,4.000000,4.000000,4.000000,4.000000,4.000000,4.000000,4.000000,4.000000,100.000000
1615774173.428927,16.000000,0.000000,5.552877,8.345904,-31.607147,18.804005,-19.623583,26.587439,-1.905401,14.902983,26.528593,3.940188,51.418205,16.240034,-3.406285,-4.343319,11.462263,24.971397,15.479649,18.537664,28.582382,-21.010513,-13.374401,-14.729690,2.671154,-7.269569,-17.854635,-0.627760,-30.196955,-0.122118,12.183576,-2.174742,16.032393,-9.040095,0.000000,168.000000,4.000000,,,,0.000000,4.000000,4.000000,4.000000,4.000000,4.000000,4.000000,4.000000,4.000000,4.000000,4.000000,4.000000,4.000000,4.000000,4.000000,4.000000,4.000000,4.000000,4.000000,4.000000,4.000000,4.000000,4.000000,4.000000,4.000000,4.000000,4.000000,4.000000,4.000000,4.000000,4.000000,4.000000,4.000000,100.000000
1615774173.436576,17.000000,0.000000,6.060145,8.850379,-22.857592,17.246738,-17.552677,26.560852,-1.903495,14.888080,26.502066,5.987530,64.187302,18.275076,0.186864,-3.826155,10.937981,24.946426,15.976989,18.006306,28.553801,-20.476683,-15.412309,-13.689319,3.694124,-7.262300,-19.375242,-2.678414,-34.269321,0.903645,12.171391,-3.711029,20.631744,-9.031055,0.000000,185.000000,4.000000,,,,0.000000,4.000000,4.000000,4.000000,4.000000,4.000000,4.000000,4.000000,4.000000,4.000000,4.000000,4.000000,4.000000,4.000000,4.000000,4.000000,4.000000,4.000000,4.000000,4.000000,4.000000,4.000000,4.000000,4.000000,4.000000,4.000000,4.000000,4.000000,4.000000,4.000000,4.000000,4.000000,4.000000,100.000000
1615774173.444325,18.000000,0.000000,6.054085,7.303067,-11.552682,21.332056,-16.509483,26.021471,-2.414412,14.873192,29.039665,4.955901,52.328239,18.256800,-2.377425,-4.847970,5.798837,24.408659,15.961012,10.808812,28.012426,-21.994667,-20.012281,-16.752552,2.664789,-7.255038,-21.407150,-4.727018,-36.286335,-0.635720,12.159220,-4.220139,23.175215,-8.509204,0.000000,209.000000,4.000000,,,,0.000000,4.000000,4.000000,4.000000,4.000000,4.000000,4.000000,4.000000,4.000000,4.000000,4.000000,4.000000,4.000000,4.000000,4.000000,4.000000,4.000000,4.000000,4.000000,4.000000,4.000000,4.000000,4.000000,4.000000,4.000000,4.000000,4.000000,4.000000,4.000000,4.000000,4.000000,4.000000,4.000000,100.000000
1615774173.451974,19.000000,0.000000,5.535210,11.911148,-7.438565,25.413288,-15.980153,27.021090,-1.899178,14.345498,30.036266,4.950945,29.711809,16.700083,-5.964791,-4.330302,4.254577,25.409891,15.432231,12.849286,27.984413,-20.947031,-23.069191,-18.787083,2.662124,-7.247783,-21.898563,-4.209470,-33.173126,0.903377,12.147061,-3.703098,23.152040,-9.013515,0.000000,188.000000,4.000000,,,,0.000000,4.000000,4.000000,4.000000,4.000000,4.000000,4.000000,4.000000,4.000000,4.000000,4.000000,4.000000,4.000000,4.000000,4.000000,4.000000,4.000000,4.000000,4.000000,4.000000,4.000000,4.000000,4.000000,4.000000,4.000000,4.000000,4.000000,4.000000,4.000000,4.000000,4.000000,4.000000,4.000000,100.000000
1615774173.459724,20.000000,0.000000,7.580957,18.565905,-6.405486,25.387875,-12.887250,31.609453,2.718106,17.408075,30.006231,8.535738,39.938507,19.247484,1.220661,0.289413,9.891348,27.948584,19.006542,23.092846,28.469250,-14.259418,-18.430738,-13.127270,9.326128,-7.240535,-20.851023,-4.205261,-29.550209,7.569140,12.134913,-3.699395,25.180170,-9.004502,0.000000,168.000000,4.000000,,,,0.000000,4.000000,4.000000,4.000000,4.000000,4.000000,4.000000,4.000000,4.000000,4.000000,4.000000,4.000000,4.000000,4.000000,4.000000,4.000000,4.000000,4.000000,4.000000,4.000000,4.000000,4.000000,4.000000,4.000000,4.000000,4.000000,4.000000,4.000000,4.000000,4.000000,4.000000,4.000000,4.000000,100.000000
1615774173.467373,21.000000,0.000000,9.624659,18.547338,-4.347798,24.849667,-11.848722,34.141949,5.792311,23.031693,29.976225,8.014381,67.078056,24.356441,7.886107,3.366047,11.932738,28.946276,23.602921,25.121037,28.440781,-15.270799,-18.412308,-9.011579,12.906546,-7.233294,-21.342993,-4.201056,-28.495018,12.176956,12.122779,-3.695695,26.693451,-8.995498,0.000000,186.000000,4.000000,,,,0.000000,4.000000,4.000000,4.000000,4.000000,4.000000,4.000000,4.000000,4.000000,4.000000,4.000000,4.000000,4.000000,4.000000,4.000000,4.000000,4.000000,4.000000,4.000000,4.000000,4.000000,4.000000,4.000000,4.000000,4.000000,4.000000,4.000000,4.000000,4.000000,4.000000,4.000000,4.000000,4.000000,100.000000
1615774173.475122,22.000000,0.000000,6.025290,15.451867,-4.856271,23.286356,-12.862514,33.594986,5.273698,20.444559,29.433428,9.032008,60.857132,22.793625,1.724375,0.798578,6.792601,28.404509,21.528034,17.916428,25.848236,-22.947836,-27.111843,-13.617951,6.226973,-6.713241,-24.911394,-4.196855,-28.466522,9.600677,12.110656,-4.204820,26.153936,-8.986502,0.000000,200.000000,4.000000,,,,0.000000,4.000000,4.000000,4.000000,4.000000,4.000000,4.000000,4.000000,4.000000,4.000000,4.000000,4.000000,4.000000,4.000000,4.000000,4.000000,4.000000,4.000000,4.000000,4.000000,4.000000,4.000000,4.000000,4.000000,4.000000,4.000000,4.000000,4.000000,4.000000,4.000000,4.000000,4.000000,4.000000,100.000000
1615774173.482771,23.000000,0.000000,1.916700,15.436416,-4.851415,22.237429,-10.798369,33.561390,5.268425,11.706165,30.429636,19.279387,39.770634,17.642626,-4.431196,-1.253502,3.196064,28.376104,15.865481,16.360050,24.796747,-21.386427,-26.571911,-15.655616,3.143823,-7.732168,-26.424944,-4.192657,-28.438057,7.539793,12.098546,-2.662154,26.127783,-8.977515,0.000000,172.000000,4.000000,,,,0.000000,4.000000,4.000000,4.000000,4.000000,4.000000,4.000000,4.000000,4.000000,4.000000,4.000000,4.000000,4.000000,4.000000,4.000000,4.000000,4.000000,4.000000,4.000000,4.000000,4.000000,4.000000,4.000000,4.000000,4.000000,4.000000,4.000000,4.000000,4.000000,4.000000,4.000000,4.000000,4.000000,100.000000
1615774173.490620,24.000000,0.000000,3.966066,15.933800,-4.846563,25.804934,-8.736289,34.040649,5.775977,10.668818,32.963306,19.772928,49.987274,17.112162,-4.426764,-0.739428,3.705689,28.347729,15.336795,18.394972,27.336054,-13.672732,-15.776109,-12.050216,6.730422,-6.698795,-25.372877,-4.188465,-28.409618,7.532254,12.086447,-0.608210,26.101656,-8.968538,0.000000,188.000000,4.000000,,,,0.000000,4.000000,4.000000,4.000000,4.000000,4.000000,4.000000,4.000000,4.000000,4.000000,4.000000,4.000000,4.000000,4.000000,4.000000,4.000000,4.000000,4.000000,4.000000,4.000000,4.000000,4.000000,4.000000,4.000000,4.000000,4.000000,4.000000,4.000000,4.000000,4.000000,4.000000,4.000000,4.000000,100.000000
1615774173.498369,25.000000,0.000000,6.526202,15.405046,-6.892999,28.856052,-12.830117,32.980968,5.257380,18.863277,33.955986,3.855719,65.834724,18.120691,-2.883876,-0.738689,3.701983,28.319382,15.834279,17.350935,26.283077,-12.633419,-16.785973,-12.038166,2.621128,-6.692096,-24.834684,-4.184277,-28.381208,7.524722,12.074361,-1.633242,26.075554,-8.959569,0.000000,204.000000,4.000000,,,,0.000000,4.000000,4.000000,4.000000,4.000000,4.000000,4.000000,4.000000,4.000000,4.000000,4.000000,4.000000,4.000000,4.000000,4.000000,4.000000,4.000000,4.000000,4.000000,4.000000,4.000000,4.000000,4.000000,4.000000,4.000000,4.000000,4.000000,4.000000,4.000000,4.000000,4.000000,4.000000,4.000000,100.000000
1615774173.506218,26.000000,0.000000,6.006855,15.389640,-8.424567,28.314377,-15.894210,33.460808,5.252123,22.946980,33.409210,8.980068,47.307350,17.589750,-3.393813,-0.737950,3.698281,28.291061,15.818445,17.333584,22.154228,-13.646426,-24.461494,-14.590230,-4.560980,-10.275147,-25.322670,-4.180092,-28.352827,7.517197,12.062286,-3.682891,26.562300,-8.950610,0.000000,201.000000,4.000000,,,,0.000000,4.000000,4.000000,4.000000,4.000000,4.000000,4.000000,4.000000,4.000000,4.000000,4.000000,4.000000,4.000000,4.000000,4.000000,4.000000,4.000000,4.000000,4.000000,4.000000,4.000000,4.000000,4.000000,4.000000,4.000000,4.000000,4.000000,4.000000,4.000000,4.000000,4.000000,4.000000,4.000000,100.000000
1615774173.513967,27.000000,0.000000,5.488028,15.374250,-8.416142,28.286062,-15.365495,33.940166,5.246871,21.385571,33.888622,29.483910,22.131836,17.572161,-11.082726,-0.224392,3.694583,28.775591,15.802627,17.829071,20.593613,-13.632780,-23.411392,-14.575640,-5.069240,-13.854616,-24.271706,-4.175912,-28.324474,5.971218,12.050224,-3.166388,24.997274,-8.941659,0.000000,179.000000,4.000000,,,,0.000000,4.000000,4.000000,4.000000,4.000000,4.000000,4.000000,4.000000,4.000000,4.000000,4.000000,4.000000,4.000000,4.000000,4.000000,4.000000,4.000000,4.000000,4.000000,4.000000,4.000000,4.000000,4.000000,4.000000,4.000000,4.000000,4.000000,4.000000,4.000000,4.000000,4.000000,4.000000,4.000000,100.000000
1615774173.521816,28.000000,0.000000,5.995361,15.358876,-11.484650,28.257776,-19.452694,32.367764,5.241624,21.877005,33.341911,19.710835,32.878937,17.554588,-14.661387,-1.762629,3.178068,28.233995,15.274003,16.785601,19.034557,-16.183250,-21.336699,-15.586705,-4.551350,-11.789479,-25.785896,-4.171736,-28.296150,2.888324,12.038174,-3.676042,22.920996,-8.932717,0.000000,168.000000,4.000000,,,,0.000000,4.000000,4.000000,4.000000,4.000000,4.000000,4.000000,4.000000,4.000000,4.000000,4.000000,4.000000,4.000000,4.000000,4.000000,4.000000,4.000000,4.000000,4.000000,4.000000,4.000000,4.000000,4.000000,4.000000,4.000000,4.000000,4.000000,4.000000,4.000000,4.000000,4.000000,4.000000,4.000000,100.000000
1615774173.529565,29.000000,0.000000,5.989366,15.343517,-13.524446,28.229517,-17.894779,34.386681,5.236382,22.367949,32.795750,1.742406,60.025543,17.537033,-1.826214,-0.735225,2.662069,27.180120,15.258729,16.768816,20.553986,-15.141425,-21.828182,-13.007016,-3.008337,-10.239228,-25.247290,-4.167564,-28.267855,3.911077,12.026135,-4.698007,21.872433,-8.923785,0.000000,194.000000,4.000000,,,,0.000000,4.000000,4.000000,4.000000,4.000000,4.000000,4.000000,4.000000,4.000000,4.000000,4.000000,4.000000,4.000000,4.000000,4.000000,4.000000,4.000000,4.000000,4.000000,4.000000,4.000000,4.000000,4.000000,4.000000,4.000000,4.000000,4.000000,4.000000,4.000000,4.000000,4.000000,4.000000,4.000000,100.000000
1615774173.537414,30.000000,0.000000,5.983376,15.328174,-11.459641,29.226929,-8.646115,39.993317,5.231146,21.832760,33.788593,10.971433,59.965519,18.032316,7.919202,3.368074,4.197869,28.691401,19.346035,18.290508,27.712919,-13.075002,-20.780714,-8.378625,1.097235,-11.767451,-20.606657,-3.650576,-27.726767,9.035371,12.014110,-2.642027,22.876202,-8.402040,0.000000,196.000000,4.000000,,,,0.000000,4.000000,4.000000,4.000000,4.000000,4.000000,4.000000,4.000000,4.000000,4.000000,4.000000,4.000000,4.000000,4.000000,4.000000,4.000000,4.000000,4.000000,4.000000,4.000000,4.000000,4.000000,4.000000,4.000000,4.000000,4.000000,4.000000,4.000000,4.000000,4.000000,4.000000,4.000000,4.000000,100.000000
1615774173.545163,31.000000,0.000000,5.977393,13.261564,-15.550745,25.607958,-12.740033,37.389221,5.225915,22.323748,31.190702,14.550205,46.572220,16.475822,0.218975,-0.737858,3.168030,27.637070,17.275406,13.144013,22.044180,-17.677311,-26.913778,-14.011271,3.147420,-10.217222,-23.150154,-5.185387,-28.724680,10.564796,11.489275,-6.229128,21.827684,-9.419279,0.000000,160.000000,4.000000,,,,0.000000,4.000000,4.000000,4.000000,4.000000,4.000000,4.000000,4.000000,4.000000,4.000000,4.000000,4.000000,4.000000,4.000000,4.000000,4.000000,4.000000,4.000000,4.000000,4.000000,4.000000,4.000000,4.000000,4.000000,4.000000,4.000000,4.000000,4.000000,4.000000,4.000000,4.000000,4.000000,4.000000,100.000000
1615774173.553012,32.000000,0.000000,5.458595,11.197021,-22.714682,19.428505,-25.547806,29.659525,5.220689,20.250141,23.467205,1.715142,53.705135,14.408065,-5.422269,-10.993530,-1.450523,21.455585,9.565824,5.951382,9.714443,-23.813480,-35.604813,-21.176748,3.657093,-11.745466,-29.793671,-8.257125,-31.260057,7.990129,9.426503,-16.479309,19.754576,-13.512424,8064.000000,0.000000,4.000000,,,,0.000000,4.000000,4.000000,4.000000,4.000000,4.000000,4.000000,4.000000,4.000000,4.000000,4.000000,4.000000,4.000000,4.000000,4.000000,4.000000,4.000000,4.000000,4.000000,4.000000,4.000000,4.000000,4.000000,4.000000,4.000000,4.000000,4.000000,4.000000,4.000000,4.000000,4.000000,4.000000,4.000000,100.000000
1615774173.560761,33.000000,0.000000,6.991598,11.698644,-17.563761,18.896255,-21.932514,30.655506,5.728289,15.101686,22.418097,11.457017,64.933479,13.880836,-1.314283,-8.418434,3.679133,23.998232,11.607539,11.586456,18.935497,-25.328129,-26.338440,-12.950442,8.268821,-16.861925,-24.122850,-6.710406,-32.254440,7.469319,8.391436,-14.924369,18.709179,-16.063015,8064.000000,0.000000,4.000000,,,,0.000000,4.000000,4.000000,4.000000,4.000000,4.000000,4.000000,4.000000,4.000000,4.000000,4.000000,4.000000,4.000000,4.000000,4.000000,4.000000,4.000000,4.000000,4.000000,4.000000,4.000000,4.000000,4.000000,4.000000,4.000000,4.000000,4.000000,4.000000,4.000000,4.000000,4.000000,4.000000,4.000000,100.000000
1615774173.568610,34.000000,0.000000,9.548709,12.199765,-7.802608,20.928642,-11.141352,34.214596,5.722560,13.548123,30.087986,27.855816,54.612137,14.379776,1.251134,5.948958,18.547249,35.769108,21.339521,23.369741,37.890923,-24.277159,-10.927486,-5.245184,11.337475,-13.255321,-13.842318,-3.626773,-31.709364,7.974670,8.383044,-5.165854,18.690470,-16.046951,8064.000000,0.000000,4.000000,,,,0.000000,4.000000,4.000000,4.000000,4.000000,4.000000,4.000000,4.000000,4.000000,4.000000,4.000000,4.000000,4.000000,4.000000,4.000000,4.000000,4.000000,4.000000,4.000000,4.000000,4.000000,4.000000,4.000000,4.000000,4.000000,4.000000,4.000000,4.000000,4.000000,4.000000,4.000000,4.000000,4.000000,100.000000
1615774173.576359,35.000000,0.000000,9.539160,11.161924,-10.871729,20.907713,-12.155851,32.641918,4.691197,16.098679,34.160461,19.110012,41.737011,12.826935,-0.288579,11.584035,21.605625,40.861542,21.831003,25.910475,39.904312,-19.124678,-10.403738,-7.804042,10.300496,-4.524116,-13.315655,-4.648787,-32.190475,6.941054,8.374661,-3.622227,18.671780,-17.569366,8064.000000,0.000000,4.000000,,,,0.000000,4.000000,4.000000,4.000000,4.000000,4.000000,4.000000,4.000000,4.000000,4.000000,4.000000,4.000000,4.000000,4.000000,4.000000,4.000000,4.000000,4.000000,4.000000,4.000000,4.000000,4.000000,4.000000,4.000000,4.000000,4.000000,4.000000,4.000000,4.000000,4.000000,4.000000,4.000000,4.000000,100.000000
1615774173.584208,36.000000,0.000000,9.529621,11.663584,-16.501883,21.399626,-16.246260,33.122097,5.712147,18.133862,33.100662,8.321671,45.797840,14.352570,-0.288290,3.880143,13.891711,36.718117,19.245070,24.346102,38.325947,-13.977347,-14.495898,-6.257776,10.290195,-2.981131,-13.302340,-3.618497,-31.645464,7.959754,8.879107,-6.695528,19.165928,-20.115900,8064.000000,0.000000,4.000000,,,,0.000000,4.000000,4.000000,4.000000,4.000000,4.000000,4.000000,4.000000,4.000000,4.000000,4.000000,4.000000,4.000000,4.000000,4.000000,4.000000,4.000000,4.000000,4.000000,4.000000,4.000000,4.000000,4.000000,4.000000,4.000000,4.000000,4.000000,4.000000,4.000000,4.000000,4.000000,4.000000,4.000000,100.000000
1615774173.591957,37.000000,0.000000,10.032911,12.164741,-15.459740,18.814123,-15.204372,33.601795,5.706435,18.115728,31.529099,8.313349,50.367424,14.338217,0.737639,-3.816044,10.800897,32.578835,18.713003,23.296116,37.774799,-16.014652,-13.968582,-8.302800,10.792727,-2.465329,-15.340319,-3.102058,-31.100998,6.926154,6.306126,-7.714474,18.121122,-20.095783,8064.000000,0.000000,4.000000,,,,0.000000,4.000000,4.000000,4.000000,4.000000,4.000000,4.000000,4.000000,4.000000,4.000000,4.000000,4.000000,4.000000,4.000000,4.000000,4.000000,4.000000,4.000000,4.000000,4.000000,4.000000,4.000000,4.000000,4.000000,4.000000,4.000000,4.000000,4.000000,4.000000,4.000000,4.000000,4.000000,4.000000,100.000000
1615774173.599607,38.000000,0.000000,7.458776,9.075652,-17.495562,9.564540,-18.778912,24.850245,-0.453118,18.610432,27.395006,0.099908,39.547829,6.631571,0.736902,-6.376331,6.174711,28.956512,9.976342,19.170256,28.506256,-20.614021,-17.031536,-20.089369,8.730651,-4.514146,-26.607029,-10.791264,-34.659641,0.765381,2.197255,-11.809323,14.000437,-19.562866,8064.000000,0.000000,4.000000,,,,0.000000,4.000000,4.000000,4.000000,4.000000,4.000000,4.000000,4.000000,4.000000,4.000000,4.000000,4.000000,4.000000,4.000000,4.000000,4.000000,4.000000,4.000000,4.000000,4.000000,4.000000,4.000000,4.000000,4.000000,4.000000,4.000000,4.000000,4.000000,4.000000,4.000000,4.000000,4.000000,4.000000,100.000000
1615774173.607356,39.000000,0.000000,2.323112,4.964013,-22.606272,7.503694,-22.862696,19.184368,-6.093690,17.566181,22.239405,-5.028398,32.328793,4.060837,0.223344,-7.908416,-0.498131,27.901915,5.863801,16.074162,20.272621,-20.593409,-20.604248,-25.197485,7.183459,-15.791683,-30.682987,-17.959959,-34.624981,-2.825128,0.656597,-14.361616,10.909513,-19.543304,8064.000000,0.000000,4.000000,,,,0.000000,4.000000,4.000000,4.000000,4.000000,4.000000,4.000000,4.000000,4.000000,4.000000,4.000000,4.000000,4.000000,4.000000,4.000000,4.000000,4.000000,4.000000,4.000000,4.000000,4.000000,4.000000,4.000000,4.000000,4.000000,4.000000,4.000000,4.000000,4.000000,4.000000,4.000000,4.000000,4.000000,100.000000
1615774173.615005,40.000000,0.000000,2.320789,3.933408,-24.122128,13.137216,-21.301373,23.267748,-6.600418,18.574255,21.704346,-0.407984,48.706718,15.338827,2.274403,-8.413328,5.143393,30.438116,14.575887,19.135010,22.303631,-19.547173,-17.506721,-19.531261,6.663455,-20.904097,-22.959997,-14.352257,-29.462151,2.305902,1.168761,-11.783153,11.924245,-19.010941,8064.000000,0.000000,4.000000,,,,0.000000,4.000000,4.000000,4.000000,4.000000,4.000000,4.000000,4.000000,4.000000,4.000000,4.000000,4.000000,4.000000,4.000000,4.000000,4.000000,4.000000,4.000000,4.000000,4.000000,4.000000,4.000000,4.000000,4.000000,4.000000,4.000000,4.000000,4.000000,4.000000,4.000000,4.000000,4.000000,4.000000,100.000000
1615774173.622754,41.000000,0.000000,5.908212,4.442295,-23.585184,12.611258,-19.228788,24.782942,-5.568176,21.119783,23.733923,-0.920397,67.632370,24.041437,5.349051,-5.840812,14.369020,31.946138,20.202335,20.654337,24.332609,-18.501986,-12.873830,-16.947628,6.656792,-14.216525,-19.347292,-10.235340,-29.432690,5.380519,1.167592,-10.745728,10.886680,-20.017570,8064.000000,0.000000,4.000000,,,,0.000000,4.000000,4.000000,4.000000,4.000000,4.000000,4.000000,4.000000,4.000000,4.000000,4.000000,4.000000,4.000000,4.000000,4.000000,4.000000,4.000000,4.000000,4.000000,4.000000,4.000000,4.000000,4.000000,4.000000,4.000000,4.000000,4.000000,4.000000,4.000000,4.000000,4.000000,4.000000,4.000000,100.000000
1615774173.630403,42.000000,0.000000,5.389483,4.437852,-23.561598,9.008903,-19.209560,22.706877,-6.075428,18.021742,25.761471,8.824113,53.718586,17.863550,1.753959,-4.296510,12.303368,30.375731,19.669313,19.608042,23.282637,-15.919380,-16.450701,-18.469143,8.188597,-10.099745,-21.379227,-13.302028,-34.531460,-1.804348,1.166424,-10.734982,5.747588,-21.536015,8064.000000,0.000000,4.000000,,,,0.000000,4.000000,4.000000,4.000000,4.000000,4.000000,4.000000,4.000000,4.000000,4.000000,4.000000,4.000000,4.000000,4.000000,4.000000,4.000000,4.000000,4.000000,4.000000,4.000000,4.000000,4.000000,4.000000,4.000000,4.000000,4.000000,4.000000,4.000000,4.000000,4.000000,4.000000,4.000000,4.000000,100.000000
1615774173.638152,43.000000,0.000000,2.819991,4.946235,-22.512396,10.025535,-18.677530,24.735453,-6.069353,8.772950,25.735710,27.276827,23.408457,8.614917,-9.529846,-3.266572,7.162859,28.294073,18.624002,17.537151,22.233713,-17.954742,-26.177839,-21.527596,4.590664,-10.089645,-21.870668,-15.852828,-35.522572,-7.443569,1.165258,-10.724247,3.690558,-23.052940,8064.000000,0.000000,4.000000,,,,0.000000,4.000000,4.000000,4.000000,4.000000,4.000000,4.000000,4.000000,4.000000,4.000000,4.000000,4.000000,4.000000,4.000000,4.000000,4.000000,4.000000,4.000000,4.000000,4.000000,4.000000,4.000000,4.000000,4.000000,4.000000,4.000000,4.000000,4.000000,4.000000,4.000000,4.000000,4.000000,4.000000,100.000000
1615774173.645801,44.000000,0.000000,2.304351,3.402827,-25.053986,8.989868,-19.684494,24.197897,-6.063283,5.174434,26.222795,17.505960,20.820946,6.042200,-15.674163,-3.263306,6.642876,27.752958,10.400250,11.878589,20.673018,-22.552174,-32.305508,-25.095812,-5.157516,-11.105197,-24.925720,-14.298513,-34.461407,-7.436126,1.164092,-12.764805,4.199688,-25.593990,8064.000000,0.000000,4.000000,,,,0.000000,4.000000,4.000000,4.000000,4.000000,4.000000,4.000000,4.000000,4.000000,4.000000,4.000000,4.000000,4.000000,4.000000,4.000000,4.000000,4.000000,4.000000,4.000000,4.000000,4.000000,4.000000,4.000000,4.000000,4.000000,4.000000,4.000000,4.000000,4.000000,4.000000,4.000000,4.000000,4.000000,100.000000
1615774173.653550,45.000000,0.000000,1.789226,1.348143,-31.182779,5.903955,-23.767374,22.122417,-5.031579,9.784644,25.683752,-1.998724,40.800125,6.548978,-13.094386,-5.311325,5.097772,28.238026,1.671902,6.738505,19.626703,-24.580902,-32.273201,-25.070717,-8.742103,-16.735117,-28.490540,-14.797036,-34.939766,-6.403049,1.162928,-13.777681,3.169847,-30.183781,8064.000000,0.000000,4.000000,,,,0.000000,4.000000,4.000000,4.000000,4.000000,4.000000,4.000000,4.000000,4.000000,4.000000,4.000000,4.000000,4.000000,4.000000,4.000000,4.000000,4.000000,4.000000,4.000000,4.000000,4.000000,4.000000,4.000000,4.000000,4.000000,4.000000,4.000000,4.000000,4.000000,4.000000,4.000000,4.000000,4.000000,100.000000
