title:36, start timestamp:1615774326.339737, stop timestamp:1615774372.159552, headset type:EPOCFLEX, headset serial:F00001ED, headset firmware:f12, subject name:s19, channels:75, sampling rate:128, samples:5914      , version:2.0
Timestamp,EEG.Counter,EEG.Interpolated,EEG.Cz,EEG.Fz,EEG.Fp1,EEG.AF3,EEG.F7,EEG.F3,EEG.FC1,EEG.C3,EEG.FC5,EEG.T7,EEG.CP5,EEG.CP1,EEG.P3,EEG.P7,EEG.PO3,EEG.O1,EEG.Pz,EEG.Oz,EEG.O2,EEG.PO4,EEG.P8,EEG.P4,EEG.CP2,EEG.CP6,EEG.T8,EEG.FC6,EEG.C4,EEG.FC2,EEG.F4,EEG.F8,EEG.AF4,EEG.Fp2,EEG.HighBitFlex,EEG.RawCq,EEG.Battery,MarkerIndex,MarkerType,MarkerValueInt,EEG.MarkerHardware,CQ.Cz,CQ.Fz,CQ.Fp1,CQ.AF3,CQ.F7,CQ.F3,CQ.FC1,CQ.C3,CQ.FC5,CQ.T7,CQ.CP5,CQ.CP1,CQ.P3,CQ.P7,CQ.PO3,CQ.O1,CQ.Pz,CQ.Oz,CQ.O2,CQ.PO4,CQ.P8,CQ.P4,CQ.CP2,CQ.CP6,CQ.T8,CQ.FC6,CQ.C4,CQ.FC2,CQ.F4,CQ.F8,CQ.AF4,CQ.Fp2,CQ.Overall
1615774326.339737,37.000000,0.000000,-2.482369,-0.805453,-12.243998,-10.089726,-2.950192,-0.470898,4.258056,-16.352787,-2.296530,-12.022842,-14.953200,-12.517842,-14.548267,-18.120686,-18.868446,27.652323,-19.545250,-2.243112,0.993077,-55.347336,-55.759827,-19.033232,-7.021703,-35.654285,-49.319057,21.777208,-79.002327,-1.497598,-35.973106,-41.885582,-2.390604,-29.005838,8064.000000,0.000000,4.000000,,,,0.000000,4.000000,4.000000,4.000000,4.000000,4.000000,4.000000,4.000000,4.000000,4.000000,4.000000,4.000000,4.000000,4.000000,4.000000,4.000000,4.000000,4.000000,4.000000,4.000000,4.000000,4.000000,4.000000,4.000000,4.000000,4.000000,4.000000,4.000000,4.000000,4.000000,4.000000,4.000000,4.000000,100.000000
1615774326.347387,38.000000,0.000000,-1.967066,1.759455,-3.513805,-7.515534,-2.947242,-0.983248,4.766618,-14.285151,2.321151,-15.600563,-17.502350,-11.479683,-16.072182,-10.923078,-17.823936,31.214415,-17.474422,1.348875,4.069007,-54.266350,-57.242531,-19.014198,-6.501860,-35.618629,-39.013329,34.063126,-77.384865,-1.496101,-33.885853,-33.125748,4.791274,-27.438372,8064.000000,0.000000,4.000000,,,,0.000000,4.000000,4.000000,4.000000,4.000000,4.000000,4.000000,4.000000,4.000000,4.000000,4.000000,4.000000,4.000000,4.000000,4.000000,4.000000,4.000000,4.000000,4.000000,4.000000,4.000000,4.000000,4.000000,4.000000,4.000000,4.000000,4.000000,4.000000,4.000000,4.000000,4.000000,4.000000,4.000000,100.000000
1615774326.355136,39.000000,0.000000,-1.965099,3.296157,1.105093,-5.456736,-2.944294,-0.982265,4.249031,-6.578559,5.395752,-32.508041,7.643358,-10.955383,-15.543288,-15.527539,-16.780472,34.260124,-18.482590,1.860347,-1.063267,-57.801826,-66.416054,-18.995184,-6.495358,-35.583012,-47.179443,54.541882,-76.794655,-1.494604,-32.313503,-40.784927,7.863405,-27.923754,8064.000000,0.000000,4.000000,,,,0.000000,4.000000,4.000000,4.000000,4.000000,4.000000,4.000000,4.000000,4.000000,4.000000,4.000000,4.000000,4.000000,4.000000,4.000000,4.000000,4.000000,4.000000,4.000000,4.000000,4.000000,4.000000,4.000000,4.000000,4.000000,4.000000,4.000000,4.000000,4.000000,4.000000,4.000000,4.000000,4.000000,100.000000
1615774326.362785,40.000000,0.000000,-1.963134,2.780041,0.591168,-6.476921,-2.941350,-0.468462,4.757603,-16.828390,-13.071181,-24.270403,12.763920,-11.970069,-15.527745,-19.101755,-17.276512,38.841248,-18.464108,2.884127,3.040361,-57.744026,-60.708614,-18.976189,-6.488863,-35.547428,-50.722008,38.077084,-77.230682,-1.493110,-32.281189,-39.718502,5.804260,-23.280445,8064.000000,0.000000,4.000000,,,,0.000000,4.000000,4.000000,4.000000,4.000000,4.000000,4.000000,4.000000,4.000000,4.000000,4.000000,4.000000,4.000000,4.000000,4.000000,4.000000,4.000000,4.000000,4.000000,4.000000,4.000000,4.000000,4.000000,4.000000,4.000000,4.000000,4.000000,4.000000,4.000000,4.000000,4.000000,4.000000,4.000000,100.000000
1615774326.370634,41.000000,0.000000,-1.961171,2.777260,2.129038,-6.470444,-2.938409,-0.980814,3.214383,-32.196178,-24.852982,-2.707672,-1.607819,-11.958098,-16.537859,-19.595474,-16.746416,37.776764,-17.420002,7.496628,15.345013,-52.045254,-52.955597,-18.957212,-6.482374,-35.511883,-44.517441,6.756955,-79.717552,-1.491617,-32.761730,-24.806990,6.311276,-16.590498,8064.000000,0.000000,4.000000,,,,0.000000,4.000000,4.000000,4.000000,4.000000,4.000000,4.000000,4.000000,4.000000,4.000000,4.000000,4.000000,4.000000,4.000000,4.000000,4.000000,4.000000,4.000000,4.000000,4.000000,4.000000,4.000000,4.000000,4.000000,4.000000,4.000000,4.000000,4.000000,4.000000,4.000000,4.000000,4.000000,4.000000,100.000000
1615774326.378383,42.000000,0.000000,-1.959210,2.774483,4.691011,-5.951153,-2.935470,-0.979833,1.159887,-21.907572,-3.802488,-15.012656,5.573277,-11.946140,-15.495679,-24.704084,-21.857874,25.431295,-18.941044,6.976311,13.278385,-54.044491,-61.620590,-18.938255,-6.475892,-35.476368,-48.575485,24.186094,-79.637840,-1.490125,-32.216148,-34.012951,6.817785,-15.548266,8064.000000,0.000000,4.000000,,,,0.000000,4.000000,4.000000,4.000000,4.000000,4.000000,4.000000,4.000000,4.000000,4.000000,4.000000,4.000000,4.000000,4.000000,4.000000,4.000000,4.000000,4.000000,4.000000,4.000000,4.000000,4.000000,4.000000,4.000000,4.000000,4.000000,4.000000,4.000000,4.000000,4.000000,4.000000,4.000000,4.000000,100.000000
1615774326.386232,43.000000,0.000000,-1.957251,2.771708,4.686320,-6.970842,-3.445355,2.610890,0.133086,0.165618,15.688494,-30.382259,12.747190,-10.395733,-13.428902,-19.551174,-17.220633,31.046890,-17.383640,5.430873,4.034338,-62.708397,-68.738457,-18.919317,-6.469416,-35.440891,-53.142296,47.751652,-76.994095,-1.488635,-32.183933,-52.953297,6.298147,-17.071180,8064.000000,0.000000,4.000000,,,,0.000000,4.000000,4.000000,4.000000,4.000000,4.000000,4.000000,4.000000,4.000000,4.000000,4.000000,4.000000,4.000000,4.000000,4.000000,4.000000,4.000000,4.000000,4.000000,4.000000,4.000000,4.000000,4.000000,4.000000,4.000000,4.000000,4.000000,4.000000,4.000000,4.000000,4.000000,4.000000,4.000000,100.000000
1615774326.393981,44.000000,0.000000,-1.955294,2.768937,4.168814,-5.425410,-2.416269,6.710844,0.645773,-0.347368,10.031779,-11.377518,-1.111711,-7.821235,-12.389832,-5.685470,-0.280334,51.015842,-10.699591,5.425442,2.491842,-63.158508,-63.541515,-18.900398,-6.975767,-35.405453,-48.473766,17.960312,-80.506844,-1.487146,-34.203030,-39.567009,6.291849,-16.541288,8064.000000,0.000000,4.000000,,,,0.000000,4.000000,4.000000,4.000000,4.000000,4.000000,4.000000,4.000000,4.000000,4.000000,4.000000,4.000000,4.000000,4.000000,4.000000,4.000000,4.000000,4.000000,4.000000,4.000000,4.000000,4.000000,4.000000,4.000000,4.000000,4.000000,4.000000,4.000000,4.000000,4.000000,4.000000,4.000000,4.000000,100.000000
1615774326.401830,45.000000,0.000000,-1.953338,2.766168,4.164645,-2.855882,-3.439494,7.216953,0.645128,-9.577789,11.047389,0.428732,0.427863,-7.813414,-10.838981,-1.577220,3.822510,55.580212,-8.124788,4.394375,3.002171,-58.479965,-59.888229,-18.881496,-6.455971,-35.370045,-44.835552,-1.544829,-84.016083,-1.485659,-36.732929,-24.655649,6.285557,-16.011927,8064.000000,0.000000,4.000000,,,,0.000000,4.000000,4.000000,4.000000,4.000000,4.000000,4.000000,4.000000,4.000000,4.000000,4.000000,4.000000,4.000000,4.000000,4.000000,4.000000,4.000000,4.000000,4.000000,4.000000,4.000000,4.000000,4.000000,4.000000,4.000000,4.000000,4.000000,4.000000,4.000000,4.000000,4.000000,4.000000,4.000000,100.000000
1615774326.409579,46.000000,0.000000,-1.951385,2.763402,4.160480,-2.853026,-6.512978,6.696916,0.644483,-1.363083,21.805573,-10.853748,16.837690,-6.779959,-5.187116,-4.139745,-0.796697,61.678478,-9.655125,8.492545,5.563271,-58.934307,-59.828342,-18.862616,-5.936694,-35.334675,-46.329178,26.661844,-79.316681,-1.484174,-36.183376,-39.502789,6.279272,-16.508734,8064.000000,0.000000,4.000000,,,,0.000000,4.000000,4.000000,4.000000,4.000000,4.000000,4.000000,4.000000,4.000000,4.000000,4.000000,4.000000,4.000000,4.000000,4.000000,4.000000,4.000000,4.000000,4.000000,4.000000,4.000000,4.000000,4.000000,4.000000,4.000000,4.000000,4.000000,4.000000,4.000000,4.000000,4.000000,4.000000,4.000000,100.000000
1615774326.417428,47.000000,0.000000,-1.949433,2.760638,4.156320,-1.824532,-5.480824,6.690219,1.156659,4.279305,18.706844,-9.817254,14.769571,-4.721897,-3.130646,-3.109965,6.383587,77.001411,-8.107008,15.150720,14.275657,-58.362549,-58.230053,-18.843754,-6.956398,-35.812160,-45.257206,36.378773,-76.160446,-1.482689,-36.147194,-45.104309,6.272992,-15.979405,8064.000000,0.000000,4.000000,,,,0.000000,4.000000,4.000000,4.000000,4.000000,4.000000,4.000000,4.000000,4.000000,4.000000,4.000000,4.000000,4.000000,4.000000,4.000000,4.000000,4.000000,4.000000,4.000000,4.000000,4.000000,4.000000,4.000000,4.000000,4.000000,4.000000,4.000000,4.000000,4.000000,4.000000,4.000000,4.000000,4.000000,100.000000
1615774326.425177,48.000000,0.000000,-1.434664,2.757878,4.664984,3.305497,0.165683,7.196349,0.642681,-3.930102,11.508650,-3.653590,13.216340,-3.691534,-5.178798,-2.081213,6.890024,68.719284,-6.047619,11.545825,19.389585,-53.688805,-56.120541,-18.824909,-6.436622,-35.263531,-42.135025,18.393675,-76.597099,-1.481207,-36.623867,-30.187412,6.266719,-16.476246,8064.000000,0.000000,4.000000,,,,0.000000,4.000000,4.000000,4.000000,4.000000,4.000000,4.000000,4.000000,4.000000,4.000000,4.000000,4.000000,4.000000,4.000000,4.000000,4.000000,4.000000,4.000000,4.000000,4.000000,4.000000,4.000000,4.000000,4.000000,4.000000,4.000000,4.000000,4.000000,4.000000,4.000000,4.000000,4.000000,4.000000,100.000000
1615774326.433026,49.000000,0.000000,1.130874,2.755120,4.660319,5.866294,1.703979,6.676332,1.154859,-1.362070,15.599705,-15.444809,27.562098,-3.175022,-3.635158,-3.617594,-4.398917,47.624924,-7.067213,5.893253,18.344555,-50.045372,-51.961853,-18.806084,1.774943,-33.176983,-41.580070,25.041948,-71.905121,-0.966905,-35.048779,-26.567480,6.260452,-16.459770,8064.000000,0.000000,4.000000,,,,0.000000,4.000000,4.000000,4.000000,4.000000,4.000000,4.000000,4.000000,4.000000,4.000000,4.000000,4.000000,4.000000,4.000000,4.000000,4.000000,4.000000,4.000000,4.000000,4.000000,4.000000,4.000000,4.000000,4.000000,4.000000,4.000000,4.000000,4.000000,4.000000,4.000000,4.000000,4.000000,4.000000,100.000000
1615774326.440775,50.000000,0.000000,2.155384,2.752365,4.142838,5.347608,0.163813,6.669656,1.153704,4.793139,18.661028,-17.993465,23.944792,-4.710309,-4.144343,-3.613976,-3.881698,47.064480,-6.547325,7.938643,17.813391,-50.508144,-49.345791,-18.787279,5.875732,-31.092525,-38.461567,43.991264,-67.730652,1.085344,-32.449627,-27.566553,6.767013,-15.930490,8064.000000,0.000000,4.000000,,,,0.000000,4.000000,4.000000,4.000000,4.000000,4.000000,4.000000,4.000000,4.000000,4.000000,4.000000,4.000000,4.000000,4.000000,4.000000,4.000000,4.000000,4.000000,4.000000,4.000000,4.000000,4.000000,4.000000,4.000000,4.000000,4.000000,4.000000,4.000000,4.000000,4.000000,4.000000,4.000000,4.000000,100.000000
1615774326.448624,51.000000,0.000000,0.614767,2.749612,5.164336,5.342260,2.214932,6.662986,-1.924372,-11.109091,18.129547,-3.103678,1.356745,-11.372265,-17.473532,-3.610362,-3.877816,52.145618,-8.592060,9.469165,18.821218,-51.483280,-49.296444,-18.768492,-0.796810,-31.574253,-34.320541,45.998558,-70.227020,3.135541,-31.904358,-20.359501,6.760245,-17.965841,8064.000000,0.000000,4.000000,,,,0.000000,4.000000,4.000000,4.000000,4.000000,4.000000,4.000000,4.000000,4.000000,4.000000,4.000000,4.000000,4.000000,4.000000,4.000000,4.000000,4.000000,4.000000,4.000000,4.000000,4.000000,4.000000,4.000000,4.000000,4.000000,4.000000,4.000000,4.000000,4.000000,4.000000,4.000000,4.000000,4.000000,100.000000
1615774326.456373,52.000000,0.000000,-1.437130,3.259683,4.133531,2.259995,-0.864206,7.681964,-6.537833,-26.995417,18.624237,-4.639036,-6.849740,-15.976277,-28.225288,-8.734957,-15.668810,47.478088,-14.737314,5.357132,18.289576,-49.893333,-48.221508,-18.236902,-6.949860,-31.542679,-35.824684,41.849995,-72.720901,1.081123,-32.385273,-27.005808,4.189383,-22.563261,8064.000000,0.000000,4.000000,,,,0.000000,4.000000,4.000000,4.000000,4.000000,4.000000,4.000000,4.000000,4.000000,4.000000,4.000000,4.000000,4.000000,4.000000,4.000000,4.000000,4.000000,4.000000,4.000000,4.000000,4.000000,4.000000,4.000000,4.000000,4.000000,4.000000,4.000000,4.000000,4.000000,4.000000,4.000000,4.000000,4.000000,100.000000
1615774326.464222,53.000000,0.000000,-3.999795,3.256424,-4.075731,-3.896111,-15.735137,5.110180,-7.044115,-22.865858,12.964588,-23.095936,-2.227505,-15.447480,-24.094500,-15.905709,-21.294167,46.404972,-18.312321,4.838954,16.732824,-50.356262,-52.275848,-19.757128,-6.430089,-30.485495,-41.429882,35.654297,-72.648178,-0.971240,-31.840069,-45.953159,2.646732,-24.591980,8064.000000,0.000000,4.000000,,,,0.000000,4.000000,4.000000,4.000000,4.000000,4.000000,4.000000,4.000000,4.000000,4.000000,4.000000,4.000000,4.000000,4.000000,4.000000,4.000000,4.000000,4.000000,4.000000,4.000000,4.000000,4.000000,4.000000,4.000000,4.000000,4.000000,4.000000,4.000000,4.000000,4.000000,4.000000,4.000000,4.000000,100.000000
1615774326.471971,54.000000,0.000000,-6.047078,2.740347,-11.251143,-6.969138,-21.873247,2.540967,-6.524251,-18.740427,7.310597,-27.175404,-3.763739,-15.432033,-19.455021,-13.838522,-18.195950,47.384209,-18.806828,5.859756,13.639169,-55.946930,-59.403061,-21.788652,-5.398018,-34.044754,-42.926914,25.875053,-72.062706,-1.483089,-32.321049,-48.984131,3.156906,-22.516106,8064.000000,0.000000,4.000000,,,,0.000000,4.000000,4.000000,4.000000,4.000000,4.000000,4.000000,4.000000,4.000000,4.000000,4.000000,4.000000,4.000000,4.000000,4.000000,4.000000,4.000000,4.000000,4.000000,4.000000,4.000000,4.000000,4.000000,4.000000,4.000000,4.000000,4.000000,4.000000,4.000000,4.000000,4.000000,4.000000,4.000000,100.000000
1615774326.479820,55.000000,0.000000,-4.502569,3.250427,-9.701429,-5.936528,-12.620605,5.615349,-6.517726,-17.183226,11.918672,-20.481562,-4.785617,-13.878139,-19.435566,-3.568273,-16.126472,45.798363,-16.736740,5.341076,14.138350,-56.916626,-58.830837,-22.792503,-6.931082,-38.626091,-41.345528,26.874819,-72.503464,-1.481606,-32.288727,-40.217197,0.589646,-23.519230,8064.000000,0.000000,4.000000,,,,0.000000,4.000000,4.000000,4.000000,4.000000,4.000000,4.000000,4.000000,4.000000,4.000000,4.000000,4.000000,4.000000,4.000000,4.000000,4.000000,4.000000,4.000000,4.000000,4.000000,4.000000,4.000000,4.000000,4.000000,4.000000,4.000000,4.000000,4.000000,4.000000,4.000000,4.000000,4.000000,4.000000,100.000000
1615774326.487569,56.000000,0.000000,-1.933964,3.247176,-12.255831,-5.930592,-10.556703,5.609734,-7.024029,-9.473735,9.855471,-27.640568,7.014040,-9.248877,-12.749463,1.050680,-9.956499,51.906410,-12.617438,4.822915,14.124212,-54.808426,-57.233543,-22.256891,-6.924150,-39.100288,-42.329823,38.129997,-72.430962,-1.480125,-32.256439,-45.818005,-6.590431,-34.264942,8064.000000,0.000000,4.000000,,,,0.000000,4.000000,4.000000,4.000000,4.000000,4.000000,4.000000,4.000000,4.000000,4.000000,4.000000,4.000000,4.000000,4.000000,4.000000,4.000000,4.000000,4.000000,4.000000,4.000000,4.000000,4.000000,4.000000,4.000000,4.000000,4.000000,4.000000,4.000000,4.000000,4.000000,4.000000,4.000000,4.000000,100.000000
1615774326.495318,57.000000,0.000000,-1.932030,-0.345814,-20.961523,-7.975943,-18.238455,-1.575363,-6.504185,-11.515543,0.102026,-36.330875,14.699334,-7.188345,-4.531586,-1.514473,-2.254235,57.495529,-12.092001,3.792451,10.007524,-57.317719,-61.791695,-22.234634,-5.891585,-38.035545,-46.902878,33.989304,-71.845711,-1.478645,-33.762646,-50.387573,-11.712046,-42.435806,8064.000000,0.000000,4.000000,,,,0.000000,4.000000,4.000000,4.000000,4.000000,4.000000,4.000000,4.000000,4.000000,4.000000,4.000000,4.000000,4.000000,4.000000,4.000000,4.000000,4.000000,4.000000,4.000000,4.000000,4.000000,4.000000,4.000000,4.000000,4.000000,4.000000,4.000000,4.000000,4.000000,4.000000,4.000000,4.000000,4.000000,100.000000
1615774326.503068,58.000000,0.000000,-1.930098,-4.448033,-19.914921,-9.506429,-14.117651,-4.650711,-6.497681,-22.273258,0.101924,-22.448391,-0.187160,-7.181157,-8.629619,-3.051420,-8.405827,46.155983,-13.618370,2.763017,7.946234,-61.362968,-64.806824,-22.212400,-7.424155,-40.561611,-49.420078,8.314287,-71.773865,-1.477166,-35.780163,-40.080776,-12.213154,-39.316444,8064.000000,0.000000,4.000000,,,,0.000000,4.000000,4.000000,4.000000,4.000000,4.000000,4.000000,4.000000,4.000000,4.000000,4.000000,4.000000,4.000000,4.000000,4.000000,4.000000,4.000000,4.000000,4.000000,4.000000,4.000000,4.000000,4.000000,4.000000,4.000000,4.000000,4.000000,4.000000,4.000000,4.000000,4.000000,4.000000,4.000000,100.000000
1615774326.510717,59.000000,0.000000,-1.415347,-4.956405,-11.177057,-10.009743,-4.872765,-1.056316,-7.004004,-23.276627,8.306950,-8.066968,-11.981845,-8.199617,-16.826117,-4.074010,-17.628191,32.263672,-13.604752,0.196152,7.938288,-59.763142,-64.229202,-22.190187,-9.468013,-43.085155,-46.293736,4.203409,-72.214912,-1.475689,-35.744385,-41.066334,-11.688120,-34.148926,8064.000000,0.000000,4.000000,,,,0.000000,4.000000,4.000000,4.000000,4.000000,4.000000,4.000000,4.000000,4.000000,4.000000,4.000000,4.000000,4.000000,4.000000,4.000000,4.000000,4.000000,4.000000,4.000000,4.000000,4.000000,4.000000,4.000000,4.000000,4.000000,4.000000,4.000000,4.000000,4.000000,4.000000,4.000000,4.000000,4.000000,100.000000
1615774326.518466,60.000000,0.000000,-2.439573,-4.438628,-11.678700,-9.486913,-7.944815,-0.542440,-6.484179,-19.663607,11.375566,-14.725567,5.978855,-7.678597,-10.142624,-3.044295,-10.431075,46.077560,-14.616788,1.734417,9.981632,-57.652096,-64.164970,-22.167997,-9.971366,-39.965145,-42.657696,32.404335,-71.629875,-1.474213,-33.657356,-52.307320,-12.189253,-34.114777,8064.000000,0.000000,4.000000,,,,0.000000,4.000000,4.000000,4.000000,4.000000,4.000000,4.000000,4.000000,4.000000,4.000000,4.000000,4.000000,4.000000,4.000000,4.000000,4.000000,4.000000,4.000000,4.000000,4.000000,4.000000,4.000000,4.000000,4.000000,4.000000,4.000000,4.000000,4.000000,4.000000,4.000000,4.000000,4.000000,4.000000,100.000000
1615774326.526115,61.000000,0.000000,-0.898672,-4.947010,-13.205483,-9.477426,-5.372767,-1.054718,-4.426413,-18.618301,9.825729,-10.095457,23.921595,0.021389,4.226493,4.138237,7.528074,75.262253,-11.525249,10.450631,21.766521,-50.414959,-55.895679,-22.145828,-9.961394,-35.309795,-41.589397,34.936031,-71.558250,-1.472739,-31.572418,-41.485783,-12.177063,-34.593483,8064.000000,0.000000,4.000000,,,,0.000000,4.000000,4.000000,4.000000,4.000000,4.000000,4.000000,4.000000,4.000000,4.000000,4.000000,4.000000,4.000000,4.000000,4.000000,4.000000,4.000000,4.000000,4.000000,4.000000,4.000000,4.000000,4.000000,4.000000,4.000000,4.000000,4.000000,4.000000,4.000000,4.000000,4.000000,4.000000,4.000000,100.000000
1615774326.533864,62.000000,0.000000,4.230432,-4.942063,-7.038432,-9.467948,7.453118,1.510440,-2.370704,-13.471478,9.815904,6.324895,25.948956,6.688035,8.837651,7.723842,14.700033,77.751091,-3.308595,16.594027,30.975525,-43.185055,-45.583370,-22.123684,-9.951433,-34.248844,-41.547810,11.824173,-75.589256,-1.471266,-31.540846,-27.085321,-11.139245,-34.046066,8064.000000,0.000000,4.000000,,,,0.000000,4.000000,4.000000,4.000000,4.000000,4.000000,4.000000,4.000000,4.000000,4.000000,4.000000,4.000000,4.000000,4.000000,4.000000,4.000000,4.000000,4.000000,4.000000,4.000000,4.000000,4.000000,4.000000,4.000000,4.000000,4.000000,4.000000,4.000000,4.000000,4.000000,4.000000,4.000000,4.000000,100.000000
1615774326.541513,63.000000,0.000000,3.200561,-4.424301,-8.057034,-9.458480,0.778998,3.560211,-2.881154,-6.791340,11.344549,-7.527584,27.974287,1.553141,3.700608,0.536631,4.941743,55.109241,-6.895030,14.526151,21.713779,-48.782898,-47.076248,-22.101559,-9.428661,-34.727417,-42.531902,25.145681,-79.616226,-1.469795,-33.047768,-38.853107,-12.666568,-34.012020,8064.000000,0.000000,4.000000,,,,0.000000,4.000000,4.000000,4.000000,4.000000,4.000000,4.000000,4.000000,4.000000,4.000000,4.000000,4.000000,4.000000,4.000000,4.000000,4.000000,4.000000,4.000000,4.000000,4.000000,4.000000,4.000000,4.000000,4.000000,4.000000,4.000000,4.000000,4.000000,4.000000,4.000000,4.000000,4.000000,4.000000,100.000000
1615774326.549262,64.000000,0.000000,-1.930845,-4.419876,-13.177183,-9.449021,-16.657679,3.043830,-2.878273,-7.810189,9.794743,-24.955954,13.587339,-6.653540,-2.969759,-4.592111,-5.319609,46.336182,-19.195827,12.460342,13.999759,-56.939243,-53.183022,-22.079458,-10.957694,-34.692688,-45.053471,51.787201,-79.023788,-1.468325,-35.066002,-44.968102,-15.218003,-33.978008,0.000000,208.000000,4.000000,,,,0.000000,4.000000,4.000000,4.000000,4.000000,4.000000,4.000000,4.000000,4.000000,4.000000,4.000000,4.000000,4.000000,4.000000,4.000000,4.000000,4.000000,4.000000,4.000000,4.000000,4.000000,4.000000,4.000000,4.000000,4.000000,4.000000,4.000000,4.000000,4.000000,4.000000,4.000000,4.000000,4.000000,100.000000
1615774326.556912,65.000000,0.000000,-2.441735,-4.415456,-8.035800,-9.439572,-8.435892,3.553607,-2.875395,-13.443405,6.708025,-6.982280,-8.990351,-7.672527,-7.582174,-3.049057,-6.339930,51.418053,-19.689451,12.960703,18.601143,-53.292557,-52.104195,-22.057379,-13.510839,-34.145176,-44.495598,29.684134,-79.457588,-1.466857,-35.543755,-33.641083,-13.664324,-33.944031,0.000000,191.000000,4.000000,,,,0.000000,4.000000,4.000000,4.000000,4.000000,4.000000,4.000000,4.000000,4.000000,4.000000,4.000000,4.000000,4.000000,4.000000,4.000000,4.000000,4.000000,4.000000,4.000000,4.000000,4.000000,4.000000,4.000000,4.000000,4.000000,4.000000,4.000000,4.000000,4.000000,4.000000,4.000000,4.000000,4.000000,100.000000
1615774326.564661,66.000000,0.000000,-1.413652,-4.411041,-1.873919,-9.942954,5.418697,6.114156,-2.872519,-14.968423,7.726958,3.281113,3.326332,-7.152034,-8.087412,-3.558829,-5.820769,53.930737,-13.515916,11.922101,11.403055,-50.675163,-51.539272,-22.035320,-14.010148,-34.111031,-41.887001,8.115988,-81.942230,-1.465390,-35.508213,-35.658722,-11.086557,-34.935726,0.000000,197.000000,4.000000,,,,0.000000,4.000000,4.000000,4.000000,4.000000,4.000000,4.000000,4.000000,4.000000,4.000000,4.000000,4.000000,4.000000,4.000000,4.000000,4.000000,4.000000,4.000000,4.000000,4.000000,4.000000,4.000000,4.000000,4.000000,4.000000,4.000000,4.000000,4.000000,4.000000,4.000000,4.000000,4.000000,4.000000,100.000000
1615774326.572310,67.000000,0.000000,-1.925059,-4.406630,-3.923327,-9.933011,-4.330311,7.133683,-2.869647,-12.389352,10.283334,-10.568322,19.220442,-7.657703,-9.104966,-8.683475,-5.814949,55.415268,-13.502400,13.961461,2.673703,-55.752693,-54.564655,-22.013287,-13.483317,-35.615383,-40.819473,29.646334,-82.885933,-1.463925,-35.472702,-48.956398,-12.101111,-33.875153,0.000000,193.000000,4.000000,,,,0.000000,4.000000,4.000000,4.000000,4.000000,4.000000,4.000000,4.000000,4.000000,4.000000,4.000000,4.000000,4.000000,4.000000,4.000000,4.000000,4.000000,4.000000,4.000000,4.000000,4.000000,4.000000,4.000000,4.000000,4.000000,4.000000,4.000000,4.000000,4.000000,4.000000,4.000000,4.000000,4.000000,100.000000
1615774326.580059,68.000000,0.000000,-2.435954,-4.402223,-1.355301,-9.410257,-11.505467,6.613729,-2.866777,-11.351321,10.273050,-11.583395,1.765324,-8.162866,-12.172784,-11.751715,-7.860416,46.641903,-15.027359,11.383397,12.414619,-55.696941,-56.561371,-21.991272,-13.469834,-37.631046,-41.291473,39.360275,-82.803047,-1.462461,-35.437229,-51.984364,-10.550549,-27.174610,0.000000,204.000000,4.000000,,,,0.000000,4.000000,4.000000,4.000000,4.000000,4.000000,4.000000,4.000000,4.000000,4.000000,4.000000,4.000000,4.000000,4.000000,4.000000,4.000000,4.000000,4.000000,4.000000,4.000000,4.000000,4.000000,4.000000,4.000000,4.000000,4.000000,4.000000,4.000000,4.000000,4.000000,4.000000,4.000000,4.000000,100.000000
1615774326.587708,69.000000,0.000000,-1.920698,-4.397821,6.851183,-9.913668,-3.801655,6.607115,-2.863910,-12.365611,9.749957,-11.571812,1.763558,-7.641882,-9.596509,-11.227142,-10.416658,27.108082,-13.986691,1.115603,14.966308,-52.564320,-55.991989,-21.969282,-13.456365,-36.054955,-41.250183,23.423481,-80.668961,-1.460998,-35.401794,-48.855457,-5.924614,-22.532051,0.000000,188.000000,4.000000,,,,0.000000,4.000000,4.000000,4.000000,4.000000,4.000000,4.000000,4.000000,4.000000,4.000000,4.000000,4.000000,4.000000,4.000000,4.000000,4.000000,4.000000,4.000000,4.000000,4.000000,4.000000,4.000000,4.000000,4.000000,4.000000,4.000000,4.000000,4.000000,4.000000,4.000000,4.000000,4.000000,4.000000,100.000000
1615774326.595557,70.000000,0.000000,-1.918777,-4.393423,8.382793,-9.903754,-1.233750,6.600508,-2.861046,-11.840425,10.765848,-22.842291,26.377180,-6.608600,-3.945886,-9.164633,-4.252395,31.183537,-13.459884,2.140129,6.233392,-53.537399,-55.935997,-21.947311,-13.442908,-33.967617,-41.208931,26.476980,-76.485725,-1.459537,-35.366390,-44.191216,-3.867407,-24.047979,0.000000,173.000000,4.000000,,,,0.000000,4.000000,4.000000,4.000000,4.000000,4.000000,4.000000,4.000000,4.000000,4.000000,4.000000,4.000000,4.000000,4.000000,4.000000,4.000000,4.000000,4.000000,4.000000,4.000000,4.000000,4.000000,4.000000,4.000000,4.000000,4.000000,4.000000,4.000000,4.000000,4.000000,4.000000,4.000000,4.000000,100.000000
1615774326.603306,71.000000,0.000000,-1.916858,-4.389030,7.348769,-3.227183,-3.796619,6.593907,-2.858185,-11.828585,8.703800,-6.409193,14.043110,-10.191734,-4.454761,-7.617007,3.956985,56.280560,-13.446424,14.958501,15.970749,-52.971039,-56.392883,-21.925365,-13.942286,-34.446472,-41.167721,38.245377,-75.896423,-1.458078,-35.843845,-40.557281,-3.350719,-21.459829,0.000000,182.000000,4.000000,,,,0.000000,4.000000,4.000000,4.000000,4.000000,4.000000,4.000000,4.000000,4.000000,4.000000,4.000000,4.000000,4.000000,4.000000,4.000000,4.000000,4.000000,4.000000,4.000000,4.000000,4.000000,4.000000,4.000000,4.000000,4.000000,4.000000,4.000000,4.000000,4.000000,4.000000,4.000000,4.000000,4.000000,100.000000
1615774326.611155,72.000000,0.000000,-1.402121,-4.384641,11.956805,6.519633,-2.767181,6.587314,-2.855327,-11.816756,8.182276,11.545935,-9.047856,-13.771286,-7.527229,-7.096570,2.414567,62.378124,-15.484260,13.405081,28.262470,-50.353966,-55.823669,-21.903439,-12.902702,-34.412025,-41.126556,32.053284,-77.871811,-0.943799,-34.782360,-38.465443,-0.783266,-11.694779,0.000000,205.000000,4.000000,,,,0.000000,4.000000,4.000000,4.000000,4.000000,4.000000,4.000000,4.000000,4.000000,4.000000,4.000000,4.000000,4.000000,4.000000,4.000000,4.000000,4.000000,4.000000,4.000000,4.000000,4.000000,4.000000,4.000000,4.000000,4.000000,4.000000,4.000000,4.000000,4.000000,4.000000,4.000000,4.000000,4.000000,100.000000
1615774326.618904,73.000000,0.000000,-1.400719,-4.380256,15.534592,10.102858,-3.790055,6.580726,-2.852472,-9.240837,11.763837,-11.542534,7.371448,-12.731874,-5.981241,-7.089473,-2.716053,51.033695,-17.520058,3.135266,17.464977,-51.329254,-57.819126,-21.881536,-12.889800,-34.377613,-41.085426,24.328922,-78.306755,-0.942855,-34.234756,-29.709028,0.243158,-6.554880,0.000000,217.000000,4.000000,,,,0.000000,4.000000,4.000000,4.000000,4.000000,4.000000,4.000000,4.000000,4.000000,4.000000,4.000000,4.000000,4.000000,4.000000,4.000000,4.000000,4.000000,4.000000,4.000000,4.000000,4.000000,4.000000,4.000000,4.000000,4.000000,4.000000,4.000000,4.000000,4.000000,4.000000,4.000000,4.000000,4.000000,100.000000
1615774326.626653,74.000000,0.000000,-2.424959,-4.375876,15.006237,8.041472,-6.863188,6.574145,-2.849619,-8.205956,12.777714,-24.351505,18.646128,-10.667860,-3.923977,-7.082383,-2.200516,49.444199,-17.502537,6.721874,5.139820,-53.329205,-60.325413,-21.859653,-14.415372,-34.343235,-40.531521,22.766132,-78.228447,-3.506015,-36.251804,-22.499832,-0.269905,-9.112428,0.000000,200.000000,4.000000,,,,0.000000,4.000000,4.000000,4.000000,4.000000,4.000000,4.000000,4.000000,4.000000,4.000000,4.000000,4.000000,4.000000,4.000000,4.000000,4.000000,4.000000,4.000000,4.000000,4.000000,4.000000,4.000000,4.000000,4.000000,4.000000,4.000000,4.000000,4.000000,4.000000,4.000000,4.000000,4.000000,4.000000,100.000000
1615774326.634302,75.000000,0.000000,-1.396893,-4.371500,17.555334,9.059072,-2.240941,7.080392,-2.846770,-7.684928,11.226475,-0.737410,1.704405,-11.682834,-3.920053,-7.075301,-2.198316,55.548603,-17.485035,13.894640,5.647500,-53.788696,-56.675343,-22.350615,-9.272751,-34.308891,-41.003811,24.794647,-77.124580,-4.528150,-33.138630,-31.708101,1.781647,-7.564854,0.000000,208.000000,4.000000,,,,0.000000,4.000000,4.000000,4.000000,4.000000,4.000000,4.000000,4.000000,4.000000,4.000000,4.000000,4.000000,4.000000,4.000000,4.000000,4.000000,4.000000,4.000000,4.000000,4.000000,4.000000,4.000000,4.000000,4.000000,4.000000,4.000000,4.000000,4.000000,4.000000,4.000000,4.000000,4.000000,4.000000,100.000000
1615774326.642151,76.000000,0.000000,-0.882676,-4.367128,22.153162,12.126936,8.017711,6.047670,-2.843923,-7.677244,9.676786,3.878712,5.805264,-11.158330,-4.428954,-7.068225,-1.683297,55.493053,-17.467550,13.367925,8.205956,-52.709267,-49.952000,-20.789803,-2.596812,-34.274582,-40.962807,32.462162,-74.483353,-4.523622,-24.900364,-34.753315,4.343967,-1.916263,0.000000,179.000000,4.000000,,,,0.000000,4.000000,4.000000,4.000000,4.000000,4.000000,4.000000,4.000000,4.000000,4.000000,4.000000,4.000000,4.000000,4.000000,4.000000,4.000000,4.000000,4.000000,4.000000,4.000000,4.000000,4.000000,4.000000,4.000000,4.000000,4.000000,4.000000,4.000000,4.000000,4.000000,4.000000,4.000000,4.000000,100.000000
1615774326.649900,77.000000,0.000000,-8.574100,-4.362761,22.643829,12.114809,9.548155,2.964700,-2.841079,-9.720848,1.974802,-11.509782,22.209715,-10.634351,-5.450166,-7.061157,-2.194434,44.155510,-17.450083,12.841736,12.300313,-53.169380,-47.337944,-18.204910,-7.722420,-33.727489,-40.409023,22.686110,-75.947334,-9.134482,-26.926744,-24.974974,2.288342,-1.401526,0.000000,195.000000,4.000000,,,,0.000000,4.000000,4.000000,4.000000,4.000000,4.000000,4.000000,4.000000,4.000000,4.000000,4.000000,4.000000,4.000000,4.000000,4.000000,4.000000,4.000000,4.000000,4.000000,4.000000,4.000000,4.000000,4.000000,4.000000,4.000000,4.000000,4.000000,4.000000,4.000000,4.000000,4.000000,4.000000,4.000000,100.000000
1615774326.657749,78.000000,0.000000,-16.257835,-4.358398,21.595545,9.538591,1.846299,2.961735,-2.838238,-11.762409,-0.078455,-8.934169,8.341352,-13.700640,-8.008819,-7.054096,-5.269163,36.931866,-17.432632,11.290433,16.390577,-53.116211,-48.316250,-17.673885,-17.458286,-34.206581,-43.958359,0.099320,-80.486771,-15.792015,-37.669048,-26.488461,-2.329331,-6.015509,0.000000,207.000000,4.000000,,,,0.000000,4.000000,4.000000,4.000000,4.000000,4.000000,4.000000,4.000000,4.000000,4.000000,4.000000,4.000000,4.000000,4.000000,4.000000,4.000000,4.000000,4.000000,4.000000,4.000000,4.000000,4.000000,4.000000,4.000000,4.000000,4.000000,4.000000,4.000000,4.000000,4.000000,4.000000,4.000000,4.000000,100.000000
1615774326.665499,79.000000,0.000000,-15.215936,-4.354040,21.573950,6.452130,-2.770932,6.035697,-2.835400,-10.212186,10.178034,-3.797030,-4.487502,-14.199759,-8.513630,-4.995760,-4.238253,53.305191,-17.415199,13.843245,12.784443,-53.063091,-49.806393,-18.169031,-16.928009,-35.710835,-48.529785,2.150503,-81.944740,-16.801865,-39.682663,-33.641460,-4.891105,-9.599237,0.000000,168.000000,4.000000,,,,0.000000,4.000000,4.000000,4.000000,4.000000,4.000000,4.000000,4.000000,4.000000,4.000000,4.000000,4.000000,4.000000,4.000000,4.000000,4.000000,4.000000,4.000000,4.000000,4.000000,4.000000,4.000000,4.000000,4.000000,4.000000,4.000000,4.000000,4.000000,4.000000,4.000000,4.000000,4.000000,4.000000,100.000000
1615774326.673348,80.000000,0.000000,-12.123796,-4.349686,22.065195,4.907217,-2.768161,5.004020,-2.832564,-9.689153,10.167856,-13.024002,12.440063,-9.570175,-7.479475,-2.426662,1.407011,69.149323,-17.397783,16.906324,10.207556,-53.010029,-51.295048,-18.150864,-12.808517,-37.726406,-47.968433,24.712456,-81.349976,-15.759421,-35.540417,-32.069355,-4.373393,-8.563997,0.000000,204.000000,4.000000,,,,0.000000,4.000000,4.000000,4.000000,4.000000,4.000000,4.000000,4.000000,4.000000,4.000000,4.000000,4.000000,4.000000,4.000000,4.000000,4.000000,4.000000,4.000000,4.000000,4.000000,4.000000,4.000000,4.000000,4.000000,4.000000,4.000000,4.000000,4.000000,4.000000,4.000000,4.000000,4.000000,4.000000,100.000000
1615774326.681097,81.000000,0.000000,-13.137314,-4.345336,22.043131,4.389489,-2.765393,2.947733,-2.829732,-14.294848,3.491022,-17.113543,17.555828,-7.509323,-7.984817,-5.501158,-1.158498,55.746838,-17.380386,6.120188,10.710169,-52.444199,-51.756577,-17.619892,-13.308528,-38.201500,-44.843544,33.918510,-79.730164,-16.256481,-34.479233,-35.627029,-4.369020,-5.991331,0.000000,225.000000,4.000000,,,,0.000000,4.000000,4.000000,4.000000,4.000000,4.000000,4.000000,4.000000,4.000000,4.000000,4.000000,4.000000,4.000000,4.000000,4.000000,4.000000,4.000000,4.000000,4.000000,4.000000,4.000000,4.000000,4.000000,4.000000,4.000000,4.000000,4.000000,4.000000,4.000000,4.000000,4.000000,4.000000,4.000000,100.000000
1615774326.688946,82.000000,0.000000,-13.124176,-4.853812,21.508266,4.897920,-3.275448,2.944786,-2.826902,-16.331835,8.615736,-14.532326,6.256220,-10.578737,-11.053755,-10.111042,-8.336827,38.255196,-16.850185,-7.732087,8.648177,-52.904575,-51.191998,-17.602272,-13.808041,-37.137657,-44.285877,30.807671,-77.599152,-16.240225,-35.470394,-39.181149,-4.877471,-5.472518,0.000000,177.000000,4.000000,,,,0.000000,4.000000,4.000000,4.000000,4.000000,4.000000,4.000000,4.000000,4.000000,4.000000,4.000000,4.000000,4.000000,4.000000,4.000000,4.000000,4.000000,4.000000,4.000000,4.000000,4.000000,4.000000,4.000000,4.000000,4.000000,4.000000,4.000000,4.000000,4.000000,4.000000,4.000000,4.000000,4.000000,100.000000
1615774326.696695,83.000000,0.000000,-12.598232,-4.336137,21.999578,4.893022,-3.272173,2.429020,-2.824075,-14.777042,2.966094,-15.030614,15.993554,-11.593799,-11.042701,-11.126572,-7.815670,39.242580,-17.346155,-5.160252,8.639528,-52.851669,-52.166447,-18.097490,-13.281412,-37.100521,-44.241592,30.264042,-77.521553,-16.736807,-34.922104,-27.347094,-4.872594,-4.954226,0.000000,197.000000,4.000000,,,,0.000000,4.000000,4.000000,4.000000,4.000000,4.000000,4.000000,4.000000,4.000000,4.000000,4.000000,4.000000,4.000000,4.000000,4.000000,4.000000,4.000000,4.000000,4.000000,4.000000,4.000000,4.000000,4.000000,4.000000,4.000000,4.000000,4.000000,4.000000,4.000000,4.000000,4.000000,4.000000,4.000000,100.000000
1615774326.704544,84.000000,0.000000,-12.585633,-2.280519,24.028862,4.888129,-2.756080,4.990694,-2.821251,-15.275085,-9.857385,-15.528404,23.157047,-10.556564,-8.980376,-10.089804,-5.243752,42.793079,-17.328810,2.024395,12.220633,-50.234718,-51.088638,-18.079391,-13.268130,-38.601883,-44.197353,33.310699,-77.444031,-14.155967,-34.374363,-17.576157,-4.354900,-1.872348,0.000000,220.000000,4.000000,,,,0.000000,4.000000,4.000000,4.000000,4.000000,4.000000,4.000000,4.000000,4.000000,4.000000,4.000000,4.000000,4.000000,4.000000,4.000000,4.000000,4.000000,4.000000,4.000000,4.000000,4.000000,4.000000,4.000000,4.000000,4.000000,4.000000,4.000000,4.000000,4.000000,4.000000,4.000000,4.000000,4.000000,100.000000
1615774326.712293,85.000000,0.000000,-12.573048,-0.226957,25.030474,4.883241,-2.753324,9.601088,-2.818430,-15.772632,7.075550,-15.512876,3.646711,-10.546008,-7.432934,-10.592535,-5.238508,42.750286,-16.285839,2.022371,14.772514,-47.620380,-51.037552,-17.548492,-13.254862,-35.999176,-44.153152,31.226109,-76.853767,-9.526426,-34.852810,-19.097042,-4.350545,1.719268,0.000000,186.000000,4.000000,,,,0.000000,4.000000,4.000000,4.000000,4.000000,4.000000,4.000000,4.000000,4.000000,4.000000,4.000000,4.000000,4.000000,4.000000,4.000000,4.000000,4.000000,4.000000,4.000000,4.000000,4.000000,4.000000,4.000000,4.000000,4.000000,4.000000,4.000000,4.000000,4.000000,4.000000,4.000000,4.000000,4.000000,100.000000
1615774326.719942,86.000000,0.000000,-13.073296,-0.739550,25.518265,4.878357,-2.750571,8.053025,-2.815611,-14.731217,22.965910,-14.471722,-4.049243,-12.073923,-7.938322,-11.094763,-5.746089,41.169075,-18.320835,0.994708,14.244922,-52.700966,-55.601898,-20.095047,-14.267248,-30.834974,-44.621822,19.400011,-78.315376,-9.516899,-34.817955,-19.077946,-4.859015,2.230369,0.000000,195.000000,4.000000,,,,0.000000,4.000000,4.000000,4.000000,4.000000,4.000000,4.000000,4.000000,4.000000,4.000000,4.000000,4.000000,4.000000,4.000000,4.000000,4.000000,4.000000,4.000000,4.000000,4.000000,4.000000,4.000000,4.000000,4.000000,4.000000,4.000000,4.000000,4.000000,4.000000,4.000000,4.000000,4.000000,4.000000,100.000000
1615774326.727691,87.000000,0.000000,-13.060222,-0.738811,25.492746,4.873479,-3.260641,2.916767,-2.812796,-16.767769,7.045508,-14.970071,8.775318,-14.625952,-8.956024,-11.083668,-11.381369,31.384317,-23.430719,-5.160133,7.051189,-59.827751,-59.136040,-26.228798,-16.304264,-33.368240,-44.577198,14.252405,-80.288345,-11.045844,-34.783138,-22.648611,-3.828516,2.228138,0.000000,196.000000,4.000000,,,,0.000000,4.000000,4.000000,4.000000,4.000000,4.000000,4.000000,4.000000,4.000000,4.000000,4.000000,4.000000,4.000000,4.000000,4.000000,4.000000,4.000000,4.000000,4.000000,4.000000,4.000000,4.000000,4.000000,4.000000,4.000000,4.000000,4.000000,4.000000,4.000000,4.000000,4.000000,4.000000,4.000000,100.000000
1615774326.735340,88.000000,0.000000,-12.021521,-0.738072,24.441612,4.868606,-2.744560,2.401030,-2.809983,-18.289463,4.987181,-18.032024,6.715261,-14.611326,-11.511171,-10.559764,-15.985373,28.276011,-24.945751,-8.231896,-0.135349,-60.280743,-59.076904,-24.664106,-18.339241,-40.514359,-44.019802,24.494564,-78.156776,-7.445055,-34.748356,-29.805449,-1.260584,2.225910,0.000000,204.000000,4.000000,,,,0.000000,4.000000,4.000000,4.000000,4.000000,4.000000,4.000000,4.000000,4.000000,4.000000,4.000000,4.000000,4.000000,4.000000,4.000000,4.000000,4.000000,4.000000,4.000000,4.000000,4.000000,4.000000,4.000000,4.000000,4.000000,4.000000,4.000000,4.000000,4.000000,4.000000,4.000000,4.000000,4.000000,100.000000
1615774326.743089,89.000000,0.000000,-13.035140,-0.737334,27.494093,4.863737,0.335108,3.424270,-2.807173,-18.271173,18.315527,-15.449889,2.605982,-14.596715,-11.499660,-10.549204,-11.354002,39.016964,-24.407986,-1.044177,2.428889,-59.707642,-59.017826,-18.485598,-15.243979,-41.499485,-44.488602,30.111094,-77.565796,-3.847866,-34.713608,-29.775644,-0.233683,2.223684,0.000000,205.000000,4.000000,,,,0.000000,4.000000,4.000000,4.000000,4.000000,4.000000,4.000000,4.000000,4.000000,4.000000,4.000000,4.000000,4.000000,4.000000,4.000000,4.000000,4.000000,4.000000,4.000000,4.000000,4.000000,4.000000,4.000000,4.000000,4.000000,4.000000,4.000000,4.000000,4.000000,4.000000,4.000000,4.000000,4.000000,100.000000
1615774326.750738,90.000000,0.000000,-13.534925,-0.736596,32.081985,4.346053,1.360414,2.395205,-2.804366,-20.817003,7.015160,-10.306234,21.577734,-15.094938,-9.436878,-11.051476,-9.804187,43.080513,-24.896397,1.520970,6.529024,-60.673576,-57.420345,-18.979933,-11.126170,-40.945168,-44.444115,30.593803,-76.975410,-4.356839,-34.678894,-32.309971,-0.746270,1.708640,0.000000,190.000000,4.000000,,,,0.000000,4.000000,4.000000,4.000000,4.000000,4.000000,4.000000,4.000000,4.000000,4.000000,4.000000,4.000000,4.000000,4.000000,4.000000,4.000000,4.000000,4.000000,4.000000,4.000000,4.000000,4.000000,4.000000,4.000000,4.000000,4.000000,4.000000,4.000000,4.000000,4.000000,4.000000,4.000000,4.000000,100.000000
1615774326.758488,91.000000,0.000000,-5.316263,-0.735860,28.972979,4.341707,-2.230690,2.392809,-2.801561,-16.693623,-3.248265,-14.398492,30.786926,-13.541382,-7.888980,-10.014783,-8.255921,41.498970,-22.307398,2.545090,6.522495,-54.459057,-50.183441,-14.858388,-9.063763,-41.417042,-38.758644,42.358082,-68.180489,-5.378123,-34.644215,-34.328941,-0.745523,1.194111,0.000000,195.000000,4.000000,,,,0.000000,4.000000,4.000000,4.000000,4.000000,4.000000,4.000000,4.000000,4.000000,4.000000,4.000000,4.000000,4.000000,4.000000,4.000000,4.000000,4.000000,4.000000,4.000000,4.000000,4.000000,4.000000,4.000000,4.000000,4.000000,4.000000,4.000000,4.000000,4.000000,4.000000,4.000000,4.000000,4.000000,100.000000
1615774326.766137,92.000000,0.000000,5.458284,-0.735124,25.867083,4.850185,-2.228459,2.903237,-2.798760,-5.907699,9.062675,-14.384093,17.422806,-10.963737,-5.829809,-5.389383,3.034386,55.816444,-15.105604,14.850237,12.156999,-43.635365,-43.466591,-4.587119,-8.029058,-35.221779,-33.078861,38.725979,-60.932819,-4.347104,-34.609570,-20.448460,-0.744778,2.218558,0.000000,214.000000,4.000000,,,,0.000000,4.000000,4.000000,4.000000,4.000000,4.000000,4.000000,4.000000,4.000000,4.000000,4.000000,4.000000,4.000000,4.000000,4.000000,4.000000,4.000000,4.000000,4.000000,4.000000,4.000000,4.000000,4.000000,4.000000,4.000000,4.000000,4.000000,4.000000,4.000000,4.000000,4.000000,4.000000,4.000000,100.000000
1615774326.773886,93.000000,0.000000,4.427185,-1.247209,27.892498,4.845335,0.337872,2.387513,-2.795961,-6.414611,14.694638,-1.036376,7.661794,-10.439954,-4.285517,-2.307071,9.698018,62.940117,-12.526396,17.912310,17.273046,-42.566090,-42.910301,-6.120994,-5.969747,-26.981428,-32.020142,17.661613,-64.461632,-4.855577,-34.574959,-10.171601,-0.744033,1.703519,0.000000,198.000000,4.000000,,,,0.000000,4.000000,4.000000,4.000000,4.000000,4.000000,4.000000,4.000000,4.000000,4.000000,4.000000,4.000000,4.000000,4.000000,4.000000,4.000000,4.000000,4.000000,4.000000,4.000000,4.000000,4.000000,4.000000,4.000000,4.000000,4.000000,4.000000,4.000000,4.000000,4.000000,4.000000,4.000000,4.000000,100.000000
1615774326.781535,94.000000,0.000000,-1.731088,-0.733142,24.787682,3.302028,-1.713748,2.897946,-2.793165,-13.587684,15.705585,-0.009699,9.192594,-10.942334,-3.768411,-4.356046,0.457551,45.954098,-13.539511,3.022603,11.614748,-48.164551,-45.944317,-16.884104,-4.938136,-26.441628,-33.013760,26.361900,-69.525375,-4.850722,-35.053204,-24.520405,-1.256110,0.163354,0.000000,202.000000,4.000000,,,,0.000000,4.000000,4.000000,4.000000,4.000000,4.000000,4.000000,4.000000,4.000000,4.000000,4.000000,4.000000,4.000000,4.000000,4.000000,4.000000,4.000000,4.000000,4.000000,4.000000,4.000000,4.000000,4.000000,4.000000,4.000000,4.000000,4.000000,4.000000,4.000000,4.000000,4.000000,4.000000,4.000000,100.000000
1615774326.789284,95.000000,0.000000,-1.729357,1.318874,22.198792,7.401290,-2.224855,4.946331,-2.790372,-11.009994,16.202700,-15.907125,15.850067,-10.418571,-3.764643,-6.402972,-6.722394,34.113274,-13.525970,-3.647087,6.474928,-49.142025,-50.513756,-19.431322,-5.958838,-29.492109,-32.467926,49.412460,-67.917389,-4.845871,-32.454048,-34.752293,-0.742033,5.291396,0.000000,198.000000,4.000000,,,,0.000000,4.000000,4.000000,4.000000,4.000000,4.000000,4.000000,4.000000,4.000000,4.000000,4.000000,4.000000,4.000000,4.000000,4.000000,4.000000,4.000000,4.000000,4.000000,4.000000,4.000000,4.000000,4.000000,4.000000,4.000000,4.000000,4.000000,4.000000,4.000000,4.000000,4.000000,4.000000,4.000000,100.000000
1615774326.796933,96.000000,0.000000,-0.701987,3.368837,27.817619,14.573377,1.367113,6.479846,-2.787581,-7.409240,3.365984,-18.968142,20.449602,-9.895332,-3.248058,-5.883749,-5.177210,40.745827,-12.486804,1.484766,9.545376,-47.554420,-54.565807,-16.847788,-5.440059,-29.975437,-31.922638,37.055355,-70.413574,-4.841025,-30.370314,-24.973951,1.822812,14.516873,8064.000000,0.000000,4.000000,,,,0.000000,4.000000,4.000000,4.000000,4.000000,4.000000,4.000000,4.000000,4.000000,4.000000,4.000000,4.000000,4.000000,4.000000,4.000000,4.000000,4.000000,4.000000,4.000000,4.000000,4.000000,4.000000,4.000000,4.000000,4.000000,4.000000,4.000000,4.000000,4.000000,4.000000,4.000000,4.000000,4.000000,100.000000
1615774326.804682,97.000000,0.000000,-3.265387,2.852648,27.276981,14.558803,-1.198356,6.473366,-2.784794,-11.504395,4.901080,-9.205583,14.788127,-11.423899,-4.783271,-6.903506,-4.659212,42.243542,-12.987138,2.508922,11.074292,-48.532509,-54.511238,-17.856581,-5.947440,-29.432640,-33.429176,23.684967,-74.445724,-4.836184,-31.365583,-22.897696,3.359450,16.040817,8064.000000,0.000000,4.000000,,,,0.000000,4.000000,4.000000,4.000000,4.000000,4.000000,4.000000,4.000000,4.000000,4.000000,4.000000,4.000000,4.000000,4.000000,4.000000,4.000000,4.000000,4.000000,4.000000,4.000000,4.000000,4.000000,4.000000,4.000000,4.000000,4.000000,4.000000,4.000000,4.000000,4.000000,4.000000,4.000000,4.000000,100.000000
1615774326.812331,98.000000,0.000000,-5.826224,2.849795,24.172781,12.492962,-1.197158,7.492534,-2.782009,-12.005712,25.408998,-6.119454,15.798980,-11.412475,-4.265667,-6.896602,-6.193014,41.688477,-13.999791,0.967951,10.550398,-48.996796,-54.456730,-18.351545,-5.941492,-29.916029,-36.472672,45.712566,-67.191788,-4.831348,-30.308578,-34.669670,2.330450,12.947854,8064.000000,0.000000,4.000000,,,,0.000000,4.000000,4.000000,4.000000,4.000000,4.000000,4.000000,4.000000,4.000000,4.000000,4.000000,4.000000,4.000000,4.000000,4.000000,4.000000,4.000000,4.000000,4.000000,4.000000,4.000000,4.000000,4.000000,4.000000,4.000000,4.000000,4.000000,4.000000,4.000000,4.000000,4.000000,4.000000,4.000000,100.000000
1615774326.820081,99.000000,0.000000,-5.820398,2.846945,34.917839,16.583033,9.060450,9.536323,-2.779227,-7.378321,19.742565,-8.677438,22.449848,-9.349780,-2.722940,-2.787142,-5.674001,49.339096,-12.447330,3.531086,13.103950,-47.922157,-54.402271,-17.820374,-5.935551,-30.398933,-36.436199,51.307877,-61.483570,-4.313696,-25.662884,-29.506796,3.353760,14.473368,8064.000000,0.000000,4.000000,,,,0.000000,4.000000,4.000000,4.000000,4.000000,4.000000,4.000000,4.000000,4.000000,4.000000,4.000000,4.000000,4.000000,4.000000,4.000000,4.000000,4.000000,4.000000,4.000000,4.000000,4.000000,4.000000,4.000000,4.000000,4.000000,4.000000,4.000000,4.000000,4.000000,4.000000,4.000000,4.000000,4.000000,100.000000
1615774326.827730,100.000000,0.000000,-5.301757,2.844098,42.575230,18.104912,8.025748,10.552427,-2.776448,-8.396584,2.799745,-7.643119,-0.649526,-13.955815,-9.386884,-3.809995,-5.155506,51.341042,-13.973344,6.604478,14.116487,-48.899879,-53.835049,-17.289732,-7.468077,-29.855713,-32.297199,22.025801,-73.216957,-5.847844,-22.560299,-13.067032,6.427330,17.535818,8064.000000,0.000000,4.000000,,,,0.000000,4.000000,4.000000,4.000000,4.000000,4.000000,4.000000,4.000000,4.000000,4.000000,4.000000,4.000000,4.000000,4.000000,4.000000,4.000000,4.000000,4.000000,4.000000,4.000000,4.000000,4.000000,4.000000,4.000000,4.000000,4.000000,4.000000,4.000000,4.000000,4.000000,4.000000,4.000000,4.000000,100.000000
1615774326.835579,101.000000,0.000000,-5.296455,2.841254,33.814705,13.471422,-4.802791,10.029055,-2.773671,-11.465110,9.463612,-5.584194,-27.828363,-23.685450,-19.633907,-16.113878,-6.688812,43.084572,-21.138859,5.059412,9.486985,-53.466362,-56.858135,-18.810904,-10.024712,-29.313038,-34.829002,10.721724,-84.425797,-7.893278,-23.563379,-14.079606,5.395261,17.005461,8064.000000,0.000000,4.000000,,,,0.000000,4.000000,4.000000,4.000000,4.000000,4.000000,4.000000,4.000000,4.000000,4.000000,4.000000,4.000000,4.000000,4.000000,4.000000,4.000000,4.000000,4.000000,4.000000,4.000000,4.000000,4.000000,4.000000,4.000000,4.000000,4.000000,4.000000,4.000000,4.000000,4.000000,4.000000,4.000000,4.000000,100.000000
1615774326.843328,102.000000,0.000000,-5.291159,2.838413,27.114223,11.406669,-8.387732,8.480564,-2.770898,-11.453645,8.941328,-10.706815,-6.774894,-19.559198,-18.075811,-21.738789,-9.246226,40.477383,-24.707462,-2.125134,4.862114,-55.976997,-61.416664,-20.843374,-9.501866,-30.822186,-44.024944,24.044336,-79.213165,-8.911026,-23.539816,-24.321938,2.825763,14.937174,8064.000000,0.000000,4.000000,,,,0.000000,4.000000,4.000000,4.000000,4.000000,4.000000,4.000000,4.000000,4.000000,4.000000,4.000000,4.000000,4.000000,4.000000,4.000000,4.000000,4.000000,4.000000,4.000000,4.000000,4.000000,4.000000,4.000000,4.000000,4.000000,4.000000,4.000000,4.000000,4.000000,4.000000,4.000000,4.000000,4.000000,100.000000
1615774326.851177,103.000000,0.000000,-5.285868,2.835574,27.599930,9.856801,-5.815241,6.420802,-2.768127,-10.929371,-9.529152,-18.388416,16.308804,-8.257588,-11.391069,-17.614487,-9.749801,41.975368,-21.605833,-6.225574,2.805970,-55.408199,-61.868069,-21.335352,-7.441082,-32.842648,-48.596302,29.661316,-71.441643,-8.389295,-23.003456,-27.374538,2.310117,11.332493,8192.000000,0.000000,4.000000,,,,0.000000,4.000000,4.000000,4.000000,4.000000,4.000000,4.000000,4.000000,4.000000,4.000000,4.000000,4.000000,4.000000,4.000000,4.000000,4.000000,4.000000,4.000000,4.000000,4.000000,4.000000,4.000000,4.000000,4.000000,4.000000,4.000000,4.000000,4.000000,4.000000,4.000000,4.000000,4.000000,4.000000,100.000000
1615774326.858926,104.000000,0.000000,-5.280582,2.832739,26.033869,8.308482,-6.835067,5.901560,-2.765359,-11.431262,-10.032444,-17.344387,3.984803,-8.249331,-12.918139,-19.648153,-9.227230,40.394932,-20.045765,-3.142425,2.803164,-55.352795,-61.293381,-20.801197,-5.895179,-33.322624,-47.009247,26.041912,-72.395844,-8.380905,-22.980452,-31.449728,3.333448,9.269878,8064.000000,0.000000,4.000000,,,,0.000000,4.000000,4.000000,4.000000,4.000000,4.000000,4.000000,4.000000,4.000000,4.000000,4.000000,4.000000,4.000000,4.000000,4.000000,4.000000,4.000000,4.000000,4.000000,4.000000,4.000000,4.000000,4.000000,4.000000,4.000000,4.000000,4.000000,4.000000,4.000000,4.000000,4.000000,4.000000,4.000000,100.000000
1615774326.866775,105.000000,0.000000,-4.762481,2.829906,23.956553,9.838635,-4.776950,6.408479,-2.762593,-11.419830,-0.791642,-18.865503,6.544921,-11.318005,-14.956504,-24.756712,-9.218002,38.303253,-21.051361,-3.139282,2.800361,-54.784618,-61.232086,-21.293215,-5.889284,-33.289303,-46.449417,23.964588,-73.349083,-8.372524,-23.470293,-37.059303,3.330115,9.260609,8064.000000,0.000000,4.000000,,,,0.000000,4.000000,4.000000,4.000000,4.000000,4.000000,4.000000,4.000000,4.000000,4.000000,4.000000,4.000000,4.000000,4.000000,4.000000,4.000000,4.000000,4.000000,4.000000,4.000000,4.000000,4.000000,4.000000,4.000000,4.000000,4.000000,4.000000,4.000000,4.000000,4.000000,4.000000,4.000000,4.000000,100.000000
1615774326.874524,106.000000,0.000000,-6.809000,2.827076,23.932596,11.880078,0.356032,6.402071,-2.247010,-10.895590,-0.790850,-23.462023,19.358889,-9.255404,-11.864624,-21.142210,-9.208785,36.726490,-20.517488,-6.213066,2.797560,-55.242657,-61.683674,-21.271923,-5.883395,-33.256012,-47.428608,29.068829,-71.737274,-8.364152,-23.446821,-34.970963,2.813964,8.738527,8064.000000,0.000000,4.000000,,,,0.000000,4.000000,4.000000,4.000000,4.000000,4.000000,4.000000,4.000000,4.000000,4.000000,4.000000,4.000000,4.000000,4.000000,4.000000,4.000000,4.000000,4.000000,4.000000,4.000000,4.000000,4.000000,4.000000,4.000000,4.000000,4.000000,4.000000,4.000000,4.000000,4.000000,4.000000,4.000000,4.000000,100.000000
1615774326.882373,107.000000,0.000000,-8.853474,3.337070,24.934303,11.868198,1.381317,6.395669,-3.783225,-12.423156,5.876607,-7.541124,-4.250214,-13.348714,-11.852759,-16.505684,-9.199576,37.715405,-19.984150,-3.642751,2.794763,-55.187412,-61.109169,-20.737829,-5.364691,-32.197113,-46.868359,29.552580,-71.152718,-8.355787,-22.397734,-30.320606,2.811150,9.755430,8064.000000,0.000000,4.000000,,,,0.000000,4.000000,4.000000,4.000000,4.000000,4.000000,4.000000,4.000000,4.000000,4.000000,4.000000,4.000000,4.000000,4.000000,4.000000,4.000000,4.000000,4.000000,4.000000,4.000000,4.000000,4.000000,4.000000,4.000000,4.000000,4.000000,4.000000,4.000000,4.000000,4.000000,4.000000,4.000000,4.000000,100.000000
1615774326.890122,108.000000,0.000000,-9.357441,2.820912,25.422190,12.369151,0.867116,6.389273,-5.830724,-14.462015,14.075859,10.927955,-21.169041,-18.463570,-14.405009,-17.001999,-8.677556,44.344357,-20.476986,1.489097,5.868891,-54.106583,-61.048061,-23.281195,-5.872147,-36.267483,-46.308670,13.625591,-72.620026,-8.347431,-25.452259,-28.751823,3.321160,8.720034,8064.000000,0.000000,4.000000,,,,0.000000,4.000000,4.000000,4.000000,4.000000,4.000000,4.000000,4.000000,4.000000,4.000000,4.000000,4.000000,4.000000,4.000000,4.000000,4.000000,4.000000,4.000000,4.000000,4.000000,4.000000,4.000000,4.000000,4.000000,4.000000,4.000000,4.000000,4.000000,4.000000,4.000000,4.000000,4.000000,4.000000,100.000000
1615774326.897971,109.000000,0.000000,-8.835262,0.766809,22.832664,9.792679,0.866248,6.382884,-6.850534,-14.960374,2.779732,-5.493229,5.518795,-13.829721,-12.339322,-17.497818,-9.181699,47.376934,-19.943689,2.000429,7.914304,-56.103760,-60.987011,-24.796375,-5.353454,-42.897881,-47.288002,10.535043,-76.137154,-8.339084,-32.093475,-31.287174,2.805018,2.044647,8064.000000,0.000000,4.000000,,,,0.000000,4.000000,4.000000,4.000000,4.000000,4.000000,4.000000,4.000000,4.000000,4.000000,4.000000,4.000000,4.000000,4.000000,4.000000,4.000000,4.000000,4.000000,4.000000,4.000000,4.000000,4.000000,4.000000,4.000000,4.000000,4.000000,4.000000,4.000000,4.000000,4.000000,4.000000,4.000000,4.000000,100.000000
1615774326.905720,110.000000,0.000000,-8.826427,-0.772419,20.758551,5.167502,0.865382,6.889321,-6.330863,-14.945414,-9.017920,-24.974915,19.872252,-11.764610,-10.275701,-16.967499,-9.172517,43.226994,-20.949387,1.485608,4.829467,-63.227142,-60.926025,-24.258759,-5.860921,-44.906265,-50.830456,37.191174,-75.035370,-7.817924,-35.138302,-39.973835,-2.325992,-4.624064,8064.000000,0.000000,4.000000,,,,0.000000,4.000000,4.000000,4.000000,4.000000,4.000000,4.000000,4.000000,4.000000,4.000000,4.000000,4.000000,4.000000,4.000000,4.000000,4.000000,4.000000,4.000000,4.000000,4.000000,4.000000,4.000000,4.000000,4.000000,4.000000,4.000000,4.000000,4.000000,4.000000,4.000000,4.000000,4.000000,4.000000,100.000000
1615774326.913569,111.000000,0.000000,-8.817601,-0.771647,23.814714,3.623873,0.864517,4.831150,-6.324532,-14.930468,-4.906338,-17.770452,3.442122,-21.496435,-12.829528,-17.463352,-8.650524,42.158123,-25.031002,1.996943,0.209253,-67.266479,-60.865101,-26.285782,-8.419163,-43.835716,-53.856548,39.205265,-73.934692,-8.835748,-33.564705,-44.036427,-8.477512,-6.670722,8064.000000,0.000000,4.000000,,,,0.000000,4.000000,4.000000,4.000000,4.000000,4.000000,4.000000,4.000000,4.000000,4.000000,4.000000,4.000000,4.000000,4.000000,4.000000,4.000000,4.000000,4.000000,4.000000,4.000000,4.000000,4.000000,4.000000,4.000000,4.000000,4.000000,4.000000,4.000000,4.000000,4.000000,4.000000,4.000000,4.000000,100.000000
1615774326.921318,112.000000,0.000000,-8.808784,-0.770875,23.790901,4.645890,0.863652,2.775037,-6.318207,-14.915538,0.739594,-16.727041,-2.202346,-27.115965,-14.867980,-16.933067,-10.180335,40.064686,-28.082893,1.994946,-1.329418,-65.660751,-60.804234,-27.285137,-9.949205,-43.791882,-54.315514,8.396830,-80.527428,-8.314092,-34.556778,-36.812904,-7.956214,-5.125590,8064.000000,0.000000,4.000000,,,,0.000000,4.000000,4.000000,4.000000,4.000000,4.000000,4.000000,4.000000,4.000000,4.000000,4.000000,4.000000,4.000000,4.000000,4.000000,4.000000,4.000000,4.000000,4.000000,4.000000,4.000000,4.000000,4.000000,4.000000,4.000000,4.000000,4.000000,4.000000,4.000000,4.000000,4.000000,4.000000,4.000000,100.000000
1615774326.929167,113.000000,0.000000,-8.799974,-0.770104,19.151726,4.641244,0.862789,2.259441,-6.311889,-14.900621,-1.825248,-21.838520,-2.712964,-22.986284,-14.853112,-17.428955,-14.272718,32.332314,-28.054810,1.480130,-0.815268,-65.082268,-60.230610,-25.206570,-9.426435,-44.260910,-53.748379,22.234587,-81.472542,-5.228854,-34.522224,-34.211987,-3.845694,-4.607644,8064.000000,0.000000,4.000000,,,,0.000000,4.000000,4.000000,4.000000,4.000000,4.000000,4.000000,4.000000,4.000000,4.000000,4.000000,4.000000,4.000000,4.000000,4.000000,4.000000,4.000000,4.000000,4.000000,4.000000,4.000000,4.000000,4.000000,4.000000,4.000000,4.000000,4.000000,4.000000,4.000000,4.000000,4.000000,4.000000,4.000000,100.000000
1615774326.936916,114.000000,0.000000,-8.791175,-0.769334,17.081291,4.123783,1.374746,2.770002,-6.305577,-14.885721,-0.797782,-12.073092,-12.966661,-21.424837,-14.838260,-21.001270,-16.822548,33.838440,-27.001114,1.478650,-0.814453,-67.068474,-61.196018,-26.207005,-8.904189,-43.703831,-54.207451,55.032864,-71.647476,-6.249266,-32.949238,-43.408546,-7.431592,-11.269703,8064.000000,0.000000,4.000000,,,,0.000000,4.000000,4.000000,4.000000,4.000000,4.000000,4.000000,4.000000,4.000000,4.000000,4.000000,4.000000,4.000000,4.000000,4.000000,4.000000,4.000000,4.000000,4.000000,4.000000,4.000000,4.000000,4.000000,4.000000,4.000000,4.000000,4.000000,4.000000,4.000000,4.000000,4.000000,4.000000,4.000000,100.000000
1615774326.944765,115.000000,0.000000,-8.782384,-3.332668,16.038568,4.632479,0.347731,2.254412,-6.299272,-14.358015,4.844042,-14.112301,-9.363951,-21.916233,-14.823421,-24.570013,-16.292906,44.061012,-27.999754,1.477172,-1.326459,-64.437302,-60.622002,-28.232079,-9.408105,-43.660126,-54.666061,27.285524,-75.678398,-10.858401,-36.506035,-43.365135,-12.552365,-19.463562,8064.000000,0.000000,4.000000,,,,0.000000,4.000000,4.000000,4.000000,4.000000,4.000000,4.000000,4.000000,4.000000,4.000000,4.000000,4.000000,4.000000,4.000000,4.000000,4.000000,4.000000,4.000000,4.000000,4.000000,4.000000,4.000000,4.000000,4.000000,4.000000,4.000000,4.000000,4.000000,4.000000,4.000000,4.000000,4.000000,4.000000,100.000000
1615774326.952514,116.000000,0.000000,-8.773602,-4.354976,14.484069,4.627847,0.860203,2.764978,-6.292973,-14.856478,-0.801828,-26.405880,3.978746,-19.330214,-12.757316,-25.058264,-16.276613,41.452850,-27.458935,1.475694,-0.812312,-57.193375,-57.484459,-26.152565,-9.911517,-43.616467,-51.021652,-5.049454,-86.371948,-12.386004,-40.572090,-32.552540,-9.975711,-14.828713,8064.000000,0.000000,4.000000,,,,0.000000,4.000000,4.000000,4.000000,4.000000,4.000000,4.000000,4.000000,4.000000,4.000000,4.000000,4.000000,4.000000,4.000000,4.000000,4.000000,4.000000,4.000000,4.000000,4.000000,4.000000,4.000000,4.000000,4.000000,4.000000,4.000000,4.000000,4.000000,4.000000,4.000000,4.000000,4.000000,4.000000,100.000000
1615774326.960163,117.000000,0.000000,-8.764828,-1.273698,16.008047,5.136039,4.961907,3.275033,-6.286680,-15.354442,-9.518975,-19.712809,7.051691,-17.772421,-10.693276,-24.007565,-16.773157,31.154987,-25.380194,1.474219,-0.811500,-54.572079,-58.452614,-23.562309,-8.363144,-43.572849,-46.355247,16.494057,-76.541985,-11.347978,-37.454597,-34.058449,-4.324709,-8.147218,8064.000000,0.000000,4.000000,,,,0.000000,4.000000,4.000000,4.000000,4.000000,4.000000,4.000000,4.000000,4.000000,4.000000,4.000000,4.000000,4.000000,4.000000,4.000000,4.000000,4.000000,4.000000,4.000000,4.000000,4.000000,4.000000,4.000000,4.000000,4.000000,4.000000,4.000000,4.000000,4.000000,4.000000,4.000000,4.000000,4.000000,100.000000
1615774326.967912,118.000000,0.000000,-8.756063,-1.785245,16.504858,4.105262,0.341561,2.246117,-6.280393,-12.262164,-0.278687,-14.564890,11.147203,-16.729008,-11.195403,-25.522018,-15.217922,31.636652,-23.303532,1.472744,-1.323509,-57.594429,-63.522369,-24.564388,-6.303499,-43.529278,-47.334534,34.939102,-66.209030,-11.849450,-34.340218,-42.229519,-4.320385,-12.241635,8064.000000,0.000000,4.000000,,,,0.000000,4.000000,4.000000,4.000000,4.000000,4.000000,4.000000,4.000000,4.000000,4.000000,4.000000,4.000000,4.000000,4.000000,4.000000,4.000000,4.000000,4.000000,4.000000,4.000000,4.000000,4.000000,4.000000,4.000000,4.000000,4.000000,4.000000,4.000000,4.000000,4.000000,4.000000,4.000000,4.000000,100.000000
1615774326.975562,119.000000,0.000000,-8.747307,-4.347562,16.488354,4.101157,-5.299807,2.756692,-6.274113,-8.147338,14.080566,-19.165710,12.161696,-14.148176,-11.697028,-24.983675,-13.151422,36.733219,-23.793049,0.958451,-0.809365,-58.562477,-64.997307,-24.539824,-9.374119,-43.485748,-48.825661,9.263137,-79.476158,-12.350422,-36.869980,-32.956520,-4.828885,-12.229393,8064.000000,0.000000,4.000000,,,,0.000000,4.000000,4.000000,4.000000,4.000000,4.000000,4.000000,4.000000,4.000000,4.000000,4.000000,4.000000,4.000000,4.000000,4.000000,4.000000,4.000000,4.000000,4.000000,4.000000,4.000000,4.000000,4.000000,4.000000,4.000000,4.000000,4.000000,4.000000,4.000000,4.000000,4.000000,4.000000,4.000000,100.000000
1615774326.983311,120.000000,0.000000,-8.738560,-2.291932,19.548788,5.635518,1.372160,5.830858,-6.267838,-8.652011,9.963922,-9.915775,-5.799183,-13.621208,-11.172511,-21.368948,-13.138270,37.722130,-23.769255,1.470313,1.755547,-56.965454,-63.393848,-24.002464,-12.441668,-43.955082,-46.725552,3.612848,-87.601807,-11.825251,-37.858753,-19.077410,-3.285594,-5.037677,8064.000000,0.000000,4.000000,,,,0.000000,4.000000,4.000000,4.000000,4.000000,4.000000,4.000000,4.000000,4.000000,4.000000,4.000000,4.000000,4.000000,4.000000,4.000000,4.000000,4.000000,4.000000,4.000000,4.000000,4.000000,4.000000,4.000000,4.000000,4.000000,4.000000,4.000000,4.000000,4.000000,4.000000,4.000000,4.000000,4.000000,100.000000
1615774326.990960,121.000000,0.000000,-8.729821,-1.776820,12.862574,2.040138,-4.783058,5.825027,-6.261570,-10.694641,2.261650,-7.854577,-16.562614,-14.120407,-10.135697,-20.321938,-11.586671,37.684406,-23.232666,3.007304,2.779433,-57.934128,-64.356094,-24.491282,-10.377944,-43.398308,-48.217289,32.840004,-76.232155,-11.813425,-34.231152,-33.417309,-5.333591,-9.648024,8064.000000,0.000000,4.000000,,,,0.000000,4.000000,4.000000,4.000000,4.000000,4.000000,4.000000,4.000000,4.000000,4.000000,4.000000,4.000000,4.000000,4.000000,4.000000,4.000000,4.000000,4.000000,4.000000,4.000000,4.000000,4.000000,4.000000,4.000000,4.000000,4.000000,4.000000,4.000000,4.000000,4.000000,4.000000,4.000000,4.000000,100.000000
1615774326.998709,122.000000,0.000000,-8.721091,-4.339146,2.080480,-1.551645,-21.188532,2.742279,-6.255309,-11.196767,6.874773,-21.180056,-0.135795,-11.542184,-12.176844,-22.352898,-12.087905,36.621082,-24.235073,0.440195,2.263833,-57.876194,-63.778919,-24.466791,-8.316284,-43.354908,-50.733173,44.089214,-68.976440,-11.801612,-33.171276,-50.306969,-7.379539,-16.817863,8064.000000,0.000000,4.000000,,,,0.000000,4.000000,4.000000,4.000000,4.000000,4.000000,4.000000,4.000000,4.000000,4.000000,4.000000,4.000000,4.000000,4.000000,4.000000,4.000000,4.000000,4.000000,4.000000,4.000000,4.000000,4.000000,4.000000,4.000000,4.000000,4.000000,4.000000,4.000000,4.000000,4.000000,4.000000,4.000000,4.000000,100.000000
1615774327.006358,123.000000,0.000000,-8.712370,-1.770704,12.847631,4.090932,-8.859651,5.303639,-6.249053,-11.698391,11.996103,-15.005030,14.223315,-9.992181,-11.139026,-16.689520,-15.152740,39.661385,-23.185198,-0.073066,5.338492,-55.767036,-60.125397,-24.442324,-9.333609,-43.824375,-44.015774,21.993845,-70.958740,-11.789810,-33.650928,-33.333584,-3.782416,-10.134378,8064.000000,0.000000,4.000000,,,,0.000000,4.000000,4.000000,4.000000,4.000000,4.000000,4.000000,4.000000,4.000000,4.000000,4.000000,4.000000,4.000000,4.000000,4.000000,4.000000,4.000000,4.000000,4.000000,4.000000,4.000000,4.000000,4.000000,4.000000,4.000000,4.000000,4.000000,4.000000,4.000000,4.000000,4.000000,4.000000,4.000000,100.000000
1615774327.014107,124.000000,0.000000,-8.703657,2.846451,27.193756,10.753508,10.636389,10.426541,-6.242805,-7.071308,9.932825,-4.220794,14.209091,-10.495008,1.179805,-4.877958,-4.368356,54.493515,-18.546627,9.670597,6.871615,-53.659988,-56.988346,-24.417881,-9.837095,-42.754910,-35.253811,5.561594,-71.913429,-12.290841,-34.130096,-17.915634,0.323930,-4.996039,8064.000000,0.000000,4.000000,,,,0.000000,4.000000,4.000000,4.000000,4.000000,4.000000,4.000000,4.000000,4.000000,4.000000,4.000000,4.000000,4.000000,4.000000,4.000000,4.000000,4.000000,4.000000,4.000000,4.000000,4.000000,4.000000,4.000000,4.000000,4.000000,4.000000,4.000000,4.000000,4.000000,4.000000,4.000000,4.000000,4.000000,100.000000
1615774327.021756,125.000000,0.000000,-8.694954,3.356426,16.397333,8.691472,-0.656299,10.416115,-6.236562,-3.987313,8.897251,-11.396060,13.169241,-9.971693,6.306831,-3.334619,6.405243,59.567226,-15.451158,8.635285,5.326282,-54.119148,-56.418537,-24.393463,-9.314438,-38.609589,-34.705734,27.094494,-70.303047,-11.765730,-33.583145,-34.307976,-2.240496,-10.632069,8064.000000,0.000000,4.000000,,,,0.000000,4.000000,4.000000,4.000000,4.000000,4.000000,4.000000,4.000000,4.000000,4.000000,4.000000,4.000000,4.000000,4.000000,4.000000,4.000000,4.000000,4.000000,4.000000,4.000000,4.000000,4.000000,4.000000,4.000000,4.000000,4.000000,4.000000,4.000000,4.000000,4.000000,4.000000,4.000000,4.000000,100.000000
1615774327.029506,126.000000,0.000000,-8.686259,2.840249,6.637345,7.144319,-9.373591,9.380057,-6.230325,-13.214095,10.426816,-10.871843,12.130431,-10.987363,-7.032809,-12.049232,-8.985778,36.430737,-15.948527,-11.886170,7.372238,-54.577850,-56.362122,-24.369070,-8.792303,-35.494057,-35.183849,50.657143,-69.719925,-11.241143,-33.036743,-42.991615,-4.802358,-13.698359,8064.000000,0.000000,4.000000,,,,0.000000,4.000000,4.000000,4.000000,4.000000,4.000000,4.000000,4.000000,4.000000,4.000000,4.000000,4.000000,4.000000,4.000000,4.000000,4.000000,4.000000,4.000000,4.000000,4.000000,4.000000,4.000000,4.000000,4.000000,4.000000,4.000000,4.000000,4.000000,4.000000,4.000000,4.000000,4.000000,4.000000,100.000000
1615774327.037155,127.000000,0.000000,-8.677572,3.350229,13.297375,8.162816,-0.133449,9.883497,-6.736916,-18.841908,9.903568,-10.348151,4.425993,-13.540478,-14.718084,-14.088466,-22.310125,21.522512,-16.958220,-12.899925,14.544353,-53.497631,-57.331398,-24.344702,-9.296331,-35.458561,-35.148666,35.734692,-71.188667,-12.768364,-33.516525,-29.615290,-3.259094,-12.146199,8064.000000,0.000000,4.000000,,,,0.000000,4.000000,4.000000,4.000000,4.000000,4.000000,4.000000,4.000000,4.000000,4.000000,4.000000,4.000000,4.000000,4.000000,4.000000,4.000000,4.000000,4.000000,4.000000,4.000000,4.000000,4.000000,4.000000,4.000000,4.000000,4.000000,4.000000,4.000000,4.000000,4.000000,4.000000,4.000000,4.000000,100.000000
1615774327.044904,0.000000,0.000000,-8.668895,2.834058,14.309718,7.641832,-2.697418,9.873614,-6.217358,-9.079475,9.893665,-20.594213,-2.245100,-14.039758,-5.985417,-9.458993,-4.851918,43.039452,-15.402800,13.779641,18.119553,-51.392849,-55.222786,-24.320356,-9.799855,-35.935925,-38.703262,23.904085,-71.117477,-10.704313,-33.995831,-32.149776,-4.794297,-12.134053,0.000000,206.000000,4.000000,,,,0.000000,4.000000,4.000000,4.000000,4.000000,4.000000,4.000000,4.000000,4.000000,4.000000,4.000000,4.000000,4.000000,4.000000,4.000000,4.000000,4.000000,4.000000,4.000000,4.000000,4.000000,4.000000,4.000000,4.000000,4.000000,4.000000,4.000000,4.000000,4.000000,4.000000,4.000000,4.000000,4.000000,100.000000
1615774327.052553,1.000000,0.000000,-8.660226,4.882506,15.833870,11.736754,-5.258823,9.863741,-4.159859,0.673194,12.447874,-8.265927,1.346889,-11.461616,-3.415329,-9.962354,10.537550,62.996410,-13.336115,25.560734,19.127073,-50.315815,-48.500896,-24.296036,-4.661850,-36.412807,-38.151737,46.444283,-64.379692,-3.001301,-27.295168,-40.322758,-4.276682,-10.583458,0.000000,167.000000,4.000000,,,,0.000000,4.000000,4.000000,4.000000,4.000000,4.000000,4.000000,4.000000,4.000000,4.000000,4.000000,4.000000,4.000000,4.000000,4.000000,4.000000,4.000000,4.000000,4.000000,4.000000,4.000000,4.000000,4.000000,4.000000,4.000000,4.000000,4.000000,4.000000,4.000000,4.000000,4.000000,4.000000,4.000000,100.000000
1615774327.060302,2.000000,0.000000,-8.651566,6.928905,26.587267,18.904505,7.054128,9.853877,-2.104417,0.672521,13.973887,13.280801,12.114773,-9.911693,-3.924735,-9.952392,8.475730,60.369312,-12.297138,22.458250,23.723331,-47.701397,-44.349831,-24.271740,0.983837,-31.248190,-30.421278,54.090145,-59.699932,-0.434197,-22.139668,-26.949100,1.368621,-8.008772,0.000000,197.000000,4.000000,,,,0.000000,4.000000,4.000000,4.000000,4.000000,4.000000,4.000000,4.000000,4.000000,4.000000,4.000000,4.000000,4.000000,4.000000,4.000000,4.000000,4.000000,4.000000,4.000000,4.000000,4.000000,4.000000,4.000000,4.000000,4.000000,4.000000,4.000000,4.000000,4.000000,4.000000,4.000000,4.000000,4.000000,100.000000
1615774327.067951,3.000000,0.000000,-8.642915,3.332233,21.945295,18.885601,6.021433,9.844023,-2.615133,-0.866613,13.447093,1.472648,18.256504,-10.414601,3.771498,-4.814234,17.185204,66.975609,-12.797662,24.999893,26.263710,-43.551132,-44.818302,-24.247469,0.982853,-25.063097,-26.801113,27.882210,-64.768440,-4.023507,-28.271374,-16.152920,0.854431,-10.052045,0.000000,202.000000,4.000000,,,,0.000000,4.000000,4.000000,4.000000,4.000000,4.000000,4.000000,4.000000,4.000000,4.000000,4.000000,4.000000,4.000000,4.000000,4.000000,4.000000,4.000000,4.000000,4.000000,4.000000,4.000000,4.000000,4.000000,4.000000,4.000000,4.000000,4.000000,4.000000,4.000000,4.000000,4.000000,4.000000,4.000000,100.000000
1615774327.075800,4.000000,0.000000,-8.634272,-1.286484,2.948991,15.276972,-6.292281,9.834179,-2.612518,0.672715,13.433646,-21.605747,16.186966,-9.891366,5.306188,-3.270958,18.193659,72.036842,-12.784863,15.231304,22.134882,-41.969120,-45.286304,-24.223221,-1.582232,-27.602137,-31.902517,10.931252,-69.831871,-5.045125,-32.858486,-26.393177,-6.325910,-12.606095,0.000000,202.000000,4.000000,,,,0.000000,4.000000,4.000000,4.000000,4.000000,4.000000,4.000000,4.000000,4.000000,4.000000,4.000000,4.000000,4.000000,4.000000,4.000000,4.000000,4.000000,4.000000,4.000000,4.000000,4.000000,4.000000,4.000000,4.000000,4.000000,4.000000,4.000000,4.000000,4.000000,4.000000,4.000000,4.000000,4.000000,100.000000
1615774327.083549,5.000000,0.000000,-8.625637,-1.285197,-2.694984,15.261695,-7.824450,9.824345,-2.609905,1.184863,13.420213,-23.635424,9.504112,-11.419936,-5.468349,-11.985636,-6.952740,45.810955,-12.259258,-2.219825,17.497362,-42.952793,-44.728195,-24.711819,-2.093471,-32.702740,-35.460358,15.022884,-67.710762,-4.527259,-28.210243,-33.546272,-8.883687,-12.593490,0.000000,186.000000,4.000000,,,,0.000000,4.000000,4.000000,4.000000,4.000000,4.000000,4.000000,4.000000,4.000000,4.000000,4.000000,4.000000,4.000000,4.000000,4.000000,4.000000,4.000000,4.000000,4.000000,4.000000,4.000000,4.000000,4.000000,4.000000,4.000000,4.000000,4.000000,4.000000,4.000000,4.000000,4.000000,4.000000,4.000000,100.000000
1615774327.091398,6.000000,0.000000,-8.617011,-0.771092,-0.641007,15.759254,-6.790985,9.814521,-2.607295,-2.918886,12.893971,-20.022045,1.802300,-14.485439,-9.052625,-17.614676,-15.150915,30.380529,-12.759820,1.884959,16.454224,-42.909840,-45.196289,-24.687107,-3.117018,-32.670036,-35.424896,26.802732,-66.104584,-4.522731,-25.105110,-30.435802,-7.336342,-12.068075,0.000000,194.000000,4.000000,,,,0.000000,4.000000,4.000000,4.000000,4.000000,4.000000,4.000000,4.000000,4.000000,4.000000,4.000000,4.000000,4.000000,4.000000,4.000000,4.000000,4.000000,4.000000,4.000000,4.000000,4.000000,4.000000,4.000000,4.000000,4.000000,4.000000,4.000000,4.000000,4.000000,4.000000,4.000000,4.000000,4.000000,100.000000
1615774327.099147,7.000000,0.000000,-8.608395,-1.283141,-4.742930,15.230674,-9.348296,9.804706,-2.604688,-7.531352,12.368258,-22.566126,-1.789246,-14.983774,-5.453828,-11.956036,3.325774,54.965534,-13.259880,15.729228,16.950590,-42.866928,-45.663914,-22.098316,-1.062619,-32.637367,-35.389473,33.955418,-66.038483,-4.518209,-26.105646,-28.354084,-7.841826,-12.568828,0.000000,205.000000,4.000000,,,,0.000000,4.000000,4.000000,4.000000,4.000000,4.000000,4.000000,4.000000,4.000000,4.000000,4.000000,4.000000,4.000000,4.000000,4.000000,4.000000,4.000000,4.000000,4.000000,4.000000,4.000000,4.000000,4.000000,4.000000,4.000000,4.000000,4.000000,4.000000,4.000000,4.000000,4.000000,4.000000,4.000000,100.000000
1615774327.106996,8.000000,0.000000,-8.599786,-0.769037,-5.763828,14.702622,-5.749205,9.794901,-2.602083,-8.036641,14.407171,-24.082022,4.366390,-13.430329,-3.397092,-5.790234,11.014756,69.782364,-13.246620,14.687858,16.420820,-42.824062,-44.592609,-21.050577,0.989726,-31.579088,-34.328442,24.177872,-66.998085,-5.539331,-26.079540,-27.812910,-8.346805,-12.556259,0.000000,210.000000,4.000000,,,,0.000000,4.000000,4.000000,4.000000,4.000000,4.000000,4.000000,4.000000,4.000000,4.000000,4.000000,4.000000,4.000000,4.000000,4.000000,4.000000,4.000000,4.000000,4.000000,4.000000,4.000000,4.000000,4.000000,4.000000,4.000000,4.000000,4.000000,4.000000,4.000000,4.000000,4.000000,4.000000,4.000000,100.000000
1615774327.114745,9.000000,0.000000,-8.591187,-1.793909,-1.655500,15.200740,-2.666532,9.785107,-3.112302,-7.515784,12.854302,-20.981016,6.413305,-14.955360,-3.906516,-6.810084,5.362715,51.763863,-12.207733,10.570606,16.404398,-43.294060,-45.573658,-21.029526,-1.575367,-30.009047,-35.319756,24.666515,-67.443909,-3.482510,-26.566282,-33.426121,-7.825637,-12.030882,0.000000,202.000000,4.000000,,,,0.000000,4.000000,4.000000,4.000000,4.000000,4.000000,4.000000,4.000000,4.000000,4.000000,4.000000,4.000000,4.000000,4.000000,4.000000,4.000000,4.000000,4.000000,4.000000,4.000000,4.000000,4.000000,4.000000,4.000000,4.000000,4.000000,4.000000,4.000000,4.000000,4.000000,4.000000,4.000000,4.000000,100.000000
1615774327.122594,10.000000,0.000000,-8.582595,0.259167,-0.628204,15.185539,-2.151045,9.775321,-2.083548,-8.021089,11.302986,-13.267727,4.355610,-14.940405,-5.953891,-7.316095,2.793250,39.917229,-13.733987,11.585676,16.900814,-43.250763,-46.040905,-14.341830,0.990311,-28.953398,-35.797256,52.334156,-60.196976,2.674819,-23.975613,-36.469620,-8.330632,-12.018851,0.000000,201.000000,4.000000,,,,0.000000,4.000000,4.000000,4.000000,4.000000,4.000000,4.000000,4.000000,4.000000,4.000000,4.000000,4.000000,4.000000,4.000000,4.000000,4.000000,4.000000,4.000000,4.000000,4.000000,4.000000,4.000000,4.000000,4.000000,4.000000,4.000000,4.000000,4.000000,4.000000,4.000000,4.000000,4.000000,4.000000,100.000000
1615774327.130343,11.000000,0.000000,-8.574013,6.925574,-0.627575,15.170354,1.953670,9.765546,0.995458,-2.884862,22.060915,-9.664716,21.274332,-4.156234,-1.332553,-3.719035,6.380200,47.569618,-13.207432,13.112552,18.935196,-40.130592,-39.841019,-5.096719,10.732911,-23.796238,-27.043509,53.820282,-53.470112,6.774708,-18.823433,-20.535713,-7.296660,-12.519653,0.000000,203.000000,4.000000,,,,0.000000,4.000000,4.000000,4.000000,4.000000,4.000000,4.000000,4.000000,4.000000,4.000000,4.000000,4.000000,4.000000,4.000000,4.000000,4.000000,4.000000,4.000000,4.000000,4.000000,4.000000,4.000000,4.000000,4.000000,4.000000,4.000000,4.000000,4.000000,4.000000,4.000000,4.000000,4.000000,4.000000,100.000000
1615774327.138192,12.000000,0.000000,-8.565438,9.482751,1.937155,15.155184,5.541460,9.755780,4.584207,3.784689,30.756802,-11.193513,40.227417,7.642794,13.027754,-2.176855,16.630230,59.316921,-4.989097,18.740465,22.506004,-35.475075,-33.647331,-2.014700,12.260639,-15.054494,-15.734414,21.458771,-61.621773,6.767933,-20.343071,-5.643384,-5.238082,-11.994313,0.000000,206.000000,4.000000,,,,0.000000,4.000000,4.000000,4.000000,4.000000,4.000000,4.000000,4.000000,4.000000,4.000000,4.000000,4.000000,4.000000,4.000000,4.000000,4.000000,4.000000,4.000000,4.000000,4.000000,4.000000,4.000000,4.000000,4.000000,4.000000,4.000000,4.000000,4.000000,4.000000,4.000000,4.000000,4.000000,4.000000,100.000000
1615774327.145942,13.000000,0.000000,-8.556873,6.909166,3.986500,15.140028,5.023098,9.746024,5.092443,0.703982,18.418352,-6.054114,26.341034,7.635151,13.527547,-2.687498,17.639242,65.411446,2.195380,22.824289,24.021959,-34.413960,-37.203426,-2.012685,5.581712,-12.475336,-20.846886,21.950132,-67.201172,6.248344,-25.450932,-17.432611,-3.694382,-10.956677,0.000000,190.000000,4.000000,,,,0.000000,4.000000,4.000000,4.000000,4.000000,4.000000,4.000000,4.000000,4.000000,4.000000,4.000000,4.000000,4.000000,4.000000,4.000000,4.000000,4.000000,4.000000,4.000000,4.000000,4.000000,4.000000,4.000000,4.000000,4.000000,4.000000,4.000000,4.000000,4.000000,4.000000,4.000000,4.000000,4.000000,100.000000
1615774327.153791,14.000000,0.000000,-8.548316,5.876616,2.444052,15.124888,5.018075,9.736279,4.574530,-7.501851,10.194806,0.105786,4.776232,1.986490,1.206327,2.443394,4.801089,61.243473,2.193184,20.237362,23.997938,-35.918007,-41.781609,-2.010672,4.550489,-14.001323,-33.646553,51.158951,-59.441666,6.754917,-26.451122,-31.774153,-3.690688,-12.997003,0.000000,224.000000,4.000000,,,,0.000000,4.000000,4.000000,4.000000,4.000000,4.000000,4.000000,4.000000,4.000000,4.000000,4.000000,4.000000,4.000000,4.000000,4.000000,4.000000,4.000000,4.000000,4.000000,4.000000,4.000000,4.000000,4.000000,4.000000,4.000000,4.000000,4.000000,4.000000,4.000000,4.000000,4.000000,4.000000,4.000000,100.000000
1615774327.161540,15.000000,0.000000,-8.539768,6.896380,2.954428,15.109763,4.500237,9.726542,4.569955,-7.494349,23.005125,0.618501,7.848379,0.958863,3.769223,6.030694,5.309109,58.618126,1.678171,19.191484,23.973940,-35.369270,-38.662903,-2.008662,6.084400,-13.474501,-32.587265,45.466766,-53.741199,6.748162,-25.399031,-26.101355,-4.199818,-15.035288,0.000000,229.000000,4.000000,,,,0.000000,4.000000,4.000000,4.000000,4.000000,4.000000,4.000000,4.000000,4.000000,4.000000,4.000000,4.000000,4.000000,4.000000,4.000000,4.000000,4.000000,4.000000,4.000000,4.000000,4.000000,4.000000,4.000000,4.000000,4.000000,4.000000,4.000000,4.000000,4.000000,4.000000,4.000000,4.000000,4.000000,100.000000
1615774327.169389,16.000000,0.000000,-8.531228,6.376663,7.054038,15.094654,5.008556,9.716816,5.078206,-3.384290,27.084682,1.643523,16.558479,0.957904,10.944942,0.383638,13.508927,64.713356,3.214954,20.197933,24.462788,-34.308258,-36.060139,-1.493832,5.052675,-13.461026,-24.862370,26.446941,-55.225918,6.228593,-25.886452,-18.895765,-4.195618,-12.968970,0.000000,158.000000,4.000000,,,,0.000000,4.000000,4.000000,4.000000,4.000000,4.000000,4.000000,4.000000,4.000000,4.000000,4.000000,4.000000,4.000000,4.000000,4.000000,4.000000,4.000000,4.000000,4.000000,4.000000,4.000000,4.000000,4.000000,4.000000,4.000000,4.000000,4.000000,4.000000,4.000000,4.000000,4.000000,4.000000,4.000000,100.000000
1615774327.177138,17.000000,0.000000,-8.522696,6.370286,6.534163,13.028277,5.516368,9.707099,4.560307,-6.970650,13.724265,-1.947864,12.952177,0.444126,1.190407,-6.283412,6.315932,61.058899,-0.378004,13.511068,24.438324,-36.325233,-39.101002,-3.543621,4.534802,-13.960386,-25.863148,38.728188,-55.170692,6.222364,-25.860565,-27.081997,-3.165781,-13.981643,0.000000,165.000000,4.000000,,,,0.000000,4.000000,4.000000,4.000000,4.000000,4.000000,4.000000,4.000000,4.000000,4.000000,4.000000,4.000000,4.000000,4.000000,4.000000,4.000000,4.000000,4.000000,4.000000,4.000000,4.000000,4.000000,4.000000,4.000000,4.000000,4.000000,4.000000,4.000000,4.000000,4.000000,4.000000,4.000000,4.000000,100.000000
1615774327.184987,18.000000,0.000000,-9.026995,5.338275,1.912244,10.963966,-2.181456,9.697392,1.991644,-12.091885,2.941310,-14.253608,10.887943,0.443682,-3.938989,-6.789949,4.771154,54.331173,-1.916088,7.343711,23.901066,-38.853008,-41.113182,-6.104179,5.043087,-13.433605,-30.452669,52.022793,-56.141163,6.216142,-27.885986,-37.311325,-4.701077,-20.634327,0.000000,203.000000,4.000000,,,,0.000000,4.000000,4.000000,4.000000,4.000000,4.000000,4.000000,4.000000,4.000000,4.000000,4.000000,4.000000,4.000000,4.000000,4.000000,4.000000,4.000000,4.000000,4.000000,4.000000,4.000000,4.000000,4.000000,4.000000,4.000000,4.000000,4.000000,4.000000,4.000000,4.000000,4.000000,4.000000,4.000000,100.000000
1615774327.192736,19.000000,0.000000,-7.992327,3.281655,-0.140950,10.953003,-12.948504,9.687695,0.451191,-9.515690,0.887087,-22.957304,14.979619,0.443238,4.782899,-5.757518,16.048435,61.456329,3.214033,9.387650,23.877165,-38.301334,-41.584888,-5.585255,5.038044,-15.471454,-28.883755,42.227180,-58.136303,6.209926,-29.396563,-34.197090,-9.311760,-24.203438,0.000000,195.000000,4.000000,,,,0.000000,4.000000,4.000000,4.000000,4.000000,4.000000,4.000000,4.000000,4.000000,4.000000,4.000000,4.000000,4.000000,4.000000,4.000000,4.000000,4.000000,4.000000,4.000000,4.000000,4.000000,4.000000,4.000000,4.000000,4.000000,4.000000,4.000000,4.000000,4.000000,4.000000,4.000000,4.000000,4.000000,100.000000
1615774327.200385,20.000000,0.000000,-5.933053,2.252732,-2.192091,11.454870,-14.986838,9.678007,0.963560,-6.942071,7.552866,-19.857424,11.374896,0.442795,1.701193,-6.777402,10.904181,59.343590,4.236460,11.942365,23.340466,-38.775856,-41.030483,-7.630952,5.033006,-17.507263,-26.803589,33.467003,-58.590988,6.203716,-27.828705,-24.932125,-11.866551,-22.640772,0.000000,203.000000,4.000000,,,,0.000000,4.000000,4.000000,4.000000,4.000000,4.000000,4.000000,4.000000,4.000000,4.000000,4.000000,4.000000,4.000000,4.000000,4.000000,4.000000,4.000000,4.000000,4.000000,4.000000,4.000000,4.000000,4.000000,4.000000,4.000000,4.000000,4.000000,4.000000,4.000000,4.000000,4.000000,4.000000,4.000000,100.000000
1615774327.208134,21.000000,0.000000,-5.414299,2.763300,-9.369386,10.930594,-13.946211,9.668328,0.962597,-13.088976,12.673519,-17.273462,1.107111,0.442352,-9.582560,-7.796266,-2.952877,43.386810,-2.434443,10.904781,21.265844,-44.890926,-40.989452,-13.264346,5.027973,-17.489758,-27.289606,33.433537,-61.096500,6.197513,-26.262415,-25.932835,-11.341865,-22.618132,0.000000,190.000000,4.000000,,,,0.000000,4.000000,4.000000,4.000000,4.000000,4.000000,4.000000,4.000000,4.000000,4.000000,4.000000,4.000000,4.000000,4.000000,4.000000,4.000000,4.000000,4.000000,4.000000,4.000000,4.000000,4.000000,4.000000,4.000000,4.000000,4.000000,4.000000,4.000000,4.000000,4.000000,4.000000,4.000000,4.000000,100.000000
1615774327.215783,22.000000,0.000000,-5.408885,2.760537,-12.949760,11.432485,-14.445085,8.120199,0.961634,-14.614348,4.968537,-19.307472,-0.945278,0.441910,-8.034515,-6.250008,-1.411463,40.779324,-6.021752,11.406697,20.218937,-49.974239,-41.461285,-13.763903,5.022945,-19.010729,-27.775137,36.989845,-61.035404,6.191315,-24.697691,-34.624851,-11.330523,-23.108334,0.000000,194.000000,4.000000,,,,0.000000,4.000000,4.000000,4.000000,4.000000,4.000000,4.000000,4.000000,4.000000,4.000000,4.000000,4.000000,4.000000,4.000000,4.000000,4.000000,4.000000,4.000000,4.000000,4.000000,4.000000,4.000000,4.000000,4.000000,4.000000,4.000000,4.000000,4.000000,4.000000,4.000000,4.000000,4.000000,4.000000,100.000000
1615774327.223532,23.000000,0.000000,-4.377835,2.757776,-11.911169,11.421052,-13.404999,6.060797,0.960673,-7.420247,3.937928,-18.262524,8.286436,0.441468,-2.898276,-6.243758,1.154051,44.328285,-5.502910,11.395290,19.173077,-50.949905,-40.907001,-10.160395,5.017922,-21.042999,-27.234541,37.978497,-57.384624,7.210765,-21.083248,-36.641506,-11.319192,-22.059584,0.000000,196.000000,4.000000,,,,0.000000,4.000000,4.000000,4.000000,4.000000,4.000000,4.000000,4.000000,4.000000,4.000000,4.000000,4.000000,4.000000,4.000000,4.000000,4.000000,4.000000,4.000000,4.000000,4.000000,4.000000,4.000000,4.000000,4.000000,4.000000,4.000000,4.000000,4.000000,4.000000,4.000000,4.000000,4.000000,4.000000,100.000000
1615774327.231181,24.000000,0.000000,-5.911918,3.267839,-12.412079,11.409631,-13.904414,5.541915,0.959712,-2.797442,17.267323,-12.090414,10.329432,0.441026,-5.459480,-7.775975,2.691359,47.360882,-6.010227,10.871075,19.666725,-49.360497,-40.866096,-10.663055,5.012905,-21.534777,-27.207306,25.120007,-58.865700,5.152272,-24.139090,-29.425379,-11.307873,-23.063166,0.000000,188.000000,4.000000,,,,0.000000,4.000000,4.000000,4.000000,4.000000,4.000000,4.000000,4.000000,4.000000,4.000000,4.000000,4.000000,4.000000,4.000000,4.000000,4.000000,4.000000,4.000000,4.000000,4.000000,4.000000,4.000000,4.000000,4.000000,4.000000,4.000000,4.000000,4.000000,4.000000,4.000000,4.000000,4.000000,4.000000,100.000000
1615774327.238931,25.000000,0.000000,-4.367545,2.238930,-8.297103,11.398222,-13.377689,6.049194,0.958752,-3.307465,16.224415,-7.462939,9.293462,0.440585,-1.351457,-2.639994,16.022001,66.800697,-3.952935,16.501228,27.339365,-43.670109,-40.825230,-5.524187,5.007892,-21.000422,-26.154459,23.556425,-57.268375,2.583017,-29.243155,-27.857492,-11.809385,-22.014462,0.000000,194.000000,4.000000,,,,0.000000,4.000000,4.000000,4.000000,4.000000,4.000000,4.000000,4.000000,4.000000,4.000000,4.000000,4.000000,4.000000,4.000000,4.000000,4.000000,4.000000,4.000000,4.000000,4.000000,4.000000,4.000000,4.000000,4.000000,4.000000,4.000000,4.000000,4.000000,4.000000,4.000000,4.000000,4.000000,4.000000,100.000000
1615774327.246580,26.000000,0.000000,4.354772,2.749511,-0.596498,11.899644,-1.569440,6.043145,0.957793,-3.816978,11.592806,-7.455476,24.668783,0.440145,9.931946,6.593415,27.800850,81.092873,0.666402,22.638575,35.517155,-35.934132,-40.784405,3.199286,5.002884,-20.979422,-24.589842,52.763638,-47.980335,5.657357,-22.547245,-33.983479,-9.233473,-19.428345,0.000000,187.000000,4.000000,,,,0.000000,4.000000,4.000000,4.000000,4.000000,4.000000,4.000000,4.000000,4.000000,4.000000,4.000000,4.000000,4.000000,4.000000,4.000000,4.000000,4.000000,4.000000,4.000000,4.000000,4.000000,4.000000,4.000000,4.000000,4.000000,4.000000,4.000000,4.000000,4.000000,4.000000,4.000000,4.000000,4.000000,100.000000
1615774327.254329,27.000000,0.000000,10.504263,5.823685,-0.083081,11.887744,6.124437,6.037102,0.956836,-4.325982,23.376085,-4.883918,36.438988,2.490986,15.050220,9.150924,27.773050,69.729729,2.204198,23.128756,34.455997,-33.846916,-40.743618,1.657625,4.997881,-20.958443,-22.513969,55.274975,-53.573383,6.677341,-14.832390,-27.795650,-4.608855,-20.434557,0.000000,195.000000,4.000000,,,,0.000000,4.000000,4.000000,4.000000,4.000000,4.000000,4.000000,4.000000,4.000000,4.000000,4.000000,4.000000,4.000000,4.000000,4.000000,4.000000,4.000000,4.000000,4.000000,4.000000,4.000000,4.000000,4.000000,4.000000,4.000000,4.000000,4.000000,4.000000,4.000000,4.000000,4.000000,4.000000,4.000000,100.000000
1615774327.261978,28.000000,0.000000,8.955297,5.817862,-5.724023,7.260472,-4.138097,6.031065,0.955879,-2.783194,24.891171,-7.443137,24.607676,4.539777,15.547990,8.628953,27.745277,65.557434,2.201993,23.105627,34.934361,-34.838707,-40.702877,-6.036340,4.992883,-22.988766,-22.491457,22.912010,-71.981346,0.003997,-21.997046,-15.972983,-5.629887,-25.029507,0.000000,210.000000,4.000000,,,,0.000000,4.000000,4.000000,4.000000,4.000000,4.000000,4.000000,4.000000,4.000000,4.000000,4.000000,4.000000,4.000000,4.000000,4.000000,4.000000,4.000000,4.000000,4.000000,4.000000,4.000000,4.000000,4.000000,4.000000,4.000000,4.000000,4.000000,4.000000,4.000000,4.000000,4.000000,4.000000,4.000000,100.000000
1615774327.269727,29.000000,0.000000,5.869419,1.196659,-7.769581,4.176288,-13.877549,6.537854,1.467743,-2.780411,12.045767,-15.128001,8.685632,4.022417,12.968339,9.133144,24.127789,68.568802,2.199791,22.569700,36.437889,-34.291050,-40.662174,-6.543124,4.987890,-23.991419,-29.135632,18.273712,-75.499107,-5.637033,-30.692997,-26.213421,-10.239642,-28.081400,0.000000,203.000000,4.000000,,,,0.000000,4.000000,4.000000,4.000000,4.000000,4.000000,4.000000,4.000000,4.000000,4.000000,4.000000,4.000000,4.000000,4.000000,4.000000,4.000000,4.000000,4.000000,4.000000,4.000000,4.000000,4.000000,4.000000,4.000000,4.000000,4.000000,4.000000,4.000000,4.000000,4.000000,4.000000,4.000000,4.000000,100.000000
1615774327.277376,30.000000,0.000000,3.812267,-1.368640,-7.248991,4.172112,-10.786748,6.018496,0.953455,-12.521220,10.495259,-4.343643,3.548741,1.454292,-0.377963,-0.619579,6.667762,49.013054,-1.392152,14.342003,26.145041,-34.256760,-40.621510,-6.023761,4.982902,-24.480247,-37.311623,46.460567,-68.756943,-5.118576,-29.636662,-43.110283,-11.255043,-29.078960,0.000000,184.000000,4.000000,,,,0.000000,4.000000,4.000000,4.000000,4.000000,4.000000,4.000000,4.000000,4.000000,4.000000,4.000000,4.000000,4.000000,4.000000,4.000000,4.000000,4.000000,4.000000,4.000000,4.000000,4.000000,4.000000,4.000000,4.000000,4.000000,4.000000,4.000000,4.000000,4.000000,4.000000,4.000000,4.000000,4.000000,100.000000
1615774327.285125,31.000000,0.000000,2.782814,-0.854451,-7.754563,2.629478,-8.724680,6.012477,0.952502,-16.611263,12.536046,10.532495,6.622116,0.427197,-8.069893,-10.362549,-3.595316,33.066605,-5.493324,6.635354,16.375305,-34.735321,-40.580891,-9.607481,5.490740,-25.481407,-39.325596,38.721798,-69.713829,-4.087816,-28.068563,-35.887688,-10.730968,-30.075523,0.000000,189.000000,4.000000,,,,0.000000,4.000000,4.000000,4.000000,4.000000,4.000000,4.000000,4.000000,4.000000,4.000000,4.000000,4.000000,4.000000,4.000000,4.000000,4.000000,4.000000,4.000000,4.000000,4.000000,4.000000,4.000000,4.000000,4.000000,4.000000,4.000000,4.000000,4.000000,4.000000,4.000000,4.000000,4.000000,4.000000,100.000000
1615774327.292774,32.000000,0.000000,2.780031,-0.340776,-8.259629,0.575567,-10.767237,7.032105,1.977190,-7.363883,6.369664,-4.862652,22.000109,0.426770,3.733049,-4.711161,3.587767,44.315590,-6.000651,10.218462,19.948673,-34.700588,-40.540306,-10.623514,4.972428,-23.404644,-37.747807,28.939487,-64.003090,-5.109369,-29.578957,-26.108210,-10.720237,-30.045446,8064.000000,0.000000,4.000000,,,,0.000000,4.000000,4.000000,4.000000,4.000000,4.000000,4.000000,4.000000,4.000000,4.000000,4.000000,4.000000,4.000000,4.000000,4.000000,4.000000,4.000000,4.000000,4.000000,4.000000,4.000000,4.000000,4.000000,4.000000,4.000000,4.000000,4.000000,4.000000,4.000000,4.000000,4.000000,4.000000,4.000000,100.000000
1615774327.300623,33.000000,0.000000,-2.350954,-3.417358,-7.738549,0.062171,-9.730828,4.973792,-0.588889,-4.792416,4.312012,-21.780867,28.644775,0.426343,10.908803,2.473038,9.225204,54.527683,-5.481830,15.336449,23.005648,-34.665886,-40.499767,-9.587250,2.916174,-21.329958,-38.735699,51.987473,-55.221138,-5.104259,-29.549377,-40.953896,-12.247978,-29.502581,8064.000000,0.000000,4.000000,,,,0.000000,4.000000,4.000000,4.000000,4.000000,4.000000,4.000000,4.000000,4.000000,4.000000,4.000000,4.000000,4.000000,4.000000,4.000000,4.000000,4.000000,4.000000,4.000000,4.000000,4.000000,4.000000,4.000000,4.000000,4.000000,4.000000,4.000000,4.000000,4.000000,4.000000,4.000000,4.000000,4.000000,100.000000
1615774327.308373,34.000000,0.000000,-9.015270,-9.567787,-7.730810,-1.476353,-11.772380,-1.697849,-8.793428,-13.505572,5.846161,-13.553957,14.769977,-0.086904,4.231228,-4.708922,7.677518,51.909054,-5.476348,14.808291,19.392899,-36.682503,-40.972088,-9.577662,1.374796,-26.949654,-39.209785,47.832920,-61.832581,-4.586335,-29.007008,-51.682171,-15.312654,-29.985899,8064.000000,0.000000,4.000000,,,,0.000000,4.000000,4.000000,4.000000,4.000000,4.000000,4.000000,4.000000,4.000000,4.000000,4.000000,4.000000,4.000000,4.000000,4.000000,4.000000,4.000000,4.000000,4.000000,4.000000,4.000000,4.000000,4.000000,4.000000,4.000000,4.000000,4.000000,4.000000,4.000000,4.000000,4.000000,4.000000,4.000000,100.000000
1615774327.316222,35.000000,0.000000,-9.519075,-11.609502,-8.235900,-3.526159,-16.375992,-5.285895,-10.835917,-14.004888,5.840315,-15.591685,7.062899,0.426004,3.714176,-10.858060,7.669840,53.908424,-5.470872,14.793483,20.911966,-38.184280,-40.418297,-9.568085,0.860601,-31.538088,-37.119293,18.041496,-68.437416,-4.581748,-28.978001,-39.322800,-18.374264,-29.443092,8064.000000,0.000000,4.000000,,,,0.000000,4.000000,4.000000,4.000000,4.000000,4.000000,4.000000,4.000000,4.000000,4.000000,4.000000,4.000000,4.000000,4.000000,4.000000,4.000000,4.000000,4.000000,4.000000,4.000000,4.000000,4.000000,4.000000,4.000000,4.000000,4.000000,4.000000,4.000000,4.000000,4.000000,4.000000,4.000000,4.000000,100.000000
1615774327.323971,36.000000,0.000000,-8.483915,-9.033790,-7.714843,-3.522632,-14.821155,-2.716506,-7.235338,-10.401138,5.834475,-26.858145,1.927631,0.425577,1.659180,-9.821561,8.687812,56.931442,-6.491042,15.804331,23.967978,-38.146099,-40.377876,-9.558517,1.372561,-26.891165,-35.030891,22.638840,-61.189491,-4.577167,-28.949024,-26.462963,-18.355890,-26.849546,8064.000000,0.000000,4.000000,,,,0.000000,4.000000,4.000000,4.000000,4.000000,4.000000,4.000000,4.000000,4.000000,4.000000,4.000000,4.000000,4.000000,4.000000,4.000000,4.000000,4.000000,4.000000,4.000000,4.000000,4.000000,4.000000,4.000000,4.000000,4.000000,4.000000,4.000000,4.000000,4.000000,4.000000,4.000000,4.000000,4.000000,100.000000
1615774327.331820,37.000000,0.000000,-9.501072,-7.999115,-7.707129,-3.006289,-10.703770,-0.662508,-8.253743,-10.903558,5.315820,-16.574877,-11.920450,0.425152,-9.624531,-12.888662,5.089380,48.669380,-9.048654,14.762885,22.405548,-38.107952,-40.850319,-10.061779,1.371188,-23.274530,-33.457401,45.180305,-56.000095,-4.572589,-28.920074,-26.436499,-18.337534,-25.797056,8064.000000,0.000000,4.000000,,,,0.000000,4.000000,4.000000,4.000000,4.000000,4.000000,4.000000,4.000000,4.000000,4.000000,4.000000,4.000000,4.000000,4.000000,4.000000,4.000000,4.000000,4.000000,4.000000,4.000000,4.000000,4.000000,4.000000,4.000000,4.000000,4.000000,4.000000,4.000000,4.000000,4.000000,4.000000,4.000000,4.000000,100.000000
1615774327.339569,38.000000,0.000000,-7.440289,-8.503936,-8.212242,-3.003283,-9.154604,-1.687486,-9.271131,-7.815732,5.823325,-6.301891,2.450444,0.937547,-5.512342,-13.388594,4.571470,41.954044,-10.065246,15.773764,26.998528,-38.582664,-39.271008,-8.000435,1.369817,-24.789719,-29.321379,48.212048,-56.969738,-4.568017,-29.403975,-32.563908,-18.319197,-26.284081,8064.000000,0.000000,4.000000,,,,0.000000,4.000000,4.000000,4.000000,4.000000,4.000000,4.000000,4.000000,4.000000,4.000000,4.000000,4.000000,4.000000,4.000000,4.000000,4.000000,4.000000,4.000000,4.000000,4.000000,4.000000,4.000000,4.000000,4.000000,4.000000,4.000000,4.000000,4.000000,4.000000,4.000000,4.000000,4.000000,4.000000,100.000000
1615774327.347418,39.000000,0.000000,-2.304643,-5.931330,-6.152748,-3.000280,-4.530065,-1.172978,-3.620834,-1.141249,6.330322,-13.475077,31.165943,3.500712,11.929068,-2.605975,11.746387,53.706963,-8.516719,21.399015,34.151016,-37.518440,-36.154816,-5.941152,1.368447,-24.764929,-26.215134,45.086910,-54.861485,-4.563449,-28.348930,-30.992884,-18.300877,-23.180872,8064.000000,0.000000,4.000000,,,,0.000000,4.000000,4.000000,4.000000,4.000000,4.000000,4.000000,4.000000,4.000000,4.000000,4.000000,4.000000,4.000000,4.000000,4.000000,4.000000,4.000000,4.000000,4.000000,4.000000,4.000000,4.000000,4.000000,4.000000,4.000000,4.000000,4.000000,4.000000,4.000000,4.000000,4.000000,4.000000,4.000000,100.000000
1615774327.355167,40.000000,0.000000,-0.251057,-3.874116,-1.531210,-2.997279,-1.961432,-0.658985,-3.104393,-0.114467,1.195786,-17.051346,21.904007,4.522852,14.481241,6.114580,15.837204,68.012230,-5.944100,23.941719,32.578403,-37.993744,-38.169941,-5.422390,1.367079,-23.714521,-26.188919,41.964901,-52.755341,-5.071706,-27.807760,-20.705481,-18.282576,-18.542307,8064.000000,0.000000,4.000000,,,,0.000000,4.000000,4.000000,4.000000,4.000000,4.000000,4.000000,4.000000,4.000000,4.000000,4.000000,4.000000,4.000000,4.000000,4.000000,4.000000,4.000000,4.000000,4.000000,4.000000,4.000000,4.000000,4.000000,4.000000,4.000000,4.000000,4.000000,4.000000,4.000000,4.000000,4.000000,4.000000,4.000000,100.000000
1615774327.363016,41.000000,0.000000,-1.276447,-5.921524,0.008782,-2.994282,-8.113317,-3.222428,-9.255135,-3.191275,-0.856691,-14.470191,11.625693,2.467048,6.774453,5.082824,12.744444,62.816013,-5.425335,19.302393,31.007364,-41.032673,-39.670235,-5.929789,1.365712,-24.203629,-26.675550,46.025501,-53.215408,-4.553814,-29.831234,-23.248878,-18.264294,-18.010944,8064.000000,0.000000,4.000000,,,,0.000000,4.000000,4.000000,4.000000,4.000000,4.000000,4.000000,4.000000,4.000000,4.000000,4.000000,4.000000,4.000000,4.000000,4.000000,4.000000,4.000000,4.000000,4.000000,4.000000,4.000000,4.000000,4.000000,4.000000,4.000000,4.000000,4.000000,4.000000,4.000000,4.000000,4.000000,4.000000,4.000000,100.000000
1615774327.370765,42.000000,0.000000,-1.275170,-7.966885,-0.504047,-2.991288,-8.105204,-4.757668,-10.271521,-3.700905,5.298011,-11.378798,26.485863,0.413299,6.767678,4.564921,11.706059,51.983967,-5.419910,19.283091,36.617382,-39.453178,-38.092102,-5.923859,1.364346,-24.179424,-26.136055,62.902554,-53.162193,-2.497978,-26.211660,-34.507679,-18.246029,-19.018574,8064.000000,0.000000,4.000000,,,,0.000000,4.000000,4.000000,4.000000,4.000000,4.000000,4.000000,4.000000,4.000000,4.000000,4.000000,4.000000,4.000000,4.000000,4.000000,4.000000,4.000000,4.000000,4.000000,4.000000,4.000000,4.000000,4.000000,4.000000,4.000000,4.000000,4.000000,4.000000,4.000000,4.000000,4.000000,4.000000,4.000000,100.000000
1615774327.378614,43.000000,0.000000,-0.761075,-7.958918,0.009278,-2.988297,-1.943252,-2.188807,-6.158685,-5.235665,7.856816,-4.187932,16.202967,0.412885,6.760911,5.073177,13.232814,57.573006,-4.901670,25.417654,38.632046,-34.798340,-37.541187,-5.917935,1.362982,-24.155245,-26.622738,61.814007,-55.160313,-0.444198,-17.467499,-22.678301,-18.227783,-17.973915,8064.000000,0.000000,4.000000,,,,0.000000,4.000000,4.000000,4.000000,4.000000,4.000000,4.000000,4.000000,4.000000,4.000000,4.000000,4.000000,4.000000,4.000000,4.000000,4.000000,4.000000,4.000000,4.000000,4.000000,4.000000,4.000000,4.000000,4.000000,4.000000,4.000000,4.000000,4.000000,4.000000,4.000000,4.000000,4.000000,4.000000,100.000000
1615774327.386363,44.000000,0.000000,-1.273134,-7.950959,-1.016373,-3.498129,-6.043873,-1.160977,-6.152526,-7.281712,10.925882,-7.260667,-6.377339,0.412472,1.113124,2.504001,10.655478,63.669281,-5.922409,22.828133,35.003670,-37.327644,-40.067749,-5.912017,1.361619,-24.131090,-26.596115,39.188091,-59.207714,-0.956574,-21.039776,-16.501776,-18.209555,-19.494402,8064.000000,0.000000,4.000000,,,,0.000000,4.000000,4.000000,4.000000,4.000000,4.000000,4.000000,4.000000,4.000000,4.000000,4.000000,4.000000,4.000000,4.000000,4.000000,4.000000,4.000000,4.000000,4.000000,4.000000,4.000000,4.000000,4.000000,4.000000,4.000000,4.000000,4.000000,4.000000,4.000000,4.000000,4.000000,4.000000,4.000000,100.000000
1615774327.394212,45.000000,0.000000,-1.271861,-7.943008,-4.605100,-2.981810,-11.678855,-2.185457,-7.172015,-6.761610,12.453418,-19.561098,7.988012,0.412060,-1.452092,0.450215,5.516618,56.426125,-8.480589,12.548895,31.891745,-41.905701,-40.540504,-5.906105,1.360257,-24.106958,-26.569519,29.405313,-61.199791,-0.955618,-34.352070,-41.100658,-19.216988,-23.064651,8064.000000,0.000000,4.000000,,,,0.000000,4.000000,4.000000,4.000000,4.000000,4.000000,4.000000,4.000000,4.000000,4.000000,4.000000,4.000000,4.000000,4.000000,4.000000,4.000000,4.000000,4.000000,4.000000,4.000000,4.000000,4.000000,4.000000,4.000000,4.000000,4.000000,4.000000,4.000000,4.000000,4.000000,4.000000,4.000000,4.000000,100.000000
1615774327.401961,46.000000,0.000000,-1.270589,-7.935065,-4.087674,-0.927546,-4.487689,-1.670452,-6.139202,-9.318951,-4.994933,-19.028717,24.903101,0.411648,-0.937819,0.962585,4.485460,51.754314,-9.497749,9.459422,30.321392,-42.376614,-39.987141,-6.413020,1.358897,-24.082851,-27.055771,29.375908,-61.138592,-0.954662,-37.907459,-43.110840,-17.659307,-19.451843,8064.000000,0.000000,4.000000,,,,0.000000,4.000000,4.000000,4.000000,4.000000,4.000000,4.000000,4.000000,4.000000,4.000000,4.000000,4.000000,4.000000,4.000000,4.000000,4.000000,4.000000,4.000000,4.000000,4.000000,4.000000,4.000000,4.000000,4.000000,4.000000,4.000000,4.000000,4.000000,4.000000,4.000000,4.000000,4.000000,4.000000,100.000000
1615774327.409810,47.000000,0.000000,-1.269318,-8.439950,-4.083587,1.124663,-2.944740,-1.155961,-6.133062,-9.822452,-19.861732,-13.368663,18.724352,-0.101584,-0.424061,0.961623,4.993795,56.317944,-8.975431,14.578168,30.291069,-40.795776,-39.434334,-5.380966,1.357538,-24.058769,-26.515894,33.449097,-60.051811,-0.953707,-33.254169,-19.990807,-14.564726,-15.329827,8064.000000,0.000000,4.000000,,,,0.000000,4.000000,4.000000,4.000000,4.000000,4.000000,4.000000,4.000000,4.000000,4.000000,4.000000,4.000000,4.000000,4.000000,4.000000,4.000000,4.000000,4.000000,4.000000,4.000000,4.000000,4.000000,4.000000,4.000000,4.000000,4.000000,4.000000,4.000000,4.000000,4.000000,4.000000,4.000000,4.000000,100.000000
1615774327.417559,48.000000,0.000000,-1.268049,-7.405869,-7.156426,0.097898,-13.711025,-2.180446,-7.152570,-1.607501,0.158129,-14.893756,18.705627,0.411338,1.114825,0.960661,4.988801,60.877010,-8.966455,16.102051,31.286419,-40.242161,-39.907719,-4.862764,1.356181,-24.547531,-25.976559,52.390007,-56.402016,-0.952754,-32.195274,-27.150303,-15.062982,-15.314498,8064.000000,0.000000,4.000000,,,,0.000000,4.000000,4.000000,4.000000,4.000000,4.000000,4.000000,4.000000,4.000000,4.000000,4.000000,4.000000,4.000000,4.000000,4.000000,4.000000,4.000000,4.000000,4.000000,4.000000,4.000000,4.000000,4.000000,4.000000,4.000000,4.000000,4.000000,4.000000,4.000000,4.000000,4.000000,4.000000,4.000000,100.000000
1615774327.425208,49.000000,0.000000,-1.266781,-4.834361,-3.046705,1.123441,-6.517828,2.437119,-3.555674,4.547952,23.234894,-6.673734,23.302307,3.487849,3.164992,0.959700,4.983812,60.303314,-8.957489,14.034668,29.716671,-41.740379,-40.380634,-6.909184,1.354824,-22.984522,-26.976223,62.594028,-53.268692,-0.951801,-32.163078,-39.430843,-14.022278,-9.658157,8064.000000,0.000000,4.000000,,,,0.000000,4.000000,4.000000,4.000000,4.000000,4.000000,4.000000,4.000000,4.000000,4.000000,4.000000,4.000000,4.000000,4.000000,4.000000,4.000000,4.000000,4.000000,4.000000,4.000000,4.000000,4.000000,4.000000,4.000000,4.000000,4.000000,4.000000,4.000000,4.000000,4.000000,4.000000,4.000000,4.000000,100.000000
1615774327.432957,50.000000,0.000000,-1.265514,-3.803885,7.725572,5.737702,15.539972,10.639811,4.140189,-0.071980,24.237301,7.179094,14.561056,3.997182,3.161827,0.958741,4.466008,56.653267,-8.948532,14.533453,32.763878,-41.185818,-37.263329,-4.338171,0.840649,-20.910255,-25.410786,48.685280,-52.189781,-0.950849,-29.053991,-16.827311,-5.803127,1.120732,8064.000000,0.000000,4.000000,,,,0.000000,4.000000,4.000000,4.000000,4.000000,4.000000,4.000000,4.000000,4.000000,4.000000,4.000000,4.000000,4.000000,4.000000,4.000000,4.000000,4.000000,4.000000,4.000000,4.000000,4.000000,4.000000,4.000000,4.000000,4.000000,4.000000,4.000000,4.000000,4.000000,4.000000,4.000000,4.000000,4.000000,100.000000
1615774327.440606,51.000000,0.000000,-1.264249,-4.312902,10.281949,8.808887,16.550074,14.218914,8.238613,-4.174472,29.854088,7.684735,6.854187,1.429083,3.158665,0.957782,4.974362,64.288918,-8.426763,19.647125,42.987526,-34.477966,-36.713245,1.307192,1.352629,-19.863705,-19.744349,36.841721,-53.163231,-0.949898,-25.435194,0.112593,0.869343,5.734995,8064.000000,0.000000,4.000000,,,,0.000000,4.000000,4.000000,4.000000,4.000000,4.000000,4.000000,4.000000,4.000000,4.000000,4.000000,4.000000,4.000000,4.000000,4.000000,4.000000,4.000000,4.000000,4.000000,4.000000,4.000000,4.000000,4.000000,4.000000,4.000000,4.000000,4.000000,4.000000,4.000000,4.000000,4.000000,4.000000,4.000000,100.000000
1615774327.448355,52.000000,0.000000,-1.262985,-4.308589,4.630641,8.287258,0.636088,13.179054,8.230374,-1.606195,32.901157,-2.579360,9.924256,0.402012,3.155506,0.956824,5.995029,75.506683,-9.443977,19.627478,36.277870,-34.443489,-43.343201,-4.847961,1.351276,-19.843840,-20.750244,35.266418,-57.725452,-0.948948,-24.384117,-10.656751,-1.182809,1.113876,8064.000000,0.000000,4.000000,,,,0.000000,4.000000,4.000000,4.000000,4.000000,4.000000,4.000000,4.000000,4.000000,4.000000,4.000000,4.000000,4.000000,4.000000,4.000000,4.000000,4.000000,4.000000,4.000000,4.000000,4.000000,4.000000,4.000000,4.000000,4.000000,4.000000,4.000000,4.000000,4.000000,4.000000,4.000000,4.000000,4.000000,100.000000
1615774327.456005,53.000000,0.000000,-1.774542,-4.817101,2.574729,7.253330,-3.979933,14.191516,8.222144,0.446693,13.893897,-6.679345,16.068178,-0.624031,3.665171,0.955867,3.424932,60.559380,-11.998635,5.761697,9.574925,-51.332123,-46.889599,-16.125164,0.324284,-21.362457,-30.985905,41.384998,-60.231831,-0.947999,-24.872555,-26.030708,-4.258549,-10.169290,8064.000000,0.000000,4.000000,,,,0.000000,4.000000,4.000000,4.000000,4.000000,4.000000,4.000000,4.000000,4.000000,4.000000,4.000000,4.000000,4.000000,4.000000,4.000000,4.000000,4.000000,4.000000,4.000000,4.000000,4.000000,4.000000,4.000000,4.000000,4.000000,4.000000,4.000000,4.000000,4.000000,4.000000,4.000000,4.000000,4.000000,100.000000
1615774327.463754,54.000000,0.000000,-1.259947,-4.299464,3.084975,7.758897,-0.899030,11.613222,8.726743,-0.066574,3.110772,7.173489,15.539289,-1.649048,2.635865,0.954911,1.370225,38.960361,-13.012278,4.217474,-0.691059,-60.511559,-44.278606,-18.160322,1.862421,-23.905197,-34.031841,52.625664,-57.094677,-0.947051,-24.847681,-29.594421,-3.228649,-18.364248,8064.000000,0.000000,4.000000,,,,0.000000,4.000000,4.000000,4.000000,4.000000,4.000000,4.000000,4.000000,4.000000,4.000000,4.000000,4.000000,4.000000,4.000000,4.000000,4.000000,4.000000,4.000000,4.000000,4.000000,4.000000,4.000000,4.000000,4.000000,4.000000,4.000000,4.000000,4.000000,4.000000,4.000000,4.000000,4.000000,4.000000,100.000000
1615774327.471403,55.000000,0.000000,-0.745867,-3.782344,3.081890,8.776779,-2.436593,6.986225,8.205195,-0.579328,13.364072,16.397085,15.010929,-0.621758,2.633229,0.953957,4.958598,50.203453,-12.486445,18.572229,17.258350,-50.707458,-44.234329,-15.578058,5.450302,-24.394114,-27.331144,43.855091,-58.063221,-1.458925,-24.822834,-17.769957,-2.712600,-18.345884,8064.000000,0.000000,4.000000,,,,0.000000,4.000000,4.000000,4.000000,4.000000,4.000000,4.000000,4.000000,4.000000,4.000000,4.000000,4.000000,4.000000,4.000000,4.000000,4.000000,4.000000,4.000000,4.000000,4.000000,4.000000,4.000000,4.000000,4.000000,4.000000,4.000000,4.000000,4.000000,4.000000,4.000000,4.000000,4.000000,4.000000,100.000000
1615774327.479152,56.000000,0.000000,-1.770762,-5.317023,3.078808,5.691079,-3.459797,4.927956,8.196990,-0.065928,12.837888,-4.644954,22.175406,0.917326,3.656237,-0.072638,1.363896,55.281452,-12.473959,9.835710,21.856476,-45.015724,-47.267017,-17.100943,4.419211,-23.856899,-27.816633,29.452261,-60.569260,-0.944645,-25.310831,-16.726545,-5.273990,-18.840359,8064.000000,0.000000,4.000000,,,,0.000000,4.000000,4.000000,4.000000,4.000000,4.000000,4.000000,4.000000,4.000000,4.000000,4.000000,4.000000,4.000000,4.000000,4.000000,4.000000,4.000000,4.000000,4.000000,4.000000,4.000000,4.000000,4.000000,4.000000,4.000000,4.000000,4.000000,4.000000,4.000000,4.000000,4.000000,4.000000,4.000000,100.000000
1615774327.486801,57.000000,0.000000,-1.256171,-3.260424,2.050088,0.044362,-2.943517,4.923028,8.188793,-0.065862,4.619921,-14.896719,16.512205,0.403588,2.114119,-2.123848,-7.355417,34.713352,-12.461485,-8.122845,6.450004,-49.073273,-47.219749,-17.596661,5.440433,-24.858683,-31.891380,54.038193,-53.842026,1.107581,-24.259880,-39.273922,-7.319998,-19.847158,8064.000000,0.000000,4.000000,,,,0.000000,4.000000,4.000000,4.000000,4.000000,4.000000,4.000000,4.000000,4.000000,4.000000,4.000000,4.000000,4.000000,4.000000,4.000000,4.000000,4.000000,4.000000,4.000000,4.000000,4.000000,4.000000,4.000000,4.000000,4.000000,4.000000,4.000000,4.000000,4.000000,4.000000,4.000000,4.000000,4.000000,100.000000
1615774327.494550,58.000000,0.000000,3.873291,5.973606,3.586499,4.146882,-2.427753,6.969387,8.180604,-0.065797,8.717865,9.733562,-7.094051,0.403184,-0.964918,-3.660186,0.344246,44.935047,-10.397741,10.346817,12.084579,-46.972919,-46.659710,-14.502142,10.563197,-22.782541,-24.167181,71.932877,-49.685619,3.157756,-21.671518,-39.747467,-6.287037,-12.647825,8064.000000,0.000000,4.000000,,,,0.000000,4.000000,4.000000,4.000000,4.000000,4.000000,4.000000,4.000000,4.000000,4.000000,4.000000,4.000000,4.000000,4.000000,4.000000,4.000000,4.000000,4.000000,4.000000,4.000000,4.000000,4.000000,4.000000,4.000000,4.000000,4.000000,4.000000,4.000000,4.000000,4.000000,4.000000,4.000000,4.000000,100.000000
1615774327.502199,59.000000,0.000000,6.433520,9.557376,6.659836,11.835043,-2.425325,11.064981,8.172423,-0.065731,13.837353,14.339213,0.605350,0.402781,3.138611,-2.118064,11.113132,71.043961,-8.336061,27.772367,35.149418,-40.772099,-45.587410,-12.436357,9.014173,-18.144375,-14.912245,43.142990,-56.302601,2.641778,-20.624205,-10.476951,-4.229468,-7.506972,8064.000000,0.000000,4.000000,,,,0.000000,4.000000,4.000000,4.000000,4.000000,4.000000,4.000000,4.000000,4.000000,4.000000,4.000000,4.000000,4.000000,4.000000,4.000000,4.000000,4.000000,4.000000,4.000000,4.000000,4.000000,4.000000,4.000000,4.000000,4.000000,4.000000,4.000000,4.000000,4.000000,4.000000,4.000000,4.000000,4.000000,100.000000
1615774327.509949,60.000000,0.000000,2.324522,2.368331,5.114715,9.259106,-2.422900,13.618019,8.164251,-0.065665,12.797874,-8.239228,29.835514,0.915199,10.314960,0.448157,5.460994,58.152401,-8.840546,11.334339,35.114269,-39.705685,-42.977718,-12.936742,-1.251252,-16.074949,-18.487076,33.869080,-61.374504,2.639136,-21.116402,-10.466474,-3.199598,-14.166132,8064.000000,0.000000,4.000000,,,,0.000000,4.000000,4.000000,4.000000,4.000000,4.000000,4.000000,4.000000,4.000000,4.000000,4.000000,4.000000,4.000000,4.000000,4.000000,4.000000,4.000000,4.000000,4.000000,4.000000,4.000000,4.000000,4.000000,4.000000,4.000000,4.000000,4.000000,4.000000,4.000000,4.000000,4.000000,4.000000,4.000000,100.000000
1615774327.517598,61.000000,0.000000,-1.780366,-1.223781,-0.018605,3.608820,-1.907656,13.091581,8.156087,-0.065599,15.349179,-1.051502,24.164654,0.914284,9.279004,0.447709,2.378610,46.812199,-8.831705,8.246081,25.848385,-40.691620,-43.960384,-13.436625,-3.301282,-16.571693,-23.596794,56.399311,-59.261845,3.149317,-21.095285,-35.071392,-3.709219,-19.280170,8064.000000,0.000000,4.000000,,,,0.000000,4.000000,4.000000,4.000000,4.000000,4.000000,4.000000,4.000000,4.000000,4.000000,4.000000,4.000000,4.000000,4.000000,4.000000,4.000000,4.000000,4.000000,4.000000,4.000000,4.000000,4.000000,4.000000,4.000000,4.000000,4.000000,4.000000,4.000000,4.000000,4.000000,4.000000,4.000000,4.000000,100.000000
1615774327.525347,62.000000,0.000000,-1.265765,-0.196916,-1.557048,4.118032,-1.905749,13.078489,8.147931,-0.065534,15.333830,11.257242,13.371258,-0.625092,6.192801,1.985722,11.094180,66.765388,-8.822873,25.160912,33.002026,-40.650928,-46.480526,-12.910368,0.804583,-16.555122,-22.547556,45.573681,-59.715405,3.146168,-21.074190,-34.010681,-7.295253,-17.722429,8064.000000,0.000000,4.000000,,,,0.000000,4.000000,4.000000,4.000000,4.000000,4.000000,4.000000,4.000000,4.000000,4.000000,4.000000,4.000000,4.000000,4.000000,4.000000,4.000000,4.000000,4.000000,4.000000,4.000000,4.000000,4.000000,4.000000,4.000000,4.000000,4.000000,4.000000,4.000000,4.000000,4.000000,4.000000,4.000000,4.000000,100.000000
1615774327.532996,63.000000,0.000000,-0.751679,-1.222360,-0.529850,4.113914,-3.955125,13.065411,8.139783,0.447352,8.651830,-3.112990,35.921989,1.426815,6.699430,6.086301,13.134368,71.826828,-8.814051,19.494726,35.533123,-40.097458,-46.434044,-12.897458,1.829419,-18.077028,-22.012188,29.117853,-60.168510,2.630201,-21.053116,-21.156157,-10.364881,-17.704706,8064.000000,0.000000,4.000000,,,,0.000000,4.000000,4.000000,4.000000,4.000000,4.000000,4.000000,4.000000,4.000000,4.000000,4.000000,4.000000,4.000000,4.000000,4.000000,4.000000,4.000000,4.000000,4.000000,4.000000,4.000000,4.000000,4.000000,4.000000,4.000000,4.000000,4.000000,4.000000,4.000000,4.000000,4.000000,4.000000,4.000000,100.000000
1615774327.540845,64.000000,0.000000,-1.263748,-0.195496,-0.529320,4.109800,-0.361426,13.052345,8.131643,-0.065916,10.181639,2.531149,34.347607,3.989491,5.667089,9.157138,8.505849,59.447308,-8.805237,6.141898,27.292463,-40.570183,-45.874790,-13.397381,0.801949,-20.110233,-23.015818,52.165657,-55.492958,3.140391,-21.032063,-22.673462,-8.816054,-18.712643,0.000000,193.000000,4.000000,,,,0.000000,4.000000,4.000000,4.000000,4.000000,4.000000,4.000000,4.000000,4.000000,4.000000,4.000000,4.000000,4.000000,4.000000,4.000000,4.000000,4.000000,4.000000,4.000000,4.000000,4.000000,4.000000,4.000000,4.000000,4.000000,4.000000,4.000000,4.000000,4.000000,4.000000,4.000000,4.000000,4.000000,100.000000
1615774327.548594,65.000000,0.000000,-1.262484,2.368802,-0.528791,6.669793,2.715858,13.552114,8.123511,-0.065850,18.376585,20.990156,2.005566,-0.117063,2.584499,9.147981,7.984523,56.823757,-8.796432,9.212679,34.444656,-40.529610,-46.341736,-12.871163,1.313967,-20.602943,-22.992802,66.472466,-51.847721,3.137251,-21.011030,-25.214891,-6.755956,-17.668289,0.000000,192.000000,4.000000,,,,0.000000,4.000000,4.000000,4.000000,4.000000,4.000000,4.000000,4.000000,4.000000,4.000000,4.000000,4.000000,4.000000,4.000000,4.000000,4.000000,4.000000,4.000000,4.000000,4.000000,4.000000,4.000000,4.000000,4.000000,4.000000,4.000000,4.000000,4.000000,4.000000,4.000000,4.000000,4.000000,4.000000,100.000000
1615774327.556443,66.000000,0.000000,-1.261222,1.340792,-0.528262,5.637482,-7.543268,12.000100,8.115388,3.011139,19.896671,4.046089,9.695868,-2.168228,2.581914,6.061909,7.976538,52.664368,-8.787635,10.741928,39.025597,-40.489082,-46.295395,-10.294189,1.312654,-20.069521,-22.456987,47.431637,-51.795872,0.570011,-20.990019,-24.164034,-7.262021,-20.214724,0.000000,197.000000,4.000000,,,,0.000000,4.000000,4.000000,4.000000,4.000000,4.000000,4.000000,4.000000,4.000000,4.000000,4.000000,4.000000,4.000000,4.000000,4.000000,4.000000,4.000000,4.000000,4.000000,4.000000,4.000000,4.000000,4.000000,4.000000,4.000000,4.000000,4.000000,4.000000,4.000000,4.000000,4.000000,4.000000,4.000000,100.000000
1615774327.564192,67.000000,0.000000,-0.234319,-0.711831,-0.527734,0.503640,-15.740852,9.423997,8.107272,3.520949,20.389595,-16.983599,39.942581,2.449325,5.143435,1.440463,4.891638,49.021961,-8.778848,8.167083,21.550674,-40.448593,-46.249100,-8.745434,1.311341,-20.049452,-22.434532,34.050869,-52.256897,-0.969020,-20.969028,-22.088589,-7.254759,-25.322714,0.000000,208.000000,4.000000,,,,0.000000,4.000000,4.000000,4.000000,4.000000,4.000000,4.000000,4.000000,4.000000,4.000000,4.000000,4.000000,4.000000,4.000000,4.000000,4.000000,4.000000,4.000000,4.000000,4.000000,4.000000,4.000000,4.000000,4.000000,4.000000,4.000000,4.000000,4.000000,4.000000,4.000000,4.000000,4.000000,4.000000,100.000000
1615774327.572041,68.000000,0.000000,-1.772547,-0.711119,-0.014386,-0.009685,-9.058445,8.901752,6.047884,-2.636418,19.343563,-5.684563,27.594948,2.446876,6.676753,0.413381,4.373926,57.690887,-8.770068,12.261480,16.400919,-40.408142,-46.202850,-9.249509,1.310030,-20.029402,-22.924917,35.042461,-53.743103,-1.480872,-20.948061,-17.963936,-8.273145,-25.810211,0.000000,224.000000,4.000000,,,,0.000000,4.000000,4.000000,4.000000,4.000000,4.000000,4.000000,4.000000,4.000000,4.000000,4.000000,4.000000,4.000000,4.000000,4.000000,4.000000,4.000000,4.000000,4.000000,4.000000,4.000000,4.000000,4.000000,4.000000,4.000000,4.000000,4.000000,4.000000,4.000000,4.000000,4.000000,4.000000,4.000000,100.000000
1615774327.579790,69.000000,0.000000,-6.898979,-2.248870,-3.091295,1.015966,-8.023746,10.431313,2.964912,-7.761987,4.965246,8.167275,6.541711,-3.196597,6.670076,1.438609,4.882373,60.197300,-8.761298,15.838963,31.256313,-40.367737,-46.156647,-9.240259,1.308720,-20.009373,-22.389172,39.109982,-55.740639,-3.530673,-20.927113,-20.510075,-10.316154,-25.271582,0.000000,186.000000,4.000000,,,,0.000000,4.000000,4.000000,4.000000,4.000000,4.000000,4.000000,4.000000,4.000000,4.000000,4.000000,4.000000,4.000000,4.000000,4.000000,4.000000,4.000000,4.000000,4.000000,4.000000,4.000000,4.000000,4.000000,4.000000,4.000000,4.000000,4.000000,4.000000,4.000000,4.000000,4.000000,4.000000,4.000000,100.000000
1615774327.587639,70.000000,0.000000,-8.943362,-4.297903,-7.190767,-1.036332,-17.759312,7.343958,0.910665,-7.754225,-7.347412,5.595006,20.381323,-2.167759,6.663406,-0.614112,4.877491,54.496078,-8.752537,15.310303,34.814800,-40.327370,-46.623310,-9.231019,1.820231,-19.989363,-21.853962,41.634975,-55.684898,-5.065604,-20.906185,-27.156231,-10.818658,-28.323233,0.000000,198.000000,4.000000,,,,0.000000,4.000000,4.000000,4.000000,4.000000,4.000000,4.000000,4.000000,4.000000,4.000000,4.000000,4.000000,4.000000,4.000000,4.000000,4.000000,4.000000,4.000000,4.000000,4.000000,4.000000,4.000000,4.000000,4.000000,4.000000,4.000000,4.000000,4.000000,4.000000,4.000000,4.000000,4.000000,4.000000,100.000000
1615774327.595388,71.000000,0.000000,-8.421598,-4.293605,-8.209217,-3.086578,-21.844116,2.721230,0.396934,-7.233650,5.480449,-8.256743,30.617352,0.911332,6.656743,-3.177600,4.872613,56.492863,-8.743785,17.346275,29.651781,-40.287041,-46.063866,-9.221788,1.305591,-19.969374,-22.857750,31.336929,-55.629215,-4.547718,-20.885279,-27.129074,-10.807839,-28.294909,0.000000,223.000000,4.000000,,,,0.000000,4.000000,4.000000,4.000000,4.000000,4.000000,4.000000,4.000000,4.000000,4.000000,4.000000,4.000000,4.000000,4.000000,4.000000,4.000000,4.000000,4.000000,4.000000,4.000000,4.000000,4.000000,4.000000,4.000000,4.000000,4.000000,4.000000,4.000000,4.000000,4.000000,4.000000,4.000000,4.000000,100.000000
1615774327.603237,72.000000,0.000000,-9.438818,-4.802132,-7.688188,-3.596312,-21.309452,1.180047,0.909358,-7.226417,18.295481,-13.376692,9.048273,0.910420,7.162907,-2.661602,4.867741,63.103035,-8.735041,18.867390,31.673410,-40.246754,-43.966522,-9.212566,0.791464,-19.949404,-22.322071,27.715849,-55.573586,-4.543170,-20.864393,-26.589125,-10.797031,-23.651230,0.000000,204.000000,4.000000,,,,0.000000,4.000000,4.000000,4.000000,4.000000,4.000000,4.000000,4.000000,4.000000,4.000000,4.000000,4.000000,4.000000,4.000000,4.000000,4.000000,4.000000,4.000000,4.000000,4.000000,4.000000,4.000000,4.000000,4.000000,4.000000,4.000000,4.000000,4.000000,4.000000,4.000000,4.000000,4.000000,4.000000,100.000000
1615774327.610986,73.000000,0.000000,-6.352456,-3.771689,-7.680500,-3.079895,-19.236860,2.204508,0.908448,-7.732011,5.969493,2.021300,-7.883852,0.909510,6.642923,-1.633299,4.862873,64.065575,-8.726306,19.361343,35.231480,-39.693687,-41.871273,-9.203354,1.816314,-19.929455,-19.222826,53.841980,-55.518013,-4.538627,-20.843529,-28.100998,-10.786235,-21.063477,0.000000,197.000000,4.000000,,,,0.000000,4.000000,4.000000,4.000000,4.000000,4.000000,4.000000,4.000000,4.000000,4.000000,4.000000,4.000000,4.000000,4.000000,4.000000,4.000000,4.000000,4.000000,4.000000,4.000000,4.000000,4.000000,4.000000,4.000000,4.000000,4.000000,4.000000,4.000000,4.000000,4.000000,4.000000,4.000000,4.000000,100.000000
1615774327.618835,74.000000,0.000000,-1.217898,-1.203814,-7.672819,-3.076815,-15.627880,2.202303,0.907540,-10.288382,-2.754425,4.070561,3.406083,-0.629861,4.072177,-4.195768,4.858010,57.847664,-8.717580,17.803520,33.144966,-40.166813,-42.342220,-9.194150,1.301677,-19.909525,-20.229244,66.608650,-54.949673,-4.534088,-20.822685,-24.995974,-10.775449,-20.529593,0.000000,201.000000,4.000000,,,,0.000000,4.000000,4.000000,4.000000,4.000000,4.000000,4.000000,4.000000,4.000000,4.000000,4.000000,4.000000,4.000000,4.000000,4.000000,4.000000,4.000000,4.000000,4.000000,4.000000,4.000000,4.000000,4.000000,4.000000,4.000000,4.000000,4.000000,4.000000,4.000000,4.000000,4.000000,4.000000,4.000000,100.000000
1615774327.626584,75.000000,0.000000,-4.806424,-1.202611,-10.229249,-3.073738,-23.817381,1.687281,0.906632,-10.790914,6.479099,-16.959150,21.351395,-3.193334,2.529644,-6.242855,4.853152,50.097507,-8.708862,10.606230,27.983618,-42.177929,-42.299877,-9.184956,-3.315009,-19.889616,-25.337219,37.824093,-55.407543,-4.529554,-22.853146,-23.945337,-10.764673,-23.073164,0.000000,224.000000,4.000000,,,,0.000000,4.000000,4.000000,4.000000,4.000000,4.000000,4.000000,4.000000,4.000000,4.000000,4.000000,4.000000,4.000000,4.000000,4.000000,4.000000,4.000000,4.000000,4.000000,4.000000,4.000000,4.000000,4.000000,4.000000,4.000000,4.000000,4.000000,4.000000,4.000000,4.000000,4.000000,4.000000,4.000000,100.000000
1615774327.634433,76.000000,0.000000,-8.391361,-3.765511,-13.808764,-3.070664,-30.460230,2.198414,0.905726,-10.267303,9.549542,-17.967833,24.406967,-3.190140,3.552755,-4.698151,5.873940,53.124332,-8.187332,7.518700,23.340248,-43.674213,-42.257580,-9.175771,-5.362976,-19.869726,-25.824703,24.965755,-55.864956,-4.525024,-24.368753,-32.639339,-10.753908,-30.229578,0.000000,218.000000,4.000000,,,,0.000000,4.000000,4.000000,4.000000,4.000000,4.000000,4.000000,4.000000,4.000000,4.000000,4.000000,4.000000,4.000000,4.000000,4.000000,4.000000,4.000000,4.000000,4.000000,4.000000,4.000000,4.000000,4.000000,4.000000,4.000000,4.000000,4.000000,4.000000,4.000000,4.000000,4.000000,4.000000,4.000000,100.000000
1615774327.642182,77.000000,0.000000,-5.306047,-4.274566,-14.820596,-3.067594,-16.583616,2.196215,0.904820,-11.282676,2.360506,-9.231915,20.279995,-3.699771,3.036382,-9.821657,4.329604,53.584030,-8.179145,10.588104,22.291267,-44.143360,-42.215321,-9.166595,-2.793511,-19.849857,-24.773237,49.043354,-54.270630,-4.520500,-24.344385,-41.324650,-10.230334,-32.763451,0.000000,178.000000,4.000000,,,,0.000000,4.000000,4.000000,4.000000,4.000000,4.000000,4.000000,4.000000,4.000000,4.000000,4.000000,4.000000,4.000000,4.000000,4.000000,4.000000,4.000000,4.000000,4.000000,4.000000,4.000000,4.000000,4.000000,4.000000,4.000000,4.000000,4.000000,4.000000,4.000000,4.000000,4.000000,4.000000,4.000000,100.000000
