title:02, start timestamp:1614488317.347744, stop timestamp:1614488363.151550, headset type:EPOCFLEX, headset serial:F00001ED, headset firmware:f12, subject name:s14, channels:75, sampling rate:128, samples:5912      , version:2.0
Timestamp,EEG.Counter,EEG.Interpolated,EEG.Cz,EEG.Fz,EEG.Fp1,EEG.F7,EEG.F3,EEG.FC1,EEG.C3,EEG.FC5,EEG.FT9,EEG.T7,EEG.TP9,EEG.CP5,EEG.CP1,EEG.P3,EEG.P7,EEG.O1,EEG.Pz,EEG.Oz,EEG.O2,EEG.P8,EEG.P4,EEG.CP2,EEG.CP6,EEG.TP10,EEG.T8,EEG.FT10,EEG.FC6,EEG.C4,EEG.FC2,EEG.F4,EEG.F8,EEG.Fp2,EEG.HighBitFlex,EEG.RawCq,EEG.Battery,MarkerIndex,MarkerType,MarkerValueInt,EEG.MarkerHardware,CQ.Cz,CQ.Fz,CQ.Fp1,CQ.F7,CQ.F3,CQ.FC1,CQ.C3,CQ.FC5,CQ.FT9,CQ.T7,CQ.TP9,CQ.CP5,CQ.CP1,CQ.P3,CQ.P7,CQ.O1,CQ.Pz,CQ.Oz,CQ.O2,CQ.P8,CQ.P4,CQ.CP2,CQ.CP6,CQ.TP10,CQ.T8,CQ.FT10,CQ.FC6,CQ.C4,CQ.FC2,CQ.F4,CQ.F8,CQ.Fp2,CQ.Overall
1614488317.347744,124.000000,0.000000,-3.586175,1.597025,-1.229834,6.511428,-2.910198,-4.380806,1.984896,-1.501116,-22.882389,2.669169,9.952914,6.962018,0.326688,6.062020,1.921126,3.906346,-14.640635,28.490074,-48.741283,-18.334545,-4.507660,10.092950,-5.460825,-62.305992,5.214604,-3.072543,-44.958797,-2.883657,1.049026,10.528469,1.192900,8.667172,8064.000000,0.000000,4.000000,,,,0.000000,4.000000,4.000000,4.000000,4.000000,4.000000,4.000000,4.000000,4.000000,4.000000,4.000000,4.000000,2.000000,4.000000,4.000000,4.000000,4.000000,4.000000,4.000000,4.000000,4.000000,4.000000,4.000000,4.000000,4.000000,4.000000,4.000000,4.000000,4.000000,4.000000,4.000000,4.000000,4.000000,83.333336
1614488317.355393,125.000000,0.000000,3.084078,2.108248,-1.228604,2.402353,1.195276,2.290241,6.598295,1.577308,-7.474891,6.256243,17.635269,11.057620,5.967387,14.261086,7.560230,10.056286,-14.113174,34.615429,-45.615620,-17.803391,-0.913409,9.570036,-4.429723,-62.243687,7.260672,-2.556650,-38.247173,-2.367953,1.047977,11.030761,0.678886,9.171326,8064.000000,0.000000,4.000000,,,,0.000000,4.000000,4.000000,4.000000,4.000000,4.000000,4.000000,4.000000,4.000000,4.000000,4.000000,4.000000,2.000000,4.000000,4.000000,4.000000,4.000000,4.000000,4.000000,4.000000,4.000000,4.000000,4.000000,4.000000,4.000000,4.000000,4.000000,4.000000,4.000000,4.000000,4.000000,4.000000,4.000000,83.333336
1614488317.363141,126.000000,0.000000,7.696378,1.593319,-1.227375,1.887130,2.219722,2.800771,8.130158,6.703936,-7.467416,6.762807,15.566352,9.508101,9.038342,13.734004,12.680875,10.046230,-13.586241,33.555176,-44.544361,-16.247126,0.113145,8.534825,-2.374012,-61.155804,7.253411,-6.143837,-39.234566,-2.878406,1.046929,10.506909,-5.988459,9.162154,8064.000000,0.000000,4.000000,,,,0.000000,4.000000,4.000000,4.000000,4.000000,4.000000,4.000000,4.000000,4.000000,4.000000,4.000000,4.000000,2.000000,4.000000,4.000000,4.000000,4.000000,4.000000,4.000000,4.000000,4.000000,4.000000,4.000000,4.000000,4.000000,4.000000,4.000000,4.000000,4.000000,4.000000,4.000000,4.000000,4.000000,83.333336
1614488317.370790,127.000000,0.000000,6.663041,-0.459556,-1.226148,2.398064,1.704681,2.797971,6.583567,7.210052,-16.177896,6.243224,16.576427,9.498593,8.516484,13.720270,13.181015,10.036183,-13.572655,35.572903,-41.935715,-17.256519,0.113032,11.090393,-3.910099,-58.017723,6.220517,-6.137693,-39.195332,-2.875528,1.045882,10.496403,-5.982471,7.101710,8064.000000,0.000000,4.000000,,,,0.000000,4.000000,4.000000,4.000000,4.000000,4.000000,4.000000,4.000000,4.000000,4.000000,4.000000,4.000000,2.000000,4.000000,4.000000,4.000000,4.000000,4.000000,4.000000,4.000000,4.000000,4.000000,4.000000,4.000000,4.000000,4.000000,4.000000,4.000000,4.000000,4.000000,4.000000,4.000000,4.000000,83.333336
1614488317.378539,0.000000,0.000000,7.169199,0.053724,-0.712101,8.549512,1.702977,8.949018,7.089804,7.715663,-19.751463,4.185699,16.047029,11.027556,8.507967,13.706550,13.167833,11.564609,-14.584723,40.665535,-39.329678,-17.752085,-0.912722,8.515200,-2.880548,-60.010986,6.727117,1.560752,-38.130497,-2.359832,1.044836,10.485907,6.844025,5.043326,0.000000,178.000000,4.000000,,,,0.000000,4.000000,4.000000,4.000000,4.000000,4.000000,4.000000,4.000000,4.000000,4.000000,4.000000,4.000000,2.000000,4.000000,4.000000,4.000000,4.000000,4.000000,4.000000,4.000000,4.000000,4.000000,4.000000,4.000000,4.000000,4.000000,4.000000,4.000000,4.000000,4.000000,4.000000,4.000000,4.000000,83.333336
1614488317.386188,1.000000,0.000000,7.162029,1.592132,-1.737030,4.951219,2.214094,8.940070,7.082714,4.631024,-17.167608,6.232795,1.672008,7.426785,5.422536,3.436433,5.462358,5.912019,-14.570138,32.419739,-51.598042,-25.426640,-8.091296,3.891300,3.788999,-72.258667,7.233210,2.072012,-44.246212,-3.895933,0.530971,10.988241,10.426924,4.525463,0.000000,179.000000,4.000000,,,,0.000000,4.000000,4.000000,4.000000,4.000000,4.000000,4.000000,4.000000,4.000000,4.000000,4.000000,4.000000,2.000000,4.000000,4.000000,4.000000,4.000000,4.000000,4.000000,4.000000,4.000000,4.000000,4.000000,4.000000,4.000000,4.000000,4.000000,4.000000,4.000000,4.000000,4.000000,4.000000,4.000000,83.333336
1614488317.393937,2.000000,0.000000,2.026662,2.103360,-2.248114,-11.976810,2.211880,1.238822,1.434606,-5.630017,-19.714544,3.662460,-24.996330,-1.298591,-4.326476,-12.464439,-21.209770,-10.504149,-17.632492,5.207832,-78.213112,-50.529419,-29.108847,2.348947,-1.342995,-96.801796,0.046490,-7.160830,-51.894272,-7.481781,1.043261,9.438791,-1.378375,2.469655,0.000000,198.000000,4.000000,,,,0.000000,4.000000,4.000000,4.000000,4.000000,4.000000,4.000000,4.000000,4.000000,4.000000,4.000000,4.000000,2.000000,4.000000,4.000000,4.000000,4.000000,4.000000,4.000000,4.000000,4.000000,4.000000,4.000000,4.000000,4.000000,4.000000,4.000000,4.000000,4.000000,4.000000,4.000000,4.000000,4.000000,83.333336
1614488317.401586,3.000000,0.000000,-4.129210,1.588436,1.343878,-16.067396,2.209668,-2.352160,-5.746316,-12.803874,-27.387136,-17.366844,-47.535435,-8.476779,-12.014457,-25.785309,-47.342407,-29.980825,-24.794346,-23.515324,-104.801559,-80.222481,-55.233582,-4.832889,-19.290369,-126.448586,-14.312531,-10.230592,-54.406483,-10.038402,1.042217,7.378070,-11.120586,1.441544,0.000000,162.000000,4.000000,,,,0.000000,4.000000,4.000000,4.000000,4.000000,4.000000,4.000000,4.000000,4.000000,4.000000,4.000000,4.000000,2.000000,4.000000,4.000000,4.000000,4.000000,4.000000,4.000000,4.000000,4.000000,4.000000,4.000000,4.000000,4.000000,4.000000,4.000000,4.000000,4.000000,4.000000,4.000000,4.000000,4.000000,83.333336
1614488317.409435,4.000000,0.000000,-6.176363,1.586848,-4.298491,-9.384663,1.694638,-1.324167,-9.843134,-13.303891,-30.436672,-33.759731,-56.205849,-11.032405,-16.617826,-34.990292,-54.474552,-42.771358,-30.923397,-37.850784,-124.183937,-91.424309,-67.998863,-19.699850,-33.117233,-144.783676,-18.400784,-11.758822,-54.352074,-11.566825,0.015534,6.345051,-10.596644,4.004206,0.000000,200.000000,4.000000,,,,0.000000,4.000000,4.000000,4.000000,4.000000,4.000000,4.000000,4.000000,4.000000,4.000000,4.000000,4.000000,2.000000,4.000000,4.000000,4.000000,4.000000,4.000000,4.000000,4.000000,4.000000,4.000000,4.000000,4.000000,4.000000,4.000000,4.000000,4.000000,4.000000,4.000000,4.000000,4.000000,4.000000,83.333336
1614488317.417183,5.000000,0.000000,-3.606085,1.585261,-13.012142,-12.452201,1.692943,-1.322843,-7.782009,-11.752126,-25.278030,-18.854179,-49.482979,-9.995731,-13.011466,-28.801455,-44.676487,-34.523457,-24.738628,-31.146265,-116.880272,-75.948265,-52.033428,-17.116049,-37.186680,-131.305557,-6.587510,-11.234243,-54.810543,-10.016796,2.066801,6.851526,-6.483484,5.538663,0.000000,193.000000,4.000000,,,,0.000000,4.000000,4.000000,4.000000,4.000000,4.000000,4.000000,4.000000,4.000000,4.000000,4.000000,4.000000,2.000000,4.000000,4.000000,4.000000,4.000000,4.000000,4.000000,4.000000,4.000000,4.000000,4.000000,4.000000,4.000000,4.000000,4.000000,4.000000,4.000000,4.000000,4.000000,4.000000,4.000000,83.333336
1614488317.425032,6.000000,0.000000,2.551368,2.096496,-2.742719,-8.850005,3.229712,-1.834341,2.995004,-3.535245,-14.996343,3.728778,-22.766829,-0.754967,7.514366,-1.593167,-21.042068,-5.258165,2.978418,-0.345889,-83.942879,-43.051807,-19.160881,10.593375,-29.457186,-98.353737,4.701128,-2.505060,-51.165989,-1.288831,6.680119,7.357495,-0.835975,5.020304,0.000000,196.000000,4.000000,,,,0.000000,4.000000,4.000000,4.000000,4.000000,4.000000,4.000000,4.000000,4.000000,4.000000,4.000000,4.000000,2.000000,4.000000,4.000000,4.000000,4.000000,4.000000,4.000000,4.000000,4.000000,4.000000,4.000000,4.000000,4.000000,4.000000,4.000000,4.000000,4.000000,4.000000,4.000000,4.000000,4.000000,83.333336
1614488317.432781,7.000000,0.000000,7.164201,1.068759,11.618998,6.543460,-0.876082,-1.319686,15.812522,5.699059,-14.468526,6.801972,6.999529,13.091942,28.019672,21.485350,6.158462,16.798376,30.154926,32.474972,-51.038422,-10.188242,13.678792,28.531500,-3.273882,-65.434868,7.773350,-4.553837,-47.012260,7.943227,9.237541,5.811677,0.190502,5.528104,0.000000,173.000000,4.000000,,,,0.000000,4.000000,4.000000,4.000000,4.000000,4.000000,4.000000,4.000000,4.000000,4.000000,4.000000,4.000000,2.000000,4.000000,4.000000,4.000000,4.000000,4.000000,4.000000,4.000000,4.000000,4.000000,4.000000,4.000000,4.000000,4.000000,4.000000,4.000000,4.000000,4.000000,4.000000,4.000000,4.000000,83.333336
1614488317.440630,8.000000,0.000000,7.157037,-3.547694,0.838148,3.459993,-8.054693,-1.318366,19.899273,3.642078,-33.428417,3.718247,18.274580,18.207056,28.504473,25.053608,16.408714,20.884142,30.637592,44.750187,-44.320717,2.642459,18.280499,25.938866,20.319136,-59.728409,4.688654,-20.959539,-46.452427,8.448105,8.202662,3.754583,-4.937893,2.958473,0.000000,173.000000,4.000000,,,,0.000000,4.000000,4.000000,4.000000,4.000000,4.000000,4.000000,4.000000,4.000000,4.000000,4.000000,4.000000,2.000000,4.000000,4.000000,4.000000,4.000000,4.000000,4.000000,4.000000,4.000000,4.000000,4.000000,4.000000,4.000000,4.000000,4.000000,4.000000,4.000000,4.000000,4.000000,4.000000,4.000000,83.333336
1614488317.448379,9.000000,0.000000,6.637059,-5.595429,-13.008844,-7.825518,-7.020997,-1.317048,15.263989,-0.976949,-43.651398,6.278632,22.871691,16.137566,22.322123,22.977272,16.392305,24.453001,20.863365,43.166977,-44.789215,1.101355,14.159654,23.348824,21.837278,-59.155861,6.222427,-21.964222,-46.918793,5.362733,8.194460,2.725187,-5.958597,-2.172690,0.000000,183.000000,4.000000,,,,0.000000,4.000000,4.000000,4.000000,4.000000,4.000000,4.000000,4.000000,4.000000,4.000000,4.000000,4.000000,2.000000,4.000000,4.000000,4.000000,4.000000,4.000000,4.000000,4.000000,4.000000,4.000000,4.000000,4.000000,4.000000,4.000000,4.000000,4.000000,4.000000,4.000000,4.000000,4.000000,4.000000,83.333336
1614488317.456227,10.000000,0.000000,7.143242,-3.538551,-9.918912,-6.792051,-2.398592,-1.315731,11.658982,-0.975972,-23.607746,6.785173,32.079590,17.147070,23.838263,24.492756,20.991297,31.608034,26.483528,58.508423,-35.513657,2.638716,24.914724,27.428040,19.764158,-38.583885,18.011076,-10.660206,-44.820595,6.383011,9.211906,3.235282,-3.388535,-2.683338,0.000000,174.000000,4.000000,,,,0.000000,4.000000,4.000000,4.000000,4.000000,4.000000,4.000000,4.000000,4.000000,4.000000,4.000000,4.000000,2.000000,4.000000,4.000000,4.000000,4.000000,4.000000,4.000000,4.000000,4.000000,4.000000,4.000000,4.000000,4.000000,4.000000,4.000000,4.000000,4.000000,4.000000,4.000000,4.000000,4.000000,83.333336
1614488317.463976,11.000000,0.000000,7.136099,-4.560654,-7.344891,-6.272439,-3.934654,-1.314415,10.621682,-0.462175,-12.302088,5.239927,36.150074,17.642744,23.301603,26.006725,24.560049,33.627708,31.585249,71.270432,-29.324297,9.302744,28.992374,26.887791,24.872599,-29.314531,24.659731,-10.649546,-42.211670,9.966372,8.177053,2.719227,-2.359506,-1.655014,0.000000,200.000000,4.000000,,,,0.000000,4.000000,4.000000,4.000000,4.000000,4.000000,4.000000,4.000000,4.000000,4.000000,4.000000,4.000000,2.000000,4.000000,4.000000,4.000000,4.000000,4.000000,4.000000,4.000000,4.000000,4.000000,4.000000,4.000000,4.000000,4.000000,4.000000,4.000000,4.000000,4.000000,4.000000,4.000000,4.000000,83.333336
1614488317.471825,12.000000,0.000000,7.128963,-6.094555,-7.850366,-4.727705,-6.494823,-1.313101,10.611060,-0.974534,-32.289787,5.747508,29.960077,16.599459,22.252661,21.878155,24.535490,26.927414,24.374176,57.865826,-36.474461,4.678056,15.630048,16.604492,26.386189,-51.336498,16.942764,-15.767101,-42.682278,7.905124,8.681697,3.742148,-2.869967,-4.217462,0.000000,193.000000,4.000000,,,,0.000000,4.000000,4.000000,4.000000,4.000000,4.000000,4.000000,4.000000,4.000000,4.000000,4.000000,4.000000,2.000000,4.000000,4.000000,4.000000,4.000000,4.000000,4.000000,4.000000,4.000000,4.000000,4.000000,4.000000,4.000000,4.000000,4.000000,4.000000,4.000000,4.000000,4.000000,4.000000,4.000000,83.333336
1614488317.479574,13.000000,0.000000,6.609014,-3.524358,0.362612,7.071895,-5.462687,-1.311788,9.574808,-0.973559,-43.026726,5.741760,18.648066,12.993116,23.768869,14.676789,19.382750,16.644077,19.221598,39.859241,-55.925163,-14.813802,-1.308659,2.228914,24.308519,-76.413368,9.233514,-14.212873,-44.178059,-0.307910,8.673015,6.302509,-2.867097,-5.751706,0.000000,193.000000,4.000000,,,,0.000000,4.000000,4.000000,4.000000,4.000000,4.000000,4.000000,4.000000,4.000000,4.000000,4.000000,4.000000,2.000000,4.000000,4.000000,4.000000,4.000000,4.000000,4.000000,4.000000,4.000000,4.000000,4.000000,4.000000,4.000000,4.000000,4.000000,4.000000,4.000000,4.000000,4.000000,4.000000,4.000000,83.333336
1614488317.487423,14.000000,0.000000,6.602405,-1.469551,4.464814,5.013541,-4.944403,-1.310476,10.590875,-0.972585,-30.163187,4.710377,1.193520,9.390380,15.027152,9.533907,3.465930,5.858202,8.945966,25.460407,-77.920525,-33.260525,-23.871452,-5.978443,11.976519,-97.875420,10.249922,-13.173018,-40.544136,-6.974268,5.587419,7.321847,-2.864230,-1.643390,0.000000,206.000000,4.000000,,,,0.000000,4.000000,4.000000,4.000000,4.000000,4.000000,4.000000,4.000000,4.000000,4.000000,4.000000,4.000000,4.000000,4.000000,4.000000,4.000000,4.000000,4.000000,4.000000,4.000000,4.000000,4.000000,4.000000,4.000000,4.000000,4.000000,4.000000,4.000000,4.000000,4.000000,4.000000,4.000000,4.000000,100.000000
1614488317.495171,15.000000,0.000000,7.108623,-1.980902,-5.796062,-9.350447,-5.452280,-1.309165,10.067463,-0.458792,-23.466356,6.244128,-15.217930,5.791245,-1.910952,1.319245,-13.973433,-3.378426,-11.575801,5.947767,-94.252861,-36.304188,-48.975788,-6.998106,-11.112381,-124.444206,10.752492,-13.672667,-33.836926,-7.480114,0.966447,6.801705,-1.322904,2.973638,0.000000,171.000000,4.000000,,,,0.000000,4.000000,4.000000,4.000000,4.000000,4.000000,4.000000,4.000000,4.000000,4.000000,4.000000,4.000000,4.000000,4.000000,4.000000,4.000000,4.000000,4.000000,4.000000,4.000000,4.000000,4.000000,4.000000,4.000000,4.000000,4.000000,4.000000,4.000000,4.000000,4.000000,4.000000,4.000000,4.000000,100.000000
1614488317.503020,16.000000,0.000000,4.537412,-1.978921,-12.456932,-9.853917,-5.446827,-1.307856,2.365088,-1.483975,-25.494173,5.725064,-23.920662,-1.906853,-9.601349,-13.041049,-22.677408,-12.092996,-20.794994,-7.391514,-106.466293,-32.678143,-57.644760,-6.478287,-20.332037,-138.678741,10.228919,-14.684634,-30.726166,-6.446993,0.452660,6.794903,1.242521,1.945024,0.000000,189.000000,4.000000,,,,0.000000,4.000000,4.000000,4.000000,4.000000,4.000000,4.000000,4.000000,4.000000,4.000000,4.000000,4.000000,4.000000,4.000000,4.000000,4.000000,4.000000,4.000000,4.000000,4.000000,4.000000,4.000000,4.000000,4.000000,4.000000,4.000000,4.000000,4.000000,4.000000,4.000000,4.000000,4.000000,4.000000,100.000000
1614488317.510769,17.000000,0.000000,-0.082510,-1.976942,-4.239347,-4.715858,-5.441381,-1.306548,-4.303944,-5.585055,-21.366114,-2.998610,-31.589048,-12.674177,-8.053287,-22.258778,-36.500885,-18.234749,-18.722918,-10.461045,-114.564957,-40.337769,-56.561474,-6.984629,-13.132218,-135.975952,7.141767,-14.157129,-32.233902,-6.953367,0.965028,6.788108,-0.810003,-4.723588,0.000000,194.000000,4.000000,,,,0.000000,4.000000,4.000000,4.000000,4.000000,4.000000,4.000000,4.000000,4.000000,4.000000,4.000000,4.000000,4.000000,4.000000,4.000000,4.000000,4.000000,4.000000,4.000000,4.000000,4.000000,4.000000,4.000000,4.000000,4.000000,4.000000,4.000000,4.000000,4.000000,4.000000,4.000000,4.000000,4.000000,100.000000
1614488317.518618,18.000000,0.000000,-1.108069,-1.462145,0.893098,-8.300886,-4.923119,-1.305242,-4.812460,-9.169213,-17.242184,-13.252022,-39.249767,-14.199965,-6.506771,-23.774981,-50.310539,-25.908821,-20.242657,-21.219814,-115.476036,-58.246151,-56.504913,-6.464824,-17.221649,-135.327164,-3.121785,-13.117332,-31.688847,-6.946414,0.451242,6.781320,-5.937398,-9.334249,0.000000,202.000000,4.000000,,,,0.000000,4.000000,4.000000,4.000000,4.000000,4.000000,4.000000,4.000000,4.000000,4.000000,4.000000,4.000000,4.000000,4.000000,4.000000,4.000000,4.000000,4.000000,4.000000,4.000000,4.000000,4.000000,4.000000,4.000000,4.000000,4.000000,4.000000,4.000000,4.000000,4.000000,4.000000,4.000000,4.000000,100.000000
1614488317.526367,19.000000,0.000000,-0.081320,-1.973503,-10.902667,-10.343867,-6.969478,-1.303936,-4.807648,-7.621583,-17.737762,-13.751590,-34.595131,-5.980637,-2.397701,-17.084538,-40.003819,-26.908554,-12.017285,-22.737057,-105.104149,-58.187904,-39.012508,-4.919898,-23.871096,-122.371323,-9.272510,-17.206778,-32.682800,-6.426647,0.450791,7.287360,-6.957102,-9.837735,0.000000,196.000000,4.000000,,,,0.000000,4.000000,4.000000,4.000000,4.000000,4.000000,4.000000,4.000000,4.000000,4.000000,4.000000,4.000000,4.000000,4.000000,4.000000,4.000000,4.000000,4.000000,4.000000,4.000000,4.000000,4.000000,4.000000,4.000000,4.000000,4.000000,4.000000,4.000000,4.000000,4.000000,4.000000,4.000000,4.000000,100.000000
1614488317.534015,20.000000,0.000000,-0.594059,-4.022812,-21.148174,-8.795062,-9.526610,-1.302633,0.325365,-4.024217,-17.720024,-12.199377,-6.868229,2.743293,5.297005,4.471008,-10.733045,-4.830363,7.481912,3.439527,-72.178535,-29.924589,-7.178626,-1.838055,-9.488250,-89.428436,-8.750417,-21.804956,-35.214218,-3.856117,0.963161,6.254431,-5.924504,-8.802257,0.000000,202.000000,4.000000,,,,0.000000,4.000000,4.000000,4.000000,4.000000,4.000000,4.000000,4.000000,4.000000,4.000000,4.000000,4.000000,4.000000,4.000000,4.000000,4.000000,4.000000,4.000000,4.000000,4.000000,4.000000,4.000000,4.000000,4.000000,4.000000,4.000000,4.000000,4.000000,4.000000,4.000000,4.000000,4.000000,4.000000,100.000000
1614488317.541764,21.000000,0.000000,-1.106285,-5.557250,-15.486001,-8.273446,-9.004263,-1.301330,9.555809,-0.430450,-17.702305,-13.725639,22.882229,7.868755,9.394272,23.953716,10.303329,21.841133,17.218019,32.154037,-39.285839,-5.279279,10.264451,2.266347,8.982777,-56.518494,-9.254486,-17.167767,-35.691826,0.763123,0.962198,3.684074,-6.431400,-9.819096,0.000000,181.000000,4.000000,,,,0.000000,4.000000,4.000000,4.000000,4.000000,4.000000,4.000000,4.000000,4.000000,4.000000,4.000000,4.000000,4.000000,4.000000,4.000000,4.000000,4.000000,4.000000,4.000000,4.000000,4.000000,4.000000,4.000000,4.000000,4.000000,4.000000,4.000000,4.000000,4.000000,4.000000,4.000000,4.000000,4.000000,100.000000
1614488317.549413,22.000000,0.000000,0.433282,-5.038873,-5.726925,-8.777993,-8.482439,-1.300029,9.546253,0.082801,-18.197424,-12.173452,23.884987,9.912169,7.846416,20.852840,17.985334,27.460318,15.662340,41.865471,-36.169632,-2.197077,11.792647,2.776902,13.076359,-51.846592,-4.629847,-9.971111,-35.656132,1.788001,1.474056,3.680390,-6.424969,-9.296455,0.000000,214.000000,4.000000,,,,0.000000,4.000000,4.000000,4.000000,4.000000,4.000000,4.000000,4.000000,4.000000,4.000000,4.000000,4.000000,4.000000,4.000000,4.000000,4.000000,4.000000,4.000000,4.000000,4.000000,4.000000,4.000000,4.000000,4.000000,4.000000,4.000000,4.000000,4.000000,4.000000,4.000000,4.000000,4.000000,4.000000,100.000000
1614488317.557162,23.000000,0.000000,-1.618433,-5.546654,-4.695557,-8.769216,-10.012418,-1.298729,-0.206883,-4.532666,-16.127943,-9.084355,5.912385,5.799692,-3.956302,7.498653,13.864785,19.227730,10.005651,39.772324,-59.723206,-6.297444,9.216752,-2.866901,11.524820,-69.230644,3.579911,-9.961141,-34.594837,-0.265069,1.472582,3.676710,-6.931364,-9.799980,0.000000,202.000000,4.000000,,,,0.000000,4.000000,4.000000,4.000000,4.000000,4.000000,4.000000,4.000000,4.000000,4.000000,4.000000,4.000000,4.000000,4.000000,4.000000,4.000000,4.000000,4.000000,4.000000,4.000000,4.000000,4.000000,4.000000,4.000000,4.000000,4.000000,4.000000,4.000000,4.000000,4.000000,4.000000,4.000000,4.000000,100.000000
1614488317.564811,24.000000,0.000000,-4.180917,-5.028287,-5.716503,-8.760446,-7.438303,-1.297430,-7.386163,-10.681979,-14.060534,-8.562450,-4.349938,-1.385595,-18.311319,1.337309,3.081689,15.618758,1.277698,34.091526,-66.842972,-7.316787,2.540869,-4.915316,9.974834,-79.930641,5.627613,-10.464000,-29.944857,-4.880188,0.958289,0.596110,-6.411612,-9.790180,0.000000,200.000000,4.000000,,,,0.000000,4.000000,4.000000,4.000000,4.000000,4.000000,4.000000,4.000000,4.000000,4.000000,4.000000,4.000000,4.000000,4.000000,4.000000,4.000000,4.000000,4.000000,4.000000,4.000000,4.000000,4.000000,4.000000,4.000000,4.000000,4.000000,4.000000,4.000000,4.000000,4.000000,4.000000,4.000000,4.000000,100.000000
1614488317.572560,25.000000,0.000000,-3.663916,-1.946336,-3.659504,-8.751685,-2.302659,-1.296132,-7.891598,-12.209759,-17.123396,-9.066709,-3.319947,-5.486773,-18.293009,1.335971,-2.562418,17.141602,-2.313324,33.544613,-61.135101,-15.001779,-2.077056,-4.910401,8.939219,-78.312248,4.596344,-9.940715,-25.812347,-11.541975,0.957330,-2.994230,-5.379560,-8.754748,0.000000,195.000000,4.000000,,,,0.000000,4.000000,4.000000,4.000000,4.000000,4.000000,4.000000,4.000000,4.000000,4.000000,4.000000,4.000000,4.000000,4.000000,4.000000,4.000000,4.000000,4.000000,4.000000,4.000000,4.000000,4.000000,4.000000,4.000000,4.000000,4.000000,4.000000,4.000000,4.000000,4.000000,4.000000,4.000000,4.000000,100.000000
1614488317.580209,26.000000,0.000000,-5.711534,-3.995672,-6.732768,-8.742934,-4.351639,-0.782016,-4.293962,-11.171908,-21.208838,-8.544822,-1.778166,-5.481287,-9.556767,1.847456,-2.559856,18.150101,-0.259728,35.562351,-73.894478,-35.499596,-11.305749,-14.649080,6.366177,-88.490349,-0.023637,-15.571800,-28.350637,-16.658638,-2.633370,-9.657903,-8.963923,-10.284455,0.000000,201.000000,4.000000,,,,0.000000,4.000000,4.000000,4.000000,4.000000,4.000000,4.000000,4.000000,4.000000,4.000000,4.000000,4.000000,4.000000,4.000000,4.000000,4.000000,4.000000,4.000000,4.000000,4.000000,4.000000,4.000000,4.000000,4.000000,4.000000,4.000000,4.000000,4.000000,4.000000,4.000000,4.000000,4.000000,4.000000,100.000000
1614488317.587958,27.000000,0.000000,-11.346848,-11.171163,-14.931163,-8.734191,-9.475492,-1.294054,-1.212746,-11.673557,-22.213268,-8.536277,-8.955874,-5.475805,-6.983108,-1.744135,-11.275245,6.849899,-5.387674,21.167814,-99.974434,-59.053841,-37.448288,-27.454945,-10.563267,-118.145447,-13.869767,-21.197254,-36.014595,-22.795826,-9.297403,-19.391834,-14.083165,-11.812633,0.000000,198.000000,4.000000,,,,0.000000,4.000000,4.000000,4.000000,4.000000,4.000000,4.000000,4.000000,4.000000,4.000000,4.000000,4.000000,4.000000,4.000000,4.000000,4.000000,4.000000,4.000000,4.000000,4.000000,4.000000,4.000000,4.000000,4.000000,4.000000,4.000000,4.000000,4.000000,4.000000,4.000000,4.000000,4.000000,4.000000,100.000000
1614488317.595607,28.000000,0.000000,-11.848322,-13.724094,-13.890591,-9.238277,-8.953197,-1.292760,-1.211533,-12.174704,-21.678236,-9.553381,-22.280252,-6.495971,-8.514586,-10.460340,-24.084482,-16.233873,-15.125875,-6.545661,-112.694969,-72.840942,-63.564686,-31.017233,-32.091164,-139.052948,-17.958462,-21.688877,-39.568325,-29.439697,-13.903491,-23.475006,-12.017799,-6.672615,0.000000,203.000000,4.000000,,,,0.000000,4.000000,4.000000,4.000000,4.000000,4.000000,4.000000,4.000000,4.000000,4.000000,4.000000,4.000000,4.000000,4.000000,4.000000,4.000000,4.000000,4.000000,4.000000,4.000000,4.000000,4.000000,4.000000,4.000000,4.000000,4.000000,4.000000,4.000000,4.000000,4.000000,4.000000,4.000000,4.000000,100.000000
1614488317.603355,29.000000,0.000000,-6.195447,-10.120626,-6.184393,-9.229039,-5.354499,-0.778647,-1.723142,-12.162529,-21.143736,-9.031008,-28.411818,-6.489475,-7.480431,-15.065264,-27.650141,-28.525331,-16.136391,-15.769884,-112.582275,-71.229637,-68.629326,-28.422113,-40.777023,-141.990814,-5.119990,-21.154367,-38.503113,-25.307693,-13.889587,-18.836147,-7.390397,2.564827,0.000000,189.000000,4.000000,,,,0.000000,4.000000,4.000000,4.000000,4.000000,4.000000,4.000000,4.000000,4.000000,4.000000,4.000000,4.000000,4.000000,4.000000,4.000000,4.000000,4.000000,4.000000,4.000000,4.000000,4.000000,4.000000,4.000000,4.000000,4.000000,4.000000,4.000000,4.000000,4.000000,4.000000,4.000000,4.000000,4.000000,100.000000
1614488317.611004,30.000000,0.000000,-3.112329,-8.572044,-6.178208,-6.655707,-5.349145,-2.829150,0.329863,-11.637547,-17.532848,-9.021976,-25.819304,-4.431703,-5.934488,-13.511737,-28.648132,-25.419884,-14.068973,-12.677192,-118.623535,-68.594307,-65.996597,-27.880871,-38.172142,-145.951385,-2.037947,-21.133213,-42.054356,-15.538795,-13.362877,-15.227567,-7.895827,0.510980,0.000000,200.000000,4.000000,,,,0.000000,4.000000,4.000000,4.000000,4.000000,4.000000,4.000000,4.000000,4.000000,4.000000,4.000000,4.000000,4.000000,4.000000,4.000000,4.000000,4.000000,4.000000,4.000000,4.000000,4.000000,4.000000,4.000000,4.000000,4.000000,4.000000,4.000000,4.000000,4.000000,4.000000,4.000000,4.000000,4.000000,100.000000
1614488317.618753,31.000000,0.000000,-4.647678,-9.589113,-12.325876,-4.597770,-5.856616,-7.954526,-0.696108,-11.625909,-14.438394,-15.166800,-31.434509,-5.965733,-7.979836,-14.523867,-36.311790,-26.420105,-18.157467,-23.433744,-131.325424,-76.730843,-66.956238,-30.417091,-37.108330,-154.523376,-10.241037,-22.650541,-51.755890,-15.523256,-13.862335,-14.699519,-9.939214,-11.797223,0.000000,196.000000,4.000000,,,,0.000000,4.000000,4.000000,4.000000,4.000000,4.000000,4.000000,4.000000,4.000000,4.000000,4.000000,4.000000,4.000000,4.000000,4.000000,4.000000,4.000000,4.000000,4.000000,4.000000,4.000000,4.000000,4.000000,4.000000,4.000000,4.000000,4.000000,4.000000,4.000000,4.000000,4.000000,4.000000,4.000000,100.000000
1614488317.626402,32.000000,0.000000,-4.643031,-9.579524,-12.826371,-6.131633,-5.337939,-8.459393,-1.721052,-12.127103,-13.911135,-16.690096,-33.967178,-6.472588,-4.382113,-12.458060,-37.301121,-23.829582,-18.652130,-27.000055,-128.117172,-78.192574,-56.120052,-25.258469,-40.148144,-148.215012,-9.717976,-24.166353,-53.755417,-16.020554,-13.335652,-14.684819,-10.442095,-15.375170,8064.000000,0.000000,4.000000,,,,0.000000,4.000000,4.000000,4.000000,4.000000,4.000000,4.000000,4.000000,4.000000,4.000000,4.000000,4.000000,4.000000,4.000000,4.000000,4.000000,4.000000,4.000000,4.000000,4.000000,4.000000,4.000000,4.000000,4.000000,4.000000,4.000000,4.000000,4.000000,4.000000,4.000000,4.000000,4.000000,4.000000,100.000000
1614488317.634151,33.000000,0.000000,-2.587106,-8.544304,-9.736622,-3.561399,-4.819781,-5.374010,7.511438,-8.012412,-14.410044,-6.929816,-10.343468,5.841577,7.929962,6.015936,-13.674076,1.835273,-2.223222,1.744894,-97.219833,-52.986172,-26.320343,-2.156288,-35.492611,-118.323212,-4.067232,-22.603725,-46.009354,-5.235302,-13.322316,-15.182955,-9.406012,-9.718769,8064.000000,0.000000,4.000000,,,,0.000000,4.000000,4.000000,4.000000,4.000000,4.000000,4.000000,4.000000,4.000000,4.000000,4.000000,4.000000,4.000000,4.000000,4.000000,4.000000,4.000000,4.000000,4.000000,4.000000,4.000000,4.000000,4.000000,4.000000,4.000000,4.000000,4.000000,4.000000,4.000000,4.000000,4.000000,4.000000,4.000000,100.000000
1614488317.641800,34.000000,0.000000,-0.533236,-8.535760,-8.188423,4.647291,-5.327781,-4.342995,18.273157,-1.850553,-13.882813,2.307884,17.359184,16.604967,19.204082,24.984280,18.134470,28.500105,17.266180,32.512379,-65.327736,-24.215239,3.449567,19.384331,-16.995581,-85.384377,-4.063165,-21.042660,-38.783855,2.975061,-13.308994,-17.731874,-7.858144,-8.683409,8064.000000,0.000000,4.000000,,,,0.000000,4.000000,4.000000,4.000000,4.000000,4.000000,4.000000,4.000000,4.000000,4.000000,4.000000,4.000000,4.000000,4.000000,4.000000,4.000000,4.000000,4.000000,4.000000,4.000000,4.000000,4.000000,4.000000,4.000000,4.000000,4.000000,4.000000,4.000000,4.000000,4.000000,4.000000,4.000000,4.000000,100.000000
1614488317.649649,35.000000,0.000000,-0.019883,-10.065685,-7.667414,6.181105,-5.835274,-5.364293,15.690782,0.202579,-13.868930,2.818396,20.931568,9.921695,18.672058,21.369551,22.218899,28.984425,19.813017,38.120892,-57.057281,-18.549997,12.676887,19.364946,0.970133,-67.350273,-4.571922,-20.508797,-35.668148,2.459266,-13.295685,-18.226963,-6.311824,-10.726007,8064.000000,0.000000,4.000000,,,,0.000000,4.000000,4.000000,4.000000,4.000000,4.000000,4.000000,4.000000,4.000000,4.000000,4.000000,4.000000,4.000000,4.000000,4.000000,4.000000,4.000000,4.000000,4.000000,4.000000,4.000000,4.000000,4.000000,4.000000,4.000000,4.000000,4.000000,4.000000,4.000000,4.000000,4.000000,4.000000,4.000000,100.000000
1614488317.657398,36.000000,0.000000,-0.532683,-6.978697,-9.711029,-1.517384,-2.239695,-4.846108,7.469963,-0.823264,-14.367882,1.789937,14.756790,0.681004,8.909797,3.912284,2.709501,19.724670,11.075255,35.518669,-59.051506,-19.044268,4.459082,11.140452,6.097368,-67.282921,-4.567350,-18.949825,-32.555557,1.943986,-13.282390,-18.208736,-5.792692,-8.151179,8064.000000,0.000000,4.000000,,,,0.000000,4.000000,4.000000,4.000000,4.000000,4.000000,4.000000,4.000000,4.000000,4.000000,4.000000,4.000000,4.000000,4.000000,4.000000,4.000000,4.000000,4.000000,4.000000,4.000000,4.000000,4.000000,4.000000,4.000000,4.000000,4.000000,4.000000,4.000000,4.000000,4.000000,4.000000,4.000000,4.000000,100.000000
1614488317.665246,37.000000,0.000000,-0.532151,-1.843513,-9.188498,-2.028687,-1.724635,-4.841262,5.924031,-0.822441,-14.866335,1.788147,15.767674,1.705964,1.208579,-3.271115,-1.395773,22.269049,7.474436,41.124176,-52.838612,-13.384198,-0.160762,9.078030,4.039989,-67.215637,-4.049963,-17.392414,-30.471722,0.403580,-13.269107,-18.190527,-5.786900,-11.732771,8064.000000,0.000000,4.000000,,,,0.000000,4.000000,4.000000,4.000000,4.000000,4.000000,4.000000,4.000000,4.000000,4.000000,4.000000,4.000000,4.000000,4.000000,4.000000,4.000000,4.000000,4.000000,4.000000,4.000000,4.000000,4.000000,4.000000,4.000000,4.000000,4.000000,4.000000,4.000000,4.000000,4.000000,4.000000,4.000000,4.000000,100.000000
1614488317.672995,38.000000,0.000000,-0.531618,-4.918592,-1.999822,6.178470,-6.851116,-4.836421,6.943748,-0.308798,-14.338648,-0.264923,16.264727,3.242719,-0.331091,-1.729383,6.297931,27.374985,8.492603,42.621513,-56.888336,-13.883635,4.967604,11.120234,4.035949,-64.584320,0.569472,-17.375023,-30.441250,2.967279,-13.255838,-18.172337,-6.293933,-17.874886,8064.000000,0.000000,4.000000,,,,0.000000,4.000000,4.000000,4.000000,4.000000,4.000000,4.000000,4.000000,4.000000,4.000000,4.000000,4.000000,4.000000,4.000000,4.000000,4.000000,4.000000,4.000000,4.000000,4.000000,4.000000,4.000000,4.000000,4.000000,4.000000,4.000000,4.000000,4.000000,4.000000,4.000000,4.000000,4.000000,4.000000,100.000000
1614488317.680844,39.000000,0.000000,-0.531087,-9.529058,-1.485001,4.121009,-8.895547,-4.831584,6.423984,-0.308489,-13.811488,-0.777479,15.735642,1.701015,0.182061,-2.753294,-2.939136,19.655302,7.971290,32.322483,-73.241707,-19.510777,-1.191210,9.570652,6.083195,-74.776146,3.645826,-16.332006,-30.923628,5.528415,-13.242582,-18.154165,-5.774818,-7.087779,8064.000000,0.000000,4.000000,,,,0.000000,4.000000,4.000000,4.000000,4.000000,4.000000,4.000000,4.000000,4.000000,4.000000,4.000000,4.000000,4.000000,4.000000,4.000000,4.000000,4.000000,4.000000,4.000000,4.000000,4.000000,4.000000,4.000000,4.000000,4.000000,4.000000,4.000000,4.000000,4.000000,4.000000,4.000000,4.000000,4.000000,100.000000
1614488317.688593,40.000000,0.000000,-0.530556,-4.391324,-9.175824,-5.626701,-3.245625,-4.826753,5.904739,-0.821001,-15.336139,-3.340804,11.104522,0.673673,-0.330942,-4.801823,-16.269531,9.892057,6.937677,22.546570,-82.912048,-32.311779,-21.702839,-4.285072,1.974547,-95.727013,-4.562948,-18.366957,-31.918346,-7.297626,-13.229340,-18.136011,-5.769044,5.227001,8064.000000,0.000000,4.000000,,,,0.000000,4.000000,4.000000,4.000000,4.000000,4.000000,4.000000,4.000000,4.000000,4.000000,4.000000,4.000000,4.000000,4.000000,4.000000,4.000000,4.000000,4.000000,4.000000,4.000000,4.000000,4.000000,4.000000,4.000000,4.000000,4.000000,4.000000,4.000000,4.000000,4.000000,4.000000,4.000000,4.000000,100.000000
1614488317.696441,41.000000,0.000000,-0.530025,2.279734,0.064121,-1.005690,-0.678277,-4.821926,6.411655,-0.820180,-14.295161,-6.927207,-2.752736,0.672999,-1.356252,-2.745739,-15.227620,8.856524,6.930740,17.395819,-92.059906,-57.407673,-40.655495,-22.229506,-13.412043,-119.221024,-12.763514,-17.835770,-31.886427,-20.110842,-13.216110,-18.117874,-10.378659,-0.932072,8064.000000,0.000000,4.000000,,,,0.000000,4.000000,4.000000,4.000000,4.000000,4.000000,4.000000,4.000000,4.000000,4.000000,4.000000,4.000000,4.000000,4.000000,4.000000,4.000000,4.000000,4.000000,4.000000,4.000000,4.000000,4.000000,4.000000,4.000000,4.000000,4.000000,4.000000,4.000000,4.000000,4.000000,4.000000,4.000000,4.000000,100.000000
1614488317.704190,42.000000,0.000000,-0.529495,1.764634,20.576878,7.200444,-2.216060,-3.278642,6.405243,-0.306540,-7.101379,-3.330536,-18.647419,3.236429,0.183566,-5.819916,-20.340597,-3.972845,7.436630,-0.570296,-116.583237,-73.760521,-55.486633,-26.309839,-26.219143,-144.742828,-11.725109,-8.074344,-30.828899,-15.475347,-13.202894,-18.612577,-13.958024,-9.649089,8064.000000,0.000000,4.000000,,,,0.000000,4.000000,4.000000,4.000000,4.000000,4.000000,4.000000,4.000000,4.000000,4.000000,4.000000,4.000000,4.000000,4.000000,4.000000,4.000000,4.000000,4.000000,4.000000,4.000000,4.000000,4.000000,4.000000,4.000000,4.000000,4.000000,4.000000,4.000000,4.000000,4.000000,4.000000,4.000000,4.000000,100.000000
1614488317.712039,43.000000,0.000000,-0.528966,2.788510,16.966557,-4.601629,-0.675383,-1.224082,6.398838,-2.357515,-8.119919,-9.481051,-29.910824,-0.869372,0.183382,-15.557686,-40.320255,-30.635540,7.429193,-27.749212,-135.953827,-74.712402,-66.200378,-19.616863,-27.218565,-162.033981,-11.713384,-4.476525,-32.849354,-8.793204,-13.189692,-17.568323,-13.944066,-3.998414,8064.000000,0.000000,4.000000,,,,0.000000,4.000000,4.000000,4.000000,4.000000,4.000000,4.000000,4.000000,4.000000,4.000000,4.000000,4.000000,4.000000,4.000000,4.000000,4.000000,4.000000,4.000000,4.000000,4.000000,4.000000,4.000000,4.000000,4.000000,4.000000,4.000000,4.000000,4.000000,4.000000,4.000000,4.000000,4.000000,4.000000,100.000000
1614488317.719788,44.000000,0.000000,-1.041257,5.862645,1.052154,-16.904718,-3.238810,-1.222858,6.392439,-6.457722,-18.368210,-27.420288,-29.880913,-12.663374,-0.842442,-16.567770,-44.382500,-32.143364,6.908943,-31.311207,-125.561462,-74.637688,-56.390591,-10.879297,-27.191347,-152.128357,-13.240132,-13.189998,-29.739580,-9.810052,-13.176501,-14.986652,-13.417302,0.108149,8064.000000,0.000000,4.000000,,,,0.000000,4.000000,4.000000,4.000000,4.000000,4.000000,4.000000,4.000000,4.000000,4.000000,4.000000,4.000000,4.000000,4.000000,4.000000,4.000000,4.000000,4.000000,4.000000,4.000000,4.000000,4.000000,4.000000,4.000000,4.000000,4.000000,4.000000,4.000000,4.000000,4.000000,4.000000,4.000000,4.000000,100.000000
1614488317.727637,45.000000,0.000000,-0.014575,5.856782,-1.513000,-10.733969,-12.979161,-1.221635,6.386047,-8.502546,-15.272918,-27.905689,-11.389493,-8.548146,1.722503,-4.243509,-23.825298,-1.854811,8.440495,-3.587588,-94.666672,-61.742538,-25.564968,2.977736,-25.625694,-119.155724,-3.996123,-15.228089,-17.402149,-5.184857,-13.163325,-14.458845,-13.916705,-3.994524,8064.000000,0.000000,4.000000,,,,0.000000,4.000000,4.000000,4.000000,4.000000,4.000000,4.000000,4.000000,4.000000,4.000000,4.000000,4.000000,4.000000,4.000000,4.000000,4.000000,4.000000,4.000000,4.000000,4.000000,4.000000,4.000000,4.000000,4.000000,4.000000,4.000000,4.000000,4.000000,4.000000,4.000000,4.000000,4.000000,4.000000,100.000000
1614488317.735385,46.000000,0.000000,2.036722,5.338105,-4.588410,-3.030927,-15.530284,-1.220413,6.379661,-7.981223,-0.898670,-10.441886,8.621897,6.332196,8.900268,4.478683,-4.827114,18.659864,10.996158,24.108307,-63.802776,-30.398745,-1.949659,13.231168,-11.241094,-87.241692,6.777104,-9.571836,-8.153977,1.486994,-13.150162,-13.931566,-11.338686,-5.528991,8064.000000,0.000000,4.000000,,,,0.000000,4.000000,4.000000,4.000000,4.000000,4.000000,4.000000,4.000000,4.000000,4.000000,4.000000,4.000000,4.000000,4.000000,4.000000,4.000000,4.000000,4.000000,4.000000,4.000000,4.000000,4.000000,4.000000,4.000000,4.000000,4.000000,4.000000,4.000000,4.000000,4.000000,4.000000,4.000000,4.000000,100.000000
1614488317.743234,47.000000,0.000000,3.573147,5.845587,-12.276130,-5.591999,-9.873729,-1.219193,6.373281,-8.486062,-5.513156,-3.764777,11.690198,6.838685,11.968290,4.474204,-2.258184,18.641205,11.497982,32.289326,-47.328716,-13.958089,3.180496,11.679475,3.129122,-73.821121,3.693404,-9.049443,-9.171465,1.485507,-13.137012,-11.866353,-9.276065,-2.446539,8064.000000,0.000000,4.000000,,,,0.000000,4.000000,4.000000,4.000000,4.000000,4.000000,4.000000,4.000000,4.000000,4.000000,4.000000,4.000000,4.000000,4.000000,4.000000,4.000000,4.000000,4.000000,4.000000,4.000000,4.000000,4.000000,4.000000,4.000000,4.000000,4.000000,4.000000,4.000000,4.000000,4.000000,4.000000,4.000000,4.000000,100.000000
1614488317.750983,48.000000,0.000000,3.056753,4.814100,-6.622828,-8.663329,-8.325393,-1.217974,6.366908,-7.964756,-24.994823,-5.812294,10.140046,1.703641,10.930681,4.469730,-3.281567,18.622562,10.973663,31.744217,-48.307030,-15.482593,2.151674,9.103693,4.151634,-72.721657,-0.925674,-9.553214,-10.187934,0.971201,-13.123875,-10.316025,-9.266788,-1.418451,8064.000000,0.000000,4.000000,,,,0.000000,4.000000,4.000000,4.000000,4.000000,4.000000,4.000000,4.000000,4.000000,4.000000,4.000000,4.000000,4.000000,4.000000,4.000000,4.000000,4.000000,4.000000,4.000000,4.000000,4.000000,4.000000,4.000000,4.000000,4.000000,4.000000,4.000000,4.000000,4.000000,4.000000,4.000000,4.000000,4.000000,100.000000
1614488317.758632,49.000000,0.000000,3.053696,2.245184,0.563282,-7.629025,-9.342709,-0.703935,6.360541,-6.931150,-30.610853,-4.268021,12.694008,6.830142,10.919750,5.490901,-1.227003,21.680862,11.988331,33.250935,-52.874107,-10.338905,3.687984,9.607410,3.121841,-71.623291,2.664995,-11.594943,-9.152105,0.970230,-13.110750,-10.818529,-9.770343,-1.417033,8064.000000,0.000000,4.000000,,,,0.000000,4.000000,4.000000,4.000000,4.000000,4.000000,4.000000,4.000000,4.000000,4.000000,4.000000,4.000000,4.000000,4.000000,4.000000,4.000000,4.000000,4.000000,4.000000,4.000000,4.000000,4.000000,4.000000,4.000000,4.000000,4.000000,4.000000,4.000000,4.000000,4.000000,4.000000,4.000000,4.000000,100.000000
1614488317.766381,50.000000,0.000000,3.050642,1.217297,-0.975743,-5.570114,-8.307725,-0.703231,6.867001,-8.462681,-22.887936,-5.289394,11.142853,10.413055,11.934472,5.485410,-1.225776,21.146362,10.950702,34.243324,-51.282772,-5.200361,5.222758,9.084982,6.708463,-70.526031,2.149510,-14.147451,-9.142953,1.482080,-13.097640,-10.807711,-9.247751,-1.415616,8064.000000,0.000000,4.000000,,,,0.000000,4.000000,4.000000,4.000000,4.000000,4.000000,4.000000,4.000000,4.000000,4.000000,4.000000,4.000000,4.000000,4.000000,4.000000,4.000000,4.000000,4.000000,4.000000,4.000000,4.000000,4.000000,4.000000,4.000000,4.000000,4.000000,4.000000,4.000000,4.000000,4.000000,4.000000,4.000000,4.000000,100.000000
1614488317.774030,51.000000,0.000000,3.560412,1.728901,3.640618,-5.051723,-8.812238,-1.728169,6.347313,-6.402936,-17.736841,-0.668720,11.131710,10.915463,10.896896,8.556848,-2.763012,18.561113,11.452572,31.644979,-55.334053,-7.759263,6.243176,9.075897,8.240216,-77.122169,-0.416742,-6.953816,-7.082528,3.019059,-13.084542,-10.284082,-9.238503,-1.927021,8064.000000,0.000000,4.000000,,,,0.000000,4.000000,4.000000,4.000000,4.000000,4.000000,4.000000,4.000000,4.000000,4.000000,4.000000,4.000000,4.000000,4.000000,4.000000,4.000000,4.000000,4.000000,4.000000,4.000000,4.000000,4.000000,4.000000,4.000000,4.000000,4.000000,4.000000,4.000000,4.000000,4.000000,4.000000,4.000000,4.000000,100.000000
1614488317.781779,52.000000,0.000000,3.044031,2.752813,7.739541,-4.021030,-7.777784,-0.187979,6.853786,-0.242687,-17.206285,10.101180,11.120578,12.955830,10.886000,12.650855,-1.734608,19.568193,12.466760,32.126156,-63.483845,-8.264324,4.698472,7.528360,6.693514,-82.686073,4.711880,-3.869940,-3.998523,5.067323,-13.071458,-10.786619,-9.742085,-0.899453,8064.000000,0.000000,4.000000,,,,0.000000,4.000000,4.000000,4.000000,4.000000,4.000000,4.000000,4.000000,4.000000,4.000000,4.000000,4.000000,4.000000,4.000000,4.000000,4.000000,4.000000,4.000000,4.000000,4.000000,4.000000,4.000000,4.000000,4.000000,4.000000,4.000000,4.000000,4.000000,4.000000,4.000000,4.000000,4.000000,4.000000,100.000000
1614488317.789428,53.000000,0.000000,0.989705,1.211599,-7.139993,-5.042651,-5.205904,-1.213432,6.846933,-2.806546,-18.727539,3.937232,0.853047,7.814669,11.387934,10.586923,-5.322617,18.010162,5.274806,29.017105,-65.471642,-16.461187,-1.972894,3.418267,7.199641,-87.218773,5.219988,-12.584019,-1.943242,4.549435,-13.058386,-10.775832,-9.732344,1.152729,8064.000000,0.000000,4.000000,,,,0.000000,4.000000,4.000000,4.000000,4.000000,4.000000,4.000000,4.000000,4.000000,4.000000,4.000000,4.000000,4.000000,4.000000,4.000000,4.000000,4.000000,4.000000,4.000000,4.000000,4.000000,4.000000,4.000000,4.000000,4.000000,4.000000,4.000000,4.000000,4.000000,4.000000,4.000000,4.000000,4.000000,100.000000
1614488317.797176,54.000000,0.000000,-0.549746,-0.840895,-24.568750,-13.242736,-7.764801,-7.366065,3.763163,-14.598612,-17.683170,-13.502603,-12.993959,-1.423915,9.325264,-0.705716,-19.163448,5.171640,-4.986879,16.167576,-73.098480,-35.419086,-11.201690,0.850746,7.705262,-100.977707,-4.016001,-14.622716,0.109983,4.544885,-13.045328,-10.765057,-9.209791,-2.950988,8064.000000,0.000000,4.000000,,,,0.000000,4.000000,4.000000,4.000000,4.000000,4.000000,4.000000,4.000000,4.000000,4.000000,4.000000,4.000000,4.000000,4.000000,4.000000,4.000000,4.000000,4.000000,4.000000,4.000000,4.000000,4.000000,4.000000,4.000000,4.000000,4.000000,4.000000,4.000000,4.000000,4.000000,4.000000,4.000000,4.000000,100.000000
1614488317.804825,55.000000,0.000000,-1.062017,-1.352875,-27.621105,-20.408981,-11.859600,-12.486904,-0.855985,-20.225039,-16.127028,-18.617304,-18.109171,-2.960953,4.700554,-10.961420,-30.426336,-10.218147,-9.084456,1.792433,-89.435638,-45.127258,-16.831514,0.849896,3.594993,-117.799805,-8.627370,-11.018350,1.648335,4.540340,-13.032283,-10.754292,-9.200582,-11.153165,8064.000000,0.000000,4.000000,,,,0.000000,4.000000,4.000000,4.000000,4.000000,4.000000,4.000000,4.000000,4.000000,4.000000,4.000000,4.000000,4.000000,4.000000,4.000000,4.000000,4.000000,4.000000,4.000000,4.000000,4.000000,4.000000,4.000000,4.000000,4.000000,4.000000,4.000000,4.000000,4.000000,4.000000,4.000000,4.000000,4.000000,100.000000
1614488317.812574,56.000000,0.000000,-0.548134,-4.428445,-23.490919,-19.875751,-12.360561,-12.474417,-1.880770,-18.666351,-32.521156,-15.008944,-14.501318,-1.932351,2.644571,-10.437638,-29.883089,-11.746390,-7.024090,0.765000,-88.833382,-44.056488,-17.327503,1.361866,-0.511167,-116.143547,-8.105922,-18.186819,1.646687,4.535800,-13.019250,-10.230717,-11.755484,-13.706115,8064.000000,0.000000,4.000000,,,,0.000000,4.000000,4.000000,4.000000,4.000000,4.000000,4.000000,4.000000,4.000000,4.000000,4.000000,4.000000,4.000000,4.000000,4.000000,4.000000,4.000000,4.000000,4.000000,4.000000,4.000000,4.000000,4.000000,4.000000,4.000000,4.000000,4.000000,4.000000,4.000000,4.000000,4.000000,4.000000,4.000000,100.000000
1614488317.820223,57.000000,0.000000,-0.547586,-10.577863,-22.954609,-18.830235,-12.348201,-11.949122,-0.853248,-16.596403,-53.001453,-17.045218,-11.922714,-1.930418,3.667568,-6.324637,-27.801924,-6.606439,-4.965784,5.892440,-72.334290,-41.448330,-17.310175,0.847684,-1.023476,-103.206886,-9.123457,-25.348120,1.645040,4.531264,-13.006231,-10.220486,-13.795010,-10.615485,8064.000000,0.000000,4.000000,,,,0.000000,4.000000,4.000000,4.000000,4.000000,4.000000,4.000000,4.000000,4.000000,4.000000,4.000000,4.000000,4.000000,4.000000,4.000000,4.000000,4.000000,4.000000,4.000000,4.000000,4.000000,4.000000,4.000000,4.000000,4.000000,4.000000,4.000000,4.000000,4.000000,4.000000,4.000000,4.000000,4.000000,100.000000
1614488317.827972,58.000000,0.000000,-0.547038,-13.644208,-24.982935,-20.349865,-11.310211,-12.449994,-0.852395,-15.554166,-42.692043,-17.028172,-12.936433,-2.441308,3.663900,-7.856774,-30.851046,-8.651114,-3.935177,4.348086,-67.646576,-36.278675,-17.292866,1.359657,-0.509632,-98.488297,-5.524590,-22.245848,1.643395,4.526733,-12.993225,-10.723086,-12.755573,-6.502306,8064.000000,0.000000,4.000000,,,,0.000000,4.000000,4.000000,4.000000,4.000000,4.000000,4.000000,4.000000,4.000000,4.000000,4.000000,4.000000,4.000000,4.000000,4.000000,4.000000,4.000000,4.000000,4.000000,4.000000,4.000000,4.000000,4.000000,4.000000,4.000000,4.000000,4.000000,4.000000,4.000000,4.000000,4.000000,4.000000,4.000000,100.000000
1614488317.835621,59.000000,0.000000,-0.546491,-12.604922,-25.983595,-18.278234,-13.350183,-11.924723,-1.364363,-15.025791,-14.444223,-10.857297,-10.872214,-2.951688,3.147416,-5.797635,-26.204809,-4.027079,-3.418421,5.369379,-69.630211,-31.627012,-17.275572,1.358297,-0.509122,-99.928268,-5.006245,-21.710781,-0.409530,4.522206,-12.980231,-10.199542,-14.281280,-5.982983,8064.000000,0.000000,4.000000,,,,0.000000,4.000000,4.000000,4.000000,4.000000,4.000000,4.000000,4.000000,4.000000,4.000000,4.000000,4.000000,4.000000,4.000000,4.000000,4.000000,4.000000,4.000000,4.000000,4.000000,4.000000,4.000000,4.000000,4.000000,4.000000,4.000000,4.000000,4.000000,4.000000,4.000000,4.000000,4.000000,4.000000,100.000000
1614488317.843370,60.000000,0.000000,-0.545945,-12.592318,-23.393507,-16.721495,-20.003500,-11.912799,-0.337358,-15.010766,-7.763113,-7.769517,-0.604931,0.128187,3.657089,4.977394,-10.281169,13.925667,-3.415003,18.697344,-65.458015,-31.082565,-16.745476,1.356939,-1.021434,-97.264236,-14.232008,-24.765993,-2.973223,4.517684,-12.967252,-11.214984,-18.369562,-10.592384,8064.000000,0.000000,4.000000,,,,0.000000,4.000000,4.000000,4.000000,4.000000,4.000000,4.000000,4.000000,4.000000,4.000000,4.000000,4.000000,4.000000,4.000000,4.000000,4.000000,4.000000,4.000000,4.000000,4.000000,4.000000,4.000000,4.000000,4.000000,4.000000,4.000000,4.000000,4.000000,4.000000,4.000000,4.000000,4.000000,4.000000,100.000000
1614488317.851019,61.000000,0.000000,-0.545399,-13.092546,-21.831654,-18.243235,-23.060419,-11.900886,1.714262,-14.995755,-21.601503,-8.787389,5.036699,1.666521,3.653432,13.177545,-2.065759,19.552767,-3.411588,25.345312,-65.392555,-29.513021,-16.728731,1.355582,-0.507592,-94.090050,-17.807520,-24.741228,-2.970250,4.513166,-12.954284,-15.306333,-21.940937,-13.145895,8064.000000,0.000000,4.000000,,,,0.000000,4.000000,4.000000,4.000000,4.000000,4.000000,4.000000,4.000000,4.000000,4.000000,4.000000,4.000000,4.000000,4.000000,4.000000,4.000000,4.000000,4.000000,4.000000,4.000000,4.000000,4.000000,4.000000,4.000000,4.000000,4.000000,4.000000,4.000000,4.000000,4.000000,4.000000,4.000000,4.000000,100.000000
1614488317.858768,62.000000,0.000000,-0.544854,-13.079453,-22.322641,-19.763453,-17.396334,-9.837703,2.225368,-14.980760,-31.323492,-8.778601,0.416278,-4.488992,3.649778,10.087443,-6.679078,4.148598,-3.408176,15.576377,-67.891266,-27.432226,-16.712002,1.354226,-0.507084,-93.995964,-10.097404,-24.716486,-2.967280,4.508653,-12.941330,-18.367950,-19.867714,-12.619928,8064.000000,0.000000,4.000000,,,,0.000000,4.000000,4.000000,4.000000,4.000000,4.000000,4.000000,4.000000,4.000000,4.000000,4.000000,4.000000,4.000000,4.000000,4.000000,4.000000,4.000000,4.000000,4.000000,4.000000,4.000000,4.000000,4.000000,4.000000,4.000000,4.000000,4.000000,4.000000,4.000000,4.000000,4.000000,4.000000,4.000000,100.000000
1614488317.866417,63.000000,0.000000,-0.544309,-13.066374,-22.813139,-19.230869,-14.814835,-8.289404,3.248784,-14.965778,-31.292168,-8.257002,-3.173882,-9.612708,3.646129,4.949151,-9.749322,-3.547858,-3.404768,8.894135,-68.336197,-27.404793,-16.695290,1.352872,-0.506577,-94.414787,-6.497563,-22.640488,-3.477133,4.504145,-12.928389,-17.836761,-15.232461,-12.607308,8064.000000,0.000000,4.000000,,,,0.000000,4.000000,4.000000,4.000000,4.000000,4.000000,4.000000,4.000000,4.000000,4.000000,4.000000,4.000000,4.000000,4.000000,4.000000,4.000000,4.000000,4.000000,4.000000,4.000000,4.000000,4.000000,4.000000,4.000000,4.000000,4.000000,4.000000,4.000000,4.000000,4.000000,4.000000,4.000000,4.000000,100.000000
1614488317.874165,64.000000,0.000000,-0.543764,-12.540487,-21.764685,-19.724459,-16.338480,-8.281114,2.732714,-14.950812,-27.671133,-8.761565,-7.273273,-7.551814,3.642483,1.354458,-12.303676,-2.005849,-3.401363,9.398061,-73.396065,-28.915850,-16.678595,1.351519,-0.506070,-96.371651,-9.055168,-18.002462,-0.909554,4.499640,-12.915460,-17.818924,-12.653126,-11.056239,0.000000,207.000000,4.000000,,,,0.000000,4.000000,4.000000,4.000000,4.000000,4.000000,4.000000,4.000000,4.000000,4.000000,4.000000,4.000000,4.000000,4.000000,4.000000,4.000000,4.000000,4.000000,4.000000,4.000000,4.000000,4.000000,4.000000,4.000000,4.000000,4.000000,4.000000,4.000000,4.000000,4.000000,4.000000,4.000000,4.000000,100.000000
1614488317.881814,65.000000,0.000000,-0.543221,-13.040767,-22.768562,-19.704733,-15.809322,-8.272833,-5.475147,-15.448683,-26.617821,-8.752804,-18.548050,-6.518620,3.638840,-4.800742,-22.034962,-10.208971,-3.397962,3.234816,-78.963692,-31.451036,-16.661917,1.350168,-0.505564,-99.865028,-8.020472,-16.445999,0.116997,4.495141,-12.902545,-17.801105,-13.153294,-8.993901,0.000000,206.000000,4.000000,,,,0.000000,4.000000,4.000000,4.000000,4.000000,4.000000,4.000000,4.000000,4.000000,4.000000,4.000000,4.000000,4.000000,4.000000,4.000000,4.000000,4.000000,4.000000,4.000000,4.000000,4.000000,4.000000,4.000000,4.000000,4.000000,4.000000,4.000000,4.000000,4.000000,4.000000,4.000000,4.000000,4.000000,100.000000
1614488317.889663,66.000000,0.000000,-0.542677,-13.540546,-22.745792,-18.659388,-16.306334,-8.777381,-8.033774,-14.920413,-26.078382,-9.256871,-23.657707,-3.947999,2.609560,-7.360044,-25.602671,-17.891069,-3.394564,-2.409444,-79.910370,-31.932407,-16.645254,1.348817,-0.505059,-102.842087,-7.499631,-16.942373,1.142521,4.490645,-12.889642,-17.783304,-13.140141,-9.497727,0.000000,198.000000,4.000000,,,,0.000000,4.000000,4.000000,4.000000,4.000000,4.000000,4.000000,4.000000,4.000000,4.000000,4.000000,4.000000,4.000000,4.000000,4.000000,4.000000,4.000000,4.000000,4.000000,4.000000,4.000000,4.000000,4.000000,4.000000,4.000000,4.000000,4.000000,4.000000,4.000000,4.000000,4.000000,4.000000,4.000000,100.000000
1614488317.897412,67.000000,0.000000,-0.542135,-8.911622,-17.594843,-20.179190,-15.777206,-7.742962,3.256311,-14.905493,-23.488201,-8.734795,-20.044306,2.722615,4.658233,-7.352684,-22.500145,-15.821897,-3.391169,0.157068,-81.881744,-29.336372,-16.628609,1.347469,-0.504554,-104.790527,-8.004951,-16.925430,9.346507,4.486155,-12.876753,-17.765522,-12.614180,-8.462589,0.000000,182.000000,4.000000,,,,0.000000,4.000000,4.000000,4.000000,4.000000,4.000000,4.000000,4.000000,4.000000,4.000000,4.000000,4.000000,4.000000,4.000000,4.000000,4.000000,4.000000,4.000000,4.000000,4.000000,4.000000,4.000000,4.000000,4.000000,4.000000,4.000000,4.000000,4.000000,4.000000,4.000000,4.000000,4.000000,4.000000,100.000000
1614488317.905261,68.000000,0.000000,-0.541593,-2.236043,-11.423401,-18.107729,-13.197327,-5.171117,11.458183,-15.403408,-25.515995,-9.238880,-19.511442,5.283995,7.217677,-7.345331,-21.452003,-14.267613,-3.387778,1.182552,-82.825500,-27.768574,-16.611980,1.346121,-0.504049,-105.711372,-5.945665,-16.395685,15.491006,4.481669,-12.863875,-17.747755,-13.114386,-3.838742,0.000000,215.000000,4.000000,,,,0.000000,4.000000,4.000000,4.000000,4.000000,4.000000,4.000000,4.000000,4.000000,4.000000,4.000000,4.000000,4.000000,4.000000,4.000000,4.000000,4.000000,4.000000,4.000000,4.000000,4.000000,4.000000,4.000000,4.000000,4.000000,4.000000,4.000000,4.000000,4.000000,4.000000,4.000000,4.000000,4.000000,100.000000
1614488317.913009,69.000000,0.000000,-0.541051,-1.720987,-10.899158,-9.884493,-13.184129,-4.653125,9.908263,-13.849543,-28.567402,-9.229641,-16.927828,7.329993,5.159177,-3.235422,-18.866449,-13.227704,-3.384390,3.745472,-76.588829,-27.227985,-16.595369,0.831955,-0.503545,-105.092842,-4.401258,-17.404930,11.372952,4.477187,-13.363832,-17.730007,-13.101272,-0.245160,0.000000,193.000000,4.000000,,,,0.000000,4.000000,4.000000,4.000000,4.000000,4.000000,4.000000,4.000000,4.000000,4.000000,4.000000,4.000000,4.000000,4.000000,4.000000,4.000000,4.000000,4.000000,4.000000,4.000000,4.000000,4.000000,4.000000,4.000000,4.000000,4.000000,4.000000,4.000000,4.000000,4.000000,4.000000,4.000000,4.000000,100.000000
1614488317.920858,70.000000,0.000000,-0.540510,-1.206445,-11.401078,-3.720762,-12.145304,-4.135652,9.385534,-8.194668,-16.231142,-5.630668,-6.141669,13.989330,4.128377,3.947301,-11.668095,-4.496528,-3.381006,12.972496,-71.896858,-25.149475,-16.578773,1.343943,-0.503042,-104.987747,-4.396856,-15.336244,7.259014,4.472710,-13.350469,-17.712278,-13.088170,1.293547,0.000000,197.000000,4.000000,,,,0.000000,4.000000,4.000000,4.000000,4.000000,4.000000,4.000000,4.000000,4.000000,4.000000,4.000000,4.000000,4.000000,4.000000,4.000000,4.000000,4.000000,4.000000,4.000000,4.000000,4.000000,4.000000,4.000000,4.000000,4.000000,4.000000,4.000000,4.000000,4.000000,4.000000,4.000000,4.000000,4.000000,100.000000
1614488317.928607,71.000000,0.000000,-0.539969,2.384505,-11.389678,-4.229862,-4.440851,-1.567413,10.914611,-3.571089,-0.317475,-1.522473,1.556781,13.462520,8.739634,5.481815,-8.579504,1.661815,-3.377625,17.574907,-74.389061,-23.585863,-16.562195,1.855420,-0.502539,-104.882759,-3.879639,-13.269626,9.815858,4.468237,-12.824298,-17.694565,-13.075082,2.317895,0.000000,194.000000,4.000000,,,,0.000000,4.000000,4.000000,4.000000,4.000000,4.000000,4.000000,4.000000,4.000000,4.000000,4.000000,4.000000,4.000000,4.000000,4.000000,4.000000,4.000000,4.000000,4.000000,4.000000,4.000000,4.000000,4.000000,4.000000,4.000000,4.000000,4.000000,4.000000,4.000000,4.000000,4.000000,4.000000,4.000000,100.000000
1614488317.936456,72.000000,0.000000,-0.539429,0.843659,-11.378288,-4.738452,-2.897949,-1.565846,10.390875,-3.567517,-0.829978,-1.008130,0.016762,5.756750,10.269355,4.450692,-10.109385,1.147332,-3.374247,17.044512,-76.365959,-23.562277,-16.545631,0.827923,-0.502036,-104.777878,-4.901400,-13.256355,13.395785,3.438128,-13.324294,-17.676870,-13.062007,2.315577,0.000000,207.000000,4.000000,,,,0.000000,4.000000,4.000000,4.000000,4.000000,4.000000,4.000000,4.000000,4.000000,4.000000,4.000000,4.000000,4.000000,4.000000,4.000000,4.000000,4.000000,4.000000,4.000000,4.000000,4.000000,4.000000,4.000000,4.000000,4.000000,4.000000,4.000000,4.000000,4.000000,4.000000,4.000000,4.000000,4.000000,100.000000
1614488317.944205,73.000000,0.000000,-0.538890,-1.208467,-8.802807,-4.220893,-8.536077,-4.128383,9.354843,-4.589591,-8.008636,-1.519943,-0.496075,4.212532,7.182163,4.446241,-10.099277,1.146185,-3.370873,17.540289,-74.238312,-23.538715,-17.041906,1.339916,-0.501534,-104.160278,-3.870858,-12.730279,21.074697,5.485972,-13.310969,-15.607912,-13.048945,1.800441,0.000000,197.000000,4.000000,,,,0.000000,4.000000,4.000000,4.000000,4.000000,4.000000,4.000000,4.000000,4.000000,4.000000,4.000000,4.000000,4.000000,4.000000,4.000000,4.000000,4.000000,4.000000,4.000000,4.000000,4.000000,4.000000,4.000000,4.000000,4.000000,4.000000,4.000000,4.000000,4.000000,4.000000,4.000000,4.000000,4.000000,100.000000
1614488317.952053,74.000000,0.000000,-0.025531,3.920947,-4.178619,-4.216673,-3.912156,-5.149895,9.858309,-1.508078,-11.077550,-1.518423,1.555703,5.746780,6.662160,5.467436,-9.576357,-0.393423,-3.367502,11.368902,-74.676888,-27.104919,-15.999225,5.953960,-0.501032,-105.081764,1.774039,-10.153446,33.874134,7.531768,-5.092530,-11.489740,-13.035896,1.798640,0.000000,174.000000,4.000000,,,,0.000000,4.000000,4.000000,4.000000,4.000000,4.000000,4.000000,4.000000,4.000000,4.000000,4.000000,4.000000,4.000000,4.000000,4.000000,4.000000,4.000000,4.000000,4.000000,4.000000,4.000000,4.000000,4.000000,4.000000,4.000000,4.000000,4.000000,4.000000,4.000000,4.000000,4.000000,4.000000,4.000000,100.000000
1614488317.959802,75.000000,0.000000,-1.563967,5.455487,-3.661620,-5.238097,6.348167,-4.119104,9.848451,0.031891,-18.758780,-2.029725,-2.548417,4.715393,7.681139,4.949148,-10.079600,-5.521235,-3.364135,-0.950159,-81.268883,-31.693199,-17.008865,7.999289,-0.500531,-104.463860,1.772265,-9.117652,38.968468,5.472954,4.656152,-9.939789,-13.022861,1.284021,0.000000,189.000000,4.000000,,,,0.000000,4.000000,4.000000,4.000000,4.000000,4.000000,4.000000,4.000000,4.000000,4.000000,4.000000,4.000000,4.000000,4.000000,4.000000,4.000000,4.000000,4.000000,4.000000,4.000000,4.000000,4.000000,4.000000,4.000000,4.000000,4.000000,4.000000,4.000000,4.000000,4.000000,4.000000,4.000000,4.000000,100.000000
1614488317.967651,76.000000,0.000000,-3.613685,-2.242276,-4.170779,-4.720038,5.828998,-4.627806,5.223217,-4.070704,-25.406687,-2.027695,-10.238175,4.710678,5.622176,1.354455,-11.095162,-8.079816,-3.360770,-2.487671,-86.828636,-31.148685,-20.068781,3.888725,-2.551313,-103.846573,-3.870533,-9.621354,35.339756,4.954661,4.651496,-10.442670,-13.522657,2.308378,0.000000,209.000000,4.000000,,,,0.000000,4.000000,4.000000,4.000000,4.000000,4.000000,4.000000,4.000000,4.000000,4.000000,4.000000,4.000000,4.000000,4.000000,4.000000,4.000000,4.000000,4.000000,4.000000,4.000000,4.000000,4.000000,4.000000,4.000000,4.000000,4.000000,4.000000,4.000000,4.000000,4.000000,4.000000,4.000000,4.000000,100.000000
1614488317.975400,77.000000,0.000000,-4.635712,-6.342598,-4.166608,-4.715318,1.207785,-4.623178,2.141071,-7.143557,-25.894102,-1.000026,-12.792040,4.705966,3.565271,-2.749463,-10.058426,-6.533275,-3.357410,4.694304,-86.228989,-32.143177,-18.510250,0.807913,-4.600044,-106.819649,-2.328201,-9.611733,34.278774,9.565090,1.057101,-10.432227,-11.970674,0.767608,0.000000,193.000000,4.000000,,,,0.000000,4.000000,4.000000,4.000000,4.000000,4.000000,4.000000,4.000000,4.000000,4.000000,4.000000,4.000000,4.000000,4.000000,4.000000,4.000000,4.000000,4.000000,4.000000,4.000000,4.000000,4.000000,4.000000,4.000000,4.000000,4.000000,4.000000,4.000000,4.000000,4.000000,4.000000,4.000000,4.000000,100.000000
1614488317.983249,78.000000,0.000000,-4.118256,-5.310614,-4.675262,-5.736244,2.232218,-4.618555,6.241495,-5.085131,-24.842566,-3.050308,-11.240787,5.214081,2.536065,-4.285175,-10.048368,-7.039562,-3.866873,5.202430,-86.655579,-31.598215,-14.389175,0.807105,-4.082623,-108.251297,2.802332,-9.602121,33.218853,11.093987,2.081685,-9.908974,-10.933062,1.279661,0.000000,194.000000,4.000000,,,,0.000000,4.000000,4.000000,4.000000,4.000000,4.000000,4.000000,4.000000,4.000000,4.000000,4.000000,4.000000,4.000000,4.000000,4.000000,4.000000,4.000000,4.000000,4.000000,4.000000,4.000000,4.000000,4.000000,4.000000,4.000000,4.000000,4.000000,4.000000,4.000000,4.000000,4.000000,4.000000,4.000000,100.000000
1614488317.990997,79.000000,0.000000,-4.114138,-5.305304,-5.183408,-4.192046,3.768447,-4.613936,10.337817,-3.028764,-21.740801,-1.508796,-12.768007,9.824252,3.559170,-2.742429,-12.089602,-8.058163,-3.863006,4.684407,-85.543282,-20.284565,-12.836325,1.319119,-2.540079,-100.963554,2.799530,-10.105340,26.518969,8.005970,2.079603,-10.924706,-9.383667,6.919407,0.000000,186.000000,4.000000,,,,0.000000,4.000000,4.000000,4.000000,4.000000,4.000000,4.000000,4.000000,4.000000,4.000000,4.000000,4.000000,4.000000,4.000000,4.000000,4.000000,4.000000,4.000000,4.000000,4.000000,4.000000,4.000000,4.000000,4.000000,4.000000,4.000000,4.000000,4.000000,4.000000,4.000000,4.000000,4.000000,4.000000,100.000000
1614488317.998646,80.000000,0.000000,-4.110023,-5.812819,-3.126942,1.453171,1.200576,-4.609322,9.814659,-4.564197,-17.616495,9.261943,-10.703958,12.891351,6.632534,1.875699,-7.462127,-2.921900,-1.295040,12.372030,-74.688507,-8.982229,-10.259386,1.317800,-0.999077,-93.170280,2.283910,-9.582414,19.312962,7.485144,-0.999400,-10.400961,-8.861464,13.066334,0.000000,181.000000,4.000000,,,,0.000000,4.000000,4.000000,4.000000,4.000000,4.000000,4.000000,4.000000,4.000000,4.000000,4.000000,4.000000,4.000000,4.000000,4.000000,4.000000,4.000000,4.000000,4.000000,4.000000,4.000000,4.000000,4.000000,4.000000,4.000000,4.000000,4.000000,4.000000,4.000000,4.000000,4.000000,4.000000,4.000000,100.000000
1614488318.006395,81.000000,0.000000,-4.105914,-5.294186,-5.175097,3.503000,-2.903189,-4.604713,9.292024,-4.046812,-17.086060,13.868066,-0.949664,12.878459,7.138722,4.437925,2.288925,5.798971,-0.268104,20.564787,-63.844589,-9.998888,-5.633742,0.803661,5.155768,-92.051476,2.794446,-10.085652,16.729548,8.503300,-2.536862,-9.877739,-10.903884,13.053267,0.000000,209.000000,4.000000,,,,0.000000,4.000000,4.000000,4.000000,4.000000,4.000000,4.000000,4.000000,4.000000,4.000000,4.000000,4.000000,4.000000,4.000000,4.000000,4.000000,4.000000,4.000000,4.000000,4.000000,4.000000,4.000000,4.000000,4.000000,4.000000,4.000000,4.000000,4.000000,4.000000,4.000000,4.000000,4.000000,4.000000,100.000000
1614488318.014044,82.000000,0.000000,-4.614628,-5.288891,-4.657102,0.935395,0.689458,-5.112929,9.795552,-1.478663,-15.017691,7.187531,4.179491,12.352760,6.105942,3.407846,0.748174,9.382915,-0.267836,21.057043,-62.755104,-13.578633,-6.140929,0.802858,7.714715,-93.497879,2.791652,-10.075566,19.276920,7.469155,-2.021504,-10.380682,-7.303236,13.040215,0.000000,216.000000,4.000000,,,,0.000000,4.000000,4.000000,4.000000,4.000000,4.000000,4.000000,4.000000,4.000000,4.000000,4.000000,4.000000,4.000000,4.000000,4.000000,4.000000,4.000000,4.000000,4.000000,4.000000,4.000000,4.000000,4.000000,4.000000,4.000000,4.000000,4.000000,4.000000,4.000000,4.000000,4.000000,4.000000,4.000000,100.000000
1614488318.021793,83.000000,0.000000,-4.097193,-5.283602,10.219350,3.498562,6.329794,-4.082175,9.785756,0.061277,-10.387288,8.205985,3.662491,12.340407,12.766503,5.968541,-2.842317,7.322250,4.347816,20.010345,-62.692348,-12.539413,-3.570685,6.955901,5.142898,-92.378746,6.378604,-5.962926,30.539694,14.641173,-2.532303,-10.883122,6.037400,16.104097,0.000000,176.000000,4.000000,,,,0.000000,4.000000,4.000000,4.000000,4.000000,4.000000,4.000000,4.000000,4.000000,4.000000,4.000000,4.000000,4.000000,4.000000,4.000000,4.000000,4.000000,4.000000,4.000000,4.000000,4.000000,4.000000,4.000000,4.000000,4.000000,4.000000,4.000000,4.000000,4.000000,4.000000,4.000000,4.000000,4.000000,100.000000
1614488318.029442,84.000000,0.000000,-1.528993,-3.227037,23.029644,13.238653,1.195259,-2.026810,9.775970,-0.451604,-9.351260,16.402906,5.197290,12.840888,18.907583,13.142060,6.391294,8.853390,10.497314,20.503155,-60.065556,-12.014053,4.125193,13.102792,13.342883,-90.747902,12.526072,0.196883,43.842487,23.344481,-0.478489,-3.692752,14.236491,16.600813,0.000000,196.000000,4.000000,,,,0.000000,4.000000,4.000000,4.000000,4.000000,4.000000,4.000000,4.000000,4.000000,4.000000,4.000000,4.000000,4.000000,4.000000,4.000000,4.000000,4.000000,4.000000,4.000000,4.000000,4.000000,4.000000,4.000000,4.000000,4.000000,4.000000,4.000000,4.000000,4.000000,4.000000,4.000000,4.000000,4.000000,100.000000
1614488318.037191,85.000000,0.000000,-0.501823,-1.172528,14.288666,17.840799,-1.370038,-1.511963,8.740554,-0.963973,-9.341908,11.771119,7.243375,11.802405,14.786111,15.693021,10.487467,11.408639,12.025279,20.482651,-59.492668,-14.053322,3.095427,10.012766,28.201334,-89.631516,15.077648,2.247968,43.798645,19.218573,1.573272,2.464787,11.658152,15.558572,0.000000,204.000000,4.000000,,,,0.000000,4.000000,4.000000,4.000000,4.000000,4.000000,4.000000,4.000000,4.000000,4.000000,4.000000,4.000000,4.000000,4.000000,4.000000,4.000000,4.000000,4.000000,4.000000,4.000000,4.000000,4.000000,4.000000,4.000000,4.000000,4.000000,4.000000,4.000000,4.000000,4.000000,4.000000,4.000000,4.000000,100.000000
1614488318.044840,86.000000,0.000000,-1.014142,-1.684176,1.966684,16.797318,10.426204,-0.484810,9.757454,-0.450189,-7.281285,4.579861,6.723311,9.226501,12.207222,15.164507,5.348774,7.807487,10.474792,18.923708,-58.920353,-16.603371,-5.625617,4.361727,26.121851,-90.054703,11.472827,1.220079,32.472794,8.942944,-0.479584,-5.742806,8.569571,15.543013,0.000000,188.000000,4.000000,,,,0.000000,4.000000,4.000000,4.000000,4.000000,4.000000,4.000000,4.000000,4.000000,4.000000,4.000000,4.000000,4.000000,4.000000,4.000000,4.000000,4.000000,4.000000,4.000000,4.000000,4.000000,4.000000,4.000000,4.000000,4.000000,4.000000,4.000000,4.000000,4.000000,4.000000,4.000000,4.000000,4.000000,100.000000
1614488318.052589,87.000000,0.000000,0.525334,-1.682492,2.990359,16.780519,19.133726,2.592598,14.363081,2.114364,-6.248363,7.652204,6.716588,8.704453,16.810400,15.662163,4.830605,3.697115,10.977138,19.417604,-62.963997,-16.586767,-5.107171,4.357365,15.326499,-88.939011,6.845969,1.731679,25.773655,6.369898,-0.479104,-14.455011,7.535360,16.553112,0.000000,202.000000,4.000000,,,,0.000000,4.000000,4.000000,4.000000,4.000000,4.000000,4.000000,4.000000,4.000000,4.000000,4.000000,4.000000,4.000000,4.000000,4.000000,4.000000,4.000000,4.000000,4.000000,4.000000,4.000000,4.000000,4.000000,4.000000,4.000000,4.000000,4.000000,4.000000,4.000000,4.000000,4.000000,4.000000,4.000000,100.000000
1614488318.060237,88.000000,0.000000,3.088911,-1.680809,3.500189,17.276560,13.986387,2.590005,16.912821,3.137891,-6.242114,9.183014,5.171410,8.182929,19.357693,13.595219,-4.404994,3.180597,11.478981,19.911007,-72.131805,-18.621462,-0.999500,4.865829,14.285531,-90.388527,5.813482,1.217127,25.747883,8.414810,4.136759,-4.184146,5.476543,15.510917,0.000000,194.000000,4.000000,,,,0.000000,4.000000,4.000000,4.000000,4.000000,4.000000,4.000000,4.000000,4.000000,4.000000,4.000000,4.000000,4.000000,4.000000,4.000000,4.000000,4.000000,4.000000,4.000000,4.000000,4.000000,4.000000,4.000000,4.000000,4.000000,4.000000,4.000000,4.000000,4.000000,4.000000,4.000000,4.000000,4.000000,100.000000
1614488318.067986,89.000000,0.000000,3.085822,-1.679128,2.983868,17.259283,8.844195,2.074595,16.895908,3.134753,-5.210231,8.148190,2.602136,7.661925,17.287052,11.017521,-16.708282,3.177417,10.441861,18.865456,-73.085312,-22.192585,-3.049782,4.348142,11.194323,-96.451988,6.320489,1.728730,25.722134,7.380754,5.671084,8.640551,4.445425,16.008226,0.000000,199.000000,4.000000,,,,0.000000,4.000000,4.000000,4.000000,4.000000,4.000000,4.000000,4.000000,4.000000,4.000000,4.000000,4.000000,4.000000,4.000000,4.000000,4.000000,4.000000,4.000000,4.000000,4.000000,4.000000,4.000000,4.000000,4.000000,4.000000,4.000000,4.000000,4.000000,4.000000,4.000000,4.000000,4.000000,4.000000,100.000000
1614488318.075635,90.000000,0.000000,4.108377,-1.677449,11.698833,19.806126,9.348172,6.687905,19.955935,7.234182,-7.769124,18.396452,6.702097,14.320930,17.269766,16.134708,-1.306958,6.763983,10.431419,21.923513,-62.755817,-10.375521,-2.533912,4.856615,6.054923,-91.227333,5.288528,2.239822,24.157951,6.860553,5.665413,9.144731,4.953800,20.607603,0.000000,187.000000,4.000000,,,,0.000000,4.000000,4.000000,4.000000,4.000000,4.000000,4.000000,4.000000,4.000000,4.000000,4.000000,4.000000,4.000000,4.000000,4.000000,4.000000,4.000000,4.000000,4.000000,4.000000,4.000000,4.000000,4.000000,4.000000,4.000000,4.000000,4.000000,4.000000,4.000000,4.000000,4.000000,4.000000,4.000000,100.000000
1614488318.083384,91.000000,0.000000,6.668372,-1.675772,18.866621,21.324781,10.364465,12.835063,24.038544,12.355153,-4.171611,28.634466,12.336421,23.024557,18.278137,22.785240,23.309732,18.552092,14.523552,36.260563,-52.436653,12.198957,6.186571,5.877399,14.253997,-73.700203,6.821701,-1.352161,25.672255,9.417795,8.223850,7.084304,4.948846,23.663918,0.000000,198.000000,4.000000,,,,0.000000,4.000000,4.000000,4.000000,4.000000,4.000000,4.000000,4.000000,4.000000,4.000000,4.000000,4.000000,4.000000,4.000000,4.000000,4.000000,4.000000,4.000000,4.000000,4.000000,4.000000,4.000000,4.000000,4.000000,4.000000,4.000000,4.000000,4.000000,4.000000,4.000000,4.000000,4.000000,4.000000,100.000000
1614488318.091033,92.000000,0.000000,7.174524,-1.674096,12.181088,20.277817,9.328459,14.360689,24.527325,14.394080,8.653074,27.580191,15.401008,23.001534,17.747038,23.275276,26.363346,25.713026,18.098772,48.531994,-45.717548,15.263681,13.359871,9.974086,25.008974,-64.908554,13.481545,-0.837989,28.723505,10.946838,9.241267,8.102860,4.943898,23.640255,0.000000,203.000000,4.000000,,,,0.000000,4.000000,4.000000,4.000000,4.000000,4.000000,4.000000,4.000000,4.000000,4.000000,4.000000,4.000000,4.000000,4.000000,4.000000,4.000000,4.000000,4.000000,4.000000,4.000000,4.000000,4.000000,4.000000,4.000000,4.000000,4.000000,4.000000,4.000000,4.000000,4.000000,4.000000,4.000000,4.000000,100.000000
1614488318.098782,93.000000,0.000000,6.654529,-1.672422,6.015061,20.257538,8.293489,13.320687,23.477158,13.866865,9.157241,28.065430,17.949709,19.901609,17.729290,21.713539,23.772881,26.712954,19.106314,46.432182,-44.133369,4.992008,13.859332,16.630777,25.496784,-66.894928,18.083448,6.855157,29.720423,11.961533,9.744846,9.120399,4.938954,23.103794,0.000000,196.000000,4.000000,,,,0.000000,4.000000,4.000000,4.000000,4.000000,4.000000,4.000000,4.000000,4.000000,4.000000,4.000000,4.000000,4.000000,4.000000,4.000000,4.000000,4.000000,4.000000,4.000000,4.000000,4.000000,4.000000,4.000000,4.000000,4.000000,4.000000,4.000000,4.000000,4.000000,4.000000,4.000000,4.000000,4.000000,100.000000
1614488318.106431,94.000000,0.000000,6.647874,-1.157929,7.034687,20.237280,10.849298,13.307367,23.966501,13.852999,-0.595506,27.524544,15.880478,19.368887,17.711561,20.153364,18.108082,27.199062,18.574387,37.154980,-49.730263,2.422913,10.768549,20.716711,24.958467,-64.776756,18.065365,7.873943,28.665062,13.488032,12.299205,8.598457,4.934015,21.029408,0.000000,181.000000,4.000000,,,,0.000000,4.000000,4.000000,4.000000,4.000000,4.000000,4.000000,4.000000,4.000000,4.000000,4.000000,4.000000,4.000000,4.000000,4.000000,4.000000,4.000000,4.000000,4.000000,4.000000,4.000000,4.000000,4.000000,4.000000,4.000000,4.000000,4.000000,4.000000,4.000000,4.000000,4.000000,4.000000,4.000000,100.000000
1614488318.114280,95.000000,0.000000,7.154047,-1.669591,-1.690297,14.576018,13.915373,14.319700,24.455355,14.351966,-1.620551,14.676507,6.633828,12.682851,18.206671,12.953723,-0.884385,21.530836,16.504532,29.425518,-55.321556,-6.297458,7.168037,20.183174,24.933510,-66.763260,14.457557,-0.339059,29.149216,13.987365,10.235623,2.436013,4.929081,19.469917,0.000000,164.000000,4.000000,,,,0.000000,4.000000,4.000000,4.000000,4.000000,4.000000,4.000000,4.000000,4.000000,4.000000,4.000000,4.000000,4.000000,4.000000,4.000000,4.000000,4.000000,4.000000,4.000000,4.000000,4.000000,4.000000,4.000000,4.000000,4.000000,4.000000,4.000000,4.000000,4.000000,4.000000,4.000000,4.000000,4.000000,100.000000
1614488318.122028,96.000000,0.000000,5.608431,-3.719204,-12.457837,6.869134,10.311713,13.279740,22.379618,13.824794,-7.772777,4.405420,1.498989,3.952219,16.137182,4.222821,-10.627090,12.791357,14.949565,23.755066,-55.779057,-20.650135,4.083946,18.624529,20.293190,-81.055473,10.853355,-3.928464,29.120068,11.409275,5.610003,-6.284372,4.924152,19.450447,8064.000000,0.000000,4.000000,,,,0.000000,4.000000,4.000000,4.000000,4.000000,4.000000,4.000000,4.000000,4.000000,4.000000,4.000000,4.000000,4.000000,4.000000,4.000000,4.000000,4.000000,4.000000,4.000000,4.000000,4.000000,4.000000,4.000000,4.000000,4.000000,4.000000,4.000000,4.000000,4.000000,4.000000,4.000000,4.000000,4.000000,100.000000
1614488318.129877,97.000000,0.000000,3.551541,-5.766767,-4.240251,7.887906,3.121915,9.163896,20.305956,13.810968,-14.431671,8.503579,2.523131,3.948267,14.069762,2.680136,-2.924155,10.214463,14.421795,22.705669,-55.723278,-16.526920,-0.535522,13.990520,17.195974,-90.718002,9.304040,-2.386074,25.501204,10.885045,5.091572,-7.816549,4.919228,17.379715,8064.000000,0.000000,4.000000,,,,0.000000,4.000000,4.000000,4.000000,4.000000,4.000000,4.000000,4.000000,4.000000,4.000000,4.000000,4.000000,4.000000,4.000000,4.000000,4.000000,4.000000,4.000000,4.000000,4.000000,4.000000,4.000000,4.000000,4.000000,4.000000,4.000000,4.000000,4.000000,4.000000,4.000000,4.000000,4.000000,4.000000,100.000000
1614488318.137626,98.000000,0.000000,3.035169,-5.248179,11.661425,12.495402,1.067511,5.564989,19.772829,13.797157,0.454556,13.110460,2.520608,7.534062,13.542872,4.215918,0.668512,9.178608,10.817630,22.170143,-56.693195,-7.792445,-3.611910,6.284222,15.640317,-89.601646,9.807557,-1.870867,21.885960,11.899801,3.035199,-6.270271,4.914309,16.336695,8064.000000,0.000000,4.000000,,,,0.000000,4.000000,4.000000,4.000000,4.000000,4.000000,4.000000,4.000000,4.000000,4.000000,4.000000,4.000000,4.000000,4.000000,4.000000,4.000000,4.000000,4.000000,4.000000,4.000000,4.000000,4.000000,4.000000,4.000000,4.000000,4.000000,4.000000,4.000000,4.000000,4.000000,4.000000,4.000000,4.000000,100.000000
1614488318.145475,99.000000,0.000000,1.493672,-5.242931,15.239508,13.508549,2.604905,5.559423,20.265877,13.783360,3.531024,11.558887,2.005267,8.552170,14.042150,2.673240,-0.870618,6.605327,4.140145,19.583872,-60.226246,-18.553885,-8.223682,1.149733,8.958010,-91.563324,9.797750,-2.894637,20.325611,9.836619,-2.096041,-7.289641,4.909394,15.294716,8064.000000,0.000000,4.000000,,,,0.000000,4.000000,4.000000,4.000000,4.000000,4.000000,4.000000,4.000000,4.000000,4.000000,4.000000,4.000000,4.000000,4.000000,4.000000,4.000000,4.000000,4.000000,4.000000,4.000000,4.000000,4.000000,4.000000,4.000000,4.000000,4.000000,4.000000,4.000000,4.000000,4.000000,4.000000,4.000000,4.000000,100.000000
1614488318.153224,100.000000,0.000000,-1.071924,-5.237689,13.685806,11.956578,2.089479,6.066685,19.732790,13.769577,-13.395584,12.060149,2.516082,8.030797,13.515287,3.183388,-1.382568,6.598722,1.059082,18.538647,-64.781403,-32.381485,-15.907766,-0.389878,4.846488,-101.728172,9.275131,-2.891743,22.869389,8.288321,-0.555484,-7.282352,4.904485,15.279422,8064.000000,0.000000,4.000000,,,,0.000000,4.000000,4.000000,4.000000,4.000000,4.000000,4.000000,4.000000,4.000000,4.000000,4.000000,4.000000,4.000000,4.000000,4.000000,4.000000,4.000000,4.000000,4.000000,4.000000,4.000000,4.000000,4.000000,4.000000,4.000000,4.000000,4.000000,4.000000,4.000000,4.000000,4.000000,4.000000,4.000000,100.000000
1614488318.161072,101.000000,0.000000,0.467609,-2.668348,14.697762,13.483084,1.574569,5.547798,20.225878,13.755808,-5.177060,13.073730,3.026386,8.022766,14.014592,11.898153,-2.919647,7.104943,5.673408,19.032928,-67.280724,-31.323462,-14.866218,2.174614,5.867282,-97.523880,9.778676,0.700893,26.949083,10.331315,4.573277,-6.249428,4.899580,19.366707,8064.000000,0.000000,4.000000,,,,0.000000,4.000000,4.000000,4.000000,4.000000,4.000000,4.000000,4.000000,4.000000,4.000000,4.000000,4.000000,4.000000,4.000000,4.000000,4.000000,4.000000,4.000000,4.000000,4.000000,4.000000,4.000000,4.000000,4.000000,4.000000,4.000000,4.000000,4.000000,4.000000,4.000000,4.000000,4.000000,4.000000,100.000000
1614488318.168821,102.000000,0.000000,3.544065,-1.127218,14.683064,13.469601,3.111456,5.542250,20.718472,14.254872,11.751194,12.035016,7.638745,9.553205,17.077501,19.065742,1.185837,7.610659,13.360042,19.526716,-63.623699,-22.574188,0.533264,7.813465,4.835774,-73.836617,9.768898,5.315577,29.486237,11.859446,5.594345,-7.781641,5.407501,22.424263,8064.000000,0.000000,4.000000,,,,0.000000,4.000000,4.000000,4.000000,4.000000,4.000000,4.000000,4.000000,4.000000,4.000000,4.000000,4.000000,4.000000,4.000000,4.000000,4.000000,4.000000,4.000000,4.000000,4.000000,4.000000,4.000000,4.000000,4.000000,4.000000,4.000000,4.000000,4.000000,4.000000,4.000000,4.000000,4.000000,4.000000,100.000000
1614488318.176670,103.000000,0.000000,3.027700,-1.638911,15.694021,10.892028,1.057063,6.049528,20.184933,14.240618,-6.209275,16.125546,13.784952,11.594934,17.573244,19.046677,11.953882,15.295356,17.962067,26.686676,-47.662640,-8.192640,12.327602,12.421037,9.959144,-56.839699,9.759129,2.746158,27.405468,11.334765,5.075930,-9.825141,5.402093,14.709531,8064.000000,0.000000,4.000000,,,,0.000000,4.000000,4.000000,4.000000,4.000000,4.000000,4.000000,4.000000,4.000000,4.000000,4.000000,4.000000,4.000000,4.000000,4.000000,4.000000,4.000000,4.000000,4.000000,4.000000,4.000000,4.000000,4.000000,4.000000,4.000000,4.000000,4.000000,4.000000,4.000000,4.000000,4.000000,4.000000,4.000000,100.000000
1614488318.184419,104.000000,0.000000,3.024672,-1.637273,12.088584,8.829854,-1.508097,6.043478,20.164749,12.687915,-22.100502,19.699163,16.848091,12.608980,18.068491,20.053270,20.659878,23.998009,17.944105,39.480503,-28.127798,7.712988,13.340916,12.921435,21.231236,-57.295681,10.262190,-2.384793,23.275499,11.836251,5.583674,-10.840957,4.371050,8.028154,8064.000000,0.000000,4.000000,,,,0.000000,4.000000,4.000000,4.000000,4.000000,4.000000,4.000000,4.000000,4.000000,4.000000,4.000000,4.000000,4.000000,4.000000,4.000000,4.000000,4.000000,4.000000,4.000000,4.000000,4.000000,4.000000,4.000000,4.000000,4.000000,4.000000,4.000000,4.000000,4.000000,4.000000,4.000000,4.000000,4.000000,100.000000
1614488318.192267,105.000000,0.000000,3.534468,-1.635635,-2.282479,9.333844,-0.993768,6.037435,20.144585,13.700869,-8.232247,13.012797,18.882524,12.083550,18.563244,15.930654,20.639217,27.563755,17.926161,46.620510,-25.535568,7.192455,11.276293,10.857232,26.338209,-62.366589,9.226287,-2.895229,21.713762,9.260312,3.526809,-10.317295,5.392321,10.584229,8064.000000,0.000000,4.000000,,,,0.000000,4.000000,4.000000,4.000000,4.000000,4.000000,4.000000,4.000000,4.000000,4.000000,4.000000,4.000000,4.000000,4.000000,4.000000,4.000000,4.000000,4.000000,4.000000,4.000000,4.000000,4.000000,4.000000,4.000000,4.000000,4.000000,4.000000,4.000000,4.000000,4.000000,4.000000,4.000000,4.000000,100.000000
1614488318.200016,106.000000,0.000000,1.992472,-1.634000,-12.536607,7.273229,-3.556877,6.031397,17.560337,14.712809,1.006754,6.333117,15.786718,10.533005,12.903654,1.555748,7.798065,23.946447,19.446695,39.907223,-41.920288,-7.173712,1.521427,5.718170,24.260590,-73.586273,4.601676,-2.379513,21.692047,4.635667,0.959179,-10.819798,5.899749,9.548003,8064.000000,0.000000,4.000000,,,,0.000000,4.000000,4.000000,4.000000,4.000000,4.000000,4.000000,4.000000,4.000000,4.000000,4.000000,4.000000,4.000000,4.000000,4.000000,4.000000,4.000000,4.000000,4.000000,4.000000,4.000000,4.000000,4.000000,4.000000,4.000000,4.000000,4.000000,4.000000,4.000000,4.000000,4.000000,4.000000,4.000000,100.000000
1614488318.207865,107.000000,0.000000,-0.573623,-1.632366,-12.524070,2.650571,-11.245627,6.025366,12.927392,7.005788,-3.609637,2.737041,-4.741889,6.419908,4.172802,-7.676577,-10.158451,3.922501,12.760582,17.816032,-68.032211,-22.038334,-14.890351,0.071426,17.569662,-99.153717,2.032972,-2.377134,20.131895,3.605391,0.958220,-10.296159,-2.311279,4.923071,8064.000000,0.000000,4.000000,,,,0.000000,4.000000,4.000000,4.000000,4.000000,4.000000,4.000000,4.000000,4.000000,4.000000,4.000000,4.000000,4.000000,4.000000,4.000000,4.000000,4.000000,4.000000,4.000000,4.000000,4.000000,4.000000,4.000000,4.000000,4.000000,4.000000,4.000000,4.000000,4.000000,4.000000,4.000000,4.000000,4.000000,100.000000
1614488318.215614,108.000000,0.000000,-1.085870,-1.630733,-12.511546,1.109459,-13.798485,6.019341,10.863182,-1.719167,-3.606028,-6.496466,-24.737146,3.849385,1.091706,-9.207361,-19.891882,-17.107063,2.491411,-7.842809,-93.605209,-39.965012,-24.106230,-3.518389,4.218759,-118.541740,2.030939,-2.887577,22.163044,4.114606,1.470082,-10.798683,-11.026917,3.379686,8064.000000,0.000000,4.000000,,,,0.000000,4.000000,4.000000,4.000000,4.000000,4.000000,4.000000,4.000000,4.000000,4.000000,4.000000,4.000000,4.000000,4.000000,4.000000,4.000000,4.000000,4.000000,4.000000,4.000000,4.000000,4.000000,4.000000,4.000000,4.000000,4.000000,4.000000,4.000000,4.000000,4.000000,4.000000,4.000000,4.000000,100.000000
1614488318.223263,109.000000,0.000000,-1.084784,-1.629103,-7.883650,2.646811,-9.169302,6.013321,14.954884,4.436399,-1.551139,-8.541251,-18.558563,7.435280,4.167537,-6.634052,-17.820709,-9.910468,4.027381,-11.937531,-93.511604,-46.591713,-19.466740,-3.514871,-7.067511,-113.807816,1.516087,-3.397510,29.320368,4.110491,0.955792,-10.787884,-9.990249,2.863486,8064.000000,0.000000,4.000000,,,,0.000000,4.000000,4.000000,4.000000,4.000000,4.000000,4.000000,4.000000,4.000000,4.000000,4.000000,4.000000,4.000000,4.000000,4.000000,4.000000,4.000000,4.000000,4.000000,4.000000,4.000000,4.000000,4.000000,4.000000,4.000000,4.000000,4.000000,4.000000,4.000000,4.000000,4.000000,4.000000,4.000000,100.000000
1614488318.231012,110.000000,0.000000,-0.570879,-1.627473,2.893465,4.695446,-6.083209,6.007308,21.606594,15.714014,-2.575229,5.313444,1.459995,12.043229,8.265934,6.705915,-9.084939,10.612263,14.792584,9.612868,-64.187325,-25.519482,-4.575478,-0.947253,-4.496341,-97.796570,5.617136,-0.317189,33.393612,3.593560,0.954836,-6.161712,-7.416156,7.476007,8064.000000,0.000000,4.000000,,,,0.000000,4.000000,4.000000,4.000000,4.000000,4.000000,4.000000,4.000000,4.000000,4.000000,4.000000,4.000000,4.000000,4.000000,4.000000,4.000000,4.000000,4.000000,4.000000,4.000000,4.000000,4.000000,4.000000,4.000000,4.000000,4.000000,4.000000,4.000000,4.000000,4.000000,4.000000,4.000000,4.000000,100.000000
1614488318.238661,111.000000,0.000000,1.480974,-1.625846,5.967494,5.203571,-3.000203,6.001301,24.149092,17.236761,-3.598295,14.538899,9.663663,12.544006,10.308949,21.571005,-1.383546,15.217035,18.880356,28.577614,-47.200058,-6.519603,5.685508,0.079335,6.790207,-90.519287,14.329467,6.862615,32.334579,4.102787,2.492342,0.511117,-6.383099,18.750582,8064.000000,0.000000,4.000000,,,,0.000000,4.000000,4.000000,4.000000,4.000000,4.000000,4.000000,4.000000,4.000000,4.000000,4.000000,4.000000,4.000000,4.000000,4.000000,4.000000,4.000000,4.000000,4.000000,4.000000,4.000000,4.000000,4.000000,4.000000,4.000000,4.000000,4.000000,4.000000,4.000000,4.000000,4.000000,4.000000,4.000000,100.000000
1614488318.246409,112.000000,0.000000,3.530776,-1.624220,1.858963,5.198368,3.669464,5.995299,23.612122,16.193884,-3.081876,11.960258,8.628359,11.505821,10.298641,23.087894,-1.894983,11.612074,17.323015,29.061857,-54.845165,-15.231032,3.628541,1.617717,13.450083,-91.454407,17.904881,9.419855,32.815063,4.098684,5.053953,2.049067,2.341233,24.372858,8064.000000,0.000000,4.000000,,,,0.000000,4.000000,4.000000,4.000000,4.000000,4.000000,4.000000,4.000000,4.000000,4.000000,4.000000,4.000000,4.000000,4.000000,4.000000,4.000000,4.000000,4.000000,4.000000,4.000000,4.000000,4.000000,4.000000,4.000000,4.000000,4.000000,4.000000,4.000000,4.000000,4.000000,4.000000,4.000000,4.000000,100.000000
1614488318.254058,113.000000,0.000000,3.014424,-1.622596,-5.835204,7.244451,7.255538,5.989304,24.101330,18.741793,-1.027512,11.948298,11.183833,12.007136,10.288342,22.039165,-2.405909,10.574821,17.818512,22.878950,-55.815960,-24.446571,2.599271,8.282766,13.436633,-90.850136,17.374155,8.897614,33.295071,4.094586,5.561719,-1.029905,12.595302,23.322844,8064.000000,0.000000,4.000000,,,,0.000000,4.000000,4.000000,4.000000,4.000000,4.000000,4.000000,4.000000,4.000000,4.000000,4.000000,4.000000,4.000000,4.000000,4.000000,4.000000,4.000000,4.000000,4.000000,4.000000,4.000000,4.000000,4.000000,4.000000,4.000000,4.000000,4.000000,4.000000,4.000000,4.000000,4.000000,4.000000,4.000000,100.000000
1614488318.261807,114.000000,0.000000,3.011410,-1.620973,-8.906292,5.698745,6.735462,6.496135,24.590050,15.646128,-3.590587,15.526093,14.249572,12.507950,10.790874,25.606871,5.801625,11.589888,18.826334,23.368891,-48.067837,-22.370842,8.237698,14.941151,12.910376,-85.118256,17.356781,8.888717,28.646389,4.090491,5.043337,-2.567337,13.608348,24.837982,8064.000000,0.000000,4.000000,,,,0.000000,4.000000,4.000000,4.000000,4.000000,4.000000,4.000000,4.000000,4.000000,4.000000,4.000000,4.000000,4.000000,4.000000,4.000000,4.000000,4.000000,4.000000,4.000000,4.000000,4.000000,4.000000,4.000000,4.000000,4.000000,4.000000,4.000000,4.000000,4.000000,4.000000,4.000000,4.000000,4.000000,100.000000
1614488318.269456,115.000000,0.000000,3.008398,-1.619352,10.076973,5.693047,5.703085,5.976819,23.026997,9.476635,-1.535715,16.536209,13.722502,11.982621,10.267263,26.606905,10.924028,16.706503,17.781868,30.525009,-44.942848,-18.245907,10.280742,16.977491,14.435927,-76.315193,17.339424,6.315726,27.592102,4.086401,5.038294,-3.077590,12.056278,27.377247,8192.000000,0.000000,4.000000,,,,0.000000,4.000000,4.000000,4.000000,4.000000,4.000000,4.000000,4.000000,4.000000,4.000000,4.000000,4.000000,4.000000,4.000000,4.000000,4.000000,4.000000,4.000000,4.000000,4.000000,4.000000,4.000000,4.000000,4.000000,4.000000,4.000000,4.000000,4.000000,4.000000,4.000000,4.000000,4.000000,4.000000,100.000000
1614488318.277205,116.000000,0.000000,3.005390,-1.617733,34.169460,16.969404,6.723023,5.970842,24.542433,15.108184,14.363256,16.519672,19.349806,11.970638,10.256996,26.067478,12.451567,24.894924,18.276905,39.725254,-36.692776,-6.945610,9.757641,16.447693,13.395850,-69.059387,17.834906,5.283769,32.179893,4.082314,5.546076,-3.074512,13.582684,27.862690,8064.000000,0.000000,4.000000,,,,0.000000,4.000000,4.000000,4.000000,4.000000,4.000000,4.000000,4.000000,4.000000,4.000000,4.000000,4.000000,4.000000,4.000000,4.000000,4.000000,4.000000,4.000000,4.000000,4.000000,4.000000,4.000000,4.000000,4.000000,4.000000,4.000000,4.000000,4.000000,4.000000,4.000000,4.000000,4.000000,4.000000,100.000000
1614488318.284854,117.000000,0.000000,3.002384,-1.616115,23.878881,20.029358,6.716300,6.990512,23.492249,22.272564,16.912996,16.503153,24.971481,11.958668,10.246738,26.041410,18.080141,27.946953,17.232988,45.326553,-28.450954,4.856207,8.722241,9.251759,13.382454,-66.426224,16.791430,5.791306,27.019510,4.078232,5.540530,-2.558617,11.517818,25.270725,8064.000000,0.000000,4.000000,,,,0.000000,4.000000,4.000000,4.000000,4.000000,4.000000,4.000000,4.000000,4.000000,4.000000,4.000000,4.000000,4.000000,4.000000,4.000000,4.000000,4.000000,4.000000,4.000000,4.000000,4.000000,4.000000,4.000000,4.000000,4.000000,4.000000,4.000000,4.000000,4.000000,4.000000,4.000000,4.000000,4.000000,100.000000
1614488318.292603,118.000000,0.000000,2.999382,-1.614499,-3.837306,1.547791,2.094199,2.880957,15.776448,14.045162,-2.591096,14.948188,18.792664,11.946709,8.185210,23.964087,17.549240,23.303621,13.113191,43.742767,-39.191734,6.389813,3.072494,-1.013904,15.420354,-70.462364,8.056690,-1.393973,15.710439,4.074154,3.483707,-3.581699,2.788352,18.578787,8064.000000,0.000000,4.000000,,,,0.000000,4.000000,4.000000,4.000000,4.000000,4.000000,4.000000,4.000000,4.000000,4.000000,4.000000,4.000000,4.000000,4.000000,4.000000,4.000000,4.000000,4.000000,4.000000,4.000000,4.000000,4.000000,4.000000,4.000000,4.000000,4.000000,4.000000,4.000000,4.000000,4.000000,4.000000,4.000000,4.000000,100.000000
1614488318.300252,119.000000,0.000000,2.996383,-1.612885,-12.551417,-13.838372,-4.061741,-4.301411,8.068364,2.236245,-13.870557,11.343496,10.568743,11.934762,6.638563,21.888840,7.275280,18.664932,10.023154,38.570816,-50.434593,3.306500,-2.571604,-3.576993,16.943396,-79.622673,-1.182136,-5.495143,19.284472,4.070080,1.428941,-5.116580,-2.855462,15.483286,8064.000000,0.000000,4.000000,,,,0.000000,4.000000,4.000000,4.000000,4.000000,4.000000,4.000000,4.000000,4.000000,4.000000,4.000000,4.000000,4.000000,4.000000,4.000000,4.000000,4.000000,4.000000,4.000000,4.000000,4.000000,4.000000,4.000000,4.000000,4.000000,4.000000,4.000000,4.000000,4.000000,4.000000,4.000000,4.000000,4.000000,100.000000
1614488318.308001,120.000000,0.000000,2.993386,-1.611272,-12.538866,-13.311713,-5.596141,-5.835571,8.060296,1.721189,-16.420788,9.280870,9.532533,11.922828,6.119104,22.379772,4.191082,18.133448,10.013131,33.916862,-51.922619,-3.363473,-2.056212,-3.573416,16.926451,-85.696892,-0.668133,1.689839,30.547239,4.066010,0.914692,-6.649924,-2.852607,15.467802,8064.000000,0.000000,4.000000,,,,0.000000,4.000000,4.000000,4.000000,4.000000,4.000000,4.000000,4.000000,4.000000,4.000000,4.000000,4.000000,4.000000,4.000000,4.000000,4.000000,4.000000,4.000000,4.000000,4.000000,4.000000,4.000000,4.000000,4.000000,4.000000,4.000000,4.000000,4.000000,4.000000,4.000000,4.000000,4.000000,4.000000,100.000000
1614488318.315650,121.000000,0.000000,2.990393,-1.609661,-7.910943,-11.759940,-5.077724,-5.316915,9.077877,3.770749,-24.609495,6.707487,5.420436,11.910905,6.625806,19.280470,2.135609,15.551211,10.515939,27.216278,-54.947620,-15.154982,-5.131079,-3.057022,16.909525,-88.175301,2.409458,1.175329,32.567974,4.061944,1.426598,-6.643274,-2.336934,10.324129,8064.000000,0.000000,4.000000,,,,0.000000,4.000000,4.000000,4.000000,4.000000,4.000000,4.000000,4.000000,4.000000,4.000000,4.000000,4.000000,4.000000,4.000000,4.000000,4.000000,4.000000,4.000000,4.000000,4.000000,4.000000,4.000000,4.000000,4.000000,4.000000,4.000000,4.000000,4.000000,4.000000,4.000000,4.000000,4.000000,4.000000,100.000000
1614488318.323498,122.000000,0.000000,2.987403,-2.633692,2.866199,-13.286642,-5.072646,-5.311598,8.555978,2.741338,-19.456682,2.598215,-0.738831,11.898993,6.619180,12.594522,-11.712681,4.253609,9.992602,20.009575,-57.456776,-19.242392,-9.228512,2.587061,16.892616,-89.112762,2.407048,-9.082256,32.535404,4.057881,0.912351,-6.636631,-4.898699,8.775344,8064.000000,0.000000,4.000000,,,,0.000000,4.000000,4.000000,4.000000,4.000000,4.000000,4.000000,4.000000,4.000000,4.000000,4.000000,4.000000,4.000000,4.000000,4.000000,4.000000,4.000000,4.000000,4.000000,4.000000,4.000000,4.000000,4.000000,4.000000,4.000000,4.000000,4.000000,4.000000,4.000000,4.000000,4.000000,4.000000,4.000000,100.000000
1614488318.331247,123.000000,0.000000,2.984415,-1.092597,-8.931539,-12.760535,-4.554753,-3.255004,8.547422,3.251417,-8.155173,1.057156,-1.763733,11.887094,7.125381,10.530645,-18.880455,-4.981414,9.982610,13.322899,-60.476242,-23.838533,-9.732104,4.122936,16.875723,-89.536476,2.917462,-10.098815,29.938768,4.053823,1.424259,-6.629994,-7.970724,11.843492,8064.000000,0.000000,4.000000,,,,0.000000,4.000000,4.000000,4.000000,4.000000,4.000000,4.000000,4.000000,4.000000,4.000000,4.000000,4.000000,4.000000,4.000000,4.000000,4.000000,4.000000,4.000000,4.000000,4.000000,4.000000,4.000000,4.000000,4.000000,4.000000,4.000000,4.000000,4.000000,4.000000,4.000000,4.000000,4.000000,4.000000,100.000000
1614488318.338996,124.000000,0.000000,2.981431,-1.091504,-30.461069,-13.260594,-7.627121,-1.200467,9.051696,1.196883,-9.172659,1.568919,-1.761969,11.362388,6.092615,10.007295,-10.143626,0.664593,10.485448,9.719832,-69.133713,-27.917259,-10.748013,0.529069,17.371668,-92.011040,1.376083,-10.601537,18.626778,4.049770,0.910014,-7.649005,-10.014035,5.677802,8064.000000,0.000000,4.000000,,,,0.000000,4.000000,4.000000,4.000000,4.000000,4.000000,4.000000,4.000000,4.000000,4.000000,4.000000,4.000000,4.000000,4.000000,4.000000,4.000000,4.000000,4.000000,4.000000,4.000000,4.000000,4.000000,4.000000,4.000000,4.000000,4.000000,4.000000,4.000000,4.000000,4.000000,4.000000,4.000000,4.000000,100.000000
1614488318.346645,125.000000,0.000000,2.978449,-3.654515,-20.174198,-8.631949,-11.722058,-1.199267,9.555464,-0.342775,-1.983999,2.080171,5.419280,12.376666,7.112163,11.535748,-2.441175,11.945980,10.474962,14.325498,-63.423557,-12.504725,-8.173162,7.708027,16.841476,-88.329285,-3.240678,-14.180679,12.967125,4.045720,1.421925,-9.692638,-8.978380,3.108021,8064.000000,0.000000,4.000000,,,,0.000000,4.000000,4.000000,4.000000,4.000000,4.000000,4.000000,4.000000,4.000000,4.000000,4.000000,4.000000,4.000000,4.000000,4.000000,4.000000,4.000000,4.000000,4.000000,4.000000,4.000000,4.000000,4.000000,4.000000,4.000000,4.000000,4.000000,4.000000,4.000000,4.000000,4.000000,4.000000,4.000000,100.000000
1614488318.354494,126.000000,0.000000,3.488292,3.015806,1.897259,-3.495113,-11.197515,0.853215,8.520267,0.170388,6.223113,1.052449,17.208733,11.851469,7.617872,13.575495,-0.387452,15.523777,10.464487,24.567583,-41.821671,1.353933,1.065780,12.828525,16.311813,-74.394798,-2.724617,-2.371627,20.133646,4.041674,3.984605,-10.195766,-5.892478,12.335683,8064.000000,0.000000,4.000000,,,,0.000000,4.000000,4.000000,4.000000,4.000000,4.000000,4.000000,4.000000,4.000000,4.000000,4.000000,4.000000,4.000000,4.000000,4.000000,4.000000,4.000000,4.000000,4.000000,4.000000,4.000000,4.000000,4.000000,4.000000,4.000000,4.000000,4.000000,4.000000,4.000000,4.000000,4.000000,4.000000,4.000000,100.000000
1614488318.362243,127.000000,0.000000,2.971983,12.243560,5.485105,-8.619823,-8.109395,3.416464,5.434824,-5.470808,-9.167726,-2.538347,14.114601,7.737053,1.969228,10.484996,-3.463987,14.482613,10.454022,26.594297,-37.677284,-10.955113,-2.012209,-0.517638,17.321142,-68.166557,-1.183431,10.964079,25.241716,3.011992,5.006262,-10.185571,-6.399406,12.323347,8064.000000,0.000000,4.000000,,,,0.000000,4.000000,4.000000,4.000000,4.000000,4.000000,4.000000,4.000000,4.000000,4.000000,4.000000,4.000000,4.000000,4.000000,4.000000,4.000000,4.000000,4.000000,4.000000,4.000000,4.000000,4.000000,4.000000,4.000000,4.000000,4.000000,4.000000,4.000000,4.000000,4.000000,4.000000,4.000000,4.000000,100.000000
1614488318.370091,0.000000,0.000000,2.969011,6.590291,3.941159,-13.739408,-8.614106,2.387407,1.839646,-14.183286,-16.338045,-8.689654,1.279973,4.139573,-4.186587,4.320665,-11.152831,11.904027,10.443568,20.926678,-51.485760,-20.174927,-12.266607,-10.260710,15.765360,-77.329163,-7.336093,6.850550,23.678013,0.444877,4.488435,-10.175385,-8.957109,6.157177,0.000000,195.000000,4.000000,,,,0.000000,4.000000,4.000000,4.000000,4.000000,4.000000,4.000000,4.000000,4.000000,4.000000,4.000000,4.000000,4.000000,4.000000,4.000000,4.000000,4.000000,4.000000,4.000000,4.000000,4.000000,4.000000,4.000000,4.000000,4.000000,4.000000,4.000000,4.000000,4.000000,4.000000,4.000000,4.000000,4.000000,100.000000
1614488318.377840,1.000000,0.000000,3.991683,-5.211172,-5.293552,-9.623104,-9.118313,2.897840,1.324986,-14.169103,-1.449912,-12.783529,-1.798230,4.648253,-5.208042,2.777883,-14.218601,8.302380,10.433125,18.854467,-53.998379,-10.923984,-6.100494,-3.070962,6.006005,-80.328758,-12.456963,0.177033,24.679976,-0.068388,6.022408,-10.165210,-9.460973,8.715123,0.000000,207.000000,4.000000,,,,0.000000,4.000000,4.000000,4.000000,4.000000,4.000000,4.000000,4.000000,4.000000,4.000000,4.000000,4.000000,4.000000,4.000000,4.000000,4.000000,4.000000,4.000000,4.000000,4.000000,4.000000,4.000000,4.000000,4.000000,4.000000,4.000000,4.000000,4.000000,4.000000,4.000000,4.000000,4.000000,4.000000,100.000000
1614488318.385689,2.000000,0.000000,1.423588,-6.231602,-26.826719,-12.177584,-8.083553,2.894942,1.836481,-11.590831,-3.499744,-13.283566,0.767671,4.643605,-4.177193,4.313567,-13.691562,7.268436,10.422692,19.861256,-49.328995,-6.297675,8.264581,1.547494,0.871794,-76.658684,-10.393224,2.228138,28.245039,1.982962,2.939462,-10.155045,-8.938691,7.680767,0.000000,194.000000,4.000000,,,,0.000000,4.000000,4.000000,4.000000,4.000000,4.000000,4.000000,4.000000,4.000000,4.000000,4.000000,4.000000,4.000000,4.000000,4.000000,4.000000,4.000000,4.000000,4.000000,4.000000,4.000000,4.000000,4.000000,4.000000,4.000000,4.000000,4.000000,4.000000,4.000000,4.000000,4.000000,4.000000,4.000000,100.000000
1614488318.393438,3.000000,0.000000,-3.193220,-4.174088,-36.543484,-21.908997,-7.562649,-2.748979,1.834645,-16.707445,-15.803937,-12.757462,-1.797199,4.126141,-5.198657,3.283612,-14.190691,7.261168,10.412270,18.302933,-50.818127,-9.881121,9.794778,1.545946,7.537589,-79.146126,-7.818727,0.687448,28.729616,4.032261,-7.319887,-10.144890,-9.442574,-2.070504,0.000000,187.000000,4.000000,,,,0.000000,4.000000,4.000000,4.000000,4.000000,4.000000,4.000000,4.000000,4.000000,4.000000,4.000000,4.000000,4.000000,4.000000,4.000000,4.000000,4.000000,4.000000,4.000000,4.000000,4.000000,4.000000,4.000000,4.000000,4.000000,4.000000,4.000000,4.000000,4.000000,4.000000,4.000000,4.000000,4.000000,100.000000
1614488318.401286,4.000000,0.000000,-5.241309,-5.708375,-33.942837,-21.374266,-8.580728,-8.387256,1.832810,-18.742020,-18.865057,-13.257524,-1.282581,4.634835,-4.680637,3.280328,-9.561115,6.741086,10.401857,18.284630,-50.254490,-9.358419,8.759342,6.159785,13.171077,-81.631088,-6.272447,-2.390162,27.675245,4.028229,-7.312567,-9.621924,-8.920310,-4.119715,0.000000,213.000000,4.000000,,,,0.000000,4.000000,4.000000,4.000000,4.000000,4.000000,4.000000,4.000000,4.000000,4.000000,4.000000,4.000000,4.000000,4.000000,4.000000,4.000000,4.000000,4.000000,4.000000,4.000000,4.000000,4.000000,4.000000,4.000000,4.000000,4.000000,4.000000,4.000000,4.000000,4.000000,4.000000,4.000000,4.000000,100.000000
1614488318.409035,5.000000,0.000000,-4.210426,-5.702667,-29.806330,-20.327251,-8.059326,-8.891688,1.830977,-15.646355,-34.743626,-12.731447,-0.255658,4.117380,-4.163136,2.251407,-6.474631,7.759986,10.391455,19.804806,-51.229874,-11.913163,8.237762,8.204907,13.157906,-83.600739,-4.727713,-2.900593,28.160391,4.024201,2.951155,-10.125123,-8.911390,-3.089955,0.000000,193.000000,4.000000,,,,0.000000,4.000000,4.000000,4.000000,4.000000,4.000000,4.000000,4.000000,4.000000,4.000000,4.000000,4.000000,4.000000,4.000000,4.000000,4.000000,4.000000,4.000000,4.000000,4.000000,4.000000,4.000000,4.000000,4.000000,4.000000,4.000000,4.000000,4.000000,4.000000,4.000000,4.000000,4.000000,4.000000,100.000000
1614488318.416884,6.000000,0.000000,-4.206216,-5.184144,-15.930369,-30.050514,-7.538446,-7.857156,1.829146,-14.605067,-49.580677,-12.718716,-6.409248,1.549160,-4.671793,0.197874,-12.109182,5.188124,10.381063,15.169617,-62.973518,-21.644840,-3.565347,5.119779,13.144748,-91.209442,-4.722986,-8.538717,27.619410,4.020176,3.461025,-10.114998,-13.005043,-3.086865,0.000000,208.000000,4.000000,,,,0.000000,4.000000,4.000000,4.000000,4.000000,4.000000,4.000000,4.000000,4.000000,4.000000,4.000000,4.000000,4.000000,4.000000,4.000000,4.000000,4.000000,4.000000,4.000000,4.000000,4.000000,4.000000,4.000000,4.000000,4.000000,4.000000,4.000000,4.000000,4.000000,4.000000,4.000000,4.000000,4.000000,100.000000
1614488318.424633,7.000000,0.000000,-4.714830,-5.178960,-14.888798,-33.097385,-12.146293,-8.874940,1.827317,-15.616103,-33.120842,-11.680356,-11.018224,1.034791,-3.128660,0.710496,-14.661176,0.567551,10.883503,7.974960,-67.525932,-28.802683,-13.305372,6.653121,10.567501,-95.733620,-4.205442,-13.658384,27.078970,4.016156,-2.696282,-9.592062,-16.068960,-1.545316,0.000000,195.000000,4.000000,,,,0.000000,4.000000,4.000000,4.000000,4.000000,4.000000,4.000000,4.000000,4.000000,4.000000,4.000000,4.000000,4.000000,4.000000,4.000000,4.000000,4.000000,4.000000,4.000000,4.000000,4.000000,4.000000,4.000000,4.000000,4.000000,4.000000,4.000000,4.000000,4.000000,4.000000,4.000000,4.000000,4.000000,100.000000
1614488318.432482,8.000000,0.000000,-4.197295,-5.173781,-42.566216,-30.500187,-19.313633,-8.866065,1.825490,-15.087667,-12.574900,-11.668675,-5.879000,1.546576,3.028315,2.761068,-10.543951,2.105445,10.359799,12.069549,-57.201992,-25.184135,-8.676682,8.697750,2.864625,-91.535316,-4.714057,-13.644726,28.590351,4.012140,-3.206407,-11.120932,-17.078533,-6.159155,0.000000,199.000000,4.000000,,,,0.000000,4.000000,4.000000,4.000000,4.000000,4.000000,4.000000,4.000000,4.000000,4.000000,4.000000,4.000000,4.000000,4.000000,4.000000,4.000000,4.000000,4.000000,4.000000,4.000000,4.000000,4.000000,4.000000,4.000000,4.000000,4.000000,4.000000,4.000000,4.000000,4.000000,4.000000,4.000000,4.000000,100.000000
1614488318.440230,9.000000,0.000000,-4.193098,-5.168607,-45.087753,-30.982506,-19.807140,-8.344378,1.823664,-15.072579,-12.049504,-13.195468,1.819186,0.519389,8.153491,3.783948,-8.994946,8.770006,10.862260,22.826710,-48.426842,-10.287157,-1.488518,8.689053,1.836120,-85.289940,-4.709343,-13.118260,28.561762,4.008128,-1.151918,-13.161093,-17.061455,-9.742740,0.000000,185.000000,4.000000,,,,0.000000,4.000000,4.000000,4.000000,4.000000,4.000000,4.000000,4.000000,4.000000,4.000000,4.000000,4.000000,4.000000,4.000000,4.000000,4.000000,4.000000,4.000000,4.000000,4.000000,4.000000,4.000000,4.000000,4.000000,4.000000,4.000000,4.000000,4.000000,4.000000,4.000000,4.000000,4.000000,4.000000,100.000000
1614488318.448079,10.000000,0.000000,-4.188904,-5.163438,-13.247794,-24.797678,-16.197590,-8.336034,1.821841,-15.057507,-14.088737,-11.643811,5.407111,0.518869,6.606876,5.318625,-7.960309,12.863800,10.851398,23.829525,-47.865593,1.005181,-0.974209,8.680363,7.475309,-80.589264,-2.140531,-13.105142,26.481918,4.004120,-2.176407,-14.686393,-12.429008,2.574695,0.000000,192.000000,4.000000,,,,0.000000,4.000000,4.000000,4.000000,4.000000,4.000000,4.000000,4.000000,4.000000,4.000000,4.000000,4.000000,4.000000,4.000000,4.000000,4.000000,4.000000,4.000000,4.000000,4.000000,4.000000,4.000000,4.000000,4.000000,4.000000,4.000000,4.000000,4.000000,4.000000,4.000000,4.000000,4.000000,4.000000,100.000000
1614488318.455828,11.000000,0.000000,-4.184716,-5.158275,-5.029418,-16.567753,-16.694212,-8.327698,1.820019,-15.042449,-12.536186,-12.657808,-1.264963,1.543991,0.959244,0.185101,-12.567734,6.697090,7.250803,13.036464,-55.510036,-5.149670,-5.588619,5.594760,10.031937,-84.611237,-0.599929,-10.527934,32.096462,4.000116,-2.687051,-13.133245,-5.749912,13.341352,0.000000,193.000000,4.000000,,,,0.000000,4.000000,4.000000,4.000000,4.000000,4.000000,4.000000,4.000000,4.000000,4.000000,4.000000,4.000000,4.000000,4.000000,4.000000,4.000000,4.000000,4.000000,4.000000,4.000000,4.000000,4.000000,4.000000,4.000000,4.000000,4.000000,4.000000,4.000000,4.000000,4.000000,4.000000,4.000000,4.000000,100.000000
1614488318.463677,12.000000,0.000000,-4.180531,-5.665937,-23.998747,-22.705030,-19.241621,-8.832191,1.818199,-15.540227,-12.523650,-24.952843,-19.212416,-2.047296,-3.657100,-10.584314,-29.478243,-9.719863,3.140988,-2.361188,-73.916061,-21.554777,-12.762518,-1.590322,10.021905,-96.321503,-3.676252,-8.978945,41.807953,4.508936,-2.171544,-10.556009,-8.308265,1.533138,0.000000,195.000000,4.000000,,,,0.000000,4.000000,4.000000,4.000000,4.000000,4.000000,4.000000,4.000000,4.000000,4.000000,4.000000,4.000000,4.000000,4.000000,4.000000,4.000000,4.000000,4.000000,4.000000,4.000000,4.000000,4.000000,4.000000,4.000000,4.000000,4.000000,4.000000,4.000000,4.000000,4.000000,4.000000,4.000000,4.000000,100.000000
1614488318.471426,13.000000,0.000000,-4.176350,-5.147451,-27.051672,-31.913095,-19.735201,-7.797718,1.816381,-15.011867,-11.998306,-34.158661,-32.013718,-7.173454,-4.679084,-15.189115,-40.217995,-23.556297,3.137847,-15.692160,-87.175484,-33.328094,-17.365141,-3.640014,8.473421,-103.404663,-5.211038,-9.482786,37.150761,2.453145,-2.169372,-9.519813,-13.428162,-11.801728,0.000000,178.000000,4.000000,,,,0.000000,4.000000,4.000000,4.000000,4.000000,4.000000,4.000000,4.000000,4.000000,4.000000,4.000000,4.000000,4.000000,4.000000,4.000000,4.000000,4.000000,4.000000,4.000000,4.000000,4.000000,4.000000,4.000000,4.000000,4.000000,4.000000,4.000000,4.000000,4.000000,4.000000,4.000000,4.000000,4.000000,100.000000
1614488318.479075,14.000000,0.000000,-4.172174,-2.578201,-20.357954,-26.240156,-18.689823,-5.738638,1.814564,-14.996854,-15.063231,-26.945013,-29.930420,-5.114998,-4.161584,-12.609823,-37.100853,-19.942997,3.134709,-18.753391,-87.088310,-39.448612,-16.322134,-3.123554,3.336743,-102.788437,-4.180185,-9.986124,22.754637,0.399410,-2.167203,-10.023113,-12.389092,-9.225824,0.000000,198.000000,4.000000,,,,0.000000,4.000000,4.000000,4.000000,4.000000,4.000000,4.000000,4.000000,4.000000,4.000000,4.000000,4.000000,4.000000,4.000000,4.000000,4.000000,4.000000,4.000000,4.000000,4.000000,4.000000,4.000000,4.000000,4.000000,4.000000,4.000000,4.000000,4.000000,4.000000,4.000000,4.000000,4.000000,4.000000,100.000000
1614488318.486823,15.000000,0.000000,-4.168002,-1.037161,-21.363237,-19.547249,-19.183954,-4.194438,1.812750,-16.007498,-16.586630,-19.225761,-26.823566,0.531142,-4.670243,-10.545931,-35.525291,-15.820491,-0.970990,-16.683355,-86.488396,-41.973267,-17.331453,-2.607609,-1.281979,-102.685654,-5.201646,-9.463318,19.142139,-0.113810,-2.165035,-10.013090,-13.402345,-3.062752,0.000000,166.000000,4.000000,,,,0.000000,4.000000,4.000000,4.000000,4.000000,4.000000,4.000000,4.000000,4.000000,4.000000,4.000000,4.000000,4.000000,4.000000,4.000000,4.000000,4.000000,4.000000,4.000000,4.000000,4.000000,4.000000,4.000000,4.000000,4.000000,4.000000,4.000000,4.000000,4.000000,4.000000,4.000000,4.000000,4.000000,100.000000
1614488318.494472,16.000000,0.000000,-4.163834,-1.036124,-17.239309,-19.014881,-19.164770,-4.703063,1.810937,-11.888927,-7.339273,-19.719355,-27.309565,1.043432,-4.665573,-10.022565,-34.976948,-17.855951,-4.559762,-16.153852,-87.940369,-42.956932,-16.288481,-0.553720,-1.793517,-103.095787,-3.657983,-9.453855,21.687099,0.399124,-2.162871,-9.490256,-12.876122,-2.546869,0.000000,166.000000,4.000000,,,,0.000000,4.000000,4.000000,4.000000,4.000000,4.000000,4.000000,4.000000,4.000000,4.000000,4.000000,4.000000,4.000000,4.000000,4.000000,4.000000,4.000000,4.000000,4.000000,4.000000,4.000000,4.000000,4.000000,4.000000,4.000000,4.000000,4.000000,4.000000,4.000000,4.000000,4.000000,4.000000,4.000000,100.000000
1614488318.502221,17.000000,0.000000,-4.159670,-1.547908,-7.991301,-13.354841,-19.145605,-4.698360,1.809126,-5.210371,2.411656,-16.109892,-22.666870,1.042388,-4.148087,-5.909978,-24.172739,-5.530404,-4.555203,-8.445390,-83.237045,-42.401157,-11.656807,0.985296,-1.278903,-102.992691,1.473880,-9.957221,18.588490,0.398725,-2.160708,-9.993587,-5.683759,-1.005861,0.000000,194.000000,4.000000,,,,0.000000,4.000000,4.000000,4.000000,4.000000,4.000000,4.000000,4.000000,4.000000,4.000000,4.000000,4.000000,4.000000,4.000000,4.000000,4.000000,4.000000,4.000000,4.000000,4.000000,4.000000,4.000000,4.000000,4.000000,4.000000,4.000000,4.000000,4.000000,4.000000,4.000000,4.000000,4.000000,4.000000,100.000000
1614488318.509870,18.000000,0.000000,-4.155510,-1.033540,-6.444848,-4.623537,-19.126461,-4.693662,1.807317,-3.153879,0.870782,-8.914295,-11.874972,5.656730,-4.656759,1.788240,-13.892156,9.859742,-4.037827,6.947671,-75.461502,-36.717728,-8.568228,0.471490,-1.790445,-102.889694,1.472406,-8.921622,16.005798,-0.114494,-2.158547,-9.983593,-3.626793,1.559248,0.000000,194.000000,4.000000,,,,0.000000,4.000000,4.000000,4.000000,4.000000,4.000000,4.000000,4.000000,4.000000,4.000000,4.000000,4.000000,4.000000,4.000000,4.000000,4.000000,4.000000,4.000000,4.000000,4.000000,4.000000,4.000000,4.000000,4.000000,4.000000,4.000000,4.000000,4.000000,4.000000,4.000000,4.000000,4.000000,4.000000,100.000000
1614488318.517619,19.000000,0.000000,-4.151355,-1.032506,-7.976864,-2.567632,-19.107334,-4.688969,1.805510,-4.176366,-2.719832,-8.905381,-4.170790,8.727997,-3.626462,9.478759,-12.339802,5.747318,-2.495328,13.094569,-69.745010,-28.988705,-9.072479,1.496659,-1.788654,-98.171425,-4.170092,-4.297317,16.502613,-2.165662,-2.156389,-9.973609,-8.238550,1.557689,0.000000,157.000000,4.000000,,,,0.000000,4.000000,4.000000,4.000000,4.000000,4.000000,4.000000,4.000000,4.000000,4.000000,4.000000,4.000000,4.000000,4.000000,4.000000,4.000000,4.000000,4.000000,4.000000,4.000000,4.000000,4.000000,4.000000,4.000000,4.000000,4.000000,4.000000,4.000000,4.000000,4.000000,4.000000,4.000000,4.000000,100.000000
1614488318.525268,20.000000,0.000000,-4.147203,-2.569935,-7.968888,-7.180449,-19.088226,-4.684279,1.803704,-3.659369,-1.691471,-12.486219,-3.653798,8.719269,-1.058733,12.033383,-13.353103,1.639007,-0.441550,11.543014,-65.572708,-26.908434,-9.063407,-0.556119,-1.274045,-92.945045,-5.191563,-1.728917,14.947648,-3.701957,-2.154232,-9.963635,-9.768774,0.530490,0.000000,191.000000,4.000000,,,,0.000000,4.000000,4.000000,4.000000,4.000000,4.000000,4.000000,4.000000,4.000000,4.000000,4.000000,4.000000,4.000000,4.000000,4.000000,4.000000,4.000000,4.000000,4.000000,4.000000,4.000000,4.000000,4.000000,4.000000,4.000000,4.000000,4.000000,4.000000,4.000000,4.000000,4.000000,4.000000,4.000000,100.000000
1614488318.533017,21.000000,0.000000,-4.143056,-5.131468,-9.499380,-12.301474,-19.069138,-4.679595,1.801901,-3.655710,-1.689780,-12.473733,-3.650145,8.197729,-0.032033,11.508529,-12.826929,11.893778,-0.441109,18.198137,-57.814823,-25.343063,-9.054344,-7.222230,-1.272771,-91.313637,-4.673551,-2.240008,13.394239,-3.185435,-2.152078,-9.953672,-9.246184,1.042780,0.000000,177.000000,4.000000,,,,0.000000,4.000000,4.000000,4.000000,4.000000,4.000000,4.000000,4.000000,4.000000,4.000000,4.000000,4.000000,4.000000,4.000000,4.000000,4.000000,4.000000,4.000000,4.000000,4.000000,4.000000,4.000000,4.000000,4.000000,4.000000,4.000000,4.000000,4.000000,4.000000,4.000000,4.000000,4.000000,4.000000,100.000000
1614488318.540666,22.000000,0.000000,-4.138913,-5.126337,-13.592445,-11.263531,-19.050070,-4.674916,1.800099,-3.652054,-2.200910,-7.333054,-0.569571,8.702352,-0.544821,12.009841,-11.788461,18.035730,-0.440668,27.410707,-46.987778,-20.189514,-9.045289,-3.112444,-1.784319,-82.504379,-4.156057,-2.237768,13.380845,-3.182250,-2.149926,-9.943718,-8.211297,1.041737,0.000000,179.000000,4.000000,,,,0.000000,4.000000,4.000000,4.000000,4.000000,4.000000,4.000000,4.000000,4.000000,4.000000,4.000000,4.000000,4.000000,4.000000,4.000000,4.000000,4.000000,4.000000,4.000000,4.000000,4.000000,4.000000,4.000000,4.000000,4.000000,4.000000,4.000000,4.000000,4.000000,4.000000,4.000000,4.000000,4.000000,100.000000
1614488318.548415,23.000000,0.000000,-4.134774,-5.634031,-17.168596,-5.611242,-19.031019,-4.670241,1.798298,-1.597120,-1.173069,-3.735978,1.482280,8.693649,-0.544276,10.972190,-12.289494,15.966413,0.072593,28.921759,-43.863869,-16.579582,-6.472142,9.711182,-0.244073,-74.729568,-2.613439,-2.235530,13.880284,-3.179067,-2.147776,-9.933775,-3.587701,0.527875,0.000000,202.000000,4.000000,,,,0.000000,4.000000,4.000000,4.000000,4.000000,4.000000,4.000000,4.000000,4.000000,4.000000,4.000000,4.000000,4.000000,4.000000,4.000000,4.000000,4.000000,4.000000,4.000000,4.000000,4.000000,4.000000,4.000000,4.000000,4.000000,4.000000,4.000000,4.000000,4.000000,4.000000,4.000000,4.000000,4.000000,100.000000
1614488318.556063,24.000000,0.000000,-4.130640,-6.141217,-7.920658,-5.092810,-19.524809,-4.665571,1.796500,0.455759,-1.684716,-5.270703,-0.570484,8.684956,-0.543732,8.397116,-13.815665,14.924806,-0.440300,25.815914,-52.537952,-18.101463,-5.440028,10.214291,2.320274,-85.936890,-1.072364,-1.720474,16.430508,-3.175888,-2.658448,-9.923841,-1.020011,3.091449,0.000000,185.000000,4.000000,,,,0.000000,4.000000,4.000000,4.000000,4.000000,4.000000,4.000000,4.000000,4.000000,4.000000,4.000000,4.000000,4.000000,4.000000,4.000000,4.000000,4.000000,4.000000,4.000000,4.000000,4.000000,4.000000,4.000000,4.000000,4.000000,4.000000,4.000000,4.000000,4.000000,4.000000,4.000000,4.000000,4.000000,100.000000
1614488318.563812,25.000000,0.000000,-4.639329,-2.032512,13.625724,-4.062076,-16.941181,-4.660905,1.794704,-1.595979,-3.221493,-5.265432,-2.108375,6.624989,-0.543189,7.363077,-13.289029,13.371419,-0.439859,26.302919,-59.152081,-19.621824,-6.973050,3.537410,2.830774,-98.671463,-0.558471,0.845349,18.465359,-3.172712,-1.630149,-9.913917,-2.044632,9.242205,0.000000,194.000000,4.000000,,,,0.000000,4.000000,4.000000,4.000000,4.000000,4.000000,4.000000,4.000000,4.000000,4.000000,4.000000,4.000000,4.000000,4.000000,4.000000,4.000000,4.000000,4.000000,4.000000,4.000000,4.000000,4.000000,4.000000,4.000000,4.000000,4.000000,4.000000,4.000000,4.000000,4.000000,4.000000,4.000000,4.000000,100.000000
1614488318.571461,26.000000,0.000000,-4.121870,0.533623,18.227482,4.147114,-11.796035,-4.656244,1.792909,-3.645665,0.371472,-3.721705,1.483477,5.079902,-0.542645,5.304432,-12.762919,14.896509,0.073401,25.763796,-60.631390,-18.063740,-4.401974,5.072334,1.802302,-96.008690,-1.070733,1.870144,12.293047,-3.169539,0.935584,-9.904003,-1.529767,12.822705,0.000000,186.000000,4.000000,,,,0.000000,4.000000,4.000000,4.000000,4.000000,4.000000,4.000000,4.000000,4.000000,4.000000,4.000000,4.000000,4.000000,4.000000,4.000000,4.000000,4.000000,4.000000,4.000000,4.000000,4.000000,4.000000,4.000000,4.000000,4.000000,4.000000,4.000000,4.000000,4.000000,4.000000,4.000000,4.000000,4.000000,100.000000
1614488318.579310,27.000000,0.000000,-4.117748,-1.005372,-2.816386,4.655787,-11.784239,-4.651588,1.791116,-4.154840,0.883921,-12.948753,-5.184673,2.510720,-0.542103,1.196564,-20.955284,5.650843,-4.542057,7.789313,-67.750244,-21.635420,-8.500136,2.503159,1.800500,-98.476784,-6.197868,-0.695828,1.511523,-3.166370,1.447469,-9.894099,-3.066699,11.784242,0.000000,198.000000,4.000000,,,,0.000000,4.000000,4.000000,4.000000,4.000000,4.000000,4.000000,4.000000,4.000000,4.000000,4.000000,4.000000,4.000000,4.000000,4.000000,4.000000,4.000000,4.000000,4.000000,4.000000,4.000000,4.000000,4.000000,4.000000,4.000000,4.000000,4.000000,4.000000,4.000000,4.000000,4.000000,4.000000,4.000000,100.000000
1614488318.587059,28.000000,0.000000,-5.139271,-0.491546,-15.634082,-7.656560,-13.310916,-4.646936,1.789325,-4.150685,-11.937475,-25.756317,-23.128206,-1.594355,-0.541561,-1.368736,-32.729202,-23.072756,-11.717002,-20.936424,-78.964546,-36.485580,-22.337790,-6.217293,2.824340,-106.583435,-10.807055,-2.746414,-2.079732,-3.676024,1.446021,-9.884205,-7.679017,11.772458,0.000000,187.000000,4.000000,,,,0.000000,4.000000,4.000000,4.000000,4.000000,4.000000,4.000000,4.000000,4.000000,4.000000,4.000000,4.000000,4.000000,4.000000,4.000000,4.000000,4.000000,4.000000,4.000000,4.000000,4.000000,4.000000,4.000000,4.000000,4.000000,4.000000,4.000000,4.000000,4.000000,4.000000,4.000000,4.000000,4.000000,100.000000
1614488318.594908,29.000000,0.000000,-2.057209,1.560228,-13.567166,-13.289929,-5.605298,-4.642289,1.787536,-4.146534,-17.566563,-24.704920,-23.617899,-4.156863,-0.028198,0.683915,-30.132370,-32.793274,-8.628362,-22.966770,-80.424042,-46.705505,-20.264170,-0.570050,1.795875,-101.348648,-13.360350,-2.230848,-1.052011,-3.159528,4.008677,-9.361501,-9.209799,12.273506,0.000000,176.000000,4.000000,,,,0.000000,4.000000,4.000000,4.000000,4.000000,4.000000,4.000000,4.000000,4.000000,4.000000,4.000000,4.000000,4.000000,4.000000,4.000000,4.000000,4.000000,4.000000,4.000000,4.000000,4.000000,4.000000,4.000000,4.000000,4.000000,4.000000,4.000000,4.000000,4.000000,4.000000,4.000000,4.000000,4.000000,100.000000
1614488318.602656,30.000000,0.000000,2.560233,3.097129,-16.630522,-11.225358,5.169538,-4.637647,1.785748,-4.142387,-6.779766,-18.013548,-2.568640,-0.050142,-1.053811,5.811437,-15.743263,-6.093813,-0.927426,1.158761,-67.010284,-36.402390,1.294555,11.225392,2.306900,-89.965248,-12.321348,-2.228617,-1.563780,-0.079445,5.543130,-9.864960,-9.200589,12.261232,0.000000,197.000000,4.000000,,,,0.000000,4.000000,4.000000,4.000000,4.000000,4.000000,4.000000,4.000000,4.000000,4.000000,4.000000,4.000000,4.000000,4.000000,4.000000,4.000000,4.000000,4.000000,4.000000,4.000000,4.000000,4.000000,4.000000,4.000000,4.000000,4.000000,4.000000,4.000000,4.000000,4.000000,4.000000,4.000000,4.000000,100.000000
1614488318.610505,31.000000,0.000000,4.096135,6.683775,-13.024148,-12.239773,7.728472,-4.633009,1.783962,-4.138245,-2.157602,-13.892970,13.844185,3.539651,-0.027116,9.908189,-5.471109,13.912280,0.099142,15.003756,-46.943275,-18.930088,16.165056,12.239808,8.971259,-77.054771,-4.103899,-2.739209,-2.075037,4.023199,4.511946,-10.880735,-10.729850,11.223330,0.000000,188.000000,4.000000,,,,0.000000,4.000000,4.000000,4.000000,4.000000,4.000000,4.000000,4.000000,4.000000,4.000000,4.000000,4.000000,4.000000,4.000000,4.000000,4.000000,4.000000,4.000000,4.000000,4.000000,4.000000,4.000000,4.000000,4.000000,4.000000,4.000000,4.000000,4.000000,4.000000,4.000000,4.000000,4.000000,4.000000,100.000000
1614488318.618254,32.000000,0.000000,3.066397,8.728374,2.886312,-12.740354,6.182281,-4.628376,1.782178,-4.134107,-3.693906,-5.161129,15.881623,5.074573,3.049834,11.949563,-1.363074,14.924009,-0.926598,15.501573,-37.152744,-11.731671,18.712994,12.227568,17.167416,-62.105919,6.156615,-2.736470,-1.047320,4.531996,5.020255,-6.254470,-7.129377,11.724927,8064.000000,0.000000,4.000000,,,,0.000000,4.000000,4.000000,4.000000,4.000000,4.000000,4.000000,4.000000,4.000000,4.000000,4.000000,4.000000,4.000000,4.000000,4.000000,4.000000,4.000000,4.000000,4.000000,4.000000,4.000000,4.000000,4.000000,4.000000,4.000000,4.000000,4.000000,4.000000,4.000000,4.000000,4.000000,4.000000,4.000000,100.000000
1614488318.626103,33.000000,0.000000,3.063331,6.155543,1.857785,-8.112229,6.688920,-4.623748,1.780396,-4.129972,7.591839,-1.053404,10.224716,5.582319,0.995502,10.911972,0.176751,16.447546,0.099970,19.588634,-41.218155,-11.719940,13.566075,11.702519,18.175890,-64.607918,3.586356,-0.682451,-0.533453,4.014643,4.502414,-2.145651,-2.506863,12.226023,8064.000000,0.000000,4.000000,,,,0.000000,4.000000,4.000000,4.000000,4.000000,4.000000,4.000000,4.000000,4.000000,4.000000,4.000000,4.000000,4.000000,4.000000,4.000000,4.000000,4.000000,4.000000,4.000000,4.000000,4.000000,4.000000,4.000000,4.000000,4.000000,4.000000,4.000000,4.000000,4.000000,4.000000,4.000000,4.000000,4.000000,100.000000
1614488318.633852,34.000000,0.000000,3.573088,5.123746,-9.938945,-4.001553,7.195052,-4.619124,1.265795,-4.638663,8.609889,-9.257479,-2.093201,3.012634,-6.184981,3.721573,-8.541375,7.713151,-4.515515,13.928020,-44.766682,-11.195399,-0.806465,-1.129695,13.029509,-86.081772,-1.545436,1.369514,-1.045740,4.010629,0.908168,-6.758891,-7.119740,9.649694,8064.000000,0.000000,4.000000,,,,0.000000,4.000000,4.000000,4.000000,4.000000,4.000000,4.000000,4.000000,4.000000,4.000000,4.000000,4.000000,4.000000,4.000000,4.000000,4.000000,4.000000,4.000000,4.000000,4.000000,4.000000,4.000000,4.000000,4.000000,4.000000,4.000000,4.000000,4.000000,4.000000,4.000000,4.000000,4.000000,4.000000,100.000000
1614488318.641700,35.000000,0.000000,3.056695,6.144263,-2.749519,-4.510372,6.162215,-4.614505,1.777350,-3.608384,-8.321798,-10.273862,-9.270596,0.958340,-9.768539,-4.487277,-16.737961,-3.576614,-9.126384,5.196144,-42.157810,-9.645742,-9.523607,-10.359335,9.426736,-94.200813,3.071495,1.880965,-1.044694,4.519439,1.932901,-9.829055,-8.651082,8.101583,8064.000000,0.000000,4.000000,,,,0.000000,4.000000,4.000000,4.000000,4.000000,4.000000,4.000000,4.000000,4.000000,4.000000,4.000000,4.000000,4.000000,4.000000,4.000000,4.000000,4.000000,4.000000,4.000000,4.000000,4.000000,4.000000,4.000000,4.000000,4.000000,4.000000,4.000000,4.000000,4.000000,4.000000,4.000000,4.000000,4.000000,100.000000
1614488318.649449,36.000000,0.000000,3.053638,5.625299,2.381436,-5.531502,6.156053,-4.609890,4.339675,-1.553493,-4.723733,-0.007178,-3.620299,6.598407,-5.656207,-2.431507,-5.951993,6.170552,-1.937770,14.934538,-43.654114,-10.148917,-4.385879,-3.169488,9.417309,-87.439949,7.170987,1.879084,-0.530829,4.002099,9.623276,-1.614097,1.101159,11.683225,8064.000000,0.000000,4.000000,,,,0.000000,4.000000,4.000000,4.000000,4.000000,4.000000,4.000000,4.000000,4.000000,4.000000,4.000000,4.000000,4.000000,4.000000,4.000000,4.000000,4.000000,4.000000,4.000000,4.000000,4.000000,4.000000,4.000000,4.000000,4.000000,4.000000,4.000000,4.000000,4.000000,4.000000,4.000000,4.000000,4.000000,100.000000
1614488318.657298,37.000000,0.000000,3.050584,5.619673,-4.800433,-0.397766,6.662718,-4.605281,5.873797,-0.013478,16.819452,2.556932,-0.539756,9.155911,-2.060807,3.211950,2.259087,12.831049,3.192373,21.586269,-45.661743,-11.677230,-1.817390,1.449066,9.920712,-87.352509,6.138175,0.851564,-1.555939,3.998096,12.177755,6.079824,7.253903,15.261286,8064.000000,0.000000,4.000000,,,,0.000000,4.000000,4.000000,4.000000,4.000000,4.000000,4.000000,4.000000,4.000000,4.000000,4.000000,4.000000,4.000000,4.000000,4.000000,4.000000,4.000000,4.000000,4.000000,4.000000,4.000000,4.000000,4.000000,4.000000,4.000000,4.000000,4.000000,4.000000,4.000000,4.000000,4.000000,4.000000,4.000000,100.000000
