title:13, start timestamp:1614489164.483361, stop timestamp:1614489210.249350, headset type:EPOCFLEX, headset serial:F00001ED, headset firmware:f12, subject name:s14, channels:75, sampling rate:128, samples:5914      , version:2.0
Timestamp,EEG.Counter,EEG.Interpolated,EEG.Cz,EEG.Fz,EEG.Fp1,EEG.F7,EEG.F3,EEG.FC1,EEG.C3,EEG.FC5,EEG.FT9,EEG.T7,EEG.TP9,EEG.CP5,EEG.CP1,EEG.P3,EEG.P7,EEG.O1,EEG.Pz,EEG.Oz,EEG.O2,EEG.P8,EEG.P4,EEG.CP2,EEG.CP6,EEG.TP10,EEG.T8,EEG.FT10,EEG.FC6,EEG.C4,EEG.FC2,EEG.F4,EEG.F8,EEG.Fp2,EEG.HighBitFlex,EEG.RawCq,EEG.Battery,MarkerIndex,MarkerType,MarkerValueInt,EEG.MarkerHardware,CQ.Cz,CQ.Fz,CQ.Fp1,CQ.F7,CQ.F3,CQ.FC1,CQ.C3,CQ.FC5,CQ.FT9,CQ.T7,CQ.TP9,CQ.CP5,CQ.CP1,CQ.P3,CQ.P7,CQ.O1,CQ.Pz,CQ.Oz,CQ.O2,CQ.P8,CQ.P4,CQ.CP2,CQ.CP6,CQ.TP10,CQ.T8,CQ.FT10,CQ.FC6,CQ.C4,CQ.FC2,CQ.F4,CQ.F8,CQ.Fp2,CQ.Overall
1614489164.483361,127.000000,0.000000,2.623782,-7.686196,-1.458871,-6.638020,2.380117,-1.479432,-0.545822,-0.265751,-41.994179,16.583868,17.199759,9.960613,14.582127,8.791330,12.543392,18.036539,15.558544,58.537434,45.450996,6.655056,15.200392,13.216964,22.716778,-0.624204,9.821841,-5.810948,-4.787667,4.875097,-4.636045,-2.328532,-8.708108,-28.082815,8064.000000,0.000000,4.000000,,,,0.000000,4.000000,4.000000,4.000000,4.000000,4.000000,4.000000,4.000000,4.000000,4.000000,4.000000,4.000000,4.000000,4.000000,4.000000,4.000000,4.000000,4.000000,4.000000,4.000000,4.000000,4.000000,4.000000,4.000000,4.000000,4.000000,4.000000,4.000000,4.000000,4.000000,4.000000,4.000000,4.000000,100.000000
1614489164.491210,0.000000,0.000000,2.621159,-5.627228,-1.457412,-6.118561,2.890558,-1.990773,-1.058097,-2.316767,-42.977825,11.439080,13.079995,7.899370,8.413698,2.115872,5.864182,5.197989,9.389139,39.504536,17.713236,-12.325957,-6.353270,6.537080,21.155600,-27.803066,6.222276,-6.317957,-0.680316,4.870222,-2.580127,7.417387,-9.212220,-31.644476,0.000000,201.000000,4.000000,,,,0.000000,4.000000,4.000000,4.000000,4.000000,4.000000,4.000000,4.000000,4.000000,4.000000,4.000000,4.000000,4.000000,4.000000,4.000000,4.000000,4.000000,4.000000,4.000000,4.000000,4.000000,4.000000,4.000000,4.000000,4.000000,4.000000,4.000000,4.000000,4.000000,4.000000,4.000000,4.000000,4.000000,100.000000
1614489164.498959,1.000000,0.000000,2.618538,-4.595960,-10.686724,-6.625263,-0.189256,-2.501603,-1.057039,-8.468297,-42.422028,-0.880052,-1.804880,8.404291,2.764259,-5.578551,-18.244247,-7.627721,7.328468,27.157339,-1.278836,-22.057220,-25.321276,-2.187406,15.493419,-51.365009,-0.450613,-5.798819,-17.089891,4.352531,-3.090368,3.820225,-11.254291,-37.253857,0.000000,224.000000,4.000000,,,,0.000000,4.000000,4.000000,4.000000,4.000000,4.000000,4.000000,4.000000,4.000000,4.000000,4.000000,4.000000,4.000000,4.000000,4.000000,4.000000,4.000000,4.000000,4.000000,4.000000,4.000000,4.000000,4.000000,4.000000,4.000000,4.000000,4.000000,4.000000,4.000000,4.000000,4.000000,4.000000,4.000000,100.000000
1614489164.506808,2.000000,0.000000,2.615919,-2.027261,-15.804242,-15.849407,-0.701887,0.065002,-0.543161,-12.049572,-52.636013,-14.212505,-20.264614,8.395887,2.761495,-11.213998,-38.226002,-15.312402,6.295499,24.566078,-1.790377,-24.599266,-25.295954,-3.210859,-1.445152,-53.877747,-8.655291,-5.793020,-24.765110,4.348178,-3.087277,-5.927185,-14.832780,-36.190964,0.000000,185.000000,4.000000,,,,0.000000,4.000000,4.000000,4.000000,4.000000,4.000000,4.000000,4.000000,4.000000,4.000000,4.000000,4.000000,4.000000,4.000000,4.000000,4.000000,4.000000,4.000000,4.000000,4.000000,4.000000,4.000000,4.000000,4.000000,4.000000,4.000000,4.000000,4.000000,4.000000,4.000000,4.000000,4.000000,4.000000,100.000000
1614489164.514557,3.000000,0.000000,3.126124,0.026048,-14.249976,-25.064327,-0.188365,3.141860,-2.081080,-11.524702,-67.455170,-17.788036,-17.680246,7.874671,3.784375,-12.228425,-31.521111,-16.835550,0.648178,25.567154,4.878079,-31.241335,-20.142454,1.407736,-11.187297,-47.670021,-13.774840,-7.838509,-18.586498,4.856651,-2.058549,-3.357155,-18.407690,-35.641949,0.000000,185.000000,4.000000,,,,0.000000,4.000000,4.000000,4.000000,4.000000,4.000000,4.000000,4.000000,4.000000,4.000000,4.000000,4.000000,4.000000,4.000000,4.000000,4.000000,4.000000,4.000000,4.000000,4.000000,4.000000,4.000000,4.000000,4.000000,4.000000,4.000000,4.000000,4.000000,4.000000,4.000000,4.000000,4.000000,4.000000,100.000000
1614489164.522406,4.000000,0.000000,2.610177,-4.589363,-17.312649,-26.064903,-4.290740,-2.502308,-6.694384,-11.513178,-70.977463,-16.744606,-6.380515,8.379617,1.216488,-12.216197,-20.207537,-16.818714,-5.506317,21.951843,2.821919,-41.466503,-22.686413,0.380688,-10.150469,-51.212093,-16.837988,-9.369132,-24.208937,2.800512,-4.107773,-6.430720,-23.004667,-49.965282,0.000000,200.000000,4.000000,,,,0.000000,4.000000,4.000000,4.000000,4.000000,4.000000,4.000000,4.000000,4.000000,4.000000,4.000000,4.000000,4.000000,4.000000,4.000000,4.000000,4.000000,4.000000,4.000000,4.000000,4.000000,4.000000,4.000000,4.000000,4.000000,4.000000,4.000000,4.000000,4.000000,4.000000,4.000000,4.000000,4.000000,100.000000
1614489164.530155,5.000000,0.000000,2.094746,-10.738620,-14.218413,-26.038839,-8.901834,-9.166472,-9.251792,-12.527306,-62.701355,-20.317606,-5.348493,8.371237,-0.836011,-10.665519,-17.110407,-14.237794,-3.962349,18.852968,9.485765,-36.809650,-18.048342,-5.260719,-11.165959,-44.494217,-17.333971,-11.923865,-25.210369,0.746430,-7.693408,-17.193521,-26.058586,-57.607624,0.000000,182.000000,4.000000,,,,0.000000,4.000000,4.000000,4.000000,4.000000,4.000000,4.000000,4.000000,4.000000,4.000000,4.000000,4.000000,4.000000,4.000000,4.000000,4.000000,4.000000,4.000000,4.000000,4.000000,4.000000,4.000000,4.000000,4.000000,4.000000,4.000000,4.000000,4.000000,4.000000,4.000000,4.000000,4.000000,4.000000,100.000000
1614489164.538004,6.000000,0.000000,4.143934,-10.215060,-0.358041,-26.012800,-8.380112,-4.541921,-7.191258,-10.463496,-52.895065,-13.117801,-0.214939,8.875686,-0.322354,-3.475366,-9.400989,-9.608171,-0.881464,31.654629,37.168587,-7.542073,0.944065,-5.255458,-7.052229,-14.193312,-11.675611,-13.450403,-7.236441,3.309786,-5.121613,-12.560943,-23.981245,-39.088478,0.000000,197.000000,4.000000,,,,0.000000,4.000000,4.000000,4.000000,4.000000,4.000000,4.000000,4.000000,4.000000,4.000000,4.000000,4.000000,4.000000,4.000000,4.000000,4.000000,4.000000,4.000000,4.000000,4.000000,4.000000,4.000000,4.000000,4.000000,4.000000,4.000000,4.000000,4.000000,4.000000,4.000000,4.000000,4.000000,4.000000,100.000000
1614489164.545753,7.000000,0.000000,6.191072,-8.153563,-2.921786,-18.294479,-7.858912,1.103647,-4.619964,-7.888930,-51.303707,2.792753,10.041686,6.815528,-0.322032,1.143494,-3.750562,-2.931896,-1.393403,49.058872,53.541676,17.080854,15.302095,-0.121997,5.775336,3.769600,-8.587013,-12.411312,2.514385,5.357758,-2.552388,-4.343253,-21.905981,-30.844263,0.000000,186.000000,4.000000,,,,0.000000,4.000000,4.000000,4.000000,4.000000,4.000000,4.000000,4.000000,4.000000,4.000000,4.000000,4.000000,4.000000,4.000000,4.000000,4.000000,4.000000,4.000000,4.000000,4.000000,4.000000,4.000000,4.000000,4.000000,4.000000,4.000000,4.000000,4.000000,4.000000,4.000000,4.000000,4.000000,4.000000,100.000000
1614489164.553402,8.000000,0.000000,1.569496,-8.145410,-17.790659,-13.660800,-9.389514,-0.948739,-5.640985,-8.393862,-58.944714,3.815601,9.518824,4.757431,-0.321710,-1.421753,-5.798093,1.173600,-1.904830,46.445709,44.257362,13.986850,12.722691,1.929407,10.897766,-7.516221,-10.116887,-16.501465,-4.667617,0.737016,-6.652400,-8.441474,-21.371256,-49.274956,0.000000,189.000000,4.000000,,,,0.000000,4.000000,4.000000,4.000000,4.000000,4.000000,4.000000,4.000000,4.000000,4.000000,4.000000,4.000000,4.000000,4.000000,4.000000,4.000000,4.000000,4.000000,4.000000,4.000000,4.000000,4.000000,4.000000,4.000000,4.000000,4.000000,4.000000,4.000000,4.000000,4.000000,4.000000,4.000000,4.000000,100.000000
1614489164.561152,9.000000,0.000000,-1.508997,-6.085982,-15.208766,-14.159960,-4.764740,-2.486252,-7.686626,-6.334186,-59.911407,-4.906164,3.355459,5.265494,-0.321388,-3.984433,-6.817936,-0.878856,-1.390104,40.758240,43.187466,8.844658,9.633044,0.901836,6.271483,-11.098449,-4.465745,-17.510605,-6.714231,-3.879106,-9.209850,-9.458673,-11.606295,-52.815426,0.000000,192.000000,4.000000,,,,0.000000,4.000000,4.000000,4.000000,4.000000,4.000000,4.000000,4.000000,4.000000,4.000000,4.000000,4.000000,4.000000,4.000000,4.000000,4.000000,4.000000,4.000000,4.000000,4.000000,4.000000,4.000000,4.000000,4.000000,4.000000,4.000000,4.000000,4.000000,4.000000,4.000000,4.000000,4.000000,4.000000,100.000000
1614489164.568801,10.000000,0.000000,-0.481847,-5.054255,3.267982,-7.479133,1.906691,-2.996586,-8.704580,-1.199646,-54.210472,0.226948,1.813642,4.234587,-1.346708,-3.980449,-8.349580,-1.390798,-0.875894,55.589275,61.092995,22.681967,12.187514,1.413755,6.778033,0.194701,7.333593,3.019727,-4.656235,-2.849586,-5.098076,-2.782548,0.713004,-30.198507,0.000000,182.000000,4.000000,,,,0.000000,4.000000,4.000000,4.000000,4.000000,4.000000,4.000000,4.000000,4.000000,4.000000,4.000000,4.000000,4.000000,4.000000,4.000000,4.000000,4.000000,4.000000,4.000000,4.000000,4.000000,4.000000,4.000000,4.000000,4.000000,4.000000,4.000000,4.000000,4.000000,4.000000,4.000000,4.000000,4.000000,100.000000
1614489164.576550,11.000000,0.000000,-4.071108,-3.510739,13.521124,0.733474,3.443246,-5.044872,-8.183055,-1.711267,-52.617798,6.893387,2.324649,1.666250,-3.396643,-5.002110,-8.341230,6.302901,-1.387838,61.174709,63.596004,21.633644,4.995840,1.925162,12.925100,-8.010622,9.377542,22.503887,-5.677219,-2.333916,-4.067337,-1.754125,-1.338991,-18.886257,0.000000,194.000000,4.000000,,,,0.000000,4.000000,4.000000,4.000000,4.000000,4.000000,4.000000,4.000000,4.000000,4.000000,4.000000,4.000000,4.000000,4.000000,4.000000,4.000000,4.000000,4.000000,4.000000,4.000000,4.000000,4.000000,4.000000,4.000000,4.000000,4.000000,4.000000,4.000000,4.000000,4.000000,4.000000,4.000000,4.000000,100.000000
1614489164.584199,12.000000,0.000000,-7.656781,2.646618,14.020423,-1.831362,7.029547,-1.450083,-8.174872,-4.273658,-50.001080,-4.395557,0.783862,1.151763,-4.418888,-8.074031,-7.307248,1.168393,-3.950553,40.087894,39.942665,-4.541836,-11.932234,0.897595,10.860893,-35.182098,6.804061,13.763434,-5.671542,-5.408505,-6.627372,-3.290832,-9.542780,-21.944294,0.000000,192.000000,4.000000,,,,0.000000,4.000000,4.000000,4.000000,4.000000,4.000000,4.000000,4.000000,4.000000,4.000000,4.000000,4.000000,4.000000,4.000000,4.000000,4.000000,4.000000,4.000000,4.000000,4.000000,4.000000,4.000000,4.000000,4.000000,4.000000,4.000000,4.000000,4.000000,4.000000,4.000000,4.000000,4.000000,4.000000,100.000000
1614489164.591948,13.000000,0.000000,-4.059381,6.746535,7.339736,-6.957736,10.612261,4.705213,-8.166698,-3.756564,-38.156204,-18.750135,-9.986153,-2.439132,-3.901648,-11.142879,-23.197376,-20.884058,-5.485064,23.637550,17.851440,-20.947550,-21.151070,0.896698,1.106443,-47.967430,6.797257,0.929158,-6.691512,-6.941558,-4.056643,-2.774721,-9.533237,-22.435171,0.000000,210.000000,4.000000,,,,0.000000,4.000000,4.000000,4.000000,4.000000,4.000000,4.000000,4.000000,4.000000,4.000000,4.000000,4.000000,4.000000,4.000000,4.000000,4.000000,4.000000,4.000000,4.000000,4.000000,4.000000,4.000000,4.000000,4.000000,4.000000,4.000000,4.000000,4.000000,4.000000,4.000000,4.000000,4.000000,4.000000,100.000000
1614489164.599597,14.000000,0.000000,0.047243,6.739789,0.152909,-9.002060,2.909341,5.726149,-8.671351,-6.829731,-32.477024,-22.321129,-23.822319,-8.077719,-3.897747,-12.157377,-44.712643,-31.632404,-4.966759,21.049810,13.218204,-24.003527,-20.617098,1.921442,-2.997228,-47.406643,-0.389027,3.492331,-6.172000,-6.421796,-3.026945,-2.771946,-10.036525,-24.464018,0.000000,198.000000,4.000000,,,,0.000000,4.000000,4.000000,4.000000,4.000000,4.000000,4.000000,4.000000,4.000000,4.000000,4.000000,4.000000,4.000000,4.000000,4.000000,4.000000,4.000000,4.000000,4.000000,4.000000,4.000000,4.000000,4.000000,4.000000,4.000000,4.000000,4.000000,4.000000,4.000000,4.000000,4.000000,4.000000,4.000000,100.000000
1614489164.607346,15.000000,0.000000,-0.978445,6.733049,1.178397,-10.018699,-7.862799,5.720423,-8.149859,-7.848542,-43.213779,-18.709064,-16.106190,-2.941436,-4.406669,-4.965733,-36.462799,-24.934105,-5.987433,14.362094,11.666525,-34.235931,-21.622122,1.406700,-1.968589,-46.846413,-11.670690,4.001659,-0.011982,-6.415374,-6.613661,-2.256354,-14.641872,-30.593399,0.000000,162.000000,4.000000,,,,0.000000,4.000000,4.000000,4.000000,4.000000,4.000000,4.000000,4.000000,4.000000,4.000000,4.000000,4.000000,4.000000,4.000000,4.000000,4.000000,4.000000,4.000000,4.000000,4.000000,4.000000,4.000000,4.000000,4.000000,4.000000,4.000000,4.000000,4.000000,4.000000,4.000000,4.000000,4.000000,4.000000,100.000000
1614489164.614996,16.000000,0.000000,-1.490287,4.675034,7.331065,-9.495860,-8.367757,5.201882,-6.090427,0.877255,-53.939796,-12.023689,9.038121,9.882019,-3.376622,8.885386,-6.169927,-17.729685,-1.878881,17.424656,14.731781,-32.150414,-16.472296,1.405294,-4.017903,-35.004696,-12.684660,-0.104906,5.629056,-6.408959,-6.607048,-2.254097,-16.678513,-34.152550,0.000000,185.000000,4.000000,,,,0.000000,4.000000,4.000000,4.000000,4.000000,4.000000,4.000000,4.000000,4.000000,4.000000,4.000000,4.000000,4.000000,4.000000,4.000000,4.000000,4.000000,4.000000,4.000000,4.000000,4.000000,4.000000,4.000000,4.000000,4.000000,4.000000,4.000000,4.000000,4.000000,4.000000,4.000000,4.000000,4.000000,100.000000
1614489164.622745,17.000000,0.000000,-0.463156,0.054974,6.298093,-6.922261,-8.359389,1.094116,-4.033055,1.389199,-52.347393,-5.344998,22.362417,13.974701,0.216499,19.645731,14.861884,-4.378621,8.379408,44.586720,39.845253,-7.502880,2.005715,8.070555,-6.065167,-8.303024,-8.569411,0.408019,5.623427,-6.402550,-3.523518,-4.815946,-18.200296,-33.092754,0.000000,195.000000,4.000000,,,,0.000000,4.000000,4.000000,4.000000,4.000000,4.000000,4.000000,4.000000,4.000000,4.000000,4.000000,4.000000,4.000000,4.000000,4.000000,4.000000,4.000000,4.000000,4.000000,4.000000,4.000000,4.000000,4.000000,4.000000,4.000000,4.000000,4.000000,4.000000,4.000000,4.000000,4.000000,4.000000,4.000000,100.000000
1614489164.630394,18.000000,0.000000,-0.462693,-1.483542,-4.990256,-7.428160,-7.838210,-2.496722,-4.029022,-6.817319,-47.679661,3.378295,24.391336,11.909444,3.293205,20.138906,24.590612,14.600117,15.550516,71.721619,67.497719,9.940520,17.901146,14.216331,-1.956538,9.653996,-8.560842,-0.105209,9.207547,-6.396147,-2.494353,-5.323950,-13.566710,-22.290432,0.000000,197.000000,4.000000,,,,0.000000,4.000000,4.000000,4.000000,4.000000,4.000000,4.000000,4.000000,4.000000,4.000000,4.000000,4.000000,4.000000,4.000000,4.000000,4.000000,4.000000,4.000000,4.000000,4.000000,4.000000,4.000000,4.000000,4.000000,4.000000,4.000000,4.000000,4.000000,4.000000,4.000000,4.000000,4.000000,4.000000,100.000000
1614489164.638143,19.000000,0.000000,-0.975051,-0.969238,-7.036548,-6.395091,-0.650884,-1.981405,-4.537813,-2.195117,-50.708904,10.041583,26.418226,13.948816,3.802732,13.964922,25.078842,19.200901,12.458042,73.701180,65.378937,9.930580,17.370424,5.996986,4.199265,10.157163,-6.500999,-2.156386,17.403467,-5.876931,-3.004679,-3.267344,-3.296734,-11.498912,0.000000,178.000000,4.000000,,,,0.000000,4.000000,4.000000,4.000000,4.000000,4.000000,4.000000,4.000000,4.000000,4.000000,4.000000,4.000000,4.000000,4.000000,4.000000,4.000000,4.000000,4.000000,4.000000,4.000000,4.000000,4.000000,4.000000,4.000000,4.000000,4.000000,4.000000,4.000000,4.000000,4.000000,4.000000,4.000000,4.000000,100.000000
1614489164.645792,20.000000,0.000000,-0.974076,-0.968269,5.791001,-3.824593,3.965152,-1.979423,-4.020455,1.909642,-50.145374,4.390516,15.622578,10.345124,4.824571,5.233008,13.771711,9.438110,3.214815,54.653118,46.339199,6.843727,6.071002,-6.829524,5.220707,1.941878,-4.956037,2.973975,16.873243,-7.409515,-3.001674,-5.315359,-5.344719,-14.564336,0.000000,194.000000,4.000000,,,,0.000000,4.000000,4.000000,4.000000,4.000000,4.000000,4.000000,4.000000,4.000000,4.000000,4.000000,4.000000,4.000000,4.000000,4.000000,4.000000,4.000000,4.000000,4.000000,4.000000,4.000000,4.000000,4.000000,4.000000,4.000000,4.000000,4.000000,4.000000,4.000000,4.000000,4.000000,4.000000,4.000000,100.000000
1614489164.653641,21.000000,0.000000,-0.973101,-1.480121,14.503159,-3.307948,1.397084,-2.490264,-5.554896,-9.374319,-41.377281,-9.460028,-12.598173,-7.101118,0.204362,-8.618379,-1.113855,5.838929,-6.019169,30.495901,36.036449,0.170216,-3.678659,-10.412437,2.651383,-13.444679,-5.976721,8.099207,9.164063,-9.453387,-2.998673,-9.925428,-19.698349,-21.729258,0.000000,192.000000,4.000000,,,,0.000000,4.000000,4.000000,4.000000,4.000000,4.000000,4.000000,4.000000,4.000000,4.000000,4.000000,4.000000,4.000000,4.000000,4.000000,4.000000,4.000000,4.000000,4.000000,4.000000,4.000000,4.000000,4.000000,4.000000,4.000000,4.000000,4.000000,4.000000,4.000000,4.000000,4.000000,4.000000,4.000000,100.000000
1614489164.661390,22.000000,0.000000,-2.510590,-0.965821,13.463015,-1.766178,0.370046,-1.974954,-10.677547,-16.544432,-39.797443,-14.578773,-38.226601,-20.940170,-9.539433,-25.532837,-18.035818,8.910013,-11.654176,18.157713,30.359388,-9.573544,-7.777544,-8.863564,-1.453832,-29.328671,-7.509206,8.091107,4.539514,-10.469575,-2.482854,-9.915503,-25.832497,-20.681889,0.000000,192.000000,4.000000,,,,0.000000,4.000000,4.000000,4.000000,4.000000,4.000000,4.000000,4.000000,4.000000,4.000000,4.000000,4.000000,4.000000,4.000000,4.000000,4.000000,4.000000,4.000000,4.000000,4.000000,4.000000,4.000000,4.000000,4.000000,4.000000,4.000000,4.000000,4.000000,4.000000,4.000000,4.000000,4.000000,4.000000,100.000000
1614489164.669239,23.000000,0.000000,-4.559361,-0.964855,9.859808,-3.302873,-1.168786,-2.998620,-15.282253,-17.553528,-49.501236,-13.025733,-47.931965,-22.457693,-15.683740,-35.250893,-40.581886,2.234436,-12.668162,16.601093,24.688004,-13.666534,-9.308228,-9.880342,-10.170327,-35.453190,-10.578620,2.441991,5.047795,-9.946285,-2.993191,-9.392767,-23.242561,-23.738129,0.000000,200.000000,4.000000,,,,0.000000,4.000000,4.000000,4.000000,4.000000,4.000000,4.000000,4.000000,4.000000,4.000000,4.000000,4.000000,4.000000,4.000000,4.000000,4.000000,4.000000,4.000000,4.000000,4.000000,4.000000,4.000000,4.000000,4.000000,4.000000,4.000000,4.000000,4.000000,4.000000,4.000000,4.000000,4.000000,4.000000,100.000000
1614489164.676988,24.000000,0.000000,-5.067623,-0.963890,0.619179,-9.966237,-6.295822,-5.559724,-17.318253,-23.177000,-52.528656,-13.012707,-46.345570,-20.896772,-16.180876,-35.215645,-52.848995,-13.152413,-13.168315,15.558852,22.612032,-13.140047,-11.863023,-10.383282,-16.826822,-35.417736,-11.593682,-4.227118,5.555568,-9.936339,-2.990198,-10.409015,-22.706499,-32.432339,0.000000,208.000000,4.000000,,,,0.000000,4.000000,4.000000,4.000000,4.000000,4.000000,4.000000,4.000000,4.000000,4.000000,4.000000,4.000000,4.000000,4.000000,4.000000,4.000000,4.000000,4.000000,4.000000,4.000000,4.000000,4.000000,4.000000,4.000000,4.000000,4.000000,4.000000,4.000000,4.000000,4.000000,4.000000,4.000000,4.000000,100.000000
1614489164.684837,25.000000,0.000000,-4.036914,-0.962926,0.618560,-5.853707,-4.751065,-6.066985,-14.224012,-18.025618,-46.835102,-10.948412,-40.145378,-22.414337,-14.626234,-33.129147,-46.129478,-18.780287,-12.642326,15.030473,21.563780,-14.665369,-13.389621,-9.347258,-15.271535,-35.382317,-6.966704,-5.761353,4.524371,-9.926403,-2.474387,-8.860145,-21.145330,-32.912727,0.000000,182.000000,4.000000,,,,0.000000,4.000000,4.000000,4.000000,4.000000,4.000000,4.000000,4.000000,4.000000,4.000000,4.000000,4.000000,4.000000,4.000000,4.000000,4.000000,4.000000,4.000000,4.000000,4.000000,4.000000,4.000000,4.000000,4.000000,4.000000,4.000000,4.000000,4.000000,4.000000,4.000000,4.000000,4.000000,4.000000,100.000000
1614489164.692586,26.000000,0.000000,-5.571339,-0.449143,17.028198,2.870095,0.381891,-5.548097,-7.543121,-5.699900,-44.224163,-6.322079,-39.079594,-21.879103,-15.637248,-36.172939,-37.878223,-15.684584,-12.629683,17.066725,20.003754,-16.701986,-12.863411,-9.337910,-12.179340,-35.859756,-7.472558,-3.191489,4.007026,-9.916476,-3.497554,-11.928207,-19.585724,-28.777252,0.000000,193.000000,4.000000,,,,0.000000,4.000000,4.000000,4.000000,4.000000,4.000000,4.000000,4.000000,4.000000,4.000000,4.000000,4.000000,4.000000,4.000000,4.000000,4.000000,4.000000,4.000000,4.000000,4.000000,4.000000,4.000000,4.000000,4.000000,4.000000,4.000000,4.000000,4.000000,4.000000,4.000000,4.000000,4.000000,4.000000,100.000000
1614489164.700435,27.000000,0.000000,-8.642691,-0.961514,16.498348,-4.825082,-6.285157,-6.055369,-4.458655,-6.719841,-45.205582,-5.290116,-40.066154,-18.267481,-17.160072,-33.059845,-38.353165,-17.207361,-13.642695,14.485555,19.983751,-17.198105,-12.850548,-9.328572,-13.192801,-35.311077,-14.644572,-5.239579,4.003019,-9.906560,-5.545339,-21.147049,-20.591780,-29.774115,0.000000,188.000000,4.000000,,,,0.000000,4.000000,4.000000,4.000000,4.000000,4.000000,4.000000,4.000000,4.000000,4.000000,4.000000,4.000000,4.000000,4.000000,4.000000,4.000000,4.000000,4.000000,4.000000,4.000000,4.000000,4.000000,4.000000,4.000000,4.000000,4.000000,4.000000,4.000000,4.000000,4.000000,4.000000,4.000000,4.000000,100.000000
1614489164.708184,28.000000,0.000000,-8.634048,-2.499014,-7.620713,-20.204872,-12.432718,-5.536493,-3.941376,-6.713121,-46.698837,-5.797647,-24.128651,-11.582546,-9.963426,-13.539604,-31.648144,-15.138871,-9.013668,15.496710,20.989408,-16.668085,-12.324876,-9.832064,-13.692430,-33.224483,-16.681210,-9.849724,5.537478,-9.896653,-7.078255,-24.202826,-22.622469,-33.846905,0.000000,186.000000,4.000000,,,,0.000000,4.000000,4.000000,4.000000,4.000000,4.000000,4.000000,4.000000,4.000000,4.000000,4.000000,4.000000,4.000000,4.000000,4.000000,4.000000,4.000000,4.000000,4.000000,4.000000,4.000000,4.000000,4.000000,4.000000,4.000000,4.000000,4.000000,4.000000,4.000000,4.000000,4.000000,4.000000,4.000000,100.000000
1614489164.716033,29.000000,0.000000,-6.061311,-4.547797,-17.869503,-22.748770,-6.266439,-2.966854,0.677950,1.498720,-48.703423,-5.791849,6.151888,-1.827374,3.892692,8.525217,-3.924188,-1.277578,-0.286705,30.865829,20.455597,-16.651417,-12.312551,-8.796591,-12.140276,-32.165615,-15.638888,-10.352695,3.480658,-9.886757,-6.558356,-18.537596,-28.753693,-37.915623,0.000000,215.000000,4.000000,,,,0.000000,4.000000,4.000000,4.000000,4.000000,4.000000,4.000000,4.000000,4.000000,4.000000,4.000000,4.000000,4.000000,4.000000,4.000000,4.000000,4.000000,4.000000,4.000000,4.000000,4.000000,4.000000,4.000000,4.000000,4.000000,4.000000,4.000000,4.000000,4.000000,4.000000,4.000000,4.000000,4.000000,100.000000
1614489164.723782,30.000000,0.000000,-4.516788,-4.543250,-11.697787,-16.572176,-5.234532,-1.938247,3.754195,-2.605343,-46.603436,-3.734775,22.043171,4.841120,9.529825,12.619256,20.695120,10.005751,3.303325,43.655476,20.435143,-16.634766,-13.838700,-9.300615,-13.153776,-29.056528,-15.623249,-10.342342,-0.625386,-9.876870,-6.551798,-15.954956,-35.391605,-39.416168,0.000000,220.000000,4.000000,,,,0.000000,4.000000,4.000000,4.000000,4.000000,4.000000,4.000000,4.000000,4.000000,4.000000,4.000000,4.000000,4.000000,4.000000,4.000000,4.000000,4.000000,4.000000,4.000000,4.000000,4.000000,4.000000,4.000000,4.000000,4.000000,4.000000,4.000000,4.000000,4.000000,4.000000,4.000000,4.000000,4.000000,100.000000
1614489164.731631,31.000000,0.000000,-5.025092,-4.538706,-11.686090,-10.401757,-10.870323,-1.936308,3.750441,-10.295045,-45.018372,-2.192579,18.944206,5.861920,6.956192,11.580996,16.571861,12.559848,2.787201,42.073360,21.440348,-17.130951,-10.235118,-9.291314,-13.140623,-22.873625,-10.479421,-7.255077,7.580367,-9.866993,-6.545246,-19.015924,-32.279293,-39.889572,0.000000,172.000000,4.000000,,,,0.000000,4.000000,4.000000,4.000000,4.000000,4.000000,4.000000,4.000000,4.000000,4.000000,4.000000,4.000000,4.000000,4.000000,4.000000,4.000000,4.000000,4.000000,4.000000,4.000000,4.000000,4.000000,4.000000,4.000000,4.000000,4.000000,4.000000,4.000000,4.000000,4.000000,4.000000,4.000000,4.000000,100.000000
1614489164.739380,32.000000,0.000000,-2.968785,-4.534167,-11.161583,-6.288791,-7.269709,0.116910,3.233870,-6.182186,-47.537453,-2.703207,15.848338,6.881699,7.462057,12.595056,2.709136,7.419083,5.861337,39.980003,23.470190,-16.088181,-0.994114,-4.666638,-9.024918,-18.748188,-4.315095,-2.632437,25.521505,-9.857126,-6.538701,-20.022549,-27.631628,-39.849682,8064.000000,0.000000,4.000000,,,,0.000000,4.000000,4.000000,4.000000,4.000000,4.000000,4.000000,4.000000,4.000000,4.000000,4.000000,4.000000,4.000000,4.000000,4.000000,4.000000,4.000000,4.000000,4.000000,4.000000,4.000000,4.000000,4.000000,4.000000,4.000000,4.000000,4.000000,4.000000,4.000000,4.000000,4.000000,4.000000,4.000000,100.000000
1614489164.747229,33.000000,0.000000,-0.914534,-4.529634,-6.535037,-13.461989,0.429868,2.168075,0.153713,-7.201645,-51.079662,-4.238965,9.678643,4.310715,8.480236,5.402974,-1.396138,-2.844747,5.342655,38.401562,26.010822,-14.020809,4.135086,2.004695,-4.913329,-18.729439,-3.797959,-7.245189,33.188290,-7.795987,-6.532162,-17.438423,-29.655277,-39.809834,8064.000000,0.000000,4.000000,,,,0.000000,4.000000,4.000000,4.000000,4.000000,4.000000,4.000000,4.000000,4.000000,4.000000,4.000000,4.000000,4.000000,4.000000,4.000000,4.000000,4.000000,4.000000,4.000000,4.000000,4.000000,4.000000,4.000000,4.000000,4.000000,4.000000,4.000000,4.000000,4.000000,4.000000,4.000000,4.000000,4.000000,100.000000
1614489164.754978,34.000000,0.000000,-0.400799,-4.525104,-3.964399,-25.243399,-1.109023,1.653087,-6.513107,-18.476494,-54.105503,-6.286008,-7.766932,-4.411545,3.343550,-6.397301,-12.163973,-15.149594,-1.329354,26.055468,20.343786,-12.468328,3.105309,0.464229,-4.908416,-18.197889,-4.306982,-13.904611,26.488436,-5.736909,-6.525630,-16.395344,-30.138443,-39.257202,8064.000000,0.000000,4.000000,,,,0.000000,4.000000,4.000000,4.000000,4.000000,4.000000,4.000000,4.000000,4.000000,4.000000,4.000000,4.000000,4.000000,4.000000,4.000000,4.000000,4.000000,4.000000,4.000000,4.000000,4.000000,4.000000,4.000000,4.000000,4.000000,4.000000,4.000000,4.000000,4.000000,4.000000,4.000000,4.000000,4.000000,100.000000
1614489164.762827,35.000000,0.000000,-0.913218,-4.520578,-0.370691,-19.064310,-5.210478,2.164254,-9.070697,-18.970839,-50.461655,-6.792542,-17.502756,-11.073800,-0.762357,-9.980647,-23.946680,-18.724188,-5.943409,15.773003,13.143955,-13.481500,2.076563,-5.690082,-5.416327,-20.230974,-4.302675,-11.326604,22.872204,-6.243992,-6.519104,-16.891769,-25.492920,-39.730766,8064.000000,0.000000,4.000000,,,,0.000000,4.000000,4.000000,4.000000,4.000000,4.000000,4.000000,4.000000,4.000000,4.000000,4.000000,4.000000,4.000000,4.000000,4.000000,4.000000,4.000000,4.000000,4.000000,4.000000,4.000000,4.000000,4.000000,4.000000,4.000000,4.000000,4.000000,4.000000,4.000000,4.000000,4.000000,4.000000,4.000000,100.000000
1614489164.770577,36.000000,0.000000,-0.912305,-4.003237,-2.421602,0.441934,-4.179627,4.726192,-6.497523,-11.259561,-35.026577,1.419378,-11.331407,-10.037085,-0.761595,-6.893744,-13.153502,-11.525977,-5.937466,24.475178,22.874401,-13.468019,2.587307,-2.607468,-4.898091,-20.723562,-5.324013,-6.699893,25.926254,-6.237748,-6.512585,-16.874878,-21.877684,-37.639755,8064.000000,0.000000,4.000000,,,,0.000000,4.000000,4.000000,4.000000,4.000000,4.000000,4.000000,4.000000,4.000000,4.000000,4.000000,4.000000,4.000000,4.000000,4.000000,4.000000,4.000000,4.000000,4.000000,4.000000,4.000000,4.000000,4.000000,4.000000,4.000000,4.000000,4.000000,4.000000,4.000000,4.000000,4.000000,4.000000,4.000000,100.000000
1614489164.778426,37.000000,0.000000,-0.911393,-3.999234,-9.085848,6.082518,-3.662627,4.208646,-4.439744,-10.735480,-26.786423,5.007702,-9.268793,-9.001407,-0.248013,-5.348388,-6.986503,-9.975989,-4.393067,34.194294,36.697681,-12.941730,2.584720,5.600267,-5.406013,-14.548993,-3.780228,-5.667552,26.925970,-5.718690,-6.506073,-16.858004,-20.317345,-33.499550,8064.000000,0.000000,4.000000,,,,0.000000,4.000000,4.000000,4.000000,4.000000,4.000000,4.000000,4.000000,4.000000,4.000000,4.000000,4.000000,4.000000,4.000000,4.000000,4.000000,4.000000,4.000000,4.000000,4.000000,4.000000,4.000000,4.000000,4.000000,4.000000,4.000000,4.000000,4.000000,4.000000,4.000000,4.000000,4.000000,4.000000,100.000000
1614489164.786175,38.000000,0.000000,-0.910482,-7.072158,-3.948556,-6.231257,-4.684605,1.640334,-4.435304,-12.776027,-37.528866,-6.792177,-22.592857,-11.043688,-2.811867,-9.445604,-32.620541,-27.401911,-6.439956,16.724201,21.789188,-14.980070,-2.546070,1.492103,-5.400607,-21.713932,-6.853371,-7.200346,25.873402,-7.251433,-6.499567,-16.841145,-19.271385,-30.901947,8064.000000,0.000000,4.000000,,,,0.000000,4.000000,4.000000,4.000000,4.000000,4.000000,4.000000,4.000000,4.000000,4.000000,4.000000,4.000000,4.000000,4.000000,4.000000,4.000000,4.000000,4.000000,4.000000,4.000000,4.000000,4.000000,4.000000,4.000000,4.000000,4.000000,4.000000,4.000000,4.000000,4.000000,4.000000,4.000000,4.000000,100.000000
1614489164.794024,39.000000,0.000000,-0.909571,-7.065086,5.286161,-18.532719,-2.115818,1.125874,-4.430869,-8.660686,-45.696468,-12.939231,-32.313854,-10.007003,-4.860338,-12.513082,-49.510998,-39.682201,-14.638644,-10.984831,-0.796704,-15.990731,-11.774293,-11.842723,-5.395206,-39.640934,-17.102928,-9.244428,25.847528,-9.295464,-6.493067,-16.824305,-20.277756,-31.896687,8064.000000,0.000000,4.000000,,,,0.000000,4.000000,4.000000,4.000000,4.000000,4.000000,4.000000,4.000000,4.000000,4.000000,4.000000,4.000000,4.000000,4.000000,4.000000,4.000000,4.000000,4.000000,4.000000,4.000000,4.000000,4.000000,4.000000,4.000000,4.000000,4.000000,4.000000,4.000000,4.000000,4.000000,4.000000,4.000000,4.000000,100.000000
1614489164.801773,40.000000,0.000000,-0.908662,-4.493918,2.203952,-18.001366,1.988862,2.150389,-4.426438,-4.036641,-44.112309,-1.131420,-17.409746,-3.843150,-3.317016,-4.295440,-25.871744,-18.616879,-13.085545,-4.307179,13.050246,-9.820894,-10.224057,-13.369342,-6.415452,-29.857704,-16.060184,-5.645439,26.334501,-10.824630,-6.486574,-17.320301,-19.231836,-33.916073,8064.000000,0.000000,4.000000,,,,0.000000,4.000000,4.000000,4.000000,4.000000,4.000000,4.000000,4.000000,4.000000,4.000000,4.000000,4.000000,4.000000,4.000000,4.000000,4.000000,4.000000,4.000000,4.000000,4.000000,4.000000,4.000000,4.000000,4.000000,4.000000,4.000000,4.000000,4.000000,4.000000,4.000000,4.000000,4.000000,4.000000,100.000000
1614489164.809422,41.000000,0.000000,-0.907753,-8.079168,-0.362354,-6.701312,3.525335,1.635418,-4.422011,-3.519784,-45.093838,7.074840,8.248690,1.801719,1.301686,10.580650,4.923358,10.632508,2.312157,28.517641,44.319248,-0.067484,1.581038,-4.125203,-4.870575,-1.622719,0.366133,1.026873,25.795347,-9.275344,-6.480087,-16.790159,-15.110041,-34.907799,8064.000000,0.000000,4.000000,,,,0.000000,4.000000,4.000000,4.000000,4.000000,4.000000,4.000000,4.000000,4.000000,4.000000,4.000000,4.000000,4.000000,4.000000,4.000000,4.000000,4.000000,4.000000,4.000000,4.000000,4.000000,4.000000,4.000000,4.000000,4.000000,4.000000,4.000000,4.000000,4.000000,4.000000,4.000000,4.000000,4.000000,100.000000
1614489164.817171,42.000000,0.000000,-0.906845,-11.660832,5.279034,3.048979,3.008989,1.633782,-4.417590,-5.054726,-49.151306,4.503662,19.009672,1.799917,6.428589,19.800838,14.149204,21.391106,13.591896,51.053226,54.531338,9.163353,11.323047,1.519948,0.775321,7.096852,10.622177,2.051487,28.846476,-4.650683,-6.473607,-14.722087,-12.530828,-35.898529,8192.000000,0.000000,4.000000,,,,0.000000,4.000000,4.000000,4.000000,4.000000,4.000000,4.000000,4.000000,4.000000,4.000000,4.000000,4.000000,4.000000,4.000000,4.000000,4.000000,4.000000,4.000000,4.000000,4.000000,4.000000,4.000000,4.000000,4.000000,4.000000,4.000000,4.000000,4.000000,4.000000,4.000000,4.000000,4.000000,4.000000,100.000000
1614489164.824820,43.000000,0.000000,-0.905938,-7.546607,5.786575,4.584391,3.005980,1.632149,-4.413172,-1.972748,-49.102158,3.986338,17.452200,1.285297,12.576007,24.396423,14.135056,23.933817,16.142406,55.104736,51.912704,15.308036,14.388647,1.005607,5.902750,9.653858,9.585914,0.510974,32.920193,-2.081930,-6.467134,-12.656083,-9.441374,-35.862633,8064.000000,0.000000,4.000000,,,,0.000000,4.000000,4.000000,4.000000,4.000000,4.000000,4.000000,4.000000,4.000000,4.000000,4.000000,4.000000,4.000000,4.000000,4.000000,4.000000,4.000000,4.000000,4.000000,4.000000,4.000000,4.000000,4.000000,4.000000,4.000000,4.000000,4.000000,4.000000,4.000000,4.000000,4.000000,4.000000,4.000000,100.000000
1614489164.832569,44.000000,0.000000,-0.905032,-3.436497,-0.885878,3.554166,3.002974,1.630517,-3.895938,0.080507,-48.027412,6.033634,18.973209,1.796832,16.153175,27.448950,16.172201,24.422705,17.664726,60.690659,52.886433,16.831190,16.425541,1.004602,9.999412,18.874973,9.576328,2.048924,33.912914,-2.592669,-6.460666,-13.156247,-5.842189,-34.801128,8192.000000,0.000000,4.000000,,,,0.000000,4.000000,4.000000,4.000000,4.000000,4.000000,4.000000,4.000000,4.000000,4.000000,4.000000,4.000000,4.000000,4.000000,4.000000,4.000000,4.000000,4.000000,4.000000,4.000000,4.000000,4.000000,4.000000,4.000000,4.000000,4.000000,4.000000,4.000000,4.000000,4.000000,4.000000,4.000000,4.000000,100.000000
1614489164.840218,45.000000,0.000000,-0.904127,-4.458701,-2.423454,4.576253,3.512792,1.628886,-4.917683,-5.047779,-48.492207,5.514780,17.928596,1.795035,13.572919,23.318935,17.181671,17.731615,15.595779,57.553043,54.884827,16.301538,17.434755,3.567700,13.066336,13.727894,10.079572,1.021235,33.366180,-2.590076,-6.454206,-13.143091,-4.810706,-32.715046,8064.000000,0.000000,4.000000,,,,0.000000,4.000000,4.000000,4.000000,4.000000,4.000000,4.000000,4.000000,4.000000,4.000000,4.000000,4.000000,4.000000,4.000000,4.000000,4.000000,4.000000,4.000000,4.000000,4.000000,4.000000,4.000000,4.000000,4.000000,4.000000,4.000000,4.000000,4.000000,4.000000,4.000000,4.000000,4.000000,4.000000,100.000000
1614489164.847967,46.000000,0.000000,-0.903223,-4.454243,7.322559,4.571677,5.560561,1.627257,-4.399945,-7.606833,-48.956535,4.996444,9.192719,1.280420,10.995243,16.116131,14.600387,13.098498,10.451978,43.136517,53.291481,16.285236,17.417322,5.615414,13.053269,1.919294,10.582314,-1.543889,33.845634,-2.074666,-6.447752,-12.617127,-4.805895,-31.656689,8064.000000,0.000000,4.000000,,,,0.000000,4.000000,4.000000,4.000000,4.000000,4.000000,4.000000,4.000000,4.000000,4.000000,4.000000,4.000000,4.000000,4.000000,4.000000,4.000000,4.000000,4.000000,4.000000,4.000000,4.000000,4.000000,4.000000,4.000000,4.000000,4.000000,4.000000,4.000000,4.000000,4.000000,4.000000,4.000000,4.000000,100.000000
1614489164.855617,47.000000,0.000000,-0.902320,-4.449788,20.135750,4.567105,7.093462,1.625630,-2.344263,-0.419740,-47.369118,4.991448,5.080962,1.279140,11.497068,14.561552,15.098607,13.598221,9.415885,36.426712,52.212551,16.781771,17.912724,5.609799,13.040216,3.968657,11.084552,-2.567986,34.837429,-1.559770,-6.441304,-13.117331,-4.288269,-28.548109,8064.000000,0.000000,4.000000,,,,0.000000,4.000000,4.000000,4.000000,4.000000,4.000000,4.000000,4.000000,4.000000,4.000000,4.000000,4.000000,4.000000,4.000000,4.000000,4.000000,4.000000,4.000000,4.000000,4.000000,4.000000,4.000000,4.000000,4.000000,4.000000,4.000000,4.000000,4.000000,4.000000,4.000000,4.000000,4.000000,4.000000,100.000000
1614489164.863366,48.000000,0.000000,-0.901418,-3.419698,19.089973,4.562538,7.086368,1.624004,-1.829098,4.708885,-47.321747,5.499277,6.614342,1.790681,8.921469,13.008529,14.570687,12.046161,8.893649,38.441566,54.211620,16.764990,16.869171,5.091369,14.565638,7.041611,7.996544,-3.591059,33.264130,-2.071031,-6.434862,-12.591393,-7.360904,-23.904177,8064.000000,0.000000,4.000000,,,,0.000000,4.000000,4.000000,4.000000,4.000000,4.000000,4.000000,4.000000,4.000000,4.000000,4.000000,4.000000,4.000000,4.000000,4.000000,4.000000,4.000000,4.000000,4.000000,4.000000,4.000000,4.000000,4.000000,4.000000,4.000000,4.000000,4.000000,4.000000,4.000000,4.000000,4.000000,4.000000,4.000000,100.000000
1614489164.871015,49.000000,0.000000,-0.900516,-0.852175,7.788832,3.532334,6.566462,1.622380,-3.878551,1.114433,-49.838528,4.980957,0.966702,0.250429,4.297163,4.790392,1.222784,8.957191,5.295012,36.864666,50.054844,15.209764,16.339481,5.599098,12.499789,4.983287,11.065471,-5.638751,32.718044,-3.607422,-6.428428,-10.014699,-7.353543,-23.880272,8064.000000,0.000000,4.000000,,,,0.000000,4.000000,4.000000,4.000000,4.000000,4.000000,4.000000,4.000000,4.000000,4.000000,4.000000,4.000000,4.000000,4.000000,4.000000,4.000000,4.000000,4.000000,4.000000,4.000000,4.000000,4.000000,4.000000,4.000000,4.000000,4.000000,4.000000,4.000000,4.000000,4.000000,4.000000,4.000000,4.000000,100.000000
1614489164.878764,50.000000,0.000000,-0.899616,-1.364144,7.781043,4.041622,6.047074,1.620758,-4.900314,-0.937964,-42.609203,3.950335,-6.726572,-1.801104,2.241584,-3.419526,-16.727158,5.871312,5.289716,35.289337,39.748379,15.194553,16.835962,5.080678,11.461649,4.465484,19.259533,-7.171573,34.223789,-1.552532,-6.421999,-8.979043,-2.730805,-24.882032,8064.000000,0.000000,4.000000,,,,0.000000,4.000000,4.000000,4.000000,4.000000,4.000000,4.000000,4.000000,4.000000,4.000000,4.000000,4.000000,4.000000,4.000000,4.000000,4.000000,4.000000,4.000000,4.000000,4.000000,4.000000,4.000000,4.000000,4.000000,4.000000,4.000000,4.000000,4.000000,4.000000,4.000000,4.000000,4.000000,4.000000,100.000000
1614489164.886413,51.000000,0.000000,-0.898716,-3.926882,14.439928,4.550401,7.579489,1.619137,-4.382593,0.088615,-31.284542,5.484846,-4.668563,-2.824944,3.264983,-1.364825,-20.300173,5.352620,7.848529,37.818153,37.657349,15.692180,9.639639,4.562777,14.527110,1.384095,13.086428,-6.651581,27.522900,-3.089441,-6.415577,-9.482885,-2.728074,-23.831511,8064.000000,0.000000,4.000000,,,,0.000000,4.000000,4.000000,4.000000,4.000000,4.000000,4.000000,4.000000,4.000000,4.000000,4.000000,4.000000,4.000000,4.000000,4.000000,4.000000,4.000000,4.000000,4.000000,4.000000,4.000000,4.000000,4.000000,4.000000,4.000000,4.000000,4.000000,4.000000,4.000000,4.000000,4.000000,4.000000,4.000000,100.000000
1614489164.894162,52.000000,0.000000,-0.897817,-4.435776,9.297283,0.443287,5.520627,1.617518,-4.378211,-2.988396,-41.509666,3.940900,-1.074151,-2.822119,3.261718,6.328848,-15.664489,5.860087,8.866322,34.703411,36.594048,3.881615,-7.293077,6.096675,6.307455,-6.309597,-5.901018,-5.619288,12.110761,-12.829942,-6.409162,-8.960582,-9.392013,-27.397421,8064.000000,0.000000,4.000000,,,,0.000000,4.000000,4.000000,4.000000,4.000000,4.000000,4.000000,4.000000,4.000000,4.000000,4.000000,4.000000,4.000000,4.000000,4.000000,4.000000,4.000000,4.000000,4.000000,4.000000,4.000000,4.000000,4.000000,4.000000,4.000000,4.000000,4.000000,4.000000,4.000000,4.000000,4.000000,4.000000,4.000000,100.000000
1614489164.901811,53.000000,0.000000,-0.896920,-6.482622,0.057217,-7.762285,-1.151560,1.615900,-5.399473,-4.011049,-55.314312,-1.191246,-3.637180,-2.306476,2.745636,9.912263,-11.546260,3.290125,5.780532,26.976400,24.249763,-13.558164,-15.490912,3.013656,-15.237314,-11.431493,-11.536142,-6.639310,5.431983,-16.406855,-6.402752,-8.951621,-13.998005,-33.011051,8064.000000,0.000000,4.000000,,,,0.000000,4.000000,4.000000,4.000000,4.000000,4.000000,4.000000,4.000000,4.000000,4.000000,4.000000,4.000000,4.000000,4.000000,4.000000,4.000000,4.000000,4.000000,4.000000,4.000000,4.000000,4.000000,4.000000,4.000000,4.000000,4.000000,4.000000,4.000000,4.000000,4.000000,4.000000,4.000000,4.000000,100.000000
1614489164.909560,54.000000,0.000000,-0.896023,-8.014601,4.672544,-8.780164,1.413694,1.614285,-4.368433,2.146808,-42.438484,0.861227,2.520303,-0.252888,3.255711,9.389530,-1.278304,5.850937,4.236290,35.154552,24.738335,-10.980503,-5.219012,-3.656024,-22.914385,-7.830317,-1.268196,-6.632671,13.118859,-6.646859,-6.396349,-9.455490,-13.471187,-29.901115,8064.000000,0.000000,4.000000,,,,0.000000,4.000000,4.000000,4.000000,4.000000,4.000000,4.000000,4.000000,4.000000,4.000000,4.000000,4.000000,4.000000,4.000000,4.000000,4.000000,4.000000,4.000000,4.000000,4.000000,4.000000,4.000000,4.000000,4.000000,4.000000,4.000000,4.000000,4.000000,4.000000,4.000000,4.000000,4.000000,4.000000,100.000000
1614489164.917210,55.000000,0.000000,-0.895127,-5.955304,16.975563,-0.053435,12.181511,1.612670,-1.799962,7.272867,-37.267841,11.629597,19.953680,1.285827,3.252455,12.969884,10.005026,19.178419,8.334618,59.221962,48.303337,11.081759,11.196464,2.501478,-4.429932,4.485205,6.938200,-0.472192,21.823689,-0.999186,-4.338671,-8.933214,-6.278228,-20.127625,8064.000000,0.000000,4.000000,,,,0.000000,4.000000,4.000000,4.000000,4.000000,4.000000,4.000000,4.000000,4.000000,4.000000,4.000000,4.000000,4.000000,4.000000,4.000000,4.000000,4.000000,4.000000,4.000000,4.000000,4.000000,4.000000,4.000000,4.000000,4.000000,4.000000,4.000000,4.000000,4.000000,4.000000,4.000000,4.000000,4.000000,100.000000
1614489164.925059,56.000000,0.000000,-0.894231,-5.436528,16.958588,3.023542,12.682150,1.611058,-0.772521,7.265594,-58.256214,17.258993,26.087574,1.284541,3.249202,19.110760,11.533483,23.774626,15.505771,67.880692,59.024265,20.301447,17.339113,14.293848,11.984755,13.198668,8.982544,5.169306,26.930071,-3.049469,-2.283051,-10.462742,1.933178,-16.004932,8192.000000,0.000000,4.000000,,,,0.000000,4.000000,4.000000,4.000000,4.000000,4.000000,4.000000,4.000000,4.000000,4.000000,4.000000,4.000000,4.000000,4.000000,4.000000,4.000000,4.000000,4.000000,4.000000,4.000000,4.000000,4.000000,4.000000,4.000000,4.000000,4.000000,4.000000,4.000000,4.000000,4.000000,4.000000,4.000000,4.000000,100.000000
1614489164.932808,57.000000,0.000000,-0.893337,-7.995194,8.223681,-1.594866,3.951519,1.609447,-1.284569,8.796789,-56.659496,14.677631,18.369179,1.283256,3.245953,17.553188,11.009129,17.084185,17.541548,62.171783,51.785755,14.127299,13.219211,11.202631,12.998411,12.159829,8.460741,1.574393,29.467243,-3.046419,-3.819229,-12.503561,-0.632857,-17.527390,8064.000000,0.000000,4.000000,,,,0.000000,4.000000,4.000000,4.000000,4.000000,4.000000,4.000000,4.000000,4.000000,4.000000,4.000000,4.000000,4.000000,4.000000,4.000000,4.000000,4.000000,4.000000,4.000000,4.000000,4.000000,4.000000,4.000000,4.000000,4.000000,4.000000,4.000000,4.000000,4.000000,4.000000,4.000000,4.000000,4.000000,100.000000
1614489164.940657,58.000000,0.000000,-0.892444,-8.500020,15.907765,5.586216,1.896286,1.095016,3.332100,10.839274,-31.474632,17.227057,21.427732,1.281973,3.242707,18.048456,21.767349,26.297869,17.011185,73.904480,57.374996,20.779839,14.744452,5.037582,9.908489,15.224592,10.503562,-2.016925,29.950596,-1.504911,-6.379512,-13.516699,-6.273250,-16.997042,8192.000000,0.000000,4.000000,,,,0.000000,4.000000,4.000000,4.000000,4.000000,4.000000,4.000000,4.000000,4.000000,4.000000,4.000000,4.000000,4.000000,4.000000,4.000000,4.000000,4.000000,4.000000,4.000000,4.000000,4.000000,4.000000,4.000000,4.000000,4.000000,4.000000,4.000000,4.000000,4.000000,4.000000,4.000000,4.000000,4.000000,100.000000
1614489164.948406,59.000000,0.000000,-0.891551,-7.465878,25.122627,19.426783,3.945672,2.119563,11.533896,10.315615,-34.007259,26.440598,30.637074,1.280691,3.239465,25.209894,34.566097,39.604904,17.506994,86.651093,62.445824,34.092392,22.422016,9.135109,9.898582,21.876034,15.108443,-2.014908,31.459106,-2.016227,-6.373133,-12.990362,-4.728516,-15.954404,8192.000000,0.000000,4.000000,,,,0.000000,4.000000,4.000000,4.000000,4.000000,4.000000,4.000000,4.000000,4.000000,4.000000,4.000000,4.000000,4.000000,4.000000,4.000000,4.000000,4.000000,4.000000,4.000000,4.000000,4.000000,4.000000,4.000000,4.000000,4.000000,4.000000,4.000000,4.000000,4.000000,4.000000,4.000000,4.000000,4.000000,100.000000
1614489164.956255,60.000000,0.000000,-1.403480,-7.971233,10.225709,17.868895,2.916085,1.604622,13.573645,12.356582,-51.921970,25.901337,21.375668,1.279410,2.723405,21.082121,29.916145,26.231966,12.361282,65.538795,51.101326,23.801889,16.758568,7.074692,10.401503,12.110569,16.631796,-4.576996,32.966110,-2.527031,-6.366760,-12.977371,-1.646864,-16.964090,8064.000000,0.000000,4.000000,,,,0.000000,4.000000,4.000000,4.000000,4.000000,4.000000,4.000000,4.000000,4.000000,4.000000,4.000000,4.000000,4.000000,4.000000,4.000000,4.000000,4.000000,4.000000,4.000000,4.000000,4.000000,4.000000,4.000000,4.000000,4.000000,4.000000,4.000000,4.000000,4.000000,4.000000,4.000000,4.000000,4.000000,100.000000
1614489164.964004,61.000000,0.000000,-0.889256,-7.963262,5.600099,10.671539,2.400348,0.577377,10.995969,16.959610,-49.818768,17.157488,5.456855,1.278131,2.720681,6.189243,16.552895,5.180094,3.630972,40.857876,42.845097,3.778088,1.357194,0.400950,9.365460,-3.286157,18.666447,3.119889,32.933144,-2.524504,-6.360393,-12.964394,-1.645217,-16.947126,8064.000000,0.000000,4.000000,,,,0.000000,4.000000,4.000000,4.000000,4.000000,4.000000,4.000000,4.000000,4.000000,4.000000,4.000000,4.000000,4.000000,4.000000,4.000000,4.000000,4.000000,4.000000,4.000000,4.000000,4.000000,4.000000,4.000000,4.000000,4.000000,4.000000,4.000000,4.000000,4.000000,4.000000,4.000000,4.000000,4.000000,100.000000
1614489164.971853,62.000000,0.000000,-0.375547,-7.955299,27.132959,17.327534,2.397948,3.653723,9.446511,17.968290,-41.563820,17.140329,1.861655,1.276853,3.230781,2.080490,13.972239,4.662093,1.063239,41.329838,41.776611,0.697387,-3.259548,2.451831,8.843274,-5.846974,24.288805,17.475744,34.438671,-2.521980,-6.866853,-12.951429,0.407710,-14.366076,8064.000000,0.000000,4.000000,,,,0.000000,4.000000,4.000000,4.000000,4.000000,4.000000,4.000000,4.000000,4.000000,4.000000,4.000000,4.000000,4.000000,4.000000,4.000000,4.000000,4.000000,4.000000,4.000000,4.000000,4.000000,4.000000,4.000000,4.000000,4.000000,4.000000,4.000000,4.000000,4.000000,4.000000,4.000000,4.000000,4.000000,100.000000
1614489164.979602,63.000000,0.000000,-3.452094,-7.947343,29.157108,21.925591,2.908370,8.778274,10.462706,17.437502,-43.060719,23.277035,-0.191489,1.275576,2.714730,6.180973,14.983909,6.195893,2.087816,32.057739,31.478426,-2.380234,-4.281929,-3.191646,9.860072,-14.559075,22.213236,9.253139,30.814489,-2.519458,-6.347166,-12.938478,2.458585,-12.813250,8064.000000,0.000000,4.000000,,,,0.000000,4.000000,4.000000,4.000000,4.000000,4.000000,4.000000,4.000000,4.000000,4.000000,4.000000,4.000000,4.000000,4.000000,4.000000,4.000000,4.000000,4.000000,4.000000,4.000000,4.000000,4.000000,4.000000,4.000000,4.000000,4.000000,4.000000,4.000000,4.000000,4.000000,4.000000,4.000000,4.000000,100.000000
1614489164.987451,64.000000,0.000000,-3.961462,-7.939396,11.692055,10.108794,2.905462,6.205393,10.452243,17.932884,-44.556118,18.125553,-6.345143,0.761480,2.199195,5.661972,6.250976,-1.502611,1.060087,8.435937,16.062332,-20.326572,-14.534058,-18.573071,5.234828,-33.518875,11.934611,-7.166370,15.399059,-4.568221,-6.340818,-12.925540,-0.107977,-14.851718,0.000000,194.000000,4.000000,,,,0.000000,4.000000,4.000000,4.000000,4.000000,4.000000,4.000000,4.000000,4.000000,4.000000,4.000000,4.000000,4.000000,4.000000,4.000000,4.000000,4.000000,4.000000,4.000000,4.000000,4.000000,4.000000,4.000000,4.000000,4.000000,4.000000,4.000000,4.000000,4.000000,4.000000,4.000000,4.000000,4.000000,100.000000
1614489164.995200,65.000000,0.000000,2.196345,-7.931457,12.193183,3.432018,3.415377,2.609444,10.441791,18.427773,-43.485920,11.953582,-3.774696,1.786360,7.838021,10.784515,1.629341,-0.475467,3.110309,12.530065,16.559090,-27.998552,-17.083626,-15.990395,-5.026818,-33.485355,7.307292,2.071565,7.178533,-6.614934,-6.334477,-13.425435,-4.723253,-16.888147,0.000000,196.000000,4.000000,,,,0.000000,4.000000,4.000000,4.000000,4.000000,4.000000,4.000000,4.000000,4.000000,4.000000,4.000000,4.000000,4.000000,4.000000,4.000000,4.000000,4.000000,4.000000,4.000000,4.000000,4.000000,4.000000,4.000000,4.000000,4.000000,4.000000,4.000000,4.000000,4.000000,4.000000,4.000000,4.000000,4.000000,100.000000
1614489165.003049,66.000000,0.000000,7.835174,-7.410705,11.155349,7.531150,3.411962,6.709399,10.431349,17.383703,-42.416794,11.941628,4.434207,4.348676,15.009670,21.030140,3.678993,10.807059,8.235404,37.132919,32.439968,-20.791067,-6.810132,1.974314,-11.175637,-17.554436,9.864087,11.813084,13.325200,-5.582678,-4.276861,-12.386368,-5.231350,-16.358440,0.000000,194.000000,4.000000,,,,0.000000,4.000000,4.000000,4.000000,4.000000,4.000000,4.000000,4.000000,4.000000,4.000000,4.000000,4.000000,4.000000,4.000000,4.000000,4.000000,4.000000,4.000000,4.000000,4.000000,4.000000,4.000000,4.000000,4.000000,4.000000,4.000000,4.000000,4.000000,4.000000,4.000000,4.000000,4.000000,4.000000,100.000000
1614489165.010798,67.000000,0.000000,6.801698,-7.916115,-3.727601,5.985158,5.972652,10.292433,9.395276,17.879141,-39.810276,9.878405,4.942594,5.369968,13.969020,20.496290,-7.093916,13.360355,9.765631,43.249634,40.612656,-13.590789,-2.187937,6.587725,-9.625999,-12.921496,8.828583,0.006399,17.414438,-3.012993,-2.734123,-10.322700,-4.713299,-16.854902,0.000000,186.000000,4.000000,,,,0.000000,4.000000,4.000000,4.000000,4.000000,4.000000,4.000000,4.000000,4.000000,4.000000,4.000000,4.000000,4.000000,4.000000,4.000000,4.000000,4.000000,4.000000,4.000000,4.000000,4.000000,4.000000,4.000000,4.000000,4.000000,4.000000,4.000000,4.000000,4.000000,4.000000,4.000000,4.000000,4.000000,100.000000
1614489165.018547,68.000000,0.000000,5.769255,-8.421019,3.968434,4.440711,8.017962,8.743679,11.437163,18.374083,-40.796104,8.330065,2.373548,4.851778,10.365307,14.321947,-16.830412,8.218789,9.243044,37.565357,39.033581,-2.295147,3.455276,4.529855,-3.462528,-10.344472,7.281292,-3.070531,21.499588,2.118225,-2.731389,-8.773915,-2.657303,-17.350868,0.000000,183.000000,4.000000,,,,0.000000,4.000000,4.000000,4.000000,4.000000,4.000000,4.000000,4.000000,4.000000,4.000000,4.000000,4.000000,4.000000,4.000000,4.000000,4.000000,4.000000,4.000000,4.000000,4.000000,4.000000,4.000000,4.000000,4.000000,4.000000,4.000000,4.000000,4.000000,4.000000,4.000000,4.000000,4.000000,4.000000,100.000000
1614489165.026296,69.000000,0.000000,7.814768,-7.386957,19.349081,9.051655,3.394559,8.734935,8.348803,13.227503,-43.319412,11.911478,4.935277,5.359746,11.893403,13.794806,-4.505889,9.236212,9.746622,46.758560,50.276600,13.091763,19.862078,11.191992,6.284525,5.050488,13.940678,7.188950,32.760139,8.269953,-2.728657,-9.277962,0.935098,-11.179670,0.000000,192.000000,4.000000,,,,0.000000,4.000000,4.000000,4.000000,4.000000,4.000000,4.000000,4.000000,4.000000,4.000000,4.000000,4.000000,4.000000,4.000000,4.000000,4.000000,4.000000,4.000000,4.000000,4.000000,4.000000,4.000000,4.000000,4.000000,4.000000,4.000000,4.000000,4.000000,4.000000,4.000000,4.000000,4.000000,4.000000,100.000000
1614489165.033945,70.000000,0.000000,4.730031,-8.405211,9.073321,1.863116,-5.839604,6.162098,-3.967238,3.983506,-42.763271,5.232900,6.981624,2.277463,7.266125,10.191267,6.267847,12.816719,9.736876,54.916931,63.559654,18.206877,24.970421,14.257723,14.996189,16.840309,23.157507,3.592017,35.291481,8.261683,-2.725929,-9.268684,0.421342,-9.630029,0.000000,196.000000,4.000000,,,,0.000000,4.000000,4.000000,4.000000,4.000000,4.000000,4.000000,4.000000,4.000000,4.000000,4.000000,4.000000,4.000000,4.000000,4.000000,4.000000,4.000000,4.000000,4.000000,4.000000,4.000000,4.000000,4.000000,4.000000,4.000000,4.000000,4.000000,4.000000,4.000000,4.000000,4.000000,4.000000,4.000000,100.000000
1614489165.041694,71.000000,0.000000,-1.941366,-13.525011,-1.192162,-14.036182,-9.423509,0.002090,-12.681220,1.415420,-46.310253,-6.054384,4.923360,-2.340199,-5.048833,3.001588,4.210297,11.265441,7.163036,43.579964,51.701225,14.598927,13.663399,4.499875,16.519653,10.156802,23.647169,-10.770549,26.538242,3.125216,-5.800126,-8.746595,-8.809849,-20.902451,0.000000,192.000000,4.000000,,,,0.000000,4.000000,4.000000,4.000000,4.000000,4.000000,4.000000,4.000000,4.000000,4.000000,4.000000,4.000000,4.000000,4.000000,4.000000,4.000000,4.000000,4.000000,4.000000,4.000000,4.000000,4.000000,4.000000,4.000000,4.000000,4.000000,4.000000,4.000000,4.000000,4.000000,4.000000,4.000000,4.000000,100.000000
1614489165.049344,72.000000,0.000000,-5.016348,-13.511486,7.526979,-15.047788,-7.362803,-2.562015,-9.591616,3.978107,-50.366505,1.643978,3.379976,-2.337858,-8.120708,4.024228,10.872753,9.202893,5.617411,34.305614,36.777729,13.045866,9.034350,-3.196932,11.374929,0.915876,21.059420,-11.272599,25.998884,0.557988,-6.819967,-9.250669,-12.390782,-29.086676,0.000000,219.000000,4.000000,,,,0.000000,2.000000,4.000000,4.000000,4.000000,4.000000,4.000000,4.000000,4.000000,4.000000,4.000000,4.000000,4.000000,4.000000,4.000000,4.000000,4.000000,4.000000,4.000000,4.000000,4.000000,4.000000,4.000000,4.000000,4.000000,4.000000,4.000000,4.000000,4.000000,4.000000,4.000000,4.000000,4.000000,83.333336
1614489165.057093,73.000000,0.000000,-1.934409,-4.267205,11.622016,-4.263509,-5.304158,-2.559453,-5.479460,2.435668,-45.700756,18.052589,2.350955,1.254223,-1.958741,11.199691,22.143932,9.706511,6.124614,42.476437,39.305054,12.007179,10.050958,-2.168094,5.722529,-0.110681,25.653744,3.610469,32.639553,1.070251,-4.249044,-9.241418,-3.660443,-22.390923,0.000000,135.000000,4.000000,,,,0.000000,2.000000,4.000000,4.000000,4.000000,4.000000,4.000000,4.000000,4.000000,4.000000,4.000000,4.000000,4.000000,4.000000,4.000000,4.000000,4.000000,4.000000,4.000000,4.000000,4.000000,4.000000,4.000000,4.000000,4.000000,4.000000,4.000000,4.000000,4.000000,4.000000,4.000000,4.000000,4.000000,83.333336
1614489165.064742,74.000000,0.000000,-0.394013,0.865267,10.584753,3.945883,-4.786034,-2.044073,-2.397057,1.920411,-38.988388,21.111460,2.861424,1.252969,0.094500,14.778234,23.660250,12.260907,4.067207,49.100628,41.317028,7.379788,1.835778,-1.653106,5.203986,-5.751596,32.807579,15.401730,33.632553,1.069181,-2.193513,-8.719357,2.497064,-15.701865,0.000000,149.000000,4.000000,,,,0.000000,2.000000,4.000000,4.000000,4.000000,4.000000,4.000000,4.000000,4.000000,4.000000,4.000000,4.000000,4.000000,4.000000,4.000000,4.000000,2.000000,4.000000,4.000000,4.000000,4.000000,4.000000,4.000000,4.000000,4.000000,4.000000,4.000000,4.000000,4.000000,4.000000,4.000000,4.000000,4.000000,66.666664
1614489165.072491,75.000000,0.000000,-2.444901,-0.674060,12.625450,4.967578,-4.268427,0.009253,2.220725,6.533875,-37.923759,18.526247,6.961127,1.764536,-0.418415,14.763456,23.636589,14.812749,-0.039424,48.538704,39.737251,4.295485,-6.371186,-2.677094,5.711602,-17.027895,31.749130,14.360687,31.547638,0.555291,-2.704140,-9.223457,2.494567,-16.711803,0.000000,208.000000,4.000000,,,,0.000000,2.000000,4.000000,4.000000,4.000000,4.000000,4.000000,4.000000,4.000000,4.000000,4.000000,4.000000,4.000000,4.000000,4.000000,4.000000,2.000000,4.000000,4.000000,4.000000,4.000000,4.000000,4.000000,4.000000,4.000000,4.000000,4.000000,4.000000,4.000000,4.000000,4.000000,4.000000,4.000000,66.666664
1614489165.080140,76.000000,0.000000,-4.493738,-0.673386,9.535902,1.885687,-4.264158,1.547705,0.167222,5.501701,-40.962757,20.046183,3.364422,1.762772,-1.956458,9.620488,15.920645,10.695372,-2.090667,48.490166,40.723156,4.291189,-6.877635,-2.161596,5.193070,-15.472406,27.614817,7.679660,33.567371,1.067556,-2.701436,-9.214234,3.004893,-16.695093,0.000000,206.000000,4.000000,,,,0.000000,2.000000,4.000000,4.000000,4.000000,4.000000,4.000000,4.000000,4.000000,4.000000,4.000000,4.000000,4.000000,4.000000,4.000000,4.000000,2.000000,4.000000,4.000000,4.000000,4.000000,4.000000,4.000000,4.000000,4.000000,4.000000,4.000000,4.000000,4.000000,4.000000,4.000000,4.000000,4.000000,66.666664
1614489165.087889,77.000000,0.000000,-4.489244,0.352929,3.885340,-2.218763,-5.798356,1.546158,-9.063715,-3.221750,-42.973076,12.846648,-9.459455,-7.469760,-6.057065,-5.260928,-6.146558,-0.597375,-3.114217,31.005779,23.246534,1.722796,-4.819475,-3.185076,4.675056,-12.892831,25.023098,3.056596,33.020985,1.066489,-2.698735,-8.179379,-0.587856,-17.191217,0.000000,171.000000,4.000000,,,,0.000000,2.000000,4.000000,4.000000,4.000000,4.000000,4.000000,4.000000,4.000000,4.000000,4.000000,4.000000,4.000000,4.000000,4.000000,4.000000,2.000000,4.000000,4.000000,4.000000,4.000000,4.000000,4.000000,4.000000,4.000000,4.000000,4.000000,4.000000,4.000000,4.000000,4.000000,4.000000,4.000000,66.666664
1614489165.095538,78.000000,0.000000,-4.484755,-1.185886,-2.785212,-10.934493,-7.843840,1.544611,-12.131574,-9.372375,-44.981384,-6.653378,-17.142303,-19.769983,-8.102291,-17.563358,-23.063488,-10.340367,-5.162385,2.769645,-3.956200,-9.048158,-7.378758,-5.233172,5.696023,-24.674810,20.895512,-2.587487,23.757195,1.065422,-2.696036,-10.735302,-10.843678,-28.456078,0.000000,198.000000,4.000000,,,,0.000000,2.000000,4.000000,4.000000,4.000000,4.000000,4.000000,4.000000,4.000000,4.000000,4.000000,4.000000,4.000000,4.000000,4.000000,4.000000,2.000000,4.000000,4.000000,4.000000,4.000000,4.000000,4.000000,4.000000,4.000000,4.000000,4.000000,4.000000,4.000000,4.000000,4.000000,4.000000,4.000000,66.666664
1614489165.103288,79.000000,0.000000,-4.480270,-3.748802,-15.602940,-26.308174,-7.835996,1.543067,-8.529698,-7.824540,-49.038967,-21.005699,-16.099520,-21.801495,-7.581368,-13.956052,-24.578886,-12.894130,-5.670043,-0.822868,-1.388141,-21.859623,-11.986764,-6.253581,5.177506,-29.778341,12.669488,-7.200284,17.066771,1.064357,-2.693340,-17.391233,-16.986681,-40.222492,0.000000,175.000000,4.000000,,,,0.000000,2.000000,4.000000,4.000000,4.000000,4.000000,4.000000,4.000000,4.000000,4.000000,4.000000,4.000000,4.000000,4.000000,4.000000,4.000000,2.000000,4.000000,4.000000,4.000000,4.000000,4.000000,4.000000,4.000000,4.000000,4.000000,4.000000,4.000000,4.000000,4.000000,4.000000,4.000000,4.000000,66.666664
1614489165.110937,80.000000,0.000000,-4.475790,-4.770695,-23.279644,-34.486992,-7.828160,1.541524,-7.495528,-7.303895,-54.118134,-13.805205,-15.570600,-17.677130,-7.573787,-3.685686,-21.477385,-13.394055,-5.151552,11.485647,21.177349,-24.401865,-11.974777,-5.734506,1.069764,-18.979332,8.041434,-7.193083,17.562525,1.063293,-2.690646,-20.963585,-16.456873,-38.130989,0.000000,185.000000,4.000000,,,,0.000000,2.000000,4.000000,4.000000,4.000000,4.000000,4.000000,4.000000,4.000000,4.000000,4.000000,4.000000,4.000000,4.000000,4.000000,4.000000,2.000000,4.000000,4.000000,4.000000,4.000000,4.000000,4.000000,4.000000,4.000000,4.000000,4.000000,4.000000,4.000000,4.000000,4.000000,4.000000,4.000000,66.666664
1614489165.118686,81.000000,0.000000,-4.471314,-4.253103,-20.179441,-29.324301,-8.333152,1.539982,-8.513674,-8.835052,-53.551197,-0.458067,-16.580671,-17.146631,-8.079033,-0.092256,-16.327702,-12.867841,-5.146400,15.576725,27.310019,-16.685156,-6.321777,-5.215951,-2.521049,-14.857788,9.059033,-6.160249,16.519321,1.062229,-2.687956,-20.429802,-15.927596,-31.426191,0.000000,192.000000,4.000000,,,,0.000000,2.000000,4.000000,4.000000,4.000000,4.000000,4.000000,4.000000,4.000000,4.000000,4.000000,4.000000,4.000000,4.000000,4.000000,4.000000,2.000000,4.000000,4.000000,4.000000,4.000000,4.000000,4.000000,4.000000,4.000000,4.000000,4.000000,4.000000,4.000000,4.000000,4.000000,4.000000,4.000000,66.666664
1614489165.126335,82.000000,0.000000,-4.466843,-4.248850,-17.082338,-26.218054,-8.324819,1.538442,-8.505160,-8.313397,-53.497646,-5.072994,-17.076910,-18.155127,-7.558134,-1.630626,-12.721630,-11.316512,-5.141254,20.176533,23.180145,-13.078728,-5.289814,-5.723556,-2.518528,-15.355750,6.485872,-6.666910,19.579725,1.061167,-2.685268,-19.896551,-16.424488,-33.446049,0.000000,194.000000,4.000000,,,,0.000000,2.000000,4.000000,4.000000,4.000000,4.000000,4.000000,4.000000,4.000000,4.000000,4.000000,4.000000,4.000000,4.000000,4.000000,4.000000,2.000000,4.000000,4.000000,4.000000,4.000000,4.000000,4.000000,4.000000,4.000000,4.000000,4.000000,4.000000,4.000000,4.000000,4.000000,4.000000,4.000000,66.666664
1614489165.134084,83.000000,0.000000,-4.462376,-4.244601,-7.834487,-24.653374,-7.803674,1.536904,-7.983834,-7.792264,-58.572353,-13.273049,-17.059834,-16.598509,-7.550576,-1.116175,-11.683268,-8.228272,-5.648933,28.874306,25.721067,-14.091290,-6.310165,-6.230653,-2.003189,-9.699369,0.838360,-6.147422,33.919121,1.060106,-2.682582,-18.851013,-16.408064,-35.976704,0.000000,190.000000,4.000000,,,,0.000000,2.000000,4.000000,4.000000,4.000000,4.000000,4.000000,4.000000,4.000000,4.000000,4.000000,4.000000,4.000000,4.000000,4.000000,4.000000,2.000000,4.000000,4.000000,4.000000,4.000000,4.000000,4.000000,4.000000,4.000000,4.000000,4.000000,4.000000,4.000000,4.000000,4.000000,4.000000,4.000000,66.666664
1614489165.141733,84.000000,0.000000,-4.457913,-4.240357,6.532321,-19.500517,-7.795870,1.535367,-7.463030,-8.297292,-52.872753,-7.618750,-14.478671,-16.581911,-7.543025,0.423403,-10.133122,-5.655941,-5.130464,26.794149,25.695345,-13.051558,-4.252573,-4.685961,-2.514006,-10.715311,1.863163,-6.141275,39.526226,1.059046,-2.679900,-16.268061,-14.853195,-27.735600,0.000000,206.000000,4.000000,,,,0.000000,2.000000,4.000000,4.000000,4.000000,4.000000,4.000000,4.000000,4.000000,4.000000,4.000000,4.000000,4.000000,4.000000,4.000000,4.000000,2.000000,4.000000,4.000000,4.000000,4.000000,4.000000,4.000000,4.000000,4.000000,4.000000,4.000000,4.000000,4.000000,4.000000,4.000000,4.000000,4.000000,66.666664
1614489165.149582,85.000000,0.000000,-4.453455,-4.748937,7.038610,-17.429733,-7.788074,1.533831,-8.481208,-7.776174,-39.999371,-1.970106,-15.489833,-16.565329,-8.048303,-0.089841,-12.174272,-5.137465,-4.612513,22.151970,18.490164,-12.012865,-7.838064,-2.117172,-2.511492,-20.961006,8.527966,-6.135134,29.230289,1.057987,-2.677220,-15.738972,-12.787060,-19.502735,0.000000,187.000000,4.000000,,,,0.000000,2.000000,4.000000,4.000000,4.000000,4.000000,4.000000,4.000000,4.000000,4.000000,4.000000,4.000000,4.000000,4.000000,4.000000,4.000000,2.000000,4.000000,4.000000,4.000000,4.000000,4.000000,4.000000,4.000000,4.000000,4.000000,4.000000,4.000000,4.000000,4.000000,4.000000,4.000000,4.000000,66.666664
1614489165.157331,86.000000,0.000000,-4.449002,-3.205726,0.364904,-15.873842,-4.703363,1.532298,-8.472727,-4.178654,-46.113216,-0.942495,-17.525625,-11.933379,-7.014613,-0.089751,-7.546713,-1.542584,-7.684824,25.719563,17.958853,-12.000852,-13.471251,-4.679158,-0.457699,-23.504147,10.057900,-6.128998,28.688238,1.056929,-2.674543,-16.236053,-11.748631,-19.996054,0.000000,189.000000,4.000000,,,,0.000000,2.000000,4.000000,4.000000,4.000000,4.000000,4.000000,4.000000,4.000000,4.000000,4.000000,4.000000,4.000000,4.000000,4.000000,4.000000,2.000000,4.000000,4.000000,4.000000,4.000000,4.000000,4.000000,4.000000,4.000000,4.000000,4.000000,4.000000,4.000000,4.000000,4.000000,4.000000,4.000000,66.666664
1614489165.165180,87.000000,0.000000,-4.444553,-1.151239,-0.661101,-10.216943,0.942366,2.043586,-1.284767,-0.584732,-52.733768,12.904601,-1.610664,-2.177856,-4.956316,4.012903,16.050577,8.715369,-8.702780,36.463074,31.274227,-7.886287,-7.303935,-9.802684,-1.995702,-18.352438,7.996560,-6.122869,39.941601,1.055872,-2.671868,-16.219816,-11.736883,-18.950417,0.000000,216.000000,4.000000,,,,0.000000,2.000000,4.000000,4.000000,4.000000,4.000000,4.000000,4.000000,4.000000,4.000000,4.000000,4.000000,4.000000,4.000000,4.000000,4.000000,2.000000,4.000000,4.000000,4.000000,4.000000,4.000000,4.000000,4.000000,4.000000,4.000000,4.000000,4.000000,4.000000,4.000000,4.000000,4.000000,4.000000,66.666664
1614489165.172929,88.000000,0.000000,-4.440109,-0.637267,-2.711722,-5.078521,4.531168,1.528722,4.357543,-0.071326,-40.373344,21.609646,16.852486,2.439707,-3.925719,11.188377,27.829399,13.834859,-1.514590,48.221481,44.063465,-1.724554,4.498241,-9.792881,-3.532168,-10.128958,9.014205,-6.629567,39.388840,1.054816,-2.669196,-16.203598,-13.263608,-15.341722,0.000000,201.000000,4.000000,,,,0.000000,2.000000,4.000000,4.000000,4.000000,4.000000,4.000000,4.000000,4.000000,4.000000,4.000000,4.000000,4.000000,4.000000,4.000000,4.000000,2.000000,4.000000,4.000000,4.000000,4.000000,4.000000,4.000000,4.000000,4.000000,4.000000,4.000000,4.000000,4.000000,4.000000,4.000000,4.000000,4.000000,66.666664
1614489165.180778,89.000000,0.000000,-4.435668,-0.123809,3.444835,-6.099083,2.988175,2.040014,-1.287840,-0.584076,-41.358612,6.716241,10.168966,0.898805,-3.921793,10.151547,9.340031,3.564614,2.589489,40.993774,40.942478,-5.825394,6.032205,-8.757447,3.138031,-6.529085,9.005190,-6.110117,28.580219,0.028120,-2.153707,-16.187393,-16.327267,-22.505867,0.000000,190.000000,4.000000,,,,0.000000,2.000000,4.000000,4.000000,4.000000,4.000000,4.000000,4.000000,4.000000,4.000000,4.000000,4.000000,4.000000,4.000000,4.000000,4.000000,2.000000,4.000000,4.000000,4.000000,4.000000,4.000000,4.000000,4.000000,4.000000,4.000000,4.000000,4.000000,4.000000,4.000000,4.000000,4.000000,4.000000,66.666664
1614489165.188527,90.000000,0.000000,-4.944053,-0.636506,17.287544,-8.144266,-2.143019,2.037974,-8.466039,-0.583492,-56.189049,-7.649449,-10.866844,-3.717478,-3.917872,-4.730399,-7.592386,-8.233823,-2.541306,19.414318,27.055382,-24.793928,0.897967,-10.287151,5.698995,-17.804607,0.278236,-6.616827,24.449076,-2.536011,-3.690014,-16.684027,-19.900682,-35.816696,0.000000,208.000000,4.000000,,,,0.000000,2.000000,4.000000,4.000000,4.000000,4.000000,4.000000,4.000000,4.000000,4.000000,4.000000,4.000000,4.000000,4.000000,4.000000,4.000000,2.000000,4.000000,4.000000,4.000000,4.000000,4.000000,4.000000,4.000000,4.000000,4.000000,4.000000,4.000000,4.000000,4.000000,4.000000,4.000000,4.000000,66.666664
1614489165.196376,91.000000,0.000000,-4.426289,-4.225613,8.039488,-11.725865,-4.192158,-1.553808,-8.457573,-0.582908,-48.953369,-6.616159,-13.932900,-6.790684,-4.426775,-13.443617,-9.123256,-11.302512,-6.641329,18.369263,21.387302,-31.948622,-2.179854,-9.251223,-11.229781,-26.504751,-7.927170,-10.712774,25.450268,-3.046295,-5.737607,-16.667343,-21.419245,-40.396263,0.000000,195.000000,4.000000,,,,0.000000,2.000000,4.000000,4.000000,4.000000,4.000000,4.000000,4.000000,4.000000,4.000000,4.000000,4.000000,4.000000,4.000000,4.000000,4.000000,2.000000,4.000000,4.000000,4.000000,4.000000,4.000000,4.000000,4.000000,4.000000,4.000000,4.000000,4.000000,4.000000,4.000000,4.000000,4.000000,4.000000,66.666664
1614489165.204125,92.000000,0.000000,-3.909042,-8.323952,-9.917270,-14.791062,-4.187965,-5.141998,-7.423474,-0.069505,-35.058262,-6.096722,0.440007,-4.219790,-2.883886,-1.122481,-5.524388,-3.086081,-2.532123,36.812431,32.647964,-10.378211,0.899249,-5.139408,-21.987782,-11.606452,-2.791038,-9.163600,23.886356,-2.017608,-6.757510,-15.625034,-15.243979,-36.766125,0.000000,219.000000,4.000000,,,,0.000000,2.000000,4.000000,4.000000,4.000000,4.000000,4.000000,4.000000,4.000000,4.000000,4.000000,4.000000,4.000000,4.000000,4.000000,4.000000,2.000000,4.000000,4.000000,4.000000,4.000000,4.000000,4.000000,4.000000,4.000000,4.000000,4.000000,4.000000,4.000000,4.000000,4.000000,4.000000,4.000000,66.666664
1614489165.211974,93.000000,0.000000,-4.930774,-7.802807,-0.676583,-12.724990,-5.209419,-6.675317,-8.441691,-2.120717,-40.664230,-6.603446,15.311362,2.451096,1.221562,17.853001,10.891393,10.250339,3.624255,49.596130,46.461472,12.196270,10.641939,-0.518883,-4.017076,5.841053,9.006625,0.589153,25.400930,0.548512,-6.237932,-17.660692,-1.895401,-25.447306,0.000000,202.000000,4.000000,,,,0.000000,2.000000,4.000000,4.000000,4.000000,4.000000,4.000000,4.000000,4.000000,4.000000,4.000000,4.000000,4.000000,4.000000,4.000000,4.000000,2.000000,4.000000,4.000000,4.000000,4.000000,4.000000,4.000000,4.000000,4.000000,4.000000,4.000000,4.000000,4.000000,4.000000,4.000000,4.000000,4.000000,66.666664
1614489165.219724,94.000000,0.000000,-4.413023,-4.718081,13.683067,-8.096880,-0.076004,-5.643001,-8.946071,-5.195519,-45.751770,2.121106,21.449896,6.038389,3.784443,22.450533,28.829220,19.983677,6.184733,58.264484,47.953472,12.184073,19.862066,3.071379,15.986941,7.886493,15.664285,6.229589,36.144760,1.060784,-4.693233,-16.617390,6.824442,-7.473140,0.000000,181.000000,4.000000,,,,0.000000,2.000000,4.000000,4.000000,4.000000,4.000000,4.000000,4.000000,4.000000,4.000000,4.000000,4.000000,4.000000,4.000000,4.000000,4.000000,2.000000,4.000000,4.000000,4.000000,4.000000,4.000000,4.000000,4.000000,4.000000,4.000000,4.000000,4.000000,4.000000,4.000000,4.000000,4.000000,4.000000,66.666664
1614489165.227572,95.000000,0.000000,0.206775,-4.200542,14.182205,-6.037501,11.206123,-2.047614,-8.424304,-0.574939,-39.039352,8.785651,20.402805,5.006709,3.267838,17.299877,23.159365,22.527796,5.665728,61.795963,46.879879,6.018044,19.329384,5.119590,17.509417,7.365787,16.161442,4.684898,41.236820,1.572544,-2.637257,-6.857183,6.304798,0.739461,0.000000,190.000000,4.000000,,,,0.000000,2.000000,4.000000,4.000000,4.000000,4.000000,4.000000,4.000000,4.000000,4.000000,4.000000,4.000000,4.000000,4.000000,4.000000,4.000000,2.000000,4.000000,4.000000,4.000000,4.000000,4.000000,4.000000,4.000000,4.000000,4.000000,4.000000,4.000000,4.000000,4.000000,4.000000,4.000000,4.000000,66.666664
1614489165.235322,96.000000,0.000000,3.796312,-4.709163,18.270588,-6.544284,14.271840,1.544177,-7.390239,7.630764,-36.949032,6.725584,18.331121,5.001703,3.264570,12.154371,6.213128,17.889885,5.660062,46.349552,49.397099,3.960743,10.592106,6.140111,13.902163,1.204574,16.145281,4.680213,30.939175,1.570971,-2.634620,-0.183659,5.785672,-3.876663,8064.000000,0.000000,4.000000,,,,0.000000,2.000000,4.000000,4.000000,4.000000,4.000000,4.000000,4.000000,4.000000,4.000000,4.000000,4.000000,4.000000,4.000000,4.000000,4.000000,2.000000,4.000000,4.000000,4.000000,4.000000,4.000000,4.000000,4.000000,4.000000,4.000000,4.000000,4.000000,4.000000,4.000000,4.000000,4.000000,4.000000,66.666664
1614489165.243171,97.000000,0.000000,1.741233,-4.704453,16.201035,-9.101842,8.616543,2.055453,-7.895669,6.084671,-38.963364,4.154756,17.799969,5.509521,3.774126,9.065294,-0.459752,7.615584,6.167223,29.380125,42.681038,-1.684243,-0.187717,1.005766,11.324158,-17.258169,16.641954,7.752456,25.267210,-2.020343,-3.144806,-2.234757,7.318348,-4.385607,8064.000000,0.000000,4.000000,,,,0.000000,2.000000,4.000000,4.000000,4.000000,4.000000,4.000000,4.000000,4.000000,4.000000,4.000000,4.000000,4.000000,4.000000,4.000000,4.000000,2.000000,4.000000,4.000000,4.000000,4.000000,4.000000,4.000000,4.000000,4.000000,4.000000,4.000000,4.000000,4.000000,4.000000,4.000000,4.000000,4.000000,66.666664
1614489165.250920,98.000000,0.000000,-0.824610,-1.622826,-1.251064,-10.118382,6.043824,1.027757,-8.400594,-1.100900,-36.360298,5.176242,17.269348,5.504012,3.257532,7.004947,-0.459292,0.941302,5.648235,27.812284,27.766560,-8.862046,-6.341375,-9.251650,7.210269,-29.548603,16.625313,8.770345,31.908609,-5.095246,-2.628840,0.331580,4.234107,-3.868401,8064.000000,0.000000,4.000000,,,,0.000000,2.000000,4.000000,4.000000,4.000000,4.000000,4.000000,4.000000,4.000000,4.000000,4.000000,4.000000,4.000000,4.000000,4.000000,4.000000,2.000000,4.000000,4.000000,4.000000,4.000000,4.000000,4.000000,4.000000,4.000000,4.000000,4.000000,4.000000,4.000000,4.000000,4.000000,4.000000,4.000000,66.666664
1614489165.258569,99.000000,0.000000,-0.823786,2.481361,-8.429300,-10.108263,7.063421,3.078011,-1.212706,2.489944,-34.272655,5.683887,16.739260,4.985687,3.254274,5.972301,1.079629,1.453181,5.642587,28.810112,19.533665,-10.391645,-6.335034,-8.729578,5.151777,-29.006233,16.095867,8.248755,29.825418,-3.551689,-2.626212,8.536377,-0.898332,-17.710686,8064.000000,0.000000,4.000000,,,,0.000000,2.000000,4.000000,4.000000,4.000000,4.000000,4.000000,4.000000,4.000000,4.000000,4.000000,4.000000,4.000000,4.000000,4.000000,4.000000,2.000000,4.000000,4.000000,4.000000,4.000000,4.000000,4.000000,4.000000,4.000000,4.000000,4.000000,4.000000,4.000000,4.000000,4.000000,4.000000,4.000000,66.666664
1614489165.266318,100.000000,0.000000,-0.822962,3.504521,-7.395230,-10.098155,7.056357,5.126215,9.557737,15.307967,-34.238384,7.729485,15.696878,4.467881,2.738199,4.940687,3.642652,0.938907,5.124124,26.730021,20.026953,-10.894074,-3.251776,6.663767,5.146626,-27.438766,16.079771,8.240505,25.180208,-2.009676,-3.136406,8.015020,-2.435896,-33.590412,8064.000000,0.000000,4.000000,,,,0.000000,2.000000,4.000000,4.000000,4.000000,4.000000,4.000000,4.000000,4.000000,4.000000,4.000000,4.000000,4.000000,4.000000,4.000000,4.000000,2.000000,4.000000,4.000000,4.000000,4.000000,4.000000,4.000000,4.000000,4.000000,4.000000,4.000000,4.000000,4.000000,4.000000,4.000000,4.000000,4.000000,66.666664
1614489165.273967,101.000000,0.000000,-0.822139,2.988196,-4.310912,-10.088057,6.023660,5.633909,9.035359,17.343941,-34.204147,8.747396,15.681182,4.463413,3.248281,4.935747,6.203112,0.937968,5.118999,26.703291,21.032566,-10.370359,-2.222883,11.785309,4.628658,-28.436968,16.063692,8.232265,34.385796,-3.033307,-2.107628,0.314697,-1.407819,-27.915794,8064.000000,0.000000,4.000000,,,,0.000000,2.000000,4.000000,4.000000,4.000000,4.000000,4.000000,4.000000,4.000000,4.000000,4.000000,4.000000,4.000000,4.000000,4.000000,4.000000,2.000000,4.000000,4.000000,4.000000,4.000000,4.000000,4.000000,4.000000,4.000000,4.000000,4.000000,4.000000,4.000000,4.000000,4.000000,4.000000,4.000000,66.666664
1614489165.281716,102.000000,0.000000,-0.821317,2.985208,11.078014,-10.077969,6.530457,5.115455,-1.230086,2.967623,-36.734043,5.661726,14.127039,5.484591,3.245033,7.494914,6.196908,2.475492,5.626701,26.676588,19.473072,-8.821527,-3.759121,1.004292,4.624030,-28.921352,15.534807,8.736853,36.915512,-0.466171,-0.054239,-2.249720,-1.406411,-10.451982,8064.000000,0.000000,4.000000,,,,0.000000,2.000000,4.000000,4.000000,4.000000,4.000000,4.000000,4.000000,4.000000,4.000000,4.000000,4.000000,4.000000,4.000000,4.000000,4.000000,2.000000,4.000000,4.000000,4.000000,4.000000,4.000000,4.000000,4.000000,4.000000,4.000000,4.000000,4.000000,4.000000,4.000000,4.000000,4.000000,4.000000,66.666664
1614489165.289365,103.000000,0.000000,-0.820496,3.495043,18.246424,-10.067890,6.523926,5.110340,-5.331420,-8.830216,-42.851154,2.066320,7.959066,3.940645,2.728968,5.436136,2.600968,-0.603907,5.108254,26.137091,24.068983,-9.838347,2.398484,-3.612097,5.132226,-18.636021,16.032093,8.728116,22.519625,1.585577,1.484277,-0.196188,-1.917825,-8.903069,8064.000000,0.000000,4.000000,,,,0.000000,2.000000,4.000000,4.000000,4.000000,4.000000,4.000000,4.000000,4.000000,4.000000,4.000000,4.000000,4.000000,4.000000,4.000000,4.000000,2.000000,4.000000,4.000000,4.000000,4.000000,4.000000,4.000000,4.000000,4.000000,4.000000,4.000000,4.000000,4.000000,4.000000,4.000000,4.000000,4.000000,66.666664
1614489165.297114,104.000000,0.000000,-0.819675,2.978727,0.279460,-10.057823,6.517403,5.105229,-3.787627,-5.231643,-45.372406,0.012972,5.899825,0.859781,3.751880,1.328136,4.136828,0.422338,5.615966,31.751980,40.455170,-6.751586,13.678137,2.545362,5.639915,3.433898,16.016062,5.129644,14.804796,1.071171,0.969972,-2.760095,-1.403087,-19.663397,8064.000000,0.000000,4.000000,,,,0.000000,2.000000,4.000000,4.000000,4.000000,4.000000,4.000000,4.000000,4.000000,4.000000,4.000000,4.000000,4.000000,4.000000,4.000000,4.000000,2.000000,4.000000,4.000000,4.000000,4.000000,4.000000,4.000000,4.000000,4.000000,4.000000,4.000000,4.000000,4.000000,4.000000,4.000000,4.000000,4.000000,66.666664
1614489165.304764,105.000000,0.000000,-0.818855,2.975749,-9.977230,-10.047765,5.998065,5.100124,-4.296660,4.517179,-45.839855,0.012959,18.201616,3.935844,7.337872,13.121680,15.927564,12.216787,10.738555,48.130482,61.440357,6.588499,17.767023,6.132560,4.608634,20.866362,15.487225,1.534771,17.866915,1.070100,0.969002,-5.834258,-1.401684,-23.746298,8064.000000,0.000000,4.000000,,,,0.000000,2.000000,4.000000,4.000000,4.000000,4.000000,4.000000,4.000000,4.000000,4.000000,4.000000,4.000000,4.000000,4.000000,4.000000,4.000000,2.000000,4.000000,4.000000,4.000000,4.000000,4.000000,4.000000,4.000000,4.000000,4.000000,4.000000,4.000000,4.000000,4.000000,4.000000,4.000000,4.000000,66.666664
1614489165.312513,106.000000,0.000000,-0.818037,2.972773,-4.839048,-10.550538,6.504887,5.095024,-5.318005,8.615226,-47.332478,7.192433,28.952646,14.188318,10.407456,29.005995,26.168047,17.845596,16.368843,63.979790,67.019943,14.274219,17.236435,8.177710,5.116846,22.896778,16.497379,0.507595,17.336227,1.069030,0.968033,-0.187398,-1.400282,-19.619986,8064.000000,0.000000,4.000000,,,,0.000000,2.000000,4.000000,4.000000,4.000000,4.000000,4.000000,4.000000,4.000000,4.000000,4.000000,4.000000,4.000000,4.000000,4.000000,4.000000,2.000000,4.000000,4.000000,4.000000,4.000000,4.000000,4.000000,4.000000,4.000000,4.000000,4.000000,4.000000,4.000000,4.000000,4.000000,4.000000,4.000000,66.666664
1614489165.320162,107.000000,0.000000,-0.817219,3.482620,-4.321388,-8.488705,7.524023,5.089929,-4.799866,11.170712,-41.131298,15.390368,20.718565,15.712592,10.909870,22.310322,21.013674,9.109802,14.301191,52.633759,50.542667,2.465072,13.629455,7.656711,7.675831,10.053368,19.044983,0.507088,16.806070,1.067961,0.967065,2.889713,-1.398882,-19.087545,8064.000000,0.000000,4.000000,,,,0.000000,2.000000,4.000000,4.000000,4.000000,4.000000,4.000000,4.000000,4.000000,4.000000,4.000000,4.000000,4.000000,4.000000,4.000000,4.000000,2.000000,4.000000,4.000000,4.000000,4.000000,4.000000,4.000000,4.000000,4.000000,4.000000,4.000000,4.000000,4.000000,4.000000,4.000000,4.000000,4.000000,66.666664
1614489165.327911,108.000000,0.000000,-0.816401,2.966317,1.836779,-6.428934,5.465217,5.084839,-4.282246,10.133901,-33.397861,15.374978,8.902975,3.902008,9.360498,2.288011,7.659326,1.921205,9.158686,27.452919,27.415199,-19.075853,0.795313,0.982388,8.693796,-8.931045,20.051580,1.532222,17.302086,1.066893,0.966098,-4.805485,-1.397483,-20.094099,8064.000000,0.000000,4.000000,,,,0.000000,2.000000,4.000000,4.000000,4.000000,4.000000,4.000000,4.000000,4.000000,4.000000,4.000000,4.000000,4.000000,4.000000,4.000000,4.000000,2.000000,4.000000,4.000000,4.000000,4.000000,4.000000,4.000000,4.000000,4.000000,4.000000,4.000000,4.000000,4.000000,4.000000,4.000000,4.000000,4.000000,66.666664
1614489165.335560,109.000000,0.000000,-0.815585,2.450531,15.168276,-6.422505,6.485393,5.079754,-6.842066,-0.132643,-37.979847,11.769860,5.304328,-7.383946,6.787035,-5.919405,-4.143205,1.919284,8.636706,27.425467,19.182657,-27.261906,-9.461893,-3.121159,6.121000,-21.742626,19.518707,3.581972,16.771963,1.065826,0.965132,-7.877602,-1.396085,-20.074005,8064.000000,0.000000,4.000000,,,,0.000000,2.000000,4.000000,4.000000,4.000000,4.000000,4.000000,4.000000,4.000000,4.000000,4.000000,4.000000,4.000000,4.000000,4.000000,4.000000,2.000000,4.000000,4.000000,4.000000,4.000000,4.000000,4.000000,4.000000,4.000000,4.000000,4.000000,4.000000,4.000000,4.000000,4.000000,4.000000,4.000000,66.666664
1614489165.343309,110.000000,0.000000,-0.814769,3.986542,14.127466,-6.416083,14.171215,5.074674,-6.835224,-1.670972,-40.505970,13.809372,6.324665,-5.838100,7.293069,-2.836563,-6.703165,2.430185,9.653710,40.731373,28.394243,-12.875670,-2.785764,-0.041115,4.576417,-19.156782,19.499189,3.065569,19.319294,1.064760,0.964167,0.335404,-1.394689,-19.541111,8064.000000,0.000000,4.000000,,,,0.000000,2.000000,4.000000,4.000000,4.000000,4.000000,4.000000,4.000000,4.000000,4.000000,4.000000,4.000000,4.000000,4.000000,4.000000,4.000000,2.000000,4.000000,4.000000,4.000000,4.000000,4.000000,4.000000,4.000000,4.000000,4.000000,4.000000,4.000000,4.000000,4.000000,4.000000,4.000000,4.000000,66.666664
1614489165.350958,111.000000,0.000000,-0.813955,2.956914,1.292826,-5.896846,15.182685,5.069600,-0.674543,13.715314,-29.183413,16.359665,16.574751,7.501071,10.875519,8.961145,6.636872,9.607243,9.131236,43.254745,41.186363,8.675667,6.447791,2.010209,5.084661,-4.265830,19.479691,1.011222,19.812794,1.063695,1.476023,2.899171,-1.393294,-18.495928,8064.000000,0.000000,4.000000,,,,0.000000,2.000000,4.000000,4.000000,4.000000,4.000000,4.000000,4.000000,4.000000,4.000000,4.000000,4.000000,4.000000,4.000000,4.000000,4.000000,2.000000,4.000000,4.000000,4.000000,4.000000,4.000000,4.000000,4.000000,4.000000,4.000000,4.000000,4.000000,4.000000,4.000000,4.000000,4.000000,4.000000,66.666664
1614489165.358707,112.000000,0.000000,-0.813141,-2.687068,-7.939236,-6.403770,5.936733,5.064530,5.479978,16.265701,-26.590126,15.317665,29.891510,17.237160,13.941566,25.875261,25.604593,23.956610,8.096464,52.955078,48.324661,17.384939,7.979805,0.982557,4.566756,8.046128,19.460211,1.010210,13.126315,1.062631,-0.576735,-3.770395,-1.391901,-18.990253,8064.000000,0.000000,4.000000,,,,0.000000,2.000000,4.000000,4.000000,4.000000,4.000000,4.000000,4.000000,4.000000,4.000000,4.000000,4.000000,4.000000,4.000000,4.000000,4.000000,2.000000,4.000000,4.000000,4.000000,4.000000,4.000000,4.000000,4.000000,4.000000,4.000000,4.000000,4.000000,4.000000,4.000000,4.000000,4.000000,4.000000,66.666664
1614489165.366357,113.000000,0.000000,-0.812327,-3.197202,-3.828732,-6.397366,1.315412,5.059465,7.012959,0.864820,-36.307125,15.815167,24.220592,12.091718,14.440446,24.310925,26.604630,29.060858,9.114009,63.671356,49.814800,12.239350,8.484645,0.981575,5.587831,10.089364,19.440750,1.522021,9.010625,1.061569,-2.627440,-5.817907,-1.390509,-19.996904,8064.000000,0.000000,4.000000,,,,0.000000,2.000000,4.000000,4.000000,4.000000,4.000000,4.000000,4.000000,4.000000,4.000000,4.000000,4.000000,4.000000,4.000000,4.000000,4.000000,2.000000,4.000000,4.000000,4.000000,4.000000,4.000000,4.000000,4.000000,4.000000,4.000000,4.000000,4.000000,4.000000,4.000000,4.000000,4.000000,4.000000,66.666664
1614489165.374106,114.000000,0.000000,-0.811515,2.447021,11.559711,-4.339687,3.365378,5.054406,7.005947,-6.315532,-38.834923,14.773711,1.632269,-2.279349,12.374723,3.260973,12.731872,11.083079,9.617715,42.069221,46.688061,7.611726,10.014622,1.493414,8.146345,5.976711,19.421309,1.007678,11.052896,1.060507,-3.137633,-4.786448,-1.389119,-16.387163,8064.000000,0.000000,4.000000,,,,0.000000,2.000000,4.000000,4.000000,4.000000,4.000000,4.000000,4.000000,4.000000,4.000000,4.000000,4.000000,4.000000,4.000000,4.000000,4.000000,2.000000,4.000000,4.000000,4.000000,4.000000,4.000000,4.000000,4.000000,4.000000,4.000000,4.000000,4.000000,4.000000,4.000000,4.000000,4.000000,4.000000,66.666664
1614489165.381755,115.000000,0.000000,-0.810704,1.418933,15.650716,-2.284065,3.362013,5.049352,6.486120,-3.745113,-36.744804,8.092271,-10.164235,-8.430915,6.721323,-9.562801,4.514012,-6.876722,8.069635,17.924589,37.923424,6.578473,9.491787,1.491920,9.163840,3.919452,19.401888,1.006670,13.093125,1.059447,-2.621675,-6.320123,-1.387730,-15.345136,8064.000000,0.000000,4.000000,,,,0.000000,2.000000,4.000000,4.000000,4.000000,4.000000,4.000000,4.000000,4.000000,4.000000,4.000000,4.000000,4.000000,4.000000,4.000000,4.000000,2.000000,4.000000,4.000000,4.000000,4.000000,4.000000,4.000000,4.000000,4.000000,4.000000,4.000000,4.000000,4.000000,4.000000,4.000000,4.000000,4.000000,66.666664
1614489165.389604,116.000000,0.000000,-0.809893,-4.223512,0.763270,-3.820242,2.333010,5.044302,2.889890,-3.741368,-43.887547,3.981615,-0.923301,-1.755818,2.099217,-2.886572,7.586421,4.925026,6.010284,29.188717,33.782936,6.059074,10.507936,1.490428,8.641856,4.428353,19.382486,1.005664,17.695417,1.058387,-2.619053,-4.262521,-1.386342,-25.586201,8064.000000,0.000000,4.000000,,,,0.000000,2.000000,4.000000,4.000000,4.000000,4.000000,4.000000,4.000000,4.000000,4.000000,4.000000,4.000000,4.000000,4.000000,4.000000,4.000000,2.000000,4.000000,4.000000,4.000000,4.000000,4.000000,4.000000,4.000000,4.000000,4.000000,4.000000,4.000000,4.000000,4.000000,4.000000,4.000000,4.000000,66.666664
1614489165.397353,117.000000,0.000000,-0.809083,-5.244929,-12.570827,-6.893345,2.330677,5.039258,3.399821,-5.276089,-49.484684,3.977633,14.462237,6.963887,4.148400,15.577853,16.296783,32.099590,9.594017,50.697990,48.620949,7.078656,16.651274,1.488938,8.633214,10.577771,19.363104,-1.046624,22.805927,1.057329,-2.616434,-7.335181,-1.384956,-34.278564,8064.000000,0.000000,4.000000,,,,0.000000,2.000000,4.000000,4.000000,4.000000,4.000000,4.000000,4.000000,4.000000,4.000000,4.000000,4.000000,4.000000,4.000000,4.000000,4.000000,2.000000,4.000000,4.000000,4.000000,4.000000,4.000000,4.000000,4.000000,4.000000,4.000000,4.000000,4.000000,4.000000,4.000000,4.000000,4.000000,4.000000,66.666664
1614489165.405202,118.000000,0.000000,-0.808274,-4.214043,-13.071075,-10.476195,2.841167,5.034219,9.550267,-4.757992,-49.435200,4.486476,23.678545,8.495384,9.272456,31.972532,26.536896,37.708515,14.199808,56.288315,65.495407,9.635680,18.173084,0.974629,8.624580,15.695398,19.856562,-2.584039,23.295940,1.056272,-2.613818,-17.071436,-1.383571,-30.141720,8064.000000,0.000000,4.000000,,,,0.000000,2.000000,4.000000,4.000000,4.000000,4.000000,4.000000,4.000000,4.000000,4.000000,4.000000,4.000000,4.000000,4.000000,4.000000,4.000000,2.000000,4.000000,4.000000,4.000000,4.000000,4.000000,4.000000,4.000000,4.000000,4.000000,4.000000,4.000000,4.000000,4.000000,4.000000,4.000000,4.000000,66.666664
1614489165.412951,119.000000,0.000000,-0.807466,-3.184188,2.839431,-9.952899,3.351146,5.029184,8.515076,-4.240413,-49.385765,4.481989,18.526661,7.974069,10.288825,24.248251,22.407795,21.773371,8.544582,42.898693,52.096577,5.523480,10.975425,0.973654,9.128777,1.833549,18.298243,-2.581455,21.221363,1.055215,-2.611204,-15.003082,-0.869367,-25.496195,8064.000000,0.000000,4.000000,,,,0.000000,2.000000,4.000000,4.000000,4.000000,4.000000,4.000000,4.000000,4.000000,4.000000,4.000000,4.000000,4.000000,4.000000,4.000000,4.000000,2.000000,4.000000,4.000000,4.000000,4.000000,4.000000,4.000000,4.000000,4.000000,4.000000,4.000000,4.000000,4.000000,4.000000,4.000000,4.000000,4.000000,66.666664
1614489165.420800,120.000000,0.000000,-1.319479,-1.129722,22.836592,-6.866023,2.834975,5.024155,-4.826772,-4.236173,-44.208176,3.451866,-0.466225,8.991735,6.175972,-0.904202,-2.742817,6.366982,-7.361398,20.291693,23.326530,-6.789735,-2.368884,1.485501,8.094007,-23.296490,16.228662,-2.578873,21.200142,1.566981,-2.608593,-3.193208,-1.381318,-27.009159,8064.000000,0.000000,4.000000,,,,0.000000,2.000000,4.000000,4.000000,4.000000,4.000000,4.000000,4.000000,4.000000,4.000000,4.000000,4.000000,4.000000,4.000000,4.000000,4.000000,2.000000,4.000000,4.000000,4.000000,4.000000,4.000000,4.000000,4.000000,4.000000,4.000000,4.000000,4.000000,4.000000,4.000000,4.000000,4.000000,4.000000,66.666664
1614489165.428549,121.000000,0.000000,-0.805339,-0.102951,14.095806,-9.423260,2.319319,5.019131,-10.462972,-4.744757,-34.933197,1.397132,-14.311913,8.982744,3.092873,-13.210990,-22.740074,-1.331693,-14.020703,14.630376,16.123718,-14.988074,-10.571644,0.971195,5.521810,-31.478321,15.186792,-2.063474,21.178942,1.052593,-2.605984,-0.113091,-1.379936,-26.982151,8064.000000,0.000000,4.000000,,,,0.000000,2.000000,4.000000,4.000000,4.000000,4.000000,4.000000,4.000000,4.000000,4.000000,4.000000,4.000000,4.000000,4.000000,4.000000,4.000000,2.000000,4.000000,4.000000,4.000000,4.000000,4.000000,4.000000,4.000000,4.000000,4.000000,4.000000,4.000000,4.000000,4.000000,4.000000,4.000000,4.000000,66.666664
1614489165.436398,122.000000,0.000000,1.246749,-0.615669,-13.610597,-13.003580,4.368282,5.014112,0.316723,-4.227192,-35.923904,0.370094,-7.630934,8.460940,4.115421,-6.531112,-19.127590,-0.817541,-3.237452,34.615746,24.825542,-7.280778,-1.843123,1.483044,5.516288,-20.164791,16.197247,-1.548590,21.670584,0.538720,-2.603378,-2.164260,-0.352915,-26.442348,8064.000000,0.000000,4.000000,,,,0.000000,2.000000,4.000000,4.000000,4.000000,4.000000,4.000000,4.000000,4.000000,4.000000,4.000000,4.000000,4.000000,4.000000,4.000000,4.000000,2.000000,4.000000,4.000000,4.000000,4.000000,4.000000,4.000000,4.000000,4.000000,4.000000,4.000000,4.000000,4.000000,4.000000,4.000000,4.000000,4.000000,66.666664
1614489165.444147,123.000000,0.000000,3.296784,-0.615053,-13.084166,-8.375192,6.928016,5.009098,11.085636,-1.146042,-41.016186,0.369724,5.197210,10.503761,7.188229,3.219009,-8.852053,5.849943,8.047837,47.914463,29.928923,1.444451,14.568976,5.071305,7.562054,-11.426678,15.668229,-6.675247,19.597630,1.563822,-2.600775,-1.136455,-4.455127,-25.903084,8064.000000,0.000000,4.000000,,,,0.000000,2.000000,4.000000,4.000000,4.000000,4.000000,4.000000,4.000000,4.000000,4.000000,4.000000,4.000000,4.000000,4.000000,4.000000,4.000000,2.000000,4.000000,4.000000,4.000000,4.000000,4.000000,4.000000,4.000000,4.000000,4.000000,4.000000,4.000000,4.000000,4.000000,4.000000,4.000000,4.000000,66.666664
1614489165.451996,124.000000,0.000000,2.780667,-0.614438,5.390457,-6.315534,3.844165,5.004089,8.510448,-1.144896,-40.462349,0.882175,8.781756,12.544539,6.155400,7.318354,-8.330380,7.382555,9.578251,41.712704,30.411814,-3.685198,12.503125,8.655977,9.605774,-12.440892,9.498714,-13.848059,8.808802,0.536617,-2.598174,-4.212242,-13.681440,-26.390001,8064.000000,0.000000,4.000000,,,,0.000000,2.000000,4.000000,4.000000,4.000000,4.000000,4.000000,4.000000,4.000000,4.000000,4.000000,4.000000,4.000000,4.000000,4.000000,4.000000,2.000000,4.000000,4.000000,4.000000,4.000000,4.000000,4.000000,4.000000,4.000000,4.000000,4.000000,4.000000,4.000000,4.000000,4.000000,4.000000,4.000000,66.666664
1614489165.459745,125.000000,0.000000,2.777886,-0.613824,5.385066,-10.924603,-0.262243,4.999084,2.860912,-0.630930,-43.498810,0.881293,8.260154,10.480713,3.585142,7.311036,-9.347691,5.323890,7.517390,35.004322,27.817299,-12.912282,-0.842711,9.160142,8.570527,-15.505375,4.873831,-13.834210,-1.969238,-4.592124,-2.595576,-9.336234,-17.257504,-28.927715,8064.000000,0.000000,4.000000,,,,0.000000,2.000000,4.000000,4.000000,4.000000,4.000000,4.000000,4.000000,4.000000,4.000000,4.000000,4.000000,4.000000,4.000000,4.000000,4.000000,2.000000,4.000000,4.000000,4.000000,4.000000,4.000000,4.000000,4.000000,4.000000,4.000000,4.000000,4.000000,4.000000,4.000000,4.000000,4.000000,4.000000,66.666664
1614489165.467594,126.000000,0.000000,2.775108,-0.613210,-3.338268,-6.298294,1.276480,4.994085,2.858051,5.010726,-51.660439,0.367591,10.303176,7.906130,2.555916,6.278083,-7.799882,5.318566,6.484232,37.020603,29.840765,-12.899370,-2.380330,9.150981,2.408111,-14.464229,6.407419,-12.794735,-0.941627,-6.638814,-2.592980,-6.762795,-14.676143,-29.411608,8064.000000,0.000000,4.000000,,,,0.000000,2.000000,4.000000,4.000000,4.000000,4.000000,4.000000,4.000000,4.000000,4.000000,4.000000,4.000000,4.000000,4.000000,4.000000,4.000000,2.000000,4.000000,4.000000,4.000000,4.000000,4.000000,4.000000,4.000000,4.000000,4.000000,4.000000,4.000000,4.000000,4.000000,4.000000,4.000000,4.000000,66.666664
1614489165.475343,127.000000,0.000000,2.772333,-0.612597,-1.796468,4.477235,2.300845,4.989091,3.880834,5.005715,-54.172882,0.880044,12.856975,8.411044,3.066180,7.810267,-7.279262,5.826068,6.477748,43.137428,39.554512,-9.296727,2.750255,7.603369,-2.209682,-8.295918,8.965115,-16.371685,4.700340,-3.555252,-2.590387,-4.704751,-12.610185,-25.279633,8064.000000,0.000000,4.000000,,,,0.000000,2.000000,4.000000,4.000000,4.000000,4.000000,4.000000,4.000000,4.000000,4.000000,4.000000,4.000000,4.000000,4.000000,4.000000,4.000000,2.000000,4.000000,4.000000,4.000000,4.000000,4.000000,4.000000,4.000000,4.000000,4.000000,4.000000,4.000000,4.000000,4.000000,4.000000,4.000000,4.000000,66.666664
1614489165.483192,0.000000,0.000000,2.769561,-0.611984,-0.769030,3.959937,-0.778379,4.984102,2.851312,3.462248,-49.503323,5.494548,13.356938,8.915454,3.063114,9.340919,-7.784802,9.922807,5.445629,49.248135,45.668804,-8.774610,4.798787,5.031663,0.869451,-2.133776,8.443329,-14.816851,6.234101,-2.013236,-2.587797,-5.725687,-12.084754,-21.664608,0.000000,197.000000,4.000000,,,,0.000000,2.000000,4.000000,4.000000,4.000000,4.000000,4.000000,4.000000,4.000000,4.000000,4.000000,4.000000,4.000000,4.000000,4.000000,4.000000,2.000000,4.000000,4.000000,4.000000,4.000000,4.000000,4.000000,4.000000,4.000000,4.000000,4.000000,4.000000,4.000000,4.000000,4.000000,4.000000,4.000000,66.666664
1614489165.490941,1.000000,0.000000,3.279612,-0.611372,-0.768261,-2.197869,-1.290421,4.979118,2.848461,10.638273,-48.940998,9.591618,13.343581,8.393718,3.060051,10.870039,-7.777018,16.066730,5.440183,50.224529,47.161598,-9.791476,8.896552,5.539452,4.458325,-0.080360,7.922065,-10.699470,5.715046,-2.524043,-2.072389,-4.181500,-12.072669,-22.155764,0.000000,196.000000,4.000000,,,,0.000000,2.000000,4.000000,4.000000,4.000000,4.000000,4.000000,4.000000,4.000000,4.000000,4.000000,4.000000,4.000000,4.000000,4.000000,4.000000,2.000000,4.000000,4.000000,4.000000,4.000000,4.000000,4.000000,4.000000,4.000000,4.000000,4.000000,4.000000,4.000000,4.000000,4.000000,4.000000,4.000000,66.666664
1614489165.498591,2.000000,0.000000,2.763511,-0.610761,2.309430,-3.221312,-0.776310,4.974139,2.845613,10.114815,-50.430519,6.505103,10.766135,8.385324,3.056991,8.295066,-7.769241,13.486561,5.947564,44.533279,47.114437,-10.294505,6.836374,5.533912,5.479507,-0.593100,8.426963,-10.175950,6.222152,-2.521519,-3.608778,-1.100395,-13.599058,-22.646429,0.000000,182.000000,4.000000,,,,0.000000,2.000000,4.000000,4.000000,4.000000,4.000000,4.000000,4.000000,4.000000,4.000000,4.000000,4.000000,4.000000,4.000000,4.000000,4.000000,2.000000,4.000000,4.000000,4.000000,4.000000,4.000000,4.000000,4.000000,4.000000,4.000000,4.000000,4.000000,4.000000,4.000000,4.000000,4.000000,4.000000,66.666664
1614489165.506340,3.000000,0.000000,3.273568,-0.610150,1.281480,-1.679629,-0.262713,4.969165,2.842767,-1.690172,-38.072399,3.934496,7.678446,8.376939,3.053934,1.107284,-7.761472,3.216664,1.839052,34.745155,35.272449,-12.335493,-4.965334,-0.112647,4.448387,-10.336097,8.418536,-6.576030,6.215930,-3.544638,-6.169271,-3.663397,-15.636741,-23.136602,0.000000,165.000000,4.000000,,,,0.000000,2.000000,4.000000,4.000000,4.000000,4.000000,4.000000,4.000000,4.000000,4.000000,4.000000,4.000000,4.000000,4.000000,4.000000,4.000000,2.000000,4.000000,4.000000,4.000000,4.000000,4.000000,4.000000,4.000000,4.000000,4.000000,4.000000,4.000000,4.000000,4.000000,4.000000,4.000000,4.000000,66.666664
1614489165.513989,4.000000,0.000000,3.270295,-0.609540,-2.309546,-2.703591,1.788831,5.477016,3.352745,-1.175661,-27.777914,5.469023,5.106665,8.881382,3.050880,-5.047669,-8.266531,-2.940399,-6.880736,24.454000,15.237177,-17.451363,-13.678318,-6.266381,0.854195,-27.248838,8.410118,-6.569454,6.209714,-6.105196,-6.675923,-8.275119,-16.133924,-22.087826,0.000000,197.000000,4.000000,,,,0.000000,2.000000,4.000000,4.000000,4.000000,4.000000,4.000000,4.000000,4.000000,4.000000,4.000000,4.000000,4.000000,4.000000,4.000000,4.000000,2.000000,4.000000,4.000000,4.000000,4.000000,4.000000,4.000000,4.000000,4.000000,4.000000,4.000000,4.000000,4.000000,4.000000,4.000000,4.000000,4.000000,66.666664
1614489165.521738,5.000000,0.000000,0.702922,-0.608930,2.308149,-3.213708,3.325504,3.933078,1.298110,7.030643,-46.724495,1.873810,5.101559,6.821219,3.047829,-5.042622,-8.771085,-3.450279,-10.976419,19.814161,12.145017,-21.536476,-14.177460,-7.285756,-2.223582,-31.324152,8.401708,-21.434679,5.690684,-6.099091,-6.156426,-9.805305,-15.604970,-22.065739,0.000000,208.000000,4.000000,,,,0.000000,2.000000,4.000000,4.000000,4.000000,4.000000,4.000000,4.000000,4.000000,4.000000,4.000000,4.000000,4.000000,4.000000,4.000000,4.000000,2.000000,4.000000,4.000000,4.000000,4.000000,4.000000,4.000000,4.000000,4.000000,4.000000,4.000000,4.000000,4.000000,4.000000,4.000000,4.000000,4.000000,66.666664
1614489165.529387,6.000000,0.000000,-3.400345,-0.608321,7.946866,-3.210494,2.809358,1.365042,-0.754470,7.023612,-63.088028,-6.333192,6.122098,4.763116,3.044781,-2.986297,-8.249493,-0.369906,-8.914161,23.896912,20.850821,-17.925196,-11.086359,-5.740008,-2.734179,-20.010777,8.393306,-27.567091,5.172173,-6.092992,-6.150270,-9.282680,-15.589365,-27.684698,0.000000,214.000000,4.000000,,,,0.000000,2.000000,4.000000,4.000000,4.000000,4.000000,4.000000,4.000000,4.000000,4.000000,4.000000,4.000000,4.000000,4.000000,4.000000,4.000000,2.000000,4.000000,4.000000,4.000000,4.000000,4.000000,4.000000,4.000000,4.000000,4.000000,4.000000,4.000000,4.000000,4.000000,4.000000,4.000000,4.000000,66.666664
1614489165.537136,7.000000,0.000000,-4.935406,-0.607713,-0.779029,-2.694463,2.806549,0.850857,-1.266536,9.580690,-42.512119,-5.814038,8.680079,4.245532,3.041736,-0.932029,-7.728423,4.245849,-3.777041,33.616604,24.419714,-11.240603,-6.972709,-6.247088,-2.731445,-12.298459,7.872092,-14.719011,7.731103,-6.086899,-6.144120,-6.709294,-16.599417,-29.195475,0.000000,195.000000,4.000000,,,,0.000000,2.000000,4.000000,4.000000,4.000000,4.000000,4.000000,4.000000,4.000000,4.000000,4.000000,4.000000,4.000000,4.000000,4.000000,4.000000,2.000000,4.000000,4.000000,4.000000,4.000000,4.000000,4.000000,4.000000,4.000000,4.000000,4.000000,4.000000,4.000000,4.000000,4.000000,4.000000,4.000000,66.666664
1614489165.544785,8.000000,0.000000,-4.417650,-0.607105,-9.496199,-2.178948,2.803742,1.362826,-0.752449,13.673674,-25.033710,-0.167199,9.184219,4.754107,3.038695,3.684288,-6.182233,3.728782,0.329300,38.198372,25.420935,-8.665260,-2.350352,-7.266482,-2.215893,-12.286160,7.864220,-9.576087,9.261833,-6.080812,-6.137976,-6.702585,-16.069998,-22.499613,0.000000,201.000000,4.000000,,,,0.000000,4.000000,4.000000,4.000000,4.000000,4.000000,4.000000,4.000000,4.000000,4.000000,4.000000,4.000000,4.000000,4.000000,4.000000,4.000000,2.000000,4.000000,4.000000,4.000000,4.000000,4.000000,4.000000,4.000000,4.000000,4.000000,4.000000,4.000000,4.000000,4.000000,4.000000,4.000000,4.000000,83.333336
1614489165.552534,9.000000,0.000000,-4.413233,-0.606498,-2.307216,-5.253692,2.800938,0.848643,-1.264517,8.531796,-36.290726,0.345789,9.175035,4.749353,3.035656,6.757527,1.516257,6.289156,1.867432,37.647354,26.933975,-9.169415,-1.322360,-4.182293,-3.239318,-12.273874,8.881997,-12.643435,8.739751,-6.587552,-6.131838,-5.670241,-11.951363,-17.861729,0.000000,194.000000,4.000000,,,,0.000000,4.000000,4.000000,4.000000,4.000000,4.000000,4.000000,4.000000,4.000000,4.000000,4.000000,4.000000,4.000000,4.000000,4.000000,4.000000,2.000000,4.000000,4.000000,4.000000,4.000000,4.000000,4.000000,4.000000,4.000000,4.000000,4.000000,4.000000,4.000000,4.000000,4.000000,4.000000,4.000000,83.333336
1614489165.560184,10.000000,0.000000,-4.921640,-0.605892,6.413040,-5.248438,2.798137,1.360615,-1.263253,3.395058,-43.433922,0.858264,9.678680,4.744604,3.032620,6.750769,12.796792,17.564919,3.916847,39.148167,27.932682,-8.647426,-1.321038,4.027018,-2.723258,-11.235959,7.847474,-6.989765,13.346395,-5.555323,-6.125706,4.079019,-8.349669,-18.869507,0.000000,169.000000,4.000000,,,,0.000000,4.000000,4.000000,4.000000,4.000000,4.000000,4.000000,4.000000,4.000000,4.000000,4.000000,4.000000,4.000000,4.000000,4.000000,4.000000,4.000000,4.000000,4.000000,4.000000,4.000000,4.000000,4.000000,4.000000,4.000000,4.000000,4.000000,4.000000,4.000000,4.000000,4.000000,4.000000,4.000000,100.000000
1614489165.567933,11.000000,0.000000,-4.403898,-0.605286,6.406627,0.910656,2.282519,1.359254,-0.749169,5.442945,-34.159721,5.985611,9.156181,4.739859,3.029588,6.231198,14.322456,17.547354,5.964212,39.109020,32.520134,-8.638778,-2.345358,9.151196,3.946132,-10.199082,7.839626,-0.316109,22.563818,-3.498486,-6.119580,9.203145,-9.366960,-19.363459,0.000000,207.000000,4.000000,,,,0.000000,4.000000,4.000000,4.000000,4.000000,4.000000,4.000000,4.000000,4.000000,4.000000,4.000000,4.000000,4.000000,4.000000,4.000000,4.000000,4.000000,4.000000,4.000000,4.000000,4.000000,4.000000,4.000000,4.000000,4.000000,4.000000,4.000000,4.000000,4.000000,4.000000,4.000000,4.000000,4.000000,100.000000
1614489165.575582,12.000000,0.000000,-4.399494,-0.604680,4.861759,5.525130,3.305877,0.845074,-1.261240,7.488784,-31.048637,9.056548,9.147025,4.735119,3.026558,6.737787,8.154288,10.863139,5.958248,37.531448,37.615818,-4.527575,2.785193,9.142044,9.070391,-6.086319,15.011274,-1.854254,25.105358,-2.469346,-6.113461,-2.088109,-4.229387,-18.318455,0.000000,196.000000,4.000000,,,,0.000000,4.000000,4.000000,4.000000,4.000000,4.000000,4.000000,4.000000,4.000000,4.000000,4.000000,4.000000,4.000000,4.000000,4.000000,4.000000,4.000000,4.000000,4.000000,4.000000,4.000000,4.000000,4.000000,4.000000,4.000000,4.000000,4.000000,4.000000,4.000000,4.000000,4.000000,4.000000,4.000000,100.000000
1614489165.583331,13.000000,0.000000,-4.395094,-0.604076,5.882538,4.493964,7.405136,1.869870,-0.747158,8.506937,-39.735538,8.021851,9.650699,4.730384,3.023531,6.218229,11.735877,15.467661,5.952290,44.160583,38.603844,0.605157,8.936254,9.132902,9.061320,0.073613,23.714211,-2.878041,24.054611,-2.466877,-6.107347,-2.598842,3.467150,-18.812956,0.000000,194.000000,4.000000,,,,0.000000,4.000000,4.000000,4.000000,4.000000,4.000000,4.000000,4.000000,4.000000,4.000000,4.000000,4.000000,4.000000,4.000000,4.000000,4.000000,4.000000,4.000000,4.000000,4.000000,4.000000,4.000000,4.000000,4.000000,4.000000,4.000000,4.000000,4.000000,4.000000,4.000000,4.000000,4.000000,4.000000,100.000000
1614489165.590980,14.000000,0.000000,-4.390699,-0.603472,6.389476,3.976650,9.961833,4.432103,1.817691,9.524071,-42.259903,8.013829,7.589766,4.725654,3.020508,6.212011,18.903629,18.016296,4.920696,49.244629,38.565239,-6.574935,3.799112,7.585308,12.129182,-0.439281,22.152035,-1.849522,24.543377,-1.951590,-6.101240,9.198628,-0.638882,-18.794144,0.000000,185.000000,4.000000,,,,0.000000,4.000000,4.000000,4.000000,4.000000,4.000000,4.000000,4.000000,4.000000,4.000000,4.000000,4.000000,2.000000,4.000000,4.000000,4.000000,4.000000,4.000000,4.000000,4.000000,4.000000,4.000000,4.000000,4.000000,4.000000,4.000000,4.000000,4.000000,4.000000,4.000000,4.000000,4.000000,4.000000,83.333336
1614489165.598729,15.000000,0.000000,-4.386309,-0.602868,8.434369,4.998314,10.464692,5.453312,4.892797,10.027368,-28.884312,8.518636,2.966791,4.720928,3.017488,6.205799,14.269341,5.690587,0.813211,39.964615,31.347189,-19.388872,-5.435456,5.013620,10.578591,-10.182431,15.976037,-2.360493,22.980371,-3.488100,-6.095139,0.984302,-8.843370,-18.775349,0.000000,148.000000,4.000000,,,,0.000000,4.000000,4.000000,4.000000,4.000000,4.000000,4.000000,4.000000,4.000000,4.000000,4.000000,4.000000,2.000000,4.000000,4.000000,4.000000,4.000000,4.000000,4.000000,4.000000,4.000000,4.000000,4.000000,4.000000,4.000000,4.000000,4.000000,4.000000,4.000000,4.000000,4.000000,4.000000,4.000000,83.333336
1614489165.606378,16.000000,0.000000,-4.381922,-0.602265,9.964396,4.480495,9.941406,5.447859,6.426365,10.530160,-17.573376,7.997296,0.912542,4.716207,3.014470,6.199593,7.588405,-0.468950,-2.264525,26.591316,15.418406,-24.497688,-6.455662,5.008606,-2.252500,-21.967121,15.447241,-2.358132,20.393290,-5.535893,-6.089043,-11.837195,-5.757605,-18.243753,0.000000,178.000000,4.000000,,,,0.000000,4.000000,4.000000,4.000000,4.000000,4.000000,4.000000,4.000000,4.000000,4.000000,4.000000,4.000000,2.000000,4.000000,4.000000,4.000000,4.000000,4.000000,4.000000,4.000000,4.000000,4.000000,4.000000,4.000000,4.000000,4.000000,4.000000,4.000000,4.000000,4.000000,4.000000,4.000000,4.000000,83.333336
1614489165.614227,17.000000,0.000000,-4.377540,-0.601663,8.928791,3.963194,7.880183,4.416770,6.419939,6.929887,-23.709648,7.989299,1.937271,4.711491,3.011456,6.193393,6.042355,1.069981,-2.262260,21.436520,10.274781,-24.986012,-5.936386,3.977957,-14.557940,-23.996435,15.944614,-2.355774,19.860075,-4.504716,-6.082954,-1.056127,-5.239026,-19.251150,0.000000,231.000000,4.000000,,,,0.000000,4.000000,4.000000,4.000000,4.000000,4.000000,4.000000,4.000000,4.000000,4.000000,4.000000,4.000000,2.000000,4.000000,4.000000,4.000000,4.000000,4.000000,4.000000,4.000000,4.000000,4.000000,4.000000,4.000000,4.000000,4.000000,4.000000,4.000000,4.000000,4.000000,4.000000,4.000000,4.000000,83.333336
1614489165.621976,18.000000,0.000000,-4.373163,-0.601061,9.432682,3.959231,7.359482,4.925173,6.413519,2.820393,-30.352606,7.981310,1.935334,4.193959,3.008444,6.187200,3.472209,1.068911,-2.259998,23.979187,26.674763,-21.371283,-4.391988,1.922697,-14.543382,-14.741670,15.415849,-2.353418,19.840216,-1.936109,-6.589692,12.278262,-11.387633,-20.257540,0.000000,195.000000,4.000000,,,,0.000000,4.000000,4.000000,4.000000,4.000000,4.000000,4.000000,4.000000,4.000000,4.000000,4.000000,4.000000,2.000000,4.000000,4.000000,4.000000,4.000000,4.000000,4.000000,4.000000,4.000000,4.000000,4.000000,4.000000,4.000000,4.000000,4.000000,4.000000,4.000000,4.000000,4.000000,4.000000,4.000000,83.333336
1614489165.629825,19.000000,0.000000,-4.368790,-1.113281,12.500173,4.980913,11.967507,7.484351,6.407105,5.894495,-27.245331,7.973329,1.933398,5.215406,3.005436,6.693833,0.391814,6.196047,-0.719277,35.237259,44.083984,-10.067860,4.843174,0.895133,-4.785249,-6.521800,15.400434,-2.351065,20.846016,-1.934173,-6.070282,8.163420,-6.760861,-16.134718,0.000000,179.000000,4.000000,,,,0.000000,4.000000,4.000000,4.000000,4.000000,4.000000,4.000000,4.000000,4.000000,4.000000,4.000000,4.000000,2.000000,4.000000,4.000000,4.000000,4.000000,4.000000,4.000000,4.000000,4.000000,4.000000,4.000000,4.000000,4.000000,4.000000,4.000000,4.000000,4.000000,4.000000,4.000000,4.000000,4.000000,83.333336
1614489165.637574,20.000000,0.000000,-4.364421,-0.086527,13.513313,4.463111,14.006822,7.989687,6.400699,9.478344,-32.859112,7.965355,2.957106,5.210191,3.515251,7.199960,2.955525,12.343697,1.332725,42.894329,44.552723,-6.468048,10.479356,1.407058,5.475946,-4.463996,14.359391,-2.348714,22.876451,-2.445060,-3.500109,4.052692,2.989490,-15.092943,0.000000,189.000000,4.000000,,,,0.000000,4.000000,4.000000,4.000000,4.000000,4.000000,4.000000,4.000000,4.000000,4.000000,4.000000,4.000000,2.000000,4.000000,4.000000,4.000000,4.000000,4.000000,4.000000,4.000000,4.000000,4.000000,4.000000,4.000000,4.000000,4.000000,4.000000,4.000000,4.000000,4.000000,4.000000,4.000000,4.000000,83.333336
1614489165.645423,21.000000,0.000000,-4.360056,1.964842,12.474159,3.433007,13.479995,4.391954,6.394298,10.494507,-36.928814,7.957390,1.415687,3.666519,2.998915,5.141478,2.439749,8.228789,1.844212,31.569384,35.277401,-17.230810,9.443235,3.969754,8.034574,-7.023635,12.293750,-2.859186,24.392036,-2.442614,-1.958147,6.099922,1.960859,-20.718876,0.000000,201.000000,4.000000,,,,0.000000,4.000000,4.000000,4.000000,4.000000,4.000000,4.000000,4.000000,4.000000,4.000000,4.000000,4.000000,2.000000,4.000000,4.000000,4.000000,4.000000,4.000000,4.000000,4.000000,4.000000,4.000000,4.000000,4.000000,4.000000,4.000000,4.000000,4.000000,4.000000,4.000000,4.000000,4.000000,4.000000,83.333336
1614489165.653173,22.000000,0.000000,-4.355696,3.501339,14.000147,8.557779,14.492156,5.413203,6.387903,15.099398,-22.020092,7.949432,3.465554,7.252596,3.508737,7.187618,3.462950,4.630817,3.380830,22.819864,30.113918,-19.264862,10.459434,4.478605,5.462436,-8.042253,11.255816,-2.343506,23.854824,-1.927351,-2.469010,6.093822,-2.143666,-15.569952,0.000000,214.000000,4.000000,,,,0.000000,4.000000,4.000000,4.000000,4.000000,4.000000,4.000000,4.000000,4.000000,4.000000,4.000000,4.000000,2.000000,4.000000,4.000000,4.000000,4.000000,4.000000,4.000000,4.000000,4.000000,4.000000,4.000000,4.000000,4.000000,4.000000,4.000000,4.000000,4.000000,4.000000,4.000000,4.000000,4.000000,83.333336
1614489165.661022,23.000000,0.000000,-4.351341,2.985017,10.909224,15.215888,10.887920,4.382149,6.381516,17.135580,-16.357046,7.941483,7.051832,11.347907,3.505228,7.180431,4.997949,6.164648,1.838987,33.053455,32.135086,-12.578931,6.859231,-0.654079,4.944153,-5.470108,11.757380,-2.341162,23.830969,-2.438245,-2.466541,5.574908,-1.115881,-3.759510,0.000000,203.000000,4.000000,,,,0.000000,4.000000,4.000000,4.000000,4.000000,4.000000,4.000000,4.000000,4.000000,4.000000,4.000000,4.000000,2.000000,4.000000,4.000000,4.000000,4.000000,4.000000,4.000000,4.000000,4.000000,4.000000,4.000000,4.000000,4.000000,4.000000,4.000000,4.000000,4.000000,4.000000,4.000000,4.000000,4.000000,83.333336
1614489165.668771,24.000000,0.000000,-4.346989,2.469211,1.154724,9.559647,6.774468,-3.827362,6.375134,14.554341,-35.315048,8.446362,-0.134707,7.233995,0.424800,-5.134442,-8.853203,4.107201,-8.419262,37.122967,35.179874,-13.079172,-4.429680,-6.294451,5.964850,-8.541560,11.745623,-2.851642,23.807138,-3.974268,-1.951254,5.569333,-0.601945,-10.935238,0.000000,187.000000,4.000000,,,,0.000000,4.000000,4.000000,4.000000,4.000000,4.000000,4.000000,4.000000,4.000000,4.000000,4.000000,4.000000,2.000000,4.000000,4.000000,4.000000,4.000000,4.000000,4.000000,4.000000,4.000000,4.000000,4.000000,4.000000,4.000000,4.000000,4.000000,4.000000,4.000000,4.000000,4.000000,4.000000,4.000000,83.333336
1614489165.676620,25.000000,0.000000,-4.342642,4.005204,0.127929,0.832138,10.870257,-1.772252,6.368759,14.026967,-43.997681,7.925095,-11.416624,1.585736,-4.191010,-15.898539,-24.741785,-1.025111,-17.641611,24.265329,28.990849,-12.553272,-10.066276,-6.800977,4.933244,-21.353531,11.733877,-1.823149,23.270512,-6.534396,-2.974943,5.563763,-1.114164,-25.283278,0.000000,194.000000,4.000000,,,,0.000000,4.000000,4.000000,4.000000,4.000000,4.000000,4.000000,4.000000,4.000000,4.000000,4.000000,4.000000,2.000000,4.000000,4.000000,4.000000,4.000000,4.000000,4.000000,4.000000,4.000000,4.000000,4.000000,4.000000,4.000000,4.000000,4.000000,4.000000,4.000000,4.000000,4.000000,4.000000,4.000000,83.333336
1614489165.684369,26.000000,0.000000,-4.338300,6.052481,7.307288,0.318486,13.936311,10.537212,6.875211,11.448837,-33.697273,6.891529,-13.969310,3.635432,-4.699639,-10.241614,-22.152941,-3.075368,-15.572688,17.574398,14.602883,-13.053539,-10.056210,-4.742894,4.928311,-30.562948,10.696503,0.742777,23.760061,-6.015041,-1.946327,6.071020,-1.113049,-26.283634,0.000000,188.000000,4.000000,,,,0.000000,4.000000,4.000000,4.000000,4.000000,4.000000,4.000000,4.000000,4.000000,4.000000,4.000000,4.000000,2.000000,4.000000,4.000000,4.000000,4.000000,4.000000,4.000000,4.000000,4.000000,4.000000,4.000000,4.000000,4.000000,4.000000,4.000000,4.000000,4.000000,4.000000,4.000000,4.000000,4.000000,83.333336
1614489165.692218,27.000000,0.000000,-4.333961,7.072069,8.838442,1.856629,10.332630,8.988214,6.355515,4.257901,-30.586653,8.935920,-12.416879,5.170258,-4.182119,-1.513424,-14.951302,-4.097934,-11.967372,20.120926,5.870331,-26.373819,-12.610256,-5.763792,4.923383,-30.019564,8.634523,1.767675,23.736301,-5.496206,0.619722,5.039308,-1.624757,-24.206068,0.000000,183.000000,4.000000,,,,0.000000,4.000000,4.000000,4.000000,4.000000,4.000000,4.000000,4.000000,4.000000,4.000000,4.000000,4.000000,2.000000,4.000000,4.000000,4.000000,4.000000,4.000000,4.000000,4.000000,4.000000,4.000000,4.000000,4.000000,4.000000,4.000000,4.000000,4.000000,4.000000,4.000000,4.000000,4.000000,4.000000,83.333336
1614489165.699967,28.000000,0.000000,-4.329628,6.552176,8.829604,0.316310,9.809478,5.389482,6.349159,1.689541,-34.145809,6.362881,-12.917283,4.139447,-5.203578,-0.999090,-18.013273,-6.145118,-13.493866,19.075165,9.454205,-33.526932,-13.110466,-9.860592,4.918459,-30.502365,8.113069,1.765907,23.199745,-6.516350,1.644743,2.470166,-0.597491,-19.053658,0.000000,204.000000,4.000000,,,,0.000000,4.000000,4.000000,4.000000,4.000000,4.000000,4.000000,4.000000,4.000000,4.000000,4.000000,4.000000,2.000000,4.000000,4.000000,4.000000,4.000000,4.000000,4.000000,4.000000,4.000000,4.000000,4.000000,4.000000,4.000000,4.000000,4.000000,4.000000,4.000000,4.000000,4.000000,4.000000,4.000000,83.333336
1614489165.707816,29.000000,0.000000,-4.325298,6.545624,10.359236,0.315994,9.286847,11.025118,6.855631,2.200672,-34.111664,-4.412713,-12.904366,5.160948,-3.659913,-1.510911,-19.533722,-6.138973,-12.454731,19.568911,18.162699,-18.108791,-6.943510,-8.312270,4.913541,-28.933401,8.104956,4.841064,26.253468,-5.997014,1.130278,1.442055,-1.109714,-12.367937,0.000000,186.000000,4.000000,,,,0.000000,4.000000,4.000000,4.000000,4.000000,4.000000,4.000000,4.000000,4.000000,4.000000,4.000000,4.000000,2.000000,4.000000,4.000000,4.000000,4.000000,4.000000,4.000000,4.000000,4.000000,4.000000,4.000000,4.000000,4.000000,4.000000,4.000000,4.000000,4.000000,4.000000,4.000000,4.000000,4.000000,83.333336
1614489165.715565,30.000000,0.000000,-4.320972,6.539079,0.605287,0.828499,1.585253,7.937170,4.284673,-0.878452,-35.103195,-5.946762,-12.891461,1.566044,-4.169074,-1.509400,-19.001368,-5.620014,-9.365354,24.677546,25.836843,-4.757349,-0.269900,1.439632,4.908627,-18.135237,8.096850,5.861864,32.893879,-3.426914,1.641968,2.466254,-6.236809,-22.611980,0.000000,180.000000,4.000000,,,,0.000000,4.000000,4.000000,4.000000,4.000000,4.000000,4.000000,4.000000,4.000000,4.000000,4.000000,4.000000,2.000000,4.000000,4.000000,4.000000,4.000000,4.000000,4.000000,4.000000,4.000000,4.000000,4.000000,4.000000,4.000000,4.000000,4.000000,4.000000,4.000000,4.000000,4.000000,4.000000,4.000000,83.333336
1614489165.723414,31.000000,0.000000,-4.316651,6.532539,-6.574806,-0.710791,-5.595819,-0.275896,-0.847817,-0.877573,-41.734756,4.315596,-12.365749,-2.025266,-10.318750,-4.584814,-18.469545,-6.127214,-8.330347,27.216970,28.375111,-8.855155,-1.295271,0.925372,4.903718,-10.937614,8.088754,0.727797,35.425091,-3.423487,-0.923777,1.438147,-8.794675,-32.332958,0.000000,190.000000,4.000000,,,,0.000000,4.000000,4.000000,4.000000,4.000000,4.000000,4.000000,4.000000,4.000000,4.000000,4.000000,4.000000,2.000000,4.000000,4.000000,4.000000,4.000000,4.000000,4.000000,4.000000,4.000000,4.000000,4.000000,4.000000,4.000000,4.000000,4.000000,4.000000,4.000000,4.000000,4.000000,4.000000,4.000000,83.333336
1614489165.731163,32.000000,0.000000,-4.312335,6.526007,9.842026,-2.248542,-5.590224,3.826944,-0.846969,2.200227,-50.410973,9.439485,-7.225178,2.592144,-9.282791,-2.528947,-9.220306,-5.608266,-8.834837,27.189754,23.731350,-12.948864,-9.499104,-15.485810,4.898815,-17.080523,6.542203,-2.862674,32.825562,-5.984166,-5.538238,1.436709,-4.683316,-23.069855,8064.000000,0.000000,4.000000,,,,0.000000,4.000000,4.000000,4.000000,4.000000,4.000000,4.000000,4.000000,4.000000,4.000000,4.000000,4.000000,2.000000,4.000000,4.000000,4.000000,4.000000,4.000000,4.000000,4.000000,4.000000,4.000000,4.000000,4.000000,4.000000,4.000000,4.000000,4.000000,4.000000,4.000000,4.000000,4.000000,4.000000,83.333336
1614489165.738912,33.000000,0.000000,-4.308022,6.519481,22.139875,-2.759114,-2.507710,9.976963,4.282083,3.223668,-43.693893,7.891584,-4.141030,7.717757,0.470082,2.088966,-1.518778,-6.115479,-8.826002,26.649744,20.630695,-11.910275,-16.156271,-20.598530,4.893916,-22.704468,4.997200,-2.859812,29.202993,-5.978182,-6.558340,4.512195,-1.601710,-19.457041,8064.000000,0.000000,4.000000,,,,0.000000,4.000000,4.000000,4.000000,4.000000,4.000000,4.000000,4.000000,4.000000,4.000000,4.000000,4.000000,2.000000,4.000000,4.000000,4.000000,4.000000,4.000000,4.000000,4.000000,4.000000,4.000000,4.000000,4.000000,4.000000,4.000000,4.000000,4.000000,4.000000,4.000000,4.000000,4.000000,4.000000,83.333336
1614489165.746661,34.000000,0.000000,-4.303714,6.512961,5.194659,-3.269176,-1.479562,7.915704,6.841903,2.707624,-25.701481,8.396513,-5.162530,5.658757,0.982432,0.548416,-7.158285,-5.596543,-8.304356,26.623095,23.174168,-11.385544,-14.088833,-6.218956,4.889022,-16.015097,6.017844,-2.344131,27.635328,-3.408101,-5.526141,4.507683,0.451174,-25.078609,8064.000000,0.000000,4.000000,,,,0.000000,4.000000,4.000000,4.000000,4.000000,4.000000,4.000000,4.000000,4.000000,4.000000,4.000000,4.000000,2.000000,4.000000,4.000000,4.000000,4.000000,4.000000,4.000000,4.000000,4.000000,4.000000,4.000000,4.000000,4.000000,4.000000,4.000000,4.000000,4.000000,4.000000,4.000000,4.000000,4.000000,83.333336
1614489165.754310,35.000000,0.000000,-4.299411,6.506449,-7.118228,-0.188983,-0.965262,5.343686,6.835061,2.704916,-26.188601,5.311193,-3.106085,3.601817,-7.223679,-4.580338,-12.279332,-3.539664,-8.808872,29.160574,26.740736,-6.245953,-9.459359,2.505211,4.884133,-3.691390,8.063107,-2.854608,26.582052,-2.379052,-6.033435,1.426252,7.630210,-17.361223,8064.000000,0.000000,4.000000,,,,0.000000,4.000000,4.000000,4.000000,4.000000,4.000000,4.000000,4.000000,4.000000,4.000000,4.000000,4.000000,2.000000,4.000000,4.000000,4.000000,4.000000,4.000000,4.000000,4.000000,4.000000,4.000000,4.000000,4.000000,4.000000,4.000000,4.000000,4.000000,4.000000,4.000000,4.000000,4.000000,4.000000,83.333336
1614489165.762059,36.000000,0.000000,-4.295111,7.012763,4.170941,4.939411,-0.964296,0.722958,5.289765,3.215032,-37.957283,-1.873605,-0.538877,5.136676,-8.754916,-5.088578,-10.728591,-1.484842,-8.800063,31.182695,26.713997,-1.624322,-6.372977,-0.574217,4.366428,-2.662057,13.696071,-2.851753,26.555470,-1.863853,-6.027402,1.937646,10.699503,-7.600273,8064.000000,0.000000,4.000000,,,,0.000000,4.000000,4.000000,4.000000,4.000000,4.000000,4.000000,4.000000,4.000000,4.000000,4.000000,4.000000,2.000000,4.000000,4.000000,4.000000,4.000000,4.000000,4.000000,4.000000,4.000000,4.000000,4.000000,4.000000,4.000000,4.000000,4.000000,4.000000,4.000000,4.000000,4.000000,4.000000,4.000000,83.333336
1614489165.769708,37.000000,0.000000,-4.290816,5.467288,11.859078,0.319087,-0.963332,-4.918791,2.207552,3.724637,-36.380863,-3.410193,-4.128081,5.131539,-8.233341,-3.545028,-12.256324,-1.483357,-8.791263,27.048948,27.712923,-4.699621,-4.828143,-2.112104,4.874883,-13.941446,15.733656,-2.336081,28.580196,-2.374809,-6.021374,5.525452,7.611880,-9.131134,8064.000000,0.000000,4.000000,,,,0.000000,4.000000,4.000000,4.000000,4.000000,4.000000,4.000000,4.000000,4.000000,4.000000,4.000000,4.000000,2.000000,4.000000,4.000000,4.000000,4.000000,4.000000,4.000000,4.000000,4.000000,4.000000,4.000000,4.000000,4.000000,4.000000,4.000000,4.000000,4.000000,4.000000,4.000000,4.000000,4.000000,83.333336
1614489165.777458,38.000000,0.000000,-4.286525,3.410539,7.231834,-10.963284,-0.962369,-3.375410,-0.871579,0.643990,-40.447048,-2.381142,-8.739338,4.613587,-10.789210,-4.567124,-15.320991,-1.994695,-8.782472,22.919334,24.608288,-8.797485,-10.977160,-2.109992,5.382828,-22.132633,9.564076,-2.333745,26.500334,-3.910896,-7.553814,5.519927,7.091448,-11.173285,8064.000000,0.000000,4.000000,,,,0.000000,4.000000,4.000000,4.000000,4.000000,4.000000,4.000000,4.000000,4.000000,4.000000,4.000000,4.000000,2.000000,4.000000,4.000000,4.000000,4.000000,4.000000,4.000000,4.000000,4.000000,4.000000,4.000000,4.000000,4.000000,4.000000,4.000000,4.000000,4.000000,4.000000,4.000000,4.000000,4.000000,83.333336
1614489165.785107,39.000000,0.000000,-4.282239,2.381487,4.147680,-8.901038,-0.961406,-3.372035,-1.383528,-4.484859,-51.175831,-3.404402,-9.243419,4.608974,-9.239960,-4.562557,-13.767208,-1.479879,-8.773689,22.896416,14.840089,-8.788688,-16.094389,-4.671985,2.813343,-22.110500,6.477589,-2.331411,23.396910,-5.958267,-9.597543,5.001586,4.520254,-13.726214,8064.000000,0.000000,4.000000,,,,0.000000,4.000000,4.000000,4.000000,4.000000,4.000000,4.000000,4.000000,4.000000,4.000000,4.000000,4.000000,2.000000,4.000000,4.000000,4.000000,4.000000,4.000000,4.000000,4.000000,4.000000,4.000000,4.000000,4.000000,4.000000,4.000000,4.000000,4.000000,4.000000,4.000000,4.000000,4.000000,4.000000,83.333336
1614489165.792856,40.000000,0.000000,-4.277956,2.891927,6.194814,0.851453,-0.960445,-8.496868,-0.869324,-5.506016,-33.688759,-2.375356,-8.208534,5.117186,-7.179438,-4.557994,-11.189339,-1.991220,-8.764915,21.335058,11.748326,-7.754258,-10.437268,-3.641672,2.297709,-21.575569,10.573676,-2.329079,32.091461,-5.952309,-9.587945,9.099149,-0.099651,-16.276590,8064.000000,0.000000,4.000000,,,,0.000000,4.000000,4.000000,4.000000,4.000000,4.000000,4.000000,4.000000,4.000000,4.000000,4.000000,4.000000,2.000000,4.000000,4.000000,4.000000,4.000000,4.000000,4.000000,4.000000,4.000000,4.000000,4.000000,4.000000,4.000000,4.000000,4.000000,4.000000,4.000000,4.000000,4.000000,4.000000,4.000000,83.333336
1614489165.800505,41.000000,0.000000,-4.273679,2.889035,7.214260,-1.713501,-0.959485,-8.488371,-0.868454,-3.962048,-14.680711,-4.424263,-8.713146,5.112068,-7.685079,-7.630359,-10.152508,-4.553331,-8.756150,19.775261,15.839142,-7.233684,-3.247344,-1.073927,5.885155,-22.066814,12.614385,-1.813930,39.751678,-5.433536,-9.578358,13.705434,0.926089,-14.721852,8064.000000,0.000000,4.000000,,,,0.000000,4.000000,4.000000,4.000000,4.000000,4.000000,4.000000,4.000000,4.000000,4.000000,4.000000,4.000000,2.000000,4.000000,4.000000,4.000000,4.000000,4.000000,4.000000,4.000000,4.000000,4.000000,4.000000,4.000000,4.000000,4.000000,4.000000,4.000000,4.000000,4.000000,4.000000,4.000000,4.000000,83.333336
