title:14, start timestamp:1614489241.872561, stop timestamp:1614489287.211533, headset type:EPOCFLEX, headset serial:F00001ED, headset firmware:f12, subject name:s14, channels:75, sampling rate:128, samples:5852      , version:2.0
Timestamp,EEG.Counter,EEG.Interpolated,EEG.Cz,EEG.Fz,EEG.Fp1,EEG.F7,EEG.F3,EEG.FC1,EEG.C3,EEG.FC5,EEG.FT9,EEG.T7,EEG.TP9,EEG.CP5,EEG.CP1,EEG.P3,EEG.P7,EEG.O1,EEG.Pz,EEG.Oz,EEG.O2,EEG.P8,EEG.P4,EEG.CP2,EEG.CP6,EEG.TP10,EEG.T8,EEG.FT10,EEG.FC6,EEG.C4,EEG.FC2,EEG.F4,EEG.F8,EEG.Fp2,EEG.HighBitFlex,EEG.RawCq,EEG.Battery,MarkerIndex,MarkerType,MarkerValueInt,EEG.MarkerHardware,CQ.Cz,CQ.Fz,CQ.Fp1,CQ.F7,CQ.F3,CQ.FC1,CQ.C3,CQ.FC5,CQ.FT9,CQ.T7,CQ.TP9,CQ.CP5,CQ.CP1,CQ.P3,CQ.P7,CQ.O1,CQ.Pz,CQ.Oz,CQ.O2,CQ.P8,CQ.P4,CQ.CP2,CQ.CP6,CQ.TP10,CQ.T8,CQ.FT10,CQ.FC6,CQ.C4,CQ.FC2,CQ.F4,CQ.F8,CQ.Fp2,CQ.Overall
1614489241.872561,6.000000,0.000000,-5.560043,-8.422480,-15.456864,-4.841806,-0.815840,-4.648208,2.797648,-9.103330,-10.605739,11.922271,6.431020,4.684176,-0.498481,11.678823,22.614731,28.120924,-4.995056,51.855862,22.995144,-2.975720,-3.748696,-12.128979,-13.623706,-18.414799,-7.254670,-30.707577,-29.209463,-7.228271,-8.067650,-22.923603,-23.162897,-26.255304,0.000000,190.000000,4.000000,,,,0.000000,4.000000,4.000000,4.000000,4.000000,4.000000,4.000000,4.000000,4.000000,4.000000,4.000000,4.000000,4.000000,4.000000,4.000000,4.000000,4.000000,4.000000,4.000000,4.000000,4.000000,4.000000,4.000000,4.000000,4.000000,4.000000,4.000000,4.000000,4.000000,4.000000,4.000000,4.000000,4.000000,100.000000
1614489241.880210,7.000000,0.000000,-5.554483,-8.414057,-14.928587,-6.375426,0.210617,-4.130739,-0.282073,-9.094226,-13.159235,11.910348,3.347666,5.192313,-1.010803,9.103042,14.899808,26.554342,-4.990061,46.162979,21.946507,-5.024026,-2.206486,-2.373260,-13.610082,-17.370743,-7.760236,-24.010202,-21.487946,-7.221043,-7.546762,-22.387859,-23.139734,-16.998280,0.000000,216.000000,4.000000,,,,0.000000,4.000000,4.000000,4.000000,4.000000,4.000000,4.000000,4.000000,4.000000,4.000000,4.000000,4.000000,4.000000,4.000000,4.000000,4.000000,4.000000,4.000000,4.000000,4.000000,4.000000,4.000000,4.000000,4.000000,4.000000,4.000000,4.000000,4.000000,4.000000,4.000000,4.000000,4.000000,4.000000,100.000000
1614489241.887960,8.000000,0.000000,-5.548929,-8.918464,-15.939300,-8.933153,2.261688,-4.639429,-4.897175,-9.597953,-11.094794,2.154848,-2.296707,-0.453905,-1.522613,2.940092,2.064395,16.271378,-4.985071,42.014252,21.411741,-8.608747,-2.717100,-9.037554,-14.109292,-18.891834,-7.239655,-19.370808,-14.286970,-7.213822,-8.052035,-17.750088,-23.116594,-5.186409,0.000000,180.000000,4.000000,,,,0.000000,4.000000,4.000000,4.000000,4.000000,4.000000,4.000000,4.000000,4.000000,4.000000,4.000000,4.000000,4.000000,4.000000,4.000000,4.000000,4.000000,4.000000,4.000000,4.000000,4.000000,4.000000,4.000000,4.000000,4.000000,4.000000,4.000000,4.000000,4.000000,4.000000,4.000000,4.000000,4.000000,100.000000
1614489241.895609,9.000000,0.000000,-5.543380,-7.883904,-16.436180,-9.437040,1.746606,-4.634789,-5.917919,-8.562714,-2.365751,-11.693460,-5.884154,-7.120118,-2.033911,-0.652591,-2.553054,13.178183,-4.467266,44.023521,21.390329,-10.651420,-8.868229,-16.208004,-13.582363,-21.437044,-7.745236,-20.377077,-4.529094,-7.719429,-7.531163,-16.706696,-23.606298,-3.129941,0.000000,185.000000,4.000000,,,,0.000000,4.000000,4.000000,4.000000,4.000000,4.000000,4.000000,4.000000,4.000000,4.000000,4.000000,4.000000,4.000000,4.000000,4.000000,4.000000,4.000000,4.000000,4.000000,4.000000,4.000000,4.000000,4.000000,4.000000,4.000000,4.000000,4.000000,4.000000,4.000000,4.000000,4.000000,4.000000,4.000000,100.000000
1614489241.903358,10.000000,0.000000,-5.537837,-8.901661,-12.830001,-8.914783,-0.819243,-4.630155,-6.424822,-10.605433,-4.414667,-15.784331,-8.442372,-7.625818,-4.595980,-1.677580,-15.883834,14.190645,-5.488440,36.287189,21.881760,-13.204870,-10.397822,-4.909744,-13.568780,-23.466888,-8.250311,-20.356701,7.270308,-7.711709,-7.523632,-15.664349,-22.557053,-4.152452,0.000000,171.000000,4.000000,,,,0.000000,4.000000,4.000000,4.000000,4.000000,4.000000,4.000000,4.000000,4.000000,4.000000,4.000000,4.000000,4.000000,4.000000,4.000000,4.000000,4.000000,4.000000,4.000000,4.000000,4.000000,4.000000,4.000000,4.000000,4.000000,4.000000,4.000000,4.000000,4.000000,4.000000,4.000000,4.000000,4.000000,100.000000
1614489241.911007,11.000000,0.000000,-5.532299,-8.892759,-12.304350,-8.393047,-0.818424,-5.138345,-9.495320,-14.184571,-14.153842,-15.768547,-10.485212,-7.105372,-6.129845,-4.752825,-26.124361,14.176455,-3.944489,34.199619,26.475262,-7.037819,-3.720758,5.351576,-15.093673,-20.879320,-3.626676,-20.336344,18.032269,-8.216818,-8.541749,-9.494838,-16.893469,-1.584197,0.000000,193.000000,4.000000,,,,0.000000,4.000000,4.000000,4.000000,4.000000,4.000000,4.000000,4.000000,4.000000,4.000000,4.000000,4.000000,4.000000,4.000000,4.000000,4.000000,4.000000,4.000000,4.000000,4.000000,4.000000,4.000000,4.000000,4.000000,4.000000,4.000000,4.000000,4.000000,4.000000,4.000000,4.000000,4.000000,4.000000,100.000000
1614489241.918756,12.000000,0.000000,-5.526766,-4.268482,-14.343328,-8.897475,2.259318,-4.620386,-9.485825,-9.042181,-7.473022,-16.778419,-3.808060,-7.098267,1.055772,-3.722431,-13.790545,20.316124,0.162019,52.114140,33.628273,8.866654,-1.152935,1.756481,-12.514477,-12.653313,3.556437,-21.341648,22.116800,-5.644499,-5.456285,-4.357138,-7.645806,-1.582613,0.000000,206.000000,4.000000,,,,0.000000,4.000000,4.000000,4.000000,4.000000,4.000000,4.000000,4.000000,4.000000,4.000000,4.000000,4.000000,4.000000,4.000000,4.000000,4.000000,4.000000,4.000000,4.000000,4.000000,4.000000,4.000000,4.000000,4.000000,4.000000,4.000000,4.000000,4.000000,4.000000,4.000000,4.000000,4.000000,4.000000,100.000000
1614489241.926405,13.000000,0.000000,-5.521239,1.376812,-4.585395,-3.247552,6.359622,-2.051663,-3.835313,2.248912,7.406247,-11.120615,6.452158,-2.475784,13.362409,4.999240,-0.443420,27.988115,1.700319,63.344074,35.645927,13.985992,-0.126141,7.395750,-4.296834,-9.563736,7.142625,-20.294666,21.069042,-2.049111,1.215839,-0.250217,0.054147,0.470252,0.000000,177.000000,4.000000,,,,0.000000,4.000000,4.000000,4.000000,4.000000,4.000000,4.000000,4.000000,4.000000,4.000000,4.000000,4.000000,4.000000,4.000000,4.000000,4.000000,4.000000,4.000000,4.000000,4.000000,4.000000,4.000000,4.000000,4.000000,4.000000,4.000000,4.000000,4.000000,4.000000,4.000000,4.000000,4.000000,4.000000,100.000000
1614489241.934254,14.000000,0.000000,-5.515718,3.426717,9.265345,9.576208,9.943007,-1.023970,1.809548,5.323586,9.962943,-4.955649,9.009809,3.680538,18.477251,10.635266,0.582664,29.498589,2.211439,62.767910,37.661564,11.920725,11.156036,23.798611,-1.728435,-6.990069,11.750867,-18.223089,22.073614,1.029861,4.291546,4.365418,3.131016,8.674910,0.000000,198.000000,4.000000,,,,0.000000,4.000000,4.000000,4.000000,4.000000,4.000000,4.000000,4.000000,4.000000,4.000000,4.000000,4.000000,4.000000,4.000000,4.000000,4.000000,4.000000,4.000000,4.000000,4.000000,4.000000,4.000000,4.000000,4.000000,4.000000,4.000000,4.000000,4.000000,4.000000,4.000000,4.000000,4.000000,4.000000,100.000000
1614489241.942003,15.000000,0.000000,-5.510202,1.884829,10.281720,14.182016,10.445884,-1.535767,2.320559,5.831083,6.363236,-4.437872,7.462337,5.215319,16.920313,10.111811,-0.956380,28.443449,2.209228,65.269249,39.675182,21.139574,21.401291,26.338915,1.350217,1.734869,17.892962,-16.153584,26.154104,7.695498,3.261613,5.386694,2.615065,10.717517,0.000000,162.000000,4.000000,,,,0.000000,4.000000,4.000000,4.000000,4.000000,4.000000,4.000000,4.000000,4.000000,4.000000,4.000000,4.000000,4.000000,4.000000,4.000000,4.000000,4.000000,4.000000,4.000000,4.000000,4.000000,4.000000,4.000000,4.000000,4.000000,4.000000,4.000000,4.000000,4.000000,4.000000,4.000000,4.000000,4.000000,100.000000
1614489241.949852,16.000000,0.000000,-5.504693,1.370124,10.784259,11.090912,8.384156,0.004230,1.292597,8.902175,4.818411,5.310155,8.993337,2.646001,17.416212,10.614519,-0.442603,27.902185,1.181377,62.127052,39.122688,25.220997,22.918350,21.697191,12.118097,6.861340,21.977633,-9.470763,25.102308,18.457033,3.258352,6.919769,7.227834,10.706800,0.000000,171.000000,4.000000,,,,0.000000,4.000000,4.000000,4.000000,4.000000,4.000000,4.000000,4.000000,4.000000,4.000000,4.000000,4.000000,4.000000,4.000000,4.000000,4.000000,4.000000,4.000000,4.000000,4.000000,4.000000,4.000000,4.000000,4.000000,4.000000,4.000000,4.000000,4.000000,4.000000,4.000000,4.000000,4.000000,4.000000,100.000000
1614489241.957601,17.000000,0.000000,-5.499187,8.548241,24.619629,25.951616,12.991157,6.670893,10.522074,16.072760,11.480260,29.407410,20.266394,9.822843,20.988541,22.398777,12.891172,36.079411,10.923785,64.629028,46.263054,25.195776,33.664665,31.419085,19.285467,11.469863,29.647963,2.333579,25.590027,25.618063,3.767914,14.605157,20.553940,23.003784,0.000000,192.000000,4.000000,,,,0.000000,4.000000,4.000000,4.000000,4.000000,4.000000,4.000000,4.000000,4.000000,4.000000,4.000000,4.000000,4.000000,4.000000,4.000000,4.000000,4.000000,4.000000,4.000000,4.000000,4.000000,4.000000,4.000000,4.000000,4.000000,4.000000,4.000000,4.000000,4.000000,4.000000,4.000000,4.000000,4.000000,100.000000
1614489241.965450,18.000000,0.000000,-5.493689,21.873026,36.902702,55.669254,27.337139,15.894991,29.998732,33.492584,36.084164,50.403641,39.220486,32.377121,30.711142,42.889198,36.980846,55.017693,34.502605,88.154144,63.652687,43.119297,52.605358,44.720997,20.291822,28.381470,41.413189,12.074836,38.897770,29.182190,5.302608,25.359781,33.353897,40.416679,0.000000,193.000000,4.000000,,,,0.000000,4.000000,4.000000,4.000000,4.000000,4.000000,4.000000,4.000000,4.000000,4.000000,4.000000,4.000000,4.000000,4.000000,4.000000,4.000000,4.000000,4.000000,4.000000,4.000000,4.000000,4.000000,4.000000,4.000000,4.000000,4.000000,4.000000,4.000000,4.000000,4.000000,4.000000,4.000000,4.000000,100.000000
1614489241.973199,19.000000,0.000000,-5.488195,25.440897,35.840157,64.844353,39.617496,21.007301,40.737965,46.792427,49.381413,53.430161,49.950497,45.165257,41.449661,54.128361,45.148994,64.193443,47.288616,103.963425,74.358269,52.819771,57.680958,42.112175,28.989479,40.147961,43.423058,14.114042,48.602463,32.742752,6.835766,30.975449,31.269262,39.350620,0.000000,157.000000,4.000000,,,,0.000000,4.000000,4.000000,4.000000,4.000000,4.000000,4.000000,4.000000,4.000000,4.000000,4.000000,4.000000,4.000000,4.000000,4.000000,4.000000,4.000000,4.000000,4.000000,4.000000,4.000000,4.000000,4.000000,4.000000,4.000000,4.000000,4.000000,4.000000,4.000000,4.000000,4.000000,4.000000,4.000000,100.000000
1614489241.981048,20.000000,0.000000,-5.482707,19.261610,29.650471,51.958996,40.090698,20.986294,30.953636,33.412300,29.844852,41.581860,42.721058,33.325222,40.895390,46.894745,36.385895,55.924122,42.625942,98.731255,72.232628,38.407974,49.930969,33.864933,38.191257,33.953964,33.123222,8.971724,36.246166,32.710007,6.828930,25.303448,15.853378,20.336912,0.000000,195.000000,4.000000,,,,0.000000,4.000000,4.000000,4.000000,4.000000,4.000000,4.000000,4.000000,4.000000,4.000000,4.000000,4.000000,4.000000,4.000000,4.000000,4.000000,4.000000,4.000000,4.000000,4.000000,4.000000,4.000000,4.000000,4.000000,4.000000,4.000000,4.000000,4.000000,4.000000,4.000000,4.000000,4.000000,4.000000,100.000000
1614489241.988797,21.000000,0.000000,-5.477224,16.165424,29.108000,45.753193,39.537788,20.452488,20.153450,20.558374,18.020136,36.412075,34.473209,24.573946,36.239109,37.104259,33.272587,49.714352,38.993572,94.529961,67.545006,33.754181,43.727192,32.292606,34.050503,28.791807,25.397791,3.321726,21.850946,29.600374,6.822102,17.585836,6.093935,7.496062,0.000000,166.000000,4.000000,,,,0.000000,4.000000,4.000000,4.000000,4.000000,4.000000,4.000000,4.000000,4.000000,4.000000,4.000000,4.000000,4.000000,4.000000,4.000000,4.000000,4.000000,4.000000,4.000000,4.000000,4.000000,4.000000,4.000000,4.000000,4.000000,4.000000,4.000000,4.000000,4.000000,4.000000,4.000000,4.000000,4.000000,100.000000
1614489241.996646,22.000000,0.000000,-5.471746,18.200541,30.104532,47.245899,41.036709,20.944855,21.671759,29.768585,27.232885,46.632072,34.438736,28.651937,35.690052,36.554337,34.264954,51.203098,39.467400,95.973892,64.913361,46.028122,41.119362,32.773136,25.298504,29.275835,27.423676,1.779943,21.316277,28.545134,6.815279,16.542608,11.216046,12.616771,0.000000,169.000000,4.000000,,,,0.000000,4.000000,4.000000,4.000000,4.000000,4.000000,4.000000,4.000000,4.000000,4.000000,4.000000,4.000000,4.000000,4.000000,4.000000,4.000000,4.000000,4.000000,4.000000,4.000000,4.000000,4.000000,4.000000,4.000000,4.000000,4.000000,4.000000,4.000000,4.000000,4.000000,4.000000,4.000000,4.000000,100.000000
1614489242.004396,23.000000,0.000000,-5.466275,17.156700,22.894941,45.660191,38.431572,20.411089,25.239830,32.815739,22.077446,43.508514,32.353016,20.930977,30.526155,35.492142,33.205048,50.126255,36.863831,95.877922,66.899727,49.059017,40.052601,31.201900,25.786026,29.759380,29.447535,1.778163,21.294960,29.029409,6.808464,17.038887,10.692009,16.193897,0.000000,215.000000,4.000000,,,,0.000000,4.000000,4.000000,4.000000,4.000000,4.000000,4.000000,4.000000,4.000000,4.000000,4.000000,4.000000,4.000000,4.000000,4.000000,4.000000,4.000000,4.000000,4.000000,4.000000,4.000000,4.000000,4.000000,4.000000,4.000000,4.000000,4.000000,4.000000,4.000000,4.000000,4.000000,4.000000,4.000000,100.000000
1614489242.012245,24.000000,0.000000,-5.460809,16.113901,15.692559,46.127354,36.341858,20.390678,22.650488,23.552155,12.311780,23.465008,26.166817,8.089534,23.828962,28.277161,33.684666,50.588947,34.262863,95.269218,68.884109,46.958675,38.474087,32.709160,32.939728,29.729620,27.366804,2.289205,17.171101,28.487558,7.314476,15.483386,-0.600734,6.946934,0.000000,215.000000,4.000000,,,,0.000000,4.000000,4.000000,4.000000,4.000000,4.000000,4.000000,4.000000,4.000000,4.000000,4.000000,4.000000,4.000000,4.000000,4.000000,4.000000,4.000000,4.000000,4.000000,4.000000,4.000000,4.000000,4.000000,4.000000,4.000000,4.000000,4.000000,4.000000,4.000000,4.000000,4.000000,4.000000,4.000000,100.000000
1614489242.019994,25.000000,0.000000,-5.455348,17.636250,19.779430,43.004303,35.279873,20.370289,23.140659,22.502962,16.402033,16.262056,26.140650,13.209649,24.317955,23.633499,28.009954,48.487076,34.741421,84.404724,61.122921,44.860435,34.845871,31.650810,33.419609,24.571686,23.236874,1.774096,17.666750,28.971891,7.307162,17.006365,-4.189877,3.863064,0.000000,172.000000,4.000000,,,,0.000000,4.000000,4.000000,4.000000,4.000000,4.000000,4.000000,4.000000,4.000000,4.000000,4.000000,4.000000,4.000000,4.000000,4.000000,4.000000,4.000000,4.000000,4.000000,4.000000,4.000000,4.000000,4.000000,4.000000,4.000000,4.000000,4.000000,4.000000,4.000000,4.000000,4.000000,4.000000,4.000000,100.000000
1614489242.027843,26.000000,0.000000,-5.449893,15.567331,10.016062,24.499760,27.039467,18.811457,24.143158,19.403536,7.667681,15.220153,23.037586,17.299004,22.242355,23.097044,15.161431,36.643719,33.168217,68.422882,53.369488,36.610447,31.734100,21.362749,24.668240,16.341986,15.008509,-6.945627,16.623442,28.942921,6.787034,14.425256,-8.801071,1.295099,0.000000,189.000000,4.000000,,,,0.000000,4.000000,4.000000,4.000000,4.000000,4.000000,4.000000,4.000000,4.000000,4.000000,4.000000,4.000000,4.000000,4.000000,4.000000,4.000000,4.000000,4.000000,4.000000,4.000000,4.000000,4.000000,4.000000,4.000000,4.000000,4.000000,4.000000,4.000000,4.000000,4.000000,4.000000,4.000000,4.000000,100.000000
1614489242.035592,27.000000,0.000000,-5.444443,5.295354,-14.096519,7.039362,16.756018,16.741364,18.990810,7.076440,-11.827166,0.845958,13.783780,9.076576,16.579086,21.535486,8.992424,28.401947,28.519665,64.251892,54.854580,29.394348,32.728008,17.238823,18.489725,14.274363,5.249910,-19.759195,9.940152,24.811413,7.293067,1.590318,-26.228168,-21.270298,0.000000,217.000000,4.000000,,,,0.000000,4.000000,4.000000,4.000000,4.000000,4.000000,4.000000,4.000000,4.000000,4.000000,4.000000,4.000000,4.000000,4.000000,4.000000,4.000000,4.000000,4.000000,4.000000,4.000000,4.000000,4.000000,4.000000,4.000000,4.000000,4.000000,4.000000,4.000000,4.000000,4.000000,4.000000,4.000000,4.000000,100.000000
1614489242.043241,28.000000,0.000000,-5.438998,-1.889429,-13.056781,7.032323,15.713620,16.211802,13.843615,5.018082,-8.738416,-3.770273,12.231534,10.605962,19.126610,19.975489,10.521893,33.501751,26.439863,64.700462,50.184341,25.775209,33.208099,26.965174,16.419954,12.208806,3.706199,-20.765076,6.340468,18.632755,6.772954,-9.693324,-39.535275,-40.223389,0.000000,197.000000,4.000000,,,,0.000000,4.000000,4.000000,4.000000,4.000000,4.000000,4.000000,4.000000,4.000000,4.000000,4.000000,4.000000,4.000000,4.000000,4.000000,4.000000,4.000000,4.000000,4.000000,4.000000,4.000000,4.000000,4.000000,4.000000,4.000000,4.000000,4.000000,4.000000,4.000000,4.000000,4.000000,4.000000,4.000000,100.000000
1614489242.050990,29.000000,0.000000,-5.433559,-2.400360,-1.248852,12.153496,17.749187,16.708410,15.368233,11.679730,0.501092,7.515549,17.860329,18.287663,23.210047,20.981155,11.537012,36.545170,27.439064,61.558838,39.364925,22.159691,31.123610,24.374105,10.762507,6.042751,2.164031,-21.257132,6.846949,11.947456,2.663617,-10.196451,-37.957275,-36.593422,0.000000,196.000000,4.000000,,,,0.000000,4.000000,4.000000,4.000000,4.000000,4.000000,4.000000,4.000000,4.000000,4.000000,4.000000,4.000000,4.000000,4.000000,4.000000,4.000000,4.000000,4.000000,4.000000,4.000000,4.000000,4.000000,4.000000,4.000000,4.000000,4.000000,4.000000,4.000000,4.000000,4.000000,4.000000,4.000000,4.000000,100.000000
1614489242.058639,30.000000,0.000000,-5.428125,-3.423601,-18.683500,9.577240,15.167336,16.691702,16.891325,10.642409,-10.781461,10.584956,17.842468,11.602709,19.597094,20.960175,8.961372,33.431702,27.924446,61.497280,38.812740,21.111891,29.554026,13.067680,6.136361,7.575170,-7.068902,-35.082027,4.275999,6.807303,-0.928790,-9.160614,-36.893677,-36.044006,0.000000,192.000000,4.000000,,,,0.000000,4.000000,4.000000,4.000000,4.000000,4.000000,4.000000,4.000000,4.000000,4.000000,4.000000,4.000000,4.000000,4.000000,4.000000,4.000000,4.000000,4.000000,4.000000,4.000000,4.000000,4.000000,4.000000,4.000000,4.000000,4.000000,4.000000,4.000000,4.000000,4.000000,4.000000,4.000000,4.000000,100.000000
1614489242.066388,31.000000,0.000000,-5.422698,-5.984280,-31.485331,7.003560,12.588066,16.675009,15.848793,8.067664,-22.052731,6.471807,14.234882,2.873157,15.987753,19.400751,5.362668,31.859810,26.358061,59.897320,42.876492,18.013855,29.011650,22.798203,6.643045,8.593235,-12.702859,-43.252075,3.246082,5.774855,-0.927861,-10.177094,-37.882423,-43.700272,0.000000,164.000000,4.000000,,,,0.000000,4.000000,4.000000,4.000000,4.000000,4.000000,4.000000,4.000000,4.000000,4.000000,4.000000,4.000000,4.000000,4.000000,4.000000,4.000000,4.000000,4.000000,4.000000,4.000000,4.000000,4.000000,4.000000,4.000000,4.000000,4.000000,4.000000,4.000000,4.000000,4.000000,4.000000,4.000000,4.000000,100.000000
1614489242.074037,32.000000,0.000000,-5.417275,-5.465475,-12.479486,9.560658,13.088299,16.658335,16.345766,11.136519,-17.928114,6.465335,14.733468,3.383105,16.997406,15.791608,3.306023,29.263847,22.741959,50.606655,38.218231,11.841995,22.315971,27.390789,7.662043,-1.158947,-11.151694,-33.978054,2.730015,6.281901,-0.414113,-9.654097,-37.331722,-40.579647,8064.000000,0.000000,4.000000,,,,0.000000,4.000000,4.000000,4.000000,4.000000,4.000000,4.000000,4.000000,4.000000,4.000000,4.000000,4.000000,4.000000,4.000000,4.000000,4.000000,4.000000,4.000000,4.000000,4.000000,4.000000,4.000000,4.000000,4.000000,4.000000,4.000000,4.000000,4.000000,4.000000,4.000000,4.000000,4.000000,4.000000,100.000000
1614489242.081786,33.000000,0.000000,-5.411858,-4.947189,0.353506,12.115201,13.588031,16.641676,16.329420,13.176665,-14.833262,5.433229,15.231555,1.841260,15.441948,12.698893,3.302717,24.106379,18.103832,50.556049,33.564629,9.266050,13.575707,4.286475,7.141561,-9.875737,-10.627722,-25.738947,-4.965023,6.275619,-0.926519,-9.131622,-36.781570,-35.410862,8064.000000,0.000000,4.000000,,,,0.000000,4.000000,4.000000,4.000000,4.000000,4.000000,4.000000,4.000000,4.000000,4.000000,4.000000,4.000000,4.000000,4.000000,4.000000,4.000000,4.000000,4.000000,4.000000,4.000000,4.000000,4.000000,4.000000,4.000000,4.000000,4.000000,4.000000,4.000000,4.000000,4.000000,4.000000,4.000000,4.000000,100.000000
1614489242.089436,34.000000,0.000000,-5.406446,-4.942242,1.378794,12.615906,13.061623,16.625034,13.748987,11.625027,-16.356890,4.914976,15.216323,-0.724684,12.349583,13.711835,3.812234,23.569450,16.034447,57.684978,36.607986,10.795246,13.049312,1.205265,7.647239,-5.763298,-11.642735,-27.251669,-14.190826,6.269343,-0.925593,-9.122490,-36.231968,-35.375450,8064.000000,0.000000,4.000000,,,,0.000000,4.000000,4.000000,4.000000,4.000000,4.000000,4.000000,4.000000,4.000000,4.000000,4.000000,4.000000,4.000000,4.000000,4.000000,4.000000,4.000000,4.000000,4.000000,4.000000,4.000000,4.000000,4.000000,4.000000,4.000000,4.000000,4.000000,4.000000,4.000000,4.000000,4.000000,4.000000,4.000000,100.000000
1614489242.097185,35.000000,0.000000,-5.401039,-4.937299,7.531261,16.193033,13.048561,16.608410,12.196777,12.126223,-9.673867,9.012625,14.688287,-0.211139,14.388515,16.775045,3.808422,24.571524,16.018412,48.909344,39.648300,10.271630,17.138826,26.332266,7.126771,-0.629329,-10.605452,-28.250059,-15.715097,6.775894,-0.411847,-9.626188,-35.682915,-31.750332,8064.000000,0.000000,4.000000,,,,0.000000,4.000000,4.000000,4.000000,4.000000,4.000000,4.000000,4.000000,4.000000,4.000000,4.000000,4.000000,4.000000,4.000000,4.000000,4.000000,4.000000,4.000000,4.000000,4.000000,4.000000,4.000000,4.000000,4.000000,4.000000,4.000000,4.000000,4.000000,4.000000,4.000000,4.000000,4.000000,4.000000,100.000000
1614489242.104834,36.000000,0.000000,-5.395638,-4.932362,0.857063,20.279406,14.061153,17.104622,12.184580,12.114097,1.105038,11.054894,14.160778,-1.236568,16.938229,16.245451,2.778973,23.521311,16.002394,37.578384,39.095833,10.261358,17.634508,26.818754,7.632465,-0.628700,-12.646129,-26.683348,-14.673741,6.769118,-0.411435,-9.103742,-37.698513,-29.154480,8064.000000,0.000000,4.000000,,,,0.000000,4.000000,4.000000,4.000000,4.000000,4.000000,4.000000,4.000000,4.000000,4.000000,4.000000,4.000000,4.000000,4.000000,4.000000,4.000000,4.000000,4.000000,4.000000,4.000000,4.000000,4.000000,4.000000,4.000000,4.000000,4.000000,4.000000,4.000000,4.000000,4.000000,4.000000,4.000000,4.000000,100.000000
1614489242.112583,37.000000,0.000000,-5.390243,-4.927430,-13.502769,20.259125,12.508631,15.549055,12.685216,10.050700,4.180856,10.018198,16.710720,1.328771,16.921291,19.306128,3.801835,26.061892,15.986391,51.899780,39.056736,10.763918,17.616873,9.868857,8.137653,-0.628071,-16.736046,-26.656664,-15.684709,6.762349,-0.411024,-8.581818,-39.199276,-31.689428,8064.000000,0.000000,4.000000,,,,0.000000,4.000000,4.000000,4.000000,4.000000,4.000000,4.000000,4.000000,4.000000,4.000000,4.000000,4.000000,4.000000,4.000000,4.000000,4.000000,4.000000,4.000000,4.000000,4.000000,4.000000,4.000000,4.000000,4.000000,4.000000,4.000000,4.000000,4.000000,4.000000,4.000000,4.000000,4.000000,4.000000,100.000000
1614489242.120232,38.000000,0.000000,-5.384852,-4.922502,-12.463624,20.238867,10.444840,12.969403,12.672531,8.502188,3.151034,10.521000,21.822214,11.071032,16.391548,26.466309,8.926238,34.240959,15.970405,69.796600,39.530502,11.265974,20.676180,14.987194,5.565413,3.475121,-18.257772,-26.117188,-12.592101,7.268407,-0.410613,-10.111697,-39.160080,-32.170559,8192.000000,0.000000,4.000000,,,,0.000000,4.000000,4.000000,4.000000,4.000000,4.000000,4.000000,4.000000,4.000000,4.000000,4.000000,4.000000,4.000000,4.000000,4.000000,4.000000,4.000000,4.000000,4.000000,4.000000,4.000000,4.000000,4.000000,4.000000,4.000000,4.000000,4.000000,4.000000,4.000000,4.000000,4.000000,4.000000,4.000000,100.000000
1614489242.127981,39.000000,0.000000,-5.379467,-4.917580,-7.322956,19.705807,9.408754,12.443614,12.147038,7.980865,3.147883,11.536120,22.826033,15.162525,17.400799,27.465485,11.994235,36.257999,17.492895,68.188339,38.978149,11.254708,22.706785,27.279900,4.534207,7.061389,-18.239513,-26.091070,-7.451303,6.748319,-0.410202,-8.563124,-42.197842,-33.676849,8064.000000,0.000000,4.000000,,,,0.000000,4.000000,4.000000,4.000000,4.000000,4.000000,4.000000,4.000000,4.000000,4.000000,4.000000,4.000000,4.000000,4.000000,4.000000,4.000000,4.000000,4.000000,4.000000,4.000000,4.000000,4.000000,4.000000,4.000000,4.000000,4.000000,4.000000,4.000000,4.000000,4.000000,4.000000,4.000000,4.000000,100.000000
1614489242.135630,40.000000,0.000000,-5.374088,-4.912662,-7.828453,19.686102,9.912166,12.943991,12.647712,8.998526,3.657556,11.011764,23.316027,11.557619,17.383398,24.873917,10.956600,31.093536,20.039505,65.556053,38.939171,10.730633,21.658438,26.226978,9.145057,7.567149,-18.221275,-27.603439,-6.418211,7.254391,-0.409792,-1.887894,-42.668465,-34.155994,8064.000000,0.000000,4.000000,,,,0.000000,4.000000,4.000000,4.000000,4.000000,4.000000,4.000000,4.000000,4.000000,4.000000,4.000000,4.000000,4.000000,4.000000,4.000000,4.000000,4.000000,4.000000,4.000000,4.000000,4.000000,4.000000,4.000000,4.000000,4.000000,4.000000,4.000000,4.000000,4.000000,4.000000,4.000000,4.000000,4.000000,100.000000
1614489242.143379,41.000000,0.000000,-5.368714,-4.907750,-5.256522,20.692057,9.902254,12.931046,13.660705,8.476707,3.141078,9.975111,23.805532,11.546061,16.853193,24.849043,12.484105,28.498341,20.532286,65.490494,40.438694,12.258364,23.175241,23.636648,11.700014,8.072402,-17.690233,-23.473272,-6.924613,7.759957,-0.409382,2.729378,-36.984772,-32.070557,8064.000000,0.000000,4.000000,,,,0.000000,4.000000,4.000000,4.000000,4.000000,4.000000,4.000000,4.000000,4.000000,4.000000,4.000000,4.000000,4.000000,4.000000,4.000000,4.000000,4.000000,4.000000,4.000000,4.000000,4.000000,4.000000,4.000000,4.000000,4.000000,4.000000,4.000000,4.000000,4.000000,4.000000,4.000000,4.000000,4.000000,100.000000
1614489242.151029,42.000000,0.000000,-5.363345,-4.902842,-6.276907,17.081621,9.892351,12.918116,10.570121,4.878486,0.061013,12.016418,18.653521,10.508874,17.349161,21.747271,10.933159,27.957022,20.511753,53.630131,37.321331,10.194823,22.126425,24.638653,12.201135,7.551509,-20.236645,-21.911337,-8.456150,3.649633,-0.408973,2.213829,-38.999065,-35.115406,8064.000000,0.000000,4.000000,,,,0.000000,4.000000,4.000000,4.000000,4.000000,4.000000,4.000000,4.000000,4.000000,4.000000,4.000000,4.000000,4.000000,4.000000,4.000000,4.000000,4.000000,4.000000,4.000000,4.000000,4.000000,4.000000,4.000000,4.000000,4.000000,4.000000,4.000000,4.000000,4.000000,4.000000,4.000000,4.000000,4.000000,100.000000
1614489242.158878,43.000000,0.000000,-5.357982,-4.897939,-14.475758,10.397872,7.831177,11.879557,5.944166,1.283864,-6.092894,9.440299,12.993842,2.806057,17.331812,17.110138,2.204277,25.877781,19.465601,41.781628,31.130165,1.466680,12.873528,19.485809,11.676113,3.441394,-24.831793,-32.658657,-13.575899,-3.533504,-0.408564,1.698794,-50.754940,-41.746960,8064.000000,0.000000,4.000000,,,,0.000000,4.000000,4.000000,4.000000,4.000000,4.000000,4.000000,4.000000,4.000000,4.000000,4.000000,4.000000,4.000000,4.000000,4.000000,4.000000,4.000000,4.000000,4.000000,4.000000,4.000000,4.000000,4.000000,4.000000,4.000000,4.000000,4.000000,4.000000,4.000000,4.000000,4.000000,4.000000,4.000000,100.000000
1614489242.166627,44.000000,0.000000,-5.352624,-4.893041,-19.076668,7.823371,6.284884,9.816395,5.425401,0.769760,-11.727827,-2.364013,10.416745,-0.786492,12.699096,17.093027,-3.438953,23.800621,12.779469,41.227028,32.124676,-4.175812,6.706809,8.697093,4.997771,-0.664612,-25.832602,-44.933689,-17.664888,-7.119714,-0.408155,2.722736,-55.832390,-43.756493,8064.000000,0.000000,4.000000,,,,0.000000,4.000000,4.000000,4.000000,4.000000,4.000000,4.000000,4.000000,4.000000,4.000000,4.000000,4.000000,4.000000,4.000000,4.000000,4.000000,4.000000,4.000000,4.000000,4.000000,4.000000,4.000000,4.000000,4.000000,4.000000,4.000000,4.000000,4.000000,4.000000,4.000000,4.000000,4.000000,4.000000,100.000000
1614489242.174476,45.000000,0.000000,-5.347271,-4.888148,-19.570412,8.841189,6.278600,9.293758,4.394335,0.768990,-12.228919,-12.618059,0.662739,-0.272885,6.532550,14.511832,-4.461155,18.135796,5.587202,41.185799,32.605373,-3.658816,6.700102,1.508908,-5.263638,-4.766511,-24.781128,-46.427219,-18.672863,-7.625415,-0.407747,0.155911,-53.725277,-45.764019,8064.000000,0.000000,4.000000,,,,0.000000,4.000000,4.000000,4.000000,4.000000,4.000000,4.000000,4.000000,4.000000,4.000000,4.000000,4.000000,4.000000,4.000000,4.000000,4.000000,4.000000,4.000000,4.000000,4.000000,4.000000,4.000000,4.000000,4.000000,4.000000,4.000000,4.000000,4.000000,4.000000,4.000000,4.000000,4.000000,4.000000,100.000000
1614489242.182225,46.000000,0.000000,-5.341924,-4.883260,-19.038019,8.319528,6.272321,9.284464,2.338659,1.281041,-9.652588,-11.066979,-7.030231,-2.323895,4.987556,8.343474,-9.072079,11.450994,4.555974,38.067692,21.803535,-6.219260,3.103658,2.533040,-8.335297,-8.864309,-25.269169,-44.329510,-19.167011,-8.130610,-0.407339,-1.895527,-54.184372,-50.333641,8064.000000,0.000000,4.000000,,,,0.000000,4.000000,4.000000,4.000000,4.000000,4.000000,4.000000,4.000000,4.000000,4.000000,4.000000,4.000000,4.000000,4.000000,4.000000,4.000000,4.000000,4.000000,4.000000,4.000000,4.000000,4.000000,4.000000,4.000000,4.000000,4.000000,4.000000,4.000000,4.000000,4.000000,4.000000,4.000000,4.000000,100.000000
1614489242.190074,47.000000,0.000000,-5.336582,-4.878376,-18.506161,9.849669,6.266049,9.275180,3.874781,3.843863,-7.591653,-7.466169,-2.407817,-3.860032,6.521030,7.822310,-10.088647,8.875440,5.577059,38.542442,14.089424,-11.341246,-0.489189,3.556148,-6.788500,-10.906727,-25.243898,-45.310822,-15.558101,-8.122479,-0.406932,-1.893631,-54.130188,-50.796127,8064.000000,0.000000,4.000000,,,,0.000000,4.000000,4.000000,4.000000,4.000000,4.000000,4.000000,4.000000,4.000000,4.000000,4.000000,4.000000,4.000000,4.000000,4.000000,4.000000,4.000000,4.000000,4.000000,4.000000,4.000000,4.000000,4.000000,4.000000,4.000000,4.000000,4.000000,4.000000,4.000000,4.000000,4.000000,4.000000,4.000000,100.000000
1614489242.197823,48.000000,0.000000,-5.331245,-4.873498,-21.564579,7.788538,6.259783,9.778725,4.896548,4.865660,-8.609703,-7.971524,0.158694,-3.343352,5.488868,9.865770,-4.437533,9.379385,5.058661,39.529541,18.690720,-11.842725,-1.001520,0.475669,-6.781712,-11.408641,-25.218655,-45.778332,-8.875876,-5.550254,-0.406525,-1.891738,-54.076057,-50.232510,8064.000000,0.000000,4.000000,,,,0.000000,4.000000,4.000000,4.000000,4.000000,4.000000,4.000000,4.000000,4.000000,4.000000,4.000000,4.000000,4.000000,4.000000,4.000000,4.000000,4.000000,4.000000,4.000000,4.000000,4.000000,4.000000,4.000000,4.000000,4.000000,4.000000,4.000000,4.000000,4.000000,4.000000,4.000000,4.000000,4.000000,100.000000
1614489242.205672,49.000000,0.000000,-5.325914,-4.868625,-26.158398,1.626903,5.227882,6.692023,2.327549,4.860795,-9.626734,-7.963552,-2.918388,-3.852829,5.483379,9.855905,-5.458736,9.882826,5.053603,38.464371,22.261772,-11.318062,-1.513339,5.090578,-7.287750,-11.910052,-25.193436,-45.219730,-6.302897,-4.006243,-0.406118,-1.889846,-54.534801,-50.695099,8064.000000,0.000000,4.000000,,,,0.000000,4.000000,4.000000,4.000000,4.000000,4.000000,4.000000,4.000000,4.000000,4.000000,4.000000,4.000000,4.000000,4.000000,4.000000,4.000000,4.000000,4.000000,4.000000,4.000000,4.000000,4.000000,4.000000,4.000000,4.000000,4.000000,4.000000,4.000000,4.000000,4.000000,4.000000,4.000000,4.000000,100.000000
1614489242.213421,50.000000,0.000000,-5.320588,-4.863756,-25.106598,4.702199,2.658551,2.582767,2.325221,4.855934,-6.540184,-7.442768,-0.864188,-2.823335,6.503537,10.871690,-5.966098,12.437046,6.074190,39.964371,20.188229,-10.793922,2.077918,13.290616,-7.280463,-9.846860,-25.168243,-44.661690,-6.296595,-4.002236,-0.405712,-1.887956,-52.941803,-49.618763,8064.000000,0.000000,4.000000,,,,0.000000,4.000000,4.000000,4.000000,4.000000,4.000000,4.000000,4.000000,4.000000,4.000000,4.000000,4.000000,4.000000,4.000000,4.000000,4.000000,4.000000,4.000000,4.000000,4.000000,4.000000,4.000000,4.000000,4.000000,4.000000,4.000000,4.000000,4.000000,4.000000,4.000000,4.000000,4.000000,4.000000,100.000000
1614489242.221270,51.000000,0.000000,-5.315268,-4.858892,-20.466108,8.287241,2.143072,2.067364,-0.241207,3.825437,-12.174669,-7.435325,0.675138,-3.846153,4.958572,7.783895,-4.421670,12.424608,4.529655,38.898766,20.168041,-9.757488,4.127122,9.174761,-6.247541,-11.375475,-24.630255,-44.104210,-6.290298,-3.998234,-0.405306,-3.937350,-54.427322,-53.158886,8064.000000,0.000000,4.000000,,,,0.000000,4.000000,4.000000,4.000000,4.000000,4.000000,4.000000,4.000000,4.000000,4.000000,4.000000,4.000000,4.000000,4.000000,4.000000,4.000000,4.000000,4.000000,4.000000,4.000000,4.000000,4.000000,4.000000,4.000000,4.000000,4.000000,4.000000,4.000000,4.000000,4.000000,4.000000,4.000000,4.000000,100.000000
1614489242.229019,52.000000,0.000000,-5.822773,-4.854033,-18.394360,-2.490277,2.653750,1.039655,-7.420453,0.744688,-24.983007,-7.427890,-4.966563,-9.483332,2.902331,-3.505940,-11.083916,6.258338,1.448202,32.706020,20.660692,-12.311833,-5.620595,2.498919,-3.164371,-21.620510,-25.118444,-45.085747,-11.925034,-3.481415,-0.404901,-5.471874,-59.501102,-57.721111,8064.000000,0.000000,4.000000,,,,0.000000,4.000000,4.000000,4.000000,4.000000,4.000000,4.000000,4.000000,4.000000,4.000000,4.000000,4.000000,4.000000,4.000000,4.000000,4.000000,4.000000,4.000000,4.000000,4.000000,4.000000,4.000000,4.000000,4.000000,4.000000,4.000000,4.000000,4.000000,4.000000,4.000000,4.000000,4.000000,4.000000,100.000000
1614489242.236868,53.000000,0.000000,-5.304130,-4.849179,-19.401606,-10.180095,2.651096,2.577077,-5.874571,1.769585,-21.881102,-7.420462,-7.525699,-10.499490,1.873788,-5.040896,-16.201036,5.226439,1.446754,32.160492,21.152853,-8.709778,-5.102154,7.624626,-6.238129,-22.624531,-25.093327,-43.502197,-18.066954,-3.990754,-0.404496,-3.927941,-58.415958,-50.483906,8064.000000,0.000000,4.000000,,,,0.000000,4.000000,4.000000,4.000000,4.000000,4.000000,4.000000,4.000000,4.000000,4.000000,4.000000,4.000000,4.000000,4.000000,4.000000,4.000000,4.000000,4.000000,4.000000,4.000000,4.000000,4.000000,4.000000,4.000000,4.000000,4.000000,4.000000,4.000000,4.000000,4.000000,4.000000,4.000000,4.000000,100.000000
1614489242.244617,54.000000,0.000000,-2.734723,-4.844330,-19.382204,-2.477607,2.648445,9.753987,1.310791,4.844738,-3.397682,-7.413042,-5.979712,-4.847965,2.384735,2.143632,-10.543810,9.323776,2.983768,35.718075,21.131701,2.068163,8.236281,7.617001,-10.847276,-13.371137,-23.529772,-35.766388,-17.536068,-3.473943,-0.404092,-1.359910,-49.639595,-37.612907,8064.000000,0.000000,4.000000,,,,0.000000,4.000000,4.000000,4.000000,4.000000,4.000000,4.000000,4.000000,4.000000,4.000000,4.000000,4.000000,4.000000,4.000000,4.000000,4.000000,4.000000,4.000000,4.000000,4.000000,4.000000,4.000000,4.000000,4.000000,4.000000,4.000000,4.000000,4.000000,4.000000,4.000000,4.000000,4.000000,4.000000,100.000000
1614489242.252466,55.000000,0.000000,-1.193527,-4.839486,-13.208976,3.165896,2.645797,12.308336,2.847942,5.352714,5.323664,-7.405629,-8.025014,-3.304655,2.382350,-4.012358,-8.481984,8.288812,-1.121779,27.990049,17.008003,-1.010828,4.125481,-4.698308,-7.759505,-15.921868,-21.454960,-33.166519,-19.569813,-3.470469,-0.403688,-1.871371,-48.564316,-33.472733,8064.000000,0.000000,4.000000,,,,0.000000,4.000000,4.000000,4.000000,4.000000,4.000000,4.000000,4.000000,4.000000,4.000000,4.000000,4.000000,4.000000,4.000000,4.000000,4.000000,4.000000,4.000000,4.000000,4.000000,4.000000,4.000000,4.000000,4.000000,4.000000,4.000000,4.000000,4.000000,4.000000,4.000000,4.000000,4.000000,4.000000,100.000000
1614489242.260215,56.000000,0.000000,-2.217974,-4.834646,-4.477818,1.111448,2.643151,7.167822,0.793812,4.321720,2.754238,-7.398223,-9.042630,-2.788530,2.379967,-13.751935,-8.986322,7.767702,-8.812965,20.782572,14.939714,-13.830330,-10.237618,-8.796174,-7.751746,-22.059792,-20.920683,-37.748737,-26.729731,-7.569563,-0.403284,-2.382320,-51.592674,-34.977718,8064.000000,0.000000,4.000000,,,,0.000000,4.000000,4.000000,4.000000,4.000000,4.000000,4.000000,4.000000,4.000000,4.000000,4.000000,4.000000,4.000000,4.000000,4.000000,4.000000,4.000000,4.000000,4.000000,4.000000,4.000000,4.000000,4.000000,4.000000,4.000000,4.000000,4.000000,4.000000,4.000000,4.000000,4.000000,4.000000,4.000000,100.000000
1614489242.268064,57.000000,0.000000,-1.190115,-4.829812,1.680506,1.110337,3.153328,5.109373,2.331480,5.855860,2.751484,-7.390825,-3.392562,2.855284,2.377588,-5.020235,-1.797849,15.965062,-7.265691,32.556660,19.027338,-12.790859,-6.124817,-4.171993,-18.000404,-16.909527,-21.412584,-40.275093,-29.779924,-11.664557,-0.402881,-1.867117,-47.951336,-36.994022,8064.000000,0.000000,4.000000,,,,0.000000,4.000000,4.000000,4.000000,4.000000,4.000000,4.000000,4.000000,4.000000,4.000000,4.000000,4.000000,4.000000,4.000000,4.000000,4.000000,4.000000,4.000000,4.000000,4.000000,4.000000,4.000000,4.000000,4.000000,4.000000,4.000000,4.000000,4.000000,4.000000,4.000000,4.000000,4.000000,4.000000,100.000000
1614489242.275813,58.000000,0.000000,1.375178,-4.824982,-0.372457,2.134868,2.124534,6.129904,2.841969,3.798722,1.210271,-7.383434,1.739036,4.903711,2.375210,6.779657,-0.770410,22.102943,-1.617399,44.318977,20.546772,-11.752427,0.547975,-4.680642,-22.084969,-15.866977,-20.878351,-43.824562,-29.750143,-11.652893,-0.402478,-1.865250,-52.005951,-42.598057,8064.000000,0.000000,4.000000,,,,0.000000,4.000000,4.000000,4.000000,4.000000,4.000000,4.000000,4.000000,4.000000,4.000000,4.000000,4.000000,4.000000,4.000000,4.000000,4.000000,4.000000,4.000000,4.000000,4.000000,4.000000,4.000000,4.000000,4.000000,4.000000,4.000000,4.000000,4.000000,4.000000,4.000000,4.000000,4.000000,4.000000,100.000000
1614489242.283462,59.000000,0.000000,2.399443,-4.820157,-11.141315,1.619912,-2.492975,5.610954,1.813486,-3.897384,-2.893503,-7.376050,1.224477,3.873166,2.372835,7.285698,-2.820922,19.003918,-2.128603,41.197735,20.526226,-20.458624,-4.067958,-5.701602,-18.985960,-16.876751,-21.370293,-51.473045,-33.822956,-11.641240,-0.402075,-1.863385,-68.877022,-49.734943,8064.000000,0.000000,4.000000,,,,0.000000,4.000000,4.000000,4.000000,4.000000,4.000000,4.000000,4.000000,4.000000,4.000000,4.000000,4.000000,4.000000,4.000000,4.000000,4.000000,4.000000,4.000000,4.000000,4.000000,4.000000,4.000000,4.000000,4.000000,4.000000,4.000000,4.000000,4.000000,4.000000,4.000000,4.000000,4.000000,4.000000,100.000000
1614489242.291211,60.000000,0.000000,1.884223,-4.815337,-21.899405,1.618292,-5.054585,5.605343,1.811672,-4.406308,-4.429071,-7.368674,0.197611,4.894934,2.370462,5.227131,1.797284,16.420811,-0.075192,37.566792,25.121084,-14.284319,-1.499787,-2.618977,-17.941334,-6.090643,-21.861742,-51.934391,-36.866058,-11.629599,-0.401673,-2.374342,-70.346603,-50.198029,8064.000000,0.000000,4.000000,,,,0.000000,4.000000,4.000000,4.000000,4.000000,4.000000,4.000000,4.000000,4.000000,4.000000,4.000000,4.000000,4.000000,4.000000,4.000000,4.000000,4.000000,4.000000,4.000000,4.000000,4.000000,4.000000,4.000000,4.000000,4.000000,4.000000,4.000000,4.000000,4.000000,4.000000,4.000000,4.000000,4.000000,100.000000
1614489242.298861,61.000000,0.000000,1.882339,-4.810522,-21.364685,1.616674,-4.536710,4.574097,2.322681,1.239124,-5.450284,-7.361306,1.223055,2.325937,2.368091,6.760365,0.257025,16.917212,5.053088,39.580509,28.685707,-0.423880,6.194020,-1.590717,-14.333648,-0.956347,-20.814240,-45.728611,-36.316372,-9.053866,-0.401272,-1.346327,-52.840363,-44.506805,8064.000000,0.000000,4.000000,,,,0.000000,4.000000,4.000000,4.000000,4.000000,4.000000,4.000000,4.000000,4.000000,4.000000,4.000000,4.000000,4.000000,4.000000,4.000000,4.000000,4.000000,4.000000,4.000000,4.000000,4.000000,4.000000,4.000000,4.000000,4.000000,4.000000,4.000000,4.000000,4.000000,4.000000,4.000000,4.000000,4.000000,100.000000
1614489242.306610,62.000000,0.000000,1.880457,-4.292891,-14.163833,1.615057,-4.532173,2.005420,0.781897,-0.813397,-8.008936,-7.353944,1.221831,-5.368697,2.365723,7.266425,-6.409899,18.438755,4.535215,39.540928,27.631380,-0.936277,5.162185,0.462155,-10.729570,-9.673340,-21.306246,-43.631599,-31.151850,-8.019172,0.111950,1.731943,-44.069572,-41.385376,8064.000000,0.000000,4.000000,,,,0.000000,4.000000,4.000000,4.000000,4.000000,4.000000,4.000000,4.000000,4.000000,4.000000,4.000000,4.000000,4.000000,4.000000,4.000000,4.000000,4.000000,4.000000,4.000000,4.000000,4.000000,4.000000,4.000000,4.000000,4.000000,4.000000,4.000000,4.000000,4.000000,4.000000,4.000000,4.000000,4.000000,100.000000
1614489242.314259,63.000000,0.000000,1.878576,-4.801418,-11.585567,1.613442,-5.040462,2.003414,-3.321449,-6.453609,-8.513747,-7.346591,0.707789,-5.876149,2.363358,6.746338,0.263178,20.471598,4.530680,38.475746,28.629389,-0.935341,6.695485,9.179642,-10.206020,-10.689307,-22.310581,-44.613609,-23.941212,-5.959870,-0.913803,2.243031,-46.589603,-43.395275,8064.000000,0.000000,4.000000,,,,0.000000,4.000000,4.000000,4.000000,4.000000,4.000000,4.000000,4.000000,4.000000,4.000000,4.000000,4.000000,4.000000,4.000000,4.000000,4.000000,4.000000,4.000000,4.000000,4.000000,4.000000,4.000000,4.000000,4.000000,4.000000,4.000000,4.000000,4.000000,4.000000,4.000000,4.000000,4.000000,4.000000,100.000000
1614489242.322008,64.000000,0.000000,1.876698,-4.796617,-12.599622,1.611829,-4.522601,2.001411,-5.882230,-3.883053,-7.992413,-7.339244,1.219902,-0.742068,2.360994,5.201130,7.955222,20.451126,7.603072,37.924450,30.652042,8.809184,14.893917,14.811488,-3.529148,-1.960670,-14.595963,-44.568996,-20.327526,0.712756,0.112752,1.727968,-42.440453,-40.274956,0.000000,187.000000,4.000000,,,,0.000000,4.000000,4.000000,4.000000,4.000000,4.000000,4.000000,4.000000,4.000000,4.000000,4.000000,4.000000,4.000000,4.000000,4.000000,4.000000,4.000000,4.000000,4.000000,4.000000,4.000000,4.000000,4.000000,4.000000,4.000000,4.000000,4.000000,4.000000,4.000000,4.000000,4.000000,4.000000,4.000000,100.000000
1614489242.329657,65.000000,0.000000,1.874821,-4.278999,-11.561381,1.610217,-4.518078,1.999410,-5.876348,-1.315067,-7.984421,-7.331904,2.757143,0.284316,1.845813,6.221570,7.434446,20.430676,9.646750,38.399345,32.159851,12.902939,20.007229,9.668471,6.217971,1.631035,-3.812136,-43.498787,-20.307198,5.327428,2.676742,2.751881,-36.244164,-31.516731,0.000000,201.000000,4.000000,,,,0.000000,4.000000,4.000000,4.000000,4.000000,4.000000,4.000000,4.000000,4.000000,4.000000,4.000000,4.000000,4.000000,4.000000,4.000000,4.000000,4.000000,4.000000,4.000000,4.000000,4.000000,4.000000,4.000000,4.000000,4.000000,4.000000,4.000000,4.000000,4.000000,4.000000,4.000000,4.000000,4.000000,100.000000
1614489242.337406,66.000000,0.000000,1.872946,-5.300362,-11.037000,1.608607,-5.026381,1.997410,-5.870472,-4.390675,-9.002077,-7.324573,5.318489,-0.228789,2.356787,6.728169,7.939832,21.435886,10.149924,38.360947,32.127693,10.838755,15.884657,6.581880,9.288676,0.090942,-4.833965,-43.455288,-20.799711,3.270818,2.674065,0.697847,-38.772022,-31.998035,0.000000,171.000000,4.000000,,,,0.000000,4.000000,4.000000,4.000000,4.000000,4.000000,4.000000,4.000000,4.000000,4.000000,4.000000,4.000000,4.000000,4.000000,4.000000,4.000000,4.000000,4.000000,4.000000,4.000000,4.000000,4.000000,4.000000,4.000000,4.000000,4.000000,4.000000,4.000000,4.000000,4.000000,4.000000,4.000000,4.000000,100.000000
1614489242.345055,67.000000,0.000000,1.871073,-7.346343,-12.051603,1.094178,-3.482893,0.969772,-5.351781,-6.950387,-8.480255,-7.830069,3.261888,0.284260,2.867251,0.054774,2.290867,17.824707,5.011569,37.296944,25.428898,3.648428,4.073901,6.062478,8.253746,-8.114277,-12.521439,-44.437473,-23.343014,-3.911940,-0.918353,-5.969518,-41.810173,-43.248089,0.000000,188.000000,4.000000,,,,0.000000,4.000000,4.000000,4.000000,4.000000,4.000000,4.000000,4.000000,4.000000,4.000000,4.000000,4.000000,4.000000,4.000000,4.000000,4.000000,4.000000,4.000000,4.000000,4.000000,4.000000,4.000000,4.000000,4.000000,4.000000,4.000000,4.000000,4.000000,4.000000,4.000000,4.000000,4.000000,4.000000,100.000000
1614489242.352804,68.000000,0.000000,1.869202,-8.877459,-11.013911,1.605904,-0.915307,-1.595301,-6.884891,-6.430616,-7.446134,-8.847879,-2.895220,-2.792947,1.838743,-4.047844,-8.480655,12.678677,-3.711391,37.259647,20.788084,-6.098810,-4.648122,-2.661534,-1.498097,-15.798470,-14.560200,-43.367393,-27.935057,-11.087515,-3.994357,-10.066113,-42.281185,-46.281765,0.000000,179.000000,4.000000,,,,0.000000,4.000000,4.000000,4.000000,4.000000,4.000000,4.000000,4.000000,4.000000,4.000000,4.000000,4.000000,4.000000,4.000000,4.000000,4.000000,4.000000,4.000000,4.000000,4.000000,4.000000,4.000000,4.000000,4.000000,4.000000,4.000000,4.000000,4.000000,4.000000,4.000000,4.000000,4.000000,4.000000,100.000000
1614489242.360454,69.000000,0.000000,1.867333,-8.355761,-5.874692,4.168401,-0.914392,-2.106526,-5.339544,-3.860083,-8.977149,-7.813391,-1.866683,-2.277334,2.349725,5.186973,0.245775,14.717280,-0.630756,41.837772,25.382681,-3.015788,0.484731,-5.222975,-12.778650,-8.603185,-13.519998,-38.195820,-28.932762,-11.589248,-3.990363,-9.030405,-41.726082,-33.414970,0.000000,170.000000,4.000000,,,,0.000000,4.000000,4.000000,4.000000,4.000000,4.000000,4.000000,4.000000,4.000000,4.000000,4.000000,4.000000,4.000000,4.000000,4.000000,4.000000,4.000000,4.000000,4.000000,4.000000,4.000000,4.000000,4.000000,4.000000,4.000000,4.000000,4.000000,4.000000,4.000000,4.000000,4.000000,4.000000,4.000000,100.000000
1614489242.368203,70.000000,0.000000,1.865466,-8.347404,-2.279074,5.702694,-0.913477,-1.591599,1.845283,-2.317761,-7.942531,-6.267116,7.878773,2.340328,7.475580,16.463837,17.681427,19.830769,11.164746,44.872856,27.408581,5.705176,9.202195,11.192505,-6.612026,1.149008,-14.019299,-35.593525,-28.391008,-6.962274,-3.986372,-9.021375,-42.197178,-23.125143,0.000000,207.000000,4.000000,,,,0.000000,4.000000,4.000000,4.000000,4.000000,4.000000,4.000000,4.000000,4.000000,4.000000,4.000000,4.000000,4.000000,4.000000,4.000000,4.000000,4.000000,4.000000,4.000000,4.000000,4.000000,4.000000,4.000000,4.000000,4.000000,4.000000,4.000000,4.000000,4.000000,4.000000,4.000000,4.000000,4.000000,100.000000
1614489242.375852,71.000000,0.000000,1.863600,-8.339057,-6.379359,4.158530,-0.912564,-1.590007,6.458822,-3.341085,-0.242280,-9.337771,12.999100,3.876449,9.519386,18.498655,17.663744,20.836578,14.230505,44.315166,26.355530,2.622548,10.218634,19.386440,6.727920,-0.903423,-15.030920,-36.583572,-28.362617,-3.878389,-3.982386,-9.525174,-42.154980,-23.614840,0.000000,206.000000,4.000000,,,,0.000000,4.000000,4.000000,4.000000,4.000000,4.000000,4.000000,4.000000,4.000000,4.000000,4.000000,4.000000,4.000000,4.000000,4.000000,4.000000,4.000000,4.000000,4.000000,4.000000,4.000000,4.000000,4.000000,4.000000,4.000000,4.000000,4.000000,4.000000,4.000000,4.000000,4.000000,4.000000,4.000000,100.000000
1614489242.383701,72.000000,0.000000,1.861737,-8.330718,-7.398620,5.692832,-1.424472,-1.588417,5.939543,-1.286462,3.860526,-4.200229,11.960459,4.898214,6.432944,16.428875,15.081979,23.379845,12.164992,54.014439,38.124046,3.645567,13.285338,6.546541,4.157089,2.174404,-13.990249,-35.521347,-28.334255,-3.874510,-3.978404,-9.002829,-41.600006,-24.616865,0.000000,178.000000,4.000000,,,,0.000000,4.000000,4.000000,4.000000,4.000000,4.000000,4.000000,4.000000,4.000000,4.000000,4.000000,4.000000,4.000000,4.000000,4.000000,4.000000,4.000000,4.000000,4.000000,4.000000,4.000000,4.000000,4.000000,4.000000,4.000000,4.000000,4.000000,4.000000,4.000000,4.000000,4.000000,4.000000,4.000000,100.000000
1614489242.391450,73.000000,0.000000,1.859875,-8.322388,5.942111,10.815345,0.115414,-1.586829,8.497705,3.843030,-0.758719,15.291151,11.435678,10.021521,5.400870,17.950907,23.784845,27.971849,15.742571,66.780937,50.393616,12.359870,17.887438,5.001533,0.050368,13.454281,-10.386515,-32.408901,-28.305922,-3.870636,-3.974425,-8.481005,-41.045586,-23.053787,0.000000,185.000000,4.000000,,,,0.000000,4.000000,4.000000,4.000000,4.000000,4.000000,4.000000,4.000000,4.000000,4.000000,4.000000,4.000000,4.000000,4.000000,4.000000,4.000000,4.000000,4.000000,4.000000,4.000000,4.000000,4.000000,4.000000,4.000000,4.000000,4.000000,4.000000,4.000000,4.000000,4.000000,4.000000,4.000000,4.000000,100.000000
1614489242.399299,74.000000,0.000000,1.858015,-8.314065,14.654119,12.342991,2.679401,-1.585242,10.027669,5.890469,-4.860525,22.455347,11.937063,12.062781,6.933931,18.958597,25.299522,28.456697,17.778111,63.124413,44.189377,8.244946,12.228524,19.868326,6.716984,8.825441,-9.350487,-32.889313,-27.764795,-3.866765,-3.970451,-8.472524,-42.030178,-23.030733,0.000000,180.000000,4.000000,,,,0.000000,4.000000,4.000000,4.000000,4.000000,4.000000,4.000000,4.000000,4.000000,4.000000,4.000000,4.000000,4.000000,4.000000,4.000000,4.000000,4.000000,4.000000,4.000000,4.000000,4.000000,4.000000,4.000000,4.000000,4.000000,4.000000,4.000000,4.000000,4.000000,4.000000,4.000000,4.000000,4.000000,100.000000
1614489242.407048,75.000000,0.000000,1.856157,-8.305751,4.383054,13.356289,2.163901,-1.583657,3.863796,5.371758,-4.342844,8.073917,12.437946,9.999436,5.388535,14.324254,15.017812,26.889780,13.144947,52.292057,33.888775,1.570034,2.985527,15.745893,8.248729,-7.593640,-10.366777,-35.933346,-24.660107,-3.350078,-3.966480,-8.464051,-41.475330,-24.033342,0.000000,193.000000,4.000000,,,,0.000000,4.000000,4.000000,4.000000,4.000000,4.000000,4.000000,4.000000,4.000000,4.000000,4.000000,4.000000,4.000000,4.000000,4.000000,4.000000,4.000000,4.000000,4.000000,4.000000,4.000000,4.000000,4.000000,4.000000,4.000000,4.000000,4.000000,4.000000,4.000000,4.000000,4.000000,4.000000,4.000000,100.000000
1614489242.414897,76.000000,0.000000,1.854301,-8.297445,-5.364919,15.907036,4.213019,-1.582073,-2.293914,5.879207,-3.825680,-1.677746,9.861406,7.425334,2.819044,7.643263,9.874589,24.298786,7.490777,51.214127,34.367706,3.619746,3.495362,-3.757031,5.163557,-12.714252,-8.305129,-36.410233,-24.122625,-1.295446,-3.962514,-8.968408,-38.356930,-24.009310,0.000000,192.000000,4.000000,,,,0.000000,4.000000,4.000000,4.000000,4.000000,4.000000,4.000000,4.000000,4.000000,4.000000,4.000000,4.000000,4.000000,4.000000,4.000000,4.000000,4.000000,4.000000,4.000000,4.000000,4.000000,4.000000,4.000000,4.000000,4.000000,4.000000,4.000000,4.000000,4.000000,4.000000,4.000000,4.000000,4.000000,100.000000
1614489242.422646,77.000000,0.000000,1.852447,-8.289147,-2.795451,12.814205,9.849833,-1.580491,-2.291620,1.770764,-4.847496,0.375213,3.184878,1.776883,2.303405,3.533056,9.351894,17.607822,1.842260,53.214191,34.846161,-4.076181,5.030328,-5.291736,4.132752,-9.624615,-11.886567,-35.861004,-25.124146,-1.806971,-4.471372,-9.472260,-40.882675,-22.959660,0.000000,192.000000,4.000000,,,,0.000000,4.000000,4.000000,4.000000,4.000000,4.000000,4.000000,4.000000,4.000000,4.000000,4.000000,4.000000,4.000000,4.000000,4.000000,4.000000,4.000000,4.000000,4.000000,4.000000,4.000000,4.000000,4.000000,4.000000,4.000000,4.000000,4.000000,4.000000,4.000000,4.000000,4.000000,4.000000,4.000000,100.000000
1614489242.430495,78.000000,0.000000,1.850594,-8.793679,-0.228553,5.109084,9.327162,-1.578910,-1.776508,-5.410494,-4.329827,0.374838,-0.408051,-3.865919,2.813922,0.965420,7.291260,12.462008,-1.749325,51.622517,24.042084,-19.456720,-1.128548,3.431504,1.564517,-13.204733,-25.720835,-36.337963,-23.047739,-3.856446,-3.954080,-13.052531,-49.046921,-26.013622,0.000000,192.000000,4.000000,,,,0.000000,4.000000,4.000000,4.000000,4.000000,4.000000,4.000000,4.000000,4.000000,4.000000,4.000000,4.000000,4.000000,4.000000,4.000000,4.000000,4.000000,4.000000,4.000000,4.000000,4.000000,4.000000,4.000000,4.000000,4.000000,4.000000,4.000000,4.000000,4.000000,4.000000,4.000000,4.000000,4.000000,100.000000
1614489242.438244,79.000000,0.000000,1.848744,-8.272065,-2.279607,3.565513,6.240911,-1.577331,-2.287552,-6.943545,-4.325498,-1.676819,0.105178,-4.887694,0.759826,-2.112468,6.258328,11.936727,-3.286038,51.570896,12.735990,-23.539827,-9.845368,-1.187312,-3.052432,-20.883837,-33.900242,-36.814445,-27.127254,-3.852589,-3.950126,-18.167685,-53.100437,-30.602995,0.000000,155.000000,4.000000,,,,0.000000,4.000000,4.000000,4.000000,4.000000,4.000000,4.000000,4.000000,4.000000,4.000000,4.000000,4.000000,4.000000,4.000000,4.000000,4.000000,4.000000,4.000000,4.000000,4.000000,4.000000,4.000000,4.000000,4.000000,4.000000,4.000000,4.000000,4.000000,4.000000,4.000000,4.000000,4.000000,4.000000,100.000000
1614489242.446093,80.000000,0.000000,1.846895,-8.263793,-1.251686,5.613229,6.747491,-1.575754,-2.285265,-5.910961,-4.321172,-1.162321,0.617893,-3.344345,-1.805037,-2.110356,5.226429,12.437610,-5.334033,52.032143,14.261715,-22.490646,-11.886806,-7.852791,-5.613482,-23.427055,-31.815060,-36.264812,-42.484741,-3.335916,-4.458996,-20.200798,-54.585800,-31.598032,0.000000,183.000000,4.000000,,,,0.000000,4.000000,4.000000,4.000000,4.000000,4.000000,4.000000,4.000000,4.000000,4.000000,4.000000,4.000000,4.000000,4.000000,4.000000,4.000000,4.000000,4.000000,4.000000,4.000000,4.000000,4.000000,4.000000,4.000000,4.000000,4.000000,4.000000,4.000000,4.000000,4.000000,4.000000,4.000000,4.000000,100.000000
1614489242.453842,81.000000,0.000000,2.357868,-8.768350,0.288027,3.556334,4.689462,-1.574178,-1.257339,-6.417871,-4.316851,-2.699621,1.130096,-2.828180,-0.777591,-0.056963,5.221202,13.450813,-5.841520,52.492931,20.401300,-20.929695,-9.310816,-0.665451,-7.146330,-16.736961,-32.808884,-35.202904,-45.006359,-3.332580,-3.428896,-17.103674,-56.582497,-31.566435,0.000000,193.000000,4.000000,,,,0.000000,4.000000,4.000000,4.000000,4.000000,4.000000,4.000000,4.000000,4.000000,4.000000,4.000000,4.000000,4.000000,4.000000,4.000000,4.000000,4.000000,4.000000,4.000000,4.000000,4.000000,4.000000,4.000000,4.000000,4.000000,4.000000,4.000000,4.000000,4.000000,4.000000,4.000000,4.000000,4.000000,100.000000
1614489242.461691,82.000000,0.000000,2.355510,-7.733940,-1.250723,6.116880,-0.443433,-1.059784,-1.256081,-3.334530,-3.799714,-3.722562,1.641786,-3.338172,0.248828,-1.082548,4.190340,13.437363,-2.245935,53.978901,19.868078,-12.190816,-7.250223,8.565984,-9.703286,-10.566379,-31.237616,-35.680523,-30.602381,-3.329248,1.189917,-12.984007,-51.397709,-30.509226,0.000000,207.000000,4.000000,,,,0.000000,4.000000,4.000000,4.000000,4.000000,4.000000,4.000000,4.000000,4.000000,4.000000,4.000000,4.000000,4.000000,4.000000,4.000000,4.000000,4.000000,4.000000,4.000000,4.000000,4.000000,4.000000,4.000000,4.000000,4.000000,4.000000,4.000000,4.000000,4.000000,4.000000,4.000000,4.000000,4.000000,100.000000
1614489242.469440,83.000000,0.000000,1.840335,-3.110822,4.391554,15.341533,3.659575,-2.084365,-1.767646,2.309831,-3.795914,-0.641916,-0.411137,-4.360475,-2.315523,-1.081465,2.134867,12.398284,-1.730869,52.386459,24.463594,-3.460677,-4.166050,6.506135,-11.744865,-10.555812,-19.924326,-36.670483,-23.392290,-3.838739,3.752830,-12.458202,-43.141182,-25.863333,0.000000,176.000000,4.000000,,,,0.000000,4.000000,4.000000,4.000000,4.000000,4.000000,4.000000,4.000000,4.000000,4.000000,4.000000,4.000000,4.000000,4.000000,4.000000,4.000000,4.000000,4.000000,4.000000,4.000000,4.000000,4.000000,4.000000,4.000000,4.000000,4.000000,4.000000,4.000000,4.000000,4.000000,4.000000,4.000000,4.000000,100.000000
1614489242.477289,84.000000,0.000000,1.838494,-0.543608,19.771778,20.454395,13.912325,-1.056640,-1.253057,6.922905,-4.817759,8.076674,2.666197,3.336193,-1.287567,1.996539,10.337861,17.001270,-1.729138,51.821255,34.695541,1.158169,-0.059320,5.986809,-6.092094,-5.417051,-11.699274,-31.505608,-24.394539,-4.347721,4.261898,-12.445744,-40.021118,-20.196444,0.000000,195.000000,4.000000,,,,0.000000,4.000000,4.000000,4.000000,4.000000,4.000000,4.000000,4.000000,4.000000,4.000000,4.000000,4.000000,4.000000,4.000000,4.000000,4.000000,4.000000,4.000000,4.000000,4.000000,4.000000,4.000000,4.000000,4.000000,4.000000,4.000000,4.000000,4.000000,4.000000,4.000000,4.000000,4.000000,4.000000,100.000000
1614489242.485038,85.000000,0.000000,2.862297,-1.055885,22.316109,21.459583,13.385592,2.021340,-1.251804,5.377521,-3.274480,14.222444,5.740454,9.486703,0.765003,1.481722,19.045471,25.702217,-1.214588,53.820713,29.532640,1.157010,-1.084901,9.570565,4.170408,-1.821890,-12.713216,-27.884357,-24.370144,-6.907475,3.231994,-10.894836,-40.493919,-18.637785,0.000000,200.000000,4.000000,,,,0.000000,4.000000,4.000000,4.000000,4.000000,4.000000,4.000000,4.000000,4.000000,4.000000,4.000000,4.000000,4.000000,4.000000,4.000000,4.000000,4.000000,4.000000,4.000000,4.000000,4.000000,4.000000,4.000000,4.000000,4.000000,4.000000,4.000000,4.000000,4.000000,4.000000,4.000000,4.000000,4.000000,100.000000
1614489242.492887,86.000000,0.000000,-2.268771,-1.054829,4.857895,16.822739,0.038874,-1.057604,-8.942861,-4.371446,-4.296846,1.900529,-9.137082,-4.368937,-13.081916,-9.801810,1.077708,16.445747,-8.905681,42.484844,12.580030,-9.100556,-9.288944,-5.310800,1.602135,-18.230326,-17.315887,-37.600063,-32.550903,-14.592875,-0.360981,-13.960865,-45.068810,-21.696072,0.000000,191.000000,4.000000,,,,0.000000,4.000000,4.000000,4.000000,4.000000,4.000000,4.000000,4.000000,4.000000,4.000000,4.000000,4.000000,4.000000,4.000000,4.000000,4.000000,4.000000,4.000000,4.000000,4.000000,4.000000,4.000000,4.000000,4.000000,4.000000,4.000000,4.000000,4.000000,4.000000,4.000000,4.000000,4.000000,4.000000,100.000000
1614489242.500636,87.000000,0.000000,-12.010092,-0.540954,-9.505938,5.011044,-9.191935,-8.236033,-19.703148,-14.110664,-13.523318,-16.050089,-31.179226,-18.723543,-30.504732,-25.689445,-24.564396,-5.621981,-23.255751,16.801332,2.823861,-24.476072,-17.484783,-25.818310,-14.809724,-35.135170,-22.426777,-47.818874,-41.749123,-22.270590,-4.463184,-21.126390,-53.228867,-25.776939,0.000000,200.000000,4.000000,,,,0.000000,4.000000,4.000000,4.000000,4.000000,4.000000,4.000000,4.000000,4.000000,4.000000,4.000000,4.000000,4.000000,4.000000,4.000000,4.000000,4.000000,4.000000,4.000000,4.000000,4.000000,4.000000,4.000000,4.000000,4.000000,4.000000,4.000000,4.000000,4.000000,4.000000,4.000000,4.000000,4.000000,100.000000
1614489242.508485,88.000000,0.000000,-10.972441,-1.053234,-7.957970,-3.199095,-4.567358,-9.766259,-20.196266,-11.019630,-18.638000,-14.495578,-29.096766,-7.422768,-26.371662,-27.715036,-20.437267,-7.667642,-25.796597,6.528121,5.385140,-25.990057,-18.492941,-20.151466,-22.487221,-29.971830,-24.968452,-46.232594,-35.553524,-19.684217,-4.458721,-24.182188,-56.252563,-27.289623,0.000000,205.000000,4.000000,,,,0.000000,4.000000,4.000000,4.000000,4.000000,4.000000,4.000000,4.000000,4.000000,4.000000,4.000000,4.000000,4.000000,4.000000,4.000000,4.000000,4.000000,4.000000,4.000000,4.000000,4.000000,4.000000,4.000000,4.000000,4.000000,4.000000,4.000000,4.000000,4.000000,4.000000,4.000000,4.000000,4.000000,100.000000
1614489242.516234,89.000000,0.000000,-2.243519,-1.052180,-4.873089,-2.683075,2.616697,-8.218032,-14.022223,-3.316303,-12.465516,-1.660569,-11.631771,7.969270,-13.011958,-14.866809,-5.032214,5.160539,-16.027210,18.316463,15.123344,-17.246119,-12.320601,-4.233878,-18.362171,-20.198269,-24.430662,-43.109436,-24.235920,-11.972225,-3.941442,-23.132364,-55.170670,-26.749514,0.000000,182.000000,4.000000,,,,0.000000,4.000000,4.000000,4.000000,4.000000,4.000000,4.000000,4.000000,4.000000,4.000000,4.000000,4.000000,4.000000,4.000000,4.000000,4.000000,4.000000,4.000000,4.000000,4.000000,4.000000,4.000000,4.000000,4.000000,4.000000,4.000000,4.000000,4.000000,4.000000,4.000000,4.000000,4.000000,4.000000,100.000000
1614489242.523984,90.000000,0.000000,-1.728455,-1.051128,-4.355395,-3.193213,1.075618,-9.235455,-12.469739,-2.287346,-6.812025,0.905194,-4.440652,8.986941,-11.460485,-4.082712,-4.514361,9.257942,-11.908619,25.477634,23.313349,-13.126308,-10.256998,-6.793747,-16.805347,-20.690891,-24.919052,-41.527866,-23.186045,-9.908971,-4.450321,-23.109232,-56.141140,-27.235584,0.000000,186.000000,4.000000,,,,0.000000,4.000000,4.000000,4.000000,4.000000,4.000000,4.000000,4.000000,4.000000,4.000000,4.000000,4.000000,4.000000,4.000000,4.000000,4.000000,4.000000,4.000000,4.000000,4.000000,4.000000,4.000000,4.000000,4.000000,4.000000,4.000000,4.000000,4.000000,4.000000,4.000000,4.000000,4.000000,4.000000,100.000000
1614489242.531733,91.000000,0.000000,-5.316471,-1.050077,-1.786937,0.912544,-1.489560,-9.226219,-12.970090,-3.310700,-8.343675,-1.146994,-7.000314,5.901031,-10.936203,2.075217,-0.407283,12.325607,-12.409531,27.503439,21.751574,-15.164464,-12.298023,-11.402338,-18.327003,-22.721483,-24.381313,-37.383774,-24.701319,-11.437524,-3.933050,-23.598944,-55.572178,-27.721170,0.000000,199.000000,4.000000,,,,0.000000,4.000000,4.000000,4.000000,4.000000,4.000000,4.000000,4.000000,4.000000,4.000000,4.000000,4.000000,4.000000,4.000000,4.000000,4.000000,4.000000,4.000000,4.000000,4.000000,4.000000,4.000000,4.000000,4.000000,4.000000,4.000000,4.000000,4.000000,4.000000,4.000000,4.000000,4.000000,4.000000,100.000000
1614489242.539382,92.000000,0.000000,-5.311154,-1.049027,-1.785150,10.655222,-0.975250,-8.704172,-9.880197,-3.307389,-8.848151,-0.120206,-6.993314,8.459233,-2.720139,10.278270,12.926458,22.056871,-8.294558,37.219524,20.191360,-14.636478,-4.593418,-2.672987,-17.795855,-20.134659,-21.792830,-34.782288,-22.625336,-9.887625,-3.929117,-23.062525,-52.439682,-27.180628,0.000000,193.000000,4.000000,,,,0.000000,4.000000,4.000000,4.000000,4.000000,4.000000,4.000000,4.000000,4.000000,4.000000,4.000000,4.000000,4.000000,4.000000,4.000000,4.000000,4.000000,4.000000,4.000000,4.000000,4.000000,4.000000,4.000000,4.000000,4.000000,4.000000,4.000000,4.000000,4.000000,4.000000,4.000000,4.000000,4.000000,100.000000
1614489242.547131,93.000000,0.000000,-6.844305,-1.047978,-1.270545,9.618925,-1.999916,-9.721109,-7.819035,-2.278441,-7.813663,-2.171367,-4.422218,9.476415,1.385145,16.934658,13.939173,24.086098,-4.183699,43.336151,20.683990,-12.570560,1.052201,-2.670314,-16.752419,-19.601704,-20.232574,-35.773148,-24.141172,-11.416199,-3.925188,-23.552282,-51.361603,-28.179089,0.000000,196.000000,4.000000,,,,0.000000,4.000000,4.000000,4.000000,4.000000,4.000000,4.000000,4.000000,4.000000,4.000000,4.000000,4.000000,4.000000,4.000000,4.000000,4.000000,4.000000,4.000000,4.000000,4.000000,4.000000,4.000000,4.000000,4.000000,4.000000,4.000000,4.000000,4.000000,4.000000,4.000000,4.000000,4.000000,4.000000,100.000000
1614489242.554780,94.000000,0.000000,-11.965665,-1.046930,6.423034,4.481101,-0.459454,-7.147285,-8.836857,-2.276162,-8.318669,-4.220478,-6.981898,4.338734,-4.257265,8.712596,5.207284,17.908165,-9.820540,36.626148,9.381255,-16.147734,-13.307825,-14.975336,-17.248487,-26.248768,-20.725163,-35.737373,-32.834980,-16.532988,-3.921263,-23.015909,-51.823059,-29.689371,0.000000,194.000000,4.000000,,,,0.000000,4.000000,4.000000,4.000000,4.000000,4.000000,4.000000,4.000000,4.000000,4.000000,4.000000,4.000000,4.000000,4.000000,4.000000,4.000000,4.000000,4.000000,4.000000,4.000000,4.000000,4.000000,4.000000,4.000000,4.000000,4.000000,4.000000,4.000000,4.000000,4.000000,4.000000,4.000000,4.000000,100.000000
1614489242.562529,95.000000,0.000000,-12.979341,-1.045883,13.596098,10.117646,6.720492,-2.011933,-8.828020,-3.812348,-4.720607,-2.164976,-16.718506,-2.332272,-13.483777,-7.706373,3.150795,15.838975,-18.528669,30.435677,-1.397357,-21.259790,-29.704773,-19.575745,-17.231237,-35.453289,-20.191618,-34.675995,-39.981632,-18.054916,-3.917341,-22.992893,-51.771236,-31.710964,0.000000,182.000000,4.000000,,,,0.000000,4.000000,4.000000,4.000000,4.000000,4.000000,4.000000,4.000000,4.000000,4.000000,4.000000,4.000000,4.000000,4.000000,4.000000,4.000000,4.000000,4.000000,4.000000,4.000000,4.000000,4.000000,4.000000,4.000000,4.000000,4.000000,4.000000,4.000000,4.000000,4.000000,4.000000,4.000000,4.000000,100.000000
1614489242.570178,96.000000,0.000000,-12.453541,-0.532017,14.608143,15.235733,10.303515,-2.522742,-6.767910,-0.218792,-0.100502,-5.752554,-21.317173,-4.381222,-19.624140,-16.416616,4.686106,14.284674,-23.125525,28.866779,5.783528,-19.700069,-27.623787,-19.043348,-17.214006,-36.956299,-17.607323,-35.666962,-38.403191,-17.524040,-3.913424,-23.482721,-51.206646,-30.140791,8064.000000,0.000000,4.000000,,,,0.000000,4.000000,4.000000,4.000000,4.000000,4.000000,4.000000,4.000000,4.000000,4.000000,4.000000,4.000000,4.000000,4.000000,4.000000,4.000000,4.000000,4.000000,4.000000,4.000000,4.000000,4.000000,4.000000,4.000000,4.000000,4.000000,4.000000,4.000000,4.000000,4.000000,4.000000,4.000000,4.000000,100.000000
1614489242.577927,97.000000,0.000000,-12.441087,-1.044305,19.721739,17.784599,9.780392,-5.084321,-5.222680,11.063478,2.976522,-3.695520,-13.603547,-3.351199,-18.066053,-14.861737,3.655779,12.219108,-23.102400,30.889194,16.546974,-14.552164,-20.929497,-23.126869,-17.196793,-32.303955,-16.564075,-35.631294,-33.236580,-18.532158,-3.909511,-20.895136,-51.668259,-24.469624,8064.000000,0.000000,4.000000,,,,0.000000,4.000000,4.000000,4.000000,4.000000,4.000000,4.000000,4.000000,4.000000,4.000000,4.000000,4.000000,4.000000,4.000000,4.000000,4.000000,4.000000,4.000000,4.000000,4.000000,4.000000,4.000000,4.000000,4.000000,4.000000,4.000000,4.000000,4.000000,4.000000,4.000000,4.000000,4.000000,4.000000,100.000000
1614489242.585577,98.000000,0.000000,-12.428646,-1.043261,26.368685,28.536047,14.898816,-2.515135,-4.704637,17.719082,8.614571,11.179971,-5.384816,-3.860669,-13.432603,-12.282773,3.652123,12.719708,-19.489553,35.473690,16.530428,-13.511971,-21.421387,-20.539640,-17.179596,-28.681910,-17.060331,-33.031559,-30.126421,-17.487984,-3.905601,-14.720394,-50.590950,-18.804129,8064.000000,0.000000,4.000000,,,,0.000000,4.000000,4.000000,4.000000,4.000000,4.000000,4.000000,4.000000,4.000000,4.000000,4.000000,4.000000,4.000000,4.000000,4.000000,4.000000,4.000000,4.000000,4.000000,4.000000,4.000000,4.000000,4.000000,4.000000,4.000000,4.000000,4.000000,4.000000,4.000000,4.000000,4.000000,4.000000,4.000000,100.000000
1614489242.593326,99.000000,0.000000,-12.416218,-0.016577,24.291033,34.661358,16.422379,-0.974158,-4.699933,14.624439,10.657238,11.168791,-5.892251,-3.856808,-11.367888,-12.783311,3.648471,12.194168,-15.880320,34.925396,14.975436,-14.524100,-22.425608,-11.801151,-15.111135,-25.576303,-17.043270,-31.460066,-28.045012,-17.983316,-3.901695,-10.603110,-47.976257,-19.810966,8064.000000,0.000000,4.000000,,,,0.000000,4.000000,4.000000,4.000000,4.000000,4.000000,4.000000,4.000000,4.000000,4.000000,4.000000,4.000000,4.000000,4.000000,4.000000,4.000000,4.000000,4.000000,4.000000,4.000000,4.000000,4.000000,4.000000,4.000000,4.000000,4.000000,4.000000,4.000000,4.000000,4.000000,4.000000,4.000000,4.000000,100.000000
1614489242.600975,100.000000,0.000000,-12.403801,-3.093483,16.061615,22.831823,7.688008,-3.537286,-7.259335,11.532892,0.902991,-5.765455,-8.450461,-3.340131,-12.382162,-12.257708,-0.970562,9.617872,-15.864440,30.275085,17.011742,-13.483935,-21.377541,-12.302171,-13.044742,-24.012266,-16.513407,-33.992710,-26.991327,-25.657642,-3.897794,-11.105328,-46.902637,-24.406540,8064.000000,0.000000,4.000000,,,,0.000000,4.000000,4.000000,4.000000,4.000000,4.000000,4.000000,4.000000,4.000000,4.000000,4.000000,4.000000,4.000000,4.000000,4.000000,4.000000,4.000000,4.000000,4.000000,4.000000,4.000000,4.000000,4.000000,4.000000,4.000000,4.000000,4.000000,4.000000,4.000000,4.000000,4.000000,4.000000,4.000000,100.000000
1614489242.608824,101.000000,0.000000,-12.391397,-7.705774,12.455810,11.526940,1.013653,-5.585031,-8.277717,9.982898,-8.841501,-6.785330,-9.467652,-3.336791,-11.856959,-11.732629,-4.046515,10.633895,-15.848576,29.731991,16.994730,-12.957630,-18.279240,-15.879612,-13.031696,-24.501074,-17.009714,-36.009998,-26.451515,-27.683266,-3.893896,-16.735247,-47.368557,-26.433414,8064.000000,0.000000,4.000000,,,,0.000000,4.000000,4.000000,4.000000,4.000000,4.000000,4.000000,4.000000,4.000000,4.000000,4.000000,4.000000,4.000000,4.000000,4.000000,4.000000,4.000000,4.000000,4.000000,4.000000,4.000000,4.000000,4.000000,4.000000,4.000000,4.000000,4.000000,4.000000,4.000000,4.000000,4.000000,4.000000,4.000000,100.000000
1614489242.616573,102.000000,0.000000,-12.379006,-8.723709,13.468994,12.028234,2.551101,-5.579446,-4.166875,8.947273,-4.730096,6.554788,-7.406902,-2.820633,-11.332282,-11.720897,-3.529648,13.187364,-15.319906,30.215078,16.464916,-13.970314,-14.671217,-5.094502,-13.018664,-23.450932,-16.992704,-35.461166,-26.937883,-20.476095,-3.890002,-22.359537,-47.834007,-26.919802,8064.000000,0.000000,4.000000,,,,0.000000,4.000000,4.000000,4.000000,4.000000,4.000000,4.000000,4.000000,4.000000,4.000000,4.000000,4.000000,4.000000,4.000000,4.000000,4.000000,4.000000,4.000000,4.000000,4.000000,4.000000,4.000000,4.000000,4.000000,4.000000,4.000000,4.000000,4.000000,4.000000,4.000000,4.000000,4.000000,4.000000,100.000000
1614489242.624322,103.000000,0.000000,-12.366627,-8.202166,13.968346,12.529026,2.548550,-4.548225,-0.572965,8.425506,2.454122,9.112336,-5.861034,-0.253710,-11.833770,-9.657893,-3.526118,13.174176,-15.817407,30.184864,15.935630,-13.443523,-13.118084,5.679823,-13.005646,-20.863379,-16.462891,-34.912888,-33.064793,-18.404337,-3.886112,-23.362820,-46.760532,-26.892883,8064.000000,0.000000,4.000000,,,,0.000000,4.000000,4.000000,4.000000,4.000000,4.000000,4.000000,4.000000,4.000000,4.000000,4.000000,4.000000,4.000000,4.000000,4.000000,4.000000,4.000000,4.000000,4.000000,4.000000,4.000000,4.000000,4.000000,4.000000,4.000000,4.000000,4.000000,4.000000,4.000000,4.000000,4.000000,4.000000,4.000000,100.000000
1614489242.631971,104.000000,0.000000,-12.354260,-8.193963,8.826173,11.490856,1.520360,-2.492395,-1.085212,8.929901,1.426026,6.026300,-6.367993,0.772185,-11.821936,-5.545671,-3.522592,12.648182,-15.801589,30.667500,16.945335,-13.430079,-13.617786,1.058759,-13.505461,-19.816874,-16.446428,-35.390793,-41.749676,-21.462856,-3.882226,-23.339457,-47.226593,-26.865990,8064.000000,0.000000,4.000000,,,,0.000000,4.000000,4.000000,4.000000,4.000000,4.000000,4.000000,4.000000,4.000000,4.000000,4.000000,4.000000,4.000000,4.000000,4.000000,4.000000,4.000000,4.000000,4.000000,4.000000,4.000000,4.000000,4.000000,4.000000,4.000000,4.000000,4.000000,4.000000,4.000000,4.000000,4.000000,4.000000,4.000000,100.000000
1614489242.639820,105.000000,0.000000,-12.341907,-8.698589,3.176321,11.479365,2.031661,-0.951441,-1.084127,7.382509,-1.652323,4.994633,-6.361626,-1.792690,-11.810114,-4.001664,-3.519069,12.635533,-15.272967,26.534267,13.851467,-16.493572,-15.655451,-7.147428,-12.466314,-20.822699,-16.942802,-35.355404,-42.220745,-18.877291,-3.878344,-22.290476,-51.281933,-26.839123,8064.000000,0.000000,4.000000,,,,0.000000,4.000000,4.000000,4.000000,4.000000,4.000000,4.000000,4.000000,4.000000,4.000000,4.000000,4.000000,4.000000,4.000000,4.000000,4.000000,4.000000,4.000000,4.000000,4.000000,4.000000,4.000000,4.000000,4.000000,4.000000,4.000000,4.000000,4.000000,4.000000,4.000000,4.000000,4.000000,4.000000,100.000000
1614489242.647569,106.000000,0.000000,-12.329564,-8.689891,1.634683,7.365322,1.516808,-1.976131,-3.647145,1.734101,-1.137850,-0.138567,-6.868084,-3.842180,-11.798304,-4.510483,-5.054012,12.622898,-17.308977,19.328247,7.170949,-21.605284,-19.229540,-6.627460,-13.992310,-21.827517,-16.413038,-35.320049,-36.537498,-17.319952,-3.874465,-17.139980,-56.358856,-26.812284,8064.000000,0.000000,4.000000,,,,0.000000,4.000000,4.000000,4.000000,4.000000,4.000000,4.000000,4.000000,4.000000,4.000000,4.000000,4.000000,4.000000,4.000000,4.000000,4.000000,4.000000,4.000000,4.000000,4.000000,4.000000,4.000000,4.000000,4.000000,4.000000,4.000000,4.000000,4.000000,4.000000,4.000000,4.000000,4.000000,4.000000,100.000000
1614489242.655418,107.000000,0.000000,-12.317235,-8.168381,5.222792,3.768213,3.566574,-1.974155,-9.284524,-2.883018,-0.111071,-4.753812,-9.425319,-3.838337,-11.786506,-5.018793,-7.100240,13.123096,-19.855770,18.796099,5.625317,-21.583679,-21.261591,-10.210576,-21.157804,-19.754408,-16.909447,-35.284729,-33.936859,-20.892376,-3.870591,-11.481815,-53.738392,-26.785473,8064.000000,0.000000,4.000000,,,,0.000000,4.000000,4.000000,4.000000,4.000000,4.000000,4.000000,4.000000,4.000000,4.000000,4.000000,4.000000,4.000000,4.000000,4.000000,4.000000,4.000000,4.000000,4.000000,4.000000,4.000000,4.000000,4.000000,4.000000,4.000000,4.000000,4.000000,4.000000,4.000000,4.000000,4.000000,4.000000,4.000000,100.000000
1614489242.663167,108.000000,0.000000,-12.304917,-8.160213,6.243210,4.277265,8.178391,-0.946540,-12.864983,-3.392955,-1.136601,-4.749059,-9.928714,-3.321678,-12.287539,-4.500954,-8.118780,9.520228,-19.835915,16.726019,4.081230,-20.536453,-21.753151,-19.431135,-25.239210,-22.298756,-20.995102,-35.249443,-34.928566,-21.897123,-3.866720,-11.470333,-50.607731,-26.758686,8064.000000,0.000000,4.000000,,,,0.000000,4.000000,4.000000,4.000000,4.000000,4.000000,4.000000,4.000000,4.000000,4.000000,4.000000,4.000000,4.000000,4.000000,4.000000,4.000000,4.000000,4.000000,4.000000,4.000000,4.000000,4.000000,4.000000,4.000000,4.000000,4.000000,4.000000,4.000000,4.000000,4.000000,4.000000,4.000000,4.000000,100.000000
1614489242.671016,109.000000,0.000000,-12.292612,-9.177693,4.698505,3.247347,9.708674,-1.971234,-12.852118,-2.876742,-1.135464,-4.231489,-9.918785,-3.831177,-11.762432,-4.496453,-6.572200,4.895324,-19.303257,11.068268,0.487405,-23.592840,-21.218576,-18.898884,-24.188330,-30.994406,-24.563850,-35.214195,-34.893635,-21.362406,-3.862854,-12.484504,-57.223789,-27.244749,8064.000000,0.000000,4.000000,,,,0.000000,4.000000,4.000000,4.000000,4.000000,4.000000,4.000000,4.000000,4.000000,4.000000,4.000000,4.000000,4.000000,4.000000,4.000000,4.000000,4.000000,4.000000,4.000000,4.000000,4.000000,4.000000,4.000000,4.000000,4.000000,4.000000,4.000000,4.000000,4.000000,4.000000,4.000000,4.000000,4.000000,100.000000
1614489242.678765,110.000000,0.000000,-12.280320,-7.117233,6.232268,5.295382,9.698966,-1.969263,-12.326446,-1.848224,2.968235,-4.227258,-10.421687,-3.827346,-11.750669,-5.517597,-2.463064,6.428890,-20.822416,17.211046,8.179225,-22.030787,-17.607615,-13.751780,-25.702604,-30.450590,-21.462362,-35.178978,-33.320282,-21.853865,-3.858991,-11.446379,-62.294773,-26.191862,8064.000000,0.000000,4.000000,,,,0.000000,4.000000,4.000000,4.000000,4.000000,4.000000,4.000000,4.000000,4.000000,4.000000,4.000000,4.000000,4.000000,4.000000,4.000000,4.000000,4.000000,4.000000,4.000000,4.000000,4.000000,4.000000,4.000000,4.000000,4.000000,4.000000,4.000000,4.000000,4.000000,4.000000,4.000000,4.000000,4.000000,100.000000
1614489242.686614,111.000000,0.000000,-12.268040,0.582192,11.354241,20.161880,13.279011,2.648091,-9.750016,2.769009,8.606293,-1.658928,-8.872804,-1.259416,-12.764560,-3.460798,-0.409319,11.037846,-16.699030,30.014347,24.068481,-13.290807,-14.513084,-23.481617,-24.138439,-18.112448,-16.825516,-32.066875,-34.312603,-21.319191,-3.855132,-7.845188,-54.027348,-23.601568,8064.000000,0.000000,4.000000,,,,0.000000,4.000000,4.000000,4.000000,4.000000,4.000000,4.000000,4.000000,4.000000,4.000000,4.000000,4.000000,4.000000,4.000000,4.000000,4.000000,4.000000,4.000000,4.000000,4.000000,4.000000,4.000000,4.000000,4.000000,4.000000,4.000000,4.000000,4.000000,4.000000,4.000000,4.000000,4.000000,4.000000,100.000000
1614489242.694363,112.000000,0.000000,-9.178848,6.735456,13.906989,33.987873,17.368296,6.235187,-6.663343,7.894445,10.648969,6.547859,-6.812649,3.357228,-8.136411,3.722150,0.103911,12.565269,-7.451561,34.599716,25.582874,-8.662131,-13.472930,-30.124802,-16.934814,-11.427669,-16.295870,-28.957888,-34.791111,-22.323511,-3.851277,-4.247600,-46.281013,-23.577967,8064.000000,0.000000,4.000000,,,,0.000000,4.000000,4.000000,4.000000,4.000000,4.000000,4.000000,4.000000,4.000000,4.000000,4.000000,4.000000,4.000000,4.000000,4.000000,4.000000,4.000000,4.000000,4.000000,4.000000,4.000000,4.000000,4.000000,4.000000,4.000000,4.000000,4.000000,4.000000,4.000000,4.000000,4.000000,4.000000,4.000000,100.000000
1614489242.702212,113.000000,0.000000,-4.041464,6.728720,12.867441,33.441063,17.350927,6.228951,-4.605398,8.912191,10.125499,14.233619,-5.780195,4.892332,-1.461607,7.308172,2.155089,12.552704,-2.828725,34.565117,18.377806,-10.704751,-11.920996,-10.607498,-13.328135,-13.980343,-17.305214,-27.903288,-28.602472,-22.301188,-3.847425,-4.243352,-47.260376,-23.554388,8064.000000,0.000000,4.000000,,,,0.000000,4.000000,4.000000,4.000000,4.000000,4.000000,4.000000,4.000000,4.000000,4.000000,4.000000,4.000000,4.000000,4.000000,4.000000,4.000000,4.000000,4.000000,4.000000,4.000000,4.000000,4.000000,4.000000,4.000000,4.000000,4.000000,4.000000,4.000000,4.000000,4.000000,4.000000,4.000000,4.000000,100.000000
1614489242.709961,114.000000,0.000000,-1.473320,6.209171,13.367394,29.817881,15.795115,5.709902,-2.549510,8.390459,9.602553,12.680924,-6.287236,3.348978,0.078316,6.275222,3.691396,12.027331,-2.313076,36.581837,19.385069,-9.668406,-10.370613,10.941571,-12.289166,-13.453543,-16.775089,-28.388205,-20.368742,-13.560939,-3.843578,-5.264750,-47.725933,-23.018013,8064.000000,0.000000,4.000000,,,,0.000000,4.000000,4.000000,4.000000,4.000000,4.000000,4.000000,4.000000,4.000000,4.000000,4.000000,4.000000,4.000000,4.000000,4.000000,4.000000,4.000000,4.000000,4.000000,4.000000,4.000000,4.000000,4.000000,4.000000,4.000000,4.000000,4.000000,4.000000,4.000000,4.000000,4.000000,4.000000,4.000000,100.000000
1614489242.717810,115.000000,0.000000,-1.471847,6.715782,12.841207,30.300882,16.804960,5.704192,-1.008499,8.382069,10.618591,7.540038,-6.793769,4.371270,-0.947404,6.268947,3.687704,12.015304,-0.772301,38.083714,23.468246,-6.068994,-9.334601,10.930630,-5.097390,-9.337524,-16.245493,-27.846996,-17.784269,-3.290967,-3.839734,-4.233844,-45.626926,-24.020638,8064.000000,0.000000,4.000000,,,,0.000000,4.000000,4.000000,4.000000,4.000000,4.000000,4.000000,4.000000,4.000000,4.000000,4.000000,4.000000,4.000000,4.000000,4.000000,4.000000,4.000000,4.000000,4.000000,4.000000,4.000000,4.000000,4.000000,4.000000,4.000000,4.000000,4.000000,4.000000,4.000000,4.000000,4.000000,4.000000,4.000000,100.000000
1614489242.725560,116.000000,0.000000,-0.957555,6.709066,12.315545,30.783401,21.403542,5.698488,-1.007491,8.886507,9.582332,7.019677,-4.222873,6.931002,-0.433636,8.313960,8.299401,15.593032,0.766933,39.584091,23.957600,-6.062925,-9.325267,6.817135,-1.502549,-7.789726,-17.254889,-27.819149,-18.792128,-2.262035,-4.348715,-4.229610,-46.606941,-21.432514,8064.000000,0.000000,4.000000,,,,0.000000,4.000000,4.000000,4.000000,4.000000,4.000000,4.000000,4.000000,4.000000,4.000000,4.000000,4.000000,4.000000,4.000000,4.000000,4.000000,4.000000,4.000000,4.000000,4.000000,4.000000,4.000000,4.000000,4.000000,4.000000,4.000000,4.000000,4.000000,4.000000,4.000000,4.000000,4.000000,4.000000,100.000000
1614489242.733408,117.000000,0.000000,-1.469418,6.189537,17.431435,29.726978,24.459061,5.692789,-1.519304,7.851979,9.572749,7.525478,0.396735,7.949712,-1.971664,7.280005,11.880845,18.654362,-1.285116,40.570148,24.959282,-6.056862,-10.341582,10.912882,-5.090790,-10.346039,-16.724813,-25.740049,-19.286156,-3.798235,-3.831546,-5.763842,-46.047512,-13.205953,8064.000000,0.000000,4.000000,,,,0.000000,4.000000,4.000000,4.000000,4.000000,4.000000,4.000000,4.000000,4.000000,4.000000,4.000000,4.000000,4.000000,4.000000,4.000000,4.000000,4.000000,4.000000,4.000000,4.000000,4.000000,4.000000,4.000000,4.000000,4.000000,4.000000,4.000000,4.000000,4.000000,4.000000,4.000000,4.000000,4.000000,100.000000
1614489242.741158,118.000000,0.000000,-1.467948,7.721809,24.080669,29.184431,23.921782,5.174276,-1.517784,7.844128,13.152921,7.005132,0.909159,7.428941,-4.533794,5.221443,10.330503,19.661348,-1.283831,44.632145,30.062529,-3.486702,-5.203036,11.927609,-4.572879,-9.310052,-11.579884,-19.047642,-18.241228,-1.230334,-1.776432,-2.681155,-36.770695,-4.987619,8064.000000,0.000000,4.000000,,,,0.000000,4.000000,4.000000,4.000000,4.000000,4.000000,4.000000,4.000000,4.000000,4.000000,4.000000,4.000000,4.000000,4.000000,4.000000,4.000000,4.000000,4.000000,4.000000,4.000000,4.000000,4.000000,4.000000,4.000000,4.000000,4.000000,4.000000,4.000000,4.000000,4.000000,4.000000,4.000000,4.000000,100.000000
1614489242.748807,119.000000,0.000000,3.148904,10.278190,24.569410,29.668066,23.385038,6.194743,-1.516267,11.426027,17.242331,9.049409,1.421070,7.934333,-4.529261,7.780324,14.422736,27.333996,2.307196,51.766998,36.186314,-1.944754,5.571398,8.325938,-0.465742,-3.146895,-5.927278,-13.387568,-20.274269,1.334999,0.276626,5.013834,-26.477516,-0.880067,8064.000000,0.000000,4.000000,,,,0.000000,4.000000,4.000000,4.000000,4.000000,4.000000,4.000000,4.000000,4.000000,4.000000,4.000000,4.000000,4.000000,4.000000,4.000000,4.000000,4.000000,4.000000,4.000000,4.000000,4.000000,4.000000,4.000000,4.000000,4.000000,4.000000,4.000000,4.000000,4.000000,4.000000,4.000000,4.000000,4.000000,100.000000
1614489242.756556,120.000000,0.000000,6.222678,9.242270,23.519199,29.125578,26.438576,10.803932,-1.001930,15.517165,17.737909,10.578821,1.419649,5.875116,-6.063193,4.182800,15.946775,29.870764,-0.772034,47.099846,31.534740,-5.019732,1.976083,6.779151,3.124467,-8.784774,-4.895710,-11.835719,-31.023226,0.820843,-0.236471,8.085743,-31.066422,-0.366367,8064.000000,0.000000,4.000000,,,,0.000000,4.000000,4.000000,4.000000,4.000000,4.000000,4.000000,4.000000,4.000000,4.000000,4.000000,4.000000,4.000000,4.000000,4.000000,4.000000,4.000000,4.000000,4.000000,4.000000,4.000000,4.000000,4.000000,4.000000,4.000000,4.000000,4.000000,4.000000,4.000000,4.000000,4.000000,4.000000,4.000000,100.000000
1614489242.764205,121.000000,0.000000,4.165174,6.668926,26.572603,29.096453,27.437778,13.357231,-3.565031,16.014469,16.694530,9.029781,-13.966386,0.228216,-10.159694,-14.282921,2.084675,14.456278,-14.617415,33.206593,12.528848,-10.655738,-18.025892,1.644167,-0.468401,-26.724707,-5.916455,-13.875166,-42.787075,0.307202,-0.236235,3.462273,-43.855869,-5.494205,8064.000000,0.000000,4.000000,,,,0.000000,4.000000,4.000000,4.000000,4.000000,4.000000,4.000000,4.000000,4.000000,4.000000,4.000000,4.000000,4.000000,4.000000,4.000000,4.000000,4.000000,4.000000,4.000000,4.000000,4.000000,4.000000,4.000000,4.000000,4.000000,4.000000,4.000000,4.000000,4.000000,4.000000,4.000000,4.000000,4.000000,100.000000
1614489242.771954,122.000000,0.000000,1.596906,5.636616,27.571671,28.554535,26.897520,10.779772,-6.125568,14.459992,16.677835,5.943828,-29.849855,-4.900218,-14.252098,-25.037868,-8.173820,4.698232,-22.807926,27.532362,2.259908,-13.722006,-25.700174,-8.613888,-16.878189,-33.364651,-5.910539,-17.963854,-42.231464,0.306895,-0.235998,2.945990,-46.376114,-11.642557,8064.000000,0.000000,4.000000,,,,0.000000,4.000000,4.000000,4.000000,4.000000,4.000000,4.000000,4.000000,4.000000,4.000000,4.000000,4.000000,4.000000,4.000000,4.000000,4.000000,4.000000,4.000000,4.000000,4.000000,4.000000,4.000000,4.000000,4.000000,4.000000,4.000000,4.000000,4.000000,4.000000,4.000000,4.000000,4.000000,4.000000,100.000000
1614489242.779603,123.000000,0.000000,2.108130,6.656620,27.031279,29.551622,27.383444,8.717710,-5.093801,15.471173,17.173979,5.937884,-19.050776,-4.382497,-12.699385,-12.705138,-3.550262,9.821738,-15.605632,28.017649,12.001238,-13.708283,-16.956526,-9.630915,-25.066439,-29.741541,-5.391808,-21.535635,-35.009747,0.306588,-0.748583,9.096890,-40.175892,-13.682197,8064.000000,0.000000,4.000000,,,,0.000000,4.000000,4.000000,4.000000,4.000000,4.000000,4.000000,4.000000,4.000000,4.000000,4.000000,4.000000,4.000000,4.000000,4.000000,4.000000,4.000000,4.000000,4.000000,4.000000,4.000000,4.000000,4.000000,4.000000,4.000000,4.000000,4.000000,4.000000,4.000000,4.000000,4.000000,4.000000,4.000000,100.000000
1614489242.787352,124.000000,0.000000,2.106021,6.649963,27.517069,29.522070,26.843239,9.221812,-3.037426,15.455702,16.643984,11.572972,-0.570186,3.827014,-3.968737,-0.384741,0.043032,12.376019,-3.282334,27.476810,18.655903,-15.233037,-14.375467,-0.903335,-13.246500,-29.198978,-5.899236,-20.488459,-31.897814,0.306281,-0.747834,8.062152,-39.110077,-12.642874,8064.000000,0.000000,4.000000,,,,0.000000,4.000000,4.000000,4.000000,4.000000,4.000000,4.000000,4.000000,4.000000,4.000000,4.000000,4.000000,4.000000,4.000000,4.000000,4.000000,4.000000,4.000000,4.000000,4.000000,4.000000,4.000000,4.000000,4.000000,4.000000,4.000000,4.000000,4.000000,4.000000,4.000000,4.000000,4.000000,4.000000,100.000000
1614489242.795002,125.000000,0.000000,2.103915,4.592031,26.976730,28.466908,23.226652,8.699770,-1.495927,14.414605,13.037597,17.202425,0.456025,14.592418,4.753181,-1.922818,-1.495473,14.927746,5.438898,35.141644,17.098785,-13.679342,-12.822630,3.200132,-6.053767,-20.451832,-6.406157,-20.980789,-26.224892,-0.206846,-0.234266,-0.151038,-41.635067,-12.117410,8064.000000,0.000000,4.000000,,,,0.000000,4.000000,4.000000,4.000000,4.000000,4.000000,4.000000,4.000000,4.000000,4.000000,4.000000,4.000000,4.000000,4.000000,4.000000,4.000000,4.000000,4.000000,4.000000,4.000000,4.000000,4.000000,4.000000,4.000000,4.000000,4.000000,4.000000,4.000000,4.000000,4.000000,4.000000,4.000000,4.000000,100.000000
1614489242.802751,126.000000,0.000000,4.153093,3.048978,26.949755,35.617928,24.229067,9.716711,7.736339,17.989935,13.537379,17.698042,1.994031,19.706030,11.927915,0.643208,0.044485,24.656408,10.561664,47.927013,29.902201,-3.922073,5.138911,4.222573,-6.560534,-2.482661,-4.861290,-21.472630,-14.916615,0.819002,-0.746852,-0.663708,-35.439587,-13.643754,8064.000000,0.000000,4.000000,,,,0.000000,4.000000,4.000000,4.000000,4.000000,4.000000,4.000000,4.000000,4.000000,4.000000,4.000000,4.000000,4.000000,4.000000,4.000000,4.000000,4.000000,4.000000,4.000000,4.000000,4.000000,4.000000,4.000000,4.000000,4.000000,4.000000,4.000000,4.000000,4.000000,4.000000,4.000000,4.000000,4.000000,100.000000
1614489242.810400,127.000000,0.000000,6.200222,2.020288,33.076649,50.454105,29.333044,12.271097,18.497833,25.151432,23.780252,19.731627,14.299729,19.686325,19.608295,8.847692,3.121363,28.221495,14.140845,52.494473,48.846657,4.799798,20.005568,11.910658,7.292181,3.673667,-0.241044,-9.656285,-6.696570,4.407927,0.279536,2.413879,-25.147738,-11.578829,8064.000000,0.000000,4.000000,,,,0.000000,4.000000,4.000000,4.000000,4.000000,4.000000,4.000000,4.000000,4.000000,4.000000,4.000000,4.000000,4.000000,4.000000,4.000000,4.000000,4.000000,4.000000,4.000000,4.000000,4.000000,4.000000,4.000000,4.000000,4.000000,4.000000,4.000000,4.000000,4.000000,4.000000,4.000000,4.000000,4.000000,100.000000
1614489242.818149,0.000000,0.000000,6.194022,2.018268,38.684601,51.942112,31.354992,13.284467,23.094719,26.664742,31.961601,24.840099,21.464916,18.640997,23.691250,12.428589,10.810550,26.654812,17.716448,53.467617,49.823452,4.282177,20.498383,19.078236,20.105402,1.618712,1.810479,4.712346,-6.689874,6.967622,4.894641,2.411465,-21.020025,0.227622,0.000000,205.000000,4.000000,,,,0.000000,4.000000,4.000000,4.000000,4.000000,4.000000,4.000000,4.000000,4.000000,4.000000,4.000000,4.000000,4.000000,4.000000,4.000000,4.000000,4.000000,4.000000,4.000000,4.000000,4.000000,4.000000,4.000000,4.000000,4.000000,4.000000,4.000000,4.000000,4.000000,4.000000,4.000000,4.000000,4.000000,100.000000
1614489242.825798,1.000000,0.000000,5.675008,4.067532,36.594631,40.095299,30.810816,12.758362,19.481882,25.612436,30.903997,23.276798,20.930632,17.596714,19.052176,10.877698,22.594610,28.679440,17.185911,56.491074,47.209526,5.303536,19.965063,17.520695,18.034014,4.181196,4.372771,4.707633,-9.247287,7.473475,7.453849,9.075721,-21.511826,11.509446,0.000000,191.000000,4.000000,,,,0.000000,4.000000,4.000000,4.000000,4.000000,4.000000,4.000000,4.000000,4.000000,4.000000,4.000000,4.000000,4.000000,4.000000,4.000000,4.000000,4.000000,4.000000,4.000000,4.000000,4.000000,4.000000,4.000000,4.000000,4.000000,4.000000,4.000000,4.000000,4.000000,4.000000,4.000000,4.000000,4.000000,100.000000
1614489242.833547,2.000000,0.000000,5.669333,8.678848,33.481113,36.465458,30.780006,13.258424,8.180348,27.638105,26.257710,16.586855,16.807137,16.553476,11.340815,4.200154,27.187401,31.214863,11.014879,60.537148,50.239239,5.298233,15.842534,12.887790,16.990339,3.664194,6.932501,-4.527844,-12.827783,9.517283,7.959215,17.271772,-18.926212,7.908193,0.000000,193.000000,4.000000,,,,0.000000,4.000000,4.000000,4.000000,4.000000,4.000000,4.000000,4.000000,4.000000,4.000000,4.000000,4.000000,4.000000,4.000000,4.000000,4.000000,4.000000,4.000000,4.000000,4.000000,4.000000,4.000000,4.000000,4.000000,4.000000,4.000000,4.000000,4.000000,4.000000,4.000000,4.000000,4.000000,4.000000,100.000000
1614489242.841196,3.000000,0.000000,6.176484,10.208632,35.498917,35.403351,29.210764,11.706704,-5.161165,21.456621,22.641708,10.929243,8.585201,5.767693,-2.003859,-5.034815,22.032007,30.670826,-2.329469,55.861225,37.368488,-7.527578,4.544640,6.721056,13.896425,-3.518958,-2.305201,-12.215624,-22.045725,3.353920,7.438436,11.613476,-22.497028,-2.356126,0.000000,196.000000,4.000000,,,,0.000000,4.000000,4.000000,4.000000,4.000000,4.000000,4.000000,4.000000,4.000000,4.000000,4.000000,4.000000,4.000000,4.000000,4.000000,4.000000,4.000000,4.000000,4.000000,4.000000,4.000000,4.000000,4.000000,4.000000,4.000000,4.000000,4.000000,4.000000,4.000000,4.000000,4.000000,4.000000,4.000000,100.000000
1614489242.848945,4.000000,0.000000,4.631846,7.121500,34.950596,23.060257,25.078989,7.592433,-10.797029,10.153113,18.003681,2.713185,1.397129,-12.186792,-18.412111,-13.234909,14.317669,25.511951,-14.634831,42.472031,17.331118,-19.314922,-4.177854,-4.054896,-4.579010,-11.720567,-18.200331,-19.382895,-32.280090,-12.546870,1.789972,2.883913,-39.910431,-7.994795,0.000000,198.000000,4.000000,,,,0.000000,4.000000,4.000000,4.000000,4.000000,4.000000,4.000000,4.000000,4.000000,4.000000,4.000000,4.000000,4.000000,4.000000,4.000000,4.000000,4.000000,4.000000,4.000000,4.000000,4.000000,4.000000,4.000000,4.000000,4.000000,4.000000,4.000000,4.000000,4.000000,4.000000,4.000000,4.000000,4.000000,100.000000
1614489242.856595,5.000000,0.000000,-1.526632,5.575916,32.864365,18.421812,23.002628,5.020739,-7.196489,15.271166,16.447216,2.197651,0.882911,-13.713067,-19.419340,-16.298597,10.200787,21.896696,-11.543274,40.891094,18.852249,-12.116120,-5.199317,-9.179047,-18.933405,-10.683206,-22.284695,-25.004538,-35.324730,-17.662529,-5.904126,0.829747,-52.178211,-8.499620,0.000000,201.000000,4.000000,,,,0.000000,4.000000,4.000000,4.000000,4.000000,4.000000,4.000000,4.000000,4.000000,4.000000,4.000000,4.000000,4.000000,4.000000,4.000000,4.000000,4.000000,4.000000,4.000000,4.000000,4.000000,4.000000,4.000000,4.000000,4.000000,4.000000,4.000000,4.000000,4.000000,4.000000,4.000000,4.000000,4.000000,100.000000
1614489242.864344,6.000000,0.000000,-5.114849,6.083161,36.934063,31.223904,22.979626,5.528538,0.503015,28.589228,16.943590,16.041607,3.446131,1.172441,-4.015306,-11.666914,15.318791,29.054285,3.852885,57.260460,35.756474,-0.821953,-0.065912,0.060902,-17.376009,4.712093,-18.672667,-24.979534,-33.750946,-8.926917,-8.462324,-2.248005,-50.587570,-9.003942,0.000000,191.000000,4.000000,,,,0.000000,4.000000,4.000000,4.000000,4.000000,4.000000,4.000000,4.000000,4.000000,4.000000,4.000000,4.000000,4.000000,4.000000,4.000000,4.000000,4.000000,4.000000,4.000000,4.000000,4.000000,4.000000,4.000000,4.000000,4.000000,4.000000,4.000000,4.000000,4.000000,4.000000,4.000000,4.000000,4.000000,100.000000
1614489242.871993,7.000000,0.000000,-3.058452,6.077078,38.435593,37.859344,21.418184,5.010189,5.630717,28.047817,15.388185,26.281977,3.955505,8.863576,6.757940,-2.937298,21.457319,33.640617,13.592622,61.818584,40.336102,0.717330,8.652102,10.317251,-12.743249,11.886868,-17.115532,-23.928913,-34.230015,-6.353888,-7.428221,-5.322680,-47.460060,-8.994938,0.000000,195.000000,4.000000,,,,0.000000,4.000000,4.000000,4.000000,4.000000,4.000000,4.000000,4.000000,4.000000,4.000000,4.000000,4.000000,4.000000,4.000000,4.000000,4.000000,4.000000,4.000000,4.000000,4.000000,4.000000,4.000000,4.000000,4.000000,4.000000,4.000000,4.000000,4.000000,4.000000,4.000000,4.000000,4.000000,4.000000,100.000000
1614489242.879842,8.000000,0.000000,-1.004112,6.071001,26.089464,35.770203,19.345484,5.005179,5.112266,21.865925,12.808694,24.717234,3.951550,6.290610,6.751182,-0.370258,14.769195,23.863386,13.066209,49.961895,33.629101,0.203792,12.233193,6.204370,-11.704865,-1.458352,-14.534315,-25.443445,-34.195786,-7.885995,-7.933613,-3.266076,-46.386959,-8.985943,0.000000,203.000000,4.000000,,,,0.000000,4.000000,4.000000,4.000000,4.000000,4.000000,4.000000,4.000000,4.000000,4.000000,4.000000,4.000000,4.000000,4.000000,4.000000,4.000000,4.000000,4.000000,4.000000,4.000000,4.000000,4.000000,4.000000,4.000000,4.000000,4.000000,4.000000,4.000000,4.000000,4.000000,4.000000,4.000000,4.000000,100.000000
1614489242.887591,9.000000,0.000000,-2.028749,5.552109,16.319784,36.760075,19.326139,9.102738,6.645615,22.869699,12.795885,25.205336,4.973239,7.309960,6.744431,-0.369888,7.062118,19.736958,13.053143,46.322189,30.518547,1.742050,11.195319,2.095602,-11.180340,-8.123560,-9.391575,-23.366720,-33.648769,-3.262725,-5.874398,-1.211528,-41.212368,-8.464136,0.000000,178.000000,4.000000,,,,0.000000,4.000000,4.000000,4.000000,4.000000,4.000000,4.000000,4.000000,4.000000,4.000000,4.000000,4.000000,4.000000,4.000000,4.000000,4.000000,4.000000,4.000000,4.000000,4.000000,4.000000,4.000000,4.000000,4.000000,4.000000,4.000000,4.000000,4.000000,4.000000,4.000000,4.000000,4.000000,4.000000,100.000000
1614489242.895440,10.000000,0.000000,-2.026720,6.059378,20.406029,36.723316,19.306812,13.196199,12.279995,22.334009,12.783090,26.205772,5.481086,8.841111,7.250507,1.681764,9.106338,23.306965,15.091372,47.301510,29.975208,1.227488,12.209765,9.785813,-8.092236,0.089692,-8.356543,-16.676687,-34.127941,-0.182539,-3.817241,-1.723137,-38.094234,-6.404390,0.000000,158.000000,4.000000,,,,0.000000,4.000000,4.000000,4.000000,4.000000,4.000000,4.000000,4.000000,4.000000,4.000000,4.000000,4.000000,4.000000,4.000000,4.000000,4.000000,4.000000,4.000000,4.000000,4.000000,4.000000,4.000000,4.000000,4.000000,4.000000,4.000000,4.000000,4.000000,4.000000,4.000000,4.000000,4.000000,4.000000,100.000000
1614489242.903189,11.000000,0.000000,-1.511873,8.617421,23.462545,36.686592,20.825968,13.183003,13.293356,21.798855,12.257485,23.615463,3.424323,6.780988,7.243257,2.705723,7.045949,12.514427,13.537818,39.049080,28.919592,0.713440,11.171914,8.750387,-1.417477,-0.936039,-9.373827,-12.557446,-33.068172,-2.746459,-3.813424,-2.234234,-39.594601,-4.346704,0.000000,193.000000,4.000000,,,,0.000000,4.000000,4.000000,4.000000,4.000000,4.000000,4.000000,4.000000,4.000000,4.000000,4.000000,4.000000,4.000000,4.000000,4.000000,4.000000,4.000000,4.000000,4.000000,4.000000,4.000000,4.000000,4.000000,4.000000,4.000000,4.000000,4.000000,4.000000,4.000000,4.000000,4.000000,4.000000,4.000000,100.000000
1614489242.911038,12.000000,0.000000,-1.510361,10.147264,23.951904,37.162727,23.369244,12.144179,10.715961,23.828337,16.860613,22.566208,5.472181,7.799849,7.236013,4.241479,2.936339,3.783964,12.498639,35.420284,30.429132,1.225547,4.494076,-6.130158,1.660863,-4.524847,-8.851633,-12.544888,-31.496641,-3.769354,-4.322431,-0.693538,-37.503723,-3.829537,0.000000,192.000000,4.000000,,,,0.000000,4.000000,4.000000,4.000000,4.000000,4.000000,4.000000,4.000000,4.000000,4.000000,4.000000,4.000000,4.000000,4.000000,4.000000,4.000000,4.000000,4.000000,4.000000,4.000000,4.000000,4.000000,4.000000,4.000000,4.000000,4.000000,4.000000,4.000000,4.000000,4.000000,4.000000,4.000000,4.000000,100.000000
1614489242.918787,13.000000,0.000000,-1.508850,10.137117,27.004875,26.869152,23.858696,13.157676,7.628321,16.625023,20.433496,17.928257,5.466709,8.304869,1.587752,3.211596,3.446223,10.446847,14.024602,38.974609,28.860243,-3.903884,0.387018,-7.149669,1.659203,-6.571604,-8.329961,-12.532344,-29.413862,-2.739943,-3.292468,1.358437,-33.876476,-5.876989,0.000000,193.000000,4.000000,,,,0.000000,4.000000,4.000000,4.000000,4.000000,4.000000,4.000000,4.000000,4.000000,4.000000,4.000000,4.000000,4.000000,4.000000,4.000000,4.000000,4.000000,4.000000,4.000000,4.000000,4.000000,4.000000,4.000000,4.000000,4.000000,4.000000,4.000000,4.000000,4.000000,4.000000,4.000000,4.000000,4.000000,100.000000
1614489242.926636,14.000000,0.000000,-1.507342,9.614160,20.824024,11.970489,22.809196,13.144518,4.030949,4.300704,17.336140,6.115456,-6.846450,1.629898,-7.131785,-10.637769,-1.172608,7.872297,6.831090,33.807430,17.549332,-13.643570,-1.664651,-0.475853,3.196005,-25.026571,-9.347272,-14.571094,-24.256245,-2.737203,-4.314816,2.895540,-37.945164,-8.948035,0.000000,195.000000,4.000000,,,,0.000000,4.000000,4.000000,4.000000,4.000000,4.000000,4.000000,4.000000,4.000000,4.000000,4.000000,4.000000,4.000000,4.000000,4.000000,4.000000,4.000000,4.000000,4.000000,4.000000,4.000000,4.000000,4.000000,4.000000,4.000000,4.000000,4.000000,4.000000,4.000000,4.000000,4.000000,4.000000,4.000000,100.000000
1614489242.934385,15.000000,0.000000,-2.018655,10.117367,11.572431,10.420056,23.812027,12.618553,1.462816,7.886147,17.318804,0.981135,-14.531912,-2.987117,-10.201576,-20.370722,-6.299640,1.710579,-6.509074,32.747982,15.480500,-13.629927,-5.252730,-7.142044,-3.473858,-32.693851,-8.825104,-16.607803,-18.590961,-3.247287,-3.797681,3.918286,-36.368755,-7.400626,0.000000,159.000000,4.000000,,,,0.000000,4.000000,4.000000,4.000000,4.000000,4.000000,4.000000,4.000000,4.000000,4.000000,4.000000,4.000000,4.000000,4.000000,4.000000,4.000000,4.000000,4.000000,4.000000,4.000000,4.000000,4.000000,4.000000,4.000000,4.000000,4.000000,4.000000,4.000000,4.000000,4.000000,4.000000,4.000000,4.000000,100.000000
1614489242.942234,16.000000,0.000000,-0.990995,10.620070,14.637781,18.101944,22.249754,12.605935,2.486994,19.160313,16.788664,4.569898,-1.696867,3.169716,-7.627272,-9.581120,1.398967,15.555022,-5.476923,47.074207,29.311172,-1.308604,-0.632093,-10.211824,-9.624230,-11.635517,-6.252176,-16.591196,-18.059551,-3.756860,0.821501,7.504111,-26.075977,-4.316302,0.000000,185.000000,4.000000,,,,0.000000,4.000000,4.000000,4.000000,4.000000,4.000000,4.000000,4.000000,4.000000,4.000000,4.000000,4.000000,4.000000,4.000000,4.000000,4.000000,4.000000,4.000000,4.000000,4.000000,4.000000,4.000000,4.000000,4.000000,4.000000,4.000000,4.000000,4.000000,4.000000,4.000000,4.000000,4.000000,4.000000,100.000000
1614489242.949983,17.000000,0.000000,1.574099,6.506886,15.135963,18.083841,16.073658,13.106150,-1.618057,16.064230,3.951362,5.078148,4.458676,4.192188,-5.568363,-1.879231,11.653978,27.847160,3.759322,48.565594,27.230579,6.385012,3.983924,4.157362,0.641804,-8.034138,-6.245924,-17.600246,-19.067133,-2.727462,3.897603,10.060710,-24.511440,-7.901729,0.000000,196.000000,4.000000,,,,0.000000,4.000000,4.000000,4.000000,4.000000,4.000000,4.000000,4.000000,4.000000,4.000000,4.000000,4.000000,4.000000,4.000000,4.000000,4.000000,4.000000,4.000000,4.000000,4.000000,4.000000,4.000000,4.000000,4.000000,4.000000,4.000000,4.000000,4.000000,4.000000,4.000000,4.000000,4.000000,4.000000,100.000000
1614489242.957832,18.000000,0.000000,2.598166,0.346532,0.249033,9.860630,10.929379,11.554582,-8.283106,5.278934,-5.283358,2.508968,-7.340654,-6.068415,-5.562794,-11.620941,10.103863,19.614183,0.678640,30.568312,11.305914,-0.288039,-5.763650,11.332691,3.718086,-27.000463,-10.342242,-22.710852,-18.535244,-2.724735,3.893705,9.537828,-35.768982,-15.073315,0.000000,186.000000,4.000000,,,,0.000000,4.000000,4.000000,4.000000,4.000000,4.000000,4.000000,4.000000,4.000000,4.000000,4.000000,4.000000,4.000000,4.000000,4.000000,4.000000,4.000000,4.000000,4.000000,4.000000,4.000000,4.000000,4.000000,4.000000,4.000000,4.000000,4.000000,4.000000,4.000000,4.000000,4.000000,4.000000,4.000000,100.000000
1614489242.965581,19.000000,0.000000,2.082747,-1.705096,-2.315319,5.748205,11.944091,9.491745,-9.813284,2.709553,1.388592,1.480818,-7.333313,-5.549526,-4.531590,-10.070859,5.991195,12.927903,-2.398962,28.486462,20.525377,-3.877495,-9.347630,4.141871,-13.208710,-21.845257,-13.408823,-25.765062,-18.516708,-7.850215,3.376991,10.041111,-40.348595,-16.596703,0.000000,179.000000,4.000000,,,,0.000000,4.000000,4.000000,4.000000,4.000000,4.000000,4.000000,4.000000,4.000000,4.000000,4.000000,4.000000,4.000000,4.000000,4.000000,4.000000,4.000000,4.000000,4.000000,4.000000,4.000000,4.000000,4.000000,4.000000,4.000000,4.000000,4.000000,4.000000,4.000000,4.000000,4.000000,4.000000,4.000000,100.000000
1614489242.973330,20.000000,0.000000,2.080664,-1.190571,19.225458,9.332201,18.085993,8.456613,-9.803471,4.758125,6.515409,1.992158,6.520174,5.738075,-1.962956,8.400751,7.010845,15.479078,8.372668,38.201565,37.427929,3.818690,2.969410,4.137730,-17.298065,-1.823412,-13.395414,-21.123913,-19.011013,-9.380826,3.886435,10.543891,-34.667221,-12.990362,0.000000,195.000000,4.000000,,,,0.000000,4.000000,4.000000,4.000000,4.000000,4.000000,4.000000,4.000000,4.000000,4.000000,4.000000,4.000000,4.000000,4.000000,4.000000,4.000000,4.000000,4.000000,4.000000,4.000000,4.000000,4.000000,4.000000,4.000000,4.000000,4.000000,4.000000,4.000000,4.000000,4.000000,4.000000,4.000000,4.000000,100.000000
1614489242.981079,21.000000,0.000000,2.078583,-1.189380,32.539566,14.451074,23.196112,8.960976,-7.742385,3.727726,5.483252,8.656832,10.616218,8.296439,-1.448173,16.084658,8.029475,16.489241,14.005322,29.958235,23.544346,2.789231,8.607467,10.800259,-4.460254,-2.847229,-12.356378,-13.923303,-18.479181,-2.704779,3.369728,6.430782,-30.529991,-8.874808,0.000000,177.000000,4.000000,,,,0.000000,4.000000,4.000000,4.000000,4.000000,4.000000,4.000000,4.000000,4.000000,4.000000,4.000000,4.000000,4.000000,4.000000,4.000000,4.000000,4.000000,4.000000,4.000000,4.000000,4.000000,4.000000,4.000000,4.000000,4.000000,4.000000,4.000000,4.000000,4.000000,4.000000,4.000000,4.000000,4.000000,100.000000
1614489242.988729,22.000000,0.000000,2.076505,-1.701011,19.686514,14.436623,20.608814,8.952015,-0.042335,3.723998,7.016230,16.340483,7.015858,7.775322,0.604557,13.504471,5.970163,14.421469,8.350290,17.620584,5.572084,-11.059712,1.932192,9.250997,-1.891691,-11.049510,-13.369662,-14.422199,-18.973522,-0.650792,3.366358,-0.242315,-33.576382,-7.840292,0.000000,193.000000,4.000000,,,,0.000000,4.000000,4.000000,4.000000,4.000000,4.000000,4.000000,4.000000,4.000000,4.000000,4.000000,4.000000,4.000000,4.000000,4.000000,4.000000,4.000000,4.000000,4.000000,4.000000,4.000000,4.000000,4.000000,4.000000,4.000000,4.000000,4.000000,4.000000,4.000000,4.000000,4.000000,4.000000,4.000000,100.000000
1614489242.996478,23.000000,0.000000,2.074428,-1.186490,5.820673,13.909366,16.485640,9.455884,6.624373,4.233095,4.957932,17.862604,8.034483,13.408573,5.732158,14.003786,6.477014,13.894227,5.777837,27.346554,14.797281,-13.099935,-0.633843,3.600720,-7.530825,-9.499999,-13.869113,-19.535982,-18.441729,-3.214244,3.362992,-2.293355,-36.619728,-8.858093,0.000000,198.000000,4.000000,,,,0.000000,4.000000,4.000000,4.000000,4.000000,4.000000,4.000000,4.000000,4.000000,4.000000,4.000000,4.000000,4.000000,4.000000,4.000000,4.000000,4.000000,4.000000,4.000000,4.000000,4.000000,4.000000,4.000000,4.000000,4.000000,4.000000,4.000000,4.000000,4.000000,4.000000,4.000000,4.000000,4.000000,100.000000
1614489243.004127,24.000000,0.000000,2.072354,-1.185303,13.507160,15.433918,15.443514,8.420787,6.617749,3.716041,2.388871,19.896023,9.052090,13.907985,5.213605,12.964142,12.624383,23.623922,5.772059,44.242283,29.141459,2.810601,0.905253,2.058658,-6.497653,-7.952038,-8.214218,-20.542088,-16.372005,-3.211029,3.359629,-0.752600,-28.890802,-5.772312,0.000000,192.000000,4.000000,,,,0.000000,4.000000,4.000000,4.000000,4.000000,4.000000,4.000000,4.000000,4.000000,4.000000,4.000000,4.000000,4.000000,4.000000,4.000000,4.000000,4.000000,4.000000,4.000000,4.000000,4.000000,4.000000,4.000000,4.000000,4.000000,4.000000,4.000000,4.000000,4.000000,4.000000,4.000000,4.000000,4.000000,100.000000
1614489243.011876,25.000000,0.000000,2.070282,-1.184118,28.878269,16.956945,15.428070,5.335443,5.072670,6.276428,10.591611,23.978691,8.017396,10.817154,-0.432634,6.797331,18.252785,36.420811,2.176544,47.274963,30.137959,14.089842,0.904348,3.595061,-4.952694,-9.482547,0.511944,-20.008724,-15.329992,-5.259100,3.356269,-1.777488,-16.554220,0.900127,0.000000,206.000000,4.000000,,,,0.000000,4.000000,4.000000,4.000000,4.000000,4.000000,4.000000,4.000000,4.000000,4.000000,4.000000,4.000000,4.000000,4.000000,4.000000,4.000000,4.000000,4.000000,4.000000,4.000000,4.000000,4.000000,4.000000,4.000000,4.000000,4.000000,4.000000,4.000000,4.000000,4.000000,4.000000,4.000000,4.000000,100.000000
1614489243.019525,26.000000,0.000000,1.042570,-1.695754,30.900673,18.478451,15.925463,4.817287,6.093238,10.372716,9.555378,21.390610,8.009379,11.319157,-2.483484,6.790534,18.234531,35.358749,1.661547,45.689228,28.056538,8.434726,-0.122198,3.078645,-5.973382,-11.011526,1.024253,-20.501537,-15.314662,-6.792303,3.352913,-1.775711,-19.101768,-2.177696,0.000000,175.000000,4.000000,,,,0.000000,4.000000,4.000000,4.000000,4.000000,4.000000,4.000000,4.000000,4.000000,4.000000,4.000000,4.000000,4.000000,4.000000,4.000000,4.000000,4.000000,4.000000,4.000000,4.000000,4.000000,4.000000,4.000000,4.000000,4.000000,4.000000,4.000000,4.000000,4.000000,4.000000,4.000000,4.000000,4.000000,100.000000
1614489243.027274,27.000000,0.000000,2.067169,-1.694059,20.613361,16.921511,13.858255,5.325290,5.061504,9.336701,-7.377254,18.292297,8.001369,7.718094,-0.942538,10.373487,17.190657,30.195185,2.172706,46.669178,28.541302,-3.881401,-1.660537,0.511464,-6.480229,-9.462053,-4.104977,-19.968214,-15.812168,-4.734229,1.811098,-1.261114,-28.826256,-14.996031,0.000000,165.000000,4.000000,,,,0.000000,4.000000,4.000000,4.000000,4.000000,4.000000,4.000000,4.000000,4.000000,4.000000,4.000000,4.000000,4.000000,4.000000,4.000000,4.000000,4.000000,4.000000,4.000000,4.000000,4.000000,4.000000,4.000000,4.000000,4.000000,4.000000,4.000000,4.000000,4.000000,4.000000,4.000000,4.000000,4.000000,100.000000
1614489243.034923,28.000000,0.000000,2.577922,-1.179544,14.951722,9.725101,5.639269,-1.346702,-1.097404,0.609416,-11.472441,15.709902,7.993368,0.018069,-0.941596,6.260550,18.199106,29.652170,-5.521775,42.519947,30.564043,-6.441622,-3.197338,-0.514689,-6.473749,-9.452591,-5.639333,-20.973888,-15.283535,-6.780777,-0.754815,-2.798315,-31.361532,-21.647701,0.000000,202.000000,4.000000,,,,0.000000,4.000000,4.000000,4.000000,4.000000,4.000000,4.000000,4.000000,4.000000,4.000000,4.000000,4.000000,4.000000,4.000000,4.000000,4.000000,4.000000,4.000000,4.000000,4.000000,4.000000,4.000000,4.000000,4.000000,4.000000,4.000000,4.000000,4.000000,4.000000,4.000000,4.000000,4.000000,4.000000,100.000000
1614489243.042672,29.000000,0.000000,-0.501579,-1.691185,16.475233,6.638453,4.095168,-6.473560,-7.762973,-4.519398,-3.768661,6.463423,8.498196,-0.494770,-2.479116,1.638904,18.180906,23.981491,-8.593176,38.374863,29.507837,-4.383898,-2.681320,-0.514174,-5.441634,-13.545703,-5.120873,-20.440094,-15.268251,-10.363739,-0.754061,-5.359619,-32.355812,-19.061951,0.000000,215.000000,4.000000,,,,0.000000,4.000000,4.000000,4.000000,4.000000,4.000000,4.000000,4.000000,4.000000,4.000000,4.000000,4.000000,4.000000,4.000000,4.000000,4.000000,4.000000,4.000000,4.000000,4.000000,4.000000,4.000000,4.000000,4.000000,4.000000,4.000000,4.000000,4.000000,4.000000,4.000000,4.000000,4.000000,4.000000,100.000000
1614489243.050322,30.000000,0.000000,0.011743,-0.151032,18.510038,13.811302,17.424406,0.712400,-4.678287,2.664608,-1.200790,2.354395,7.976877,4.121109,1.113107,6.252650,17.649906,19.854946,2.184648,38.849308,22.811663,-8.482079,-2.678639,-1.026480,-5.949013,-11.993695,-5.628573,-13.240166,-11.663239,-6.763632,1.810796,-4.328619,-34.374737,-14.427505,0.000000,170.000000,4.000000,,,,0.000000,4.000000,4.000000,4.000000,4.000000,4.000000,4.000000,4.000000,4.000000,4.000000,4.000000,4.000000,4.000000,4.000000,4.000000,4.000000,4.000000,4.000000,4.000000,4.000000,4.000000,4.000000,4.000000,4.000000,4.000000,4.000000,4.000000,4.000000,4.000000,4.000000,4.000000,4.000000,4.000000,100.000000
1614489243.058071,31.000000,0.000000,9.242500,4.464503,19.004349,23.028259,29.714674,11.993739,10.711007,15.995277,10.082462,15.172553,7.968900,10.270834,8.291481,14.964346,18.657896,27.527399,10.387591,37.271996,23.301672,-2.319750,-0.111858,3.589931,-6.968705,1.864452,-5.622944,-5.021798,-3.446448,-2.654304,3.347447,-2.273008,-31.263439,-12.361795,0.000000,190.000000,4.000000,,,,0.000000,4.000000,4.000000,4.000000,4.000000,4.000000,4.000000,4.000000,4.000000,4.000000,4.000000,4.000000,4.000000,4.000000,4.000000,4.000000,4.000000,4.000000,4.000000,4.000000,4.000000,4.000000,4.000000,4.000000,4.000000,4.000000,4.000000,4.000000,4.000000,4.000000,4.000000,4.000000,4.000000,100.000000
1614489243.065720,32.000000,0.000000,14.874284,9.075423,18.985346,26.594975,31.223421,16.597130,21.982347,22.645948,24.431355,25.413792,11.037854,16.927231,14.437036,18.539125,20.690521,33.140896,9.864384,39.798828,34.047600,16.656929,9.631844,11.278648,2.269033,11.606177,-3.566039,-3.991135,5.787767,-1.113188,3.344099,-0.732273,-27.129612,-8.759690,8064.000000,0.000000,4.000000,,,,0.000000,4.000000,4.000000,4.000000,4.000000,4.000000,4.000000,4.000000,4.000000,4.000000,4.000000,4.000000,4.000000,4.000000,4.000000,4.000000,4.000000,4.000000,4.000000,4.000000,4.000000,4.000000,4.000000,4.000000,4.000000,4.000000,4.000000,4.000000,4.000000,4.000000,4.000000,4.000000,4.000000,100.000000
1614489243.073469,33.000000,0.000000,9.731204,10.091990,18.966360,28.619661,29.653736,16.067713,19.396263,22.110481,20.817179,22.824274,11.539637,15.884662,14.935419,15.956484,20.157009,34.646217,9.854519,50.528259,36.577656,15.101810,11.160673,7.164806,12.523174,1.338161,-0.998371,-6.038425,8.858903,0.426387,3.340755,1.319741,-27.102484,-3.109905,8192.000000,0.000000,4.000000,,,,0.000000,4.000000,4.000000,4.000000,4.000000,4.000000,4.000000,4.000000,4.000000,4.000000,4.000000,4.000000,4.000000,4.000000,4.000000,4.000000,4.000000,4.000000,4.000000,4.000000,4.000000,4.000000,4.000000,4.000000,4.000000,4.000000,4.000000,4.000000,4.000000,4.000000,4.000000,4.000000,4.000000,100.000000
1614489243.081118,34.000000,0.000000,5.106089,9.569077,19.460215,29.616684,29.624083,16.564465,14.761481,22.088371,18.232260,20.237349,7.425533,8.689290,10.305099,9.786681,13.983006,33.585930,4.716459,49.452091,24.746206,-8.503036,-5.260744,-5.150052,6.869625,-14.047792,-1.510193,-4.493926,4.234659,-1.625322,3.337415,2.856883,-27.588202,-0.029872,8064.000000,0.000000,4.000000,,,,0.000000,4.000000,4.000000,4.000000,4.000000,4.000000,4.000000,4.000000,4.000000,4.000000,4.000000,4.000000,4.000000,4.000000,4.000000,4.000000,4.000000,4.000000,4.000000,4.000000,4.000000,4.000000,4.000000,4.000000,4.000000,4.000000,4.000000,4.000000,4.000000,4.000000,4.000000,4.000000,4.000000,100.000000
1614489243.088867,35.000000,0.000000,6.126624,9.559507,19.440754,28.561426,28.055996,17.573542,14.233899,24.117565,23.855053,20.729931,4.854005,7.142139,4.140948,1.571766,4.738255,20.219011,-9.134411,33.505203,17.029152,-19.263763,-19.101637,-11.811568,-4.932117,-17.623487,-5.611247,-4.489432,-2.436242,-5.726261,3.334077,2.854026,-27.047792,-2.593945,8192.000000,0.000000,4.000000,,,,0.000000,4.000000,4.000000,4.000000,4.000000,4.000000,4.000000,4.000000,4.000000,4.000000,4.000000,4.000000,4.000000,4.000000,4.000000,4.000000,4.000000,4.000000,4.000000,4.000000,4.000000,4.000000,4.000000,4.000000,4.000000,4.000000,4.000000,4.000000,4.000000,4.000000,4.000000,4.000000,4.000000,100.000000
1614489243.096516,36.000000,0.000000,6.120497,10.062769,19.421312,24.430300,25.976658,16.530327,12.681204,22.042166,16.138889,18.657919,3.823510,7.647818,2.085525,-5.609293,-1.420330,7.378280,-14.766302,25.779388,18.037766,-14.116294,-15.492791,-11.286936,-6.465646,-16.067404,-9.195379,-8.587506,-4.997909,-7.258996,3.330743,2.338351,-27.020744,-4.642632,8064.000000,0.000000,4.000000,,,,0.000000,4.000000,4.000000,4.000000,4.000000,4.000000,4.000000,4.000000,4.000000,4.000000,4.000000,4.000000,4.000000,4.000000,4.000000,4.000000,4.000000,4.000000,4.000000,4.000000,4.000000,4.000000,4.000000,4.000000,4.000000,4.000000,4.000000,4.000000,4.000000,4.000000,4.000000,4.000000,4.000000,100.000000
1614489243.104365,37.000000,0.000000,5.088735,9.539886,19.401892,20.816126,25.950682,14.975335,13.694163,18.430380,6.891982,16.075159,3.306866,7.127349,2.596260,-4.578043,1.145193,16.088850,-7.572049,29.343353,18.019728,-13.589357,-8.297812,-12.301290,-4.920719,-16.564156,-9.699004,-13.194304,-3.967270,-6.738916,3.327412,2.848834,-27.506544,-4.637990,8192.000000,0.000000,4.000000,,,,0.000000,4.000000,4.000000,4.000000,4.000000,4.000000,4.000000,4.000000,4.000000,4.000000,4.000000,4.000000,4.000000,4.000000,4.000000,4.000000,4.000000,4.000000,4.000000,4.000000,4.000000,4.000000,4.000000,4.000000,4.000000,4.000000,4.000000,4.000000,4.000000,4.000000,4.000000,4.000000,4.000000,100.000000
1614489243.112114,38.000000,0.000000,5.083647,9.530345,19.382490,22.333771,27.463192,17.524462,12.654829,18.924770,12.526115,17.597546,7.918943,10.197145,2.593663,4.657305,8.323535,25.303530,-1.923451,30.339651,16.976067,-15.114230,-7.263873,-11.776168,-6.454259,-14.496310,-9.176485,-13.181109,-4.476123,-7.244998,3.324085,2.845985,-27.479038,-4.633352,8192.000000,0.000000,4.000000,,,,0.000000,4.000000,4.000000,4.000000,4.000000,4.000000,4.000000,4.000000,4.000000,4.000000,4.000000,4.000000,4.000000,4.000000,4.000000,4.000000,4.000000,4.000000,4.000000,4.000000,4.000000,4.000000,4.000000,4.000000,4.000000,4.000000,4.000000,4.000000,4.000000,4.000000,4.000000,4.000000,4.000000,100.000000
1614489243.119963,39.000000,0.000000,6.104204,9.520815,19.363108,18.721695,23.845985,14.430016,0.847302,16.854563,15.077692,17.067127,5.859743,8.648486,2.078249,4.139827,9.340853,19.637201,-4.998451,30.309311,17.471910,-13.560654,-7.256609,-10.738751,-5.934985,-11.917711,-9.167308,-12.655107,-7.035749,-6.724933,3.320761,1.304677,-27.451559,-4.628718,8192.000000,0.000000,4.000000,,,,0.000000,4.000000,4.000000,4.000000,4.000000,4.000000,4.000000,4.000000,4.000000,4.000000,4.000000,4.000000,4.000000,4.000000,4.000000,4.000000,4.000000,4.000000,4.000000,4.000000,4.000000,4.000000,4.000000,4.000000,4.000000,4.000000,4.000000,4.000000,4.000000,4.000000,4.000000,4.000000,4.000000,100.000000
1614489243.127713,40.000000,0.000000,4.559638,9.511294,19.343744,4.856819,14.591371,0.056611,-12.999700,7.094119,8.908769,8.844932,-9.530732,-0.078111,2.588992,-6.633543,3.690486,13.463717,-9.096016,30.791822,17.454439,-15.598375,-9.300634,-16.881859,-7.467511,-15.495537,-11.722243,-13.155273,-11.131278,-6.718208,3.317440,-0.747909,-26.911287,-4.624090,8064.000000,0.000000,4.000000,,,,0.000000,4.000000,4.000000,4.000000,4.000000,4.000000,4.000000,4.000000,4.000000,4.000000,4.000000,4.000000,4.000000,4.000000,4.000000,4.000000,4.000000,4.000000,4.000000,4.000000,4.000000,4.000000,4.000000,4.000000,4.000000,4.000000,4.000000,4.000000,4.000000,4.000000,4.000000,4.000000,4.000000,100.000000
1614489243.135562,41.000000,0.000000,2.503797,9.501783,19.324400,0.749398,10.987036,-6.610113,-14.525161,5.548563,8.387039,2.169420,-13.110946,-4.693418,2.586403,-9.191012,1.635513,14.988715,-8.574100,29.222569,18.462626,-16.095598,-10.316975,-15.839335,-12.075428,-20.095427,-12.223342,-13.142118,-13.684249,-7.224310,3.314122,-1.772803,-27.910017,-5.132286,8064.000000,0.000000,4.000000,,,,0.000000,4.000000,4.000000,4.000000,4.000000,4.000000,4.000000,4.000000,4.000000,4.000000,4.000000,4.000000,4.000000,4.000000,4.000000,4.000000,4.000000,4.000000,4.000000,4.000000,4.000000,4.000000,4.000000,4.000000,4.000000,4.000000,4.000000,4.000000,4.000000,4.000000,4.000000,4.000000,4.000000,100.000000
1614489243.143311,42.000000,0.000000,1.475652,9.492281,18.792255,9.466598,14.052972,2.627267,-7.843969,12.722502,8.378652,4.218533,3.312422,-2.124621,2.583816,-2.515155,6.762083,19.076290,-8.052705,36.885654,22.546726,-9.925655,-2.101529,-1.464522,-12.576174,-15.972767,-6.570093,-12.616155,-9.055181,-5.678624,3.310808,-1.258209,-26.856464,-4.614334,8064.000000,0.000000,4.000000,,,,0.000000,4.000000,4.000000,4.000000,4.000000,4.000000,4.000000,4.000000,4.000000,4.000000,4.000000,4.000000,4.000000,4.000000,4.000000,4.000000,4.000000,4.000000,4.000000,4.000000,4.000000,4.000000,4.000000,4.000000,4.000000,4.000000,4.000000,4.000000,4.000000,4.000000,4.000000,4.000000,4.000000,100.000000
1614489243.151160,43.000000,0.000000,1.986997,9.482789,18.773464,13.046874,15.577380,9.804127,-3.220741,15.273882,10.934376,8.829699,13.565519,-0.071215,3.094053,0.051463,10.345064,24.698240,-8.557473,48.130821,26.113924,-5.300345,7.644162,3.665148,-9.486674,-9.290128,-1.435318,-12.603539,-0.840997,-3.108843,3.307498,-1.256951,-22.214224,-2.558437,8064.000000,0.000000,4.000000,,,,0.000000,4.000000,4.000000,4.000000,4.000000,4.000000,4.000000,4.000000,4.000000,4.000000,4.000000,4.000000,4.000000,4.000000,4.000000,4.000000,4.000000,4.000000,4.000000,4.000000,4.000000,4.000000,4.000000,4.000000,4.000000,4.000000,4.000000,4.000000,4.000000,4.000000,4.000000,4.000000,4.000000,100.000000
1614489243.158909,44.000000,0.000000,1.985010,9.473306,19.267509,9.956904,15.048983,8.255861,-2.191879,14.745788,20.154211,9.846510,7.910929,-0.071143,2.065318,-0.974230,8.796258,24.160721,-8.548916,45.005768,25.574989,-5.807866,5.072415,-8.646210,-8.964367,-9.793657,-1.433882,-12.590936,-0.327335,-3.618555,3.304190,-1.255694,-20.653549,-1.017417,8064.000000,0.000000,4.000000,,,,0.000000,4.000000,4.000000,4.000000,4.000000,4.000000,4.000000,4.000000,4.000000,4.000000,4.000000,4.000000,4.000000,4.000000,4.000000,4.000000,4.000000,4.000000,4.000000,4.000000,4.000000,4.000000,4.000000,4.000000,4.000000,4.000000,4.000000,4.000000,4.000000,4.000000,4.000000,4.000000,4.000000,100.000000
1614489243.166758,45.000000,0.000000,1.983024,9.463833,19.248243,9.434127,14.521113,8.247605,-2.702507,15.243862,21.672518,8.811023,3.800454,-1.609534,-1.013671,-1.486076,6.223359,16.957073,-8.540366,35.217171,23.498133,-5.802058,-2.112144,-12.227307,-9.981044,-12.347966,-1.945269,-12.578344,-5.455213,-6.179039,3.300886,-1.254438,-22.684177,-1.016400,8064.000000,0.000000,4.000000,,,,0.000000,4.000000,4.000000,4.000000,4.000000,4.000000,4.000000,4.000000,4.000000,4.000000,4.000000,4.000000,4.000000,4.000000,4.000000,4.000000,4.000000,4.000000,4.000000,4.000000,4.000000,4.000000,4.000000,4.000000,4.000000,4.000000,4.000000,4.000000,4.000000,4.000000,4.000000,4.000000,4.000000,100.000000
1614489243.174507,46.000000,0.000000,1.981042,9.454369,19.228994,10.963154,15.532233,9.264998,1.915580,14.202977,17.035461,9.827852,5.335114,0.956178,-1.012657,-0.458949,6.729956,14.376014,-8.019006,33.130672,21.936172,-4.770615,-2.622853,-4.522772,-9.458242,-12.335619,-0.917682,-12.565766,-1.860014,-6.685680,3.297585,-1.253184,-23.687134,-1.528204,8064.000000,0.000000,4.000000,,,,0.000000,4.000000,4.000000,4.000000,4.000000,4.000000,4.000000,4.000000,4.000000,4.000000,4.000000,4.000000,4.000000,4.000000,4.000000,4.000000,4.000000,4.000000,4.000000,4.000000,4.000000,4.000000,4.000000,4.000000,4.000000,4.000000,4.000000,4.000000,4.000000,4.000000,4.000000,4.000000,4.000000,100.000000
1614489243.182356,47.000000,0.000000,1.979061,9.444915,22.799509,12.490653,20.132086,9.255733,8.580331,18.804159,18.556887,13.407768,4.816959,8.134709,0.013997,2.618433,7.236047,15.387280,-8.010986,34.636002,20.375774,-6.817126,-3.133050,-5.031070,-9.448784,-12.836103,-1.429585,-12.553201,4.808513,-6.678994,3.294287,-1.251931,-24.176268,-1.013855,8064.000000,0.000000,4.000000,,,,0.000000,4.000000,4.000000,4.000000,4.000000,4.000000,4.000000,4.000000,4.000000,4.000000,4.000000,4.000000,4.000000,4.000000,4.000000,4.000000,4.000000,4.000000,4.000000,4.000000,4.000000,4.000000,4.000000,4.000000,4.000000,4.000000,4.000000,4.000000,4.000000,4.000000,4.000000,4.000000,4.000000,100.000000
