title:16, start timestamp:1614489395.349440, stop timestamp:1614489441.207900, headset type:EPOCFLEX, headset serial:F00001ED, headset firmware:f12, subject name:s14, channels:75, sampling rate:128, samples:5919      , version:2.0
Timestamp,EEG.Counter,EEG.Interpolated,EEG.Cz,EEG.Fz,EEG.Fp1,EEG.F7,EEG.F3,EEG.FC1,EEG.C3,EEG.FC5,EEG.FT9,EEG.T7,EEG.TP9,EEG.CP5,EEG.CP1,EEG.P3,EEG.P7,EEG.O1,EEG.Pz,EEG.Oz,EEG.O2,EEG.P8,EEG.P4,EEG.CP2,EEG.CP6,EEG.TP10,EEG.T8,EEG.FT10,EEG.FC6,EEG.C4,EEG.FC2,EEG.F4,EEG.F8,EEG.Fp2,EEG.HighBitFlex,EEG.RawCq,EEG.Battery,MarkerIndex,MarkerType,MarkerValueInt,EEG.MarkerHardware,CQ.Cz,CQ.Fz,CQ.Fp1,CQ.F7,CQ.F3,CQ.FC1,CQ.C3,CQ.FC5,CQ.FT9,CQ.T7,CQ.TP9,CQ.CP5,CQ.CP1,CQ.P3,CQ.P7,CQ.O1,CQ.Pz,CQ.Oz,CQ.O2,CQ.P8,CQ.P4,CQ.CP2,CQ.CP6,CQ.TP10,CQ.T8,CQ.FT10,CQ.FC6,CQ.C4,CQ.FC2,CQ.F4,CQ.F8,CQ.Fp2,CQ.Overall
1614489395.349440,98.000000,0.000000,-4.241936,-2.409276,-44.760857,-13.685906,0.888500,-4.791625,-10.769421,-3.527146,-53.192894,-11.670088,6.547580,-2.873079,-0.177984,3.856634,-8.019961,51.505241,-1.196725,108.437752,47.050976,-14.064536,-19.789787,8.067736,-4.940993,-56.197083,-8.230028,-44.404533,-17.594404,-5.971581,1.074862,-7.109194,-18.586460,-42.778667,8064.000000,0.000000,4.000000,,,,0.000000,4.000000,4.000000,4.000000,4.000000,4.000000,4.000000,4.000000,4.000000,4.000000,4.000000,4.000000,4.000000,4.000000,4.000000,4.000000,4.000000,4.000000,4.000000,4.000000,4.000000,4.000000,4.000000,4.000000,4.000000,4.000000,4.000000,4.000000,4.000000,4.000000,4.000000,4.000000,4.000000,100.000000
1614489395.357289,99.000000,0.000000,-4.237694,-0.868405,-35.998146,-12.133759,8.579920,1.367013,-2.553523,7.245612,-54.165344,-1.402008,1.925648,-2.870206,-2.229088,-3.326710,-10.576044,44.274250,-0.682708,97.560081,44.952641,-13.537651,-19.769997,9.085309,-5.448873,-59.730629,-6.170516,-34.103718,-15.525528,-5.965610,1.586608,-5.563623,-13.439669,-39.146145,8064.000000,0.000000,4.000000,,,,0.000000,4.000000,4.000000,4.000000,4.000000,4.000000,4.000000,4.000000,4.000000,4.000000,4.000000,4.000000,4.000000,4.000000,4.000000,4.000000,4.000000,4.000000,4.000000,4.000000,4.000000,4.000000,4.000000,4.000000,4.000000,4.000000,4.000000,4.000000,4.000000,4.000000,4.000000,4.000000,4.000000,100.000000
1614489395.365038,100.000000,0.000000,-4.233456,1.696566,-36.474968,-14.172908,8.058519,2.391287,-6.653533,4.161443,-53.085537,-3.964708,-11.922431,-3.380156,-9.406346,-19.220819,-26.975725,27.306898,-1.707667,96.949699,46.446152,-13.524114,-20.263048,-4.769930,-4.417783,-61.722179,-5.138704,-36.120895,-16.022823,-5.446824,1.072201,-6.070880,-14.451870,-38.594181,8064.000000,0.000000,4.000000,,,,0.000000,4.000000,4.000000,4.000000,4.000000,4.000000,4.000000,4.000000,4.000000,4.000000,4.000000,4.000000,4.000000,4.000000,4.000000,4.000000,4.000000,4.000000,4.000000,4.000000,4.000000,4.000000,4.000000,4.000000,4.000000,4.000000,4.000000,4.000000,4.000000,4.000000,4.000000,4.000000,4.000000,100.000000
1614489395.372887,101.000000,0.000000,-4.229223,-1.894874,-44.130802,-16.722837,3.947896,-6.329053,-18.954573,-9.688872,-52.519630,-11.653051,-24.218201,-5.940878,-14.012324,-27.919546,-37.205158,25.228310,-4.270061,98.391212,53.066372,-14.536230,-19.217144,-5.790802,-1.849263,-61.147636,-6.159207,-49.418110,-16.519621,-5.954197,1.583949,-6.064810,-19.565624,-41.119690,8064.000000,0.000000,4.000000,,,,0.000000,4.000000,4.000000,4.000000,4.000000,4.000000,4.000000,4.000000,4.000000,4.000000,4.000000,4.000000,4.000000,4.000000,4.000000,4.000000,4.000000,4.000000,4.000000,4.000000,4.000000,4.000000,4.000000,4.000000,4.000000,4.000000,4.000000,4.000000,4.000000,4.000000,4.000000,4.000000,4.000000,100.000000
1614489395.380636,102.000000,0.000000,-4.224994,-5.995543,-48.702053,-18.244576,-0.158616,-9.399647,-18.422796,-17.371490,-52.979931,-13.692680,-25.732445,-6.960578,-6.818825,-23.789063,-33.065388,26.741543,-5.291432,95.215897,57.628689,-12.470412,-16.633823,7.548323,-0.821772,-56.471104,-11.281253,-55.009716,-15.990281,-5.948243,1.582365,-6.058745,-21.084518,-59.027287,8064.000000,0.000000,4.000000,,,,0.000000,4.000000,4.000000,4.000000,4.000000,4.000000,4.000000,4.000000,4.000000,4.000000,4.000000,4.000000,4.000000,4.000000,4.000000,4.000000,4.000000,4.000000,4.000000,4.000000,4.000000,4.000000,4.000000,4.000000,4.000000,4.000000,4.000000,4.000000,4.000000,4.000000,4.000000,4.000000,4.000000,100.000000
1614489395.388285,103.000000,0.000000,-4.220768,-3.425446,-48.140533,-15.149408,0.354364,0.866163,-9.686425,-6.584889,-53.952591,-8.550782,-14.937481,3.302792,4.470045,-7.867838,-18.673349,28.253263,-4.773321,108.454018,57.571060,-4.765634,-15.591549,1.386928,-1.333771,-46.671043,-13.321254,-51.364964,-16.487110,-5.942295,-1.496140,-6.565506,-20.037794,-75.378517,8064.000000,0.000000,4.000000,,,,0.000000,4.000000,4.000000,4.000000,4.000000,4.000000,4.000000,4.000000,4.000000,4.000000,4.000000,4.000000,4.000000,4.000000,4.000000,4.000000,4.000000,4.000000,4.000000,4.000000,4.000000,4.000000,4.000000,4.000000,4.000000,4.000000,4.000000,4.000000,4.000000,4.000000,4.000000,4.000000,4.000000,100.000000
1614489395.396035,104.000000,0.000000,-4.216548,-2.396379,-43.477009,-13.082976,3.430932,7.019143,-4.548534,7.780671,-52.872997,-1.362744,-2.614851,18.684105,8.055319,6.499004,-6.859805,36.942959,-4.768547,127.319916,64.180153,-1.171124,-15.575957,-7.845228,-0.819617,-40.983345,-11.256650,-49.775135,-16.470623,-5.936353,-6.110029,-6.558941,-20.530577,-65.559547,8064.000000,0.000000,4.000000,,,,0.000000,4.000000,4.000000,4.000000,4.000000,4.000000,4.000000,4.000000,4.000000,4.000000,4.000000,4.000000,4.000000,4.000000,4.000000,4.000000,4.000000,4.000000,4.000000,4.000000,4.000000,4.000000,4.000000,4.000000,4.000000,4.000000,4.000000,4.000000,4.000000,4.000000,4.000000,4.000000,4.000000,100.000000
1614489395.403684,105.000000,0.000000,-4.212331,-5.470906,-42.920708,-12.557074,-0.162242,5.473662,1.097040,6.747249,-52.820126,2.741182,0.977507,16.614140,7.534442,5.466864,-10.442688,38.957298,-4.763779,120.525932,68.731361,-2.708415,-16.073202,4.470309,-0.818797,-42.480824,-9.706932,-50.751003,-17.479794,-5.930416,-6.616739,-7.065203,-21.535686,-53.699116,8064.000000,0.000000,4.000000,,,,0.000000,4.000000,4.000000,4.000000,4.000000,4.000000,4.000000,4.000000,4.000000,4.000000,4.000000,4.000000,4.000000,4.000000,4.000000,4.000000,4.000000,4.000000,4.000000,4.000000,4.000000,4.000000,4.000000,4.000000,4.000000,4.000000,4.000000,4.000000,4.000000,4.000000,4.000000,4.000000,4.000000,100.000000
1614489395.411433,106.000000,0.000000,-4.208119,-5.978255,-48.005993,-12.544516,-3.751824,5.981009,2.634405,3.663579,-59.946793,3.251262,-6.715778,6.853935,7.526908,1.358833,-16.073271,31.738853,-4.759015,105.020790,60.970322,-1.680066,-15.544309,7.029942,-1.330799,-45.002445,-10.210046,-50.700253,-16.436674,-5.924486,-6.097302,-9.109420,-21.001331,-63.389008,8064.000000,0.000000,4.000000,,,,0.000000,4.000000,4.000000,4.000000,4.000000,4.000000,4.000000,4.000000,4.000000,4.000000,4.000000,4.000000,4.000000,4.000000,4.000000,4.000000,4.000000,4.000000,4.000000,4.000000,4.000000,4.000000,4.000000,4.000000,4.000000,4.000000,4.000000,4.000000,4.000000,4.000000,4.000000,4.000000,4.000000,100.000000
1614489395.419082,107.000000,0.000000,-4.203911,-4.946636,-48.983627,-20.737101,-3.748072,4.949387,-4.547717,1.095812,-65.015053,-0.341733,-14.401370,6.334260,3.929638,-0.180987,-11.441813,29.655832,-4.754256,105.428589,53.217045,-2.704026,-15.015944,-4.259140,-0.816648,-45.470264,-10.199836,-49.111088,-15.394596,-5.918561,-6.091205,-9.613131,-19.954689,-72.043564,8064.000000,0.000000,4.000000,,,,0.000000,4.000000,4.000000,4.000000,4.000000,4.000000,4.000000,4.000000,4.000000,4.000000,4.000000,4.000000,4.000000,4.000000,4.000000,4.000000,4.000000,4.000000,4.000000,4.000000,4.000000,4.000000,4.000000,4.000000,4.000000,4.000000,4.000000,4.000000,4.000000,4.000000,4.000000,4.000000,4.000000,100.000000
1614489395.426831,108.000000,0.000000,-4.199707,-5.454510,-47.909004,-31.485594,-9.385349,-2.235049,-8.645734,-14.289899,-60.334652,-12.136263,-14.899790,1.199721,-0.689677,-4.796191,-11.943192,30.651817,-4.749502,101.220596,52.138184,-15.009015,-18.590672,-2.203598,-0.815831,-45.937614,-10.189636,-48.549156,-17.943304,-5.912643,-6.597934,-11.141979,-21.473196,-65.817673,8064.000000,0.000000,4.000000,,,,0.000000,4.000000,4.000000,4.000000,4.000000,4.000000,4.000000,4.000000,4.000000,4.000000,4.000000,4.000000,4.000000,4.000000,4.000000,4.000000,4.000000,4.000000,4.000000,4.000000,4.000000,4.000000,4.000000,4.000000,4.000000,4.000000,4.000000,4.000000,4.000000,4.000000,4.000000,4.000000,4.000000,100.000000
1614489395.434480,109.000000,0.000000,-4.195508,-5.449056,-50.425198,-25.300262,-12.965708,-6.335379,-8.124268,-20.429455,-57.197395,-23.406178,-10.782326,-5.468145,-0.176166,-5.817036,-16.033813,28.569883,-5.257573,94.965530,47.983482,-25.763237,-23.187466,1.901169,-4.404759,-46.404499,-6.589703,-50.551891,-13.822797,-5.906730,-6.078516,-10.105196,-19.400440,-59.598011,8064.000000,0.000000,4.000000,,,,0.000000,4.000000,4.000000,4.000000,4.000000,4.000000,4.000000,4.000000,4.000000,4.000000,4.000000,4.000000,4.000000,4.000000,4.000000,4.000000,4.000000,4.000000,4.000000,4.000000,4.000000,4.000000,4.000000,4.000000,4.000000,4.000000,4.000000,4.000000,4.000000,4.000000,4.000000,4.000000,4.000000,100.000000
1614489395.442229,110.000000,0.000000,-4.191312,-5.443606,-43.195286,-9.377525,-1.670691,-5.303402,-8.116143,-2.460308,-56.114555,-14.664824,-7.694620,2.742451,-1.201631,-3.759937,-13.453677,32.643879,-5.252315,111.793640,44.858578,-23.173370,-24.189919,-0.664834,-9.015738,-46.358093,1.622015,-44.347492,-0.988461,-5.900824,-6.072437,-0.351501,-9.637450,-55.948669,8064.000000,0.000000,4.000000,,,,0.000000,4.000000,4.000000,4.000000,4.000000,4.000000,4.000000,4.000000,4.000000,4.000000,4.000000,4.000000,4.000000,4.000000,4.000000,4.000000,4.000000,4.000000,4.000000,4.000000,4.000000,4.000000,4.000000,4.000000,4.000000,4.000000,4.000000,4.000000,4.000000,4.000000,4.000000,4.000000,4.000000,100.000000
1614489395.449879,111.000000,0.000000,-4.187120,-5.438163,-30.844398,-3.727122,8.587390,-5.298099,-8.620848,6.772922,-47.340492,2.785739,-8.199746,5.816632,-3.764532,-11.961305,-16.517145,36.713799,-4.221422,119.374153,45.839359,-18.021992,-23.652908,2.412754,-9.006722,-45.798916,5.722958,-32.508274,1.063810,-5.894923,-6.066364,8.366799,-3.986787,-50.251698,8064.000000,0.000000,4.000000,,,,0.000000,4.000000,4.000000,4.000000,4.000000,4.000000,4.000000,4.000000,4.000000,4.000000,4.000000,4.000000,4.000000,4.000000,4.000000,4.000000,4.000000,4.000000,4.000000,4.000000,4.000000,4.000000,4.000000,4.000000,4.000000,4.000000,4.000000,4.000000,4.000000,4.000000,4.000000,4.000000,4.000000,100.000000
1614489395.457628,112.000000,0.000000,-4.182933,-5.432724,-35.428940,-5.261857,7.553162,-5.805621,-8.612226,-0.413338,-41.652126,-2.345252,-16.396675,-5.984057,-4.273588,-22.718575,-30.859604,26.933495,-5.755662,94.126579,43.742237,-18.516790,-23.116436,3.435982,-8.484896,-46.265938,4.691594,-34.014225,-11.757767,-5.889028,-6.060298,4.255868,-10.649467,-50.714264,8064.000000,0.000000,4.000000,,,,0.000000,4.000000,4.000000,4.000000,4.000000,4.000000,4.000000,4.000000,4.000000,4.000000,4.000000,4.000000,4.000000,4.000000,4.000000,4.000000,4.000000,4.000000,4.000000,4.000000,4.000000,4.000000,4.000000,4.000000,4.000000,4.000000,4.000000,4.000000,4.000000,4.000000,4.000000,4.000000,4.000000,100.000000
1614489395.465277,113.000000,0.000000,-4.178751,-5.427292,-47.188381,-6.282236,6.519968,-3.235713,-7.577973,-1.951386,-46.738678,-21.317266,-22.534124,-8.029355,-4.269315,-21.157394,-40.572334,17.675791,-4.724265,80.186295,50.877983,-14.908530,-17.452293,-1.695659,-9.502051,-45.194031,5.199722,-47.313545,-15.848573,-5.883139,-6.054238,0.149048,-16.792664,-55.791756,8064.000000,0.000000,4.000000,,,,0.000000,4.000000,4.000000,4.000000,4.000000,4.000000,4.000000,4.000000,4.000000,4.000000,4.000000,4.000000,4.000000,4.000000,4.000000,4.000000,4.000000,4.000000,4.000000,4.000000,4.000000,4.000000,4.000000,4.000000,4.000000,4.000000,4.000000,4.000000,4.000000,4.000000,4.000000,4.000000,4.000000,100.000000
1614489395.473026,114.000000,0.000000,-4.174572,-5.421865,-46.115551,-7.814415,8.051909,-1.181195,-6.031934,-0.923794,-49.256042,-15.654922,-15.332103,-2.380300,-2.726584,-13.443930,-31.813812,23.811962,1.434305,100.106110,69.288643,-5.662853,-11.280994,0.870139,-7.441267,-38.994987,8.271445,-50.855976,-9.678879,-5.877255,-6.048183,1.174540,-14.211768,-54.710323,8064.000000,0.000000,4.000000,,,,0.000000,4.000000,4.000000,4.000000,4.000000,4.000000,4.000000,4.000000,4.000000,4.000000,4.000000,4.000000,4.000000,4.000000,4.000000,4.000000,4.000000,4.000000,4.000000,4.000000,4.000000,4.000000,4.000000,4.000000,4.000000,4.000000,4.000000,4.000000,4.000000,4.000000,4.000000,4.000000,4.000000,100.000000
1614489395.480675,115.000000,0.000000,-4.170397,-5.416443,-42.479691,-8.319422,5.992575,-1.692835,-3.974620,-0.410050,-49.719608,6.924835,-4.547540,-1.352278,-0.672575,-8.302280,-15.884562,33.531738,7.073897,113.339340,77.424484,-0.528985,-8.705611,4.971833,-2.818442,-30.750866,8.775995,-48.241016,-10.182020,-5.871378,-6.042135,0.147725,-11.633453,-52.604332,8064.000000,0.000000,4.000000,,,,0.000000,4.000000,4.000000,4.000000,4.000000,4.000000,4.000000,4.000000,4.000000,4.000000,4.000000,4.000000,4.000000,4.000000,4.000000,4.000000,4.000000,4.000000,4.000000,4.000000,4.000000,4.000000,4.000000,4.000000,4.000000,4.000000,4.000000,4.000000,4.000000,4.000000,4.000000,4.000000,4.000000,100.000000
1614489395.488424,116.000000,0.000000,-4.166227,-5.411026,-50.642342,-7.798281,3.422480,-1.691142,-3.457824,4.718565,-56.336555,11.533295,-4.542992,0.187535,-1.184723,-5.729876,-11.766114,33.498207,7.066823,110.149078,76.321419,-1.041276,-7.671264,-0.161344,0.261300,-28.668833,8.767219,-50.244057,-13.761581,-5.865507,-6.036093,-1.903705,-13.160282,-52.551727,8064.000000,0.000000,4.000000,,,,0.000000,4.000000,4.000000,4.000000,4.000000,4.000000,4.000000,4.000000,4.000000,4.000000,4.000000,4.000000,4.000000,4.000000,4.000000,4.000000,4.000000,4.000000,4.000000,4.000000,4.000000,4.000000,4.000000,4.000000,4.000000,4.000000,4.000000,4.000000,4.000000,4.000000,4.000000,4.000000,4.000000,100.000000
1614489395.496073,117.000000,0.000000,-4.162060,-5.405615,-56.745544,-9.328944,2.906237,-1.689451,-6.018469,4.201026,-60.895603,5.367915,-10.692295,-1.863934,-3.747641,-8.801068,-19.446655,31.926249,6.034115,110.038925,76.245094,-2.578696,-8.689234,-0.674003,1.799500,-32.229908,8.758451,-48.142532,-13.235000,-5.346821,-5.517237,-4.465904,-13.659942,-53.524815,8064.000000,0.000000,4.000000,,,,0.000000,4.000000,4.000000,4.000000,4.000000,4.000000,4.000000,4.000000,4.000000,4.000000,4.000000,4.000000,4.000000,4.000000,4.000000,4.000000,4.000000,4.000000,4.000000,4.000000,4.000000,4.000000,4.000000,4.000000,4.000000,4.000000,4.000000,4.000000,4.000000,4.000000,4.000000,4.000000,4.000000,100.000000
1614489395.503922,118.000000,0.000000,-4.157898,-5.400210,-54.124695,-8.806795,3.416152,-1.687761,-10.627835,0.094261,-58.270603,5.875368,-15.809808,-7.503096,-3.743893,-12.894832,-23.529774,31.894321,6.540901,107.877602,65.912437,-1.037656,-15.347212,4.454876,2.823341,-39.377167,7.211232,-40.402081,-13.221765,-5.854295,-6.537361,-7.538361,-13.133462,-55.009754,8064.000000,0.000000,4.000000,,,,0.000000,4.000000,4.000000,4.000000,4.000000,4.000000,4.000000,4.000000,4.000000,4.000000,4.000000,4.000000,4.000000,4.000000,4.000000,4.000000,4.000000,4.000000,4.000000,4.000000,4.000000,4.000000,4.000000,4.000000,4.000000,4.000000,4.000000,4.000000,4.000000,4.000000,4.000000,4.000000,4.000000,100.000000
1614489395.511671,119.000000,0.000000,-4.153740,-5.394810,-49.968006,-6.233886,3.412735,-1.173253,-12.155669,3.683911,-56.161053,6.895133,-19.383741,-4.418670,-3.227329,-14.420399,-20.942141,28.785505,7.047181,96.487679,47.897808,-1.036618,-19.947248,4.450421,3.333339,-50.619839,2.588636,-37.284756,-12.182901,-5.848440,-5.505182,-3.428259,-13.120328,-52.390640,8064.000000,0.000000,4.000000,,,,0.000000,4.000000,4.000000,4.000000,4.000000,4.000000,4.000000,4.000000,4.000000,4.000000,4.000000,4.000000,4.000000,4.000000,4.000000,4.000000,4.000000,4.000000,4.000000,4.000000,4.000000,4.000000,4.000000,4.000000,4.000000,4.000000,4.000000,4.000000,4.000000,4.000000,4.000000,4.000000,4.000000,100.000000
1614489395.519520,120.000000,0.000000,-4.149587,-5.389415,-54.020603,-10.330216,3.409323,-2.197721,-11.630692,4.705868,-53.540787,4.324136,-18.851538,2.252415,-4.249743,-13.893158,-23.485302,25.166975,6.527313,90.750160,40.670425,-8.727890,-19.927301,2.394689,2.817185,-62.876911,-1.516517,-42.375679,-11.657898,-5.329772,-1.909933,-2.912010,-18.748234,-52.851070,8064.000000,0.000000,4.000000,,,,0.000000,4.000000,4.000000,4.000000,4.000000,4.000000,4.000000,4.000000,4.000000,4.000000,4.000000,4.000000,4.000000,4.000000,4.000000,4.000000,4.000000,4.000000,4.000000,4.000000,4.000000,4.000000,4.000000,4.000000,4.000000,4.000000,4.000000,4.000000,4.000000,4.000000,4.000000,4.000000,4.000000,100.000000
1614489395.527269,121.000000,0.000000,-4.145437,-5.384025,-60.633251,-19.550655,3.405913,-4.759625,-11.619062,-2.478325,-51.435966,2.268529,-16.268583,0.711702,-3.732672,-14.392085,-22.436174,26.680269,0.366940,90.659416,40.629753,-21.539675,-19.394554,0.341012,-3.852299,-73.070442,-2.540642,-46.435867,-17.287266,-6.862903,-3.959306,-15.729610,-27.447433,-67.157196,8064.000000,0.000000,4.000000,,,,0.000000,4.000000,4.000000,4.000000,4.000000,4.000000,4.000000,4.000000,4.000000,4.000000,4.000000,4.000000,4.000000,4.000000,4.000000,4.000000,4.000000,4.000000,4.000000,4.000000,4.000000,4.000000,4.000000,4.000000,4.000000,4.000000,4.000000,4.000000,4.000000,4.000000,4.000000,4.000000,4.000000,100.000000
1614489395.535118,122.000000,0.000000,-4.654112,-5.378641,-52.880310,-21.582386,3.402507,-5.780507,-12.633084,-4.527129,-53.435810,0.727799,-16.765135,-2.878754,-3.728940,-14.890513,-14.721431,29.730513,-5.274453,89.543114,39.563484,-26.646339,-20.913620,-7.351637,-11.540754,-77.099937,-3.050921,-43.312508,-17.782799,-9.420143,-9.596372,-18.790804,-25.881525,-70.679779,8064.000000,0.000000,4.000000,,,,0.000000,4.000000,4.000000,4.000000,4.000000,4.000000,4.000000,4.000000,4.000000,4.000000,4.000000,4.000000,4.000000,4.000000,4.000000,4.000000,4.000000,4.000000,4.000000,4.000000,4.000000,4.000000,4.000000,4.000000,4.000000,4.000000,4.000000,4.000000,4.000000,4.000000,4.000000,4.000000,4.000000,100.000000
1614489395.542867,123.000000,0.000000,-4.136638,-5.373262,-37.442814,-14.381317,3.911925,-5.261906,-12.107631,-0.932858,-49.279812,3.803995,-15.209908,-1.850234,-4.238031,-13.337161,-17.783632,33.290527,-5.269178,91.504852,41.575203,-24.055592,-19.867065,-9.395567,-13.067676,-72.920273,-2.535050,-38.140987,-7.508606,-9.923543,-5.997032,-3.387398,-11.496669,-48.044998,8064.000000,0.000000,4.000000,,,,0.000000,4.000000,4.000000,4.000000,4.000000,4.000000,4.000000,4.000000,4.000000,4.000000,4.000000,4.000000,4.000000,4.000000,4.000000,4.000000,4.000000,4.000000,4.000000,4.000000,4.000000,4.000000,4.000000,4.000000,4.000000,4.000000,4.000000,4.000000,4.000000,4.000000,4.000000,4.000000,4.000000,100.000000
1614489395.550716,124.000000,0.000000,-1.568398,-5.367889,-38.943832,-8.213089,2.369552,-5.256644,-8.505779,0.093715,-41.538223,9.441216,-12.630596,-0.822743,-2.182511,-13.323824,-31.099182,34.795696,-3.725448,90.900528,38.969524,-24.544355,-17.795918,-2.206685,-9.977685,-69.770432,-2.019694,-37.077206,-4.936995,-8.887979,1.701273,-0.307087,-8.921070,-37.740543,8064.000000,0.000000,4.000000,,,,0.000000,4.000000,4.000000,4.000000,4.000000,4.000000,4.000000,4.000000,4.000000,4.000000,4.000000,4.000000,4.000000,4.000000,4.000000,4.000000,4.000000,4.000000,4.000000,4.000000,4.000000,4.000000,4.000000,4.000000,4.000000,4.000000,4.000000,4.000000,4.000000,4.000000,4.000000,4.000000,4.000000,100.000000
1614489395.558466,125.000000,0.000000,-0.541189,-5.362522,-48.135658,-8.717697,0.315900,-5.251388,-6.958812,0.093622,-47.650532,6.354852,-15.694889,-0.821920,0.383774,-12.284860,-39.786034,30.145517,-4.234543,86.707062,34.315170,-23.494171,-19.829403,-1.178837,-7.916425,-72.264763,-2.530495,-43.193977,-15.701289,-9.391912,0.161110,-13.127294,-22.245481,-53.087418,8064.000000,0.000000,4.000000,,,,0.000000,4.000000,4.000000,4.000000,4.000000,4.000000,4.000000,4.000000,4.000000,4.000000,4.000000,4.000000,4.000000,4.000000,4.000000,4.000000,4.000000,4.000000,4.000000,4.000000,4.000000,4.000000,4.000000,4.000000,4.000000,4.000000,4.000000,4.000000,4.000000,4.000000,4.000000,4.000000,4.000000,100.000000
1614489395.566315,126.000000,0.000000,-0.540648,-5.357159,-47.061882,-8.708980,-0.710057,-5.246136,-9.515956,-3.496215,-59.910572,2.245933,-13.115091,-2.872380,-0.642251,-7.144369,-35.130859,31.141012,-6.281590,100.979332,50.178291,-10.650164,-15.707009,-1.690479,-8.421329,-60.910446,-2.527965,-48.791809,-20.813793,-9.895340,-5.480077,-18.755192,-28.377083,-62.777920,8064.000000,0.000000,4.000000,,,,0.000000,4.000000,4.000000,4.000000,4.000000,4.000000,4.000000,4.000000,4.000000,4.000000,4.000000,4.000000,4.000000,4.000000,4.000000,4.000000,4.000000,4.000000,4.000000,4.000000,4.000000,4.000000,4.000000,4.000000,4.000000,4.000000,4.000000,4.000000,4.000000,4.000000,4.000000,4.000000,4.000000,100.000000
1614489395.574064,127.000000,0.000000,2.023995,-5.351802,-49.578922,-4.597706,-0.196526,-5.240890,-4.891055,-3.492719,-60.363483,10.448815,7.410844,-1.331046,0.384032,1.067903,-13.044448,48.032948,-4.736847,128.570663,82.435806,5.257923,2.257415,8.567622,-8.412908,-29.567486,-1.499796,-48.743015,-18.741697,-7.834162,-6.500237,-16.172335,-23.220501,-59.638218,8064.000000,0.000000,4.000000,,,,0.000000,4.000000,4.000000,4.000000,4.000000,4.000000,4.000000,4.000000,4.000000,4.000000,4.000000,4.000000,4.000000,4.000000,4.000000,4.000000,4.000000,4.000000,4.000000,4.000000,4.000000,4.000000,4.000000,4.000000,4.000000,4.000000,4.000000,4.000000,4.000000,4.000000,4.000000,4.000000,4.000000,100.000000
1614489395.581913,0.000000,0.000000,3.560433,-4.833630,-61.324215,-5.618749,-0.196330,-5.235649,2.806144,2.664620,-55.174915,10.438367,13.557280,2.260028,0.383648,-0.984447,3.891673,51.574657,-3.193649,127.929268,89.020035,5.765485,7.896183,8.046234,-4.301930,-17.743046,-5.088039,-49.207092,-22.825520,-5.262226,-5.468096,-17.181803,-22.684460,-58.040119,0.000000,171.000000,4.000000,,,,0.000000,4.000000,4.000000,4.000000,4.000000,4.000000,4.000000,4.000000,4.000000,4.000000,4.000000,4.000000,4.000000,4.000000,4.000000,4.000000,4.000000,4.000000,4.000000,4.000000,4.000000,4.000000,4.000000,4.000000,4.000000,4.000000,4.000000,4.000000,4.000000,4.000000,4.000000,4.000000,4.000000,100.000000
1614489395.589662,1.000000,0.000000,0.992770,-5.341616,-60.750069,-13.305438,-0.196133,-5.230413,-5.401791,-5.030353,-56.145382,-5.982328,-17.738329,-6.460180,-12.950068,-21.496283,-16.625038,26.907700,-16.523788,100.109032,60.725887,-9.112075,-13.650174,-15.551556,0.317756,-42.853508,-11.749619,-49.157887,-29.982182,-5.769784,-5.975449,-18.190262,-25.738699,-58.494900,0.000000,190.000000,4.000000,,,,0.000000,4.000000,4.000000,4.000000,4.000000,4.000000,4.000000,4.000000,4.000000,4.000000,4.000000,4.000000,4.000000,4.000000,4.000000,4.000000,4.000000,4.000000,4.000000,4.000000,4.000000,4.000000,4.000000,4.000000,4.000000,4.000000,4.000000,4.000000,4.000000,4.000000,4.000000,4.000000,4.000000,100.000000
1614489395.597511,2.000000,0.000000,-1.059505,-5.336275,-48.894447,-16.881876,-0.195937,-5.225183,-18.216902,-20.922758,-55.576416,-13.668653,-46.438538,-18.761412,-25.757631,-40.961967,-48.916107,7.393612,-31.379059,82.060204,37.075417,-22.436296,-34.149345,-28.869337,-1.733844,-64.349113,-14.814792,-46.544624,-31.490660,-8.328116,-6.482294,-17.146431,-22.636036,-56.897942,0.000000,179.000000,4.000000,,,,0.000000,4.000000,4.000000,4.000000,4.000000,4.000000,4.000000,4.000000,4.000000,4.000000,4.000000,4.000000,4.000000,4.000000,4.000000,4.000000,4.000000,4.000000,4.000000,4.000000,4.000000,4.000000,4.000000,4.000000,4.000000,4.000000,4.000000,4.000000,4.000000,4.000000,4.000000,4.000000,4.000000,100.000000
1614489395.605260,3.000000,0.000000,-0.545625,-4.818118,-42.691708,-15.839354,-0.195741,-5.219958,-16.660223,-17.312092,-52.443916,-13.142164,-41.263897,-17.204189,-18.039566,-34.767159,-51.431293,5.334937,-22.629732,80.439682,34.474239,-24.465143,-34.628017,-18.584059,-10.450059,-65.823227,-14.287156,-45.985260,-30.433529,-9.345429,-5.962991,-17.642105,-24.664682,-55.815403,0.000000,189.000000,4.000000,,,,0.000000,4.000000,4.000000,4.000000,4.000000,4.000000,4.000000,4.000000,4.000000,4.000000,4.000000,4.000000,4.000000,4.000000,4.000000,4.000000,4.000000,4.000000,4.000000,4.000000,4.000000,4.000000,4.000000,4.000000,4.000000,4.000000,4.000000,4.000000,4.000000,4.000000,4.000000,4.000000,4.000000,100.000000
1614489395.613109,4.000000,0.000000,-0.545079,-6.351761,-44.700298,-15.823514,-0.195545,-5.214738,-11.515358,-4.474267,-52.904293,-17.744408,-27.376478,-11.033139,-5.201014,-13.706750,-35.482426,8.919345,-6.196846,82.410522,32.388485,-23.927856,-34.080566,-12.924448,-17.106276,-72.424072,-13.247228,-48.503380,-31.428736,-10.361725,-5.957028,-17.624462,-32.845146,-57.298050,0.000000,198.000000,4.000000,,,,0.000000,4.000000,4.000000,4.000000,4.000000,4.000000,4.000000,4.000000,4.000000,4.000000,4.000000,4.000000,4.000000,4.000000,4.000000,4.000000,4.000000,4.000000,4.000000,4.000000,4.000000,4.000000,4.000000,4.000000,4.000000,4.000000,4.000000,4.000000,4.000000,4.000000,4.000000,4.000000,4.000000,100.000000
1614489395.620858,5.000000,0.000000,-0.544534,-8.396691,-47.732521,-16.833332,-0.708170,-5.209523,-10.991022,-2.931331,-55.415489,-6.444611,-14.528589,-5.381080,-3.144531,-1.898171,-16.472584,28.910425,-4.652187,92.071701,27.740711,-27.493673,-36.610588,-13.424344,-16.063528,-77.479851,-14.772443,-45.890774,-28.320385,-9.838543,-5.951071,-11.965813,-29.735378,-56.215111,0.000000,189.000000,4.000000,,,,0.000000,4.000000,4.000000,4.000000,4.000000,4.000000,4.000000,4.000000,4.000000,4.000000,4.000000,4.000000,4.000000,4.000000,4.000000,4.000000,4.000000,4.000000,4.000000,4.000000,4.000000,4.000000,4.000000,4.000000,4.000000,4.000000,4.000000,4.000000,4.000000,4.000000,4.000000,4.000000,4.000000,100.000000
1614489395.628607,6.000000,0.000000,-0.543990,-9.413936,-46.146328,-14.765216,0.318179,-5.204313,-5.339005,-3.441220,-55.872894,19.202860,2.409017,6.419173,-2.115745,4.257573,5.082350,52.471260,-5.160356,109.415527,34.892456,-23.363615,-29.394491,-5.205792,-13.996182,-68.171608,-14.757670,-41.229496,-21.625397,-5.726140,-4.406658,-6.312821,-16.372309,-48.979408,0.000000,208.000000,4.000000,,,,0.000000,4.000000,4.000000,4.000000,4.000000,4.000000,4.000000,4.000000,4.000000,4.000000,4.000000,4.000000,4.000000,4.000000,4.000000,4.000000,4.000000,4.000000,4.000000,4.000000,4.000000,4.000000,4.000000,4.000000,4.000000,4.000000,4.000000,4.000000,4.000000,4.000000,4.000000,4.000000,4.000000,100.000000
1614489395.636356,7.000000,0.000000,-0.543446,-9.404522,-41.997616,-12.699169,2.369143,-5.199109,-0.205461,-0.360856,-55.817024,21.747759,2.406608,7.438395,0.963294,8.355880,6.615729,46.777763,-1.565452,113.408676,44.601154,-7.955636,-21.159969,-2.123663,-12.956545,-62.462406,-3.973681,-41.701088,-18.526850,-2.643491,-2.350970,-5.793687,-10.714911,-44.827866,0.000000,193.000000,4.000000,,,,0.000000,4.000000,4.000000,4.000000,4.000000,4.000000,4.000000,4.000000,4.000000,4.000000,4.000000,4.000000,4.000000,4.000000,4.000000,4.000000,4.000000,4.000000,4.000000,4.000000,4.000000,4.000000,4.000000,4.000000,4.000000,4.000000,4.000000,4.000000,4.000000,4.000000,4.000000,4.000000,4.000000,100.000000
1614489395.644005,8.000000,0.000000,-0.542902,-8.369476,-39.391514,-11.660829,2.366774,-5.193910,0.307565,0.152325,-56.274025,5.315754,-8.365029,-4.363916,0.962331,6.809062,-15.954989,30.833548,0.487396,99.961937,46.095016,0.770269,-17.036245,-3.660001,-6.276922,-60.861485,8.337984,-39.095284,-19.533962,-0.589566,-1.835798,-6.300714,-12.755478,-47.859959,0.000000,208.000000,4.000000,,,,0.000000,4.000000,4.000000,4.000000,4.000000,4.000000,4.000000,4.000000,4.000000,4.000000,4.000000,4.000000,4.000000,4.000000,4.000000,4.000000,4.000000,4.000000,4.000000,4.000000,4.000000,4.000000,4.000000,4.000000,4.000000,4.000000,4.000000,4.000000,4.000000,4.000000,4.000000,4.000000,4.000000,100.000000
1614489395.651754,9.000000,0.000000,-0.542359,-5.797004,-36.275200,-9.597886,-0.199696,-5.188716,3.384180,0.152173,-54.166470,2.233516,-2.715639,-5.898014,3.012650,7.315074,-26.708265,37.469383,6.127934,98.323509,52.715588,-2.820245,-6.249978,10.189813,3.985765,-45.928825,9.355288,-33.927982,-19.514429,4.539229,-2.346783,-5.781593,-12.229902,-48.324921,0.000000,179.000000,4.000000,,,,0.000000,4.000000,4.000000,4.000000,4.000000,4.000000,4.000000,4.000000,4.000000,4.000000,4.000000,4.000000,4.000000,4.000000,4.000000,4.000000,4.000000,4.000000,4.000000,4.000000,4.000000,4.000000,4.000000,4.000000,4.000000,4.000000,4.000000,4.000000,4.000000,4.000000,4.000000,4.000000,4.000000,100.000000
1614489395.659403,10.000000,0.000000,-0.541817,-4.765566,-36.238926,-8.049827,-0.712317,-5.183527,6.457719,-1.386441,-55.650764,7.359488,9.594769,-1.276731,9.676304,10.897502,-12.835402,49.739605,15.865396,120.789291,69.585945,5.387703,7.602426,20.436033,8.597164,-26.908539,8.833112,-35.432518,-19.494915,9.662895,-2.857257,-6.288632,-12.730493,-45.199673,0.000000,165.000000,4.000000,,,,0.000000,4.000000,4.000000,4.000000,4.000000,4.000000,4.000000,4.000000,4.000000,4.000000,4.000000,4.000000,4.000000,4.000000,4.000000,4.000000,4.000000,4.000000,4.000000,4.000000,4.000000,4.000000,4.000000,4.000000,4.000000,4.000000,4.000000,4.000000,4.000000,4.000000,4.000000,4.000000,4.000000,100.000000
1614489395.667152,11.000000,0.000000,-0.541275,-5.273622,-45.433456,-8.041777,0.314037,-5.178344,7.989723,-0.872234,-56.107933,6.326487,13.174918,-1.275454,11.717910,7.296861,1.536407,52.766788,17.900812,140.668503,84.388153,26.407957,14.774311,13.748931,11.665490,-18.163681,13.439663,-40.525291,-19.475420,10.166053,-2.341579,-5.769523,-11.179301,-44.128834,0.000000,213.000000,4.000000,,,,0.000000,4.000000,4.000000,4.000000,4.000000,4.000000,4.000000,4.000000,4.000000,4.000000,4.000000,4.000000,4.000000,4.000000,4.000000,4.000000,4.000000,4.000000,4.000000,4.000000,4.000000,4.000000,4.000000,4.000000,4.000000,4.000000,4.000000,4.000000,4.000000,4.000000,4.000000,4.000000,4.000000,100.000000
1614489395.674802,12.000000,0.000000,-0.027913,-4.755527,-48.464947,-7.520915,-0.199098,-5.173166,6.443272,4.256844,-45.282597,5.807340,7.007897,-0.761358,2.988243,-1.941205,-4.618976,47.585815,9.164963,133.348343,83.278130,24.843086,10.656973,11.171080,15.243568,-22.760902,8.810839,-40.997585,-18.430304,7.078964,-1.826417,-5.763753,-11.168121,-44.084705,0.000000,205.000000,4.000000,,,,0.000000,4.000000,4.000000,4.000000,4.000000,4.000000,4.000000,4.000000,4.000000,4.000000,4.000000,4.000000,4.000000,4.000000,4.000000,4.000000,4.000000,4.000000,4.000000,4.000000,4.000000,4.000000,4.000000,4.000000,4.000000,4.000000,4.000000,4.000000,4.000000,4.000000,4.000000,4.000000,4.000000,100.000000
1614489395.682551,13.000000,0.000000,-1.566347,-4.750772,-49.954941,-8.026214,-0.198899,-5.680813,-2.793941,-0.875618,-36.519363,3.750250,-17.614496,-7.427263,-10.860899,-14.759776,-31.281023,24.974127,-5.715997,106.035507,61.143566,-4.412525,-6.276762,3.467601,9.587298,-45.302246,-4.018485,-42.495049,-20.463156,2.969321,-4.388693,-7.296451,-25.515928,-47.630363,0.000000,162.000000,4.000000,,,,0.000000,4.000000,4.000000,4.000000,4.000000,4.000000,4.000000,4.000000,4.000000,4.000000,4.000000,4.000000,4.000000,4.000000,4.000000,4.000000,4.000000,4.000000,4.000000,4.000000,4.000000,4.000000,4.000000,4.000000,4.000000,4.000000,4.000000,4.000000,4.000000,4.000000,4.000000,4.000000,4.000000,100.000000
1614489395.690200,14.000000,0.000000,-3.616063,-5.258842,-64.263962,-8.531009,-0.198700,-5.162312,-11.509096,-11.131153,-44.687973,-3.432987,-39.648163,-15.624965,-17.003883,-24.488605,-42.531796,7.000436,-19.556435,83.878189,41.595245,-21.844009,-21.655100,-14.997405,-1.191519,-65.769760,-6.578569,-46.042297,-18.391409,-1.649033,-5.922766,-5.750693,-33.695541,-56.813499,0.000000,198.000000,4.000000,,,,0.000000,4.000000,4.000000,4.000000,4.000000,4.000000,4.000000,4.000000,4.000000,4.000000,4.000000,4.000000,4.000000,4.000000,4.000000,4.000000,4.000000,4.000000,4.000000,4.000000,4.000000,4.000000,4.000000,4.000000,4.000000,4.000000,4.000000,4.000000,4.000000,4.000000,4.000000,4.000000,4.000000,100.000000
1614489395.697949,15.000000,0.000000,-2.073985,-4.740762,-58.558674,-6.984016,-0.198501,-3.105867,-8.933484,-8.043098,-55.925339,-4.968016,-28.326464,-8.429852,-10.833034,-18.823092,-19.925159,22.378050,-19.024057,82.768669,42.066471,-19.258064,-22.659086,-8.828562,-5.292892,-67.755272,-2.469426,-43.432152,-10.167891,-2.160205,-1.301458,-0.103917,-22.892614,-60.346432,0.000000,162.000000,4.000000,,,,0.000000,4.000000,4.000000,4.000000,4.000000,4.000000,4.000000,4.000000,4.000000,4.000000,4.000000,4.000000,4.000000,4.000000,4.000000,4.000000,4.000000,4.000000,4.000000,4.000000,4.000000,4.000000,4.000000,4.000000,4.000000,4.000000,4.000000,4.000000,4.000000,4.000000,4.000000,4.000000,4.000000,100.000000
1614489395.705598,16.000000,0.000000,-0.020629,-5.761662,-32.346268,-12.105237,-0.198303,-1.051479,-3.796345,-7.522235,-55.356590,0.165158,-10.349420,1.834988,-2.104252,-4.958115,-5.546260,38.253109,-8.748623,87.814110,35.357735,-24.367010,-27.251812,7.590523,-5.800419,-69.225983,-7.082341,-44.927181,-9.132081,-2.670865,1.263946,-4.206377,-23.382542,-59.260445,0.000000,186.000000,4.000000,,,,0.000000,4.000000,4.000000,4.000000,4.000000,4.000000,4.000000,4.000000,4.000000,4.000000,4.000000,4.000000,4.000000,4.000000,4.000000,4.000000,4.000000,4.000000,4.000000,4.000000,4.000000,4.000000,4.000000,4.000000,4.000000,4.000000,4.000000,4.000000,4.000000,4.000000,4.000000,4.000000,4.000000,100.000000
1614489395.713347,17.000000,0.000000,-1.046249,-8.320004,-41.544689,-22.862362,-0.198104,-2.076069,-4.818190,-17.258303,-54.275593,2.729095,-12.903172,-1.756591,-0.563686,-2.901875,-19.899689,26.932804,-6.688592,81.059631,15.835199,-37.163155,-41.583534,-3.186298,-8.358722,-77.361885,-15.280387,-56.164307,-16.302437,-4.719476,-1.814241,-13.432940,-36.692493,-61.765285,0.000000,189.000000,4.000000,,,,0.000000,4.000000,4.000000,4.000000,4.000000,4.000000,4.000000,4.000000,4.000000,4.000000,4.000000,4.000000,4.000000,4.000000,4.000000,4.000000,4.000000,4.000000,4.000000,4.000000,4.000000,4.000000,4.000000,4.000000,4.000000,4.000000,4.000000,4.000000,4.000000,4.000000,4.000000,4.000000,4.000000,100.000000
1614489395.720996,18.000000,0.000000,-1.045203,-9.337324,-71.246735,-27.454885,-0.197906,-1.561172,-5.326192,-14.676942,-55.246960,2.213545,-13.915911,-5.857398,-0.050302,-6.488717,-28.084917,19.213564,-9.246007,78.927284,19.409107,-33.536251,-38.977848,-11.388240,-9.888824,-78.310165,-14.239466,-56.620964,-19.363056,-5.740398,-2.838068,-10.855404,-32.040417,-63.241982,0.000000,191.000000,4.000000,,,,0.000000,4.000000,4.000000,4.000000,4.000000,4.000000,4.000000,4.000000,4.000000,4.000000,4.000000,4.000000,4.000000,4.000000,4.000000,4.000000,4.000000,4.000000,4.000000,4.000000,4.000000,4.000000,4.000000,4.000000,4.000000,4.000000,4.000000,4.000000,4.000000,4.000000,4.000000,4.000000,4.000000,100.000000
1614489395.728746,19.000000,0.000000,-0.531337,-8.815166,-59.380615,-24.350506,-0.197708,1.517312,-3.782405,-8.508419,-55.191711,1.698511,-10.825071,-5.338720,0.975389,-5.969408,-24.467089,23.809734,-6.672658,88.591949,35.287136,-24.784765,-26.118357,4.007763,-8.853294,-75.154930,-10.635483,-45.795109,-23.446259,-5.734658,-1.809589,-2.639421,-19.187862,-58.563354,0.000000,179.000000,4.000000,,,,0.000000,4.000000,4.000000,4.000000,4.000000,4.000000,4.000000,4.000000,4.000000,4.000000,4.000000,4.000000,4.000000,4.000000,4.000000,4.000000,4.000000,4.000000,4.000000,4.000000,4.000000,4.000000,4.000000,4.000000,4.000000,4.000000,4.000000,4.000000,4.000000,4.000000,4.000000,4.000000,4.000000,100.000000
1614489395.736395,20.000000,0.000000,-1.556447,-9.319172,-38.808414,-22.787695,-0.197511,2.541436,-4.291443,-14.140936,-57.187801,2.722454,-12.865528,-5.333382,-2.102509,-5.963438,-25.468262,25.324387,-6.153165,93.631561,37.303131,-24.247160,-21.989676,11.183243,-7.818800,-69.951569,-11.137668,-44.723675,-32.653580,-6.754564,-2.833421,-3.662422,-18.655853,-54.402229,0.000000,196.000000,4.000000,,,,0.000000,4.000000,4.000000,4.000000,4.000000,4.000000,4.000000,4.000000,4.000000,4.000000,4.000000,4.000000,4.000000,4.000000,4.000000,4.000000,4.000000,4.000000,4.000000,4.000000,4.000000,4.000000,4.000000,4.000000,4.000000,4.000000,4.000000,4.000000,4.000000,4.000000,4.000000,4.000000,4.000000,100.000000
1614489395.744244,21.000000,0.000000,1.009212,-8.284211,-47.487556,-20.713625,-0.197313,2.026074,-3.774331,-8.485769,-57.643436,6.822296,-1.057791,2.364259,-2.613227,-1.854911,-15.699203,30.940088,0.519655,97.640495,47.522236,-14.992143,-10.172813,12.710521,-5.246879,-51.420078,-6.511146,-47.243053,-35.185028,-2.132425,0.246336,-7.248504,-19.662838,-55.373466,0.000000,178.000000,4.000000,,,,0.000000,4.000000,4.000000,4.000000,4.000000,4.000000,4.000000,4.000000,4.000000,4.000000,4.000000,4.000000,4.000000,4.000000,4.000000,4.000000,4.000000,4.000000,4.000000,4.000000,4.000000,4.000000,4.000000,4.000000,4.000000,4.000000,4.000000,4.000000,4.000000,4.000000,4.000000,4.000000,4.000000,100.000000
1614489395.751993,22.000000,0.000000,5.623587,-5.711825,-47.440067,-16.590347,-0.197116,2.024048,-1.719275,5.881691,-52.970406,7.328294,12.276600,9.541383,5.081694,1.736688,-1.324530,38.601456,15.390930,108.312088,70.551636,5.022849,11.888641,21.415760,-0.626247,-32.394299,4.777417,-42.580425,-34.637024,5.049195,4.861475,-6.215614,-15.540612,-55.318092,0.000000,193.000000,4.000000,,,,0.000000,4.000000,4.000000,4.000000,4.000000,4.000000,4.000000,4.000000,4.000000,4.000000,4.000000,4.000000,4.000000,4.000000,4.000000,4.000000,4.000000,4.000000,4.000000,4.000000,4.000000,4.000000,4.000000,4.000000,4.000000,4.000000,4.000000,4.000000,4.000000,4.000000,4.000000,4.000000,4.000000,100.000000
1614489395.759842,23.000000,0.000000,7.156425,-5.706113,-36.623398,-14.522475,-0.196919,2.022024,-0.179094,6.901450,-50.866154,3.731222,-1.581831,0.301072,4.563791,-8.008638,-7.989872,32.921829,13.837078,107.178131,73.045189,11.684493,12.902394,14.727677,5.015405,-30.823444,10.413665,-42.025024,-33.576748,4.018505,3.318151,-5.696578,-15.012251,-54.749954,0.000000,202.000000,4.000000,,,,0.000000,4.000000,4.000000,4.000000,4.000000,4.000000,4.000000,4.000000,4.000000,4.000000,4.000000,4.000000,4.000000,4.000000,4.000000,4.000000,4.000000,4.000000,4.000000,4.000000,4.000000,4.000000,4.000000,4.000000,4.000000,4.000000,4.000000,4.000000,4.000000,4.000000,4.000000,4.000000,4.000000,100.000000
1614489395.767591,24.000000,0.000000,6.636448,-3.649125,-46.330364,-13.482311,-0.196722,2.020002,-0.691735,5.356087,-50.815289,1.676208,-18.503326,-9.442819,-2.620260,-20.821142,-25.417780,25.196598,-3.612657,96.301720,61.177273,1.929219,-5.059227,-0.158846,8.087313,-37.459286,8.864790,-47.624027,-24.825220,-2.139360,1.263551,-6.203702,-16.022879,-56.746487,0.000000,190.000000,4.000000,,,,0.000000,4.000000,4.000000,4.000000,4.000000,4.000000,4.000000,4.000000,4.000000,4.000000,4.000000,4.000000,4.000000,4.000000,4.000000,4.000000,4.000000,4.000000,4.000000,4.000000,4.000000,4.000000,4.000000,4.000000,4.000000,4.000000,4.000000,4.000000,4.000000,4.000000,4.000000,4.000000,4.000000,100.000000
1614489395.775440,25.000000,0.000000,7.142632,0.457088,-58.591724,-11.417547,-0.196525,2.017982,-0.691043,9.966116,-46.661907,1.674532,-20.536104,-6.356453,-2.617639,-19.774681,-26.930824,23.632940,-9.762890,90.564392,57.013531,-6.790659,-12.746475,0.354134,4.489481,-43.062855,6.804643,-48.089222,-19.159370,-2.137221,1.262287,-6.197498,-16.006857,-58.228203,0.000000,201.000000,4.000000,,,,0.000000,4.000000,4.000000,4.000000,4.000000,4.000000,4.000000,4.000000,4.000000,4.000000,4.000000,4.000000,4.000000,4.000000,4.000000,4.000000,4.000000,4.000000,4.000000,4.000000,4.000000,4.000000,4.000000,4.000000,4.000000,4.000000,4.000000,4.000000,4.000000,4.000000,4.000000,4.000000,4.000000,100.000000
1614489395.783189,26.000000,0.000000,6.622669,0.969452,-52.892109,-8.329206,-0.196328,2.015964,-0.690352,7.904868,-43.025505,5.262601,-18.977106,-1.221892,0.461901,-11.036957,-10.493636,23.609308,-7.701845,90.986649,54.905235,-8.322330,-9.656805,-0.159041,-2.181675,-51.737740,5.772197,-47.015491,-22.729954,-1.622263,-0.790257,-5.678480,-15.478029,-56.118690,0.000000,193.000000,4.000000,,,,0.000000,4.000000,4.000000,4.000000,4.000000,4.000000,4.000000,4.000000,4.000000,4.000000,4.000000,4.000000,4.000000,4.000000,4.000000,4.000000,4.000000,4.000000,4.000000,4.000000,4.000000,4.000000,4.000000,4.000000,4.000000,4.000000,4.000000,4.000000,4.000000,4.000000,4.000000,4.000000,4.000000,100.000000
1614489395.791038,27.000000,0.000000,7.128867,-1.082800,-48.736652,-5.243954,-0.196132,1.501127,-0.689662,2.255937,-42.982479,17.052210,-3.573514,2.881895,-0.051381,-0.769510,9.004037,36.919033,-8.206964,103.203354,51.773407,-7.288367,-10.672790,-5.287087,-4.743596,-53.737286,5.766425,-47.481297,-19.117481,-2.133461,-1.302287,-5.672801,-15.462551,-54.011292,0.000000,187.000000,4.000000,,,,0.000000,4.000000,4.000000,4.000000,4.000000,4.000000,4.000000,4.000000,4.000000,4.000000,4.000000,4.000000,4.000000,4.000000,4.000000,4.000000,4.000000,4.000000,4.000000,4.000000,4.000000,4.000000,4.000000,4.000000,4.000000,4.000000,4.000000,4.000000,4.000000,4.000000,4.000000,4.000000,4.000000,100.000000
1614489395.798787,28.000000,0.000000,10.198661,1.482386,-50.226376,-5.751531,0.316885,2.525267,0.336669,3.279322,-41.913853,22.163364,15.917239,8.007217,4.051234,7.436388,19.251442,53.805191,-2.557731,120.023232,52.234451,-9.845181,-12.713399,2.410508,-4.226032,-47.016880,5.247838,-44.869713,-19.098364,0.432775,3.827220,-6.179949,-15.447089,-54.982922,0.000000,190.000000,4.000000,,,,0.000000,4.000000,4.000000,4.000000,4.000000,4.000000,4.000000,4.000000,4.000000,4.000000,4.000000,4.000000,4.000000,4.000000,4.000000,4.000000,4.000000,4.000000,4.000000,4.000000,4.000000,4.000000,4.000000,4.000000,4.000000,4.000000,4.000000,4.000000,4.000000,4.000000,4.000000,4.000000,4.000000,100.000000
1614489395.806636,29.000000,0.000000,9.675642,3.019365,-47.612049,-7.284241,-0.196253,5.086844,-0.176488,3.788863,-44.948864,13.936072,11.285937,6.460749,7.124106,8.967413,16.668089,49.136002,3.598672,117.851929,47.566833,-11.373797,-11.162224,5.997841,-4.734626,-50.559608,4.729770,-43.286381,-36.002342,1.457983,5.874675,-5.660949,-16.457283,-55.440758,0.000000,172.000000,4.000000,,,,0.000000,4.000000,4.000000,4.000000,4.000000,4.000000,4.000000,4.000000,4.000000,4.000000,4.000000,4.000000,4.000000,4.000000,4.000000,4.000000,4.000000,4.000000,4.000000,4.000000,4.000000,4.000000,4.000000,4.000000,4.000000,4.000000,4.000000,4.000000,4.000000,4.000000,4.000000,4.000000,4.000000,100.000000
1614489395.814385,30.000000,0.000000,7.101864,1.990704,-45.000332,-7.789777,0.829584,5.594578,-0.689133,2.759433,-46.442375,9.819571,1.531061,2.864545,4.552880,9.984087,5.369370,38.830452,-4.610054,106.964844,42.391064,-7.772680,-15.766446,-5.290208,-4.217071,-63.842381,3.699399,-43.755917,-40.581722,-1.107577,4.843160,-5.142467,-15.415184,-53.846855,0.000000,187.000000,4.000000,,,,0.000000,4.000000,4.000000,4.000000,4.000000,4.000000,4.000000,4.000000,4.000000,4.000000,4.000000,4.000000,4.000000,4.000000,4.000000,4.000000,4.000000,4.000000,4.000000,4.000000,4.000000,4.000000,4.000000,4.000000,4.000000,4.000000,4.000000,4.000000,4.000000,4.000000,4.000000,4.000000,4.000000,100.000000
1614489395.822234,31.000000,0.000000,7.094762,2.501534,-45.980976,-9.320449,3.392857,6.101804,-0.175623,2.756674,-40.242088,12.886675,-2.573034,1.836039,4.548327,8.435641,-11.046256,39.304443,-11.784931,104.293777,40.810211,-16.995676,-28.571192,-9.387482,-6.264136,-71.470848,-1.432505,-42.686520,-27.720629,-2.132111,5.863957,-9.752709,-15.912590,-54.818649,0.000000,181.000000,4.000000,,,,0.000000,4.000000,4.000000,4.000000,4.000000,4.000000,4.000000,4.000000,4.000000,4.000000,4.000000,4.000000,4.000000,4.000000,4.000000,4.000000,4.000000,4.000000,4.000000,4.000000,4.000000,4.000000,4.000000,4.000000,4.000000,4.000000,4.000000,4.000000,4.000000,4.000000,4.000000,4.000000,4.000000,100.000000
1614489395.829983,32.000000,0.000000,4.523565,-0.065070,-45.422173,-6.747025,2.876644,5.582881,-2.739550,-0.323006,-41.227486,5.181481,-22.570461,-3.294002,-0.071606,-6.957410,-23.855722,26.957447,-11.260326,89.830505,25.897604,-42.619705,-40.337494,-8.865274,-13.437359,-79.091682,-11.687483,-44.182293,-33.333935,-1.617158,2.781170,-15.896803,-26.153088,-58.866394,8064.000000,0.000000,4.000000,,,,0.000000,4.000000,4.000000,4.000000,4.000000,4.000000,4.000000,4.000000,4.000000,4.000000,4.000000,4.000000,4.000000,4.000000,4.000000,4.000000,4.000000,4.000000,4.000000,4.000000,4.000000,4.000000,4.000000,4.000000,4.000000,4.000000,4.000000,4.000000,4.000000,4.000000,4.000000,4.000000,4.000000,100.000000
1614489395.837832,33.000000,0.000000,-2.660446,-6.731671,-44.863930,-8.278740,-3.792899,-0.576547,-14.018862,-8.527811,-55.032413,-8.669854,-38.958145,-9.444554,-13.917688,-22.847889,-26.908791,2.315105,-16.890091,66.150932,9.974271,-48.730934,-40.297157,-18.087177,-21.629049,-85.679260,-19.368103,-53.368881,-48.172394,-4.692464,-6.452380,-17.932188,-34.844883,-61.884453,8064.000000,0.000000,4.000000,,,,0.000000,4.000000,4.000000,4.000000,4.000000,4.000000,4.000000,4.000000,4.000000,4.000000,4.000000,4.000000,4.000000,4.000000,4.000000,4.000000,4.000000,4.000000,4.000000,4.000000,4.000000,4.000000,4.000000,4.000000,4.000000,4.000000,4.000000,4.000000,4.000000,4.000000,4.000000,4.000000,4.000000,100.000000
1614489395.845581,34.000000,0.000000,-5.221888,-9.289042,-48.408810,-22.629436,-10.968594,-7.755458,-24.774073,-18.775694,-62.669689,-14.302210,-31.739702,-9.947930,-23.647360,-26.927605,-27.394701,1.799969,-22.001406,72.751450,29.451475,-22.015535,-28.974808,-17.556271,-24.684343,-67.132042,-15.758991,-58.443718,-40.431915,-9.303156,-10.548491,-16.888615,-31.220295,-61.822567,8064.000000,0.000000,4.000000,,,,0.000000,4.000000,4.000000,4.000000,4.000000,4.000000,4.000000,4.000000,4.000000,4.000000,4.000000,4.000000,4.000000,4.000000,4.000000,4.000000,4.000000,4.000000,4.000000,4.000000,4.000000,4.000000,4.000000,4.000000,4.000000,4.000000,4.000000,4.000000,4.000000,4.000000,4.000000,4.000000,4.000000,100.000000
1614489395.853430,35.000000,0.000000,-5.216666,-8.766932,-52.975784,-28.760653,-10.444804,-6.722062,-19.108274,-18.756918,-56.453171,-13.262267,-22.990013,-8.912341,-19.008329,-25.362215,-27.367308,21.285349,-14.287097,103.447929,62.242538,2.109044,-19.715063,-2.154099,-20.557095,-37.321320,-4.461181,-55.308350,-25.519690,-9.806674,-10.025123,-16.358906,-24.009586,-61.760746,8064.000000,0.000000,4.000000,,,,0.000000,4.000000,4.000000,4.000000,4.000000,4.000000,4.000000,4.000000,4.000000,4.000000,4.000000,4.000000,4.000000,4.000000,4.000000,4.000000,4.000000,4.000000,4.000000,4.000000,4.000000,4.000000,4.000000,4.000000,4.000000,4.000000,4.000000,4.000000,4.000000,4.000000,4.000000,4.000000,4.000000,100.000000
1614489395.861179,36.000000,0.000000,-4.698629,-8.758166,-52.922810,-16.424200,-2.229231,-2.099955,-6.781473,-3.866366,-51.781334,-8.120800,-18.864458,-9.416249,-9.245730,-16.106085,-22.724556,32.546116,-7.606143,113.600891,65.257217,-0.457167,-18.156887,1.437799,-11.818589,-33.181431,-2.405438,-53.714581,-24.468529,-8.771226,-8.989457,-13.778444,-21.421474,-60.160522,8064.000000,0.000000,4.000000,,,,0.000000,4.000000,4.000000,4.000000,4.000000,4.000000,4.000000,4.000000,4.000000,4.000000,4.000000,4.000000,4.000000,4.000000,4.000000,4.000000,4.000000,4.000000,4.000000,4.000000,4.000000,4.000000,4.000000,4.000000,4.000000,4.000000,4.000000,4.000000,4.000000,4.000000,4.000000,4.000000,4.000000,100.000000
1614489395.869028,37.000000,0.000000,0.434275,-8.749408,-52.869888,-11.279571,1.362741,-1.585034,-3.184948,1.778526,-54.806477,-1.958833,-13.204569,-8.894012,-4.621100,-2.243824,-18.599266,29.436646,-7.598537,102.718056,50.832985,-14.815684,-18.651550,-4.204665,-6.678566,-44.430302,-15.223545,-54.173687,-26.495342,-9.275275,-7.442006,-11.713384,-23.451336,-61.638824,8064.000000,0.000000,4.000000,,,,0.000000,4.000000,4.000000,4.000000,4.000000,4.000000,4.000000,4.000000,4.000000,4.000000,4.000000,4.000000,4.000000,4.000000,4.000000,4.000000,4.000000,4.000000,4.000000,4.000000,4.000000,4.000000,4.000000,4.000000,4.000000,4.000000,4.000000,4.000000,4.000000,4.000000,4.000000,4.000000,4.000000,100.000000
1614489395.876777,38.000000,0.000000,6.587687,-10.279119,-56.919582,-20.499060,-3.766826,-2.096270,-4.720225,-10.018125,-59.879875,-3.495335,-11.140082,-9.397939,-3.590838,2.373804,-16.016565,26.843105,-1.437093,97.487137,50.782154,-21.980356,-17.094437,-0.610716,-8.210349,-44.385872,-24.951912,-53.606693,-25.443205,-9.266000,-5.896102,-15.291414,-29.581730,-71.833595,8064.000000,0.000000,4.000000,,,,0.000000,4.000000,4.000000,4.000000,4.000000,4.000000,4.000000,4.000000,4.000000,4.000000,4.000000,4.000000,4.000000,4.000000,4.000000,4.000000,4.000000,4.000000,4.000000,4.000000,4.000000,4.000000,4.000000,4.000000,4.000000,4.000000,4.000000,4.000000,4.000000,4.000000,4.000000,4.000000,4.000000,100.000000
1614489395.884426,39.000000,0.000000,7.093919,-12.320123,-60.452404,-24.068304,-9.916905,-1.581353,-4.202684,-17.187593,-60.845634,-9.132866,-0.359711,-7.337259,-3.587247,1.345789,-9.333881,35.534210,4.718191,100.466576,52.269833,-21.445555,-17.590164,2.979638,-10.253421,-46.392769,-23.901320,-54.065907,-24.392120,-9.256734,-5.890206,-19.378687,-34.167534,-73.813042,8064.000000,0.000000,4.000000,,,,0.000000,4.000000,4.000000,4.000000,4.000000,4.000000,4.000000,4.000000,4.000000,4.000000,4.000000,4.000000,4.000000,4.000000,4.000000,4.000000,4.000000,4.000000,4.000000,4.000000,4.000000,4.000000,4.000000,4.000000,4.000000,4.000000,4.000000,4.000000,4.000000,4.000000,4.000000,4.000000,4.000000,100.000000
1614489395.892175,40.000000,0.000000,6.574005,-12.820623,-60.391953,-21.480133,-10.932630,-1.579772,-3.172840,-14.093483,-57.707867,-8.098092,9.897058,-2.714537,-3.070839,1.857264,-1.119419,42.678165,2.149370,101.904564,45.550896,-24.501032,-19.111034,-1.125906,-10.755987,-57.628426,-23.364597,-53.499020,-25.393370,-9.247478,-5.884316,-20.897770,-33.620544,-70.149490,8064.000000,0.000000,4.000000,,,,0.000000,4.000000,4.000000,4.000000,4.000000,4.000000,4.000000,4.000000,4.000000,4.000000,4.000000,4.000000,4.000000,4.000000,4.000000,4.000000,4.000000,4.000000,4.000000,4.000000,4.000000,4.000000,4.000000,4.000000,4.000000,4.000000,4.000000,4.000000,4.000000,4.000000,4.000000,4.000000,4.000000,100.000000
1614489395.899825,41.000000,0.000000,7.080251,-12.294982,-59.818741,-21.971474,-10.408876,-1.578192,-4.195308,-14.592210,-57.650158,-4.500250,-1.394890,-2.711823,-3.067769,0.829766,-0.605480,38.020103,-0.416882,102.315483,42.428421,-29.091917,-17.553463,-1.637600,-13.309334,-60.647720,-24.879694,-53.445518,-28.957720,-9.238230,-5.878431,-21.902514,-33.586926,-80.335747,8064.000000,0.000000,4.000000,,,,0.000000,4.000000,4.000000,4.000000,4.000000,4.000000,4.000000,4.000000,4.000000,4.000000,4.000000,4.000000,4.000000,4.000000,4.000000,4.000000,4.000000,4.000000,4.000000,4.000000,4.000000,4.000000,4.000000,4.000000,4.000000,4.000000,4.000000,4.000000,4.000000,4.000000,4.000000,4.000000,4.000000,100.000000
1614489395.907574,42.000000,0.000000,7.073171,-12.282687,-59.758923,-22.975143,-10.911288,-1.576614,-4.191113,-16.116079,-62.207893,-5.008570,-12.675546,-4.760393,-4.090342,-2.247987,-10.861284,30.802595,-0.416465,98.623421,37.770611,-27.011541,-19.074369,-1.123142,-15.347307,-65.202461,-24.341993,-60.058743,-33.031326,-9.228992,-5.872553,-23.931892,-36.630260,-91.537460,8064.000000,0.000000,4.000000,,,,0.000000,4.000000,4.000000,4.000000,4.000000,4.000000,4.000000,4.000000,4.000000,4.000000,4.000000,4.000000,4.000000,4.000000,4.000000,4.000000,4.000000,4.000000,4.000000,4.000000,4.000000,4.000000,4.000000,4.000000,4.000000,4.000000,4.000000,4.000000,4.000000,4.000000,4.000000,4.000000,4.000000,100.000000
1614489395.915223,43.000000,0.000000,6.553277,-12.270404,-57.135059,-22.439348,-11.413198,-1.575037,-3.674102,-13.023040,-64.709785,-5.516382,-14.201332,-4.242812,-3.060611,-2.758559,-21.106833,26.156408,-2.980151,85.704285,21.322582,-28.522993,-26.747604,-3.686122,-15.844780,-76.419304,-23.804831,-68.203812,-33.511116,-9.219763,-5.353860,-24.420780,-37.619270,-82.215157,8064.000000,0.000000,4.000000,,,,0.000000,4.000000,4.000000,4.000000,4.000000,4.000000,4.000000,4.000000,4.000000,4.000000,4.000000,4.000000,4.000000,4.000000,4.000000,4.000000,4.000000,4.000000,4.000000,4.000000,4.000000,4.000000,4.000000,4.000000,4.000000,4.000000,4.000000,4.000000,4.000000,4.000000,4.000000,4.000000,4.000000,100.000000
1614489395.922972,44.000000,0.000000,6.546724,-12.258134,-56.052284,-22.416908,-10.888964,-1.573462,-4.696068,-11.471556,-64.132256,-4.998045,-26.494823,-8.341133,-0.493447,-5.319903,-26.726751,12.796918,-4.515633,72.285248,10.019208,-42.340622,-29.284958,0.932949,-15.316114,-77.368530,-24.293846,-67.109962,-33.477604,-9.210543,-6.374147,-23.883539,-37.581654,-75.466278,8064.000000,0.000000,4.000000,,,,0.000000,4.000000,4.000000,4.000000,4.000000,4.000000,4.000000,4.000000,4.000000,4.000000,4.000000,4.000000,4.000000,4.000000,4.000000,4.000000,4.000000,4.000000,4.000000,4.000000,4.000000,4.000000,4.000000,4.000000,4.000000,4.000000,4.000000,4.000000,4.000000,4.000000,4.000000,4.000000,4.000000,100.000000
1614489395.930621,45.000000,0.000000,6.540177,-12.245875,-55.996231,-22.394491,-10.878075,-1.571889,-7.255475,-11.460084,-64.068123,-4.993047,-37.237560,-16.025101,0.019867,-10.442789,-36.956436,-0.036392,-2.459835,69.136040,17.188677,-44.862385,-23.614649,5.547401,-15.813620,-71.650131,-24.269552,-61.401829,-33.956947,-9.201332,-5.854952,-23.346836,-37.031250,-81.544655,8064.000000,0.000000,4.000000,,,,0.000000,4.000000,4.000000,4.000000,4.000000,4.000000,4.000000,4.000000,4.000000,4.000000,4.000000,4.000000,4.000000,4.000000,4.000000,4.000000,4.000000,4.000000,4.000000,4.000000,4.000000,4.000000,4.000000,4.000000,4.000000,4.000000,4.000000,4.000000,4.000000,4.000000,4.000000,4.000000,4.000000,100.000000
1614489395.938370,46.000000,0.000000,6.533638,-12.233630,-55.427414,-22.884918,-10.867197,-1.570317,-8.273860,-11.961444,-64.516876,-4.988054,-32.584938,-17.034716,0.019847,-10.432346,-45.124607,4.066208,-1.431734,77.272034,33.581745,-30.971369,-22.052572,-3.176095,-15.797806,-63.373356,-23.219643,-60.314789,-33.922989,-8.679311,-3.284995,-21.272207,-36.994217,-83.514389,8064.000000,0.000000,4.000000,,,,0.000000,4.000000,4.000000,4.000000,4.000000,4.000000,4.000000,4.000000,4.000000,4.000000,4.000000,4.000000,4.000000,4.000000,4.000000,4.000000,4.000000,4.000000,4.000000,4.000000,4.000000,4.000000,4.000000,4.000000,4.000000,4.000000,4.000000,4.000000,4.000000,4.000000,4.000000,4.000000,4.000000,100.000000
1614489395.946019,47.000000,0.000000,6.527104,-12.734217,-58.448910,-22.349213,-10.856330,-1.568746,-7.752766,-10.923841,-63.939541,-4.983066,-29.475430,-15.992040,0.019827,-10.421914,-42.515381,14.831373,-0.404661,86.938354,47.394318,-22.222448,-21.517698,-8.301125,-14.243546,-46.899727,-24.734884,-61.280113,-33.889069,-9.183452,-2.768889,-20.225294,-37.470047,-80.866776,8064.000000,0.000000,4.000000,,,,0.000000,4.000000,4.000000,4.000000,4.000000,4.000000,4.000000,4.000000,4.000000,4.000000,4.000000,4.000000,4.000000,4.000000,4.000000,4.000000,4.000000,4.000000,4.000000,4.000000,4.000000,4.000000,4.000000,4.000000,4.000000,4.000000,4.000000,4.000000,4.000000,4.000000,4.000000,4.000000,4.000000,100.000000
1614489395.953769,48.000000,0.000000,6.520576,-11.695842,-63.005848,-21.814043,-10.845473,-1.567178,-8.257833,-8.348815,-64.388420,-4.978083,-24.830568,-17.001690,0.019807,-10.924313,-38.883121,15.842183,4.723948,89.928337,50.936665,-18.097662,-16.367975,2.989228,-12.690841,-37.109238,-22.658867,-60.706013,-31.803896,-9.174268,-5.330223,-20.717890,-35.894112,-76.170525,8064.000000,0.000000,4.000000,,,,0.000000,4.000000,4.000000,4.000000,4.000000,4.000000,4.000000,4.000000,4.000000,4.000000,4.000000,4.000000,4.000000,4.000000,4.000000,4.000000,4.000000,4.000000,4.000000,4.000000,4.000000,4.000000,4.000000,4.000000,4.000000,4.000000,4.000000,4.000000,4.000000,4.000000,4.000000,4.000000,4.000000,100.000000
1614489395.961418,49.000000,0.000000,6.514056,-11.684146,-61.404381,-23.330690,-10.834628,-1.565611,-7.223935,-4.750723,-63.811214,-3.434644,-8.908302,-14.933405,0.532608,-2.708260,-31.151930,16.851982,6.257686,92.402512,48.834446,-4.746231,-14.300325,10.678547,-11.139688,-40.149052,-10.328516,-60.645306,-23.054144,-5.575350,-6.350534,-20.184351,-29.704372,-67.889229,8064.000000,0.000000,4.000000,,,,0.000000,4.000000,4.000000,4.000000,4.000000,4.000000,4.000000,4.000000,4.000000,4.000000,4.000000,4.000000,4.000000,4.000000,4.000000,4.000000,4.000000,4.000000,4.000000,4.000000,4.000000,4.000000,4.000000,4.000000,4.000000,4.000000,4.000000,4.000000,4.000000,4.000000,4.000000,4.000000,4.000000,100.000000
1614489395.969167,50.000000,0.000000,6.507542,-13.723743,-55.701950,-22.281717,-11.336614,-1.564045,-5.165429,-3.720331,-61.183300,-1.379927,1.869837,-10.303087,2.583357,10.627782,-9.582317,31.706924,8.302711,106.156265,53.400997,6.540566,-12.747564,9.642227,-7.025985,-36.006336,-1.087418,-59.559021,-9.697756,-1.467211,-5.318542,-21.189808,-23.008001,-63.718773,8064.000000,0.000000,4.000000,,,,0.000000,4.000000,4.000000,4.000000,4.000000,4.000000,4.000000,4.000000,4.000000,4.000000,4.000000,4.000000,4.000000,4.000000,4.000000,4.000000,4.000000,4.000000,4.000000,4.000000,4.000000,4.000000,4.000000,4.000000,4.000000,4.000000,4.000000,4.000000,4.000000,4.000000,4.000000,4.000000,4.000000,100.000000
1614489395.976816,51.000000,0.000000,6.501034,-10.633097,-52.569324,-15.592770,-10.299636,-1.562481,-3.621802,-4.229431,-59.583656,-0.865726,4.944890,-7.728682,4.119236,13.694077,5.299060,49.111115,12.909792,120.921898,54.373238,0.380180,-11.196355,9.632585,-3.429215,-34.431870,-4.676075,-56.935360,-0.457289,-2.491385,-5.826045,-19.117334,-21.446533,-63.142231,8064.000000,0.000000,4.000000,,,,0.000000,4.000000,4.000000,4.000000,4.000000,4.000000,4.000000,4.000000,4.000000,4.000000,4.000000,4.000000,4.000000,4.000000,4.000000,4.000000,4.000000,4.000000,4.000000,4.000000,4.000000,4.000000,4.000000,4.000000,4.000000,4.000000,4.000000,4.000000,4.000000,4.000000,4.000000,4.000000,4.000000,100.000000
1614489395.984565,52.000000,0.000000,6.494534,-4.981438,-52.516754,-9.936152,-8.238054,-1.560918,-3.618180,-4.225202,-60.036892,-1.377681,4.427125,-5.669671,4.115116,10.603460,2.216838,50.600464,10.332780,116.185593,42.011173,-13.466354,-17.851826,3.981926,-5.477068,-50.294872,-9.799603,-56.365604,2.107271,-5.052996,-6.333039,-9.354629,-21.937906,-57.950886,8064.000000,0.000000,4.000000,,,,0.000000,4.000000,4.000000,4.000000,4.000000,4.000000,4.000000,4.000000,4.000000,4.000000,4.000000,4.000000,4.000000,4.000000,4.000000,4.000000,4.000000,4.000000,4.000000,4.000000,4.000000,4.000000,4.000000,4.000000,4.000000,4.000000,4.000000,4.000000,4.000000,4.000000,4.000000,4.000000,4.000000,100.000000
1614489395.992214,53.000000,0.000000,6.488039,-7.540559,-51.951416,-10.951857,-6.691355,-1.559358,-5.153024,-3.708156,-59.976856,-1.376304,-3.269610,-4.638361,2.572540,8.028754,-0.862302,42.344738,3.142960,98.120689,30.174288,-21.145195,-26.039101,-1.150261,-8.035694,-61.526630,-8.764163,-57.334881,0.053881,-5.560763,-5.813885,-1.652966,-21.915968,-54.816013,8064.000000,0.000000,4.000000,,,,0.000000,4.000000,4.000000,4.000000,4.000000,4.000000,4.000000,4.000000,4.000000,4.000000,4.000000,4.000000,4.000000,4.000000,4.000000,4.000000,4.000000,4.000000,4.000000,4.000000,4.000000,4.000000,4.000000,4.000000,4.000000,4.000000,4.000000,4.000000,4.000000,4.000000,4.000000,4.000000,4.000000,100.000000
1614489395.999963,54.000000,0.000000,6.481551,-11.635583,-50.873825,-11.966545,-7.197484,-1.557798,-7.199152,-4.217268,-59.916878,-0.862107,-7.881725,-4.633722,0.518685,4.943802,-3.938363,37.174187,2.626997,88.278976,29.631294,-22.662512,-26.525883,6.543197,-8.027658,-60.439465,-7.729758,-55.226261,-2.510275,-5.555202,-5.808072,-1.138492,-21.381231,-58.863758,8064.000000,0.000000,4.000000,,,,0.000000,4.000000,4.000000,4.000000,4.000000,4.000000,4.000000,4.000000,4.000000,4.000000,4.000000,4.000000,4.000000,4.000000,4.000000,4.000000,4.000000,4.000000,4.000000,4.000000,4.000000,4.000000,4.000000,4.000000,4.000000,4.000000,4.000000,4.000000,4.000000,4.000000,4.000000,4.000000,4.000000,100.000000
1614489396.007613,55.000000,0.000000,6.475069,-5.982922,-51.335773,-9.903296,-7.190287,-1.556240,-8.217594,-6.264333,-59.344139,-0.348424,-8.386664,-4.629088,-0.507475,0.836294,-18.293398,33.034447,0.060267,89.216339,30.627304,-23.665491,-25.986536,8.075116,-7.506810,-60.379025,-9.260489,-50.555653,-9.687252,-4.011186,-6.315084,-2.162995,-20.847031,-57.779255,8064.000000,0.000000,4.000000,,,,0.000000,4.000000,4.000000,4.000000,4.000000,4.000000,4.000000,4.000000,4.000000,4.000000,4.000000,4.000000,4.000000,4.000000,4.000000,4.000000,4.000000,4.000000,4.000000,4.000000,4.000000,4.000000,4.000000,4.000000,4.000000,4.000000,4.000000,4.000000,4.000000,4.000000,4.000000,4.000000,4.000000,100.000000
1614489396.015461,56.000000,0.000000,6.468594,0.176908,-52.822899,-14.508779,-6.670276,-1.554684,-7.696557,-7.796531,-60.310436,-3.424999,-18.121866,-6.162920,0.005853,-3.267106,-29.557156,25.821926,-8.144921,89.127129,29.058214,-25.180286,-25.960550,-1.676549,-8.012124,-59.805824,-10.276870,-48.453812,-20.959616,-2.468713,-5.795948,-1.648011,-19.287722,-53.618912,8064.000000,0.000000,4.000000,,,,0.000000,4.000000,4.000000,4.000000,4.000000,4.000000,4.000000,4.000000,4.000000,4.000000,4.000000,4.000000,4.000000,4.000000,4.000000,4.000000,4.000000,4.000000,4.000000,4.000000,4.000000,4.000000,4.000000,4.000000,4.000000,4.000000,4.000000,4.000000,4.000000,4.000000,4.000000,4.000000,4.000000,100.000000
1614489396.023211,57.000000,0.000000,6.462126,-0.848910,-48.667511,-22.699398,-7.176426,-1.553129,-7.688860,-7.788734,-60.762947,-7.011317,-25.796053,-8.720860,0.005847,-8.392044,-29.527599,22.206362,-9.675239,87.499535,32.618900,-23.616644,-22.857666,2.940512,-8.516932,-53.592171,-9.240952,-49.943821,-29.143785,-3.491885,-2.713229,-2.159184,-18.242794,-57.155037,8064.000000,0.000000,4.000000,,,,0.000000,4.000000,4.000000,4.000000,4.000000,4.000000,4.000000,4.000000,4.000000,4.000000,4.000000,4.000000,4.000000,4.000000,4.000000,4.000000,4.000000,4.000000,4.000000,4.000000,4.000000,4.000000,4.000000,4.000000,4.000000,4.000000,4.000000,4.000000,4.000000,4.000000,4.000000,4.000000,4.000000,100.000000
1614489396.031060,58.000000,0.000000,6.455664,-1.873703,-39.900894,-22.163877,-7.169250,-1.551576,-7.681171,-7.780945,-55.573978,-8.029947,-23.718975,-8.712139,0.005842,-10.947755,-36.677559,22.184155,-5.562999,88.437675,37.201664,-23.080208,-22.321989,10.117059,-8.508415,-52.512939,-9.231711,-49.381058,-31.165922,-4.001214,-1.684875,-3.182666,-22.839935,-63.764549,8064.000000,0.000000,4.000000,,,,0.000000,4.000000,4.000000,4.000000,4.000000,4.000000,4.000000,4.000000,4.000000,4.000000,4.000000,4.000000,4.000000,4.000000,4.000000,4.000000,4.000000,4.000000,4.000000,4.000000,4.000000,4.000000,4.000000,4.000000,4.000000,4.000000,4.000000,4.000000,4.000000,4.000000,4.000000,4.000000,4.000000,100.000000
1614489396.038809,59.000000,0.000000,6.449208,-0.846188,-46.014839,-15.987867,-7.162080,-1.550025,-7.673490,-7.773164,-49.364559,-12.124481,-22.156794,-8.703427,0.005836,-9.911166,-44.333191,19.085049,-4.531795,88.349243,37.677284,-24.082767,-20.761204,-1.687930,-7.474266,-56.050171,-14.863505,-48.818855,-29.596296,-6.048495,-3.221652,-1.641021,-31.022223,-64.726425,8064.000000,0.000000,4.000000,,,,0.000000,4.000000,4.000000,4.000000,4.000000,4.000000,4.000000,4.000000,4.000000,4.000000,4.000000,4.000000,4.000000,4.000000,4.000000,4.000000,4.000000,4.000000,4.000000,4.000000,4.000000,4.000000,4.000000,4.000000,4.000000,4.000000,4.000000,4.000000,4.000000,4.000000,4.000000,4.000000,4.000000,100.000000
1614489396.046658,60.000000,0.000000,6.442759,-0.845342,-59.814980,-14.946239,-7.667739,-1.548475,-7.665816,-7.765391,-47.776733,-18.779024,-19.057714,-8.694724,0.005830,-10.414075,-37.622189,20.091604,-5.040083,90.312172,41.742172,-17.392019,-12.022494,-6.301627,-7.979612,-51.378735,-16.899923,-50.308498,-23.925673,-6.042447,0.371314,-2.665022,-27.401457,-61.071953,8064.000000,0.000000,4.000000,,,,0.000000,4.000000,4.000000,4.000000,4.000000,4.000000,4.000000,4.000000,4.000000,4.000000,4.000000,4.000000,4.000000,4.000000,4.000000,4.000000,4.000000,4.000000,4.000000,4.000000,4.000000,4.000000,4.000000,4.000000,4.000000,4.000000,4.000000,4.000000,4.000000,4.000000,4.000000,4.000000,4.000000,100.000000
1614489396.054407,61.000000,0.000000,6.436316,-1.357317,-52.062855,-14.418472,-7.147251,-1.546926,-7.658151,-7.757626,-48.754597,-20.298706,-9.807887,-8.686029,0.005824,-10.916482,-28.866619,29.302280,-2.983762,96.375710,52.982479,-4.554114,-5.856626,4.986726,-7.971632,-38.506844,-5.600973,-47.694088,-14.158158,5.758468,7.037609,-3.175177,-10.450979,-55.369858,8064.000000,0.000000,4.000000,,,,0.000000,4.000000,4.000000,4.000000,4.000000,4.000000,4.000000,4.000000,4.000000,4.000000,4.000000,4.000000,4.000000,4.000000,4.000000,4.000000,4.000000,4.000000,4.000000,4.000000,4.000000,4.000000,4.000000,4.000000,4.000000,4.000000,4.000000,4.000000,4.000000,4.000000,4.000000,4.000000,4.000000,100.000000
1614489396.062256,62.000000,0.000000,6.429880,-1.355959,-34.062077,-8.763028,-4.576001,-1.545379,-7.650492,-7.237048,-48.705841,-17.714304,-5.695516,-8.677343,0.005818,-7.315822,-25.760828,34.914005,-0.416675,100.894714,57.032063,1.604286,-5.850770,-0.659286,1.267109,-34.878593,7.225141,-40.979725,-4.913231,12.419376,9.594674,5.545947,-2.235400,-49.673462,8064.000000,0.000000,4.000000,,,,0.000000,4.000000,4.000000,4.000000,4.000000,4.000000,4.000000,4.000000,4.000000,4.000000,4.000000,4.000000,4.000000,4.000000,4.000000,4.000000,4.000000,4.000000,4.000000,4.000000,4.000000,4.000000,4.000000,4.000000,4.000000,4.000000,4.000000,4.000000,4.000000,4.000000,4.000000,4.000000,4.000000,100.000000
1614489396.070005,63.000000,0.000000,6.936270,-1.354603,-35.053654,-6.190162,-3.032963,-1.543834,-7.642842,-7.229811,-48.144318,-15.132487,-6.715461,-8.668666,0.005812,-2.693121,-20.094042,34.879089,-0.416258,99.768181,51.334003,-4.038344,-8.921842,-12.966319,11.009431,-44.587303,5.166634,-37.349003,-0.292933,-2.464838,9.072259,15.796811,-9.412652,-48.598148,8064.000000,0.000000,4.000000,,,,0.000000,4.000000,4.000000,4.000000,4.000000,4.000000,4.000000,4.000000,4.000000,4.000000,4.000000,4.000000,4.000000,4.000000,4.000000,4.000000,4.000000,4.000000,4.000000,4.000000,4.000000,4.000000,4.000000,4.000000,4.000000,4.000000,4.000000,4.000000,4.000000,4.000000,4.000000,4.000000,4.000000,100.000000
1614489396.077854,64.000000,0.000000,5.390872,-1.353249,-41.172447,-9.773716,-3.542751,-1.542290,-7.635199,-7.735401,-48.608994,-13.066073,-6.708745,-8.659997,0.005807,-2.177608,-15.971384,35.357033,-1.441483,95.053024,49.744209,-13.777895,-17.118048,-5.261045,6.383037,-51.722202,-6.633404,-38.337296,-10.549050,-14.770065,8.550366,16.293835,-17.608368,-49.062370,0.000000,195.000000,4.000000,,,,0.000000,4.000000,4.000000,4.000000,4.000000,4.000000,4.000000,4.000000,4.000000,4.000000,4.000000,4.000000,4.000000,4.000000,4.000000,4.000000,4.000000,4.000000,4.000000,4.000000,4.000000,4.000000,4.000000,4.000000,4.000000,4.000000,4.000000,4.000000,4.000000,4.000000,4.000000,4.000000,4.000000,100.000000
1614489396.085603,65.000000,0.000000,3.334199,-1.351896,-37.028709,-11.815224,-3.539208,-1.540748,-7.627564,-7.214845,-49.073204,-11.514545,-7.727678,-8.651337,-1.019840,-2.688251,-16.468233,33.783215,-0.414401,89.316948,47.130363,-20.943605,-24.280416,-5.255784,-5.418218,-52.183300,-12.780617,-38.298958,-29.512859,-10.652732,6.490533,12.174977,-21.693323,-48.500484,0.000000,191.000000,4.000000,,,,0.000000,4.000000,4.000000,4.000000,4.000000,4.000000,4.000000,4.000000,4.000000,4.000000,4.000000,4.000000,4.000000,4.000000,4.000000,4.000000,4.000000,4.000000,4.000000,4.000000,4.000000,4.000000,4.000000,4.000000,4.000000,4.000000,4.000000,4.000000,4.000000,4.000000,4.000000,4.000000,4.000000,100.000000
1614489396.093452,66.000000,0.000000,2.818045,-1.350544,-41.607067,-11.290588,-3.535669,-1.539207,-7.619936,-7.720451,-48.511311,-11.503031,-10.284053,-8.642686,-4.095744,-3.711203,-16.451765,27.082764,-1.439627,83.073784,31.698616,-24.512405,-25.794598,-19.096682,-8.489722,-58.797787,-12.767837,-37.747837,-37.688477,-9.103618,4.945581,12.162802,-25.774193,-48.451984,0.000000,193.000000,4.000000,,,,0.000000,4.000000,4.000000,4.000000,4.000000,4.000000,4.000000,4.000000,4.000000,4.000000,4.000000,4.000000,4.000000,4.000000,4.000000,4.000000,4.000000,4.000000,4.000000,4.000000,4.000000,4.000000,4.000000,4.000000,4.000000,4.000000,4.000000,4.000000,4.000000,4.000000,4.000000,4.000000,4.000000,100.000000
1614489396.101201,67.000000,0.000000,2.815227,-1.349193,-58.488537,-10.766478,-4.044953,-1.537668,-7.612316,-11.815294,-46.924339,-12.004349,-12.325050,-8.634043,-7.681391,-6.271595,-17.973774,22.440296,-4.002290,80.426613,24.487431,-23.462252,-26.794445,-15.487842,-7.455592,-63.354374,-12.755069,-38.222912,-36.112324,-12.171436,4.940636,12.663460,-26.261240,-48.916355,0.000000,180.000000,4.000000,,,,0.000000,4.000000,4.000000,4.000000,4.000000,4.000000,4.000000,4.000000,4.000000,4.000000,4.000000,4.000000,4.000000,4.000000,4.000000,4.000000,4.000000,4.000000,4.000000,4.000000,4.000000,4.000000,4.000000,4.000000,4.000000,4.000000,4.000000,4.000000,4.000000,4.000000,4.000000,4.000000,4.000000,100.000000
1614489396.109050,68.000000,0.000000,2.812411,-1.347844,-64.583893,-10.755711,-3.015268,-1.536130,-7.604704,-14.880403,-44.826130,-11.479524,-14.364008,-8.625409,-7.160890,-6.265323,-22.571186,22.930677,-3.998288,84.961571,40.873199,-16.259302,-21.126625,0.425082,-8.473777,-53.034607,-13.767955,-37.671867,-38.640316,-8.569522,4.935695,12.137976,-25.722158,-48.354618,0.000000,214.000000,4.000000,,,,0.000000,4.000000,4.000000,4.000000,4.000000,4.000000,4.000000,4.000000,4.000000,4.000000,4.000000,4.000000,4.000000,4.000000,4.000000,4.000000,4.000000,4.000000,4.000000,4.000000,4.000000,4.000000,4.000000,4.000000,4.000000,4.000000,4.000000,4.000000,4.000000,4.000000,4.000000,4.000000,4.000000,100.000000
1614489396.116799,69.000000,0.000000,5.373702,-1.346496,-57.852642,-12.796237,-0.448150,-1.534594,-7.597099,-14.865522,-44.268486,-12.493685,-15.375285,-8.616783,-4.589626,-4.207776,-25.625538,22.394926,-1.430187,87.953529,55.191299,-8.550735,-9.310626,2.988759,-8.978124,-41.186703,-13.241366,-37.634197,-41.678600,-4.458388,4.930759,12.125837,-29.286180,-48.306263,0.000000,192.000000,4.000000,,,,0.000000,4.000000,4.000000,4.000000,4.000000,4.000000,4.000000,4.000000,4.000000,4.000000,4.000000,4.000000,4.000000,4.000000,4.000000,4.000000,4.000000,4.000000,4.000000,4.000000,4.000000,4.000000,4.000000,4.000000,4.000000,4.000000,4.000000,4.000000,4.000000,4.000000,4.000000,4.000000,4.000000,100.000000
1614489396.124448,70.000000,0.000000,6.906789,-1.345150,-52.153763,-11.757800,0.577939,-1.533059,-7.589502,-16.389118,-44.737038,-12.994012,-15.872730,-9.120987,-4.072216,-3.177927,-28.164015,21.346889,-1.941577,84.275833,54.110470,-8.029364,-11.865418,0.934488,-7.943505,-40.632694,-13.228125,-38.109383,-37.021534,-4.966750,4.925829,10.062429,-30.282536,-51.847698,0.000000,191.000000,4.000000,,,,0.000000,4.000000,4.000000,4.000000,4.000000,4.000000,4.000000,4.000000,4.000000,4.000000,4.000000,4.000000,4.000000,4.000000,4.000000,4.000000,4.000000,4.000000,4.000000,4.000000,4.000000,4.000000,4.000000,4.000000,4.000000,4.000000,4.000000,4.000000,4.000000,4.000000,4.000000,4.000000,4.000000,100.000000
1614489396.132197,71.000000,0.000000,5.361421,-0.830984,-51.588791,-9.694760,0.064541,-1.531526,-7.581913,-14.321447,-44.179478,-11.442556,-14.831216,-8.599046,-4.580964,-2.661928,-28.648670,23.889645,-1.426815,84.704376,55.081997,-9.046975,-21.597143,2.984836,-8.448381,-41.617702,-12.189256,-37.045631,-32.881950,-5.474604,4.920903,8.001085,-26.149689,-55.898415,0.000000,193.000000,4.000000,,,,0.000000,4.000000,4.000000,4.000000,4.000000,4.000000,4.000000,4.000000,4.000000,4.000000,4.000000,4.000000,4.000000,4.000000,4.000000,4.000000,4.000000,4.000000,4.000000,4.000000,4.000000,4.000000,4.000000,4.000000,4.000000,4.000000,4.000000,4.000000,4.000000,4.000000,4.000000,4.000000,4.000000,100.000000
1614489396.139846,72.000000,0.000000,2.791957,-2.368614,-51.537201,-18.915834,0.577297,-1.529995,-7.574331,-10.204561,-44.135300,-11.943934,-11.739462,-8.590446,-3.037922,-2.659266,-26.055920,21.814474,-0.399748,91.799156,56.565380,-6.473825,-21.575546,-1.120713,-8.439934,-40.550442,-10.638605,-38.547047,-30.797785,-4.956309,4.915982,7.993084,-28.174820,-56.355339,0.000000,216.000000,4.000000,,,,0.000000,4.000000,4.000000,4.000000,4.000000,4.000000,4.000000,4.000000,4.000000,4.000000,4.000000,4.000000,4.000000,4.000000,4.000000,4.000000,4.000000,4.000000,4.000000,4.000000,4.000000,4.000000,4.000000,4.000000,4.000000,4.000000,4.000000,4.000000,4.000000,4.000000,4.000000,4.000000,4.000000,100.000000
1614489396.147595,73.000000,0.000000,2.789165,-4.417528,-50.972843,-27.102047,-0.961742,-1.528465,-7.566756,-14.809741,-44.603985,-12.957631,-8.137979,-9.094677,-4.060524,-3.682248,-21.414478,22.818300,-2.963450,92.733002,53.944710,-4.928890,-18.477047,-5.222157,-4.328929,-40.509892,-9.089505,-44.662346,-27.690065,-5.464173,4.911066,8.497911,-30.710749,-55.786163,0.000000,179.000000,4.000000,,,,0.000000,4.000000,4.000000,4.000000,4.000000,4.000000,4.000000,4.000000,4.000000,4.000000,4.000000,4.000000,4.000000,4.000000,4.000000,4.000000,4.000000,4.000000,4.000000,4.000000,4.000000,4.000000,4.000000,4.000000,4.000000,4.000000,4.000000,4.000000,4.000000,4.000000,4.000000,4.000000,4.000000,100.000000
1614489396.155245,74.000000,0.000000,2.786376,-5.438752,-50.409050,-14.767253,-3.524883,-1.526936,-7.559190,-17.871855,-45.585022,-2.688264,-0.437533,-6.008659,-4.569285,-0.088822,-7.034090,39.718559,1.142077,99.819756,62.095894,-4.411141,-15.894467,-0.088729,-0.734857,-37.905281,-5.490672,-49.745888,-26.123913,-5.458709,4.906155,8.489414,-15.295422,-56.756016,0.000000,166.000000,4.000000,,,,0.000000,4.000000,4.000000,4.000000,4.000000,4.000000,4.000000,4.000000,4.000000,4.000000,4.000000,4.000000,4.000000,4.000000,4.000000,4.000000,4.000000,4.000000,4.000000,4.000000,4.000000,4.000000,4.000000,4.000000,4.000000,4.000000,4.000000,4.000000,4.000000,4.000000,4.000000,4.000000,4.000000,100.000000
1614489396.162994,75.000000,0.000000,2.783590,-4.920492,-51.384281,2.683412,-4.034178,-1.525409,-7.551630,-5.033470,-43.488155,14.750322,14.434699,0.151196,3.127592,11.193317,12.972944,59.678841,15.499909,119.207115,77.418411,-2.355448,-9.724727,5.552385,-1.246943,-31.713530,-1.895437,-49.183323,-21.995226,-5.453250,4.901249,8.480925,0.104489,-56.186440,0.000000,197.000000,4.000000,,,,0.000000,4.000000,4.000000,4.000000,4.000000,4.000000,4.000000,4.000000,4.000000,4.000000,4.000000,4.000000,4.000000,4.000000,4.000000,4.000000,4.000000,4.000000,4.000000,4.000000,4.000000,4.000000,4.000000,4.000000,4.000000,4.000000,4.000000,4.000000,4.000000,4.000000,4.000000,4.000000,4.000000,100.000000
1614489396.170643,76.000000,0.000000,2.267986,-4.915572,-50.307259,1.142267,-3.517324,-1.523884,-7.544079,4.202332,-45.495949,17.299675,19.035648,2.202327,11.329593,15.284689,15.011253,60.644802,20.612616,123.703293,75.289711,-0.814631,-6.638079,6.059653,0.805587,-29.117712,-0.867901,-48.108498,-14.793743,-5.960618,4.896348,8.472444,-7.075103,-55.617435,0.000000,189.000000,4.000000,,,,0.000000,4.000000,4.000000,4.000000,4.000000,4.000000,4.000000,4.000000,4.000000,4.000000,4.000000,4.000000,4.000000,4.000000,4.000000,4.000000,4.000000,4.000000,4.000000,4.000000,4.000000,4.000000,4.000000,4.000000,4.000000,4.000000,4.000000,4.000000,4.000000,4.000000,4.000000,4.000000,4.000000,100.000000
1614489396.178392,77.000000,0.000000,2.778538,-5.423477,-48.205669,-9.115285,-3.513806,-1.522360,-7.536535,-4.006998,-54.168400,4.974682,6.196101,-0.876799,7.728520,10.141199,4.739831,52.891850,12.386874,108.194977,60.855450,-0.813816,-9.708364,8.104876,5.932986,-29.601416,-1.892674,-49.598850,-14.266129,-3.390554,4.891451,8.463971,-15.273156,-56.587456,0.000000,190.000000,4.000000,,,,0.000000,4.000000,4.000000,4.000000,4.000000,4.000000,4.000000,4.000000,4.000000,4.000000,4.000000,4.000000,4.000000,4.000000,4.000000,4.000000,4.000000,4.000000,4.000000,4.000000,4.000000,4.000000,4.000000,4.000000,4.000000,4.000000,4.000000,4.000000,4.000000,4.000000,4.000000,4.000000,4.000000,100.000000
1614489396.186041,78.000000,0.000000,2.262939,-5.418053,-46.618999,-11.157452,-3.510293,-1.520838,-7.528998,-9.131196,-53.601414,-1.184139,-0.989583,-1.901563,2.592586,7.566955,1.145348,49.762035,9.297564,100.907295,56.692028,-1.325823,-11.237117,10.148053,6.952694,-29.571814,-1.890781,-48.523613,-17.328785,1.228221,4.886560,8.455507,-7.565575,-51.915485,0.000000,201.000000,4.000000,,,,0.000000,4.000000,4.000000,4.000000,4.000000,4.000000,4.000000,4.000000,4.000000,4.000000,4.000000,4.000000,4.000000,4.000000,4.000000,4.000000,4.000000,4.000000,4.000000,4.000000,4.000000,4.000000,4.000000,4.000000,4.000000,4.000000,4.000000,4.000000,4.000000,4.000000,4.000000,4.000000,4.000000,100.000000
1614489396.193790,79.000000,0.000000,2.773497,-2.848532,-47.085201,-8.069371,-3.506782,-1.519317,-4.957366,-4.506680,-43.804222,-1.182954,3.113971,-0.874020,5.154096,8.585029,-1.419900,46.635349,10.826728,100.293564,59.199440,-1.324497,-10.713059,8.599443,6.945741,-29.542242,-1.888891,-43.346882,-15.260175,2.252634,4.881673,8.959872,-2.942625,-43.658443,0.000000,162.000000,4.000000,,,,0.000000,4.000000,4.000000,4.000000,4.000000,4.000000,4.000000,4.000000,4.000000,4.000000,4.000000,4.000000,4.000000,4.000000,4.000000,4.000000,4.000000,4.000000,4.000000,4.000000,4.000000,4.000000,4.000000,4.000000,4.000000,4.000000,4.000000,4.000000,4.000000,4.000000,4.000000,4.000000,4.000000,100.000000
1614489396.201439,80.000000,0.000000,4.822005,1.256880,-47.550938,-7.548481,-3.503275,-1.517798,-1.875486,-3.476532,-42.221954,-3.233053,3.623677,-1.385967,7.713045,8.576444,-6.033864,42.486149,9.790260,94.552246,57.601780,-1.323172,-9.676705,11.154946,8.990078,-29.512701,-1.887002,-40.739433,-15.244914,1.737561,4.876791,7.412451,-7.555067,-40.025040,0.000000,185.000000,4.000000,,,,0.000000,4.000000,4.000000,4.000000,4.000000,4.000000,4.000000,4.000000,4.000000,4.000000,4.000000,4.000000,4.000000,4.000000,4.000000,4.000000,4.000000,4.000000,4.000000,4.000000,4.000000,4.000000,4.000000,4.000000,4.000000,4.000000,4.000000,4.000000,4.000000,4.000000,4.000000,4.000000,4.000000,100.000000
1614489396.209288,81.000000,0.000000,6.355645,2.794085,-46.990566,-8.053754,-3.499772,-1.516280,-0.335149,-5.011518,-44.231014,-3.742641,4.132874,-1.384581,7.192511,7.542226,-7.053472,38.341099,11.831752,92.919228,57.031357,-1.321849,-8.128567,15.759176,11.032370,-29.996008,-2.397935,-41.211514,-21.383516,1.735823,4.871915,5.353756,-8.573153,-41.010654,0.000000,192.000000,4.000000,,,,0.000000,4.000000,4.000000,4.000000,4.000000,4.000000,4.000000,4.000000,4.000000,4.000000,4.000000,4.000000,4.000000,4.000000,4.000000,4.000000,4.000000,4.000000,4.000000,4.000000,4.000000,4.000000,4.000000,4.000000,4.000000,4.000000,4.000000,4.000000,4.000000,4.000000,4.000000,4.000000,4.000000,100.000000
1614489396.217037,82.000000,0.000000,6.349289,2.278470,-47.969215,-8.045700,-3.496272,-1.514764,-0.334814,-3.980865,-44.186783,-7.328642,-0.486643,-1.383196,7.185318,3.944941,-14.225905,32.148914,12.332741,89.749390,57.487144,-1.833348,-7.607618,14.204955,9.995696,-33.555756,-1.882717,-42.195946,-22.900593,1.734087,4.867043,3.809941,-8.051759,-40.969646,0.000000,153.000000,4.000000,,,,0.000000,4.000000,4.000000,4.000000,4.000000,4.000000,4.000000,4.000000,4.000000,4.000000,4.000000,4.000000,4.000000,4.000000,4.000000,4.000000,4.000000,4.000000,4.000000,4.000000,4.000000,4.000000,4.000000,4.000000,4.000000,4.000000,4.000000,4.000000,4.000000,4.000000,4.000000,4.000000,4.000000,100.000000
1614489396.224886,83.000000,0.000000,6.342940,1.763371,-50.998169,-8.550475,-3.492776,-1.513249,-0.334479,-3.976884,-46.193878,-11.936698,-12.281028,-1.381813,5.639672,-0.161568,-18.314243,29.552662,8.217844,84.531433,56.916840,-1.318694,-7.087190,11.113828,9.472880,-37.624763,0.170448,-41.640926,-17.236668,1.219533,4.862176,4.318952,-7.530887,-40.415855,0.000000,164.000000,4.000000,,,,0.000000,4.000000,4.000000,4.000000,4.000000,4.000000,4.000000,4.000000,4.000000,4.000000,4.000000,4.000000,4.000000,4.000000,4.000000,4.000000,4.000000,4.000000,4.000000,4.000000,4.000000,4.000000,4.000000,4.000000,4.000000,4.000000,4.000000,4.000000,4.000000,4.000000,4.000000,4.000000,4.000000,100.000000
1614489396.232636,84.000000,0.000000,6.336597,2.274428,-51.459991,-4.439360,-3.489283,-1.511736,-0.846965,-4.998548,-38.455379,3.459854,-8.679004,-1.380431,3.582750,0.351414,-2.911314,37.728237,5.645524,96.754593,61.475307,-1.830196,-7.080102,8.538611,9.976228,-37.587139,0.683098,-40.060825,-14.142508,1.731134,4.857314,4.827453,-3.420792,-40.888260,0.000000,169.000000,4.000000,,,,0.000000,4.000000,4.000000,4.000000,4.000000,4.000000,4.000000,4.000000,4.000000,4.000000,4.000000,4.000000,4.000000,4.000000,4.000000,4.000000,4.000000,4.000000,4.000000,4.000000,4.000000,4.000000,4.000000,4.000000,4.000000,4.000000,4.000000,4.000000,4.000000,4.000000,4.000000,4.000000,4.000000,100.000000
1614489396.240485,85.000000,0.000000,5.817440,2.272154,-44.741867,2.231746,-3.485794,-1.510224,0.179523,1.673117,-21.493847,23.969215,7.739932,-1.379051,5.117629,5.479268,11.963392,48.459740,5.639878,117.170662,68.080498,-1.315545,-8.098663,0.837765,9.966251,-36.011089,2.220876,-42.072044,-13.615544,1.216582,4.339636,4.309805,0.172372,-39.821732,0.000000,207.000000,4.000000,,,,0.000000,4.000000,4.000000,4.000000,4.000000,4.000000,4.000000,4.000000,4.000000,4.000000,4.000000,4.000000,4.000000,4.000000,4.000000,4.000000,4.000000,4.000000,4.000000,4.000000,4.000000,4.000000,4.000000,4.000000,4.000000,4.000000,4.000000,4.000000,4.000000,4.000000,4.000000,4.000000,4.000000,100.000000
1614489396.248234,86.000000,0.000000,8.888545,1.757061,-39.568920,4.280796,-3.482308,-1.508714,4.281907,10.389393,-23.523634,14.714477,11.834756,-1.377672,9.727896,14.191737,10.925788,52.513844,5.634238,121.668877,69.038055,1.249873,-2.449539,6.477952,9.443464,-32.898155,5.808399,-42.029976,-10.012185,1.728186,5.360937,3.792675,-0.340620,-37.730625,0.000000,170.000000,4.000000,,,,0.000000,4.000000,4.000000,4.000000,4.000000,4.000000,4.000000,4.000000,4.000000,4.000000,4.000000,4.000000,4.000000,4.000000,4.000000,4.000000,4.000000,4.000000,4.000000,4.000000,4.000000,4.000000,4.000000,4.000000,4.000000,4.000000,4.000000,4.000000,4.000000,4.000000,4.000000,4.000000,4.000000,100.000000
1614489396.256083,87.000000,0.000000,12.469400,2.268125,-39.529350,3.250874,-3.478826,-1.507205,7.354548,8.327721,-35.294983,-0.684853,13.874204,-1.376294,11.256629,22.382673,9.889221,51.435688,12.295271,117.957466,68.969017,4.838367,7.809320,26.471474,10.459662,-25.172951,9.392334,-29.680252,-4.361148,6.341842,7.919679,9.429908,2.223823,-37.180077,0.000000,181.000000,4.000000,,,,0.000000,4.000000,4.000000,4.000000,4.000000,4.000000,4.000000,4.000000,4.000000,4.000000,4.000000,4.000000,4.000000,4.000000,4.000000,4.000000,4.000000,4.000000,4.000000,4.000000,4.000000,4.000000,4.000000,4.000000,4.000000,4.000000,4.000000,4.000000,4.000000,4.000000,4.000000,4.000000,4.000000,100.000000
1614489396.263832,88.000000,0.000000,14.508213,6.881241,-35.900078,7.350188,-3.475347,-1.505698,7.347194,2.678368,-30.644302,12.649165,22.065456,-1.374918,10.732553,23.898752,12.443434,51.897072,17.924002,122.454887,69.412872,6.371990,11.904076,25.932182,15.064588,-21.045214,11.947044,-18.881340,-2.305505,11.976526,8.937400,18.138426,6.324163,-37.142895,0.000000,200.000000,4.000000,,,,0.000000,4.000000,4.000000,4.000000,4.000000,4.000000,4.000000,4.000000,4.000000,4.000000,4.000000,4.000000,4.000000,4.000000,4.000000,4.000000,4.000000,4.000000,4.000000,4.000000,4.000000,4.000000,4.000000,4.000000,4.000000,4.000000,4.000000,4.000000,4.000000,4.000000,4.000000,4.000000,4.000000,100.000000
1614489396.271681,89.000000,0.000000,13.980885,9.951283,-35.864178,8.368479,-3.471872,-1.504192,6.827026,3.188510,-27.023914,23.405746,17.428007,-1.373543,11.234640,22.336391,13.456632,53.383636,13.803513,121.819611,62.676792,6.878438,12.404992,8.470353,20.177729,-24.613913,16.037663,-23.477844,-3.328840,14.015832,8.415643,20.171570,7.856300,-37.105751,0.000000,198.000000,4.000000,,,,0.000000,4.000000,4.000000,4.000000,4.000000,4.000000,4.000000,4.000000,4.000000,4.000000,4.000000,4.000000,4.000000,4.000000,4.000000,4.000000,4.000000,4.000000,4.000000,4.000000,4.000000,4.000000,4.000000,4.000000,4.000000,4.000000,4.000000,4.000000,4.000000,4.000000,4.000000,4.000000,4.000000,100.000000
1614489396.279430,90.000000,0.000000,10.889980,9.941332,-46.597542,2.719084,-3.468400,-1.502688,7.333020,4.210962,-35.714840,11.587469,5.102887,-1.372169,11.736226,20.262774,12.930355,49.740509,9.687145,107.851639,54.408985,6.871560,11.366946,3.846498,21.183191,-28.691862,17.047266,-30.633854,-2.812691,10.412072,8.920047,19.638578,7.848444,-39.119930,0.000000,161.000000,4.000000,,,,0.000000,4.000000,4.000000,4.000000,4.000000,4.000000,4.000000,4.000000,4.000000,4.000000,4.000000,4.000000,4.000000,4.000000,4.000000,4.000000,4.000000,4.000000,4.000000,4.000000,4.000000,4.000000,4.000000,4.000000,4.000000,4.000000,4.000000,4.000000,4.000000,4.000000,4.000000,4.000000,4.000000,100.000000
1614489396.287279,91.000000,0.000000,6.776526,9.418570,-50.140690,-0.873378,-3.464931,-1.501185,6.812866,2.668290,-37.217587,3.883574,2.533681,-1.370797,9.160387,13.575844,3.686655,40.460003,9.677458,96.461739,52.303295,5.326227,-0.952113,5.381113,20.649187,-29.688810,13.953295,-29.577579,-2.809878,4.760634,7.885486,20.131760,4.763673,-41.132092,0.000000,197.000000,4.000000,,,,0.000000,4.000000,4.000000,4.000000,4.000000,4.000000,4.000000,4.000000,4.000000,4.000000,4.000000,4.000000,4.000000,4.000000,4.000000,4.000000,4.000000,4.000000,4.000000,4.000000,4.000000,4.000000,4.000000,4.000000,4.000000,4.000000,4.000000,4.000000,4.000000,4.000000,4.000000,4.000000,4.000000,100.000000
1614489396.295028,92.000000,0.000000,5.744109,9.409151,-39.834137,0.153136,-3.461467,-1.499684,7.318874,3.178442,-38.718830,6.443793,3.043968,-1.369426,5.048663,4.331499,-8.624723,36.316978,4.539576,94.826813,53.276634,6.346542,-11.207572,1.273168,21.141359,-29.659122,11.888060,-31.086462,-3.832709,1.678951,5.313498,19.598808,4.246089,-40.578136,0.000000,184.000000,4.000000,,,,0.000000,4.000000,4.000000,4.000000,4.000000,4.000000,4.000000,4.000000,4.000000,4.000000,4.000000,4.000000,4.000000,4.000000,4.000000,4.000000,4.000000,4.000000,4.000000,4.000000,4.000000,4.000000,4.000000,4.000000,4.000000,4.000000,4.000000,4.000000,4.000000,4.000000,4.000000,4.000000,4.000000,100.000000
1614489396.302877,93.000000,0.000000,4.712724,9.912562,-35.691742,-6.000863,-3.458005,-1.498184,6.798735,3.688084,-49.449341,6.437349,-0.035999,-1.368057,4.017973,0.224603,-11.693022,37.306301,-2.131631,96.270447,53.736176,6.340195,-6.068159,3.835997,20.607397,-28.091002,12.901813,-33.619480,-1.777594,1.677272,4.282544,20.092030,6.805945,-40.537560,0.000000,170.000000,4.000000,,,,0.000000,4.000000,4.000000,4.000000,4.000000,4.000000,4.000000,4.000000,4.000000,4.000000,4.000000,4.000000,4.000000,4.000000,4.000000,4.000000,4.000000,4.000000,4.000000,4.000000,4.000000,4.000000,4.000000,4.000000,4.000000,4.000000,4.000000,4.000000,4.000000,4.000000,4.000000,4.000000,4.000000,100.000000
1614489396.310626,94.000000,0.000000,2.656729,9.902650,-41.809895,-16.251272,-3.454547,-1.496686,4.740654,1.633114,-50.938354,5.405271,-4.138527,-1.366689,2.988314,0.224379,-12.706970,31.627970,-2.129499,95.148537,51.118340,-4.435376,-4.523629,7.934725,20.586790,-32.678295,12.376090,-33.585857,0.275465,1.675595,4.791081,19.559116,3.722216,-40.497021,0.000000,207.000000,4.000000,,,,0.000000,4.000000,4.000000,4.000000,4.000000,4.000000,4.000000,4.000000,4.000000,4.000000,4.000000,4.000000,4.000000,4.000000,4.000000,4.000000,4.000000,4.000000,4.000000,4.000000,4.000000,4.000000,4.000000,4.000000,4.000000,4.000000,4.000000,4.000000,4.000000,4.000000,4.000000,4.000000,4.000000,100.000000
1614489396.318275,95.000000,0.000000,2.141252,6.303004,-43.306545,-13.670918,-3.451092,-1.495189,2.684631,-0.419801,-41.656647,5.912686,-7.724132,-1.365322,-1.117238,-0.288666,-14.745545,24.929674,-1.614549,93.514931,45.939014,-13.148890,-13.237054,1.260124,21.079023,-43.927670,9.799611,-36.629196,-1.263272,1.161098,4.786290,12.360070,-2.948173,-39.943707,0.000000,190.000000,4.000000,,,,0.000000,4.000000,4.000000,4.000000,4.000000,4.000000,4.000000,4.000000,4.000000,4.000000,4.000000,4.000000,4.000000,4.000000,4.000000,4.000000,4.000000,4.000000,4.000000,4.000000,4.000000,4.000000,4.000000,4.000000,4.000000,4.000000,4.000000,4.000000,4.000000,4.000000,4.000000,4.000000,4.000000,100.000000
1614489396.326024,96.000000,0.000000,2.651931,2.194137,-41.724777,-1.862376,-3.447641,-1.493694,3.194767,-0.932202,-41.614990,5.906773,-4.639485,-1.363957,-4.193044,1.250084,-9.602594,28.494488,-1.612935,91.882950,47.944359,-4.930612,-12.198176,-0.792418,19.519482,-45.422203,9.276991,-40.182312,-2.800470,1.672758,4.781504,5.168223,-2.945225,-39.903763,8064.000000,0.000000,4.000000,,,,0.000000,4.000000,4.000000,4.000000,4.000000,4.000000,4.000000,4.000000,4.000000,4.000000,4.000000,4.000000,4.000000,4.000000,4.000000,4.000000,4.000000,4.000000,4.000000,4.000000,4.000000,4.000000,4.000000,4.000000,4.000000,4.000000,4.000000,4.000000,4.000000,4.000000,4.000000,4.000000,4.000000,100.000000
1614489396.333673,97.000000,0.000000,2.649279,1.679122,-45.272797,-0.322052,-3.444194,-0.979380,3.704393,-0.418449,-49.265682,5.900867,1.519001,-1.362593,-1.624749,3.812937,-2.413505,33.594200,6.080986,92.303886,57.127182,3.792267,-6.032132,4.336579,17.448681,-37.684471,11.831817,-42.193409,-0.746387,1.671085,5.289543,2.598953,-7.557664,-39.351036,8064.000000,0.000000,4.000000,,,,0.000000,4.000000,4.000000,4.000000,4.000000,4.000000,4.000000,4.000000,4.000000,4.000000,4.000000,4.000000,4.000000,4.000000,4.000000,4.000000,4.000000,4.000000,4.000000,4.000000,4.000000,4.000000,4.000000,4.000000,4.000000,4.000000,4.000000,4.000000,4.000000,4.000000,4.000000,4.000000,4.000000,100.000000
1614489396.341422,98.000000,0.000000,2.646630,1.677443,-49.842911,-10.065320,-3.440750,-1.491221,3.187868,-0.418031,-51.267700,6.407786,4.081584,-1.361230,0.428158,4.834764,-2.411091,33.047783,12.741571,97.339790,60.659798,1.224373,-7.051741,6.383525,16.405592,-37.646790,12.845626,-45.740959,0.792821,2.182235,4.771433,1.057892,-12.165491,-41.362968,8064.000000,0.000000,4.000000,,,,0.000000,4.000000,4.000000,4.000000,4.000000,4.000000,4.000000,4.000000,4.000000,4.000000,4.000000,4.000000,4.000000,4.000000,4.000000,4.000000,4.000000,4.000000,4.000000,4.000000,4.000000,4.000000,4.000000,4.000000,4.000000,4.000000,4.000000,4.000000,4.000000,4.000000,4.000000,4.000000,4.000000,100.000000
1614489396.349271,99.000000,0.000000,2.643983,1.675766,-50.818707,-15.696280,-3.950130,-0.976909,3.184680,-0.417613,-50.703609,4.862916,4.590323,-1.359869,2.991832,4.317109,-2.921501,33.014736,14.780112,100.832191,61.624779,-1.853775,-6.531868,9.454064,16.902006,-40.686066,12.832781,-49.284962,0.279207,1.667232,5.279482,0.544014,0.154367,-46.449810,8064.000000,0.000000,4.000000,,,,0.000000,4.000000,4.000000,4.000000,4.000000,4.000000,4.000000,4.000000,4.000000,4.000000,4.000000,4.000000,4.000000,4.000000,4.000000,4.000000,4.000000,4.000000,4.000000,4.000000,4.000000,4.000000,4.000000,4.000000,4.000000,4.000000,4.000000,4.000000,4.000000,4.000000,4.000000,4.000000,4.000000,100.000000
1614489396.357020,100.000000,0.000000,2.641339,2.699731,-50.767887,-14.654943,-2.920538,-0.975932,3.694316,-0.417195,-50.652908,2.293951,3.047271,-1.358509,4.527302,4.825613,-2.405759,32.981720,14.252512,92.526230,58.999054,-2.364742,-3.448414,8.418969,17.397924,-40.645378,11.794307,-47.697216,0.278928,0.639924,5.787023,1.056290,4.256776,-53.070026,8064.000000,0.000000,4.000000,,,,0.000000,4.000000,4.000000,4.000000,4.000000,4.000000,4.000000,4.000000,4.000000,4.000000,4.000000,4.000000,4.000000,4.000000,4.000000,4.000000,4.000000,4.000000,4.000000,4.000000,4.000000,4.000000,4.000000,4.000000,4.000000,4.000000,4.000000,4.000000,4.000000,4.000000,4.000000,4.000000,4.000000,100.000000
1614489396.364670,101.000000,0.000000,2.638698,-1.405533,-50.204300,-14.640288,-4.456079,-5.077521,0.613698,-0.416778,-51.115074,1.778837,-5.160904,-1.357151,0.420211,3.282326,-6.505917,28.333355,7.058772,82.177299,45.606720,-4.413659,-10.111631,-8.512527,15.842065,-46.245758,8.192769,-48.162342,0.278649,-1.411999,1.165851,-3.560151,-13.696198,-59.170803,8064.000000,0.000000,4.000000,,,,0.000000,4.000000,4.000000,4.000000,4.000000,4.000000,4.000000,4.000000,4.000000,4.000000,4.000000,4.000000,4.000000,4.000000,4.000000,4.000000,4.000000,4.000000,4.000000,4.000000,4.000000,4.000000,4.000000,4.000000,4.000000,4.000000,4.000000,4.000000,4.000000,4.000000,4.000000,4.000000,4.000000,100.000000
1614489396.372419,102.000000,0.000000,2.636059,-4.993871,-49.641273,-18.728212,-7.528546,-9.175007,-5.540761,-0.416361,-53.628063,2.289878,-11.822410,-2.381435,-6.759696,-1.336341,-10.089155,25.228100,-3.717518,83.120758,38.381626,-5.947707,-18.306648,-19.273245,11.723660,-52.353359,4.082012,-51.703922,0.791191,-5.000330,-5.501981,-6.633514,-22.400452,-62.701378,8064.000000,0.000000,4.000000,,,,0.000000,4.000000,4.000000,4.000000,4.000000,4.000000,4.000000,4.000000,4.000000,4.000000,4.000000,4.000000,4.000000,4.000000,4.000000,4.000000,4.000000,4.000000,4.000000,4.000000,4.000000,4.000000,4.000000,4.000000,4.000000,4.000000,4.000000,4.000000,4.000000,4.000000,4.000000,4.000000,4.000000,100.000000
1614489396.380068,103.000000,0.000000,2.633423,0.139328,-54.207020,-19.735125,-6.495377,-9.165833,-8.612144,-0.415945,-54.600075,1.774768,-11.297767,-4.943156,-8.804219,-3.386287,-11.104707,27.766973,-6.790723,90.729950,49.625298,-5.428939,-18.801163,-14.125767,8.635013,-51.275364,4.077930,-48.575294,0.790400,-9.097894,-7.034941,-0.985855,-15.711384,-62.638676,8064.000000,0.000000,4.000000,,,,0.000000,4.000000,4.000000,4.000000,4.000000,4.000000,4.000000,4.000000,4.000000,4.000000,4.000000,4.000000,4.000000,4.000000,4.000000,4.000000,4.000000,4.000000,4.000000,4.000000,4.000000,4.000000,4.000000,4.000000,4.000000,4.000000,4.000000,4.000000,4.000000,4.000000,4.000000,4.000000,4.000000,100.000000
1614489396.387817,104.000000,0.000000,2.630790,6.805855,-52.614349,-12.023082,-1.360676,-9.156667,-5.526609,-0.415529,-48.904449,2.285814,-12.312110,-5.451033,-7.256953,-3.895721,-11.606422,29.277668,-5.245471,92.690498,57.780800,-4.910689,-18.269541,-15.137281,9.139198,-51.736908,5.099493,-41.860054,-0.748852,-9.601617,-6.002264,2.092054,-14.670032,-57.447830,8064.000000,0.000000,4.000000,,,,0.000000,4.000000,4.000000,4.000000,4.000000,4.000000,4.000000,4.000000,4.000000,4.000000,4.000000,4.000000,4.000000,4.000000,4.000000,4.000000,4.000000,4.000000,4.000000,4.000000,4.000000,4.000000,4.000000,4.000000,4.000000,4.000000,4.000000,4.000000,4.000000,4.000000,4.000000,4.000000,4.000000,100.000000
1614489396.395466,105.000000,0.000000,2.628159,6.286229,-36.664299,-1.241828,0.691967,-9.147510,-1.418518,-0.415113,-43.214520,4.847631,-9.735695,-2.368659,-7.249696,-4.404646,-5.953790,28.735569,-5.753046,88.495247,56.184559,-5.931419,-18.764091,-17.173426,9.642879,-50.659531,4.068752,-39.254089,0.277538,-9.592015,-6.509083,-0.986961,-11.578438,-46.108334,8064.000000,0.000000,4.000000,,,,0.000000,4.000000,4.000000,4.000000,4.000000,4.000000,4.000000,4.000000,4.000000,4.000000,4.000000,4.000000,4.000000,4.000000,4.000000,4.000000,4.000000,4.000000,4.000000,4.000000,4.000000,4.000000,4.000000,4.000000,4.000000,4.000000,4.000000,4.000000,4.000000,4.000000,4.000000,4.000000,4.000000,100.000000
1614489396.403215,106.000000,0.000000,2.625530,5.254302,-27.396866,-0.727766,0.178454,-4.522977,-0.391458,-0.414698,-42.658485,5.868424,2.581733,1.223453,-8.780908,4.317707,6.359856,30.758116,-5.234472,92.509315,61.256577,-2.848565,-12.591481,-4.848561,8.607595,-39.326820,4.064683,-40.240479,1.302901,-9.582423,-5.989753,-3.037256,-1.310449,-36.831455,8064.000000,0.000000,4.000000,,,,0.000000,4.000000,4.000000,4.000000,4.000000,4.000000,4.000000,4.000000,4.000000,4.000000,4.000000,4.000000,4.000000,4.000000,4.000000,4.000000,4.000000,4.000000,4.000000,4.000000,4.000000,4.000000,4.000000,4.000000,4.000000,4.000000,4.000000,4.000000,4.000000,4.000000,4.000000,4.000000,4.000000,100.000000
1614489396.410864,107.000000,0.000000,2.622905,6.274688,-34.548958,-7.393704,0.178276,-0.928711,-0.903888,-0.414283,-43.128647,6.375376,10.784279,2.247871,-7.233665,17.133902,12.507342,35.342743,-3.177956,109.339882,69.913269,7.410694,-4.373762,2.848595,9.111808,-28.518263,10.214465,-40.200237,-5.365068,-4.957456,-6.496584,-2.521398,-0.796319,-36.794624,8064.000000,0.000000,4.000000,,,,0.000000,4.000000,4.000000,4.000000,4.000000,4.000000,4.000000,4.000000,4.000000,4.000000,4.000000,4.000000,4.000000,4.000000,4.000000,4.000000,4.000000,4.000000,4.000000,4.000000,4.000000,4.000000,4.000000,4.000000,4.000000,4.000000,4.000000,4.000000,4.000000,4.000000,4.000000,4.000000,4.000000,100.000000
1614489396.418613,108.000000,0.000000,2.620282,6.268414,-39.642612,-6.873490,0.690918,-1.440603,0.122657,-0.413869,-42.572697,8.420282,11.799136,2.245623,-0.559765,20.706512,13.007655,40.948425,2.979068,122.051056,72.407455,17.146873,0.758817,2.332926,14.230902,-27.976925,18.409378,-39.647217,-9.975088,0.688527,-5.977267,-2.518877,-3.359625,-41.373211,8064.000000,0.000000,4.000000,,,,0.000000,4.000000,4.000000,4.000000,4.000000,4.000000,4.000000,4.000000,4.000000,4.000000,4.000000,4.000000,4.000000,4.000000,4.000000,4.000000,4.000000,4.000000,4.000000,4.000000,4.000000,4.000000,4.000000,4.000000,4.000000,4.000000,4.000000,4.000000,4.000000,4.000000,4.000000,4.000000,4.000000,100.000000
1614489396.426263,109.000000,0.000000,2.617662,6.262145,-36.526047,-0.199950,0.177406,-0.926342,-0.390286,-0.413455,-42.530125,10.463144,14.351439,2.243377,4.569000,19.147345,11.969007,45.010040,13.745319,119.877724,71.822227,18.155367,4.347802,12.587004,20.370518,-28.974588,20.955072,-40.120388,-3.298446,2.226300,-1.868726,-2.516358,-0.279342,-43.383121,8064.000000,0.000000,4.000000,,,,0.000000,4.000000,4.000000,4.000000,4.000000,4.000000,4.000000,4.000000,4.000000,4.000000,4.000000,4.000000,4.000000,4.000000,4.000000,4.000000,4.000000,4.000000,4.000000,4.000000,4.000000,4.000000,4.000000,4.000000,4.000000,4.000000,4.000000,4.000000,4.000000,4.000000,4.000000,4.000000,4.000000,100.000000
1614489396.434012,110.000000,0.000000,2.615044,5.743062,-37.002342,-1.225391,0.177229,2.151508,-0.389895,-0.413042,-43.000416,8.401400,12.798626,2.241134,4.051610,19.128197,4.777550,41.375286,17.321318,116.680923,67.135025,11.470545,2.804993,20.779545,21.375788,-27.407152,19.395655,-40.080269,1.833057,2.224074,1.722887,-2.513841,-2.843165,-42.826920,8064.000000,0.000000,4.000000,,,,0.000000,4.000000,4.000000,4.000000,4.000000,4.000000,4.000000,4.000000,4.000000,4.000000,4.000000,4.000000,4.000000,4.000000,4.000000,4.000000,4.000000,4.000000,4.000000,4.000000,4.000000,4.000000,4.000000,4.000000,4.000000,4.000000,4.000000,4.000000,4.000000,4.000000,4.000000,4.000000,4.000000,100.000000
1614489396.441661,111.000000,0.000000,2.612429,6.250140,-39.529442,-4.813910,-0.848589,2.662177,2.174597,0.613012,-42.444595,5.828895,5.606340,2.238893,3.534738,16.544966,-3.432355,34.154427,10.637330,111.948853,55.273018,3.766767,-3.864479,12.040816,20.328770,-29.943848,19.889080,-40.040188,-0.220058,2.734670,-0.330118,-2.511328,-6.942886,-43.296913,8064.000000,0.000000,4.000000,,,,0.000000,4.000000,4.000000,4.000000,4.000000,4.000000,4.000000,4.000000,4.000000,4.000000,4.000000,4.000000,4.000000,4.000000,4.000000,4.000000,4.000000,4.000000,4.000000,4.000000,4.000000,4.000000,4.000000,4.000000,4.000000,4.000000,4.000000,4.000000,4.000000,4.000000,4.000000,4.000000,4.000000,100.000000
1614489396.449410,112.000000,0.000000,2.609817,5.731070,-38.464272,-2.244993,0.177900,2.146694,3.710884,3.176502,-44.453430,5.823066,3.036632,2.236654,4.556844,10.374575,-3.428923,32.581810,6.011308,96.965111,47.012615,2.737359,-6.937538,4.336468,21.846903,-35.554928,20.382011,-40.000149,3.882726,-0.857808,-2.381070,-2.508816,-4.371841,-42.740795,8064.000000,0.000000,4.000000,,,,0.000000,4.000000,4.000000,4.000000,4.000000,4.000000,4.000000,4.000000,4.000000,4.000000,4.000000,4.000000,4.000000,4.000000,4.000000,4.000000,4.000000,4.000000,4.000000,4.000000,4.000000,4.000000,4.000000,4.000000,4.000000,4.000000,4.000000,4.000000,4.000000,4.000000,4.000000,4.000000,4.000000,100.000000
1614489396.457059,113.000000,0.000000,2.607207,1.622774,-39.451447,0.321355,0.690543,2.144547,1.143070,4.198967,-46.460262,6.330064,3.546416,2.234417,1.475364,6.261636,-2.912674,32.549229,6.005297,91.227119,49.529705,4.273083,-7.443420,5.870593,19.260954,-37.057835,17.284706,-39.960148,4.391664,-5.472334,-1.865869,-2.506308,-5.393110,-42.185234,8064.000000,0.000000,4.000000,,,,0.000000,4.000000,4.000000,4.000000,4.000000,4.000000,4.000000,4.000000,4.000000,4.000000,4.000000,4.000000,4.000000,4.000000,4.000000,4.000000,4.000000,4.000000,4.000000,4.000000,4.000000,4.000000,4.000000,4.000000,4.000000,4.000000,4.000000,4.000000,4.000000,4.000000,4.000000,4.000000,4.000000,100.000000
1614489396.464808,114.000000,0.000000,2.604600,-1.968592,-55.309433,-4.294351,-3.412712,2.142403,-2.960637,0.605024,-46.926620,3.759631,0.465946,1.719362,-3.654316,4.204093,-5.473864,30.978216,5.999291,103.443588,57.172485,4.781631,-7.948798,4.839082,10.523745,-36.507957,11.626396,-39.920189,-8.946061,-5.979683,-2.376823,-3.016622,-15.644127,-43.681511,8064.000000,0.000000,4.000000,,,,0.000000,4.000000,4.000000,4.000000,4.000000,4.000000,4.000000,4.000000,4.000000,4.000000,4.000000,4.000000,4.000000,4.000000,4.000000,4.000000,4.000000,4.000000,4.000000,4.000000,4.000000,4.000000,4.000000,4.000000,4.000000,4.000000,4.000000,4.000000,4.000000,4.000000,4.000000,4.000000,4.000000,100.000000
1614489396.472457,115.000000,0.000000,2.601995,-1.966624,-72.177200,-8.392621,-1.358017,2.140260,-5.008958,-4.010966,-46.879696,1.191769,-0.047340,1.717643,-5.189123,2.661427,-7.006851,32.485699,6.506113,107.442703,59.166595,5.802490,-7.428028,4.321422,4.872195,-40.061195,6.486565,-39.880268,-15.603782,-5.973703,-1.861626,-3.013605,-19.731047,-42.612186,8064.000000,0.000000,4.000000,,,,0.000000,4.000000,4.000000,4.000000,4.000000,4.000000,4.000000,4.000000,4.000000,4.000000,4.000000,4.000000,4.000000,4.000000,4.000000,4.000000,4.000000,4.000000,4.000000,4.000000,4.000000,4.000000,4.000000,4.000000,4.000000,4.000000,4.000000,4.000000,4.000000,4.000000,4.000000,4.000000,4.000000,100.000000
1614489396.480306,116.000000,0.000000,2.086572,-1.451836,-64.412712,-7.358587,7.874110,2.138120,-4.491128,-4.519775,-46.832813,4.267500,-3.124216,1.715925,-4.158293,3.684407,-7.512665,29.376291,3.935504,90.925011,50.902298,1.181303,-12.035985,7.906844,4.354502,-48.226261,4.941617,-41.378849,-13.024076,-6.480550,-0.321303,-1.984950,-18.172855,-42.056755,8064.000000,0.000000,4.000000,,,,0.000000,4.000000,4.000000,4.000000,4.000000,4.000000,4.000000,4.000000,4.000000,4.000000,4.000000,4.000000,4.000000,4.000000,4.000000,4.000000,4.000000,4.000000,4.000000,4.000000,4.000000,4.000000,4.000000,4.000000,4.000000,4.000000,4.000000,4.000000,4.000000,4.000000,4.000000,4.000000,4.000000,100.000000
1614489396.488056,117.000000,0.000000,2.597306,-1.963205,-42.809841,-7.864049,10.943159,2.135982,-3.460996,-4.002435,-46.273163,6.314515,-11.326221,2.227030,-4.154135,4.193542,-4.941050,21.141787,-1.196637,79.039207,42.133450,-11.127571,-19.716257,2.770732,1.273224,-54.331879,4.423854,-43.901573,-24.293102,-5.448428,-2.885084,-3.521427,-18.667501,-53.809570,8064.000000,0.000000,4.000000,,,,0.000000,4.000000,4.000000,4.000000,4.000000,4.000000,4.000000,4.000000,4.000000,4.000000,4.000000,4.000000,4.000000,4.000000,4.000000,4.000000,4.000000,4.000000,4.000000,4.000000,4.000000,4.000000,4.000000,4.000000,4.000000,4.000000,4.000000,4.000000,4.000000,4.000000,4.000000,4.000000,4.000000,100.000000
1614489396.495904,118.000000,0.000000,2.594709,-1.961242,-36.100365,-10.933108,5.291191,1.621026,-4.995997,-5.024074,-47.252529,4.256918,-6.186689,1.711982,-4.149981,3.676528,-0.833544,26.248850,0.343022,90.242226,48.757980,-11.629264,-13.029874,-3.898705,-2.830613,-48.123703,3.906610,-43.857670,-37.089321,-5.955801,-5.959122,-7.620470,-17.623194,-66.063454,8064.000000,0.000000,4.000000,,,,0.000000,4.000000,4.000000,4.000000,4.000000,4.000000,4.000000,4.000000,4.000000,4.000000,4.000000,4.000000,4.000000,4.000000,4.000000,4.000000,4.000000,4.000000,4.000000,4.000000,4.000000,4.000000,4.000000,4.000000,4.000000,4.000000,4.000000,4.000000,4.000000,4.000000,4.000000,4.000000,4.000000,100.000000
1614489396.503654,119.000000,0.000000,2.079294,-1.446460,-42.730930,-12.460637,2.721797,2.132225,-4.478180,-3.480588,-46.692455,7.842405,18.434883,4.787193,-0.556087,11.365160,0.705751,48.273884,5.470884,115.793007,71.273323,11.459289,6.470335,7.387245,-2.827782,-24.485834,8.005268,-41.249710,-27.308643,-6.975486,-6.978804,-4.023106,-12.477365,-60.356361,8064.000000,0.000000,4.000000,,,,0.000000,4.000000,4.000000,4.000000,4.000000,4.000000,4.000000,4.000000,4.000000,4.000000,4.000000,4.000000,4.000000,4.000000,4.000000,4.000000,4.000000,4.000000,4.000000,4.000000,4.000000,4.000000,4.000000,4.000000,4.000000,4.000000,4.000000,4.000000,4.000000,4.000000,4.000000,4.000000,4.000000,100.000000
1614489396.511503,120.000000,0.000000,3.102856,-1.445014,-45.252300,-9.371253,4.257536,4.694195,5.782708,1.138277,-40.491917,19.116613,33.288242,14.525996,9.700879,27.764051,0.705045,63.097404,6.491054,132.087463,90.176414,29.909369,19.284378,22.764473,6.405815,-2.922888,16.202391,-39.669998,-13.435181,1.236618,-5.946184,6.750148,-9.900785,-47.988316,8192.000000,0.000000,4.000000,,,,0.000000,4.000000,4.000000,4.000000,4.000000,4.000000,4.000000,4.000000,4.000000,4.000000,4.000000,4.000000,4.000000,4.000000,4.000000,4.000000,4.000000,4.000000,4.000000,4.000000,4.000000,4.000000,4.000000,4.000000,4.000000,4.000000,4.000000,4.000000,4.000000,4.000000,4.000000,4.000000,4.000000,100.000000
1614489396.519252,121.000000,0.000000,7.202317,-1.956389,-44.181408,-4.746497,6.304561,6.227962,15.520514,3.701241,-34.810398,25.764164,18.895979,22.716599,18.409126,31.326031,2.242801,56.367641,5.458922,124.775894,79.317001,20.135868,21.316376,23.767349,20.245564,-7.022529,18.237471,-39.630329,-12.908925,12.004612,0.726429,8.281859,-10.916526,-45.889042,8064.000000,0.000000,4.000000,,,,0.000000,4.000000,4.000000,4.000000,4.000000,4.000000,4.000000,4.000000,4.000000,4.000000,4.000000,4.000000,4.000000,4.000000,4.000000,4.000000,4.000000,4.000000,4.000000,4.000000,4.000000,4.000000,4.000000,4.000000,4.000000,4.000000,4.000000,4.000000,4.000000,4.000000,4.000000,4.000000,4.000000,100.000000
1614489396.527101,122.000000,0.000000,10.272038,-1.441612,-45.162868,-3.203289,7.323897,5.708914,12.940892,5.236001,-34.775589,24.712759,-2.148557,18.591318,16.339436,14.884448,-2.374826,40.413837,6.479104,106.702400,51.545380,2.167015,14.115572,20.153839,25.866343,-26.502686,16.167952,-40.616341,-14.947298,12.505428,8.418010,2.119732,-10.905609,-46.868797,8064.000000,0.000000,4.000000,,,,0.000000,4.000000,4.000000,4.000000,4.000000,4.000000,4.000000,4.000000,4.000000,4.000000,4.000000,4.000000,4.000000,4.000000,4.000000,4.000000,4.000000,4.000000,4.000000,4.000000,4.000000,4.000000,4.000000,4.000000,4.000000,4.000000,4.000000,4.000000,4.000000,4.000000,4.000000,4.000000,4.000000,100.000000
1614489396.534850,123.000000,0.000000,9.748945,0.611111,-45.117706,-3.712906,6.803753,5.703205,6.774105,7.282048,-35.253635,23.662405,-7.274614,11.393239,9.143609,4.100333,-7.500657,34.732399,4.934163,105.057236,45.852810,-1.937716,2.819405,19.108044,20.712271,-34.168491,15.638962,-38.524441,-13.393889,8.390359,8.409592,0.579150,-10.894704,-45.796284,8064.000000,0.000000,4.000000,,,,0.000000,4.000000,4.000000,4.000000,4.000000,4.000000,4.000000,4.000000,4.000000,4.000000,4.000000,4.000000,4.000000,4.000000,4.000000,4.000000,4.000000,4.000000,4.000000,4.000000,4.000000,4.000000,4.000000,4.000000,4.000000,4.000000,4.000000,4.000000,4.000000,4.000000,4.000000,4.000000,4.000000,100.000000
1614489396.542699,124.000000,0.000000,9.739196,2.148962,-43.021305,-3.709193,7.822590,5.697502,7.792972,7.274765,-34.705559,24.151564,-0.087852,9.843384,7.083184,6.660335,1.737613,44.954075,2.365127,115.208588,64.781311,-0.397317,3.329406,15.499192,16.588995,-23.877913,15.110503,-33.870533,-12.867675,9.920430,5.324259,2.117033,-10.883809,-45.750488,8064.000000,0.000000,4.000000,,,,0.000000,4.000000,4.000000,4.000000,4.000000,4.000000,4.000000,4.000000,4.000000,4.000000,4.000000,4.000000,4.000000,4.000000,4.000000,4.000000,4.000000,4.000000,4.000000,4.000000,4.000000,4.000000,4.000000,4.000000,4.000000,4.000000,4.000000,4.000000,4.000000,4.000000,4.000000,4.000000,4.000000,100.000000
1614489396.550448,125.000000,0.000000,10.242277,2.146813,-40.927002,-3.192664,7.814768,5.691804,5.221076,6.754671,-36.209316,21.050488,2.989159,4.705336,7.588921,6.653675,6.864081,49.524506,1.849941,112.016457,74.460121,-2.448202,7.941462,12.919590,17.085226,-17.700188,12.531290,-31.272560,-13.367627,9.910509,5.318935,1.089275,-10.872925,-45.704739,8064.000000,0.000000,4.000000,,,,0.000000,4.000000,4.000000,4.000000,4.000000,4.000000,4.000000,4.000000,4.000000,4.000000,4.000000,4.000000,4.000000,4.000000,4.000000,4.000000,4.000000,4.000000,4.000000,4.000000,4.000000,4.000000,4.000000,4.000000,4.000000,4.000000,4.000000,4.000000,4.000000,4.000000,4.000000,4.000000,4.000000,100.000000
1614489396.558297,126.000000,0.000000,9.719214,4.195948,-40.886074,-5.240753,4.730030,5.686113,-0.937991,6.747916,-38.737209,11.798669,-1.116394,-5.042960,7.068511,2.544457,-9.553040,37.680111,1.848091,97.545471,66.180534,-3.471395,-2.322890,12.393850,16.042500,-24.349155,10.467477,-32.266930,-15.918363,4.259573,5.313616,0.575365,-11.374872,-43.607754,8064.000000,0.000000,4.000000,,,,0.000000,4.000000,4.000000,4.000000,4.000000,4.000000,4.000000,4.000000,4.000000,4.000000,4.000000,4.000000,4.000000,4.000000,4.000000,4.000000,4.000000,4.000000,4.000000,4.000000,4.000000,4.000000,4.000000,4.000000,4.000000,4.000000,4.000000,4.000000,4.000000,4.000000,4.000000,4.000000,4.000000,100.000000
1614489396.566046,127.000000,0.000000,10.222316,6.243034,-41.870831,-7.286795,4.212480,5.680427,0.601408,6.741168,-38.698471,3.068921,-3.679380,-6.576378,7.061443,4.080374,-22.876820,27.898840,2.359063,95.396637,58.422047,-2.955103,-12.064157,6.740431,12.949534,-30.991472,11.482650,-32.234661,-17.953726,0.665570,5.308303,1.087610,-11.363498,-44.076965,8064.000000,0.000000,4.000000,,,,0.000000,4.000000,4.000000,4.000000,4.000000,4.000000,4.000000,4.000000,4.000000,4.000000,4.000000,4.000000,4.000000,4.000000,4.000000,4.000000,4.000000,4.000000,4.000000,4.000000,4.000000,4.000000,4.000000,4.000000,4.000000,4.000000,4.000000,4.000000,4.000000,4.000000,4.000000,4.000000,4.000000,100.000000
1614489396.573795,0.000000,0.000000,9.186453,6.236791,-40.803318,-7.792328,6.772369,5.674746,6.241833,6.734426,-38.146954,3.065852,-4.188521,-1.954417,6.028740,3.563473,-18.751379,27.870941,2.356704,97.352524,53.748241,-5.003429,-10.513631,1.092665,10.885303,-33.011765,11.983988,-31.689606,-15.884490,1.177725,4.790174,1.086522,-8.788032,-45.571350,0.000000,197.000000,4.000000,,,,0.000000,4.000000,4.000000,4.000000,4.000000,4.000000,4.000000,4.000000,4.000000,4.000000,4.000000,4.000000,4.000000,4.000000,4.000000,4.000000,4.000000,4.000000,4.000000,4.000000,4.000000,4.000000,4.000000,4.000000,4.000000,4.000000,4.000000,4.000000,4.000000,4.000000,4.000000,4.000000,4.000000,100.000000
1614489396.581544,1.000000,0.000000,7.125984,5.717734,-37.685593,-7.784536,6.252777,5.669072,5.209950,6.727692,-39.134449,4.601248,-4.184333,-1.952463,3.971430,2.534269,-11.040319,26.304607,1.841527,91.101326,50.617569,-6.024067,-12.041579,1.091572,9.335957,-36.568493,10.946362,-32.170738,-12.791683,1.689368,-0.342821,1.085436,-6.727962,-47.064240,0.000000,182.000000,4.000000,,,,0.000000,4.000000,4.000000,4.000000,4.000000,4.000000,4.000000,4.000000,4.000000,4.000000,4.000000,4.000000,4.000000,4.000000,4.000000,4.000000,4.000000,4.000000,4.000000,4.000000,4.000000,4.000000,4.000000,4.000000,4.000000,4.000000,4.000000,4.000000,4.000000,4.000000,4.000000,4.000000,4.000000,100.000000
1614489396.589193,2.000000,0.000000,5.580397,5.712016,-40.724831,-7.776752,3.682421,5.663403,2.640637,6.720964,-38.069672,5.109467,0.948056,-2.463331,2.941817,15.865067,0.765592,37.047535,2.865327,97.676895,59.284901,1.674265,-7.414153,0.577660,9.326620,-30.890900,11.961058,-31.625746,-15.342994,1.174858,-2.906581,1.084350,-7.746875,-45.478714,0.000000,199.000000,4.000000,,,,0.000000,4.000000,4.000000,4.000000,4.000000,4.000000,4.000000,4.000000,4.000000,4.000000,4.000000,4.000000,4.000000,4.000000,4.000000,4.000000,4.000000,4.000000,4.000000,4.000000,4.000000,4.000000,4.000000,4.000000,4.000000,4.000000,4.000000,4.000000,4.000000,4.000000,4.000000,4.000000,4.000000,100.000000
1614489396.596942,3.000000,0.000000,6.087637,5.706304,-48.376411,-5.717692,3.678739,5.657739,3.150817,6.714243,-37.518780,9.719743,10.177877,-1.435226,3.451696,22.515869,15.123801,57.523308,7.477846,116.553574,68.969208,16.031565,11.054800,2.115544,12.394217,-15.475394,20.667046,-31.594120,-17.378933,1.686504,-0.339572,1.083266,-6.200666,-37.740929,0.000000,185.000000,4.000000,,,,0.000000,4.000000,4.000000,4.000000,4.000000,4.000000,4.000000,4.000000,4.000000,4.000000,4.000000,4.000000,4.000000,4.000000,4.000000,4.000000,4.000000,4.000000,4.000000,4.000000,4.000000,4.000000,4.000000,4.000000,4.000000,4.000000,4.000000,4.000000,4.000000,4.000000,4.000000,4.000000,4.000000,100.000000
1614489396.604591,4.000000,0.000000,6.081549,5.700598,-47.302395,-4.173513,1.623778,5.652081,3.660487,6.707530,-43.122288,12.786945,10.680520,-1.433791,3.448244,6.595918,13.057395,56.440144,10.034471,111.308815,59.669468,17.553995,14.633489,10.831377,15.458746,-18.024021,27.313046,-32.588165,-15.310271,1.684817,0.173588,1.082183,-1.579081,-34.113441,0.000000,201.000000,4.000000,,,,0.000000,4.000000,4.000000,4.000000,4.000000,4.000000,4.000000,4.000000,4.000000,4.000000,4.000000,4.000000,4.000000,4.000000,4.000000,4.000000,4.000000,4.000000,4.000000,4.000000,4.000000,4.000000,4.000000,4.000000,4.000000,4.000000,4.000000,4.000000,4.000000,4.000000,4.000000,4.000000,4.000000,100.000000
1614489396.612340,5.000000,0.000000,6.075468,5.694897,-39.562786,-2.630878,-0.429128,5.646429,3.656826,6.700822,-46.156090,8.671595,2.977532,-1.432357,3.444796,-2.128627,2.787928,40.999088,10.024436,91.197510,42.686718,1.639005,-4.355504,12.871827,16.981749,-40.570099,24.208809,-31.529938,-14.782141,1.683132,-2.390688,1.081101,0.986601,-41.771637,0.000000,176.000000,4.000000,,,,0.000000,4.000000,4.000000,4.000000,4.000000,4.000000,4.000000,4.000000,4.000000,4.000000,4.000000,4.000000,4.000000,4.000000,4.000000,4.000000,4.000000,4.000000,4.000000,4.000000,4.000000,4.000000,4.000000,4.000000,4.000000,4.000000,4.000000,4.000000,4.000000,4.000000,4.000000,4.000000,4.000000,100.000000
1614489396.619990,6.000000,0.000000,6.069392,5.689202,-36.959118,1.474317,2.135404,5.640783,5.191631,6.694121,-39.443268,11.227026,0.410452,4.210101,3.441351,8.642733,6.374883,39.932446,10.014412,92.644768,44.182495,-6.054942,-11.017815,4.141007,15.426305,-48.221836,19.056395,-31.498407,-17.331461,1.681449,-2.901118,1.080020,-0.040027,-46.858070,0.000000,196.000000,4.000000,,,,0.000000,4.000000,4.000000,4.000000,4.000000,4.000000,4.000000,4.000000,4.000000,4.000000,4.000000,4.000000,4.000000,4.000000,4.000000,4.000000,4.000000,4.000000,4.000000,4.000000,4.000000,4.000000,4.000000,4.000000,4.000000,4.000000,4.000000,4.000000,4.000000,4.000000,4.000000,4.000000,4.000000,100.000000
1614489396.627739,7.000000,0.000000,6.063323,5.683513,-37.434982,4.549766,2.646089,6.147963,7.750542,7.200247,-39.403824,19.933748,6.051067,9.334096,3.950730,11.198192,15.086457,43.482258,9.491577,104.859818,59.010105,6.771626,0.275254,4.136866,13.359597,-29.712076,19.037338,-36.595116,-17.826950,2.192588,-1.872576,1.078940,-0.039987,-43.221470,0.000000,194.000000,4.000000,,,,0.000000,4.000000,4.000000,4.000000,4.000000,4.000000,4.000000,4.000000,4.000000,4.000000,4.000000,4.000000,4.000000,4.000000,4.000000,4.000000,4.000000,4.000000,4.000000,4.000000,4.000000,4.000000,4.000000,4.000000,4.000000,4.000000,4.000000,4.000000,4.000000,4.000000,4.000000,4.000000,4.000000,100.000000
1614489396.635388,8.000000,0.000000,6.057260,5.677830,-37.910366,4.032395,0.592161,4.090532,6.717151,5.654586,-49.108009,20.426634,9.121939,8.299121,3.946780,7.084430,17.635473,42.413136,9.994905,108.344704,66.643402,18.046906,5.916005,11.312217,13.346237,-15.323391,20.043941,-39.122623,-16.270662,1.677575,-2.383524,1.077861,0.472874,-41.639786,0.000000,181.000000,4.000000,,,,0.000000,4.000000,4.000000,4.000000,4.000000,4.000000,4.000000,4.000000,4.000000,4.000000,4.000000,4.000000,4.000000,4.000000,4.000000,4.000000,4.000000,4.000000,4.000000,4.000000,4.000000,4.000000,4.000000,4.000000,4.000000,4.000000,4.000000,4.000000,4.000000,4.000000,4.000000,4.000000,4.000000,100.000000
1614489396.643137,9.000000,0.000000,6.051202,6.184972,-37.359634,3.515542,-0.434072,2.035160,0.556587,4.110469,-47.007618,17.329285,3.984612,6.752360,0.865910,7.077345,8.899889,43.396362,10.497731,106.185074,60.935734,15.464756,4.371627,8.736801,12.820070,-20.436272,18.998257,-34.468113,-17.280033,1.675897,-2.381140,1.076783,0.472401,-42.110966,0.000000,184.000000,4.000000,,,,0.000000,4.000000,4.000000,4.000000,4.000000,4.000000,4.000000,4.000000,4.000000,4.000000,4.000000,4.000000,4.000000,4.000000,4.000000,4.000000,4.000000,4.000000,4.000000,4.000000,4.000000,4.000000,4.000000,4.000000,4.000000,4.000000,4.000000,4.000000,4.000000,4.000000,4.000000,4.000000,4.000000,100.000000
1614489396.650786,10.000000,0.000000,6.045151,5.665967,-33.219711,4.537668,0.079182,1.520304,-4.572175,4.619180,-33.114456,16.286314,-5.250142,3.668684,-3.750341,-4.211783,-12.647472,35.660660,5.359028,94.796837,54.208134,11.859548,1.290332,5.138321,12.807250,-32.210709,18.466438,-30.843903,-16.749931,2.699862,-2.378759,1.075706,-0.553713,-37.453472,0.000000,158.000000,4.000000,,,,0.000000,4.000000,4.000000,4.000000,4.000000,4.000000,4.000000,4.000000,4.000000,4.000000,4.000000,4.000000,4.000000,4.000000,4.000000,4.000000,4.000000,4.000000,4.000000,4.000000,4.000000,4.000000,4.000000,4.000000,4.000000,4.000000,4.000000,4.000000,4.000000,4.000000,4.000000,4.000000,4.000000,100.000000
