title:21, start timestamp:1614490467.926867, stop timestamp:1614490513.746282, headset type:EPOCFLEX, headset serial:F00001ED, headset firmware:f12, subject name:s14, channels:75, sampling rate:128, samples:5914      , version:2.0
Timestamp,EEG.Counter,EEG.Interpolated,EEG.Cz,EEG.Fz,EEG.Fp1,EEG.F7,EEG.F3,EEG.FC1,EEG.C3,EEG.FC5,EEG.FT9,EEG.T7,EEG.TP9,EEG.CP5,EEG.CP1,EEG.P3,EEG.P7,EEG.O1,EEG.Pz,EEG.Oz,EEG.O2,EEG.P8,EEG.P4,EEG.CP2,EEG.CP6,EEG.TP10,EEG.T8,EEG.FT10,EEG.FC6,EEG.C4,EEG.FC2,EEG.F4,EEG.F8,EEG.Fp2,EEG.HighBitFlex,EEG.RawCq,EEG.Battery,MarkerIndex,MarkerType,MarkerValueInt,EEG.MarkerHardware,CQ.Cz,CQ.Fz,CQ.Fp1,CQ.F7,CQ.F3,CQ.FC1,CQ.C3,CQ.FC5,CQ.FT9,CQ.T7,CQ.TP9,CQ.CP5,CQ.CP1,CQ.P3,CQ.P7,CQ.O1,CQ.Pz,CQ.Oz,CQ.O2,CQ.P8,CQ.P4,CQ.CP2,CQ.CP6,CQ.TP10,CQ.T8,CQ.FT10,CQ.FC6,CQ.C4,CQ.FC2,CQ.F4,CQ.F8,CQ.Fp2,CQ.Overall
1614490467.926867,15.000000,0.000000,-7.797314,-2.059685,-8.722401,-10.069742,-11.257154,-8.992816,-5.407299,-7.445131,-25.922234,-21.091972,-54.127861,-17.806286,-6.889611,-46.836338,-52.059967,-26.605522,-34.196011,-26.822538,-58.952682,-49.342121,-49.196842,-50.247913,-25.271246,-72.679665,-12.688367,-22.047192,-25.697985,-3.241537,-3.197322,-16.960348,-7.942893,-16.147923,0.000000,166.000000,4.000000,,,,0.000000,4.000000,4.000000,4.000000,4.000000,4.000000,4.000000,4.000000,4.000000,4.000000,4.000000,4.000000,4.000000,4.000000,4.000000,4.000000,4.000000,4.000000,4.000000,4.000000,4.000000,4.000000,4.000000,4.000000,4.000000,4.000000,4.000000,4.000000,4.000000,4.000000,4.000000,4.000000,4.000000,100.000000
1614490467.934516,16.000000,0.000000,-9.327978,-2.057625,-5.636755,10.965968,-10.733076,-8.983823,-4.376251,-5.899224,-18.204002,-14.404213,-33.560909,-14.198735,-7.395542,-40.122833,-22.777138,-11.194302,-34.161816,-9.359818,-37.868088,-25.703037,-46.583542,-59.941254,-24.733154,-60.812111,-11.137217,-19.973862,-13.877416,-2.725475,-3.194124,-16.943388,0.270179,-16.131773,0.000000,200.000000,4.000000,,,,0.000000,4.000000,4.000000,4.000000,4.000000,4.000000,4.000000,4.000000,4.000000,4.000000,4.000000,4.000000,4.000000,4.000000,4.000000,4.000000,4.000000,4.000000,4.000000,4.000000,4.000000,4.000000,4.000000,4.000000,4.000000,4.000000,4.000000,4.000000,4.000000,4.000000,4.000000,4.000000,4.000000,100.000000
1614490467.942266,17.000000,0.000000,-11.369932,-2.055567,-4.605477,15.057567,-8.671062,-8.974839,-6.423157,-4.354863,-16.134518,-7.210322,-14.552991,-4.953767,-5.336864,-19.569891,-7.369746,-10.157466,-26.435347,-4.735074,-20.907145,-15.420923,-40.383114,-43.471058,-15.990473,-44.853863,-11.126080,-18.415426,3.572359,-2.722750,-3.190930,-16.926443,2.834011,-16.628462,0.000000,169.000000,4.000000,,,,0.000000,4.000000,4.000000,4.000000,4.000000,4.000000,4.000000,4.000000,4.000000,4.000000,4.000000,4.000000,4.000000,4.000000,4.000000,4.000000,4.000000,4.000000,4.000000,4.000000,4.000000,4.000000,4.000000,4.000000,4.000000,4.000000,4.000000,4.000000,4.000000,4.000000,4.000000,4.000000,4.000000,100.000000
1614490467.949915,18.000000,0.000000,-8.281639,-2.053512,-4.600872,-3.931850,-7.123929,-8.965864,-4.878272,-4.350508,-25.861973,-7.715932,-0.692284,2.230674,0.309499,4.039422,-2.746992,3.186025,-4.357629,8.090175,-7.040083,-13.354220,-26.496574,-55.735279,-13.923201,-27.885933,-16.755980,-18.909832,10.235454,-3.232847,-3.187739,-16.909517,-1.784208,-16.611834,0.000000,194.000000,4.000000,,,,0.000000,4.000000,4.000000,4.000000,4.000000,4.000000,4.000000,4.000000,4.000000,4.000000,4.000000,4.000000,4.000000,4.000000,4.000000,4.000000,4.000000,4.000000,4.000000,4.000000,4.000000,4.000000,4.000000,4.000000,4.000000,4.000000,4.000000,4.000000,4.000000,4.000000,4.000000,4.000000,4.000000,100.000000
1614490467.957664,19.000000,0.000000,-4.170794,-2.051458,-4.596271,-14.697149,-7.629625,-8.956899,4.357376,-4.346158,-31.477137,-13.349241,15.205844,1.715622,5.950215,11.727690,6.486525,23.182838,12.569806,30.133366,12.966957,-2.571635,-1.854694,-74.653900,-15.447739,-2.217021,-15.713582,-18.890923,9.199577,-2.203974,-3.184551,-16.892609,0.781679,-15.569581,0.000000,192.000000,4.000000,,,,0.000000,4.000000,4.000000,4.000000,4.000000,4.000000,4.000000,4.000000,4.000000,4.000000,4.000000,4.000000,4.000000,4.000000,4.000000,4.000000,4.000000,4.000000,4.000000,4.000000,4.000000,4.000000,4.000000,4.000000,4.000000,4.000000,4.000000,4.000000,4.000000,4.000000,4.000000,4.000000,4.000000,100.000000
1614490467.965313,20.000000,0.000000,-3.653803,-2.049407,-5.104496,-11.092709,-7.621995,-8.947942,11.532505,-4.341812,-27.855915,-10.258969,27.498331,1.201086,7.995546,11.203142,12.121064,25.723759,15.121339,36.769901,20.133476,6.148885,19.685623,-50.989502,-7.227163,21.374939,-4.928638,-18.872032,10.216019,1.900795,-3.181367,-16.875715,7.447564,-17.605293,0.000000,198.000000,4.000000,,,,0.000000,4.000000,4.000000,4.000000,4.000000,4.000000,4.000000,4.000000,4.000000,4.000000,4.000000,4.000000,4.000000,4.000000,4.000000,4.000000,4.000000,4.000000,4.000000,4.000000,4.000000,4.000000,4.000000,4.000000,4.000000,4.000000,4.000000,4.000000,4.000000,4.000000,4.000000,4.000000,4.000000,100.000000
1614490467.973062,21.000000,0.000000,-4.162969,-2.047357,-8.689135,-12.107257,-7.614374,-9.451814,7.418409,-4.337470,-24.238316,-5.120505,30.034935,2.225526,7.987551,12.217580,10.570481,23.646753,16.131859,40.835693,18.062061,12.809402,30.947989,-27.348770,6.626218,29.558693,0.717317,-18.853159,8.667341,6.514278,-3.178186,-17.371660,3.337553,-20.151791,0.000000,185.000000,4.000000,,,,0.000000,4.000000,4.000000,4.000000,4.000000,4.000000,4.000000,4.000000,4.000000,4.000000,4.000000,4.000000,4.000000,4.000000,4.000000,4.000000,4.000000,4.000000,4.000000,4.000000,4.000000,4.000000,4.000000,4.000000,4.000000,4.000000,4.000000,4.000000,4.000000,4.000000,4.000000,4.000000,4.000000,100.000000
1614490467.980711,22.000000,0.000000,-4.158806,-2.045310,-9.193266,-13.633611,-7.606759,-7.903901,2.282785,-4.845953,-23.188437,-8.192307,25.902336,1.197660,7.979563,5.025875,9.021449,25.674389,17.654188,51.051270,21.120922,24.078646,35.019604,-50.398346,13.286259,29.529135,-0.309042,-18.834307,-1.084916,8.046226,-3.175007,-16.841469,-1.281170,-13.464972,0.000000,194.000000,4.000000,,,,0.000000,4.000000,4.000000,4.000000,4.000000,4.000000,4.000000,4.000000,4.000000,4.000000,4.000000,4.000000,4.000000,4.000000,4.000000,4.000000,4.000000,4.000000,4.000000,4.000000,4.000000,4.000000,4.000000,4.000000,4.000000,4.000000,4.000000,4.000000,4.000000,4.000000,4.000000,4.000000,4.000000,100.000000
1614490467.988460,23.000000,0.000000,-3.641827,-2.043265,-3.030226,-9.517413,-8.624794,-5.844715,2.280502,-4.841107,-23.165249,-13.312321,14.081561,1.196462,7.971584,-6.774023,0.294479,12.828201,16.098072,39.205345,16.484417,19.952002,23.702534,-81.117180,13.272972,24.884220,0.204088,-18.815472,-11.340241,8.551000,-3.171833,-16.311806,4.361137,-5.246379,0.000000,208.000000,4.000000,,,,0.000000,4.000000,4.000000,4.000000,4.000000,4.000000,4.000000,4.000000,4.000000,4.000000,4.000000,4.000000,4.000000,4.000000,4.000000,4.000000,4.000000,4.000000,4.000000,4.000000,4.000000,4.000000,4.000000,4.000000,4.000000,4.000000,4.000000,4.000000,4.000000,4.000000,4.000000,4.000000,4.000000,100.000000
1614490467.996110,24.000000,0.000000,-4.151006,-2.041221,-1.488735,-8.995075,-7.077707,-5.326049,2.791042,-3.810625,-23.142082,-13.299008,0.734146,1.195266,6.937971,-10.356992,-12.013508,-5.646166,12.492230,18.140499,0.570497,-0.580770,2.140369,-84.625801,9.669956,4.859336,-2.873039,-18.796656,-14.918645,8.542449,-3.168661,-17.321135,5.382417,-4.215492,0.000000,209.000000,4.000000,,,,0.000000,4.000000,4.000000,4.000000,4.000000,4.000000,4.000000,4.000000,4.000000,4.000000,4.000000,4.000000,4.000000,4.000000,4.000000,4.000000,4.000000,4.000000,4.000000,4.000000,4.000000,4.000000,4.000000,4.000000,4.000000,4.000000,4.000000,4.000000,4.000000,4.000000,4.000000,4.000000,4.000000,100.000000
1614490468.003959,25.000000,0.000000,-5.172496,-2.039180,-6.102631,-8.473260,-5.019348,-5.320724,1.762610,-4.832455,-22.093300,-12.772889,-5.420434,-1.370032,7.956674,-9.833815,-15.591238,-7.691802,8.377174,14.019794,-9.686484,-12.375061,-8.118181,-83.515533,0.942337,-20.786549,-7.485551,-18.777859,-11.826803,8.533907,-3.165492,-15.765352,-0.263991,-4.724097,0.000000,190.000000,4.000000,,,,0.000000,4.000000,4.000000,4.000000,4.000000,4.000000,4.000000,4.000000,4.000000,4.000000,4.000000,4.000000,4.000000,4.000000,4.000000,4.000000,4.000000,4.000000,4.000000,4.000000,4.000000,4.000000,4.000000,4.000000,4.000000,4.000000,4.000000,4.000000,4.000000,4.000000,4.000000,4.000000,4.000000,100.000000
1614490468.011708,26.000000,0.000000,-3.628862,-1.524320,-1.993964,-2.310940,-4.501508,-5.315403,1.760848,-5.853264,-23.096848,-13.272937,-11.568860,-2.907124,7.435897,-8.798340,-13.524364,-6.658469,4.779053,7.851929,-15.317823,-13.901148,-9.135704,-88.560226,-6.750913,-31.022173,-4.913963,-18.759081,-6.173951,8.012552,-3.162327,-10.621382,0.761914,-5.232193,0.000000,184.000000,4.000000,,,,0.000000,4.000000,4.000000,4.000000,4.000000,4.000000,4.000000,4.000000,4.000000,4.000000,4.000000,4.000000,4.000000,4.000000,4.000000,4.000000,4.000000,4.000000,4.000000,4.000000,4.000000,4.000000,4.000000,4.000000,4.000000,4.000000,4.000000,4.000000,4.000000,4.000000,4.000000,4.000000,4.000000,100.000000
1614490468.019457,27.000000,0.000000,-1.061130,-2.035617,10.828543,3.332397,-0.394442,-5.310087,2.271907,2.870538,-23.073751,-13.259664,-21.300880,-2.904217,2.813077,-9.815183,-14.023661,-15.369759,-1.892392,-8.566180,-22.994812,-16.964170,-15.793236,-78.728073,-7.769803,-30.991150,-6.447510,-18.740322,-2.065213,8.004539,-3.159164,-8.559479,3.838075,-9.842345,0.000000,211.000000,4.000000,,,,0.000000,4.000000,4.000000,4.000000,4.000000,4.000000,4.000000,4.000000,4.000000,4.000000,4.000000,4.000000,4.000000,4.000000,4.000000,4.000000,4.000000,4.000000,4.000000,4.000000,4.000000,4.000000,4.000000,4.000000,4.000000,4.000000,4.000000,4.000000,4.000000,4.000000,4.000000,4.000000,4.000000,100.000000
1614490468.027106,28.000000,0.000000,-3.111351,-2.546402,13.894637,2.816243,8.836721,-3.766316,1.756815,10.559976,-15.358369,-13.759224,-22.818041,-2.901313,0.246161,-11.343829,-16.060919,-16.892851,-11.634089,-14.198639,-26.561562,-20.024128,-23.469749,-66.854477,-6.736392,-35.062725,-16.184652,-18.721582,-2.063147,7.483715,-3.156005,-11.627842,-1.293968,-12.909427,0.000000,198.000000,4.000000,,,,0.000000,4.000000,4.000000,4.000000,4.000000,4.000000,4.000000,4.000000,4.000000,4.000000,4.000000,4.000000,4.000000,4.000000,4.000000,4.000000,4.000000,4.000000,4.000000,4.000000,4.000000,4.000000,4.000000,4.000000,4.000000,4.000000,4.000000,4.000000,4.000000,4.000000,4.000000,4.000000,4.000000,100.000000
1614490468.034955,29.000000,0.000000,-3.108240,-1.005394,9.265358,2.300607,11.904808,-1.711267,2.780699,4.908390,-7.650703,-9.642901,-13.051633,0.691332,4.348479,-0.563254,-7.326910,-8.670830,-9.571174,-12.645979,-26.022181,-20.516926,-21.394999,-78.582497,-8.268117,-35.027660,-20.271032,-18.190041,-2.061084,7.989051,-3.152849,-13.154675,-5.395238,-12.383697,0.000000,195.000000,4.000000,,,,0.000000,4.000000,4.000000,4.000000,4.000000,4.000000,4.000000,4.000000,4.000000,4.000000,4.000000,4.000000,4.000000,4.000000,4.000000,4.000000,4.000000,4.000000,4.000000,4.000000,4.000000,4.000000,4.000000,4.000000,4.000000,4.000000,4.000000,4.000000,4.000000,4.000000,4.000000,4.000000,4.000000,100.000000
1614490468.042704,30.000000,0.000000,4.074356,-3.055670,10.281734,2.811127,8.815980,-1.196736,7.393303,-0.224724,-8.668694,0.623152,6.448598,8.895769,8.446694,23.027052,12.167597,-1.995492,8.899936,-5.453846,-14.714107,-12.291280,-3.424885,-81.068016,-11.849593,-13.966992,-19.737940,-19.710312,-1.546203,8.493883,-3.149696,-13.141521,-4.877022,-12.371313,0.000000,188.000000,4.000000,,,,0.000000,4.000000,4.000000,4.000000,4.000000,4.000000,4.000000,4.000000,4.000000,4.000000,4.000000,4.000000,4.000000,4.000000,4.000000,4.000000,4.000000,4.000000,4.000000,4.000000,4.000000,4.000000,4.000000,4.000000,4.000000,4.000000,4.000000,4.000000,4.000000,4.000000,4.000000,4.000000,4.000000,100.000000
1614490468.050553,31.000000,0.000000,7.660025,-8.693640,11.297093,2.808316,7.268703,-1.708359,12.514115,5.416527,-14.813870,6.263555,27.467791,13.502258,7.925427,34.798897,22.924660,11.852657,23.250011,21.731094,11.967275,7.721011,22.219566,-48.166431,-8.760820,18.867487,-18.692562,-21.741884,-1.544657,7.972569,-3.146546,-13.128380,-4.872145,-12.358941,0.000000,184.000000,4.000000,,,,0.000000,4.000000,4.000000,4.000000,4.000000,4.000000,4.000000,4.000000,4.000000,4.000000,4.000000,4.000000,4.000000,4.000000,4.000000,4.000000,4.000000,4.000000,4.000000,4.000000,4.000000,4.000000,4.000000,4.000000,4.000000,4.000000,4.000000,4.000000,4.000000,4.000000,4.000000,4.000000,4.000000,100.000000
1614490468.058302,32.000000,0.000000,6.626724,-7.659306,6.157591,5.369610,7.261434,-1.706651,14.040062,6.436751,-16.337519,5.744471,34.619808,11.950294,7.404681,30.661535,19.824812,27.738241,22.713940,47.863209,36.570690,21.559444,35.017860,-16.836216,3.555633,39.361443,-8.930279,-22.745783,-2.568753,8.477416,-3.143400,-12.089610,-1.790350,-12.859403,8064.000000,0.000000,4.000000,,,,0.000000,4.000000,4.000000,4.000000,4.000000,4.000000,4.000000,4.000000,4.000000,4.000000,4.000000,4.000000,4.000000,4.000000,4.000000,4.000000,4.000000,4.000000,4.000000,4.000000,4.000000,4.000000,4.000000,4.000000,4.000000,4.000000,4.000000,4.000000,4.000000,4.000000,4.000000,4.000000,4.000000,100.000000
1614490468.066151,33.000000,0.000000,9.184199,0.040661,7.177074,9.466805,6.741352,-1.704944,13.000381,2.840571,-11.192976,6.251547,34.585190,12.451164,7.910097,29.092411,20.830629,32.838707,24.742508,55.507656,42.687969,23.589167,36.008480,-13.229636,17.911051,43.937466,4.411984,-22.210217,-1.540543,13.084324,-3.140256,-9.513418,4.365286,-12.846543,8064.000000,0.000000,4.000000,,,,0.000000,4.000000,4.000000,4.000000,4.000000,4.000000,4.000000,4.000000,4.000000,4.000000,4.000000,4.000000,4.000000,4.000000,4.000000,4.000000,4.000000,4.000000,4.000000,4.000000,4.000000,4.000000,4.000000,4.000000,4.000000,4.000000,4.000000,4.000000,4.000000,4.000000,4.000000,4.000000,4.000000,100.000000
1614490468.073900,34.000000,0.000000,10.200657,2.604723,12.810923,8.944517,7.247431,-1.190419,13.500201,2.837730,-7.079219,4.194013,36.601887,13.464355,8.415008,29.063318,21.835440,32.805870,29.333151,55.964966,35.978611,25.104038,38.536575,-14.242047,27.636730,41.842243,9.022957,-22.188005,1.025100,16.660982,-3.137116,-8.991084,7.437844,-11.295236,8064.000000,0.000000,4.000000,,,,0.000000,4.000000,4.000000,4.000000,4.000000,4.000000,4.000000,4.000000,4.000000,4.000000,4.000000,4.000000,4.000000,4.000000,4.000000,4.000000,4.000000,4.000000,4.000000,4.000000,4.000000,4.000000,4.000000,4.000000,4.000000,4.000000,4.000000,4.000000,4.000000,4.000000,4.000000,4.000000,4.000000,100.000000
1614490468.081749,35.000000,0.000000,5.062251,-0.987625,7.157086,3.294547,3.137620,-2.727690,9.896957,-1.267672,-14.251627,-3.502489,23.231951,7.297044,6.355310,16.213743,3.864886,27.644857,20.585869,42.575668,19.532377,20.463551,31.831373,-18.330370,27.096273,25.390146,7.475472,-22.165817,1.536895,12.028937,-3.133979,-9.494913,7.430406,-13.848042,8064.000000,0.000000,4.000000,,,,0.000000,4.000000,4.000000,4.000000,4.000000,4.000000,4.000000,4.000000,4.000000,4.000000,4.000000,4.000000,4.000000,4.000000,4.000000,4.000000,4.000000,4.000000,4.000000,4.000000,4.000000,4.000000,4.000000,4.000000,4.000000,4.000000,4.000000,4.000000,4.000000,4.000000,4.000000,4.000000,4.000000,100.000000
1614490468.089498,36.000000,0.000000,3.005906,-2.525099,-4.644943,-0.298491,-4.045005,-5.289065,0.143471,-8.445891,-22.955324,-9.140012,-2.432306,-2.453843,-0.317711,-2.264009,-18.703081,11.719777,6.206308,18.430529,1.564127,8.648215,14.363644,-28.055628,15.274305,0.749371,3.365433,-22.143652,2.048179,3.298959,-3.130845,-9.485418,5.371694,-19.475220,8064.000000,0.000000,4.000000,,,,0.000000,4.000000,4.000000,4.000000,4.000000,4.000000,4.000000,4.000000,4.000000,4.000000,4.000000,4.000000,4.000000,4.000000,4.000000,4.000000,4.000000,4.000000,4.000000,4.000000,4.000000,4.000000,4.000000,4.000000,4.000000,4.000000,4.000000,4.000000,4.000000,4.000000,4.000000,4.000000,4.000000,100.000000
1614490468.097347,37.000000,0.000000,3.515721,-1.496933,-4.640297,-1.323834,-4.553781,-5.796596,-5.497698,-7.411804,-18.829805,-9.643692,-11.660643,-3.477030,-3.907137,-10.979694,-20.735661,4.015749,3.635999,8.668509,-10.232308,-1.104023,5.631331,-32.642956,7.566723,-11.559071,0.797965,-22.121510,2.046131,-0.294083,-3.127714,-8.963113,3.315040,-17.917284,8064.000000,0.000000,4.000000,,,,0.000000,4.000000,4.000000,4.000000,4.000000,4.000000,4.000000,4.000000,4.000000,4.000000,4.000000,4.000000,4.000000,4.000000,4.000000,4.000000,4.000000,4.000000,4.000000,4.000000,4.000000,4.000000,4.000000,4.000000,4.000000,4.000000,4.000000,4.000000,4.000000,4.000000,4.000000,4.000000,4.000000,100.000000
1614490468.105096,38.000000,0.000000,1.973744,-2.008256,-0.020273,-1.835331,1.091799,-5.277979,-2.928098,-4.327469,-11.631488,-9.121228,-13.187444,0.116191,-3.903230,-9.943073,-13.535439,2.473272,2.606722,2.505995,-25.093870,-13.923431,-4.117889,-45.430828,10.636080,-24.368025,-0.228474,-22.099388,-0.520018,0.731852,-3.124587,-9.979791,3.824546,-12.771161,8064.000000,0.000000,4.000000,,,,0.000000,4.000000,4.000000,4.000000,4.000000,4.000000,4.000000,4.000000,4.000000,4.000000,4.000000,4.000000,4.000000,4.000000,4.000000,4.000000,4.000000,4.000000,4.000000,4.000000,4.000000,4.000000,4.000000,4.000000,4.000000,4.000000,4.000000,4.000000,4.000000,4.000000,4.000000,4.000000,4.000000,100.000000
1614490468.112945,39.000000,0.000000,3.510231,-2.006248,-1.045893,-0.807854,4.167630,-5.785522,-0.873888,-4.835962,-11.619856,-9.112107,-28.558872,1.141715,-4.924968,-8.907490,-16.086004,-11.375355,-9.703577,-18.009333,-45.068779,-34.422329,-26.677874,-67.436676,2.933136,-53.061604,-5.356451,-22.077288,-6.160523,0.731120,-3.121462,-9.969810,2.282259,-13.271211,8064.000000,0.000000,4.000000,,,,0.000000,4.000000,4.000000,4.000000,4.000000,4.000000,4.000000,4.000000,4.000000,4.000000,4.000000,4.000000,4.000000,4.000000,4.000000,4.000000,4.000000,4.000000,4.000000,4.000000,4.000000,4.000000,4.000000,4.000000,4.000000,4.000000,4.000000,4.000000,4.000000,4.000000,4.000000,4.000000,4.000000,100.000000
1614490468.120694,40.000000,0.000000,2.481080,-2.004242,-1.557668,-2.345508,2.112180,-5.266916,-1.898655,-4.318306,-12.121057,-10.641457,-38.786724,0.114933,-6.971325,-12.488325,-23.249407,-21.107569,-19.437464,-28.760553,-55.792938,-46.182777,-41.010170,-68.907707,-16.556976,-74.034187,-12.017761,-22.055210,-7.180004,-1.320893,-3.118340,-7.395739,-5.412331,-16.334862,8064.000000,0.000000,4.000000,,,,0.000000,4.000000,4.000000,4.000000,4.000000,4.000000,4.000000,4.000000,4.000000,4.000000,4.000000,4.000000,4.000000,4.000000,4.000000,4.000000,4.000000,4.000000,4.000000,4.000000,4.000000,4.000000,4.000000,4.000000,4.000000,4.000000,4.000000,4.000000,4.000000,4.000000,4.000000,4.000000,4.000000,100.000000
1614490468.128343,41.000000,0.000000,-8.290631,-2.002238,-1.043290,-10.035470,0.058786,-5.261649,-1.896756,-4.826808,-11.083295,-12.682096,-37.209476,0.627638,-7.477174,-15.039940,-26.303080,-17.496717,-20.443666,-24.629229,-55.737144,-42.546852,-41.994801,-70.377258,-23.719908,-70.883224,-12.518563,-22.033155,-5.121542,-2.858034,-3.115222,-5.337060,-8.483841,-15.805707,8064.000000,0.000000,4.000000,,,,0.000000,4.000000,4.000000,4.000000,4.000000,4.000000,4.000000,4.000000,4.000000,4.000000,4.000000,4.000000,4.000000,4.000000,4.000000,4.000000,4.000000,4.000000,4.000000,4.000000,4.000000,4.000000,4.000000,4.000000,4.000000,4.000000,4.000000,4.000000,4.000000,4.000000,4.000000,4.000000,4.000000,100.000000
1614490468.136092,42.000000,0.000000,-11.872085,-2.000235,-0.529426,-17.204922,-0.454093,-5.769207,-1.382039,-4.821981,-11.072211,-12.156594,-33.069702,4.216754,-7.982518,-5.794130,-21.148571,-15.427939,-17.346300,-23.066137,-46.963459,-34.811996,-39.388702,-93.383804,-21.644905,-57.479012,-11.993224,-22.011122,-7.167702,-3.367996,-3.112107,-6.870185,-5.398434,-15.277081,8064.000000,0.000000,4.000000,,,,0.000000,4.000000,4.000000,4.000000,4.000000,4.000000,4.000000,4.000000,4.000000,4.000000,4.000000,4.000000,4.000000,4.000000,4.000000,4.000000,4.000000,4.000000,4.000000,4.000000,4.000000,4.000000,4.000000,4.000000,4.000000,4.000000,4.000000,4.000000,4.000000,4.000000,4.000000,4.000000,4.000000,100.000000
1614490468.143941,43.000000,0.000000,0.447480,-1.998235,-0.528897,-15.649256,-0.453639,-4.737797,-1.380657,2.875148,-11.573959,-9.067514,-16.113554,8.315102,-2.333509,10.109099,-10.358192,-6.694563,-5.534081,-8.171277,-24.352394,-24.007956,-19.862137,-90.726318,-22.136082,-35.883072,-11.981232,-21.989111,-5.622073,-2.338987,-3.108995,-4.299212,-5.905856,-15.774625,8064.000000,0.000000,4.000000,,,,0.000000,4.000000,4.000000,4.000000,4.000000,4.000000,4.000000,4.000000,4.000000,4.000000,4.000000,4.000000,4.000000,4.000000,4.000000,4.000000,4.000000,4.000000,4.000000,4.000000,4.000000,4.000000,4.000000,4.000000,4.000000,4.000000,4.000000,4.000000,4.000000,4.000000,4.000000,4.000000,4.000000,100.000000
1614490468.151691,44.000000,0.000000,8.652161,-1.996237,-3.605291,-9.992580,-0.453185,-2.168957,-1.379276,10.564581,-11.562386,-9.058447,12.107687,9.332427,9.463696,15.227196,-4.706809,11.773670,9.343247,20.554844,-1.763939,-9.112152,10.926957,-61.404819,-16.472919,-4.052315,-5.302583,-22.479942,5.665600,0.227454,-1.567424,5.448677,-8.976873,-16.271669,8064.000000,0.000000,4.000000,,,,0.000000,4.000000,4.000000,4.000000,4.000000,4.000000,4.000000,4.000000,4.000000,4.000000,4.000000,4.000000,4.000000,4.000000,4.000000,4.000000,4.000000,4.000000,4.000000,4.000000,4.000000,4.000000,4.000000,4.000000,4.000000,4.000000,4.000000,4.000000,4.000000,4.000000,4.000000,4.000000,4.000000,100.000000
1614490468.159340,45.000000,0.000000,6.592227,-1.994241,-5.140147,-2.803101,-0.965553,-1.141147,-1.377897,6.964272,-11.550823,-9.562209,21.839169,8.297454,12.018334,13.673507,-5.214922,15.864461,15.487750,33.354801,4.904491,0.127730,22.710901,-64.420341,-3.123113,15.951737,2.907847,-21.944641,13.865063,3.304150,0.485425,10.571433,-8.455076,-16.255398,8064.000000,0.000000,4.000000,,,,0.000000,4.000000,4.000000,4.000000,4.000000,4.000000,4.000000,4.000000,4.000000,4.000000,4.000000,4.000000,4.000000,4.000000,4.000000,4.000000,4.000000,4.000000,4.000000,4.000000,4.000000,4.000000,4.000000,4.000000,4.000000,4.000000,4.000000,4.000000,4.000000,4.000000,4.000000,4.000000,4.000000,100.000000
1614490468.167089,46.000000,0.000000,6.585634,-1.992246,-3.083725,0.276626,-0.451767,-1.652826,-1.376519,2.854744,-11.539272,-6.988544,20.791689,9.314797,5.852470,15.711115,-3.158425,13.797314,18.036366,34.859909,5.925228,2.178884,21.662550,-76.150787,2.521036,17.987068,4.443401,-21.922697,9.748633,4.839307,0.997760,5.945477,-7.420980,-14.700682,8064.000000,0.000000,4.000000,,,,0.000000,4.000000,4.000000,4.000000,4.000000,4.000000,4.000000,4.000000,4.000000,4.000000,4.000000,4.000000,4.000000,4.000000,4.000000,4.000000,4.000000,4.000000,4.000000,4.000000,4.000000,4.000000,4.000000,4.000000,4.000000,4.000000,4.000000,4.000000,4.000000,4.000000,4.000000,4.000000,4.000000,100.000000
1614490468.174738,47.000000,0.000000,7.604690,-1.990254,-9.747308,-5.877497,-0.451315,-1.651174,-0.862322,3.364710,-11.527733,-11.084120,22.822180,8.792663,4.308156,10.054379,-3.668087,19.937363,15.454226,37.389149,8.996225,2.689526,24.204990,-57.100281,2.518515,18.481901,3.413317,-22.413595,4.610680,4.834468,0.996763,4.913890,-7.926380,-15.711622,8064.000000,0.000000,4.000000,,,,0.000000,4.000000,4.000000,4.000000,4.000000,4.000000,4.000000,4.000000,4.000000,4.000000,4.000000,4.000000,4.000000,4.000000,4.000000,4.000000,4.000000,4.000000,4.000000,4.000000,4.000000,4.000000,4.000000,4.000000,4.000000,4.000000,4.000000,4.000000,4.000000,4.000000,4.000000,4.000000,4.000000,100.000000
1614490468.182487,48.000000,0.000000,5.032982,-2.501084,-15.378586,-6.384440,-0.450864,-1.649522,-1.374280,0.797243,-11.516206,-19.278164,12.030127,6.732587,5.329489,-3.289009,-11.869548,13.250759,3.643900,25.556889,3.859024,2.174016,15.462836,-59.607285,2.003176,10.771111,3.409903,-21.365541,5.631710,4.316813,-1.568337,12.601284,-6.892812,-16.721552,8064.000000,0.000000,4.000000,,,,0.000000,4.000000,4.000000,4.000000,4.000000,4.000000,4.000000,4.000000,4.000000,4.000000,4.000000,4.000000,4.000000,4.000000,4.000000,4.000000,4.000000,4.000000,4.000000,4.000000,4.000000,4.000000,4.000000,4.000000,4.000000,4.000000,4.000000,4.000000,4.000000,4.000000,4.000000,4.000000,4.000000,100.000000
1614490468.190136,49.000000,0.000000,2.976667,-0.960122,-2.029874,3.878354,-0.450413,-1.647873,-0.860085,-0.742016,-11.504689,-17.720425,-6.956263,5.700214,-0.316866,-7.901105,-19.037165,-2.147107,-6.103333,5.531332,-8.452527,-1.930723,-4.552627,-91.855370,1.488352,-11.290942,4.432135,-17.241611,5.113258,5.338138,-3.105230,19.255350,-4.321817,-8.499701,8064.000000,0.000000,4.000000,,,,0.000000,4.000000,4.000000,4.000000,4.000000,4.000000,4.000000,4.000000,4.000000,4.000000,4.000000,4.000000,4.000000,4.000000,4.000000,4.000000,4.000000,4.000000,4.000000,4.000000,4.000000,4.000000,4.000000,4.000000,4.000000,4.000000,4.000000,4.000000,4.000000,4.000000,4.000000,4.000000,4.000000,100.000000
1614490468.197885,50.000000,0.000000,1.948050,1.092120,9.254207,4.900117,-0.449962,-1.646225,-0.346405,1.822829,-10.980364,-12.574499,-17.205717,1.591950,-6.470395,-10.457306,-26.710436,-7.273165,-10.199795,-4.730609,-24.341511,-14.236485,-17.368587,-82.532745,3.025325,-32.305290,3.914882,-14.147447,1.518401,3.281517,-2.589304,20.261736,-3.804675,-1.311715,8064.000000,0.000000,4.000000,,,,0.000000,4.000000,4.000000,4.000000,4.000000,4.000000,4.000000,4.000000,4.000000,4.000000,4.000000,4.000000,4.000000,4.000000,4.000000,4.000000,4.000000,4.000000,4.000000,4.000000,4.000000,4.000000,4.000000,4.000000,4.000000,4.000000,4.000000,4.000000,4.000000,4.000000,4.000000,4.000000,4.000000,100.000000
1614490468.205535,51.000000,0.000000,-0.105181,0.065387,1.039824,-6.899655,-0.449512,-1.644579,-4.961443,-1.768738,-12.507845,-18.202950,-32.573128,-5.589129,-10.566489,-23.267363,-44.119621,-19.060764,-22.497288,-18.572033,-47.394093,-34.222248,-27.094809,-49.629700,-1.080264,-47.144783,-3.781341,-14.133299,0.491242,-2.362790,-4.637997,18.190191,-6.364973,-9.515532,8064.000000,0.000000,4.000000,,,,0.000000,4.000000,4.000000,4.000000,4.000000,4.000000,4.000000,4.000000,4.000000,4.000000,4.000000,4.000000,4.000000,4.000000,4.000000,4.000000,4.000000,4.000000,4.000000,4.000000,4.000000,4.000000,4.000000,4.000000,4.000000,4.000000,4.000000,4.000000,4.000000,4.000000,4.000000,4.000000,4.000000,100.000000
1614490468.213284,52.000000,0.000000,-1.130716,-1.985960,-6.653523,-14.072243,-0.449063,-1.642934,-11.110328,-8.433636,-14.546619,-26.902697,-50.489273,-10.198925,-14.145666,-32.474865,-60.998581,-39.554523,-34.782482,-35.989357,-65.295418,-44.957256,-36.298481,-53.169811,-18.515081,-58.892509,-14.033970,-14.631986,1.003571,-6.975812,-9.761564,14.582258,-8.409889,-20.275246,8064.000000,0.000000,4.000000,,,,0.000000,4.000000,4.000000,4.000000,4.000000,4.000000,4.000000,4.000000,4.000000,4.000000,4.000000,4.000000,4.000000,4.000000,4.000000,4.000000,4.000000,4.000000,4.000000,4.000000,4.000000,4.000000,4.000000,4.000000,4.000000,4.000000,4.000000,4.000000,4.000000,4.000000,4.000000,4.000000,4.000000,100.000000
1614490468.220933,53.000000,0.000000,-0.616765,-1.983974,-4.082767,-12.006888,-0.448614,-1.641291,-13.150499,-8.938023,-15.557714,-27.901434,-48.900322,-10.701547,-14.644341,-30.903927,-62.988865,-43.617535,-32.183598,-38.004650,-65.742943,-43.886658,-34.723721,-70.552544,-28.752977,-60.884899,-15.558397,-14.104533,1.515388,-6.456016,-8.726162,12.003573,-7.375839,-20.254971,8064.000000,0.000000,4.000000,,,,0.000000,4.000000,4.000000,4.000000,4.000000,4.000000,4.000000,4.000000,4.000000,4.000000,4.000000,4.000000,4.000000,4.000000,4.000000,4.000000,4.000000,4.000000,4.000000,4.000000,4.000000,4.000000,4.000000,4.000000,4.000000,4.000000,4.000000,4.000000,4.000000,4.000000,4.000000,4.000000,4.000000,100.000000
1614490468.228682,54.000000,0.000000,-0.616148,-1.469170,-4.078684,-6.866676,-0.448165,-1.639650,-11.598887,-7.390623,-15.029336,-26.335072,-40.133472,-9.665204,-11.039953,-26.770458,-50.105362,-37.932892,-26.510387,-36.941006,-64.651558,-43.842770,-31.612076,-49.456345,-23.083199,-60.824013,-15.542839,-14.603250,1.001052,-5.936739,-5.640512,11.478749,-4.804360,-18.183434,8064.000000,0.000000,4.000000,,,,0.000000,4.000000,4.000000,4.000000,4.000000,4.000000,4.000000,4.000000,4.000000,4.000000,4.000000,4.000000,4.000000,4.000000,4.000000,4.000000,4.000000,4.000000,4.000000,4.000000,4.000000,4.000000,4.000000,4.000000,4.000000,4.000000,4.000000,4.000000,4.000000,4.000000,4.000000,4.000000,4.000000,100.000000
1614490468.236331,55.000000,0.000000,-0.615532,-1.980521,-4.587426,-1.731604,-0.447717,-1.638010,-9.023186,-8.408874,-15.014306,-22.718992,-34.452312,-7.091436,-10.516092,-19.564201,-32.106537,-30.715469,-25.458237,-36.391243,-66.638191,-44.824570,-33.118927,-25.817146,-20.496012,-60.763191,-16.552937,-14.588646,1.000051,-8.494905,-8.198975,11.467270,-4.286735,-17.652430,8064.000000,0.000000,4.000000,,,,0.000000,4.000000,4.000000,4.000000,4.000000,4.000000,4.000000,4.000000,4.000000,4.000000,4.000000,4.000000,4.000000,4.000000,4.000000,4.000000,4.000000,4.000000,4.000000,4.000000,4.000000,4.000000,4.000000,4.000000,4.000000,4.000000,4.000000,4.000000,4.000000,4.000000,4.000000,4.000000,4.000000,100.000000
1614490468.244080,56.000000,0.000000,-0.614917,-1.978541,-1.505915,-3.781155,-0.960090,-2.149193,-7.988522,-7.374824,-15.512113,-17.568068,-19.546064,-2.981781,-11.018397,-10.313869,-20.279560,-14.274498,-18.766111,-16.354853,-48.110012,-35.548977,-21.803755,-41.175945,-21.501158,-42.240887,-10.895358,-14.574058,3.563154,-6.435128,-6.139493,11.968623,-4.282449,-15.583496,8064.000000,0.000000,4.000000,,,,0.000000,4.000000,4.000000,4.000000,4.000000,4.000000,4.000000,4.000000,4.000000,4.000000,4.000000,4.000000,4.000000,4.000000,4.000000,4.000000,4.000000,4.000000,4.000000,4.000000,4.000000,4.000000,4.000000,4.000000,4.000000,4.000000,4.000000,4.000000,4.000000,4.000000,4.000000,4.000000,4.000000,100.000000
1614490468.251729,57.000000,0.000000,-0.614302,-1.976562,-0.478769,-8.392758,-0.959130,-1.634223,-11.570277,-4.290525,-14.983780,-16.524858,-4.654724,-1.953158,-9.981737,-8.252273,-18.207998,-0.414070,-9.516576,7.764067,-16.267029,-21.667273,-3.320413,-63.698872,-11.736066,-13.480698,-4.217796,-14.559484,7.662155,0.237974,2.584595,14.520758,-4.278166,-16.080732,8064.000000,0.000000,4.000000,,,,0.000000,4.000000,4.000000,4.000000,4.000000,4.000000,4.000000,4.000000,4.000000,4.000000,4.000000,4.000000,4.000000,4.000000,4.000000,4.000000,4.000000,4.000000,4.000000,4.000000,4.000000,4.000000,4.000000,4.000000,4.000000,4.000000,4.000000,4.000000,4.000000,4.000000,4.000000,4.000000,4.000000,100.000000
1614490468.259578,58.000000,0.000000,-0.613687,-1.974585,-0.991110,-8.384365,-0.445350,-1.119768,-15.661271,-4.286235,-14.968796,-19.585257,-4.650070,-2.976846,-12.023038,-11.320943,-19.215431,-0.926476,-8.481419,9.807585,-4.968711,-14.466119,1.298292,-63.635174,-0.955099,-2.697987,-8.316143,-14.544924,9.705774,-1.813546,1.556369,16.044699,-4.273888,-15.551831,8064.000000,0.000000,4.000000,,,,0.000000,4.000000,4.000000,4.000000,4.000000,4.000000,4.000000,4.000000,4.000000,4.000000,4.000000,4.000000,4.000000,4.000000,4.000000,4.000000,4.000000,4.000000,4.000000,4.000000,4.000000,4.000000,4.000000,4.000000,4.000000,4.000000,4.000000,4.000000,4.000000,4.000000,4.000000,4.000000,4.000000,100.000000
1614490468.267327,59.000000,0.000000,-0.613074,-1.972611,-0.990119,-9.401622,-0.957725,-2.657110,-16.158430,-4.794769,-15.979468,-20.591312,-6.183881,-2.461048,-14.575117,-11.309622,-18.170576,-1.438370,-11.037040,4.156752,-8.040665,-9.323447,-0.754288,-61.007435,-4.031067,-6.285032,-12.410391,-14.530379,9.183249,-6.939938,-6.137495,16.541473,-1.705511,-11.433716,8064.000000,0.000000,4.000000,,,,0.000000,4.000000,4.000000,4.000000,4.000000,4.000000,4.000000,4.000000,4.000000,4.000000,4.000000,4.000000,4.000000,4.000000,4.000000,4.000000,4.000000,4.000000,4.000000,4.000000,4.000000,4.000000,4.000000,4.000000,4.000000,4.000000,4.000000,4.000000,4.000000,4.000000,4.000000,4.000000,4.000000,100.000000
1614490468.275176,60.000000,0.000000,-0.612461,-1.970638,-0.989129,-6.315297,-0.956768,-1.115991,-16.142271,-1.713052,-14.425027,-13.904056,-1.049492,0.105515,-11.996440,-6.170107,-13.537020,5.742555,-5.897797,15.947467,0.172504,-1.108996,5.400312,-62.484890,-9.668062,-2.689003,-5.218493,-14.515849,7.635603,2.297772,-3.567255,17.037752,1.373117,-8.345359,8064.000000,0.000000,4.000000,,,,0.000000,4.000000,4.000000,4.000000,4.000000,4.000000,4.000000,4.000000,4.000000,4.000000,4.000000,4.000000,4.000000,4.000000,4.000000,4.000000,4.000000,4.000000,4.000000,4.000000,4.000000,4.000000,4.000000,4.000000,4.000000,4.000000,4.000000,4.000000,4.000000,4.000000,4.000000,4.000000,4.000000,100.000000
1614490468.282925,61.000000,0.000000,-0.099028,-1.968668,-0.988140,5.485890,3.659574,4.526150,-12.536386,3.416867,-10.308038,-2.095279,2.541301,1.643871,-5.317777,-0.522912,-5.318355,13.941941,1.800408,29.264853,6.326178,5.045959,12.574399,-62.422405,-6.581471,1.416250,4.017495,-14.501333,9.679250,15.628807,2.077338,20.097639,3.935847,-7.311372,8064.000000,0.000000,4.000000,,,,0.000000,4.000000,4.000000,4.000000,4.000000,4.000000,4.000000,4.000000,4.000000,4.000000,4.000000,4.000000,4.000000,4.000000,4.000000,4.000000,4.000000,4.000000,4.000000,4.000000,4.000000,4.000000,4.000000,4.000000,4.000000,4.000000,4.000000,4.000000,4.000000,4.000000,4.000000,4.000000,4.000000,100.000000
1614490468.290774,62.000000,0.000000,-2.150211,-1.966699,-0.987152,9.582968,10.322581,4.521624,-6.370003,7.003193,-7.220807,-1.067543,-0.538163,1.129407,-2.235536,-1.548030,-4.800216,12.389538,0.260146,20.004818,-13.167328,2.476811,4.869517,-81.847160,-0.933864,-13.456962,0.936554,-14.486832,9.156750,15.613178,-0.488842,20.077541,3.419090,-8.329702,8064.000000,0.000000,4.000000,,,,0.000000,4.000000,4.000000,4.000000,4.000000,4.000000,4.000000,4.000000,4.000000,4.000000,4.000000,4.000000,4.000000,4.000000,4.000000,4.000000,4.000000,4.000000,4.000000,4.000000,4.000000,4.000000,4.000000,4.000000,4.000000,4.000000,4.000000,4.000000,4.000000,4.000000,4.000000,4.000000,4.000000,100.000000
1614490468.298523,63.000000,0.000000,-4.199343,-2.477553,-0.986165,3.932359,9.286617,-0.611103,-6.363633,6.996190,-7.726407,-11.835707,-9.255574,0.102636,-4.284582,-10.777251,-15.564647,-1.981826,-7.945242,-2.066468,-31.102879,-9.833358,-15.135352,-114.073006,-1.958571,-35.494785,-10.346434,-14.472344,-0.595996,6.366796,-4.078096,10.826694,-0.174072,-13.449577,8064.000000,0.000000,4.000000,,,,0.000000,4.000000,4.000000,4.000000,4.000000,4.000000,4.000000,4.000000,4.000000,4.000000,4.000000,4.000000,4.000000,4.000000,4.000000,4.000000,4.000000,4.000000,4.000000,4.000000,4.000000,4.000000,4.000000,4.000000,4.000000,4.000000,4.000000,4.000000,4.000000,4.000000,4.000000,4.000000,4.000000,100.000000
1614490468.306372,64.000000,0.000000,-4.707964,-1.962255,-2.010819,2.389966,5.687587,-2.661774,-11.998295,5.450732,-8.231501,-16.439255,-16.425806,1.640995,-6.331580,-15.894679,-26.831133,-14.287537,-11.014220,-11.295171,-30.558956,-22.131218,-30.504833,-115.497398,-8.110458,-41.100319,-15.977113,-14.970693,-6.749247,-0.306238,-3.561198,5.174841,-4.789283,-15.487410,0.000000,197.000000,4.000000,,,,0.000000,4.000000,4.000000,4.000000,4.000000,4.000000,4.000000,4.000000,4.000000,4.000000,4.000000,4.000000,4.000000,4.000000,4.000000,4.000000,4.000000,4.000000,4.000000,4.000000,4.000000,4.000000,4.000000,4.000000,4.000000,4.000000,4.000000,4.000000,4.000000,4.000000,4.000000,4.000000,4.000000,100.000000
1614490468.314122,65.000000,0.000000,-4.703256,0.603810,-1.495988,2.387575,7.220361,-1.120650,-12.499118,3.906820,-7.197628,-15.397175,-17.435020,0.613713,-6.838068,-12.801861,-28.855583,-15.298890,-9.464745,-9.232594,-38.733524,-31.852676,-32.012791,-85.638306,-10.153630,-42.597679,-14.935494,-13.417260,0.436990,-2.870034,-2.531996,12.861975,-4.784494,-10.343718,0.000000,186.000000,4.000000,,,,0.000000,4.000000,4.000000,4.000000,4.000000,4.000000,4.000000,4.000000,4.000000,4.000000,4.000000,4.000000,4.000000,4.000000,4.000000,4.000000,4.000000,4.000000,4.000000,4.000000,4.000000,4.000000,4.000000,4.000000,4.000000,4.000000,4.000000,4.000000,4.000000,4.000000,4.000000,4.000000,4.000000,100.000000
1614490468.321971,66.000000,0.000000,-3.672911,2.141668,0.043969,-3.768658,6.187500,-1.632350,-11.973798,1.338811,-7.703251,-19.484343,-19.468868,-5.027926,-6.831231,-13.301880,-26.262627,-13.232309,-10.993741,-13.838746,-59.207611,-42.590054,-32.493595,-75.809082,-8.605015,-56.914055,-15.433380,-10.839741,5.564758,-3.379984,-3.042284,20.541420,-4.266889,-9.307733,0.000000,193.000000,4.000000,,,,0.000000,4.000000,4.000000,4.000000,4.000000,4.000000,4.000000,4.000000,4.000000,4.000000,4.000000,4.000000,4.000000,4.000000,4.000000,4.000000,4.000000,4.000000,4.000000,4.000000,4.000000,4.000000,4.000000,4.000000,4.000000,4.000000,4.000000,4.000000,4.000000,4.000000,4.000000,4.000000,4.000000,100.000000
1614490468.329720,67.000000,0.000000,-2.643598,0.601065,-4.058639,-5.816172,2.078748,-2.143538,-12.987465,-1.226631,-8.721189,-25.105883,-23.551964,-5.535718,-6.824399,-17.391142,-29.313286,-15.783179,-10.469927,-19.465933,-59.148403,-45.624386,-33.999565,-71.630707,-15.775897,-59.421246,-16.443588,-10.316080,3.507911,-2.350963,-4.064883,18.982418,-5.288263,-11.349707,0.000000,188.000000,4.000000,,,,0.000000,4.000000,4.000000,4.000000,4.000000,4.000000,4.000000,4.000000,4.000000,4.000000,4.000000,4.000000,4.000000,4.000000,4.000000,4.000000,4.000000,4.000000,4.000000,4.000000,4.000000,4.000000,4.000000,4.000000,4.000000,4.000000,4.000000,4.000000,4.000000,4.000000,4.000000,4.000000,4.000000,100.000000
1614490468.337569,68.000000,0.000000,0.435969,2.138925,-3.028939,-3.246253,5.666413,-1.628574,-6.307811,-0.712583,-7.174006,-16.875648,-15.836103,2.674945,-5.791934,-9.168623,-28.258331,-13.716114,-3.792790,-8.677236,-34.473869,-31.219788,-19.606590,-48.482151,-21.401146,-35.772079,-11.298939,-10.818585,9.658249,2.266772,-0.983895,18.450615,-2.718872,-8.261435,0.000000,200.000000,4.000000,,,,0.000000,4.000000,4.000000,4.000000,4.000000,4.000000,4.000000,4.000000,4.000000,4.000000,4.000000,4.000000,4.000000,4.000000,4.000000,4.000000,4.000000,4.000000,4.000000,4.000000,4.000000,4.000000,4.000000,4.000000,4.000000,4.000000,4.000000,4.000000,4.000000,4.000000,4.000000,4.000000,4.000000,100.000000
1614490468.345318,69.000000,0.000000,4.538097,9.316274,11.845884,-1.704545,14.891516,-1.626946,4.467728,3.390693,-2.551448,-3.525440,1.102810,9.338937,-2.196398,4.173880,-11.819818,-1.907527,2.877669,11.844262,-11.875295,-16.316772,2.977118,-43.305466,-11.123335,-12.146564,-5.646614,-10.807766,18.879360,7.392711,3.119653,20.996265,2.412052,-4.150609,0.000000,174.000000,4.000000,,,,0.000000,4.000000,4.000000,4.000000,4.000000,4.000000,4.000000,4.000000,4.000000,4.000000,4.000000,4.000000,4.000000,4.000000,4.000000,4.000000,4.000000,4.000000,4.000000,4.000000,4.000000,4.000000,4.000000,4.000000,4.000000,4.000000,4.000000,4.000000,4.000000,4.000000,4.000000,4.000000,4.000000,100.000000
1614490468.353167,70.000000,0.000000,7.097661,13.409521,20.551987,1.886903,16.927906,-1.625319,7.027362,6.464226,0.015206,-1.983453,8.794015,8.816777,-0.142920,7.246629,6.653541,14.504638,5.438894,25.678572,0.957093,-3.479944,13.230552,-48.903187,0.169839,1.198916,-3.076865,-10.796959,20.398943,8.410959,4.654995,23.026552,3.435281,-4.146458,0.000000,178.000000,4.000000,,,,0.000000,4.000000,4.000000,4.000000,4.000000,4.000000,4.000000,4.000000,4.000000,4.000000,4.000000,4.000000,4.000000,4.000000,4.000000,4.000000,4.000000,4.000000,4.000000,4.000000,4.000000,4.000000,4.000000,4.000000,4.000000,4.000000,4.000000,4.000000,4.000000,4.000000,4.000000,4.000000,4.000000,100.000000
1614490468.360916,71.000000,0.000000,7.090564,12.883291,11.300667,8.551682,13.834055,-1.623693,5.994694,6.457761,-0.497629,-5.058393,8.785220,7.269499,-0.142777,7.239382,10.749452,23.208082,6.971917,31.806738,13.263828,10.882510,18.345526,-17.059410,2.733772,16.582333,0.515955,-10.786161,21.917006,7.889728,4.137519,23.516346,3.431846,-5.167953,0.000000,191.000000,4.000000,,,,0.000000,4.000000,4.000000,4.000000,4.000000,4.000000,4.000000,4.000000,4.000000,4.000000,4.000000,4.000000,4.000000,4.000000,4.000000,4.000000,4.000000,4.000000,4.000000,4.000000,4.000000,4.000000,4.000000,4.000000,4.000000,4.000000,4.000000,4.000000,4.000000,4.000000,4.000000,4.000000,4.000000,100.000000
1614490468.368765,72.000000,0.000000,6.570653,11.844767,4.109879,10.594413,13.307401,-2.134890,8.552802,6.451303,-1.009952,-1.463591,11.340538,9.826332,2.934289,11.847528,9.200241,23.697695,9.529048,35.364677,20.430052,15.999833,25.506668,6.547393,9.910525,23.232418,4.105183,-10.775375,21.895088,8.394658,4.133382,19.390265,3.428414,-5.162785,0.000000,196.000000,4.000000,,,,0.000000,4.000000,4.000000,4.000000,4.000000,4.000000,4.000000,4.000000,4.000000,4.000000,4.000000,4.000000,4.000000,4.000000,4.000000,4.000000,4.000000,4.000000,4.000000,4.000000,4.000000,4.000000,4.000000,4.000000,4.000000,4.000000,4.000000,4.000000,4.000000,4.000000,4.000000,4.000000,4.000000,100.000000
1614490468.376514,73.000000,0.000000,7.076903,12.858563,7.695512,8.532537,14.319735,-2.132756,10.595531,9.008955,-1.008942,0.589155,13.380480,13.406250,9.598022,15.425424,12.267963,24.186817,11.570801,35.329311,13.230135,9.829988,23.429878,-19.100180,17.080103,15.004057,4.101078,-10.764600,10.078321,8.386264,4.642069,14.755490,-1.703220,-5.157622,0.000000,194.000000,4.000000,,,,0.000000,4.000000,4.000000,4.000000,4.000000,4.000000,4.000000,4.000000,4.000000,4.000000,4.000000,4.000000,4.000000,4.000000,4.000000,4.000000,4.000000,4.000000,4.000000,4.000000,4.000000,4.000000,4.000000,4.000000,4.000000,4.000000,4.000000,4.000000,4.000000,4.000000,4.000000,4.000000,4.000000,100.000000
1614490468.384163,74.000000,0.000000,6.557005,13.358525,10.251920,10.062466,13.792594,-1.104982,10.584936,11.051228,-0.495113,-2.488357,11.828637,16.469767,12.152526,16.948460,14.306977,24.162630,12.584870,33.755520,3.473315,5.717593,17.252604,-25.747747,12.447638,7.809566,3.584156,-10.753836,0.324653,8.377877,4.124607,15.253555,-4.265619,-3.614003,0.000000,158.000000,4.000000,,,,0.000000,4.000000,4.000000,4.000000,4.000000,4.000000,4.000000,4.000000,4.000000,4.000000,4.000000,4.000000,4.000000,4.000000,4.000000,4.000000,4.000000,4.000000,4.000000,4.000000,4.000000,4.000000,4.000000,4.000000,4.000000,4.000000,4.000000,4.000000,4.000000,4.000000,4.000000,4.000000,4.000000,100.000000
1614490468.391912,75.000000,0.000000,6.550448,9.755423,10.754488,13.642147,14.291622,-2.642338,9.548710,10.527356,0.018203,1.616695,11.303988,15.940476,11.114732,16.931511,13.267030,22.600006,11.546645,34.747406,6.546765,5.711875,17.748171,-6.234819,8.845447,8.827396,4.093393,-10.743082,-0.188492,8.369499,4.120482,18.828045,-1.184430,-5.148850,0.000000,184.000000,4.000000,,,,0.000000,4.000000,4.000000,4.000000,4.000000,4.000000,4.000000,4.000000,4.000000,4.000000,4.000000,4.000000,4.000000,4.000000,4.000000,4.000000,4.000000,4.000000,4.000000,4.000000,4.000000,4.000000,4.000000,4.000000,4.000000,4.000000,4.000000,4.000000,4.000000,4.000000,4.000000,4.000000,4.000000,100.000000
1614490468.399561,76.000000,0.000000,7.056718,4.617463,9.205272,13.115685,12.738869,-1.614055,9.539161,10.004008,-2.033098,7.256104,9.754223,11.821972,12.129258,12.299195,13.253762,24.115868,11.535098,33.174198,7.565859,6.731805,13.115038,-27.767046,8.836600,6.767287,6.140581,-10.732339,0.324517,7.848310,4.116361,18.809217,-1.183246,-4.118061,0.000000,202.000000,4.000000,,,,0.000000,4.000000,4.000000,4.000000,4.000000,4.000000,4.000000,4.000000,4.000000,4.000000,4.000000,4.000000,4.000000,4.000000,4.000000,4.000000,4.000000,4.000000,4.000000,4.000000,4.000000,4.000000,4.000000,4.000000,4.000000,4.000000,4.000000,4.000000,4.000000,4.000000,4.000000,4.000000,4.000000,100.000000
1614490468.407310,77.000000,0.000000,6.536841,8.715409,8.683246,13.615389,14.777412,6.079867,11.068084,11.019646,1.558679,-5.058844,3.077802,8.733227,10.065847,7.671511,11.702047,21.527649,12.036384,24.423075,-7.826323,4.673791,-0.744231,-60.046970,9.340585,-7.085634,8.698544,-8.670324,6.478039,8.353282,4.112245,18.790409,0.356399,7.680929,0.000000,194.000000,4.000000,,,,0.000000,4.000000,4.000000,4.000000,4.000000,4.000000,4.000000,4.000000,4.000000,4.000000,4.000000,4.000000,4.000000,4.000000,4.000000,4.000000,4.000000,4.000000,4.000000,4.000000,4.000000,4.000000,4.000000,4.000000,4.000000,4.000000,4.000000,4.000000,4.000000,4.000000,4.000000,4.000000,4.000000,100.000000
1614490468.414959,78.000000,0.000000,4.479023,15.373361,19.443794,19.242800,20.403660,9.663530,7.467272,9.982985,9.762249,-17.361477,-3.591943,7.186032,3.389115,4.074096,4.510858,6.634326,8.947424,17.219164,-21.664650,-12.253960,-13.563999,-62.038208,9.844065,-31.693933,5.100101,-7.123192,17.753613,8.344929,4.108133,19.797258,8.561171,15.878377,0.000000,194.000000,4.000000,,,,0.000000,4.000000,4.000000,4.000000,4.000000,4.000000,4.000000,4.000000,4.000000,4.000000,4.000000,4.000000,4.000000,4.000000,4.000000,4.000000,4.000000,4.000000,4.000000,4.000000,4.000000,4.000000,4.000000,4.000000,4.000000,4.000000,4.000000,4.000000,4.000000,4.000000,4.000000,4.000000,4.000000,100.000000
1614490468.422709,79.000000,0.000000,2.423261,12.281064,23.526915,18.710735,16.793512,4.525662,-2.283785,4.331976,10.265307,-11.703091,-4.613992,5.127563,-0.716839,-0.545363,-2.160320,-1.064616,4.323092,17.201944,-21.130165,-32.241707,-22.268385,-55.822323,2.141913,-46.021214,-2.084486,-6.603249,21.325602,4.746840,4.104024,16.187717,7.526968,4.067626,0.000000,157.000000,4.000000,,,,0.000000,4.000000,4.000000,4.000000,4.000000,4.000000,4.000000,4.000000,4.000000,4.000000,4.000000,4.000000,4.000000,4.000000,4.000000,4.000000,4.000000,4.000000,4.000000,4.000000,4.000000,4.000000,4.000000,4.000000,4.000000,4.000000,4.000000,4.000000,4.000000,4.000000,4.000000,4.000000,4.000000,100.000000
1614490468.430358,80.000000,0.000000,2.933659,8.166219,4.529028,6.897153,7.545950,0.931393,-5.871245,-0.800561,4.101196,-10.665747,-1.532455,3.583975,-0.203301,-1.570458,-2.158159,10.731320,3.805948,19.748844,-18.032112,-35.799210,-23.271757,-60.894707,-13.244844,-35.718781,-8.236248,-8.135107,20.791456,0.639529,4.099921,12.068966,-4.275430,-10.808236,0.000000,192.000000,4.000000,,,,0.000000,4.000000,4.000000,4.000000,4.000000,4.000000,4.000000,4.000000,4.000000,4.000000,4.000000,4.000000,4.000000,4.000000,4.000000,4.000000,4.000000,4.000000,4.000000,4.000000,4.000000,4.000000,4.000000,4.000000,4.000000,4.000000,4.000000,4.000000,4.000000,4.000000,4.000000,4.000000,4.000000,100.000000
1614490468.438107,81.000000,0.000000,2.930725,9.183694,-9.834476,-1.827693,4.974302,2.468923,-5.352553,-1.825401,3.584274,-21.937132,-0.505281,4.606031,0.309723,0.482394,-2.156001,16.361614,4.314963,18.703455,-20.578182,-32.173664,-16.068998,-65.962013,-18.359804,-18.247166,-13.869038,-11.716716,19.745024,0.638889,4.608641,11.031257,-9.399360,-12.848710,0.000000,208.000000,4.000000,,,,0.000000,4.000000,4.000000,4.000000,4.000000,4.000000,4.000000,4.000000,4.000000,4.000000,4.000000,4.000000,4.000000,4.000000,4.000000,4.000000,4.000000,4.000000,4.000000,4.000000,4.000000,4.000000,4.000000,4.000000,4.000000,4.000000,4.000000,4.000000,4.000000,4.000000,4.000000,4.000000,4.000000,100.000000
1614490468.445756,82.000000,0.000000,2.927794,4.559125,-0.081051,-0.800224,6.507789,1.953633,-6.372842,-0.797935,2.555049,-18.838272,0.008045,4.088605,-0.203408,2.020373,-2.666666,8.140125,4.310648,16.633471,-17.480680,-27.526106,-8.873442,-78.716568,-16.290163,-11.049431,-18.470552,-14.269101,6.904766,0.638250,2.552750,8.456122,-7.338679,-10.784579,0.000000,211.000000,4.000000,,,,0.000000,4.000000,4.000000,4.000000,4.000000,4.000000,4.000000,4.000000,4.000000,4.000000,4.000000,4.000000,4.000000,4.000000,4.000000,4.000000,4.000000,4.000000,4.000000,4.000000,4.000000,4.000000,4.000000,4.000000,4.000000,4.000000,4.000000,4.000000,4.000000,4.000000,4.000000,4.000000,4.000000,100.000000
1614490468.453505,83.000000,0.000000,2.924866,-2.112101,9.662620,1.251858,6.501281,1.951680,-0.212623,0.741324,-5.652635,-4.460459,7.187524,4.597337,0.309616,6.633738,5.541129,12.747370,3.793517,25.847605,1.511159,-9.549863,-2.710722,-80.176308,-18.837975,-3.858895,-19.477724,-14.254832,-12.076498,0.124792,0.498916,3.832282,-7.331340,-12.312256,0.000000,183.000000,4.000000,,,,0.000000,4.000000,4.000000,4.000000,4.000000,4.000000,4.000000,4.000000,4.000000,4.000000,4.000000,4.000000,4.000000,4.000000,4.000000,4.000000,4.000000,4.000000,4.000000,4.000000,4.000000,4.000000,4.000000,4.000000,4.000000,4.000000,4.000000,4.000000,4.000000,4.000000,4.000000,4.000000,4.000000,100.000000
1614490468.461154,84.000000,0.000000,2.921942,-1.084347,9.652957,1.763427,8.546062,4.001010,11.069641,2.791865,-8.723906,0.672206,14.359823,7.156842,0.309307,13.806591,14.766357,24.529493,4.302544,37.103809,13.817340,6.869944,1.907373,-60.096134,-13.690932,2.811631,-17.406963,-14.240578,-24.884935,1.663128,-0.014404,3.828449,-8.349649,-12.812764,0.000000,203.000000,4.000000,,,,0.000000,4.000000,4.000000,4.000000,4.000000,4.000000,4.000000,4.000000,4.000000,4.000000,4.000000,4.000000,4.000000,4.000000,4.000000,4.000000,4.000000,4.000000,4.000000,4.000000,4.000000,4.000000,4.000000,4.000000,4.000000,4.000000,4.000000,4.000000,4.000000,4.000000,4.000000,4.000000,4.000000,100.000000
1614490468.468903,85.000000,0.000000,2.919019,1.993660,10.156125,2.787305,10.588798,6.048291,14.135494,3.301894,-8.202361,-0.354107,8.704438,8.175326,0.308997,12.254323,14.238770,15.274196,4.811062,28.348757,2.521472,-1.342054,-4.248380,-50.805271,-2.908010,-5.396309,-17.902376,-14.226336,-32.552357,-1.928278,0.498431,4.337441,-9.879762,-11.261490,0.000000,184.000000,4.000000,,,,0.000000,4.000000,4.000000,4.000000,4.000000,4.000000,4.000000,4.000000,4.000000,4.000000,4.000000,4.000000,4.000000,4.000000,4.000000,4.000000,4.000000,4.000000,4.000000,4.000000,4.000000,4.000000,4.000000,4.000000,4.000000,4.000000,4.000000,4.000000,4.000000,4.000000,4.000000,4.000000,4.000000,100.000000
1614490468.476553,86.000000,0.000000,2.916101,1.478846,4.504943,0.733235,10.065389,6.042243,10.531615,3.298592,-10.758261,-1.892214,-0.022215,8.679972,0.308688,9.677966,10.634789,2.951229,3.267789,12.422972,-11.840024,-12.622764,-11.936440,-55.882671,-6.494846,-12.570399,-24.551142,-14.212111,-27.391600,-9.105837,0.497933,1.769001,-11.408343,-12.788690,0.000000,194.000000,4.000000,,,,0.000000,4.000000,4.000000,4.000000,4.000000,4.000000,4.000000,4.000000,4.000000,4.000000,4.000000,4.000000,4.000000,4.000000,4.000000,4.000000,4.000000,4.000000,4.000000,4.000000,4.000000,4.000000,4.000000,4.000000,4.000000,4.000000,4.000000,4.000000,4.000000,4.000000,4.000000,4.000000,4.000000,100.000000
1614490468.484302,87.000000,0.000000,2.913184,0.964546,-1.653408,-1.831600,10.055324,5.523380,9.495443,3.295293,-11.773144,-8.556989,1.003448,8.671291,0.308380,11.206750,9.598513,7.563662,1.213239,11.897728,-10.802544,-11.071679,-9.360400,-45.570377,-17.257582,-6.916804,-29.141975,-14.197898,-8.389850,-8.583911,-0.015386,-0.284050,-11.396935,-15.340004,0.000000,196.000000,4.000000,,,,0.000000,4.000000,4.000000,4.000000,4.000000,4.000000,4.000000,4.000000,4.000000,4.000000,4.000000,4.000000,4.000000,4.000000,4.000000,4.000000,4.000000,4.000000,4.000000,4.000000,4.000000,4.000000,4.000000,4.000000,4.000000,4.000000,4.000000,4.000000,4.000000,4.000000,4.000000,4.000000,4.000000,100.000000
1614490468.491951,88.000000,0.000000,2.910271,1.476402,3.989271,2.785616,10.045268,5.517857,11.024409,3.291998,-6.633165,-11.112535,-0.536017,6.098518,0.820892,3.503235,1.896606,6.530457,-0.326435,9.834549,-11.304562,-17.727274,-11.402322,-36.294037,-14.676222,-11.525271,-28.600012,-14.183701,2.387771,-6.524045,0.497450,0.741876,-11.385538,-15.324664,0.000000,210.000000,4.000000,,,,0.000000,4.000000,4.000000,4.000000,4.000000,4.000000,4.000000,4.000000,4.000000,4.000000,4.000000,4.000000,4.000000,4.000000,4.000000,4.000000,4.000000,4.000000,4.000000,4.000000,4.000000,4.000000,4.000000,4.000000,4.000000,4.000000,4.000000,4.000000,4.000000,4.000000,4.000000,4.000000,4.000000,100.000000
1614490468.499800,89.000000,0.000000,2.907361,1.987746,6.036563,4.321292,10.548043,6.537980,10.500564,4.314347,-3.549609,-10.588601,-17.458557,1.477035,-0.718391,-9.320781,-15.541188,-8.347868,-1.864570,-2.995799,-21.549667,-36.171085,-23.185791,-48.052616,-11.071802,-31.000925,-34.212437,-13.656696,-3.255642,-9.594444,0.496953,1.766775,-13.938255,-15.822160,0.000000,214.000000,4.000000,,,,0.000000,4.000000,4.000000,4.000000,4.000000,4.000000,4.000000,4.000000,4.000000,4.000000,4.000000,4.000000,4.000000,4.000000,4.000000,4.000000,4.000000,4.000000,4.000000,4.000000,4.000000,4.000000,4.000000,4.000000,4.000000,4.000000,4.000000,4.000000,4.000000,4.000000,4.000000,4.000000,4.000000,100.000000
1614490468.507549,90.000000,0.000000,2.904454,1.985759,-7.302806,-4.400978,10.024674,4.480160,2.797756,0.207469,-4.058880,-21.347244,-33.851357,-0.062904,-2.768954,-14.439666,-35.012825,-19.621571,-3.913988,-13.249213,-33.322990,-46.391323,-29.316452,-46.978920,-19.265858,-43.277618,-45.973099,-15.694322,-12.995976,-11.123311,-1.554826,-0.799095,-15.462778,-19.908901,0.000000,185.000000,4.000000,,,,0.000000,4.000000,4.000000,4.000000,4.000000,4.000000,4.000000,4.000000,4.000000,4.000000,4.000000,4.000000,4.000000,4.000000,4.000000,4.000000,4.000000,4.000000,4.000000,4.000000,4.000000,4.000000,4.000000,4.000000,4.000000,4.000000,4.000000,4.000000,4.000000,4.000000,4.000000,4.000000,4.000000,100.000000
1614490468.515398,91.000000,0.000000,2.901549,0.445311,-11.910888,-10.550424,9.501829,-2.190987,-8.999914,-9.023508,-4.567642,-31.582306,-32.279041,0.962800,-3.791826,-12.373943,-41.131660,-20.114771,-3.397254,-20.415451,-47.135818,-50.447498,-29.287136,-18.213993,-28.990183,-46.311264,-47.978405,-17.729910,-23.239391,-8.035265,-3.091733,-4.388039,-15.960136,-22.965916,0.000000,186.000000,4.000000,,,,0.000000,4.000000,4.000000,4.000000,4.000000,4.000000,4.000000,4.000000,4.000000,4.000000,4.000000,4.000000,4.000000,4.000000,4.000000,4.000000,4.000000,4.000000,4.000000,4.000000,4.000000,4.000000,4.000000,4.000000,4.000000,4.000000,4.000000,4.000000,4.000000,4.000000,4.000000,4.000000,4.000000,100.000000
1614490468.523147,92.000000,0.000000,2.898648,-1.606416,-0.104105,-8.488591,10.517968,-6.291360,-13.093478,-13.117048,-4.050253,-24.371237,-16.862148,0.449017,-3.788034,-4.669262,-28.270016,-11.376707,0.195887,-20.907856,-48.627144,-51.422691,-24.129642,-8.452189,-28.961193,-42.162388,-41.776581,-18.225000,-28.344357,-6.488768,-3.088641,-1.306728,-14.918535,-22.942949,0.000000,202.000000,4.000000,,,,0.000000,4.000000,4.000000,4.000000,4.000000,4.000000,4.000000,4.000000,4.000000,4.000000,4.000000,4.000000,4.000000,4.000000,4.000000,4.000000,4.000000,4.000000,4.000000,4.000000,4.000000,4.000000,4.000000,4.000000,4.000000,4.000000,4.000000,4.000000,4.000000,4.000000,4.000000,4.000000,4.000000,100.000000
1614490468.530996,93.000000,0.000000,2.895749,-2.117630,2.972922,-10.018564,8.968989,-5.772248,-10.003462,-11.565470,-3.533383,-19.218660,-3.511953,0.448568,-2.758605,6.104638,-13.882771,-1.621740,4.811076,-8.066436,-28.578518,-39.063576,-12.310642,-34.597584,-24.829666,-27.761250,-37.119419,-17.693954,-28.316011,-3.918176,-3.085553,0.745861,-14.903616,-22.407187,0.000000,195.000000,4.000000,,,,0.000000,4.000000,4.000000,4.000000,4.000000,4.000000,4.000000,4.000000,4.000000,4.000000,4.000000,4.000000,4.000000,4.000000,4.000000,4.000000,4.000000,4.000000,4.000000,4.000000,4.000000,4.000000,4.000000,4.000000,4.000000,4.000000,4.000000,4.000000,4.000000,4.000000,4.000000,4.000000,4.000000,100.000000
1614490468.538745,94.000000,0.000000,2.892853,-3.653974,-3.183897,-12.572648,3.831815,-5.253655,-8.967817,-12.066725,-3.529849,-23.302006,2.645405,0.960940,-0.704565,10.713918,-12.330426,0.943984,7.370368,1.685221,-11.114042,-18.511692,-2.041921,-42.768116,-23.266376,-13.887335,-28.364353,-17.676260,-29.826157,0.188306,-3.082467,-6.434372,-16.427174,-22.897600,0.000000,161.000000,4.000000,,,,0.000000,4.000000,4.000000,4.000000,4.000000,4.000000,4.000000,4.000000,4.000000,4.000000,4.000000,4.000000,4.000000,4.000000,4.000000,4.000000,4.000000,4.000000,4.000000,4.000000,4.000000,4.000000,4.000000,4.000000,4.000000,4.000000,4.000000,4.000000,4.000000,4.000000,4.000000,4.000000,4.000000,100.000000
1614490468.546594,95.000000,0.000000,2.889960,-5.701602,1.434671,-7.944691,3.827983,-3.709940,-5.881926,-12.054658,-4.551960,-14.560756,7.258144,0.447158,1.347422,10.190384,-9.753993,6.071245,8.388638,12.452766,-2.384980,-3.621385,4.626788,-23.750988,-19.140545,-5.155499,-18.079578,-17.658585,-22.104023,0.700938,-3.079385,-9.504861,-13.846644,-21.849062,0.000000,187.000000,4.000000,,,,0.000000,4.000000,4.000000,4.000000,4.000000,4.000000,4.000000,4.000000,4.000000,4.000000,4.000000,4.000000,4.000000,4.000000,4.000000,4.000000,4.000000,4.000000,4.000000,4.000000,4.000000,4.000000,4.000000,4.000000,4.000000,4.000000,4.000000,4.000000,4.000000,4.000000,4.000000,4.000000,4.000000,100.000000
1614490468.554343,96.000000,0.000000,2.887070,-6.208721,9.638365,-1.270079,6.388258,-1.654948,1.303443,-9.478501,-3.008947,2.376882,16.481655,2.497993,3.397357,10.693014,3.589094,21.449789,8.380250,40.132622,18.130226,8.689928,14.365750,-36.034927,-7.839354,8.182990,-16.010216,-17.640926,-4.646022,1.725878,-3.076305,-1.803048,-4.602029,-19.263109,8064.000000,0.000000,4.000000,,,,0.000000,4.000000,4.000000,4.000000,4.000000,4.000000,4.000000,4.000000,4.000000,4.000000,4.000000,4.000000,4.000000,4.000000,4.000000,4.000000,4.000000,4.000000,4.000000,4.000000,4.000000,4.000000,4.000000,4.000000,4.000000,4.000000,4.000000,4.000000,4.000000,4.000000,4.000000,4.000000,4.000000,100.000000
1614490468.562192,97.000000,0.000000,2.884183,-5.689692,8.090265,-0.243168,6.381869,-1.653293,1.814960,-7.417741,-0.954656,1.348864,23.131840,7.110879,4.419600,10.682321,8.200890,30.659109,8.884690,52.913002,31.958250,16.886366,17.941128,-68.306587,1.399255,16.379934,-18.045488,-17.623285,3.563752,6.339537,-3.073229,1.788498,-0.494863,-18.731026,8064.000000,0.000000,4.000000,,,,0.000000,4.000000,4.000000,4.000000,4.000000,4.000000,4.000000,4.000000,4.000000,4.000000,4.000000,4.000000,4.000000,4.000000,4.000000,4.000000,4.000000,4.000000,4.000000,4.000000,4.000000,4.000000,4.000000,4.000000,4.000000,4.000000,4.000000,4.000000,4.000000,4.000000,4.000000,4.000000,4.000000,100.000000
1614490468.569941,98.000000,0.000000,2.881299,-5.684002,5.518072,-3.832669,5.862667,-1.138819,-0.238137,-7.923143,-6.594727,-7.370433,15.929221,8.642230,3.902360,10.671638,-4.115004,24.474604,7.850164,30.295986,11.413470,9.177173,14.333444,-64.135712,2.936317,6.619965,-17.001801,-17.605661,2.534547,8.897300,-2.557335,0.248248,-4.084111,-18.712296,8064.000000,0.000000,4.000000,,,,0.000000,4.000000,4.000000,4.000000,4.000000,4.000000,4.000000,4.000000,4.000000,4.000000,4.000000,4.000000,4.000000,4.000000,4.000000,4.000000,4.000000,4.000000,4.000000,4.000000,4.000000,4.000000,4.000000,4.000000,4.000000,4.000000,4.000000,4.000000,4.000000,4.000000,4.000000,4.000000,4.000000,100.000000
1614490468.577790,99.000000,0.000000,2.878418,-5.678318,7.563836,-7.418580,6.369625,-2.163322,-1.263540,-7.915220,-14.793261,-7.875883,-0.496964,6.069486,4.411278,9.122505,-12.316017,11.116796,5.791032,9.240048,-13.213327,-8.780723,9.703726,-52.276707,2.420561,-8.258450,-16.984800,-17.588057,2.532013,7.862761,-4.093239,3.837744,-3.567207,-17.667942,8064.000000,0.000000,4.000000,,,,0.000000,4.000000,4.000000,4.000000,4.000000,4.000000,4.000000,4.000000,4.000000,4.000000,4.000000,4.000000,4.000000,4.000000,4.000000,4.000000,4.000000,4.000000,4.000000,4.000000,4.000000,4.000000,4.000000,4.000000,4.000000,4.000000,4.000000,4.000000,4.000000,4.000000,4.000000,4.000000,4.000000,100.000000
1614490468.585539,100.000000,0.000000,2.875539,-6.185460,1.402426,-11.000904,4.824794,-6.776543,-8.441763,-7.394485,-14.778467,-9.406469,-9.727237,2.473672,3.381226,0.395434,-12.816522,-0.689193,4.246779,6.153885,-13.712934,-16.464249,-1.588029,-72.224434,0.366858,-10.814294,-17.480635,-17.057648,-6.188468,8.367720,-6.653249,3.321085,-3.050819,-19.188736,8064.000000,0.000000,4.000000,,,,0.000000,4.000000,4.000000,4.000000,4.000000,4.000000,4.000000,4.000000,4.000000,4.000000,4.000000,4.000000,4.000000,4.000000,4.000000,4.000000,4.000000,4.000000,4.000000,4.000000,4.000000,4.000000,4.000000,4.000000,4.000000,4.000000,4.000000,4.000000,4.000000,4.000000,4.000000,4.000000,4.000000,100.000000
1614490468.593388,101.000000,0.000000,2.872664,-5.153634,-9.368207,-16.118109,3.794328,-9.333869,-16.125629,-7.387090,-15.276509,-15.550908,-13.307253,-1.118545,-3.288822,-10.374192,-22.034473,-7.355170,-0.372852,-0.006114,-17.801786,-16.960606,-15.945415,-83.434258,-5.787355,-7.726556,-17.975975,-18.066231,-20.028433,8.359351,-6.646595,-1.297620,-7.150332,-22.759291,8064.000000,0.000000,4.000000,,,,0.000000,4.000000,4.000000,4.000000,4.000000,4.000000,4.000000,4.000000,4.000000,4.000000,4.000000,4.000000,4.000000,4.000000,4.000000,4.000000,4.000000,4.000000,4.000000,4.000000,4.000000,4.000000,4.000000,4.000000,4.000000,4.000000,4.000000,4.000000,4.000000,4.000000,4.000000,4.000000,4.000000,100.000000
1614490468.601137,102.000000,0.000000,2.869791,-3.097198,-7.307557,-17.127632,1.739252,-8.811714,-17.135145,-8.405344,-15.261232,-17.586639,-18.422152,-3.681529,-7.900918,-13.953562,-35.345772,-11.450379,-6.526325,-6.159955,-40.348087,-26.174414,-22.596136,-76.684158,-9.884131,-19.000881,-18.470819,-17.535343,-21.034046,7.325351,-3.563026,-0.783502,-5.604720,-19.659607,8064.000000,0.000000,4.000000,,,,0.000000,4.000000,4.000000,4.000000,4.000000,4.000000,4.000000,4.000000,4.000000,4.000000,4.000000,4.000000,4.000000,4.000000,4.000000,4.000000,4.000000,4.000000,4.000000,4.000000,4.000000,4.000000,4.000000,4.000000,4.000000,4.000000,4.000000,4.000000,4.000000,4.000000,4.000000,4.000000,4.000000,100.000000
1614490468.608886,103.000000,0.000000,2.866921,-2.068460,-1.146403,-7.879735,1.224692,-9.828544,-17.118010,-8.396938,-4.476741,-15.004951,-19.942190,-3.677847,-5.328914,-12.401147,-35.823246,-12.464570,-7.545440,-5.640974,-52.615429,-37.430290,-23.599182,-85.325424,-10.387068,-40.520340,-17.939528,-14.953706,-13.320704,7.830846,-3.046642,0.755743,-0.470910,-13.998922,8064.000000,0.000000,4.000000,,,,0.000000,4.000000,4.000000,4.000000,4.000000,4.000000,4.000000,4.000000,4.000000,4.000000,4.000000,4.000000,4.000000,4.000000,4.000000,4.000000,4.000000,4.000000,4.000000,4.000000,4.000000,4.000000,4.000000,4.000000,4.000000,4.000000,4.000000,4.000000,4.000000,4.000000,4.000000,4.000000,4.000000,100.000000
1614490468.616635,104.000000,0.000000,2.864054,-2.066391,-6.273462,-3.769291,6.351672,-9.818715,-12.485507,-7.362901,-1.908162,-16.528406,-17.870966,-2.648529,-2.759483,-13.927207,-31.172039,-10.400824,-7.025074,-9.225077,-48.973072,-43.033886,-28.190968,-83.188812,-11.915143,-50.223412,-18.434410,-16.990034,-12.794563,8.335836,-3.556416,-3.860398,-5.085824,-19.625950,8064.000000,0.000000,4.000000,,,,0.000000,4.000000,4.000000,4.000000,4.000000,4.000000,4.000000,4.000000,4.000000,4.000000,4.000000,4.000000,4.000000,4.000000,4.000000,4.000000,4.000000,4.000000,4.000000,4.000000,4.000000,4.000000,4.000000,4.000000,4.000000,4.000000,4.000000,4.000000,4.000000,4.000000,4.000000,4.000000,4.000000,100.000000
1614490468.624285,105.000000,0.000000,2.861190,-2.064325,-13.959496,-19.150137,3.781218,-8.270435,-3.242252,-9.919641,-17.290869,-24.717007,-19.391556,-3.158700,-4.295185,-11.349177,-31.653688,-11.416063,-8.556511,-16.395338,-49.949741,-44.529316,-30.726879,-57.464600,-15.492971,-48.634727,-21.492899,-23.639711,-13.807409,3.712116,-3.040039,-7.446281,-12.773046,-32.426834,8064.000000,0.000000,4.000000,,,,0.000000,4.000000,4.000000,4.000000,4.000000,4.000000,4.000000,4.000000,4.000000,4.000000,4.000000,4.000000,4.000000,4.000000,4.000000,4.000000,4.000000,4.000000,4.000000,4.000000,4.000000,4.000000,4.000000,4.000000,4.000000,4.000000,4.000000,4.000000,4.000000,4.000000,4.000000,4.000000,4.000000,100.000000
1614490468.632034,106.000000,0.000000,2.858329,-2.062261,-9.842973,-26.310474,-6.478973,-10.313447,-2.213369,-11.961002,-27.529987,-25.205111,-11.167037,-3.668362,-2.239608,5.072428,-20.339983,-10.379006,-2.394108,-8.686636,-44.258766,-31.151451,-17.362818,-43.048161,-19.580042,-37.304039,-20.958584,-26.692995,-3.537192,1.144301,-4.062640,-6.413194,-10.196171,-32.394409,8064.000000,0.000000,4.000000,,,,0.000000,4.000000,4.000000,4.000000,4.000000,4.000000,4.000000,4.000000,4.000000,4.000000,4.000000,4.000000,4.000000,4.000000,4.000000,4.000000,4.000000,4.000000,4.000000,4.000000,4.000000,4.000000,4.000000,4.000000,4.000000,4.000000,4.000000,4.000000,4.000000,4.000000,4.000000,4.000000,4.000000,100.000000
1614490468.639683,107.000000,0.000000,2.342650,-1.547378,-2.140822,-8.335445,-1.344289,-7.739031,-1.698335,-4.256734,-22.374252,-11.333752,9.869771,0.950691,4.942119,19.426331,3.782921,7.067270,11.967260,15.424615,-15.496557,-2.915172,3.680185,-27.107677,-11.355334,-10.600070,-15.809421,-22.563738,11.850961,6.784182,-1.494475,-6.406780,-5.057769,-21.079964,8064.000000,0.000000,4.000000,,,,0.000000,4.000000,4.000000,4.000000,4.000000,4.000000,4.000000,4.000000,4.000000,4.000000,4.000000,4.000000,4.000000,4.000000,4.000000,4.000000,4.000000,4.000000,4.000000,4.000000,4.000000,4.000000,4.000000,4.000000,4.000000,4.000000,4.000000,4.000000,4.000000,4.000000,4.000000,4.000000,4.000000,100.000000
1614490468.647432,108.000000,0.000000,3.365949,1.018272,-0.600220,6.544684,15.067311,3.550760,4.970030,6.516754,-18.249315,-2.604469,21.654774,8.129228,8.526920,22.483828,16.599651,26.034561,17.596319,32.332268,10.672786,13.497999,13.420094,-6.567749,10.707303,15.564377,-10.665406,-15.874507,14.916033,11.905603,5.686507,-6.913194,-4.027071,-16.956320,8064.000000,0.000000,4.000000,,,,0.000000,4.000000,4.000000,4.000000,4.000000,4.000000,4.000000,4.000000,4.000000,4.000000,4.000000,4.000000,4.000000,4.000000,4.000000,4.000000,4.000000,4.000000,4.000000,4.000000,4.000000,4.000000,4.000000,4.000000,4.000000,4.000000,4.000000,4.000000,4.000000,4.000000,4.000000,4.000000,4.000000,100.000000
1614490468.655081,109.000000,0.000000,5.926685,1.530074,-1.112440,6.538140,18.641987,11.239516,7.529162,4.971775,-19.256706,-7.217249,13.940811,9.146739,8.005573,22.461344,10.429205,27.546989,13.988979,34.351215,17.328779,15.022964,12.893854,-15.791950,20.440186,21.702658,-9.116280,-13.294530,3.106245,11.893698,8.757743,-6.906281,-1.971761,-18.990644,8064.000000,0.000000,4.000000,,,,0.000000,4.000000,4.000000,4.000000,4.000000,4.000000,4.000000,4.000000,4.000000,4.000000,4.000000,4.000000,4.000000,4.000000,4.000000,4.000000,4.000000,4.000000,4.000000,4.000000,4.000000,4.000000,4.000000,4.000000,4.000000,4.000000,4.000000,4.000000,4.000000,4.000000,4.000000,4.000000,4.000000,100.000000
1614490468.662830,110.000000,0.000000,5.407938,1.528544,-1.624148,6.018781,18.110525,9.689816,4.444710,-1.699863,-18.724628,-7.210032,5.721742,6.060669,7.484747,13.208113,0.675186,21.365595,11.923708,36.368149,18.337091,16.033581,16.470703,-27.058208,13.753079,21.680956,-11.158445,-13.794056,-4.589169,11.881804,8.748985,-6.386554,0.081493,-18.458834,8064.000000,0.000000,4.000000,,,,0.000000,4.000000,4.000000,4.000000,4.000000,4.000000,4.000000,4.000000,4.000000,4.000000,4.000000,4.000000,4.000000,4.000000,4.000000,4.000000,4.000000,4.000000,4.000000,4.000000,4.000000,4.000000,4.000000,4.000000,4.000000,4.000000,4.000000,4.000000,4.000000,4.000000,4.000000,4.000000,4.000000,100.000000
1614490468.670479,111.000000,0.000000,2.838428,2.552657,-4.186626,5.499942,16.553953,6.090382,0.337701,-3.749445,-17.680264,-6.177181,5.716020,3.490506,3.374698,-11.933301,-12.146002,14.677564,4.219477,30.177933,7.036704,6.786778,12.864490,-14.210638,10.149583,14.992608,-17.301132,-13.267441,-6.123041,8.792999,6.688954,-5.867347,0.081411,-17.414734,8064.000000,0.000000,4.000000,,,,0.000000,4.000000,4.000000,4.000000,4.000000,4.000000,4.000000,4.000000,4.000000,4.000000,4.000000,4.000000,4.000000,4.000000,4.000000,4.000000,4.000000,4.000000,4.000000,4.000000,4.000000,4.000000,4.000000,4.000000,4.000000,4.000000,4.000000,4.000000,4.000000,4.000000,4.000000,4.000000,4.000000,100.000000
1614490468.678228,112.000000,0.000000,2.322769,-0.526819,-4.182440,0.879057,0.127143,3.520189,-8.893406,-4.258516,-18.175404,-14.888952,4.684663,1.435733,-4.833805,-25.254700,-24.954369,-3.285832,-11.682178,2.455448,-21.688282,-14.245649,-7.148375,-35.222069,7.062510,-8.612128,-22.412037,-13.254173,-7.655380,0.066257,-1.522863,-6.887121,-0.431491,-18.422960,8064.000000,0.000000,4.000000,,,,0.000000,4.000000,4.000000,4.000000,4.000000,4.000000,4.000000,4.000000,4.000000,4.000000,4.000000,4.000000,4.000000,4.000000,4.000000,4.000000,4.000000,4.000000,4.000000,4.000000,4.000000,4.000000,4.000000,4.000000,4.000000,4.000000,4.000000,4.000000,4.000000,4.000000,4.000000,4.000000,4.000000,100.000000
1614490468.685878,113.000000,0.000000,3.346087,-5.654497,-2.639796,0.365358,-7.052472,1.978207,-14.012717,-4.254258,-18.670050,-13.848422,2.628696,0.408657,-9.444355,-14.460216,-19.288389,-16.103060,-20.901266,-12.931623,-34.999928,-22.949352,-21.500200,-67.494537,-5.252245,-26.039413,-22.389626,-13.753740,4.659968,-4.549193,-9.726468,-6.367413,0.081761,-18.404537,8064.000000,0.000000,4.000000,,,,0.000000,4.000000,4.000000,4.000000,4.000000,4.000000,4.000000,4.000000,4.000000,4.000000,4.000000,4.000000,4.000000,4.000000,4.000000,4.000000,4.000000,4.000000,4.000000,4.000000,4.000000,4.000000,4.000000,4.000000,4.000000,4.000000,4.000000,4.000000,4.000000,4.000000,4.000000,4.000000,4.000000,100.000000
1614490468.693627,114.000000,0.000000,2.829920,-4.623202,-2.124336,2.416275,4.749453,2.489050,-11.434602,-2.198722,-16.087276,-3.065343,4.677350,0.408248,-6.870809,-4.189345,-5.422947,-9.420290,-18.316261,-2.662281,-27.272619,-20.362301,-20.453060,-61.786018,-10.888019,-26.013374,-20.828773,-13.227165,24.655308,-3.519003,-10.742383,-3.796943,-1.456782,-18.898952,8064.000000,0.000000,4.000000,,,,0.000000,4.000000,4.000000,4.000000,4.000000,4.000000,4.000000,4.000000,4.000000,4.000000,4.000000,4.000000,4.000000,4.000000,4.000000,4.000000,4.000000,4.000000,4.000000,4.000000,4.000000,4.000000,4.000000,4.000000,4.000000,4.000000,4.000000,4.000000,4.000000,4.000000,4.000000,4.000000,4.000000,100.000000
1614490468.701276,115.000000,0.000000,2.827091,-2.054476,-0.070929,0.362576,7.821626,-1.103183,-13.474449,-1.683702,-14.019907,-13.831509,-4.045276,-4.207545,-6.863938,-11.877463,-19.263678,-9.410870,-19.323587,-8.813465,-36.988937,-30.598349,-28.637735,-40.185772,-9.338669,-39.320694,-23.884869,-14.752400,22.066549,-3.002664,-11.244461,-3.280326,-5.557889,-18.367233,8192.000000,0.000000,4.000000,,,,0.000000,4.000000,4.000000,4.000000,4.000000,4.000000,4.000000,4.000000,4.000000,4.000000,4.000000,4.000000,4.000000,4.000000,4.000000,4.000000,4.000000,4.000000,4.000000,4.000000,4.000000,4.000000,4.000000,4.000000,4.000000,4.000000,4.000000,4.000000,4.000000,4.000000,4.000000,4.000000,4.000000,100.000000
1614490468.709025,116.000000,0.000000,2.824263,-4.103703,-2.122140,-1.176248,-1.416965,-8.794388,-15.512257,-4.758942,-17.082809,-33.817677,-24.041231,-7.793081,-10.959638,-21.609175,-43.859798,-24.273252,-23.919647,-30.343113,-59.516048,-44.413902,-45.019352,-69.889175,-17.534458,-63.896759,-26.425085,-16.788929,10.762432,-4.538123,-9.694755,-6.353968,-9.142076,-18.348867,8064.000000,0.000000,4.000000,,,,0.000000,4.000000,4.000000,4.000000,4.000000,4.000000,4.000000,4.000000,4.000000,4.000000,4.000000,4.000000,4.000000,4.000000,4.000000,4.000000,4.000000,4.000000,4.000000,4.000000,4.000000,4.000000,4.000000,4.000000,4.000000,4.000000,4.000000,4.000000,4.000000,4.000000,4.000000,4.000000,4.000000,100.000000
1614490468.716674,117.000000,0.000000,2.821439,-6.150882,-10.837967,-2.200713,-2.954009,-9.811234,-5.240335,-3.728542,-19.117010,-22.501808,-24.017189,-2.144262,-5.820473,-12.869617,-33.559528,-21.172056,-14.152139,-21.594822,-51.764225,-36.677181,-37.794846,-99.050056,-28.798975,-61.268757,-18.706352,-17.797781,14.341413,-1.969482,-4.556855,-6.860435,-7.081651,-18.843338,8064.000000,0.000000,4.000000,,,,0.000000,4.000000,4.000000,4.000000,4.000000,4.000000,4.000000,4.000000,4.000000,4.000000,4.000000,4.000000,4.000000,4.000000,4.000000,4.000000,4.000000,4.000000,4.000000,4.000000,4.000000,4.000000,4.000000,4.000000,4.000000,4.000000,4.000000,4.000000,4.000000,4.000000,4.000000,4.000000,4.000000,100.000000
1614490468.724523,118.000000,0.000000,2.818618,-5.631910,-10.827128,-1.172871,-0.386953,-4.160397,8.611060,2.429033,-12.431226,6.238642,2.673494,7.088651,11.621244,11.245816,-0.705456,4.490141,7.913296,8.683184,-19.404770,-9.461019,-5.962180,-77.412544,-24.154791,-30.951080,-6.379954,-17.267164,13.301431,4.186334,-3.526657,-4.802292,-1.946364,-15.747572,8064.000000,0.000000,4.000000,,,,0.000000,4.000000,4.000000,4.000000,4.000000,4.000000,4.000000,4.000000,4.000000,4.000000,4.000000,4.000000,4.000000,4.000000,4.000000,4.000000,4.000000,4.000000,4.000000,4.000000,4.000000,4.000000,4.000000,4.000000,4.000000,4.000000,4.000000,4.000000,4.000000,4.000000,4.000000,4.000000,4.000000,100.000000
1614490468.732272,119.000000,0.000000,2.815799,-5.113458,3.542673,9.597532,0.639075,-1.079314,13.217834,9.606091,-4.213666,20.591377,22.670820,12.209767,21.866034,24.567904,18.269608,20.895906,22.777178,24.059116,0.101814,15.163828,19.684807,-51.694107,-7.720380,-0.150898,-0.732549,-17.249897,2.006078,8.797532,-5.061592,-2.746208,0.106864,-11.116440,8064.000000,0.000000,4.000000,,,,0.000000,4.000000,4.000000,4.000000,4.000000,4.000000,4.000000,4.000000,4.000000,4.000000,4.000000,4.000000,4.000000,4.000000,4.000000,4.000000,4.000000,4.000000,4.000000,4.000000,4.000000,4.000000,4.000000,4.000000,4.000000,4.000000,4.000000,4.000000,4.000000,4.000000,4.000000,4.000000,4.000000,100.000000
1614490468.740121,120.000000,0.000000,2.812983,-5.621165,10.718617,17.280243,3.715359,-1.591055,7.050769,12.673408,-3.696632,14.416941,19.571226,10.146276,12.613399,14.286925,13.123134,19.336550,19.677477,28.650442,2.152995,16.687126,22.742046,-49.078308,6.646314,10.618484,-2.270278,-17.232647,-0.047210,8.275914,-3.005248,-2.230641,0.619578,-10.079682,8064.000000,0.000000,4.000000,,,,0.000000,4.000000,4.000000,4.000000,4.000000,4.000000,4.000000,4.000000,4.000000,4.000000,4.000000,4.000000,4.000000,4.000000,4.000000,4.000000,4.000000,4.000000,4.000000,4.000000,4.000000,4.000000,4.000000,4.000000,4.000000,4.000000,4.000000,4.000000,4.000000,4.000000,4.000000,4.000000,4.000000,100.000000
1614490468.747870,121.000000,0.000000,2.810170,-5.615544,1.989950,9.570655,0.634721,-3.127925,-5.776794,6.506888,-7.282679,-4.059015,10.833707,0.905360,-3.809471,-1.624797,-2.274605,17.265930,4.273184,30.160254,0.099560,0.260182,8.360330,-41.849743,10.229411,-0.161365,-8.421854,-17.215414,-1.585624,5.703536,-6.079166,-2.741231,-0.406683,-13.146525,8064.000000,0.000000,4.000000,,,,0.000000,4.000000,4.000000,4.000000,4.000000,4.000000,4.000000,4.000000,4.000000,4.000000,4.000000,4.000000,4.000000,4.000000,4.000000,4.000000,4.000000,4.000000,4.000000,4.000000,4.000000,4.000000,4.000000,4.000000,4.000000,4.000000,4.000000,4.000000,4.000000,4.000000,4.000000,4.000000,4.000000,100.000000
1614490468.755719,122.000000,0.000000,2.807360,-6.122749,-1.088963,1.868777,-0.904375,-5.176080,-15.514607,-4.781670,-7.788217,-13.798546,8.771591,-6.275032,-11.497970,-5.212916,-14.067203,17.248665,-8.551601,22.437784,-1.951822,-12.047771,-6.007005,-34.115585,4.065336,-11.956076,-16.105740,-17.198198,-2.609679,4.672191,-10.688472,-2.738490,-0.406276,-14.159020,8064.000000,0.000000,4.000000,,,,0.000000,4.000000,4.000000,4.000000,4.000000,4.000000,4.000000,4.000000,4.000000,4.000000,4.000000,4.000000,4.000000,4.000000,4.000000,4.000000,4.000000,4.000000,4.000000,4.000000,4.000000,4.000000,4.000000,4.000000,4.000000,4.000000,4.000000,4.000000,4.000000,4.000000,4.000000,4.000000,4.000000,100.000000
1614490468.763468,123.000000,0.000000,2.804553,-5.603806,0.963408,2.892549,7.814478,-5.170904,-16.011913,-8.879452,-5.729146,-9.169362,10.301281,-3.704654,-8.922369,-4.182062,-17.130058,16.205776,-9.568691,16.261501,1.127053,-11.010082,-7.026639,-46.389164,-3.118217,-7.841556,-18.140915,-16.668180,13.290366,4.154698,-9.139321,-1.710110,1.645412,-14.657681,8064.000000,0.000000,4.000000,,,,0.000000,4.000000,4.000000,4.000000,4.000000,4.000000,4.000000,4.000000,4.000000,4.000000,4.000000,4.000000,4.000000,4.000000,4.000000,4.000000,4.000000,4.000000,4.000000,4.000000,4.000000,4.000000,4.000000,4.000000,4.000000,4.000000,4.000000,4.000000,4.000000,4.000000,4.000000,4.000000,4.000000,100.000000
1614490468.771317,124.000000,0.000000,2.801748,-5.598202,-8.268325,1.351195,9.345125,-4.652912,-16.508722,-5.280829,-7.774699,-11.211475,7.726877,-2.162488,-4.298062,-5.716341,-18.651390,13.625467,-5.969379,15.732419,1.125926,-9.973431,-7.019613,-51.983799,-4.653560,-8.346535,-16.584312,-17.164331,27.123230,4.663364,-12.207106,-2.221221,-4.510079,-16.694305,8064.000000,0.000000,4.000000,,,,0.000000,4.000000,4.000000,4.000000,4.000000,4.000000,4.000000,4.000000,4.000000,4.000000,4.000000,4.000000,4.000000,4.000000,4.000000,4.000000,4.000000,4.000000,4.000000,4.000000,4.000000,4.000000,4.000000,4.000000,4.000000,4.000000,4.000000,4.000000,4.000000,4.000000,4.000000,4.000000,4.000000,100.000000
1614490468.779066,125.000000,0.000000,2.798946,-6.105424,-10.311338,5.965228,-0.407810,-6.699541,-15.466572,-5.275548,-11.356668,-8.123341,-0.998798,-4.724429,-4.293764,-5.197804,-17.607098,11.047739,-7.501871,7.511559,-17.849560,-15.091662,-13.166439,-27.829250,-6.700188,-24.748444,-17.593370,-18.172810,22.993542,4.145880,-17.835924,-4.783102,-17.838903,-18.728893,8064.000000,0.000000,4.000000,,,,0.000000,4.000000,4.000000,4.000000,4.000000,4.000000,4.000000,4.000000,4.000000,4.000000,4.000000,4.000000,4.000000,4.000000,4.000000,4.000000,4.000000,4.000000,4.000000,4.000000,4.000000,4.000000,4.000000,4.000000,4.000000,4.000000,4.000000,4.000000,4.000000,4.000000,4.000000,4.000000,4.000000,100.000000
1614490468.786915,126.000000,0.000000,2.796148,-3.022396,8.673332,23.907980,2.669521,-3.103098,-8.271618,-3.731811,-8.268389,12.397603,-3.561902,1.434142,-3.263829,-0.064402,-5.281798,11.036692,-8.007190,2.375842,-32.703503,-17.640673,-13.153273,-7.801422,-9.770411,-29.851900,-15.524494,-15.077713,19.893625,4.141734,-11.151422,-5.291140,-19.872345,-18.710165,8064.000000,0.000000,4.000000,,,,0.000000,4.000000,4.000000,4.000000,4.000000,4.000000,4.000000,4.000000,4.000000,4.000000,4.000000,4.000000,4.000000,4.000000,4.000000,4.000000,4.000000,4.000000,4.000000,4.000000,4.000000,4.000000,4.000000,4.000000,4.000000,4.000000,4.000000,4.000000,4.000000,4.000000,4.000000,4.000000,4.000000,100.000000
1614490468.794664,127.000000,0.000000,2.793351,1.083191,12.767222,29.525099,15.487364,4.592313,-3.135142,1.400126,-2.106274,16.487770,0.031403,8.612195,-0.183642,3.525406,0.364510,11.025655,-6.460721,9.040133,-23.952852,-16.084572,-9.037556,-4.716697,-9.760641,-26.232306,-9.867945,-13.524174,18.848091,4.137592,-2.935142,-6.311490,-11.647346,-18.178635,8064.000000,0.000000,4.000000,,,,0.000000,4.000000,4.000000,4.000000,4.000000,4.000000,4.000000,4.000000,4.000000,4.000000,4.000000,4.000000,4.000000,4.000000,4.000000,4.000000,4.000000,4.000000,4.000000,4.000000,4.000000,4.000000,4.000000,4.000000,4.000000,4.000000,4.000000,4.000000,4.000000,4.000000,4.000000,4.000000,4.000000,100.000000
1614490468.802513,0.000000,0.000000,2.790558,0.569287,-7.758365,17.187881,11.882133,2.023618,-6.208930,-1.165377,-7.745193,-7.118462,-7.660936,0.911275,-1.209100,3.009060,-8.866624,4.860783,-7.992722,3.902887,-25.980181,-27.350538,-23.900312,-1.635057,-9.750880,-41.590687,-16.524744,-19.664495,6.008730,2.082173,-8.060411,-14.510306,-15.225441,-18.160456,0.000000,223.000000,4.000000,,,,0.000000,4.000000,4.000000,4.000000,4.000000,4.000000,4.000000,4.000000,4.000000,4.000000,4.000000,4.000000,4.000000,4.000000,4.000000,4.000000,4.000000,4.000000,4.000000,4.000000,4.000000,4.000000,4.000000,4.000000,4.000000,4.000000,4.000000,4.000000,4.000000,4.000000,4.000000,4.000000,4.000000,100.000000
1614490468.810262,1.000000,0.000000,2.787767,-1.482564,-11.340350,9.991206,-1.975903,-3.619431,-7.741182,-7.318058,-20.557961,-19.419035,-17.909685,-7.294764,-3.259173,3.006051,-11.934680,-3.862027,-10.548832,-14.049733,-48.005482,-51.425751,-43.876411,-13.428294,-15.382155,-57.959354,-32.405655,-25.285856,-3.740869,-2.022474,-14.719018,-21.675283,-25.466627,-18.142296,0.000000,168.000000,4.000000,,,,0.000000,4.000000,4.000000,4.000000,4.000000,4.000000,4.000000,4.000000,4.000000,4.000000,4.000000,4.000000,4.000000,4.000000,4.000000,4.000000,4.000000,4.000000,4.000000,4.000000,4.000000,4.000000,4.000000,4.000000,4.000000,4.000000,4.000000,4.000000,4.000000,4.000000,4.000000,4.000000,4.000000,100.000000
1614490468.818111,2.000000,0.000000,2.784980,-1.481082,-1.072600,8.955574,-6.076491,2.025214,-6.194979,-5.772278,-23.101505,-13.245770,-8.148186,3.481761,-1.204631,5.054327,-6.794540,-1.806883,-7.461360,-8.907478,-43.854912,-57.528172,-33.063305,-38.030251,-21.007799,-39.439857,-35.450172,-22.696468,-3.224307,-3.558913,-13.678658,-21.140787,-26.979622,-18.124153,0.000000,193.000000,4.000000,,,,0.000000,4.000000,4.000000,4.000000,4.000000,4.000000,4.000000,4.000000,4.000000,4.000000,4.000000,4.000000,4.000000,4.000000,4.000000,4.000000,4.000000,4.000000,4.000000,4.000000,4.000000,4.000000,4.000000,4.000000,4.000000,4.000000,4.000000,4.000000,4.000000,4.000000,4.000000,4.000000,4.000000,100.000000
1614490468.825861,3.000000,0.000000,2.782195,-5.582165,-6.712553,5.869695,-4.019133,6.125752,-4.137502,-3.715224,-20.514301,-7.078678,7.244578,14.247510,0.335035,6.587735,-5.762105,11.528257,-0.274411,15.203993,-10.990546,-32.342438,-2.773832,-30.299913,-21.499611,-6.579904,-23.107029,-20.109669,-2.195442,-0.991251,-13.152159,-20.606827,-24.901360,-18.106030,0.000000,207.000000,4.000000,,,,0.000000,4.000000,4.000000,4.000000,4.000000,4.000000,4.000000,4.000000,4.000000,4.000000,4.000000,4.000000,4.000000,4.000000,4.000000,4.000000,4.000000,4.000000,4.000000,4.000000,4.000000,4.000000,4.000000,4.000000,4.000000,4.000000,4.000000,4.000000,4.000000,4.000000,4.000000,4.000000,4.000000,100.000000
1614490468.833710,4.000000,0.000000,2.779413,-8.140685,-5.167379,12.017672,-4.527934,2.017063,-4.133365,-5.249970,-23.570711,-8.610061,9.801435,9.105058,0.847520,6.068326,-6.781984,14.080832,4.854068,24.419558,7.994804,-3.592148,12.613558,-17.449100,-12.760162,11.375394,-16.417255,-21.115200,0.370856,0.548202,-13.139007,-21.611860,-25.389278,-18.087923,0.000000,199.000000,4.000000,,,,0.000000,4.000000,4.000000,4.000000,4.000000,4.000000,4.000000,4.000000,4.000000,4.000000,4.000000,4.000000,4.000000,4.000000,4.000000,4.000000,4.000000,4.000000,4.000000,4.000000,4.000000,4.000000,4.000000,4.000000,4.000000,4.000000,4.000000,4.000000,4.000000,4.000000,4.000000,4.000000,4.000000,100.000000
1614490468.841459,5.000000,0.000000,2.776633,-4.029980,11.760865,15.595398,-5.549047,2.015046,-8.744617,-3.193438,-19.957396,-20.909143,6.714711,-2.186099,1.359493,0.421232,-12.416227,2.271879,5.362035,21.318216,4.397065,8.719137,10.549662,-48.713703,-0.439710,9.825557,-17.939301,-21.094086,3.960229,0.547653,-10.561765,-18.000505,-21.774145,-18.069836,0.000000,188.000000,4.000000,,,,0.000000,4.000000,4.000000,4.000000,4.000000,4.000000,4.000000,4.000000,4.000000,4.000000,4.000000,4.000000,4.000000,4.000000,4.000000,4.000000,4.000000,4.000000,4.000000,4.000000,4.000000,4.000000,4.000000,4.000000,4.000000,4.000000,4.000000,4.000000,4.000000,4.000000,4.000000,4.000000,4.000000,100.000000
1614490468.849108,6.000000,0.000000,2.773856,-0.949027,6.620900,-2.881736,-6.569139,1.500210,-16.428179,-7.292809,-9.168208,-32.170284,1.066971,-8.337759,-5.308533,-12.912522,-32.916634,-3.884239,1.766929,23.861000,1.828566,6.146315,2.333984,-65.075241,2.124832,-3.004781,-17.408541,-20.560171,1.392166,0.547106,-9.525562,-17.982504,-17.649807,-18.051765,0.000000,193.000000,4.000000,,,,0.000000,4.000000,4.000000,4.000000,4.000000,4.000000,4.000000,4.000000,4.000000,4.000000,4.000000,4.000000,4.000000,4.000000,4.000000,4.000000,4.000000,4.000000,4.000000,4.000000,4.000000,4.000000,4.000000,4.000000,4.000000,4.000000,4.000000,4.000000,4.000000,4.000000,4.000000,4.000000,4.000000,100.000000
1614490468.856857,7.000000,0.000000,2.771083,-1.973719,-12.360081,-18.776291,-8.101031,-6.706419,-21.539955,-15.490644,-8.133399,-34.189396,-7.139224,-9.867883,-14.021173,-24.181662,-49.293972,-1.316252,-4.901505,22.811499,-3.301468,-7.705985,-6.386299,-40.394783,-5.056780,-21.463314,-16.878311,-20.539610,-2.711790,0.546559,-10.028857,-20.528624,-17.632158,-18.033712,0.000000,211.000000,4.000000,,,,0.000000,4.000000,4.000000,4.000000,4.000000,4.000000,4.000000,4.000000,4.000000,4.000000,4.000000,4.000000,4.000000,4.000000,4.000000,4.000000,4.000000,4.000000,4.000000,4.000000,4.000000,4.000000,4.000000,4.000000,4.000000,4.000000,4.000000,4.000000,4.000000,4.000000,4.000000,4.000000,4.000000,100.000000
1614490468.864506,8.000000,0.000000,2.768312,-2.484566,-11.322080,-7.988283,-9.118571,-10.289455,-17.928673,-8.808487,-14.791932,-30.565464,-11.234649,-10.370835,-12.468690,-22.106197,-38.475449,-2.853397,-11.050449,10.993814,-12.528935,-18.980330,-12.020938,-51.123619,-8.641467,-35.800827,-16.861433,-20.519072,-2.196258,0.546012,-10.018828,-16.405531,-18.127346,-17.502859,0.000000,215.000000,4.000000,,,,0.000000,4.000000,4.000000,4.000000,4.000000,4.000000,4.000000,4.000000,4.000000,4.000000,4.000000,4.000000,4.000000,4.000000,4.000000,4.000000,4.000000,4.000000,4.000000,4.000000,4.000000,4.000000,4.000000,4.000000,4.000000,4.000000,4.000000,4.000000,4.000000,4.000000,4.000000,4.000000,4.000000,100.000000
1614490468.872255,9.000000,0.000000,2.765543,-1.456440,-3.618449,7.917141,-6.032529,-6.689423,-5.603052,5.046475,-14.264319,-15.150284,-11.223414,-11.386106,-5.789555,-8.237937,-14.847228,-4.389006,-11.552219,2.777692,-16.618971,-16.910069,-13.547379,-83.380188,-8.120005,-39.354767,-15.306109,-20.498552,-2.194062,0.545466,-9.495989,-9.722460,-17.083578,-17.998177,0.000000,176.000000,4.000000,,,,0.000000,4.000000,4.000000,4.000000,4.000000,4.000000,4.000000,4.000000,4.000000,4.000000,4.000000,4.000000,4.000000,4.000000,4.000000,4.000000,4.000000,4.000000,4.000000,4.000000,4.000000,4.000000,4.000000,4.000000,4.000000,4.000000,4.000000,4.000000,4.000000,4.000000,4.000000,4.000000,4.000000,100.000000
1614490468.879904,10.000000,0.000000,2.762778,-1.967805,-2.076370,10.473327,-1.411112,-4.631451,3.120500,4.528608,-10.147491,3.839226,-11.212191,-10.861898,-3.219663,-0.024571,-6.114432,-3.871796,-7.950923,2.262094,-19.166454,-16.893158,-12.508190,-67.399376,-9.650347,-37.776951,-13.752342,-20.478054,-2.191868,0.544921,-9.999313,-8.687096,-19.117777,-17.980179,0.000000,164.000000,4.000000,,,,0.000000,4.000000,4.000000,4.000000,4.000000,4.000000,4.000000,4.000000,4.000000,4.000000,4.000000,4.000000,4.000000,4.000000,4.000000,4.000000,4.000000,4.000000,4.000000,4.000000,4.000000,4.000000,4.000000,4.000000,4.000000,4.000000,4.000000,4.000000,4.000000,4.000000,4.000000,4.000000,4.000000,100.000000
1614490468.887653,11.000000,0.000000,2.760015,-1.965837,3.566733,6.360289,-2.435342,-5.652461,-2.523646,-4.706689,-11.675805,-4.369741,-14.277902,-9.825396,-4.242084,-9.255316,-23.544214,-11.047411,-9.994254,-2.355552,-30.942160,-33.286522,-16.598246,-50.921719,-8.615055,-44.405842,-13.225769,-19.944756,-2.189676,0.544376,-9.989314,-9.704050,-21.662762,-17.449377,0.000000,200.000000,4.000000,,,,0.000000,4.000000,4.000000,4.000000,4.000000,4.000000,4.000000,4.000000,4.000000,4.000000,4.000000,4.000000,4.000000,4.000000,4.000000,4.000000,4.000000,4.000000,4.000000,4.000000,4.000000,4.000000,4.000000,4.000000,4.000000,4.000000,4.000000,4.000000,4.000000,4.000000,4.000000,4.000000,4.000000,100.000000
1614490468.895303,12.000000,0.000000,2.244434,-1.963871,2.024704,3.277005,-7.561112,-5.646808,-11.751891,-5.214803,-14.741053,-21.288448,-21.443111,-11.354032,-9.366047,-21.553753,-40.443748,-22.318415,-15.625286,-12.609607,-45.783012,-48.125031,-30.940622,-68.819511,-11.170543,-55.643486,-13.725364,-21.976091,-6.290050,0.543831,-9.979324,-9.181525,-21.641098,-17.944748,0.000000,189.000000,4.000000,,,,0.000000,4.000000,4.000000,4.000000,4.000000,4.000000,4.000000,4.000000,4.000000,4.000000,4.000000,4.000000,4.000000,4.000000,4.000000,4.000000,4.000000,4.000000,4.000000,4.000000,4.000000,4.000000,4.000000,4.000000,4.000000,4.000000,4.000000,4.000000,4.000000,4.000000,4.000000,4.000000,4.000000,100.000000
1614490468.903052,13.000000,0.000000,2.755010,-1.961907,-11.823474,2.760908,-8.579192,-5.128341,-11.740140,-2.645486,-14.213490,-14.087673,-21.934488,-8.778575,-9.356681,-13.839891,-30.146894,-21.270456,-7.404532,-16.699562,-43.173126,-45.512802,-33.473785,-55.417362,-21.415783,-52.510921,-14.224459,-24.005398,-8.847862,0.543288,-9.969345,-8.659523,-22.132278,-22.542189,0.000000,183.000000,4.000000,,,,0.000000,4.000000,4.000000,4.000000,4.000000,4.000000,4.000000,4.000000,4.000000,4.000000,4.000000,4.000000,4.000000,4.000000,4.000000,4.000000,4.000000,4.000000,4.000000,4.000000,4.000000,4.000000,4.000000,4.000000,4.000000,4.000000,4.000000,4.000000,4.000000,4.000000,4.000000,4.000000,4.000000,100.000000
1614490468.910701,14.000000,0.000000,5.316358,-1.959945,-16.939856,2.245327,-7.544972,-4.610392,-8.651477,-4.694122,-13.686457,-3.817175,-4.476656,2.512254,3.986009,5.148308,-7.552644,-0.736365,11.064411,-8.990555,-22.104313,-26.492929,-10.363387,-22.541431,-24.471289,-28.355846,-12.158953,-23.981392,-6.787733,0.542744,-9.959376,-9.676505,-21.084505,-25.596569,0.000000,213.000000,4.000000,,,,0.000000,4.000000,4.000000,4.000000,4.000000,4.000000,4.000000,4.000000,4.000000,4.000000,4.000000,4.000000,2.000000,4.000000,4.000000,4.000000,4.000000,4.000000,4.000000,4.000000,4.000000,4.000000,4.000000,4.000000,4.000000,4.000000,4.000000,4.000000,4.000000,4.000000,4.000000,4.000000,4.000000,83.333336
1614490468.918450,15.000000,0.000000,6.849503,-3.496447,-12.820352,1.217440,-8.050247,-5.118602,-4.540261,-4.176608,-15.724052,-0.736435,23.732948,12.253332,16.802536,17.963673,5.788242,30.033602,21.309757,15.633821,0.994714,-3.389514,14.775181,-18.416325,-13.677588,3.467382,-7.531409,-23.957411,-5.242484,1.055022,-10.462237,-9.154008,-16.448034,-25.058153,0.000000,152.000000,4.000000,,,,0.000000,4.000000,4.000000,4.000000,4.000000,4.000000,4.000000,4.000000,4.000000,4.000000,4.000000,4.000000,2.000000,4.000000,4.000000,4.000000,4.000000,4.000000,4.000000,4.000000,4.000000,4.000000,4.000000,4.000000,4.000000,4.000000,4.000000,4.000000,4.000000,4.000000,4.000000,4.000000,4.000000,83.333336
1614490468.926099,16.000000,0.000000,6.329833,-5.544232,-11.269070,6.857248,-8.555017,-6.139124,4.182228,4.032697,-17.759611,9.520712,44.734856,16.343643,20.375477,27.176477,19.628607,48.977928,26.416653,48.438702,20.993719,6.870286,23.478355,-29.679960,-1.356218,28.079298,-5.472596,-23.933455,-5.750062,3.618070,-10.451775,-9.144854,-13.354664,-25.033094,0.000000,197.000000,4.000000,,,,0.000000,4.000000,4.000000,4.000000,4.000000,4.000000,4.000000,4.000000,4.000000,4.000000,4.000000,4.000000,2.000000,4.000000,4.000000,4.000000,4.000000,4.000000,4.000000,4.000000,4.000000,4.000000,4.000000,4.000000,4.000000,4.000000,4.000000,4.000000,4.000000,4.000000,4.000000,4.000000,4.000000,83.333336
1614490468.933848,17.000000,0.000000,6.323503,-6.051508,-12.796263,13.004237,-8.546463,-3.056062,9.819072,8.644049,-18.254671,12.075294,43.151661,15.814479,18.303820,28.687763,26.788465,42.262283,25.364594,56.595390,30.203495,6.863416,17.813850,-21.445152,5.311805,30.615322,-5.979943,-23.909521,-7.282773,4.640092,-9.415682,-11.186991,-13.854130,-25.008060,0.000000,196.000000,4.000000,,,,0.000000,4.000000,4.000000,4.000000,4.000000,4.000000,4.000000,4.000000,4.000000,4.000000,4.000000,4.000000,2.000000,4.000000,4.000000,4.000000,4.000000,4.000000,4.000000,4.000000,4.000000,4.000000,4.000000,4.000000,4.000000,4.000000,4.000000,4.000000,4.000000,4.000000,4.000000,4.000000,4.000000,83.333336
1614490468.941497,18.000000,0.000000,6.317180,-5.019816,-12.270646,10.427131,-8.025096,2.075199,7.757970,0.943097,-17.723597,0.268346,17.980303,8.619177,7.003464,11.735998,7.787319,22.732841,8.928973,32.949051,21.968164,8.395014,2.924242,-14.244220,10.434698,9.046246,-5.973963,-23.885611,-10.865233,3.096991,-10.431908,-13.227086,-14.353096,-24.983053,0.000000,175.000000,4.000000,,,,0.000000,4.000000,4.000000,4.000000,4.000000,4.000000,4.000000,4.000000,4.000000,4.000000,4.000000,4.000000,2.000000,4.000000,4.000000,4.000000,4.000000,4.000000,4.000000,4.000000,4.000000,4.000000,4.000000,4.000000,4.000000,4.000000,4.000000,4.000000,4.000000,4.000000,4.000000,4.000000,4.000000,83.333336
1614490468.949246,19.000000,0.000000,6.823683,-2.450694,-11.232734,5.801319,-4.940147,0.534662,4.160469,-4.186051,-17.705872,-3.834486,-7.165882,-1.133032,-6.849693,-10.839841,-21.964058,3.735749,-9.541494,11.890460,5.535939,3.771234,-9.386374,-16.281258,8.885802,-11.475621,-5.967989,-23.348906,-13.931292,0.529791,-9.908655,-13.213859,-13.313102,-24.958071,0.000000,177.000000,4.000000,,,,0.000000,4.000000,4.000000,4.000000,4.000000,4.000000,4.000000,4.000000,4.000000,4.000000,4.000000,4.000000,2.000000,4.000000,4.000000,4.000000,4.000000,4.000000,4.000000,4.000000,4.000000,4.000000,4.000000,4.000000,4.000000,4.000000,4.000000,4.000000,4.000000,4.000000,4.000000,4.000000,4.000000,83.333336
1614490468.956896,20.000000,0.000000,6.816859,-1.422602,-11.734322,5.795517,-2.883925,-1.004334,3.130667,-0.079301,-17.688168,-7.420395,-14.851024,-3.183181,-4.791562,-18.008488,-36.813889,-11.652601,-10.044773,7.263185,-3.187546,-10.591512,-12.453911,-18.829079,1.697429,-16.592352,-4.936380,-23.325556,-10.327617,0.529262,-4.257721,-13.200645,-13.299789,-24.933111,0.000000,196.000000,4.000000,,,,0.000000,4.000000,4.000000,4.000000,4.000000,4.000000,4.000000,4.000000,4.000000,4.000000,4.000000,4.000000,2.000000,4.000000,4.000000,4.000000,4.000000,4.000000,4.000000,4.000000,4.000000,4.000000,4.000000,4.000000,4.000000,4.000000,4.000000,4.000000,4.000000,4.000000,4.000000,4.000000,4.000000,83.333336
1614490468.964745,21.000000,0.000000,6.297222,-1.934000,-12.235408,5.789722,-5.445144,3.612055,3.127537,-2.643324,-17.670479,-14.079641,-14.323353,-2.667177,4.443999,-11.323812,-36.264256,-13.179411,1.247323,4.691819,-9.338204,-20.324511,-12.441457,-17.271788,-1.381191,-18.114220,-5.957085,-23.815050,-6.214725,0.528732,0.874742,-13.187445,-14.312130,-24.395359,0.000000,163.000000,4.000000,,,,0.000000,4.000000,4.000000,4.000000,4.000000,4.000000,4.000000,4.000000,4.000000,4.000000,4.000000,4.000000,2.000000,4.000000,4.000000,4.000000,4.000000,4.000000,4.000000,4.000000,4.000000,4.000000,4.000000,4.000000,4.000000,4.000000,4.000000,4.000000,4.000000,4.000000,4.000000,4.000000,4.000000,83.333336
1614490468.972494,22.000000,0.000000,6.290925,-1.932066,-10.171890,6.809573,-3.388417,6.685366,5.175691,-4.691963,-15.601526,-5.860434,-15.847490,-1.638869,8.029299,0.482383,-24.433119,-0.858539,9.451203,1.610204,-12.405789,-18.765724,-11.403375,-13.664773,-1.379810,-19.634567,-10.053692,-22.765594,-5.182869,0.528204,1.899508,-10.097334,-13.272177,-24.370964,0.000000,194.000000,4.000000,,,,0.000000,4.000000,4.000000,4.000000,4.000000,4.000000,4.000000,4.000000,4.000000,4.000000,4.000000,4.000000,2.000000,4.000000,4.000000,4.000000,4.000000,4.000000,4.000000,4.000000,4.000000,4.000000,4.000000,4.000000,4.000000,4.000000,4.000000,4.000000,4.000000,4.000000,4.000000,4.000000,4.000000,83.333336
1614490468.980343,23.000000,0.000000,6.797454,-0.904493,-8.110436,9.366866,3.281638,6.165860,7.221797,8.646063,-13.534642,1.837735,-16.857285,0.926872,7.508449,5.610106,-13.126635,1.193602,11.493034,2.634235,-10.854921,-13.105932,-7.289407,-23.907518,-2.404071,-16.025188,-12.607741,-23.768471,-4.664866,0.527675,0.871968,-9.574416,-13.771726,-24.859413,0.000000,201.000000,4.000000,,,,0.000000,4.000000,4.000000,4.000000,4.000000,4.000000,4.000000,4.000000,4.000000,4.000000,4.000000,4.000000,2.000000,4.000000,4.000000,4.000000,4.000000,4.000000,4.000000,4.000000,4.000000,4.000000,4.000000,4.000000,4.000000,4.000000,4.000000,4.000000,4.000000,4.000000,4.000000,4.000000,4.000000,83.333336
1614490468.988092,24.000000,0.000000,2.688093,-3.467691,-9.640788,4.229294,-2.362669,5.134053,0.035089,10.688699,-16.085211,-10.984616,-16.327606,-2.663798,2.372736,-3.113453,-19.267355,-9.064002,8.917439,-1.470963,-18.023554,-11.554365,-7.282118,-53.627201,0.675256,-18.573267,-17.210518,-31.437010,-9.788406,0.527148,-0.667366,-13.667406,-22.475903,-24.834553,0.000000,201.000000,4.000000,,,,0.000000,4.000000,4.000000,4.000000,4.000000,4.000000,4.000000,4.000000,4.000000,4.000000,4.000000,4.000000,2.000000,4.000000,4.000000,4.000000,4.000000,4.000000,4.000000,4.000000,4.000000,4.000000,4.000000,4.000000,4.000000,4.000000,4.000000,4.000000,4.000000,4.000000,4.000000,4.000000,4.000000,83.333336
1614490468.995941,25.000000,0.000000,-3.468441,-9.105248,-12.195250,-1.415961,-17.232101,1.026355,-10.221356,-10.860452,-20.171690,-20.717220,-18.875381,-8.814981,-5.321945,-12.853930,-34.119881,-11.619040,4.293137,-15.315646,-34.415787,-24.876144,-11.890221,-75.624855,2.213042,-34.964951,-28.475359,-38.585060,-19.522207,0.013800,-4.256442,-16.730661,-31.684196,-24.296898,0.000000,158.000000,4.000000,,,,0.000000,4.000000,4.000000,4.000000,4.000000,4.000000,4.000000,4.000000,4.000000,4.000000,4.000000,4.000000,2.000000,4.000000,4.000000,4.000000,4.000000,4.000000,4.000000,2.000000,4.000000,4.000000,4.000000,4.000000,4.000000,4.000000,4.000000,4.000000,4.000000,4.000000,4.000000,4.000000,4.000000,66.666664
1614490469.003690,26.000000,0.000000,-2.952152,-13.198708,-11.670234,-1.927365,-19.778971,-1.538774,-12.262418,-19.054720,-21.689980,-19.670862,-18.856506,-11.370268,-7.880725,-17.456461,-41.265247,-10.581780,-0.839361,-22.992638,-40.535217,-43.312805,-14.442432,-68.369743,-5.994299,-47.750496,-34.087910,-38.546474,-24.630890,-0.499034,-6.816288,-16.713930,-34.729435,-26.836704,0.000000,144.000000,4.000000,,,,0.000000,4.000000,4.000000,4.000000,4.000000,4.000000,4.000000,4.000000,4.000000,4.000000,4.000000,4.000000,2.000000,4.000000,4.000000,4.000000,4.000000,4.000000,4.000000,2.000000,4.000000,4.000000,4.000000,4.000000,4.000000,4.000000,4.000000,4.000000,4.000000,4.000000,4.000000,4.000000,4.000000,66.666664
1614490469.011539,27.000000,0.000000,2.179005,-13.185509,-11.658564,-3.463900,-13.605347,0.514047,-11.224514,-10.830537,-21.668289,-23.753756,-7.042778,-10.333257,-4.283101,-15.900542,-38.659882,-11.084020,0.699940,-12.200415,-32.802376,-43.782314,-16.479273,-53.429581,-13.680613,-41.036079,-28.925615,-37.482288,-24.093439,1.039926,-6.296651,-16.697216,-32.643425,-28.861149,0.000000,216.000000,4.000000,,,,0.000000,4.000000,4.000000,4.000000,4.000000,4.000000,4.000000,4.000000,4.000000,4.000000,4.000000,4.000000,2.000000,4.000000,4.000000,4.000000,4.000000,4.000000,4.000000,2.000000,4.000000,4.000000,4.000000,4.000000,4.000000,4.000000,4.000000,4.000000,4.000000,4.000000,4.000000,4.000000,4.000000,66.666664
1614490469.019288,28.000000,0.000000,3.202467,-13.172323,-12.672546,0.129308,-12.053280,2.051994,-11.726110,-6.717142,-18.569698,-17.576157,15.015547,-1.092154,3.413490,1.038435,-19.134041,3.286039,10.955650,9.350247,-18.923418,-28.866737,-11.847408,-54.914612,-13.666932,-22.020685,-25.819767,-38.470448,-23.043705,-0.499575,-6.290355,-17.193340,-22.867189,-27.293827,0.000000,202.000000,4.000000,,,,0.000000,4.000000,4.000000,4.000000,4.000000,4.000000,4.000000,4.000000,4.000000,4.000000,4.000000,4.000000,2.000000,4.000000,4.000000,4.000000,4.000000,4.000000,4.000000,2.000000,4.000000,4.000000,4.000000,4.000000,4.000000,4.000000,4.000000,4.000000,4.000000,4.000000,4.000000,4.000000,4.000000,66.666664
1614490469.027137,29.000000,0.000000,2.173623,-13.671971,-10.095771,13.462512,-7.938662,2.562763,-8.124640,1.494703,-10.346000,6.031164,32.949249,16.344835,10.076743,26.165602,11.654324,23.795574,21.201105,30.366539,2.633967,-10.889153,5.600337,-56.910976,-13.653265,-3.537126,-22.204205,-38.431976,-23.020660,-1.011896,-6.796885,-16.150505,-9.510989,-22.138327,0.000000,183.000000,4.000000,,,,0.000000,4.000000,4.000000,4.000000,4.000000,4.000000,4.000000,4.000000,4.000000,4.000000,4.000000,4.000000,2.000000,4.000000,4.000000,4.000000,4.000000,4.000000,4.000000,2.000000,4.000000,4.000000,4.000000,4.000000,4.000000,4.000000,4.000000,4.000000,4.000000,4.000000,4.000000,4.000000,4.000000,66.666664
1614490469.034886,30.000000,0.000000,2.684270,-12.119838,-8.547214,22.166998,-0.751236,4.611482,-7.090875,9.698337,-5.720269,19.358465,38.557327,25.046440,11.605127,35.883026,27.540104,27.874342,23.231186,50.848991,24.169794,16.814045,19.953711,-45.059196,-7.485765,13.902308,-3.720461,-37.880722,-21.459179,8.732705,-6.277267,-13.570252,-4.373273,-20.577728,0.000000,176.000000,4.000000,,,,0.000000,4.000000,4.000000,4.000000,4.000000,4.000000,4.000000,4.000000,4.000000,4.000000,4.000000,4.000000,2.000000,4.000000,4.000000,4.000000,4.000000,4.000000,4.000000,2.000000,4.000000,4.000000,4.000000,4.000000,4.000000,4.000000,4.000000,4.000000,4.000000,4.000000,4.000000,4.000000,4.000000,66.666664
1614490469.042735,31.000000,0.000000,3.194407,-13.646180,-8.538667,20.606369,-0.237665,4.606871,-16.314552,6.611715,-8.791471,15.749364,34.416203,18.354727,11.080702,27.129194,24.435642,25.282366,22.695133,62.080193,34.914856,39.874153,22.497860,-43.475674,7.906336,21.067894,13.719156,-37.842842,-16.309515,21.544485,-6.270990,-12.531041,-3.856080,-21.069971,0.000000,186.000000,4.000000,,,,0.000000,4.000000,4.000000,4.000000,4.000000,4.000000,4.000000,4.000000,4.000000,4.000000,4.000000,4.000000,2.000000,4.000000,4.000000,4.000000,4.000000,4.000000,4.000000,2.000000,4.000000,4.000000,4.000000,4.000000,4.000000,4.000000,4.000000,4.000000,4.000000,4.000000,4.000000,4.000000,4.000000,66.666664
1614490469.050484,32.000000,0.000000,2.678392,-13.119713,-4.427564,20.072943,-0.237427,2.038161,-21.939264,10.707668,-10.321142,14.195153,24.125378,9.105602,11.582441,17.871296,13.129154,28.846827,22.159618,50.736061,28.726095,31.116331,21.962542,-49.073223,17.642019,8.739133,9.602874,-37.805000,-16.806025,23.574223,-6.777540,-13.031331,-2.313762,-21.048901,8064.000000,0.000000,4.000000,,,,0.000000,4.000000,4.000000,4.000000,4.000000,4.000000,4.000000,4.000000,4.000000,4.000000,4.000000,4.000000,2.000000,4.000000,4.000000,4.000000,4.000000,4.000000,4.000000,2.000000,4.000000,4.000000,4.000000,4.000000,4.000000,4.000000,4.000000,4.000000,4.000000,4.000000,4.000000,4.000000,4.000000,66.666664
1614490469.058333,33.000000,0.000000,2.675713,-4.388645,-0.320572,21.591331,5.916656,2.036123,-22.430145,18.389267,-7.746718,13.155316,5.639714,4.481112,10.545218,12.725220,-10.986539,21.125671,17.009253,25.557121,9.210189,5.957009,14.761091,-21.331844,17.624376,-7.679862,-3.740063,-35.715912,-25.507168,22.012188,-6.257942,-13.018299,-2.311448,-20.515032,8064.000000,0.000000,4.000000,,,,0.000000,4.000000,4.000000,4.000000,4.000000,4.000000,4.000000,4.000000,4.000000,4.000000,4.000000,4.000000,2.000000,4.000000,4.000000,4.000000,4.000000,4.000000,4.000000,2.000000,4.000000,4.000000,4.000000,4.000000,4.000000,4.000000,4.000000,4.000000,4.000000,4.000000,4.000000,4.000000,4.000000,66.666664
1614490469.066082,34.000000,0.000000,2.673038,2.282411,-1.858713,19.518457,5.397920,2.546908,-30.612843,4.524725,-6.200510,8.013956,-11.289002,0.886887,7.970571,6.045828,-29.437090,2.130187,11.351218,7.070026,-10.799022,-7.895102,-3.202388,8.433078,14.017009,-15.364491,-6.300426,-32.090454,-25.481661,23.015816,-3.687581,-13.005281,-3.334778,-21.007336,8064.000000,0.000000,4.000000,,,,0.000000,4.000000,4.000000,4.000000,4.000000,4.000000,4.000000,4.000000,4.000000,4.000000,4.000000,4.000000,2.000000,4.000000,4.000000,4.000000,4.000000,4.000000,4.000000,2.000000,4.000000,4.000000,4.000000,4.000000,4.000000,4.000000,4.000000,4.000000,4.000000,4.000000,4.000000,4.000000,4.000000,66.666664
1614490469.073831,35.000000,0.000000,2.670365,-1.309615,-5.446598,16.422016,-0.248504,2.031540,-32.633514,-3.172108,-6.707130,5.954660,-9.739252,-0.139641,6.936959,3.475679,-16.074320,1.615237,9.801406,5.524495,-17.967710,-11.989770,-13.455596,-6.959970,8.361966,-19.451691,-4.242843,-30.007080,-13.148487,19.403057,-2.145432,-13.505096,-3.331443,-21.499149,8064.000000,0.000000,4.000000,,,,0.000000,4.000000,4.000000,4.000000,4.000000,4.000000,4.000000,4.000000,4.000000,4.000000,4.000000,4.000000,2.000000,4.000000,4.000000,4.000000,4.000000,4.000000,4.000000,2.000000,4.000000,4.000000,4.000000,4.000000,4.000000,4.000000,4.000000,4.000000,4.000000,4.000000,4.000000,4.000000,4.000000,66.666664
1614490469.081580,36.000000,0.000000,2.667694,-5.923690,-3.902690,16.405594,-1.273897,2.542329,-20.293186,10.677218,-6.187603,6.974347,7.706385,4.988704,7.955663,8.600409,5.993036,18.536697,12.355707,20.390764,-14.872819,-11.977780,-7.288294,-16.696600,4.763861,-16.355316,-8.341164,-30.489893,-8.007133,14.768270,-2.656107,-10.927488,-3.328112,-21.477650,8064.000000,0.000000,4.000000,,,,0.000000,4.000000,4.000000,4.000000,4.000000,4.000000,4.000000,4.000000,4.000000,4.000000,4.000000,4.000000,2.000000,4.000000,4.000000,4.000000,4.000000,4.000000,4.000000,2.000000,4.000000,4.000000,4.000000,4.000000,4.000000,4.000000,4.000000,4.000000,4.000000,4.000000,4.000000,4.000000,4.000000,66.666664
1614490469.089229,37.000000,0.000000,2.665026,-4.892126,-2.873146,15.876369,-1.272623,2.026966,-16.683149,9.640900,-7.719876,5.941731,9.237140,7.034997,6.922066,7.566167,5.474223,15.954059,10.292069,21.908836,-15.883587,-14.017085,-5.742544,5.884199,6.297559,-12.749216,-11.922566,-30.459404,-14.665792,14.240681,-2.653451,-8.352459,-3.324784,-20.430532,8064.000000,0.000000,4.000000,,,,0.000000,4.000000,4.000000,4.000000,4.000000,4.000000,4.000000,4.000000,4.000000,4.000000,4.000000,4.000000,2.000000,4.000000,4.000000,4.000000,4.000000,4.000000,4.000000,2.000000,4.000000,4.000000,4.000000,4.000000,4.000000,4.000000,4.000000,4.000000,4.000000,4.000000,4.000000,4.000000,4.000000,66.666664
1614490469.096978,38.000000,0.000000,2.662361,-4.374413,-7.998478,12.270748,-3.835453,-0.539163,-26.410057,-6.266177,-9.250618,6.961431,-10.772098,-1.177166,-1.802805,-8.338835,-1.197918,-7.651639,-3.051556,-6.318201,-26.124113,-26.310760,-17.018852,-2.839634,4.239979,-26.069801,-15.500387,-29.916124,-17.215229,12.687978,-2.650797,-10.908209,-3.321459,-21.948563,8064.000000,0.000000,4.000000,,,,0.000000,4.000000,4.000000,4.000000,4.000000,4.000000,4.000000,4.000000,4.000000,4.000000,4.000000,4.000000,2.000000,4.000000,4.000000,4.000000,4.000000,4.000000,4.000000,2.000000,4.000000,4.000000,4.000000,4.000000,4.000000,4.000000,4.000000,4.000000,4.000000,4.000000,4.000000,4.000000,4.000000,66.666664
1614490469.104628,39.000000,0.000000,2.659699,-5.395679,-12.093043,8.668734,-5.370079,-2.077086,-30.999031,-7.798372,-7.702906,6.441648,-20.504915,-7.842655,-11.544592,-18.074085,0.854562,-13.285012,-11.766454,-19.132397,-31.226194,-34.489578,-24.181322,-35.144485,-3.969389,-37.838604,-23.690016,-30.399029,-13.095450,10.111188,-2.648147,-12.435762,-3.318137,-21.413794,8064.000000,0.000000,4.000000,,,,0.000000,4.000000,4.000000,4.000000,4.000000,4.000000,4.000000,4.000000,4.000000,4.000000,4.000000,4.000000,2.000000,4.000000,4.000000,4.000000,4.000000,4.000000,4.000000,2.000000,4.000000,4.000000,4.000000,4.000000,4.000000,4.000000,4.000000,4.000000,4.000000,4.000000,4.000000,4.000000,4.000000,66.666664
1614490469.112377,40.000000,0.000000,2.657039,-5.903104,-9.004027,8.147244,-4.339067,-1.562188,-30.455212,-6.764933,-7.182383,-2.282742,-8.176718,-7.321992,-11.533047,-14.466268,2.392169,0.574426,-4.575200,2.938019,-27.092403,-23.685858,-23.644320,-45.365753,-11.144907,-31.646917,-26.230429,-30.368629,-5.902867,10.613897,-2.645499,-7.807942,-3.314819,-14.212893,8064.000000,0.000000,4.000000,,,,0.000000,4.000000,4.000000,4.000000,4.000000,4.000000,4.000000,4.000000,4.000000,4.000000,4.000000,4.000000,2.000000,4.000000,4.000000,4.000000,4.000000,4.000000,4.000000,2.000000,4.000000,4.000000,4.000000,4.000000,4.000000,4.000000,4.000000,4.000000,4.000000,4.000000,4.000000,4.000000,4.000000,66.666664
1614490469.120026,41.000000,0.000000,2.654382,-5.897202,-7.969382,9.164739,-4.334729,-1.560626,-28.373474,-10.860732,-9.739303,-8.947125,-1.501874,-5.776208,-4.342027,-6.759494,-0.174326,5.189236,0.557581,15.242773,-25.014030,-15.457043,-21.569393,-58.140900,-10.108121,-26.487066,-16.973429,-30.338261,-0.255939,10.603283,-2.642853,-4.723211,-3.311504,-5.993552,8064.000000,0.000000,4.000000,,,,0.000000,4.000000,4.000000,4.000000,4.000000,4.000000,4.000000,4.000000,4.000000,4.000000,4.000000,4.000000,2.000000,4.000000,4.000000,4.000000,4.000000,4.000000,4.000000,2.000000,4.000000,4.000000,4.000000,4.000000,4.000000,4.000000,4.000000,4.000000,4.000000,4.000000,4.000000,4.000000,4.000000,66.666664
1614490469.127775,42.000000,0.000000,2.651728,-4.352843,-12.576797,7.617112,-4.330394,-1.559065,-19.114332,-7.260128,-10.755204,-5.348435,-5.090116,-2.693509,-1.260762,2.478035,0.851489,3.132765,1.069843,13.176248,-17.296709,-16.980047,-8.727311,-80.134041,-9.072371,-20.306732,-9.776968,-30.307922,-3.332606,7.515757,-2.640210,-5.744129,-3.308193,-4.961917,8064.000000,0.000000,4.000000,,,,0.000000,4.000000,4.000000,4.000000,4.000000,4.000000,4.000000,4.000000,4.000000,4.000000,4.000000,4.000000,2.000000,4.000000,4.000000,4.000000,4.000000,4.000000,4.000000,2.000000,4.000000,4.000000,4.000000,4.000000,4.000000,4.000000,4.000000,4.000000,4.000000,4.000000,4.000000,4.000000,4.000000,66.666664
1614490469.135424,43.000000,0.000000,2.136256,-5.886951,-7.948836,4.532572,-3.813243,-1.044686,-14.992653,-1.611842,-10.231628,-1.753343,2.094461,2.437389,-0.746680,11.706326,7.004484,9.283479,7.735440,33.163071,7.335973,-7.219478,11.794237,-65.694931,-12.140223,1.252036,-10.280011,-30.277615,-10.508760,7.508241,-2.637570,-5.738384,-3.304885,-7.521058,8064.000000,0.000000,4.000000,,,,0.000000,4.000000,4.000000,4.000000,4.000000,4.000000,4.000000,4.000000,4.000000,4.000000,4.000000,4.000000,2.000000,4.000000,4.000000,4.000000,4.000000,4.000000,4.000000,2.000000,4.000000,4.000000,4.000000,4.000000,4.000000,4.000000,4.000000,4.000000,4.000000,4.000000,4.000000,4.000000,4.000000,66.666664
1614490469.143173,44.000000,0.000000,2.646940,-9.470808,8.469369,7.604963,-4.835071,-2.069282,-15.490481,3.517975,-10.221397,0.299692,16.451342,4.486234,2.843810,14.258722,11.612864,16.966503,15.420012,55.694012,23.738894,7.659536,19.987572,-45.116417,-2.384493,18.686682,-4.115885,-30.760157,-13.062354,11.090476,-3.147753,-2.142902,-3.301580,-5.462255,8064.000000,0.000000,4.000000,,,,0.000000,4.000000,4.000000,4.000000,4.000000,4.000000,4.000000,4.000000,4.000000,4.000000,4.000000,4.000000,2.000000,4.000000,4.000000,4.000000,4.000000,4.000000,4.000000,2.000000,4.000000,4.000000,4.000000,4.000000,4.000000,4.000000,4.000000,4.000000,4.000000,4.000000,4.000000,4.000000,4.000000,66.666664
1614490469.150822,45.000000,0.000000,5.208395,-7.410055,11.537823,14.776845,-4.317415,-1.041572,-4.705760,14.283688,-10.211176,7.991700,20.537455,4.994568,7.456351,13.731643,12.626892,15.923895,16.943054,50.510113,17.048489,14.318543,20.993225,-57.378994,16.592251,21.744917,5.119000,-29.703756,-12.023651,15.181950,-1.093323,-1.115119,-3.298278,-5.456792,8064.000000,0.000000,4.000000,,,,0.000000,4.000000,4.000000,4.000000,4.000000,4.000000,4.000000,4.000000,4.000000,4.000000,4.000000,4.000000,2.000000,4.000000,4.000000,4.000000,4.000000,4.000000,4.000000,2.000000,4.000000,4.000000,4.000000,4.000000,4.000000,4.000000,4.000000,4.000000,4.000000,4.000000,4.000000,4.000000,4.000000,66.666664
1614490469.158572,46.000000,0.000000,6.741649,-2.274440,-4.883972,17.326170,-1.748995,1.010752,2.991254,16.833508,-10.200964,15.163196,16.414352,7.553676,8.474535,13.717911,12.614265,10.779766,15.900470,36.613449,11.390414,18.919609,22.510693,-54.244690,25.293608,18.133429,6.139522,-27.109949,-12.524448,18.243690,0.959052,-2.652465,-3.294980,-13.656464,8064.000000,0.000000,4.000000,,,,0.000000,4.000000,4.000000,4.000000,4.000000,4.000000,4.000000,4.000000,4.000000,4.000000,4.000000,4.000000,2.000000,4.000000,4.000000,4.000000,4.000000,4.000000,4.000000,2.000000,4.000000,4.000000,4.000000,4.000000,4.000000,4.000000,4.000000,4.000000,4.000000,4.000000,4.000000,4.000000,4.000000,66.666664
1614490469.166221,47.000000,0.000000,6.222086,-4.836268,-16.673960,16.283203,-1.234426,-1.041541,-6.242507,7.585904,-10.190763,15.148032,14.859476,9.597404,7.440420,14.217013,12.088831,8.204884,7.679441,35.038372,8.302100,14.798126,11.718951,-25.472498,25.268314,-0.346243,5.620562,-26.057199,-13.024744,16.174166,-0.067548,-2.136992,-3.291685,-17.232552,8064.000000,0.000000,4.000000,,,,0.000000,4.000000,4.000000,4.000000,4.000000,4.000000,4.000000,4.000000,4.000000,4.000000,4.000000,4.000000,2.000000,4.000000,4.000000,4.000000,4.000000,4.000000,4.000000,2.000000,4.000000,4.000000,4.000000,4.000000,4.000000,4.000000,4.000000,4.000000,4.000000,4.000000,4.000000,4.000000,4.000000,66.666664
1614490469.174070,48.000000,0.000000,6.215865,-9.446816,-11.529080,16.779741,-4.310114,-5.143064,-10.851649,2.450113,-10.180573,13.594423,15.357437,8.562166,7.945800,13.689977,12.589562,9.735141,-2.584648,38.593079,-5.039535,-0.601288,-5.728665,-23.395742,22.166122,-19.833076,4.589301,-26.543962,-12.498899,9.491324,-2.631583,-1.109214,-3.288393,-9.523011,8064.000000,0.000000,4.000000,,,,0.000000,4.000000,4.000000,4.000000,4.000000,4.000000,4.000000,4.000000,4.000000,4.000000,4.000000,4.000000,2.000000,4.000000,4.000000,4.000000,4.000000,4.000000,4.000000,2.000000,4.000000,4.000000,4.000000,4.000000,4.000000,4.000000,4.000000,4.000000,4.000000,4.000000,4.000000,4.000000,4.000000,66.666664
1614490469.181819,49.000000,0.000000,6.209649,-8.924549,-3.825243,16.762960,-4.818624,-5.137920,-4.686951,3.473304,-10.170392,14.606470,15.342080,7.527963,7.937854,12.650645,12.064152,11.776688,-4.120525,34.451920,-16.316547,-9.318635,-9.825500,-38.244141,9.323443,-22.890165,-2.594776,-26.517418,-12.486400,6.404910,-3.141772,-5.723489,-3.285105,-7.975026,8064.000000,0.000000,4.000000,,,,0.000000,4.000000,4.000000,4.000000,4.000000,4.000000,4.000000,4.000000,4.000000,4.000000,4.000000,4.000000,2.000000,4.000000,4.000000,4.000000,4.000000,4.000000,4.000000,2.000000,4.000000,4.000000,4.000000,4.000000,4.000000,4.000000,4.000000,4.000000,4.000000,4.000000,4.000000,4.000000,4.000000,66.666664
1614490469.189668,50.000000,0.000000,6.203439,-8.402804,-1.257316,16.746199,-1.736883,-5.645603,-3.143803,3.982651,-10.160222,14.591864,13.788277,9.571717,7.417096,13.663635,3.334139,10.226449,-3.090764,16.468752,-20.402794,-12.899060,-9.302855,-25.898205,-4.019213,-27.482660,-10.284489,-25.978081,-12.473913,6.911326,-2.112989,-8.794689,-3.281820,-16.684999,8064.000000,0.000000,4.000000,,,,0.000000,4.000000,4.000000,4.000000,4.000000,4.000000,4.000000,4.000000,4.000000,4.000000,4.000000,4.000000,2.000000,4.000000,4.000000,4.000000,4.000000,4.000000,4.000000,2.000000,4.000000,4.000000,4.000000,4.000000,4.000000,4.000000,4.000000,4.000000,4.000000,4.000000,4.000000,4.000000,4.000000,66.666664
1614490469.197417,51.000000,0.000000,6.197236,-8.907222,-1.768879,16.729452,-0.709505,-4.101496,-5.191941,1.927387,-10.150062,4.320861,11.210385,5.972402,7.409678,13.137152,-7.951246,6.626479,-4.113314,3.631770,-20.382391,-21.091290,-9.806373,-9.462051,-7.604938,-33.096203,-10.274204,-26.464922,-12.461440,6.904414,-2.623696,-5.196151,-3.278538,-18.719597,8064.000000,0.000000,4.000000,,,,0.000000,4.000000,4.000000,4.000000,4.000000,4.000000,4.000000,4.000000,4.000000,4.000000,4.000000,4.000000,2.000000,4.000000,4.000000,4.000000,4.000000,4.000000,4.000000,2.000000,4.000000,4.000000,4.000000,4.000000,4.000000,4.000000,4.000000,4.000000,4.000000,4.000000,4.000000,4.000000,4.000000,66.666664
1614490469.205266,52.000000,0.000000,6.191038,-6.334212,-5.869674,11.584517,-2.760078,0.517990,-3.648287,-1.664284,-10.139912,-10.555255,10.686355,-3.777160,7.402269,9.534271,-14.097141,3.542930,-0.519457,9.781984,-10.105598,-14.403531,-2.104258,-18.683357,-7.084512,-15.114389,-9.751110,-26.438457,-13.474619,12.025715,-2.621073,-1.088390,-3.275259,-16.649595,8064.000000,0.000000,4.000000,,,,0.000000,4.000000,4.000000,4.000000,4.000000,4.000000,4.000000,4.000000,4.000000,4.000000,4.000000,4.000000,2.000000,4.000000,4.000000,4.000000,4.000000,4.000000,4.000000,2.000000,4.000000,4.000000,4.000000,4.000000,4.000000,4.000000,4.000000,4.000000,4.000000,4.000000,4.000000,4.000000,4.000000,66.666664
1614490469.213015,53.000000,0.000000,6.184847,-5.302237,-10.992009,2.854984,-4.808599,-0.508169,-5.183101,-4.739543,-10.129771,-13.108802,11.188489,-7.363127,5.856405,5.934993,-15.621506,5.077848,3.070806,16.438869,2.212199,8.174975,8.667077,-19.690315,-1.436402,6.952007,-10.766999,-26.412020,-13.461144,20.218817,-2.618452,-2.112943,-3.784805,-18.171408,8064.000000,0.000000,4.000000,,,,0.000000,4.000000,4.000000,4.000000,4.000000,4.000000,4.000000,4.000000,4.000000,4.000000,4.000000,4.000000,2.000000,4.000000,4.000000,4.000000,4.000000,4.000000,4.000000,2.000000,4.000000,4.000000,4.000000,4.000000,4.000000,4.000000,4.000000,4.000000,4.000000,4.000000,4.000000,4.000000,4.000000,66.666664
1614490469.220864,54.000000,0.000000,6.178662,-5.296935,-14.057940,-0.737615,-4.290970,-5.635866,-6.716379,-5.760445,-10.632463,-6.429027,11.177300,-1.714738,3.286446,4.903417,-10.477678,9.688155,1.016453,17.448071,1.184346,18.423210,10.709692,3.919118,11.385547,8.996337,-9.217772,-26.385607,-12.934863,22.249882,-2.615833,-3.136471,-3.268199,-14.563492,8064.000000,0.000000,4.000000,,,,0.000000,4.000000,4.000000,4.000000,4.000000,4.000000,4.000000,4.000000,4.000000,4.000000,4.000000,4.000000,2.000000,4.000000,4.000000,4.000000,4.000000,4.000000,4.000000,2.000000,4.000000,4.000000,4.000000,4.000000,4.000000,4.000000,4.000000,4.000000,4.000000,4.000000,4.000000,4.000000,4.000000,66.666664
1614490469.228613,55.000000,0.000000,6.172484,-5.291637,-7.377216,4.391328,-3.773859,-5.630230,-3.119919,-3.190582,-9.596189,-2.320033,11.166123,1.363900,3.795980,6.436975,-1.749252,11.729749,0.502616,27.687033,-1.380941,17.379147,9.673341,5.453660,17.528008,6.936059,-6.644451,-26.359222,-13.434749,21.714811,-2.613217,-1.594873,-3.777752,-6.856621,8064.000000,0.000000,4.000000,,,,0.000000,4.000000,4.000000,4.000000,4.000000,4.000000,4.000000,4.000000,4.000000,4.000000,4.000000,4.000000,2.000000,4.000000,4.000000,4.000000,4.000000,4.000000,4.000000,2.000000,4.000000,4.000000,4.000000,4.000000,4.000000,4.000000,4.000000,4.000000,4.000000,4.000000,4.000000,4.000000,4.000000,66.666664
