title:24, start timestamp:1614490699.195808, stop timestamp:1614490744.736827, headset type:EPOCFLEX, headset serial:F00001ED, headset firmware:f12, subject name:s14, channels:75, sampling rate:128, samples:5878      , version:2.0
Timestamp,EEG.Counter,EEG.Interpolated,EEG.Cz,EEG.Fz,EEG.Fp1,EEG.F7,EEG.F3,EEG.FC1,EEG.C3,EEG.FC5,EEG.FT9,EEG.T7,EEG.TP9,EEG.CP5,EEG.CP1,EEG.P3,EEG.P7,EEG.O1,EEG.Pz,EEG.Oz,EEG.O2,EEG.P8,EEG.P4,EEG.CP2,EEG.CP6,EEG.TP10,EEG.T8,EEG.FT10,EEG.FC6,EEG.C4,EEG.FC2,EEG.F4,EEG.F8,EEG.Fp2,EEG.HighBitFlex,EEG.RawCq,EEG.Battery,MarkerIndex,MarkerType,MarkerValueInt,EEG.MarkerHardware,CQ.Cz,CQ.Fz,CQ.Fp1,CQ.F7,CQ.F3,CQ.FC1,CQ.C3,CQ.FC5,CQ.FT9,CQ.T7,CQ.TP9,CQ.CP5,CQ.CP1,CQ.P3,CQ.P7,CQ.O1,CQ.Pz,CQ.Oz,CQ.O2,CQ.P8,CQ.P4,CQ.CP2,CQ.CP6,CQ.TP10,CQ.T8,CQ.FT10,CQ.FC6,CQ.C4,CQ.FC2,CQ.F4,CQ.F8,CQ.Fp2,CQ.Overall
1614490699.195808,42.000000,0.000000,-14.015283,9.268635,-5.485893,-7.330424,-8.155721,3.700277,-7.927609,4.669470,-8.082095,-2.789829,-16.697693,10.556883,-16.007427,-14.559196,4.771065,-15.482419,-37.940655,-17.069918,-7.483317,-14.276593,-27.014725,-130.382294,-13.187204,-32.070381,-2.627308,-8.723802,-1.943022,5.951447,0.267109,40.872959,6.671977,2.300587,8064.000000,0.000000,4.000000,,,,0.000000,4.000000,4.000000,4.000000,4.000000,4.000000,4.000000,4.000000,4.000000,4.000000,4.000000,4.000000,2.000000,4.000000,4.000000,4.000000,4.000000,4.000000,4.000000,4.000000,4.000000,4.000000,4.000000,4.000000,4.000000,4.000000,4.000000,4.000000,4.000000,4.000000,4.000000,4.000000,4.000000,83.333336
1614490699.203656,43.000000,0.000000,-10.924344,9.259366,-7.018869,-7.835914,-7.634745,3.696576,-8.432503,2.100698,-11.150936,-11.504988,-12.578432,10.033505,-13.427318,-14.544636,5.791934,-14.954117,-22.518099,-13.463105,0.216474,-2.467444,-0.321043,-142.046783,-10.609915,-9.987029,-2.111860,-8.715077,1.135844,10.560881,0.266842,45.447472,5.639663,-0.778637,8064.000000,0.000000,4.000000,,,,0.000000,4.000000,4.000000,4.000000,4.000000,4.000000,4.000000,4.000000,4.000000,4.000000,4.000000,4.000000,2.000000,4.000000,4.000000,4.000000,4.000000,4.000000,4.000000,4.000000,4.000000,4.000000,4.000000,4.000000,4.000000,4.000000,4.000000,4.000000,4.000000,4.000000,4.000000,4.000000,4.000000,83.333336
1614490699.211405,44.000000,0.000000,-9.374958,9.250107,-11.114414,-10.392180,-10.191213,3.692880,-7.911250,-7.644992,-15.755170,-28.929380,-12.565853,3.356805,-12.388249,-14.530091,-7.547191,-14.939162,-22.495581,-9.347077,16.113693,2.663228,18.653637,-109.084221,-2.906997,15.151163,-4.673851,-8.706363,0.621887,12.601602,0.266575,40.786640,6.659665,-2.316320,8064.000000,0.000000,4.000000,,,,0.000000,4.000000,4.000000,4.000000,4.000000,4.000000,4.000000,4.000000,4.000000,4.000000,4.000000,4.000000,2.000000,4.000000,4.000000,4.000000,4.000000,4.000000,4.000000,4.000000,4.000000,4.000000,4.000000,4.000000,4.000000,4.000000,4.000000,4.000000,4.000000,4.000000,4.000000,4.000000,4.000000,83.333336
1614490699.219054,45.000000,0.000000,-10.391224,9.240857,-6.487915,-11.407430,-13.257944,3.689187,-7.390518,-11.739911,-15.739415,-35.054298,-13.066108,-4.338859,-12.375861,-14.002741,-8.565285,-12.360121,-18.370522,-4.209525,24.302708,5.737488,20.686266,-103.846931,0.172833,25.905243,-4.156356,-8.184835,4.723830,14.127461,0.266308,38.694569,6.653005,-0.262721,8064.000000,0.000000,4.000000,,,,0.000000,4.000000,4.000000,4.000000,4.000000,4.000000,4.000000,4.000000,4.000000,4.000000,4.000000,4.000000,2.000000,4.000000,4.000000,4.000000,4.000000,4.000000,4.000000,4.000000,4.000000,4.000000,4.000000,4.000000,4.000000,4.000000,4.000000,4.000000,4.000000,4.000000,4.000000,4.000000,4.000000,83.333336
1614490699.226803,46.000000,0.000000,-8.842372,9.231616,1.210880,-10.370381,-14.783148,3.685498,-7.383127,-10.189710,-14.698034,-31.429499,-13.053042,-6.385802,-12.363485,-14.501558,-3.428514,-10.296478,-8.608561,-3.179675,24.791225,9.321494,21.178400,-110.409752,-0.340160,27.930620,-8.767585,-7.663830,5.231926,15.138975,0.778862,37.630234,2.543788,-5.390664,8064.000000,0.000000,4.000000,,,,0.000000,4.000000,4.000000,4.000000,4.000000,4.000000,4.000000,4.000000,4.000000,4.000000,4.000000,4.000000,2.000000,4.000000,4.000000,4.000000,4.000000,4.000000,4.000000,4.000000,4.000000,4.000000,4.000000,4.000000,4.000000,4.000000,4.000000,4.000000,4.000000,4.000000,4.000000,4.000000,4.000000,83.333336
1614490699.234452,47.000000,0.000000,-6.782247,9.222384,-4.944177,-12.411293,-14.768365,3.681812,-8.401385,-10.692341,-16.221798,-30.885250,-14.065630,-5.866596,-12.351122,-16.025518,-9.066112,-11.824643,-11.676875,-3.689316,15.535666,-2.482699,11.413632,-117.991653,-0.852641,18.671919,-15.938304,-8.681808,-2.978434,9.995631,-0.760378,28.874655,-3.612602,-13.077580,8064.000000,0.000000,4.000000,,,,0.000000,4.000000,4.000000,4.000000,4.000000,4.000000,4.000000,4.000000,4.000000,4.000000,4.000000,4.000000,2.000000,4.000000,4.000000,4.000000,4.000000,4.000000,4.000000,4.000000,4.000000,4.000000,4.000000,4.000000,4.000000,4.000000,4.000000,4.000000,4.000000,4.000000,4.000000,4.000000,4.000000,83.333336
1614490699.242201,48.000000,0.000000,-6.775465,9.213162,-10.580258,-10.860420,-15.779238,3.678130,-7.880163,-11.194468,-15.692756,-31.880005,-15.077206,-6.373550,-12.851591,-14.471031,-12.133968,-11.299998,-19.357506,-11.377934,-6.018332,-27.095602,-15.264448,-150.181351,-9.569736,-5.962137,-16.435186,-8.160305,-9.642122,0.242046,-2.810900,22.691935,-5.660271,-10.500401,8064.000000,0.000000,4.000000,,,,0.000000,4.000000,4.000000,4.000000,4.000000,4.000000,4.000000,4.000000,4.000000,4.000000,4.000000,4.000000,2.000000,4.000000,4.000000,4.000000,4.000000,4.000000,4.000000,4.000000,4.000000,4.000000,4.000000,4.000000,4.000000,4.000000,4.000000,4.000000,4.000000,4.000000,4.000000,4.000000,4.000000,83.333336
1614490699.249850,49.000000,0.000000,-7.281510,9.716769,-3.390191,-3.670072,-15.250638,3.674452,-7.359463,-11.696095,-14.651422,-30.309664,-18.139051,-5.854356,-12.838739,-15.995022,-13.660295,-10.775878,-19.850969,-26.751171,-18.832827,-43.478764,-31.146620,-145.415787,-21.355040,-24.930534,-18.470034,-7.639325,-14.247865,-5.399222,-3.320909,23.182064,-6.167432,-9.977079,8064.000000,0.000000,4.000000,,,,0.000000,4.000000,4.000000,4.000000,4.000000,4.000000,4.000000,4.000000,4.000000,4.000000,4.000000,4.000000,2.000000,4.000000,4.000000,4.000000,4.000000,4.000000,4.000000,4.000000,4.000000,4.000000,4.000000,4.000000,4.000000,4.000000,4.000000,4.000000,4.000000,4.000000,4.000000,4.000000,4.000000,83.333336
1614490699.257599,50.000000,0.000000,-8.299870,8.168591,-9.027826,-9.307427,-14.722567,3.670778,-9.916205,-13.222860,-19.252155,-31.304995,-23.761938,-6.361322,-12.825901,-22.132874,-23.390224,-18.970230,-24.959324,-35.955189,-18.813993,-45.999386,-31.115473,-112.449860,-23.897787,-29.520988,-22.554127,-13.785531,-22.438745,-4.881002,-4.856050,21.620420,-8.725367,-21.249153,8064.000000,0.000000,4.000000,,,,0.000000,4.000000,4.000000,4.000000,4.000000,4.000000,4.000000,4.000000,4.000000,4.000000,4.000000,4.000000,2.000000,4.000000,4.000000,4.000000,4.000000,4.000000,4.000000,4.000000,4.000000,4.000000,4.000000,4.000000,4.000000,4.000000,4.000000,4.000000,4.000000,4.000000,4.000000,4.000000,4.000000,83.333336
1614490699.265248,51.000000,0.000000,-10.855672,6.109140,-26.454695,-23.657095,-20.348869,3.667107,-11.444751,-15.260920,-25.899570,-33.324970,-23.225355,-5.329320,-12.813075,-19.546638,-21.315554,-22.028183,-30.062569,-32.329491,-20.333641,-44.414925,-30.571537,-110.798943,-22.848248,-28.465826,-24.070034,-24.028156,-26.518871,-4.363300,-6.902476,19.034697,-9.742283,-26.868931,8064.000000,0.000000,4.000000,,,,0.000000,4.000000,4.000000,4.000000,4.000000,4.000000,4.000000,4.000000,4.000000,4.000000,4.000000,4.000000,2.000000,4.000000,4.000000,4.000000,4.000000,4.000000,4.000000,4.000000,4.000000,4.000000,4.000000,4.000000,4.000000,4.000000,4.000000,4.000000,4.000000,4.000000,4.000000,4.000000,4.000000,83.333336
1614490699.272996,52.000000,0.000000,-10.844816,5.077390,-21.300035,-23.633438,-25.969547,3.663440,-6.817922,-13.707197,-27.412132,-28.676262,-4.740592,3.393958,-11.261800,-6.193758,-0.268596,-9.698462,-23.878660,-15.374084,-5.441513,-34.626919,-22.335838,-142.995834,-23.851040,-16.129667,-24.045965,-28.106691,-21.876966,-4.871758,-7.408394,19.528482,-8.706899,-21.713856,8064.000000,0.000000,4.000000,,,,0.000000,4.000000,4.000000,4.000000,4.000000,4.000000,4.000000,4.000000,4.000000,4.000000,4.000000,4.000000,2.000000,4.000000,4.000000,4.000000,4.000000,4.000000,4.000000,4.000000,4.000000,4.000000,4.000000,4.000000,4.000000,4.000000,4.000000,4.000000,4.000000,4.000000,4.000000,4.000000,4.000000,83.333336
1614490699.280645,53.000000,0.000000,-10.833972,5.585134,-5.381300,-15.404676,-22.353834,3.659776,-3.221360,-9.078105,-23.282156,-23.006561,15.264149,10.057231,-9.199256,1.504744,13.065005,1.080467,-15.649653,7.205392,22.256237,-15.105114,-7.441707,-149.006683,-20.237446,5.937744,-20.432175,-25.514482,-18.265347,-4.866886,-6.888165,20.021774,-8.698193,-19.128040,8064.000000,0.000000,4.000000,,,,0.000000,4.000000,4.000000,4.000000,4.000000,4.000000,4.000000,4.000000,4.000000,4.000000,4.000000,4.000000,2.000000,4.000000,4.000000,4.000000,4.000000,4.000000,4.000000,4.000000,4.000000,4.000000,4.000000,4.000000,4.000000,4.000000,4.000000,4.000000,4.000000,4.000000,4.000000,4.000000,4.000000,83.333336
1614490699.288394,54.000000,0.000000,-10.823137,5.579548,-5.888739,-14.363630,-17.716095,3.656117,-4.243780,-5.992104,-22.746052,-21.957912,12.171962,9.021533,-8.677237,-1.060864,11.513479,0.566566,-15.121183,11.300751,25.310904,-2.269496,-1.793239,-133.985886,-13.550542,15.675396,-11.180974,-23.437687,-17.221439,-4.349199,-6.881277,20.001753,-8.689494,-20.134554,8064.000000,0.000000,4.000000,,,,0.000000,4.000000,4.000000,4.000000,4.000000,4.000000,4.000000,4.000000,4.000000,4.000000,4.000000,4.000000,2.000000,4.000000,4.000000,4.000000,4.000000,4.000000,4.000000,4.000000,4.000000,4.000000,4.000000,4.000000,4.000000,4.000000,4.000000,4.000000,4.000000,4.000000,4.000000,4.000000,4.000000,83.333336
1614490699.296043,55.000000,0.000000,-10.812315,5.573969,-9.985415,-13.836446,-20.262482,4.165281,-4.239536,-8.037395,-27.338692,-22.448776,-4.250467,5.935588,-8.668559,-6.188008,4.322478,0.053179,-15.618882,-4.607985,6.824054,-3.292867,-2.817087,-128.723694,-10.460068,14.634080,-10.144152,-22.901428,-14.640116,-4.344850,-6.874396,20.494572,-8.167984,-21.652880,8064.000000,0.000000,4.000000,,,,0.000000,4.000000,4.000000,4.000000,4.000000,4.000000,4.000000,4.000000,4.000000,4.000000,4.000000,4.000000,2.000000,4.000000,4.000000,4.000000,4.000000,4.000000,4.000000,4.000000,4.000000,4.000000,4.000000,4.000000,4.000000,4.000000,4.000000,4.000000,4.000000,4.000000,4.000000,4.000000,4.000000,83.333336
1614490699.303792,56.000000,0.000000,-10.801502,5.568395,-11.513890,-17.925175,-22.806322,2.622654,-3.722476,-10.593459,-29.875456,-23.451967,-8.861601,4.391191,-8.147070,-10.797205,-9.015178,-1.998157,-15.603264,-14.859788,-0.875078,-7.392138,-2.814270,-119.364204,-12.500890,14.106625,-15.262213,-22.878527,-14.112656,-3.827684,-6.867521,19.961256,-8.672637,-25.733791,8064.000000,0.000000,4.000000,,,,0.000000,4.000000,4.000000,4.000000,4.000000,4.000000,4.000000,4.000000,4.000000,4.000000,4.000000,4.000000,2.000000,4.000000,4.000000,4.000000,4.000000,4.000000,4.000000,4.000000,4.000000,4.000000,4.000000,4.000000,4.000000,4.000000,4.000000,4.000000,4.000000,4.000000,4.000000,4.000000,4.000000,83.333336
1614490699.311441,57.000000,0.000000,-10.790701,5.562827,-20.220325,-34.317505,-22.270695,0.055929,-6.795677,-10.070045,-27.281477,-28.043900,-9.365560,2.335518,-10.190206,-14.888971,-21.313854,-13.278210,-18.151764,-12.280826,2.715541,-8.923208,-2.298635,-141.808945,-15.565312,12.041236,-15.246951,-22.855648,-14.098542,-4.336677,-6.860654,20.454115,-8.151143,-25.708057,8064.000000,0.000000,4.000000,,,,0.000000,4.000000,4.000000,4.000000,4.000000,4.000000,4.000000,4.000000,4.000000,4.000000,4.000000,4.000000,2.000000,4.000000,4.000000,4.000000,4.000000,4.000000,4.000000,4.000000,4.000000,4.000000,4.000000,4.000000,4.000000,4.000000,4.000000,4.000000,4.000000,4.000000,4.000000,4.000000,4.000000,83.333336
1614490699.319190,58.000000,0.000000,-10.267090,6.070084,-27.892412,-38.898571,-22.248425,-0.456947,-7.814522,-10.572796,-25.715734,-30.579960,-12.433117,1.307541,-12.231297,-15.386903,-20.779720,-17.880316,-19.159252,-8.165980,9.892313,-8.914285,2.831868,-167.820984,-14.011285,11.003554,-15.744524,-22.319971,-15.110085,-3.819520,-6.853793,20.433662,-8.142992,-20.554144,8064.000000,0.000000,4.000000,,,,0.000000,4.000000,4.000000,4.000000,4.000000,4.000000,4.000000,4.000000,4.000000,4.000000,4.000000,4.000000,2.000000,4.000000,4.000000,4.000000,4.000000,4.000000,4.000000,4.000000,4.000000,4.000000,4.000000,4.000000,4.000000,4.000000,4.000000,4.000000,4.000000,4.000000,4.000000,4.000000,4.000000,83.333336
1614490699.326839,59.000000,0.000000,-11.282463,5.551194,-27.351700,-28.603264,-22.226175,0.056330,-7.293887,-10.049402,-26.202839,-30.036558,-13.446325,2.331875,-12.731886,-14.858696,-14.605094,-14.272693,-18.114452,-6.106533,16.549088,-11.469473,2.316216,-134.832642,-10.920351,11.505371,-20.344164,-22.810472,-19.710360,-3.815700,-6.846939,14.772202,-11.724593,-22.584871,8064.000000,0.000000,4.000000,,,,0.000000,4.000000,4.000000,4.000000,4.000000,4.000000,4.000000,4.000000,4.000000,4.000000,4.000000,4.000000,2.000000,4.000000,4.000000,4.000000,4.000000,4.000000,4.000000,4.000000,4.000000,4.000000,4.000000,4.000000,4.000000,4.000000,4.000000,4.000000,4.000000,4.000000,4.000000,4.000000,4.000000,83.333336
1614490699.334587,60.000000,0.000000,-14.348104,3.494360,-20.657682,-24.472095,-22.716770,-0.969367,-9.850696,-10.039353,-26.689457,-31.032164,-20.099545,-0.234560,-16.821718,-18.946402,-16.128950,-21.950727,-21.173260,-18.920938,3.199205,-23.765696,-12.557895,-101.877304,-13.986354,-1.839468,-22.887922,-24.838943,-24.306034,-7.401628,-6.840092,9.116405,-17.866714,-28.203314,8064.000000,0.000000,4.000000,,,,0.000000,4.000000,4.000000,4.000000,4.000000,4.000000,4.000000,4.000000,4.000000,4.000000,4.000000,4.000000,2.000000,4.000000,4.000000,4.000000,4.000000,4.000000,4.000000,4.000000,4.000000,4.000000,4.000000,4.000000,4.000000,4.000000,4.000000,4.000000,4.000000,4.000000,4.000000,4.000000,4.000000,83.333336
1614490699.342236,61.000000,0.000000,-14.333755,1.952404,-15.508819,-26.498905,-24.745335,-3.019680,-14.969050,-15.157518,-26.149946,-31.001131,-34.438419,-4.849710,-20.394640,-27.645403,-27.394873,-34.749290,-31.408497,-42.491760,-21.932199,-41.177826,-26.904312,-134.083115,-20.126213,-24.914551,-26.454779,-26.352566,-20.179163,-11.496791,-6.833252,8.594467,-19.900129,-27.662289,7936.000000,0.000000,4.000000,,,,0.000000,4.000000,4.000000,4.000000,4.000000,4.000000,4.000000,4.000000,4.000000,4.000000,4.000000,4.000000,2.000000,4.000000,4.000000,4.000000,4.000000,4.000000,4.000000,4.000000,4.000000,4.000000,4.000000,4.000000,4.000000,4.000000,4.000000,4.000000,4.000000,4.000000,4.000000,4.000000,4.000000,83.333336
1614490699.350085,62.000000,0.000000,-14.319422,0.924811,-23.698439,-26.985228,-26.259050,-4.555122,-15.466902,-20.783386,-25.610975,-29.944489,-40.557827,-6.383322,-20.374247,-35.822887,-43.264915,-39.329926,-39.582218,-48.603115,-31.141037,-52.931522,-34.056896,-166.256729,-24.721472,-40.274254,-33.094990,-26.839035,-15.543600,-11.998115,-6.826419,6.534591,-19.367409,-26.608986,7936.000000,0.000000,4.000000,,,,0.000000,4.000000,4.000000,4.000000,4.000000,4.000000,4.000000,4.000000,4.000000,4.000000,4.000000,4.000000,2.000000,4.000000,4.000000,4.000000,4.000000,4.000000,4.000000,4.000000,4.000000,4.000000,4.000000,4.000000,4.000000,4.000000,4.000000,4.000000,4.000000,4.000000,4.000000,4.000000,4.000000,83.333336
1614490699.357833,63.000000,0.000000,-15.330744,1.949527,-31.367048,-26.958242,-22.643049,-3.012105,-14.938614,-22.813885,-26.611006,-31.453005,-38.978809,-5.864118,-21.379513,-32.197319,-45.785751,-38.777775,-37.491352,-36.246822,-32.648357,-58.519615,-44.279247,-168.141754,-35.978802,-47.413464,-35.113178,-26.299376,-15.528056,-11.473295,-6.819592,5.502416,-21.399324,-28.120838,8064.000000,0.000000,4.000000,,,,0.000000,4.000000,4.000000,4.000000,4.000000,4.000000,4.000000,4.000000,4.000000,4.000000,4.000000,4.000000,2.000000,4.000000,4.000000,4.000000,4.000000,4.000000,4.000000,4.000000,4.000000,4.000000,4.000000,4.000000,4.000000,4.000000,4.000000,4.000000,4.000000,4.000000,4.000000,4.000000,4.000000,83.333336
1614490699.365682,64.000000,0.000000,-12.238490,6.050142,-19.540808,-21.290258,-17.492201,1.606292,-14.923676,-22.278252,-25.558754,-28.857450,-31.247522,-4.832613,-18.281210,-13.190763,-26.252787,-28.995407,-33.864117,-30.569548,-29.025965,-53.332890,-45.773430,-160.794128,-46.712055,-45.314770,-28.924217,-23.708973,-10.384323,-12.487463,-6.812773,10.112298,-18.813822,-27.067076,0.000000,171.000000,4.000000,,,,0.000000,4.000000,4.000000,4.000000,4.000000,4.000000,4.000000,4.000000,4.000000,4.000000,4.000000,4.000000,2.000000,4.000000,4.000000,4.000000,4.000000,4.000000,4.000000,4.000000,4.000000,4.000000,4.000000,4.000000,4.000000,4.000000,4.000000,4.000000,4.000000,4.000000,4.000000,4.000000,4.000000,83.333336
1614490699.373431,65.000000,0.000000,-4.533944,9.633835,-7.213575,-13.576660,-14.910605,4.168788,-15.421573,-16.614946,-20.917810,-16.008080,-13.267556,-3.289319,-7.493698,4.771145,-1.611149,-11.017694,-31.778973,-23.872313,-7.971298,-28.151354,-26.753298,-127.812813,-40.511494,-25.269455,-18.638884,-20.095520,0.395292,-11.449335,-6.805960,12.666288,-9.051418,-22.424625,0.000000,167.000000,4.000000,,,,0.000000,4.000000,4.000000,4.000000,4.000000,4.000000,4.000000,4.000000,4.000000,4.000000,4.000000,4.000000,2.000000,4.000000,4.000000,4.000000,4.000000,4.000000,4.000000,4.000000,4.000000,4.000000,4.000000,4.000000,4.000000,4.000000,4.000000,4.000000,4.000000,4.000000,4.000000,4.000000,4.000000,83.333336
1614490699.381280,66.000000,0.000000,-2.990948,9.624202,-8.744823,-10.486160,-14.382874,3.651798,-14.893331,-7.880383,-17.819969,-4.197200,1.104685,-0.721927,-0.306717,8.868938,10.698154,-2.288727,-22.003603,2.818227,15.626416,1.620388,-4.162442,-109.736282,-22.522266,7.576327,-9.389476,-19.562605,6.035922,-8.873783,-6.799154,14.192083,-4.426982,-18.812456,0.000000,192.000000,4.000000,,,,0.000000,4.000000,4.000000,4.000000,4.000000,4.000000,4.000000,4.000000,4.000000,4.000000,4.000000,4.000000,2.000000,4.000000,4.000000,4.000000,4.000000,4.000000,4.000000,4.000000,4.000000,4.000000,4.000000,4.000000,4.000000,4.000000,4.000000,4.000000,4.000000,4.000000,4.000000,4.000000,4.000000,83.333336
1614490699.389029,67.000000,0.000000,-6.577701,9.101757,-5.146335,-0.219264,-14.881312,3.648147,-14.878437,-5.821221,-18.827791,-5.218644,5.206145,1.330077,-1.332051,6.808787,13.764380,3.354587,-9.673907,30.507717,29.969765,17.003384,13.277618,-141.934235,-6.602308,33.722599,-2.713419,-18.517401,3.978604,-4.762345,-7.305176,18.793276,-5.448196,-17.255182,0.000000,187.000000,4.000000,,,,0.000000,4.000000,4.000000,4.000000,4.000000,4.000000,4.000000,4.000000,4.000000,4.000000,4.000000,4.000000,2.000000,4.000000,4.000000,4.000000,4.000000,4.000000,4.000000,4.000000,4.000000,4.000000,4.000000,4.000000,4.000000,4.000000,4.000000,4.000000,4.000000,4.000000,4.000000,4.000000,4.000000,83.333336
1614490699.396877,68.000000,0.000000,-7.596764,9.605475,4.602401,14.652750,-14.353610,3.644499,-15.376379,-7.353861,-19.321783,-7.777528,11.867605,2.354388,-1.843540,8.340440,15.801897,15.658925,-6.587310,41.759262,46.862873,29.294071,26.597673,-140.253845,3.147884,44.458107,2.930320,-14.909140,-0.127938,0.883443,-6.785050,19.800123,0.711098,-13.648184,0.000000,208.000000,4.000000,,,,0.000000,4.000000,4.000000,4.000000,4.000000,4.000000,4.000000,4.000000,4.000000,4.000000,4.000000,4.000000,2.000000,4.000000,4.000000,4.000000,4.000000,4.000000,4.000000,4.000000,4.000000,4.000000,4.000000,4.000000,4.000000,4.000000,4.000000,4.000000,4.000000,4.000000,4.000000,4.000000,4.000000,83.333336
1614490699.404626,69.000000,0.000000,-6.050706,9.595870,4.597799,12.586815,-14.339257,3.640854,-14.848182,-2.731123,-17.764000,-3.154366,20.060865,2.352034,-0.816055,8.332100,16.811735,21.284292,-2.990979,43.255962,60.662163,43.623753,34.776203,-107.293076,11.862685,45.952110,10.619698,-10.791667,-2.691913,6.010765,-4.214162,16.703400,9.941156,-10.557612,0.000000,191.000000,4.000000,,,,0.000000,4.000000,4.000000,4.000000,4.000000,4.000000,4.000000,4.000000,4.000000,4.000000,4.000000,4.000000,2.000000,4.000000,4.000000,4.000000,4.000000,4.000000,4.000000,4.000000,4.000000,4.000000,4.000000,4.000000,4.000000,4.000000,4.000000,4.000000,4.000000,4.000000,4.000000,4.000000,4.000000,83.333336
1614490699.412475,70.000000,0.000000,-6.044655,9.073454,2.541919,1.292177,-14.837738,5.175675,-10.217949,1.886993,-17.746237,1.464173,22.092087,1.836861,-0.815239,7.810947,16.282104,19.211725,4.704319,46.802448,61.627140,42.041668,38.331173,-97.955017,21.594412,46.418976,13.173180,-10.780875,-0.125119,8.056036,-2.671487,16.173876,11.469677,-13.111157,0.000000,196.000000,4.000000,,,,0.000000,4.000000,4.000000,4.000000,4.000000,4.000000,4.000000,4.000000,4.000000,4.000000,4.000000,4.000000,2.000000,4.000000,4.000000,4.000000,4.000000,4.000000,4.000000,4.000000,4.000000,4.000000,4.000000,4.000000,4.000000,4.000000,4.000000,4.000000,4.000000,4.000000,4.000000,4.000000,4.000000,83.333336
1614490699.420224,71.000000,0.000000,-8.089892,9.064380,2.026556,-0.247577,-14.310080,1.067935,-7.130808,1.372285,-20.292593,-1.101393,21.044353,1.835024,-1.840065,7.290316,15.240181,20.730976,2.135512,45.217186,54.386028,30.204754,30.600533,-130.164749,21.572819,42.782814,7.006161,-12.308556,3.464750,7.022339,-2.668815,15.644882,9.406925,-11.046764,0.000000,204.000000,4.000000,,,,0.000000,4.000000,4.000000,4.000000,4.000000,4.000000,4.000000,4.000000,4.000000,4.000000,4.000000,4.000000,2.000000,4.000000,4.000000,4.000000,4.000000,4.000000,4.000000,4.000000,4.000000,4.000000,4.000000,4.000000,4.000000,4.000000,4.000000,4.000000,4.000000,4.000000,4.000000,4.000000,4.000000,83.333336
1614490699.428073,72.000000,0.000000,-11.158726,8.542495,-0.026752,3.855235,-12.244488,0.041226,-7.123677,0.345272,-15.144094,-5.202856,16.920746,2.346010,-1.838225,5.744564,13.173658,16.094860,-2.994828,32.864277,41.511127,23.507883,13.134035,-152.085876,7.705091,33.509262,3.409411,-10.757786,3.974106,7.015316,-3.178967,17.167698,10.423159,3.323257,0.000000,197.000000,4.000000,,,,0.000000,4.000000,4.000000,4.000000,4.000000,4.000000,4.000000,4.000000,4.000000,4.000000,4.000000,4.000000,2.000000,4.000000,4.000000,4.000000,4.000000,4.000000,4.000000,4.000000,4.000000,4.000000,4.000000,4.000000,4.000000,4.000000,4.000000,4.000000,4.000000,4.000000,4.000000,4.000000,4.000000,83.333336
1614490699.435821,73.000000,0.000000,-10.121926,9.559594,11.255326,7.441123,-10.693782,8.759133,-5.578092,0.857747,-4.359720,-3.146371,7.160235,1.830843,-0.810746,4.200357,8.032280,4.283893,-4.017475,20.523720,26.597822,14.766425,1.838850,-167.318405,-0.507742,18.603958,4.431643,-5.106002,4.482952,8.033942,-2.662967,22.791557,10.925556,9.473780,0.000000,193.000000,4.000000,,,,0.000000,4.000000,4.000000,4.000000,4.000000,4.000000,4.000000,4.000000,4.000000,4.000000,4.000000,4.000000,2.000000,4.000000,4.000000,4.000000,4.000000,4.000000,4.000000,4.000000,4.000000,4.000000,4.000000,4.000000,4.000000,4.000000,4.000000,4.000000,4.000000,4.000000,4.000000,4.000000,4.000000,83.333336
1614490699.443470,74.000000,0.000000,-10.624624,8.011573,19.449200,5.895221,-11.195909,9.776015,-3.521232,-1.194393,-10.509207,-3.143225,-3.616156,-0.222269,-3.374038,-1.957689,-1.719342,-3.925519,-14.269867,10.246786,10.160968,-7.299623,-9.957861,-144.074158,0.005586,-6.030030,-6.342020,-5.100896,0.375905,3.923344,-2.660304,21.743124,3.735144,-6.945951,0.000000,166.000000,4.000000,,,,0.000000,4.000000,4.000000,4.000000,4.000000,4.000000,4.000000,4.000000,4.000000,4.000000,4.000000,4.000000,2.000000,4.000000,4.000000,4.000000,4.000000,4.000000,4.000000,4.000000,4.000000,4.000000,4.000000,4.000000,4.000000,4.000000,4.000000,4.000000,4.000000,4.000000,4.000000,4.000000,4.000000,83.333336
1614490699.451219,75.000000,0.000000,-19.844769,4.413817,-1.083071,-4.367085,-11.184712,-3.054273,-3.517711,-6.321404,-26.396133,-15.960594,-15.407412,-1.760509,-10.037330,-13.237782,-16.076597,-14.690825,-28.614573,-11.814743,-16.003038,-38.061554,-36.101749,-111.109573,-11.789291,-33.716309,-26.335678,-12.275282,-7.829599,-4.798528,-6.760208,13.516253,-6.525002,-20.785158,0.000000,207.000000,4.000000,,,,0.000000,4.000000,4.000000,4.000000,4.000000,4.000000,4.000000,4.000000,4.000000,4.000000,4.000000,4.000000,2.000000,4.000000,4.000000,4.000000,4.000000,4.000000,4.000000,4.000000,4.000000,4.000000,4.000000,4.000000,4.000000,4.000000,4.000000,4.000000,4.000000,4.000000,4.000000,4.000000,4.000000,83.333336
1614490699.458868,76.000000,0.000000,-25.978771,7.486327,-16.466602,-14.619128,-10.660707,-7.666604,-4.027014,-10.417646,-25.344095,-29.790787,-26.161236,-2.271569,-13.104216,-19.891211,-30.932316,-29.035109,-32.175701,-35.392673,-36.499855,-62.126057,-51.450264,-143.306152,-30.751862,-49.580029,-36.052933,-15.339931,-11.924334,-8.896294,-10.343191,11.451454,-9.595400,-19.738731,0.000000,209.000000,4.000000,,,,0.000000,4.000000,4.000000,4.000000,4.000000,4.000000,4.000000,4.000000,4.000000,4.000000,4.000000,4.000000,2.000000,4.000000,4.000000,4.000000,4.000000,4.000000,4.000000,4.000000,4.000000,4.000000,4.000000,4.000000,4.000000,4.000000,4.000000,4.000000,4.000000,4.000000,4.000000,4.000000,4.000000,83.333336
1614490699.466617,77.000000,0.000000,-20.824587,12.607045,-9.270650,-15.630150,-11.162867,-0.992270,-4.022986,-10.920049,-17.113625,-31.812279,-26.135075,-1.756477,-12.578291,-16.281576,-35.003948,-27.980433,-30.605064,-32.280357,-31.335152,-62.576752,-39.603939,-175.470535,-39.439056,-43.376602,-34.478416,-14.811769,-10.886768,-7.861756,-10.845669,15.542567,-8.560163,-19.718994,0.000000,195.000000,4.000000,,,,0.000000,4.000000,4.000000,4.000000,4.000000,4.000000,4.000000,4.000000,4.000000,4.000000,4.000000,4.000000,2.000000,4.000000,4.000000,4.000000,4.000000,4.000000,4.000000,4.000000,4.000000,4.000000,4.000000,4.000000,4.000000,4.000000,4.000000,4.000000,4.000000,4.000000,4.000000,4.000000,4.000000,83.333336
1614490699.474266,78.000000,0.000000,-17.214018,10.030335,-18.492147,-14.076058,-11.151704,0.547183,-3.506143,-10.396308,-18.122150,-29.216364,-17.903811,-1.754720,-12.565713,-11.137090,-23.686892,-15.131938,-25.446253,-13.273717,-7.201252,-40.462891,-18.025875,-142.474564,-39.399620,-16.153738,-34.956760,-17.873880,-10.875881,-8.366714,-10.322002,16.552666,-8.551603,-24.314659,0.000000,192.000000,4.000000,,,,0.000000,4.000000,4.000000,4.000000,4.000000,4.000000,4.000000,4.000000,4.000000,4.000000,4.000000,4.000000,4.000000,4.000000,4.000000,4.000000,4.000000,4.000000,4.000000,4.000000,4.000000,4.000000,4.000000,4.000000,4.000000,4.000000,4.000000,4.000000,4.000000,4.000000,4.000000,4.000000,4.000000,100.000000
1614490699.482015,79.000000,0.000000,-18.222446,4.379280,-32.832630,-15.087624,-11.140553,-0.479005,-4.015458,-10.898732,-19.642490,-30.725609,-10.706420,-1.752965,-13.065968,-11.125953,-11.868334,-10.501422,-14.138756,-3.004033,18.446974,-10.166019,1.992150,-109.511566,-31.155090,13.606006,-32.870522,-18.368828,-10.352185,-8.358348,-9.798861,14.997651,-9.055872,-24.803165,0.000000,174.000000,4.000000,,,,0.000000,4.000000,4.000000,4.000000,4.000000,4.000000,4.000000,4.000000,4.000000,4.000000,4.000000,4.000000,4.000000,4.000000,4.000000,4.000000,4.000000,4.000000,4.000000,4.000000,4.000000,4.000000,4.000000,4.000000,4.000000,4.000000,4.000000,4.000000,4.000000,4.000000,4.000000,4.000000,4.000000,100.000000
1614490699.489664,80.000000,0.000000,-18.204224,4.887721,-15.363900,-15.072536,-11.129412,0.547115,-6.062724,-10.375013,-19.110027,-30.182064,-7.105969,-1.751212,-12.540081,-11.627647,-10.830824,-8.439638,-6.945130,1.614356,35.864426,12.408250,18.913235,-125.812317,-17.790602,28.464195,-28.222265,-21.427382,-10.341833,-5.273067,-7.737779,16.008295,-10.072457,-23.239901,0.000000,184.000000,4.000000,,,,0.000000,4.000000,4.000000,4.000000,4.000000,4.000000,4.000000,4.000000,4.000000,4.000000,4.000000,4.000000,4.000000,4.000000,4.000000,4.000000,4.000000,4.000000,4.000000,4.000000,4.000000,4.000000,4.000000,4.000000,4.000000,4.000000,4.000000,4.000000,4.000000,4.000000,4.000000,4.000000,4.000000,100.000000
1614490699.497412,81.000000,0.000000,-17.673199,5.908474,-5.604947,-14.544642,-11.118282,-2.530355,-7.595123,-10.364638,-21.655020,-27.074959,-6.073223,-1.749461,-12.527541,-10.590379,-10.307173,-4.328635,-7.451005,8.279408,40.956764,22.652252,24.022528,-134.917267,-11.106145,32.025475,-27.168402,-31.149544,-11.869952,-3.729332,-6.704401,18.556389,-12.626488,-23.729481,0.000000,193.000000,4.000000,,,,0.000000,4.000000,4.000000,4.000000,4.000000,4.000000,4.000000,4.000000,4.000000,4.000000,4.000000,4.000000,4.000000,4.000000,4.000000,4.000000,4.000000,4.000000,4.000000,4.000000,4.000000,4.000000,4.000000,4.000000,4.000000,4.000000,4.000000,4.000000,4.000000,4.000000,4.000000,4.000000,4.000000,100.000000
1614490699.505061,82.000000,0.000000,-17.655525,4.364104,-18.932674,-14.530098,-11.107164,-6.630389,-7.587528,-10.354274,-22.659006,-25.509422,-4.528688,-1.747712,-12.515014,-10.579788,-4.143020,-1.247383,-7.443554,13.399334,42.967091,26.219343,24.511326,-149.141327,-10.069398,34.557552,-22.525848,-29.067112,-9.293980,-4.238423,-6.697696,19.563473,-12.101041,-23.192930,0.000000,190.000000,4.000000,,,,0.000000,4.000000,4.000000,4.000000,4.000000,4.000000,4.000000,4.000000,4.000000,4.000000,4.000000,4.000000,4.000000,4.000000,4.000000,4.000000,4.000000,4.000000,4.000000,4.000000,4.000000,4.000000,4.000000,4.000000,4.000000,4.000000,4.000000,4.000000,4.000000,4.000000,4.000000,4.000000,4.000000,100.000000
1614490699.512810,83.000000,0.000000,-15.073767,6.923843,-13.785537,-14.515568,-10.583237,-5.598117,-7.579940,-10.343920,-20.072245,-23.945450,-1.447236,-1.233144,-11.989678,-11.082029,-1.061953,2.856429,-5.384829,15.950037,44.462585,23.629021,24.999634,-158.222961,-5.443944,32.471710,-11.734093,-14.166250,-11.848788,-3.721364,-6.690999,19.543911,-10.037658,-20.605635,0.000000,167.000000,4.000000,,,,0.000000,4.000000,4.000000,4.000000,4.000000,4.000000,4.000000,4.000000,4.000000,4.000000,4.000000,4.000000,4.000000,4.000000,4.000000,4.000000,4.000000,4.000000,4.000000,4.000000,4.000000,4.000000,4.000000,4.000000,4.000000,4.000000,4.000000,4.000000,4.000000,4.000000,4.000000,4.000000,4.000000,100.000000
1614490699.520459,84.000000,0.000000,-14.033052,11.532304,-4.028162,-14.501052,-10.572654,-3.028417,-7.572361,-10.333575,-18.000891,-21.870222,-1.445789,-1.744731,-11.464868,-11.070947,-2.599353,4.904854,-7.430726,14.395626,31.084789,10.272058,13.692583,-125.244217,-1.335936,23.721291,-10.696717,-9.536700,-28.247196,-3.717643,-7.197128,19.524366,-7.976338,-19.046568,0.000000,218.000000,4.000000,,,,0.000000,4.000000,4.000000,4.000000,4.000000,4.000000,4.000000,4.000000,4.000000,4.000000,4.000000,4.000000,4.000000,4.000000,4.000000,4.000000,4.000000,4.000000,4.000000,4.000000,4.000000,4.000000,4.000000,4.000000,4.000000,4.000000,4.000000,4.000000,4.000000,4.000000,4.000000,4.000000,4.000000,100.000000
1614490699.528208,85.000000,0.000000,-13.506199,13.059233,-12.229262,-14.486551,-12.613362,-3.538209,-9.103250,-10.323242,-18.495710,-21.848352,-4.008446,-2.255807,-13.504685,-11.059876,-3.622395,2.335847,-8.448936,11.817127,13.104987,-0.507444,1.371199,-118.452309,-2.873062,16.005262,-20.942430,-12.091266,-38.988178,-4.739566,-6.677110,18.992022,-7.968361,-20.053164,0.000000,186.000000,4.000000,,,,0.000000,4.000000,4.000000,4.000000,4.000000,4.000000,4.000000,4.000000,4.000000,4.000000,4.000000,4.000000,4.000000,4.000000,4.000000,4.000000,4.000000,4.000000,4.000000,4.000000,4.000000,4.000000,4.000000,4.000000,4.000000,4.000000,4.000000,4.000000,4.000000,4.000000,4.000000,4.000000,4.000000,100.000000
1614490699.535857,86.000000,0.000000,-9.390128,12.533353,-10.165751,-12.420783,-14.139211,-4.047491,-11.145429,-10.312919,-18.477215,-21.826504,-5.030078,-1.740730,-12.465539,-10.535995,-3.105952,2.333511,-5.876385,10.779670,10.527780,2.057166,0.344186,-150.641556,-7.485573,12.912334,-22.459949,-9.002252,-28.692781,-3.196365,-2.055048,19.998671,-8.473213,-18.494648,0.000000,189.000000,4.000000,,,,0.000000,4.000000,4.000000,4.000000,4.000000,4.000000,4.000000,4.000000,4.000000,4.000000,4.000000,4.000000,4.000000,4.000000,4.000000,4.000000,4.000000,4.000000,4.000000,4.000000,4.000000,4.000000,4.000000,4.000000,4.000000,4.000000,4.000000,4.000000,4.000000,4.000000,4.000000,4.000000,4.000000,100.000000
1614490699.543605,87.000000,0.000000,-5.278174,12.520820,1.639287,-10.357080,-14.637892,-3.530623,-10.621462,-10.302606,-17.945917,-21.291857,-11.691714,-1.226169,-10.914612,-10.525459,-8.743872,-8.438053,-10.998713,-4.102905,2.312123,-3.073097,-7.861286,-152.542191,-7.478087,-0.946732,-14.745183,-7.454788,-14.817935,-1.654707,1.536750,23.568415,-7.951920,-14.886410,0.000000,205.000000,4.000000,,,,0.000000,4.000000,4.000000,4.000000,4.000000,4.000000,4.000000,4.000000,4.000000,4.000000,4.000000,4.000000,4.000000,4.000000,4.000000,4.000000,4.000000,4.000000,4.000000,4.000000,4.000000,4.000000,4.000000,4.000000,4.000000,4.000000,4.000000,4.000000,4.000000,4.000000,4.000000,4.000000,4.000000,100.000000
1614490699.551254,88.000000,0.000000,-7.324178,13.021119,-6.567481,-10.346723,-15.648895,-3.014272,-11.123661,-10.292303,-17.415150,-23.834667,-30.141562,-5.840328,-19.108826,-12.566216,-23.606922,-30.993717,-28.423613,-34.355213,-26.408138,-29.223869,-34.007271,-130.338364,-6.957789,-32.740658,-19.345821,-10.524256,-13.777475,-5.242796,1.022393,23.544847,-7.431148,-16.922806,0.000000,196.000000,4.000000,,,,0.000000,4.000000,4.000000,4.000000,4.000000,4.000000,4.000000,4.000000,4.000000,4.000000,4.000000,4.000000,4.000000,4.000000,4.000000,4.000000,4.000000,4.000000,4.000000,4.000000,4.000000,4.000000,4.000000,4.000000,4.000000,4.000000,4.000000,4.000000,4.000000,4.000000,4.000000,4.000000,4.000000,100.000000
1614490699.559103,89.000000,0.000000,-10.393777,12.495277,-17.330143,-10.849196,-18.197350,-3.524078,-11.625359,-10.282011,-17.910555,-26.374935,-39.342190,-9.424231,-26.782024,-15.117752,-33.839725,-36.603748,-34.549034,-40.987522,-34.586857,-43.553619,-45.768135,-134.823410,-20.796986,-49.118172,-31.121347,-11.539372,-14.276519,-7.801656,0.508550,19.418737,-8.962177,-23.059729,0.000000,183.000000,4.000000,,,,0.000000,4.000000,4.000000,4.000000,4.000000,4.000000,4.000000,4.000000,4.000000,4.000000,4.000000,4.000000,4.000000,4.000000,4.000000,4.000000,4.000000,4.000000,4.000000,4.000000,4.000000,4.000000,4.000000,4.000000,4.000000,4.000000,4.000000,4.000000,4.000000,4.000000,4.000000,4.000000,4.000000,100.000000
1614490699.566852,90.000000,0.000000,-10.383383,12.482782,-13.723070,-10.325527,-18.179152,-3.520554,-4.947066,-10.271729,-18.918285,-23.784458,-24.431051,-5.825063,-18.037294,-15.102634,-28.677681,-21.182531,-21.693974,-17.356792,-13.013809,-34.792118,-30.337751,-121.868073,-37.699265,-26.504951,-29.038944,-11.527833,-6.569934,-5.229752,1.533682,22.476242,-11.517318,-23.036669,0.000000,188.000000,4.000000,,,,0.000000,4.000000,4.000000,4.000000,4.000000,4.000000,4.000000,4.000000,4.000000,4.000000,4.000000,4.000000,4.000000,4.000000,4.000000,4.000000,4.000000,4.000000,4.000000,4.000000,4.000000,4.000000,4.000000,4.000000,4.000000,4.000000,4.000000,4.000000,4.000000,4.000000,4.000000,4.000000,4.000000,100.000000
1614490699.574700,91.000000,0.000000,-9.860179,12.983120,-13.709347,-10.315201,-17.648151,-3.004213,-0.326735,-9.748636,-17.360907,-23.247854,-6.970724,-1.716674,-8.275667,-14.061892,-25.059259,-13.469041,-13.979971,-4.006103,-3.257205,-30.654762,-16.461260,-118.669281,-30.482079,-1.350242,-17.215034,-10.490664,-5.537724,-3.686061,-0.006313,26.556330,-11.505801,-19.423889,0.000000,187.000000,4.000000,,,,0.000000,4.000000,4.000000,4.000000,4.000000,4.000000,4.000000,4.000000,4.000000,4.000000,4.000000,4.000000,4.000000,4.000000,4.000000,4.000000,4.000000,4.000000,4.000000,4.000000,4.000000,4.000000,4.000000,4.000000,4.000000,4.000000,4.000000,4.000000,4.000000,4.000000,4.000000,4.000000,4.000000,100.000000
1614490699.582449,92.000000,0.000000,-10.875960,12.457316,-15.746920,-12.356168,-19.681786,-4.026850,-7.505895,-11.790170,-17.856365,-29.891272,-4.912471,-3.766239,-12.882776,-15.073470,-27.085482,-15.506853,-19.094196,-6.566199,-3.253948,-26.521544,-14.393517,-150.858307,-15.579802,1.728031,-14.120895,-11.505815,-18.352699,-4.195195,-3.596050,18.324646,-12.007115,-20.430105,0.000000,202.000000,4.000000,,,,0.000000,4.000000,4.000000,4.000000,4.000000,4.000000,4.000000,4.000000,4.000000,4.000000,4.000000,4.000000,4.000000,4.000000,4.000000,4.000000,4.000000,4.000000,4.000000,4.000000,4.000000,4.000000,4.000000,4.000000,4.000000,4.000000,4.000000,4.000000,4.000000,4.000000,4.000000,4.000000,4.000000,100.000000
1614490699.590298,93.000000,0.000000,-13.429187,7.829475,-11.628609,-14.395094,-21.713387,-6.586926,-15.190697,-13.829662,-27.069279,-28.835741,-5.420379,-5.813755,-16.459637,-13.519936,-18.340448,-11.901603,-19.075102,4.722418,14.698024,-1.366816,-4.122713,-144.040787,-15.051401,14.546816,-15.645236,-17.648155,-31.667679,-4.191000,-6.669377,8.049911,-16.610493,-22.973778,0.000000,163.000000,4.000000,,,,0.000000,4.000000,4.000000,4.000000,4.000000,4.000000,4.000000,4.000000,4.000000,4.000000,4.000000,4.000000,4.000000,4.000000,4.000000,4.000000,4.000000,4.000000,4.000000,4.000000,4.000000,4.000000,2.000000,4.000000,4.000000,4.000000,4.000000,4.000000,4.000000,4.000000,4.000000,4.000000,4.000000,83.333336
1614490699.598047,94.000000,0.000000,-13.928578,4.231902,-8.540057,-14.380699,-21.691673,-7.605979,-15.175506,-13.815832,-29.606312,-18.550493,-0.799574,-4.782300,-15.930357,-8.378210,-2.937492,-9.838419,-7.261155,20.615131,35.196144,20.685833,10.753204,-111.076225,-14.010709,39.147655,-14.603951,-22.758713,-35.225754,-4.186809,-7.175528,7.529040,-20.183626,-23.463625,0.000000,127.000000,4.000000,,,,0.000000,4.000000,4.000000,4.000000,4.000000,4.000000,4.000000,4.000000,4.000000,4.000000,4.000000,4.000000,4.000000,4.000000,4.000000,4.000000,4.000000,4.000000,4.000000,4.000000,4.000000,4.000000,2.000000,4.000000,4.000000,4.000000,4.000000,4.000000,4.000000,4.000000,4.000000,4.000000,4.000000,83.333336
1614490699.605896,95.000000,0.000000,-13.914650,4.740490,-9.044337,-14.366318,-21.669981,-7.085553,-14.134689,-13.802016,-18.807474,-13.403738,2.790969,-5.290339,-15.914426,-3.241627,2.193650,-10.341401,6.079439,23.671440,39.263515,19.126686,16.896297,-125.836945,-5.278749,43.723892,-16.127808,-22.735952,-30.062325,-3.669801,-6.655532,8.034331,-19.650621,-22.414520,0.000000,190.000000,4.000000,,,,0.000000,4.000000,4.000000,4.000000,4.000000,4.000000,4.000000,4.000000,4.000000,4.000000,4.000000,4.000000,4.000000,4.000000,4.000000,4.000000,4.000000,4.000000,4.000000,4.000000,4.000000,4.000000,2.000000,4.000000,4.000000,4.000000,4.000000,4.000000,4.000000,4.000000,4.000000,4.000000,4.000000,83.333336
1614490699.613644,96.000000,0.000000,-13.387915,5.248570,-8.522472,-14.351952,-21.648312,-7.591288,-15.659017,-14.301035,-16.224564,-14.415976,1.762537,-5.797869,-12.308768,-2.212744,1.165815,-6.741316,1.970796,21.596487,35.121685,13.466534,11.751196,-153.916245,-6.299112,33.423756,-19.188602,-21.687576,-20.801493,-3.666132,-6.648877,8.026298,-19.118151,-22.904926,8064.000000,0.000000,4.000000,,,,0.000000,4.000000,4.000000,4.000000,4.000000,4.000000,4.000000,4.000000,4.000000,4.000000,4.000000,4.000000,4.000000,4.000000,4.000000,4.000000,4.000000,4.000000,4.000000,4.000000,4.000000,4.000000,2.000000,4.000000,4.000000,4.000000,4.000000,4.000000,4.000000,4.000000,4.000000,4.000000,4.000000,83.333336
1614490699.621493,97.000000,0.000000,-14.400167,4.730501,-11.078053,-13.824780,-21.626663,-7.070876,-15.130537,-13.773913,-23.900648,-14.401560,-1.828969,-4.766430,-14.860562,-9.902839,-1.912273,-9.811499,-15.467072,14.908223,21.753231,5.760759,-3.132350,-154.787964,-11.421018,19.031359,-18.143774,-22.691530,-16.165306,-6.739388,-6.642228,10.582374,-19.611853,-23.907663,8064.000000,0.000000,4.000000,,,,0.000000,4.000000,4.000000,4.000000,4.000000,4.000000,4.000000,4.000000,4.000000,4.000000,4.000000,4.000000,4.000000,4.000000,4.000000,4.000000,4.000000,4.000000,4.000000,4.000000,4.000000,4.000000,2.000000,4.000000,4.000000,4.000000,4.000000,4.000000,4.000000,4.000000,4.000000,4.000000,4.000000,83.333336
1614490699.629242,98.000000,0.000000,-15.924229,5.751412,-12.605436,-14.323775,-21.605036,-4.499703,-14.089766,-13.247319,-21.825464,-17.464081,-13.109191,-6.300125,-25.614933,-23.226269,-9.602669,-22.109379,-26.733656,-3.055403,-4.935189,-17.321924,-21.077936,-162.325485,-10.383956,-6.628698,-18.638451,-22.156017,-19.738884,-11.348034,-6.635586,11.597432,-18.566601,-20.806831,8064.000000,0.000000,4.000000,,,,0.000000,4.000000,4.000000,4.000000,4.000000,4.000000,4.000000,4.000000,4.000000,4.000000,4.000000,4.000000,4.000000,4.000000,4.000000,4.000000,4.000000,4.000000,4.000000,4.000000,4.000000,4.000000,2.000000,4.000000,4.000000,4.000000,4.000000,4.000000,4.000000,4.000000,4.000000,4.000000,4.000000,83.333336
1614490699.637091,99.000000,0.000000,-17.959587,8.309763,-5.413343,-15.335093,-22.096252,-2.956742,-14.588496,-14.259712,-18.213896,-22.062002,-21.814032,-8.857927,-23.538034,-25.767145,-13.182810,-26.702654,-27.732565,-15.872861,-22.366150,-31.663578,-28.749166,-144.214432,-14.476136,-21.493864,-19.645452,-22.133862,-11.001197,-11.849506,-6.628950,12.098656,-15.983932,-15.657820,8064.000000,0.000000,4.000000,,,,0.000000,4.000000,4.000000,4.000000,4.000000,4.000000,4.000000,4.000000,4.000000,4.000000,4.000000,4.000000,4.000000,4.000000,4.000000,4.000000,4.000000,4.000000,4.000000,4.000000,4.000000,4.000000,2.000000,4.000000,4.000000,4.000000,4.000000,4.000000,4.000000,4.000000,4.000000,4.000000,4.000000,83.333336
1614490699.644840,100.000000,0.000000,-17.428806,8.814274,-1.305366,-13.781296,-21.048513,-2.953785,-12.009805,-12.706991,-17.682861,-22.552761,-15.638371,-6.284967,-9.155522,-13.433686,-6.502960,-19.496464,-24.115088,-13.805706,-17.215580,-20.862682,-25.643494,-119.454842,-21.641148,-9.677499,-10.907859,-22.111729,6.445701,-11.837657,-6.622321,16.701941,-12.378203,-15.642162,8064.000000,0.000000,4.000000,,,,0.000000,4.000000,4.000000,4.000000,4.000000,4.000000,4.000000,4.000000,4.000000,4.000000,4.000000,4.000000,4.000000,4.000000,4.000000,4.000000,4.000000,4.000000,4.000000,4.000000,4.000000,4.000000,2.000000,4.000000,4.000000,4.000000,4.000000,4.000000,4.000000,4.000000,4.000000,4.000000,4.000000,83.333336
1614490699.652688,101.000000,0.000000,-15.360096,8.805459,-13.098932,-14.280335,-18.976183,-0.386729,-1.228564,-7.053259,-12.024153,-21.504566,-4.340681,-2.176118,-2.479701,-3.676663,-1.368252,-16.912865,-16.398664,-9.689336,-6.429133,-10.585410,-23.053747,-151.643082,-18.029762,-2.488334,-3.717463,-22.089617,4.387974,-11.312999,-6.615699,19.762163,-8.776082,-15.113699,8064.000000,0.000000,4.000000,,,,0.000000,4.000000,4.000000,4.000000,4.000000,4.000000,4.000000,4.000000,4.000000,4.000000,4.000000,4.000000,4.000000,4.000000,4.000000,4.000000,4.000000,4.000000,4.000000,4.000000,4.000000,4.000000,2.000000,4.000000,4.000000,4.000000,4.000000,4.000000,4.000000,4.000000,4.000000,4.000000,4.000000,83.333336
1614490699.660437,102.000000,0.000000,-13.806274,8.796654,-24.367886,-19.907080,-17.418747,1.664940,1.849587,-7.559026,-14.063411,-21.995882,-3.823520,-2.173942,-6.066965,-3.160166,-4.443807,-18.947235,-10.741241,-10.192467,-6.422704,-14.164568,-24.056335,-170.978607,-10.832245,-11.203794,-11.918874,-22.067526,-13.052312,-8.737583,-6.609083,19.742401,-7.228844,-14.585765,8064.000000,0.000000,4.000000,,,,0.000000,4.000000,4.000000,4.000000,4.000000,4.000000,4.000000,4.000000,4.000000,4.000000,4.000000,4.000000,4.000000,4.000000,4.000000,4.000000,4.000000,4.000000,4.000000,4.000000,4.000000,4.000000,2.000000,4.000000,4.000000,4.000000,4.000000,4.000000,4.000000,4.000000,4.000000,4.000000,4.000000,83.333336
1614490699.668286,103.000000,0.000000,-13.792468,7.249396,-21.779415,-19.374353,-17.914148,-1.926468,-14.049698,-12.679672,-27.382681,-21.973886,-6.896619,-4.735870,-9.650641,-5.721108,-12.131671,-18.928288,-11.756141,-9.156633,-4.877820,-15.688865,-19.416893,-137.987122,-12.359875,-6.577206,-18.573622,-22.045460,-19.705927,-7.703205,-6.602474,21.261120,-8.247256,-21.237846,8064.000000,0.000000,4.000000,,,,0.000000,4.000000,4.000000,4.000000,4.000000,4.000000,4.000000,4.000000,4.000000,4.000000,4.000000,4.000000,4.000000,4.000000,4.000000,4.000000,4.000000,4.000000,4.000000,4.000000,4.000000,4.000000,2.000000,4.000000,4.000000,4.000000,4.000000,4.000000,4.000000,4.000000,4.000000,4.000000,4.000000,83.333336
1614490699.676035,104.000000,0.000000,-13.778675,4.165223,-16.629431,-10.124209,-17.896235,-7.052747,-24.804880,-14.205454,-24.791195,-21.951912,-5.864081,-6.782416,-11.692272,-9.305131,-17.760565,-16.858076,-7.641820,-7.609015,7.434750,-10.032150,-2.987220,-116.823494,-15.424438,12.916551,-12.914022,-22.023413,-14.558015,-7.182681,-6.595871,23.291140,-7.726189,-26.344812,8064.000000,0.000000,4.000000,,,,0.000000,4.000000,4.000000,4.000000,4.000000,4.000000,4.000000,4.000000,4.000000,4.000000,4.000000,4.000000,4.000000,4.000000,4.000000,4.000000,4.000000,4.000000,4.000000,4.000000,4.000000,4.000000,2.000000,4.000000,4.000000,4.000000,4.000000,4.000000,4.000000,4.000000,4.000000,4.000000,4.000000,83.333336
1614490699.683684,105.000000,0.000000,-13.252076,5.699520,-16.612801,-6.011521,-17.365517,-7.045694,-15.036485,-13.165607,-9.894609,-21.929960,-5.858218,-8.314095,-12.193400,-11.347108,-19.281265,-17.866859,1.596591,-9.652688,15.119623,-6.432375,14.451664,-141.834869,-14.896193,28.288250,-9.311365,-22.001390,-14.030637,-5.124216,-6.589275,23.267849,-6.692822,-20.677443,8064.000000,0.000000,4.000000,,,,0.000000,4.000000,4.000000,4.000000,4.000000,4.000000,4.000000,4.000000,4.000000,4.000000,4.000000,4.000000,4.000000,4.000000,4.000000,4.000000,4.000000,4.000000,4.000000,4.000000,4.000000,4.000000,2.000000,4.000000,4.000000,4.000000,4.000000,4.000000,4.000000,4.000000,4.000000,4.000000,4.000000,83.333336
1614490699.691433,106.000000,0.000000,-13.751645,8.770743,-14.544906,-9.082433,-17.860971,-3.961725,-5.277858,-13.665262,-8.859074,-21.395210,-4.826718,-9.331423,-10.129926,-10.310120,-16.697882,-19.387455,5.184738,-5.540472,14.591683,-3.349020,20.078238,-153.487915,-14.368476,33.900986,-11.353335,-21.466568,-14.529427,-3.580630,-6.582686,23.244581,-11.814334,-17.067022,8064.000000,0.000000,4.000000,,,,0.000000,4.000000,4.000000,4.000000,4.000000,4.000000,4.000000,4.000000,4.000000,4.000000,4.000000,4.000000,4.000000,4.000000,4.000000,4.000000,4.000000,4.000000,4.000000,4.000000,4.000000,4.000000,2.000000,4.000000,4.000000,4.000000,4.000000,4.000000,4.000000,4.000000,4.000000,4.000000,4.000000,83.333336
1614490699.699081,107.000000,0.000000,-13.737893,7.223511,-12.479078,-10.611812,-17.843111,-3.444943,-7.323863,-14.164417,-14.491241,-21.373816,-0.206507,-8.809271,-8.581334,-8.248528,-12.065800,-10.650119,4.153912,8.311223,24.833502,1.269714,19.545340,-171.795959,-13.841287,35.405548,-11.854803,-21.957922,-14.514897,-4.089870,-6.576104,20.657234,-19.494827,-21.152519,8064.000000,0.000000,4.000000,,,,0.000000,4.000000,4.000000,4.000000,4.000000,4.000000,4.000000,4.000000,4.000000,4.000000,4.000000,4.000000,4.000000,4.000000,4.000000,4.000000,4.000000,4.000000,4.000000,4.000000,4.000000,4.000000,2.000000,4.000000,4.000000,4.000000,4.000000,4.000000,4.000000,4.000000,4.000000,4.000000,4.000000,83.333336
1614490699.706830,108.000000,0.000000,-13.724155,5.677826,-9.902497,-10.601200,-17.825268,-3.954319,-8.342180,-13.637433,-15.502390,-22.378082,2.357802,-8.800461,-8.572753,-7.214638,-7.438349,-0.895879,1.072835,15.995219,37.116360,3.319726,15.936050,-167.521606,-15.365908,36.908604,-10.817307,-21.935965,-14.500382,-4.085780,-6.569528,19.610935,-16.911230,-16.003160,8064.000000,0.000000,4.000000,,,,0.000000,4.000000,4.000000,4.000000,4.000000,4.000000,4.000000,4.000000,4.000000,4.000000,4.000000,4.000000,4.000000,4.000000,4.000000,4.000000,4.000000,4.000000,4.000000,4.000000,4.000000,4.000000,2.000000,4.000000,4.000000,4.000000,4.000000,4.000000,4.000000,4.000000,4.000000,4.000000,4.000000,83.333336
1614490699.714479,109.000000,0.000000,-13.710431,7.723430,-1.687466,-8.026496,-17.807442,-3.437544,-6.282556,-13.623796,-13.435606,-19.791601,1.842624,-8.791661,-8.564179,-7.207423,-6.405270,-3.971906,-4.056443,10.338199,27.848475,4.342048,9.253448,-134.533569,-15.350541,33.794773,-9.780849,-21.401207,-13.460240,-4.081695,-6.562958,21.642607,-9.714831,-4.192286,8064.000000,0.000000,4.000000,,,,0.000000,4.000000,4.000000,4.000000,4.000000,4.000000,4.000000,4.000000,4.000000,4.000000,4.000000,4.000000,4.000000,4.000000,4.000000,4.000000,4.000000,4.000000,4.000000,4.000000,4.000000,4.000000,2.000000,4.000000,4.000000,4.000000,4.000000,4.000000,4.000000,4.000000,4.000000,4.000000,4.000000,83.333336
1614490699.722228,110.000000,0.000000,-13.696720,9.254169,-1.172958,-3.403085,-17.789635,-3.434106,-6.789093,-13.610171,-7.781145,-16.694887,1.840781,-8.782869,-8.555615,-7.200216,-6.398864,-11.147421,-8.154951,6.225296,10.384729,4.337706,3.090348,-152.347748,-13.283909,18.889181,-13.360811,-22.405447,-11.395498,-4.077613,-6.556395,22.133785,-16.884604,-7.777837,8064.000000,0.000000,4.000000,,,,0.000000,4.000000,4.000000,4.000000,4.000000,4.000000,4.000000,4.000000,4.000000,4.000000,4.000000,4.000000,4.000000,4.000000,4.000000,4.000000,4.000000,4.000000,4.000000,4.000000,4.000000,4.000000,2.000000,4.000000,4.000000,4.000000,4.000000,4.000000,4.000000,4.000000,4.000000,4.000000,4.000000,83.333336
1614490699.729877,111.000000,0.000000,-13.683023,8.732094,-12.453836,-11.091990,-17.771845,-3.430672,-6.782304,-13.596561,-9.824645,-21.806396,0.300479,-8.774086,-8.034240,-6.680195,-6.905286,-10.623453,-7.633975,6.731891,5.246139,-4.897401,-2.040947,-184.503098,-17.886009,3.485677,-22.578220,-24.434324,-12.409744,-4.073535,-6.549839,19.034729,-31.739513,-22.641855,8064.000000,0.000000,4.000000,,,,0.000000,4.000000,4.000000,4.000000,4.000000,4.000000,4.000000,4.000000,4.000000,4.000000,4.000000,4.000000,4.000000,4.000000,4.000000,4.000000,4.000000,4.000000,4.000000,4.000000,4.000000,4.000000,2.000000,4.000000,4.000000,4.000000,4.000000,4.000000,4.000000,4.000000,4.000000,4.000000,4.000000,83.333336
1614490699.737626,112.000000,0.000000,-13.669341,8.723361,-20.646511,-25.439871,-17.754074,-3.427242,-7.288342,-13.582965,-21.609692,-29.476898,-2.263924,-8.765312,-5.974923,-5.135053,-6.385561,-9.587189,-9.164803,4.161057,6.779355,-15.148914,-7.167111,-151.498077,-27.611713,-0.620372,-26.145386,-25.948351,-14.961437,-4.069462,-6.543289,18.502872,-34.271877,-27.747417,8064.000000,0.000000,4.000000,,,,0.000000,4.000000,4.000000,4.000000,4.000000,4.000000,4.000000,4.000000,4.000000,4.000000,4.000000,4.000000,4.000000,4.000000,4.000000,4.000000,4.000000,4.000000,4.000000,4.000000,4.000000,4.000000,2.000000,4.000000,4.000000,4.000000,4.000000,4.000000,4.000000,4.000000,4.000000,4.000000,4.000000,83.333336
1614490699.745275,113.000000,0.000000,-13.655671,8.714638,-21.138685,-23.363150,-17.736320,-3.423814,-8.306695,-13.569382,-22.613724,-27.396139,-2.261660,-8.756547,-4.430487,-3.078636,-4.840713,-11.116063,-8.129997,0.054332,5.746934,-8.467098,-8.698406,-118.526070,-26.558460,-0.106932,-20.991035,-25.409582,-13.408013,-4.065392,-6.536746,18.997190,-26.545298,-27.206850,8064.000000,0.000000,4.000000,,,,0.000000,4.000000,4.000000,4.000000,4.000000,4.000000,4.000000,4.000000,4.000000,4.000000,4.000000,4.000000,4.000000,4.000000,4.000000,4.000000,4.000000,4.000000,4.000000,4.000000,4.000000,4.000000,2.000000,4.000000,4.000000,4.000000,4.000000,4.000000,4.000000,4.000000,4.000000,4.000000,4.000000,83.333336
1614490699.753024,114.000000,0.000000,-13.642015,8.705923,-19.066265,-12.057735,-18.231403,-3.420391,-6.247107,-13.555813,-14.385982,-24.291821,-2.259398,-8.747790,-4.938877,-4.614019,-6.887155,-10.592127,-5.044944,-1.997005,4.715546,3.336241,-3.048682,-141.484467,-16.275492,0.918816,-17.893120,-22.820070,-8.266400,-4.061327,-4.478927,18.978193,-22.416187,-30.769386,8064.000000,0.000000,4.000000,,,,0.000000,4.000000,4.000000,4.000000,4.000000,4.000000,4.000000,4.000000,4.000000,4.000000,4.000000,4.000000,4.000000,4.000000,4.000000,4.000000,4.000000,4.000000,4.000000,4.000000,4.000000,4.000000,2.000000,4.000000,4.000000,4.000000,4.000000,4.000000,4.000000,4.000000,4.000000,4.000000,4.000000,83.333336
1614490699.760672,115.000000,0.000000,-13.628374,8.697217,-12.380531,-9.994395,-17.700352,-3.416970,-8.804962,-14.055078,-15.910057,-29.395733,-4.821242,-8.739042,-4.933938,-11.788892,-13.034114,-11.094355,-6.065540,-0.969367,6.762113,2.307263,-0.481531,-170.060928,-13.695114,3.482000,-18.900869,-21.258789,-6.206852,-4.057265,-2.423166,18.446394,-22.906591,-28.174515,8064.000000,0.000000,4.000000,,,,0.000000,4.000000,4.000000,4.000000,4.000000,4.000000,4.000000,4.000000,4.000000,4.000000,4.000000,4.000000,4.000000,4.000000,4.000000,4.000000,4.000000,4.000000,4.000000,4.000000,4.000000,4.000000,2.000000,4.000000,4.000000,4.000000,4.000000,4.000000,4.000000,4.000000,4.000000,4.000000,4.000000,83.333336
1614490699.768421,116.000000,0.000000,-13.101925,8.688520,-6.214305,-11.010042,-17.682652,-3.413553,-13.924362,-13.528201,-18.971071,-27.315056,-5.329241,-8.730304,-3.903363,-14.854027,-14.046721,-10.057619,-3.495372,1.595705,11.883555,-3.336070,0.544592,-182.198563,-15.219880,8.606723,-18.881968,-21.750351,-6.200645,-2.001926,-2.933563,18.940769,-22.370865,-20.966852,8064.000000,0.000000,4.000000,,,,0.000000,4.000000,4.000000,4.000000,4.000000,4.000000,4.000000,4.000000,4.000000,4.000000,4.000000,4.000000,4.000000,4.000000,4.000000,4.000000,4.000000,4.000000,4.000000,4.000000,4.000000,4.000000,2.000000,4.000000,4.000000,4.000000,4.000000,4.000000,4.000000,4.000000,4.000000,4.000000,4.000000,83.333336
1614490699.776070,117.000000,0.000000,-11.037540,8.679832,-5.695270,-7.409288,-18.690609,-3.410140,-9.807874,-13.514673,-12.798253,-14.980048,-5.323912,-7.695932,-4.925100,-7.659685,-9.930110,-4.919357,5.738893,3.132571,19.563980,-3.332734,9.774817,-189.708679,-12.640557,23.982733,-17.837444,-22.241421,-6.707265,-0.461463,-2.930629,18.921827,-22.348494,-18.894604,8064.000000,0.000000,4.000000,,,,0.000000,4.000000,4.000000,4.000000,4.000000,4.000000,4.000000,4.000000,4.000000,4.000000,4.000000,4.000000,4.000000,4.000000,4.000000,4.000000,4.000000,4.000000,4.000000,4.000000,4.000000,4.000000,2.000000,4.000000,4.000000,4.000000,4.000000,4.000000,4.000000,4.000000,4.000000,4.000000,4.000000,83.333336
1614490699.783918,118.000000,0.000000,-9.488042,8.671152,-2.612652,-5.863418,-16.620638,-3.406729,-0.567297,-14.526800,-9.708532,-8.811222,-5.831409,-6.149775,-4.920176,1.065923,-5.304795,-0.811873,11.374180,2.616618,31.339287,0.260343,22.585554,-156.698456,-6.474071,40.881824,-15.255505,-21.706358,-6.187737,0.051819,-2.927699,18.902906,-21.813326,-18.875710,8064.000000,0.000000,4.000000,,,,0.000000,4.000000,4.000000,4.000000,4.000000,4.000000,4.000000,4.000000,4.000000,4.000000,4.000000,4.000000,4.000000,4.000000,4.000000,4.000000,4.000000,4.000000,4.000000,4.000000,4.000000,4.000000,2.000000,4.000000,4.000000,4.000000,4.000000,4.000000,4.000000,4.000000,4.000000,4.000000,4.000000,83.333336
1614490699.791667,119.000000,0.000000,-9.991374,8.662480,-0.045936,-7.396016,-11.988632,-3.403323,1.484553,-11.948171,-10.724464,-10.340873,-5.312757,-4.605164,-1.325512,0.039216,-2.222567,1.753041,13.414087,4.665284,38.487434,4.875467,25.127071,-124.234062,0.711890,41.353764,-13.701788,-21.684652,-6.181550,0.051767,-2.924771,18.884003,-21.791512,-18.856834,8064.000000,0.000000,4.000000,,,,0.000000,4.000000,4.000000,4.000000,4.000000,4.000000,4.000000,4.000000,4.000000,4.000000,4.000000,4.000000,4.000000,4.000000,4.000000,4.000000,4.000000,4.000000,4.000000,4.000000,4.000000,4.000000,2.000000,4.000000,4.000000,4.000000,4.000000,4.000000,4.000000,4.000000,4.000000,4.000000,4.000000,83.333336
1614490699.799516,120.000000,0.000000,-9.981383,8.653818,-3.635634,-4.824517,-9.925362,-3.399920,-0.055393,-4.756735,-10.713740,-10.330532,-8.897187,-4.087738,-3.375468,-11.242874,-4.271626,-0.299994,6.221186,7.224721,30.756639,3.844950,14.845534,-156.417526,0.711178,31.568821,-14.713727,-22.175789,-7.713830,-2.512387,-2.921846,18.865120,-23.308182,-19.350798,8064.000000,0.000000,4.000000,,,,0.000000,4.000000,4.000000,4.000000,4.000000,4.000000,4.000000,4.000000,4.000000,4.000000,4.000000,4.000000,4.000000,4.000000,4.000000,4.000000,4.000000,4.000000,4.000000,4.000000,4.000000,4.000000,2.000000,4.000000,4.000000,4.000000,4.000000,4.000000,4.000000,4.000000,4.000000,4.000000,4.000000,83.333336
1614490699.807265,121.000000,0.000000,-9.458581,8.645164,7.137232,1.846974,-8.889795,-3.396519,-0.055338,-1.675055,-10.703026,-11.858663,-19.657520,-9.724675,-14.654144,-28.154709,-15.549406,-15.171489,-15.836317,-0.987632,14.828448,-5.902484,-7.220593,-186.517517,-7.494661,15.126996,-14.186193,-19.589510,-9.757398,-9.176541,-2.918925,18.846254,-20.720772,-13.177601,8064.000000,0.000000,4.000000,,,,0.000000,4.000000,4.000000,4.000000,4.000000,4.000000,4.000000,4.000000,4.000000,4.000000,4.000000,4.000000,4.000000,4.000000,4.000000,4.000000,4.000000,4.000000,4.000000,4.000000,4.000000,4.000000,2.000000,4.000000,4.000000,4.000000,4.000000,4.000000,4.000000,4.000000,4.000000,4.000000,4.000000,83.333336
1614490699.815114,122.000000,0.000000,-9.961943,8.123699,29.181377,9.537435,-6.829623,-3.905943,-5.183488,-2.699021,-10.179502,-16.975010,-27.842991,-16.894438,-20.793337,-38.895786,-25.277447,-29.002472,-32.230736,-12.268696,6.095671,-13.588889,-28.751835,-158.638687,-13.128192,-10.016336,-13.659186,-13.928895,-10.773281,-11.731467,-2.916006,18.827408,-12.494923,-2.908013,8064.000000,0.000000,4.000000,,,,0.000000,4.000000,4.000000,4.000000,4.000000,4.000000,4.000000,4.000000,4.000000,4.000000,4.000000,4.000000,4.000000,4.000000,4.000000,4.000000,4.000000,4.000000,4.000000,4.000000,4.000000,4.000000,2.000000,4.000000,4.000000,4.000000,4.000000,4.000000,4.000000,4.000000,4.000000,4.000000,4.000000,83.333336
1614490699.822862,123.000000,0.000000,-9.951981,8.628395,28.126554,12.092000,-6.309973,-3.389217,-9.793689,-3.209143,-8.118041,-18.496496,-24.738226,-21.492928,-20.259722,-31.677401,-19.098324,-21.793982,-26.557482,-9.179504,5.576755,-16.652224,-35.389748,-143.095428,-17.730448,-22.314013,-17.748091,-10.325222,-10.249688,-11.206915,-2.913090,18.808580,-12.995248,0.684639,8064.000000,0.000000,4.000000,,,,0.000000,4.000000,4.000000,4.000000,4.000000,4.000000,4.000000,4.000000,4.000000,4.000000,4.000000,4.000000,4.000000,4.000000,4.000000,4.000000,4.000000,4.000000,4.000000,4.000000,4.000000,4.000000,2.000000,4.000000,4.000000,4.000000,4.000000,4.000000,4.000000,4.000000,4.000000,4.000000,4.000000,83.333336
1614490699.830711,124.000000,0.000000,-9.942029,10.671049,10.662531,10.541446,-6.303663,-1.334546,-8.245434,-2.180292,-6.571462,-17.965179,-15.995539,-19.420153,-19.213821,-11.132903,-4.720250,-7.926033,-18.838615,3.650188,6.083998,-21.250956,-33.815899,-142.952332,-29.507589,-16.137852,-24.397009,-10.314897,-10.239438,-11.708529,-2.910177,18.789772,-18.110458,-1.367328,8064.000000,0.000000,4.000000,,,,0.000000,4.000000,4.000000,4.000000,4.000000,4.000000,4.000000,4.000000,4.000000,4.000000,4.000000,4.000000,4.000000,4.000000,4.000000,4.000000,4.000000,4.000000,4.000000,4.000000,4.000000,4.000000,2.000000,4.000000,4.000000,4.000000,4.000000,4.000000,4.000000,4.000000,4.000000,4.000000,4.000000,83.333336
1614490699.838460,125.000000,0.000000,-9.932087,12.711660,5.010843,8.479623,-5.784539,0.205250,-6.698727,-0.639651,-6.052070,-17.947214,-10.851337,-10.169964,-13.040761,1.185922,1.951137,-6.379646,-19.332598,7.236282,5.565094,-22.768167,-30.705158,-155.629898,-38.708851,-12.019150,-26.423895,-10.817403,-10.229198,-11.184000,-2.907266,18.770983,-17.579527,-9.058269,8064.000000,0.000000,4.000000,,,,0.000000,4.000000,4.000000,4.000000,4.000000,4.000000,4.000000,4.000000,4.000000,4.000000,4.000000,4.000000,4.000000,4.000000,4.000000,4.000000,4.000000,4.000000,4.000000,4.000000,4.000000,4.000000,2.000000,4.000000,4.000000,4.000000,4.000000,4.000000,4.000000,4.000000,4.000000,4.000000,4.000000,83.333336
1614490699.846309,126.000000,0.000000,-9.922154,12.186128,4.493011,5.394220,-7.830036,0.205045,-8.230490,0.899451,-7.584479,-18.954908,-9.814845,-1.441845,-4.822593,-0.353726,-0.102097,-8.424548,-14.697881,5.177763,4.533888,-17.617193,-14.777018,-187.781967,-37.644501,-4.827643,-26.397470,-10.293765,-10.218969,-9.121533,-2.904359,18.752211,-23.715794,-20.844082,7936.000000,0.000000,4.000000,,,,0.000000,4.000000,4.000000,4.000000,4.000000,4.000000,4.000000,4.000000,4.000000,4.000000,4.000000,4.000000,4.000000,4.000000,4.000000,4.000000,4.000000,4.000000,4.000000,4.000000,4.000000,4.000000,2.000000,4.000000,4.000000,4.000000,4.000000,4.000000,4.000000,4.000000,4.000000,4.000000,4.000000,83.333336
1614490699.854058,127.000000,0.000000,-9.912232,12.173942,-1.152507,0.260621,-6.283745,1.743302,-8.222260,0.385731,-8.089715,-18.935953,-9.805031,-1.953224,-3.792129,0.159448,-5.230199,-6.364842,-5.965234,6.198226,7.606277,-11.445730,3.699298,-174.773666,-31.453011,11.074620,-26.371073,-10.796291,-10.208751,-7.061130,-2.901455,18.733459,-33.435669,-22.361698,8064.000000,0.000000,4.000000,,,,0.000000,4.000000,4.000000,4.000000,4.000000,4.000000,4.000000,4.000000,4.000000,4.000000,4.000000,4.000000,4.000000,4.000000,4.000000,4.000000,4.000000,4.000000,4.000000,4.000000,4.000000,4.000000,2.000000,4.000000,4.000000,4.000000,4.000000,4.000000,4.000000,4.000000,4.000000,4.000000,4.000000,83.333336
1614490699.861906,0.000000,0.000000,-9.902321,12.674588,-3.715457,-0.252460,-2.687717,4.305661,-6.675575,1.410986,-4.491882,-16.865734,-7.743944,-4.515373,-4.813978,3.236212,-8.814713,-5.332836,-2.369525,7.217669,15.803799,-9.895823,9.336624,-141.778381,-21.677969,18.755854,-23.780600,-10.785495,-7.634439,-5.515607,-2.385733,18.714725,-27.248386,-13.621388,0.000000,195.000000,4.000000,,,,0.000000,4.000000,4.000000,4.000000,4.000000,4.000000,4.000000,4.000000,4.000000,4.000000,4.000000,4.000000,4.000000,4.000000,4.000000,4.000000,4.000000,4.000000,4.000000,4.000000,4.000000,4.000000,2.000000,4.000000,4.000000,4.000000,4.000000,4.000000,4.000000,4.000000,4.000000,4.000000,4.000000,83.333336
1614490699.869655,1.000000,0.000000,-9.892418,11.123452,-2.173280,-0.252208,-9.864517,4.301355,-7.694541,1.409575,-10.128415,-18.900150,-8.761841,-4.510858,-4.296343,-2.920870,-10.344359,-6.865965,-2.879976,4.646349,19.890558,-10.398747,9.327288,-142.149414,-14.476803,17.711456,-20.167076,-9.749068,-7.113984,-3.458810,-3.408988,19.208832,-19.528830,-13.094947,0.000000,191.000000,4.000000,,,,0.000000,4.000000,4.000000,4.000000,4.000000,4.000000,4.000000,4.000000,4.000000,4.000000,4.000000,4.000000,4.000000,4.000000,4.000000,4.000000,4.000000,4.000000,4.000000,4.000000,4.000000,4.000000,2.000000,4.000000,4.000000,4.000000,4.000000,4.000000,4.000000,4.000000,4.000000,4.000000,4.000000,83.333336
1614490699.877504,2.000000,0.000000,-9.882525,9.061047,-2.171107,-1.277597,-17.546961,3.784233,-7.686846,-0.643117,-23.451620,-18.881250,-9.265900,-5.019167,-4.292047,-7.020514,-10.334016,-6.859099,-3.902737,4.641703,17.819386,-8.849887,9.830781,-174.314957,-13.949506,17.693745,-12.967421,-13.329063,-9.670973,-3.455351,-5.969682,19.189623,-18.996481,-16.671595,0.000000,208.000000,4.000000,,,,0.000000,4.000000,4.000000,4.000000,4.000000,4.000000,4.000000,4.000000,4.000000,4.000000,4.000000,4.000000,4.000000,4.000000,4.000000,4.000000,4.000000,4.000000,4.000000,4.000000,4.000000,4.000000,2.000000,4.000000,4.000000,4.000000,4.000000,4.000000,4.000000,4.000000,4.000000,4.000000,4.000000,83.333336
1614490699.885253,3.000000,0.000000,-9.872643,8.026344,1.420808,7.441629,-9.324285,3.780449,-0.499672,7.562654,-17.274323,-5.016216,2.538238,-0.911584,-1.723652,5.294199,-0.580092,-1.724035,-2.873193,9.765266,22.929771,2.441014,7.769668,-171.576553,-11.884274,17.163231,-0.646761,-14.341375,-10.686943,-3.451896,-6.476532,18.657612,-5.644150,-7.424155,0.000000,201.000000,4.000000,,,,0.000000,4.000000,4.000000,4.000000,4.000000,4.000000,4.000000,4.000000,4.000000,4.000000,4.000000,4.000000,4.000000,4.000000,4.000000,4.000000,4.000000,4.000000,4.000000,4.000000,4.000000,4.000000,2.000000,4.000000,4.000000,4.000000,4.000000,4.000000,4.000000,4.000000,4.000000,4.000000,4.000000,83.333336
1614490699.893102,4.000000,0.000000,-9.862771,8.531139,5.009130,21.280342,1.967091,3.776669,7.193135,18.324324,-0.846792,7.296493,13.817752,5.243174,-1.209108,11.955572,11.728181,1.354613,-0.306217,15.909348,34.701714,18.336008,9.300360,-154.481888,-8.282646,19.197350,6.020552,-9.198829,-9.650615,-3.961264,-3.905953,19.151775,10.771750,1.301218,0.000000,195.000000,4.000000,,,,0.000000,4.000000,4.000000,4.000000,4.000000,4.000000,4.000000,4.000000,4.000000,4.000000,4.000000,4.000000,4.000000,4.000000,4.000000,4.000000,4.000000,4.000000,4.000000,4.000000,4.000000,4.000000,2.000000,4.000000,4.000000,4.000000,4.000000,4.000000,4.000000,4.000000,4.000000,4.000000,4.000000,83.333336
1614490699.900850,5.000000,0.000000,-9.852908,8.522608,3.978480,20.746241,0.939483,3.772892,6.160301,12.152152,-4.948509,0.109709,2.521882,2.161007,-3.772002,-4.979461,4.024145,-2.749306,-3.382834,10.252412,33.128551,17.292032,8.778239,-148.686386,-5.710261,19.690973,3.963249,-9.189630,-10.153785,-4.470123,-2.363586,18.106983,6.145594,-1.777006,0.000000,192.000000,4.000000,,,,0.000000,4.000000,4.000000,4.000000,4.000000,4.000000,4.000000,4.000000,4.000000,4.000000,4.000000,4.000000,4.000000,4.000000,4.000000,4.000000,4.000000,4.000000,4.000000,4.000000,4.000000,4.000000,2.000000,4.000000,4.000000,4.000000,4.000000,4.000000,4.000000,4.000000,4.000000,4.000000,4.000000,83.333336
1614490699.908699,6.000000,0.000000,-9.843055,7.488444,0.897579,12.007545,-0.599918,3.256299,0.513115,0.857949,-10.584586,-7.069888,-14.916537,-3.482179,-4.281050,-23.436020,-17.005520,-6.849121,-9.020477,-7.706558,8.992858,-5.802183,-8.666437,-139.306931,-7.243012,3.773845,2.420825,-13.283005,-10.656451,-3.440012,-2.874043,11.935029,-1.552859,-4.852152,0.000000,212.000000,4.000000,,,,0.000000,4.000000,4.000000,4.000000,4.000000,4.000000,4.000000,4.000000,4.000000,4.000000,4.000000,4.000000,4.000000,4.000000,4.000000,4.000000,4.000000,4.000000,4.000000,4.000000,4.000000,4.000000,2.000000,4.000000,4.000000,4.000000,4.000000,4.000000,4.000000,4.000000,4.000000,4.000000,4.000000,83.333336
1614490699.916448,7.000000,0.000000,-9.833212,7.993776,1.409502,10.457077,0.939143,4.278683,-0.513039,2.395552,-1.856053,-4.498715,-19.004185,-6.042800,-7.353692,-27.515148,-23.655182,-6.842272,-11.575560,-20.006544,-15.631519,-28.360483,-34.298798,-170.449677,-16.979359,-20.845312,-1.684160,-10.192799,-10.132975,-4.462214,-2.871169,7.307710,0.499976,-1.770377,0.000000,188.000000,4.000000,,,,0.000000,4.000000,4.000000,4.000000,4.000000,4.000000,4.000000,4.000000,4.000000,4.000000,4.000000,4.000000,4.000000,4.000000,4.000000,4.000000,4.000000,4.000000,4.000000,4.000000,4.000000,4.000000,2.000000,4.000000,4.000000,4.000000,4.000000,4.000000,4.000000,4.000000,4.000000,4.000000,4.000000,83.333336
1614490699.924197,8.000000,0.000000,-9.823379,8.498603,2.946554,11.472260,0.425383,6.325686,0.513115,4.957260,-5.443941,-9.622421,-16.421078,-5.523937,-11.448902,-24.410709,-14.913577,-6.835430,-12.589624,-19.473717,-17.154348,-30.896225,-38.367062,-202.586914,-32.346996,-26.978313,-15.015809,-6.080041,-10.635662,-10.611597,-2.868298,6.787581,-0.526165,0.795496,0.000000,198.000000,4.000000,,,,0.000000,4.000000,4.000000,4.000000,4.000000,4.000000,4.000000,4.000000,4.000000,4.000000,4.000000,4.000000,4.000000,4.000000,4.000000,4.000000,4.000000,4.000000,4.000000,4.000000,4.000000,4.000000,2.000000,4.000000,4.000000,4.000000,4.000000,4.000000,4.000000,4.000000,4.000000,4.000000,4.000000,83.333336
1614490699.931946,9.000000,0.000000,-9.813556,7.464463,0.892325,10.947968,0.937779,7.857822,-0.000219,4.439482,-14.156446,-12.689722,-9.737990,4.737998,-6.822069,-16.693991,-2.590972,-5.802953,-7.961650,-16.890141,-1.752579,-14.967894,-18.328693,-169.563812,-34.365929,-7.464156,-23.205921,-6.586782,-10.112206,-10.088165,-2.865429,6.780794,-3.602562,-1.769402,0.000000,202.000000,4.000000,,,,0.000000,4.000000,4.000000,4.000000,4.000000,4.000000,4.000000,4.000000,4.000000,4.000000,4.000000,4.000000,4.000000,4.000000,4.000000,4.000000,4.000000,4.000000,4.000000,4.000000,4.000000,4.000000,2.000000,4.000000,4.000000,4.000000,4.000000,4.000000,4.000000,4.000000,4.000000,4.000000,4.000000,83.333336
1614490699.939595,10.000000,0.000000,-9.803741,8.995461,1.404253,10.424199,1.449661,7.337144,-0.513039,9.563248,-6.449981,0.143480,0.015338,16.015310,1.389881,-8.472169,5.103927,-3.745868,2.815542,-16.360430,5.941481,-0.081131,4.766558,-136.573746,-14.331564,15.107410,-13.951946,-4.528913,-5.999529,-0.334487,-2.862564,9.850936,-2.060498,-1.254812,0.000000,158.000000,4.000000,,,,0.000000,4.000000,4.000000,4.000000,4.000000,4.000000,4.000000,4.000000,4.000000,4.000000,4.000000,4.000000,4.000000,4.000000,4.000000,4.000000,4.000000,4.000000,4.000000,4.000000,4.000000,4.000000,2.000000,4.000000,4.000000,4.000000,4.000000,4.000000,4.000000,4.000000,4.000000,4.000000,4.000000,83.333336
1614490699.947343,11.000000,0.000000,-9.793938,15.653131,11.659259,9.900955,-1.115891,7.329807,-0.512526,14.681890,1.248776,7.835645,2.579425,12.409552,1.388491,-6.412415,6.124464,-3.229302,6.402470,-17.882530,3.884257,2.995873,14.505381,-168.744858,4.657126,18.169226,-1.117482,-2.985923,-3.429427,4.794052,-2.859701,17.533392,-0.519976,6.438750,0.000000,215.000000,4.000000,,,,0.000000,4.000000,4.000000,4.000000,4.000000,4.000000,4.000000,4.000000,4.000000,4.000000,4.000000,4.000000,4.000000,4.000000,4.000000,4.000000,4.000000,4.000000,4.000000,4.000000,4.000000,4.000000,2.000000,4.000000,4.000000,4.000000,4.000000,4.000000,4.000000,4.000000,4.000000,4.000000,4.000000,83.333336
1614490699.954992,12.000000,0.000000,-9.784144,20.252863,18.827087,11.942336,2.474968,7.322477,-0.512013,16.205669,0.734707,4.750886,1.551204,5.730476,-2.202641,-6.918823,3.554237,-3.226072,4.344786,-16.326187,12.085502,5.556980,13.978055,-200.883804,8.755033,13.022852,0.934918,-3.495757,-2.400357,2.737976,-3.369662,22.131245,-0.519456,14.124619,0.000000,192.000000,4.000000,,,,0.000000,4.000000,4.000000,4.000000,4.000000,4.000000,4.000000,4.000000,4.000000,4.000000,4.000000,4.000000,4.000000,4.000000,4.000000,4.000000,4.000000,4.000000,4.000000,4.000000,4.000000,4.000000,2.000000,4.000000,4.000000,4.000000,4.000000,4.000000,4.000000,4.000000,4.000000,4.000000,4.000000,83.333336
1614490699.962741,13.000000,0.000000,-7.723078,19.719790,11.628773,17.058599,11.190442,7.315155,1.026960,16.702284,4.836536,4.233315,3.088115,6.237566,-0.149156,-5.886263,0.473760,-0.658744,6.904543,1.126037,30.022133,16.320654,19.092281,-192.477798,7.207817,20.189316,-1.117299,-2.979441,0.166146,5.812161,-1.827831,22.621933,-0.518937,14.623315,0.000000,168.000000,4.000000,,,,0.000000,4.000000,4.000000,4.000000,4.000000,4.000000,4.000000,4.000000,4.000000,4.000000,4.000000,4.000000,4.000000,4.000000,4.000000,4.000000,4.000000,4.000000,4.000000,4.000000,4.000000,4.000000,2.000000,4.000000,4.000000,4.000000,4.000000,4.000000,4.000000,4.000000,4.000000,4.000000,4.000000,83.333336
1614490699.970390,14.000000,0.000000,-6.176893,19.187250,6.488939,19.092823,7.076688,7.307839,0.000292,7.967633,4.831700,0.126517,1.546565,2.641585,-0.149007,-5.880377,2.011748,1.393197,8.436100,22.663372,36.658779,21.432539,27.278318,-175.362244,9.251891,31.451178,0.935100,-5.540564,1.704441,11.447374,1.250920,23.112131,-0.518418,12.044589,0.000000,197.000000,4.000000,,,,0.000000,4.000000,4.000000,4.000000,4.000000,4.000000,4.000000,4.000000,4.000000,4.000000,4.000000,4.000000,4.000000,4.000000,4.000000,4.000000,4.000000,4.000000,4.000000,4.000000,4.000000,4.000000,2.000000,4.000000,4.000000,4.000000,4.000000,4.000000,4.000000,4.000000,4.000000,4.000000,4.000000,83.333336
1614490699.978139,15.000000,0.000000,-5.657896,19.680883,16.738861,18.048088,-5.750902,6.787711,-0.512529,0.267357,0.724304,-2.950533,3.596301,-0.437980,-2.200140,-6.900137,11.753325,0.366163,8.427664,26.743273,35.083656,19.359823,27.763861,-142.366364,9.242640,32.958187,0.934165,-6.560664,0.677096,10.923107,0.736849,22.063379,-0.517900,15.622289,0.000000,175.000000,4.000000,,,,0.000000,4.000000,4.000000,4.000000,4.000000,4.000000,4.000000,4.000000,4.000000,4.000000,4.000000,4.000000,4.000000,4.000000,4.000000,4.000000,4.000000,4.000000,4.000000,4.000000,4.000000,4.000000,2.000000,4.000000,4.000000,4.000000,4.000000,4.000000,4.000000,4.000000,4.000000,4.000000,4.000000,83.333336
1614490699.985788,16.000000,0.000000,-6.165059,19.661201,24.414429,18.542860,-6.257971,8.319385,6.154651,12.061962,4.313323,6.283187,9.233730,6.741945,1.391804,-6.380417,17.382597,0.878617,13.547441,25.690889,38.125496,22.417387,26.197634,-132.480408,7.182115,31.899590,-0.605231,-1.938719,1.189239,10.399364,0.736112,22.554136,1.533900,23.298973,0.000000,166.000000,4.000000,,,,0.000000,4.000000,4.000000,4.000000,4.000000,4.000000,4.000000,4.000000,4.000000,4.000000,4.000000,4.000000,4.000000,4.000000,4.000000,4.000000,4.000000,4.000000,4.000000,4.000000,4.000000,4.000000,2.000000,4.000000,4.000000,4.000000,4.000000,4.000000,4.000000,4.000000,4.000000,4.000000,4.000000,83.333336
1614490699.993537,17.000000,0.000000,-6.158894,19.641541,18.236168,18.011497,0.414953,10.875168,11.789521,21.280668,8.924395,8.328186,3.070650,8.273664,4.980155,-7.912498,4.031882,0.877739,9.944151,25.665197,31.933525,20.343687,23.094515,-164.655624,8.200573,25.201023,-0.091805,0.627322,0.675229,11.414605,6.889222,28.172607,3.583649,25.326958,0.000000,193.000000,4.000000,,,,0.000000,4.000000,4.000000,4.000000,4.000000,4.000000,4.000000,4.000000,4.000000,4.000000,4.000000,4.000000,4.000000,4.000000,4.000000,4.000000,4.000000,4.000000,4.000000,4.000000,4.000000,4.000000,2.000000,4.000000,4.000000,4.000000,4.000000,4.000000,4.000000,4.000000,4.000000,4.000000,4.000000,83.333336
1614490700.001186,18.000000,0.000000,-6.152734,17.057796,14.628189,13.890922,0.927359,7.787370,3.572604,9.464517,4.812906,-2.449373,-10.265754,-1.478199,-3.229953,-14.571252,-13.920868,-6.302627,-5.963230,9.742097,10.875951,-4.804861,2.045779,-190.644806,7.166732,-0.465203,-0.604534,0.113874,-5.992113,5.249344,7.395153,26.093153,3.067245,19.660604,0.000000,193.000000,4.000000,,,,0.000000,4.000000,4.000000,4.000000,4.000000,4.000000,4.000000,4.000000,4.000000,4.000000,4.000000,4.000000,4.000000,4.000000,4.000000,4.000000,4.000000,4.000000,4.000000,4.000000,4.000000,4.000000,2.000000,4.000000,4.000000,4.000000,4.000000,4.000000,4.000000,4.000000,4.000000,4.000000,4.000000,83.333336
1614490700.008935,19.000000,0.000000,-6.146582,12.425354,17.177664,10.287287,-0.099210,3.164198,-7.713020,-1.314179,2.756811,-8.600770,-13.845232,-6.604926,-16.560057,-21.736168,-19.035152,-12.962991,-17.239317,-10.780466,-5.032361,-33.518005,-29.238319,-157.633652,-3.609666,-31.233969,-2.655211,3.190684,-11.114326,-4.499495,-2.355832,13.246547,3.064177,16.564020,0.000000,179.000000,4.000000,,,,0.000000,4.000000,4.000000,4.000000,4.000000,4.000000,4.000000,4.000000,4.000000,4.000000,4.000000,4.000000,4.000000,4.000000,4.000000,4.000000,4.000000,4.000000,4.000000,4.000000,4.000000,4.000000,2.000000,4.000000,4.000000,4.000000,4.000000,4.000000,4.000000,4.000000,4.000000,4.000000,4.000000,83.333336
1614490700.016583,20.000000,0.000000,-6.653255,10.874467,15.109203,10.276999,-1.124751,3.161034,-8.218127,0.738418,4.292516,-7.566528,-14.857027,-5.572680,-16.030676,-21.201611,-19.016117,-16.026951,-16.709257,-18.461994,-8.617072,-32.971668,-37.927029,-151.322174,-14.375287,-43.510426,-1.626915,3.187493,-9.051929,-5.007816,-7.994502,5.540992,3.573934,17.573097,0.000000,184.000000,4.000000,,,,0.000000,4.000000,4.000000,4.000000,4.000000,4.000000,4.000000,4.000000,4.000000,4.000000,4.000000,4.000000,4.000000,4.000000,4.000000,4.000000,4.000000,4.000000,4.000000,4.000000,4.000000,4.000000,2.000000,4.000000,4.000000,4.000000,4.000000,4.000000,4.000000,4.000000,4.000000,4.000000,4.000000,83.333336
1614490700.024432,21.000000,0.000000,-5.620961,11.889234,12.529992,11.805184,-2.662088,3.670693,-3.594525,1.250500,4.288223,-5.507679,-9.201145,-5.054286,-1.655671,-11.949640,-13.356075,-14.472462,-4.897676,-17.930710,-4.505891,-11.400233,-17.889103,-177.837524,-14.873733,-28.082302,1.964455,-1.431079,-6.478775,2.689500,-6.448046,7.586733,3.570360,17.042704,0.000000,170.000000,4.000000,,,,0.000000,4.000000,4.000000,4.000000,4.000000,4.000000,4.000000,4.000000,4.000000,4.000000,4.000000,4.000000,4.000000,4.000000,4.000000,4.000000,4.000000,4.000000,4.000000,4.000000,4.000000,4.000000,2.000000,4.000000,4.000000,4.000000,4.000000,4.000000,4.000000,4.000000,4.000000,4.000000,4.000000,83.333336
1614490700.032181,22.000000,0.000000,-3.051238,11.877344,14.568744,10.254918,-3.172247,3.667022,2.050095,-0.289212,3.771115,0.138854,12.859339,-0.433847,12.192139,1.908463,3.067537,-5.227221,13.568760,-3.040985,12.421692,1.944500,5.205710,-181.249420,-11.269114,2.715012,4.526594,-3.480930,-6.472296,6.276554,-5.928777,7.579147,3.053969,13.435918,0.000000,194.000000,4.000000,,,,0.000000,4.000000,4.000000,4.000000,4.000000,4.000000,4.000000,4.000000,4.000000,4.000000,4.000000,4.000000,4.000000,4.000000,4.000000,4.000000,4.000000,4.000000,4.000000,4.000000,4.000000,4.000000,2.000000,4.000000,4.000000,4.000000,4.000000,4.000000,4.000000,4.000000,4.000000,4.000000,4.000000,83.333336
1614490700.040030,23.000000,0.000000,-2.022546,11.352647,16.605457,9.731842,-3.169074,5.714638,8.714712,2.275179,3.254523,4.241279,26.692633,5.720433,14.744049,10.624503,16.397802,6.572879,26.375704,23.628723,32.409271,5.019479,17.508196,-182.606628,-8.693743,27.840502,7.598990,-6.554372,-6.978644,6.783098,-6.948489,6.545927,3.563735,10.345559,0.000000,204.000000,4.000000,,,,0.000000,4.000000,4.000000,4.000000,4.000000,4.000000,4.000000,4.000000,4.000000,4.000000,4.000000,4.000000,4.000000,4.000000,4.000000,4.000000,4.000000,4.000000,4.000000,4.000000,4.000000,4.000000,2.000000,4.000000,4.000000,4.000000,4.000000,4.000000,4.000000,4.000000,4.000000,4.000000,4.000000,83.333336
1614490700.047778,24.000000,0.000000,-2.533344,11.854115,16.076031,14.337495,-2.653085,7.247385,10.757279,4.837007,4.276910,5.262679,17.947992,6.740353,8.575459,4.972853,13.304482,7.591947,26.862148,24.117914,36.992245,7.578562,22.106073,-159.347107,-5.095306,36.017788,6.565750,-10.137562,-6.458845,7.289135,-6.428720,7.052201,3.560172,10.335213,0.000000,178.000000,4.000000,,,,0.000000,4.000000,4.000000,4.000000,4.000000,4.000000,4.000000,4.000000,4.000000,4.000000,4.000000,4.000000,4.000000,4.000000,4.000000,4.000000,4.000000,4.000000,4.000000,4.000000,4.000000,4.000000,2.000000,4.000000,4.000000,4.000000,4.000000,4.000000,4.000000,4.000000,4.000000,4.000000,4.000000,83.333336
1614490700.055627,25.000000,0.000000,-2.017990,12.355081,16.572775,13.810337,-3.163252,7.752958,6.131137,4.832170,4.785453,3.206134,8.699274,4.169510,3.951499,-6.314171,6.111691,2.968970,18.630157,4.093796,35.416794,10.135086,22.083967,-126.367249,-3.038929,36.494591,-4.722867,-9.101783,-5.939566,3.179282,-6.422292,7.557970,-0.545953,9.812057,0.000000,192.000000,4.000000,,,,0.000000,4.000000,4.000000,4.000000,4.000000,4.000000,4.000000,4.000000,4.000000,4.000000,4.000000,4.000000,4.000000,4.000000,4.000000,4.000000,4.000000,4.000000,4.000000,4.000000,4.000000,4.000000,2.000000,4.000000,4.000000,4.000000,4.000000,4.000000,4.000000,4.000000,4.000000,4.000000,4.000000,83.333336
1614490700.063376,26.000000,0.000000,-3.554433,10.291444,16.043383,2.514475,-7.775474,7.232384,-2.080122,4.314517,0.678104,-3.976559,3.049549,1.601238,3.434727,-9.897600,3.028656,1.940360,6.303835,2.038420,38.458298,9.099310,18.472139,-158.548569,-6.112813,36.970917,-17.025837,-8.067040,-6.446446,-3.490564,-6.415869,7.550412,-6.699253,9.802245,0.000000,188.000000,4.000000,,,,0.000000,4.000000,4.000000,4.000000,4.000000,4.000000,4.000000,4.000000,4.000000,4.000000,4.000000,4.000000,4.000000,4.000000,4.000000,4.000000,4.000000,4.000000,4.000000,4.000000,4.000000,4.000000,2.000000,4.000000,4.000000,4.000000,4.000000,4.000000,4.000000,4.000000,4.000000,4.000000,4.000000,83.333336
1614490700.071225,27.000000,0.000000,-6.114981,6.178588,11.411954,-4.154706,-10.844621,2.609767,-7.206247,4.823023,-3.937959,-10.126429,-2.081705,-0.964466,2.918472,-9.887703,0.461524,0.912779,3.220609,10.754331,36.881378,9.090211,15.889565,-190.697708,-9.696444,36.933949,-19.060093,-10.110255,-6.440000,-5.025535,-6.409453,7.542861,-8.743835,10.818084,0.000000,170.000000,4.000000,,,,0.000000,4.000000,4.000000,4.000000,4.000000,4.000000,4.000000,4.000000,4.000000,4.000000,4.000000,4.000000,4.000000,4.000000,4.000000,4.000000,4.000000,4.000000,4.000000,4.000000,4.000000,4.000000,2.000000,4.000000,4.000000,4.000000,4.000000,4.000000,4.000000,4.000000,4.000000,4.000000,4.000000,83.333336
1614490700.078974,28.000000,0.000000,-6.108866,4.121128,8.836440,-0.560807,-8.269674,0.043055,-6.173399,4.818200,-2.908380,-10.629123,2.022941,-1.476322,2.915553,-10.903456,1.486704,1.424687,10.396875,12.794859,34.280396,9.081120,15.873675,-157.686508,-10.199568,36.384193,-18.528212,-10.612966,-4.895099,-1.943586,-6.403044,7.535318,-7.709451,6.191882,0.000000,205.000000,4.000000,,,,0.000000,4.000000,4.000000,4.000000,4.000000,4.000000,4.000000,4.000000,4.000000,4.000000,4.000000,4.000000,4.000000,4.000000,4.000000,4.000000,4.000000,4.000000,4.000000,4.000000,4.000000,4.000000,2.000000,4.000000,4.000000,4.000000,4.000000,4.000000,4.000000,4.000000,4.000000,4.000000,4.000000,83.333336
1614490700.086822,29.000000,0.000000,-5.589937,4.629827,8.827603,-2.611529,-8.261404,3.119935,-2.577483,2.249279,-4.443933,-11.131314,3.046559,0.063616,2.399817,-9.354091,0.972397,0.910441,8.335196,8.166679,32.707653,4.456655,11.755238,-124.708305,-10.702188,28.142681,-17.996862,-11.627994,-5.403024,-0.403181,-6.396641,7.527783,-7.701741,-4.070721,0.000000,191.000000,4.000000,,,,0.000000,4.000000,4.000000,4.000000,4.000000,4.000000,4.000000,4.000000,4.000000,4.000000,4.000000,4.000000,4.000000,4.000000,4.000000,4.000000,4.000000,4.000000,4.000000,4.000000,4.000000,4.000000,2.000000,4.000000,4.000000,4.000000,4.000000,4.000000,4.000000,4.000000,4.000000,4.000000,4.000000,83.333336
1614490700.094571,30.000000,0.000000,-7.635629,4.625197,4.203391,-10.814045,-13.381348,2.603994,-5.651828,-3.906816,-12.644617,-14.197106,-13.879565,-4.551832,-5.807711,-14.472942,-13.900371,-9.859700,-1.929549,-8.764565,16.264688,-6.317033,-2.102672,-147.147705,-10.691486,6.063255,-12.850661,-14.180469,-6.423262,-0.915599,-6.390244,7.520255,-8.206861,-10.220496,0.000000,148.000000,4.000000,,,,0.000000,4.000000,4.000000,4.000000,4.000000,4.000000,4.000000,4.000000,4.000000,4.000000,4.000000,4.000000,4.000000,4.000000,4.000000,4.000000,4.000000,4.000000,4.000000,4.000000,4.000000,4.000000,2.000000,4.000000,4.000000,4.000000,4.000000,4.000000,4.000000,4.000000,4.000000,4.000000,4.000000,83.333336
1614490700.102420,31.000000,0.000000,-9.679276,4.107751,0.096624,-12.341693,-14.906428,-3.039635,-10.774382,-7.492653,-15.196075,-18.798294,-28.224659,-15.829331,-15.032672,-28.817444,-32.860828,-22.670353,-9.107107,-27.217339,-9.905422,-17.079947,-17.998005,-161.872345,-10.680795,-17.532551,-6.683964,-13.653467,-3.339916,-0.401863,-6.383854,7.512735,-7.685833,-8.158994,0.000000,190.000000,4.000000,,,,0.000000,4.000000,4.000000,4.000000,4.000000,4.000000,4.000000,4.000000,4.000000,4.000000,4.000000,4.000000,4.000000,4.000000,4.000000,4.000000,4.000000,4.000000,4.000000,4.000000,4.000000,4.000000,2.000000,4.000000,4.000000,4.000000,4.000000,4.000000,4.000000,4.000000,4.000000,4.000000,4.000000,83.333336
1614490700.110169,32.000000,0.000000,-9.669597,4.103644,2.147809,-10.790890,-13.865881,-4.062237,-11.789248,-3.895417,-11.591136,-22.369238,-29.222076,-20.941708,-16.556101,-32.891190,-32.827969,-26.237427,-17.815948,-31.805506,-25.280132,-26.806456,-28.236418,-177.095093,-12.208575,-32.899635,-5.138819,-15.178275,-3.336576,-0.401461,-6.377470,7.505222,-7.165327,-5.586732,8064.000000,0.000000,4.000000,,,,0.000000,4.000000,4.000000,4.000000,4.000000,4.000000,4.000000,4.000000,4.000000,4.000000,4.000000,4.000000,4.000000,4.000000,4.000000,4.000000,4.000000,4.000000,4.000000,4.000000,4.000000,4.000000,2.000000,4.000000,4.000000,4.000000,4.000000,4.000000,4.000000,4.000000,4.000000,4.000000,4.000000,83.333336
1614490700.118017,33.000000,0.000000,-9.659926,5.125181,1.632841,-10.780099,-13.852015,-4.058175,-10.238997,-4.404342,-9.528262,-22.859690,-27.141571,-19.382303,-16.539545,-24.653172,-25.102833,-26.211189,-22.413517,-32.799343,-27.306135,-35.497601,-32.823566,-188.712860,-16.298931,-37.482121,-11.287526,-20.291302,-19.230675,-0.401059,-6.371093,8.523358,-7.158161,-8.658069,8064.000000,0.000000,4.000000,,,,0.000000,4.000000,4.000000,4.000000,4.000000,4.000000,4.000000,4.000000,4.000000,4.000000,4.000000,4.000000,4.000000,4.000000,4.000000,4.000000,4.000000,4.000000,4.000000,4.000000,4.000000,4.000000,2.000000,4.000000,4.000000,4.000000,4.000000,4.000000,4.000000,4.000000,4.000000,4.000000,4.000000,83.333336
1614490700.125766,34.000000,0.000000,-9.650267,4.607235,0.605567,-11.282139,-13.838162,-7.131039,-11.767220,-11.066604,-11.057196,-20.785549,-23.524687,-20.901382,-15.497364,-21.038774,-26.103371,-25.672157,-11.109053,-28.151157,-18.048059,-28.282614,-24.072792,-155.703644,-19.359554,-23.598484,-21.019829,-20.783831,-37.160164,-0.400658,-6.877542,8.002014,-7.663824,-14.290436,8064.000000,0.000000,4.000000,,,,0.000000,4.000000,4.000000,4.000000,4.000000,4.000000,4.000000,4.000000,4.000000,4.000000,4.000000,4.000000,4.000000,4.000000,4.000000,4.000000,4.000000,4.000000,4.000000,4.000000,4.000000,4.000000,2.000000,4.000000,4.000000,4.000000,4.000000,4.000000,4.000000,4.000000,4.000000,4.000000,4.000000,83.333336
1614490700.133415,35.000000,0.000000,-7.589334,4.089808,10.861371,-11.270857,-14.337145,-7.636729,-10.729812,-9.004255,-12.071779,-20.251942,-14.783214,-18.316380,-8.815201,-20.504915,-20.949062,-15.902895,2.748211,-10.687109,2.995630,-3.638947,1.592305,-122.727425,-18.314554,5.655885,-22.024450,-17.686125,-35.071720,-0.400258,-5.332203,7.481192,-7.143339,-15.301786,8064.000000,0.000000,4.000000,,,,0.000000,4.000000,4.000000,4.000000,4.000000,4.000000,4.000000,4.000000,4.000000,4.000000,4.000000,4.000000,4.000000,4.000000,4.000000,4.000000,4.000000,4.000000,4.000000,4.000000,4.000000,4.000000,2.000000,4.000000,4.000000,4.000000,4.000000,4.000000,4.000000,4.000000,4.000000,4.000000,4.000000,83.333336
1614490700.141164,36.000000,0.000000,-5.530463,7.162641,19.568459,-10.233945,-12.784347,-4.552169,-4.052415,1.773980,-8.469964,-19.718870,-11.178686,-8.554473,-3.678180,-15.869025,-10.671703,-10.245967,4.283924,-4.522575,16.838789,12.774949,21.590714,-154.912384,-10.091112,26.675869,-15.848579,-17.155619,-20.164854,-0.399857,-2.762768,11.576275,-7.649016,-11.696741,8064.000000,0.000000,4.000000,,,,0.000000,4.000000,4.000000,4.000000,4.000000,4.000000,4.000000,4.000000,4.000000,4.000000,4.000000,4.000000,4.000000,4.000000,4.000000,4.000000,4.000000,4.000000,4.000000,4.000000,4.000000,4.000000,2.000000,4.000000,4.000000,4.000000,4.000000,4.000000,4.000000,4.000000,4.000000,4.000000,4.000000,83.333336
1614490700.148813,37.000000,0.000000,-6.037753,11.258042,9.292480,-7.659608,-8.156178,-3.009155,1.079842,4.849129,-6.410213,-35.083767,-13.731610,-3.930534,-4.187323,-12.263412,-8.609749,-10.235721,2.741179,-7.594976,18.360411,12.249353,24.646046,-173.731842,-3.414354,29.213297,-14.807090,-18.164103,-13.478022,-0.399457,-2.247185,11.564698,-11.231111,-12.197865,8064.000000,0.000000,4.000000,,,,0.000000,4.000000,4.000000,4.000000,4.000000,4.000000,4.000000,4.000000,4.000000,4.000000,4.000000,4.000000,4.000000,4.000000,4.000000,4.000000,4.000000,4.000000,4.000000,4.000000,4.000000,4.000000,2.000000,4.000000,4.000000,4.000000,4.000000,4.000000,4.000000,4.000000,4.000000,4.000000,4.000000,83.333336
1614490700.156562,38.000000,0.000000,-6.031715,10.221144,-5.588607,-8.164769,-5.583919,-3.518967,0.565942,1.254536,-12.557649,-67.356377,-9.102494,-7.516347,-4.695956,-12.763969,-6.037037,0.543746,5.302540,5.233132,28.598461,13.775565,23.595758,-160.224777,-3.410940,29.184084,-13.766642,-17.633118,-13.977365,-0.399058,-2.757758,-0.754559,-14.809624,-15.262590,8064.000000,0.000000,4.000000,,,,0.000000,4.000000,4.000000,4.000000,4.000000,4.000000,4.000000,4.000000,4.000000,4.000000,4.000000,4.000000,4.000000,4.000000,4.000000,4.000000,4.000000,4.000000,4.000000,4.000000,4.000000,4.000000,2.000000,4.000000,4.000000,4.000000,4.000000,4.000000,4.000000,4.000000,4.000000,4.000000,4.000000,83.333336
1614490700.164211,39.000000,0.000000,-6.025683,8.159640,-3.531737,-6.618143,-6.091156,-3.515448,0.565376,0.740461,-13.570732,-92.417221,-1.913905,-8.534472,-3.665619,-12.751205,1.661308,8.748330,6.835699,17.022770,38.826271,18.377174,24.597803,-157.500443,0.182215,33.257462,-6.573388,-17.615486,-11.399284,-0.398659,-2.242180,-11.010215,-15.307634,-15.760148,8064.000000,0.000000,4.000000,,,,0.000000,4.000000,4.000000,4.000000,4.000000,4.000000,4.000000,4.000000,4.000000,4.000000,4.000000,4.000000,4.000000,4.000000,4.000000,4.000000,4.000000,4.000000,4.000000,4.000000,4.000000,4.000000,2.000000,4.000000,4.000000,4.000000,4.000000,4.000000,4.000000,4.000000,4.000000,4.000000,4.000000,83.333336
1614490700.171960,40.000000,0.000000,-6.019658,8.151481,4.164103,-2.508961,-6.597885,-3.511932,0.564811,1.765361,-4.839212,-82.068398,-1.399170,-7.500297,-4.174774,-13.764095,0.121185,-0.491187,7.854504,8.287799,32.120781,13.743413,18.932180,-147.599350,9.412802,30.660103,-2.977071,-17.597870,-8.310962,0.114560,-2.239938,-8.947922,-14.779506,-14.718747,8064.000000,0.000000,4.000000,,,,0.000000,4.000000,4.000000,4.000000,4.000000,4.000000,4.000000,4.000000,4.000000,4.000000,4.000000,4.000000,4.000000,4.000000,4.000000,4.000000,4.000000,4.000000,4.000000,4.000000,4.000000,4.000000,2.000000,4.000000,4.000000,4.000000,4.000000,4.000000,4.000000,4.000000,4.000000,4.000000,4.000000,83.333336
1614490700.179609,41.000000,0.000000,-6.013638,8.143329,4.159939,-8.660298,-6.078466,-3.508420,0.051425,1.250776,-5.347194,-71.217094,-2.936233,-9.544078,-4.170599,-14.263152,-8.084064,-6.131721,7.333829,3.664127,21.832249,5.011721,6.605556,-160.272263,5.300825,19.860212,-4.512555,-17.580273,-10.353933,-1.936836,-4.801801,-6.887692,-14.764727,-15.216848,8064.000000,0.000000,4.000000,,,,0.000000,4.000000,4.000000,4.000000,4.000000,4.000000,4.000000,4.000000,4.000000,4.000000,4.000000,4.000000,4.000000,4.000000,4.000000,4.000000,4.000000,4.000000,4.000000,4.000000,4.000000,4.000000,2.000000,4.000000,4.000000,4.000000,4.000000,4.000000,4.000000,4.000000,4.000000,4.000000,4.000000,83.333336
1614490700.187357,42.000000,0.000000,-6.007625,8.648006,1.078856,-17.369587,-5.559567,-3.504912,1.077015,1.249525,-13.546974,-79.351006,-7.035861,-11.072995,-6.217710,-11.684786,-16.793928,-7.664052,-1.904274,2.634821,9.502725,-6.788163,-9.298486,-192.419693,-5.473707,0.353173,-7.584966,-17.562693,-13.420503,-3.986181,-6.335460,-7.393625,-14.749962,-15.201632,8064.000000,0.000000,4.000000,,,,0.000000,4.000000,4.000000,4.000000,4.000000,4.000000,4.000000,4.000000,4.000000,4.000000,4.000000,4.000000,4.000000,4.000000,4.000000,4.000000,4.000000,4.000000,4.000000,4.000000,4.000000,4.000000,2.000000,4.000000,4.000000,4.000000,4.000000,4.000000,4.000000,4.000000,4.000000,4.000000,4.000000,83.333336
1614490700.195006,43.000000,0.000000,-6.001617,8.126537,0.052136,-11.198371,-7.605290,-3.501407,-2.000985,-0.803007,-13.020607,-84.912682,-25.490362,-15.164487,-11.339698,-18.852589,-33.187393,-25.605106,-18.312626,-17.880634,-14.096522,-26.781374,-30.314829,-183.509323,-9.057977,-28.365129,-13.731227,-17.032309,-13.407082,-3.982195,-6.329125,-4.309309,-14.735212,-15.186430,8064.000000,0.000000,4.000000,,,,0.000000,4.000000,4.000000,4.000000,4.000000,4.000000,4.000000,4.000000,4.000000,4.000000,4.000000,4.000000,4.000000,4.000000,4.000000,4.000000,4.000000,4.000000,4.000000,4.000000,4.000000,4.000000,2.000000,4.000000,4.000000,4.000000,4.000000,4.000000,4.000000,4.000000,4.000000,4.000000,4.000000,83.333336
1614490700.202755,44.000000,0.000000,-5.995615,3.503026,1.590545,-4.007685,-12.725890,-3.497905,-11.742574,-4.904768,-9.417843,-83.802132,-41.362309,-19.251886,-14.918101,-33.192711,-44.949078,-38.912834,-28.550724,-40.426857,-31.005503,-43.164848,-44.643486,-150.505295,-17.766867,-48.849586,-17.820059,-17.528097,-12.880855,-3.978213,-8.374078,-3.792179,-14.207656,-15.684064,8064.000000,0.000000,4.000000,,,,0.000000,4.000000,4.000000,4.000000,4.000000,4.000000,4.000000,4.000000,4.000000,4.000000,4.000000,4.000000,4.000000,4.000000,4.000000,4.000000,4.000000,4.000000,4.000000,4.000000,4.000000,4.000000,2.000000,4.000000,4.000000,4.000000,4.000000,4.000000,4.000000,4.000000,4.000000,4.000000,4.000000,83.333336
1614490700.210404,45.000000,0.000000,-5.989620,0.422600,3.640237,-8.619062,-14.251625,-3.494408,-14.807755,-6.951145,-10.434066,-82.179863,-31.577356,-16.668531,-15.928824,-29.569775,-35.160538,-32.207253,-22.881147,-42.950531,-29.948856,-45.685787,-45.624485,-155.483002,-33.133717,-48.287914,-18.315060,-17.510569,-12.867973,-3.974235,-9.904165,-5.839668,-14.706269,-15.155560,8064.000000,0.000000,4.000000,,,,0.000000,4.000000,4.000000,4.000000,4.000000,4.000000,4.000000,4.000000,4.000000,4.000000,4.000000,4.000000,4.000000,4.000000,4.000000,4.000000,4.000000,4.000000,4.000000,4.000000,4.000000,4.000000,2.000000,4.000000,4.000000,4.000000,4.000000,4.000000,4.000000,4.000000,4.000000,4.000000,4.000000,83.333336
1614490700.218153,46.000000,0.000000,-5.983630,0.934998,-3.542891,-11.174545,-13.211733,-3.490913,-9.151921,-6.431374,-10.936453,-74.405380,-17.186804,-12.036479,-15.912895,-12.617127,-19.227942,-26.534021,-13.627497,-39.830658,-27.867624,-52.306770,-43.014759,-180.455719,-37.715965,-40.547318,-26.501873,-16.980238,-12.855105,-3.970261,-9.894261,-4.295367,-16.742846,-15.140404,8064.000000,0.000000,4.000000,,,,0.000000,4.000000,4.000000,4.000000,4.000000,4.000000,4.000000,4.000000,4.000000,4.000000,4.000000,4.000000,4.000000,4.000000,4.000000,4.000000,4.000000,4.000000,4.000000,4.000000,4.000000,4.000000,2.000000,4.000000,4.000000,4.000000,4.000000,4.000000,4.000000,4.000000,4.000000,4.000000,4.000000,83.333336
1614490700.225802,47.000000,0.000000,-5.977646,-0.091578,-12.257297,-12.701833,-14.736982,-3.487422,-6.578667,-7.450583,-10.925516,-66.125847,-12.554234,-11.511621,-12.307240,-9.014767,-10.490764,-20.353642,-13.101048,-34.149803,-27.839758,-63.536514,-37.843540,-179.249619,-39.729534,-32.814465,-39.295883,-19.014540,-13.867891,-5.504752,-10.397187,-3.778251,-19.290205,-16.150906,8064.000000,0.000000,4.000000,,,,0.000000,4.000000,4.000000,4.000000,4.000000,4.000000,4.000000,4.000000,4.000000,4.000000,4.000000,4.000000,4.000000,4.000000,4.000000,4.000000,4.000000,4.000000,4.000000,4.000000,4.000000,4.000000,2.000000,4.000000,4.000000,4.000000,4.000000,4.000000,4.000000,4.000000,4.000000,4.000000,4.000000,83.333336
1614490700.233550,48.000000,0.000000,-5.971669,0.934155,1.601115,-10.125029,-13.183784,-3.483935,-8.110549,-6.417491,-11.427411,-62.982796,-2.285269,-10.474469,-6.141086,-10.031393,-1.249504,-2.897390,-5.395640,-11.038729,-8.837559,-51.678104,-16.267233,-185.224213,-44.818008,-9.704726,-39.256588,-21.559628,-12.828382,-7.550529,-7.822688,-3.774473,-18.758095,-13.570651,8064.000000,0.000000,4.000000,,,,0.000000,4.000000,4.000000,4.000000,4.000000,4.000000,4.000000,4.000000,4.000000,4.000000,4.000000,4.000000,4.000000,4.000000,4.000000,4.000000,4.000000,4.000000,4.000000,4.000000,4.000000,4.000000,2.000000,4.000000,4.000000,4.000000,4.000000,4.000000,4.000000,4.000000,4.000000,4.000000,4.000000,83.333336
1614490700.241199,49.000000,0.000000,-5.965697,6.574246,17.496950,2.192789,-11.119318,-3.480451,-7.589618,-3.334151,-9.877522,-56.765965,10.024709,-7.899892,-4.083663,-2.841874,6.444053,7.361917,14.096935,12.049233,23.991791,-18.805914,14.005445,-166.577454,-30.927036,23.125490,-27.422461,-18.973965,-12.815554,-7.542979,-3.199480,0.844686,-17.713696,-6.890414,8064.000000,0.000000,4.000000,,,,0.000000,4.000000,4.000000,4.000000,4.000000,4.000000,4.000000,4.000000,4.000000,4.000000,4.000000,4.000000,4.000000,4.000000,4.000000,4.000000,4.000000,4.000000,4.000000,4.000000,4.000000,4.000000,2.000000,4.000000,4.000000,4.000000,4.000000,4.000000,4.000000,4.000000,4.000000,4.000000,4.000000,83.333336
1614490700.249048,50.000000,0.000000,-5.959732,6.567672,-0.982086,-0.373506,-14.697943,-3.476970,-6.043567,-2.305176,-9.867644,-51.580994,10.014684,-7.891992,-4.079579,-2.839033,6.437609,5.816094,17.672581,17.165388,44.480621,7.366738,28.350412,-136.154465,-5.767904,40.538261,-21.241192,-17.416531,-24.084789,-7.535436,-3.709101,-2.745902,-19.747263,-5.345062,8064.000000,0.000000,4.000000,,,,0.000000,4.000000,4.000000,4.000000,4.000000,4.000000,4.000000,4.000000,4.000000,4.000000,4.000000,4.000000,4.000000,4.000000,4.000000,4.000000,4.000000,4.000000,4.000000,4.000000,4.000000,4.000000,2.000000,4.000000,4.000000,4.000000,4.000000,4.000000,4.000000,4.000000,4.000000,4.000000,4.000000,83.333336
1614490700.256797,51.000000,0.000000,-5.953772,1.432899,-19.955463,-14.219287,-15.196065,-3.473494,-7.575985,-2.302871,-11.396238,-53.067875,6.927746,-8.396921,-3.562679,-8.477220,5.918351,4.784637,2.270294,15.609762,40.846397,15.051680,26.783602,-168.326004,3.468633,38.446442,-22.758411,-17.911934,-33.291473,-7.527900,-6.269495,-9.922644,-16.137772,-8.416640,8064.000000,0.000000,4.000000,,,,0.000000,4.000000,4.000000,4.000000,4.000000,4.000000,4.000000,4.000000,4.000000,4.000000,4.000000,4.000000,4.000000,4.000000,4.000000,4.000000,4.000000,4.000000,4.000000,4.000000,4.000000,4.000000,2.000000,4.000000,4.000000,4.000000,4.000000,4.000000,4.000000,4.000000,4.000000,4.000000,4.000000,83.333336
1614490700.264645,52.000000,0.000000,-5.947818,3.482749,-0.961148,-0.358914,-6.462920,-3.470020,-7.055589,2.827637,-4.205355,-46.348141,4.356716,-8.388524,-5.610398,-6.930280,5.912433,5.805493,-5.424284,15.081332,33.113243,17.600731,22.141434,-200.465378,0.901062,32.254150,-17.607449,-14.304278,-26.078695,-7.520372,-6.776046,-0.681952,-2.788301,-1.228736,8064.000000,0.000000,4.000000,,,,0.000000,4.000000,4.000000,4.000000,4.000000,4.000000,4.000000,4.000000,4.000000,4.000000,4.000000,4.000000,4.000000,4.000000,4.000000,4.000000,4.000000,4.000000,4.000000,4.000000,4.000000,4.000000,2.000000,4.000000,4.000000,4.000000,4.000000,4.000000,4.000000,4.000000,4.000000,4.000000,4.000000,83.333336
1614490700.272394,53.000000,0.000000,-5.941870,11.171574,21.603916,20.667086,-0.815432,-2.953729,-1.407507,8.465836,8.106543,-37.071022,-1.801487,-7.867315,-6.630429,-6.923350,0.265495,5.799688,-4.393219,15.579071,34.618591,19.121592,14.939804,-167.444397,1.412981,25.555229,-5.282148,-7.623307,-17.334667,-7.512852,-5.743629,10.087961,5.419615,6.977621,8064.000000,0.000000,4.000000,,,,0.000000,4.000000,4.000000,4.000000,4.000000,4.000000,4.000000,4.000000,4.000000,4.000000,4.000000,4.000000,4.000000,4.000000,4.000000,4.000000,4.000000,4.000000,4.000000,4.000000,4.000000,4.000000,2.000000,4.000000,4.000000,4.000000,4.000000,4.000000,4.000000,4.000000,4.000000,4.000000,4.000000,83.333336
1614490700.280243,54.000000,0.000000,-5.935928,13.211684,18.505388,7.825907,-1.840257,-4.489237,-0.893279,7.431728,7.072795,-44.213440,-4.363788,-8.372268,-8.162260,-15.634376,-11.529643,2.716965,-6.952929,16.589132,30.994228,11.922982,4.668454,-142.148743,2.950030,15.273264,-0.661482,-5.051581,-14.753231,-7.505339,-6.250706,2.898386,0.798811,2.355258,8064.000000,0.000000,4.000000,,,,0.000000,4.000000,4.000000,4.000000,4.000000,4.000000,4.000000,4.000000,4.000000,4.000000,4.000000,4.000000,4.000000,4.000000,4.000000,4.000000,4.000000,4.000000,4.000000,4.000000,4.000000,4.000000,2.000000,4.000000,4.000000,4.000000,4.000000,4.000000,4.000000,4.000000,4.000000,4.000000,4.000000,83.333336
1614490700.287992,55.000000,0.000000,-5.929992,8.583088,8.743293,-12.694740,-5.428161,-6.536030,-8.071874,0.244810,-5.754790,-55.964100,-11.538911,-10.415177,-13.795123,-21.772587,-25.364267,-5.490880,-8.997257,3.239210,10.963234,-0.909454,-4.566983,-153.288651,-0.129843,0.899016,-4.763384,-7.097812,-4.994888,-7.497834,-6.757276,-4.796820,-4.330193,-7.390687,8064.000000,0.000000,4.000000,,,,0.000000,4.000000,4.000000,4.000000,4.000000,4.000000,4.000000,4.000000,4.000000,4.000000,4.000000,4.000000,4.000000,4.000000,4.000000,4.000000,4.000000,4.000000,4.000000,4.000000,4.000000,4.000000,2.000000,4.000000,4.000000,4.000000,4.000000,4.000000,4.000000,4.000000,4.000000,4.000000,4.000000,83.333336
1614490700.295841,56.000000,0.000000,-5.924062,3.959120,2.580704,-10.117943,-10.550938,-7.555135,-11.140724,-3.345179,-12.928523,-57.446594,-21.270962,-12.456044,-19.422354,-22.263636,-33.544029,-11.126414,-8.475440,-19.840952,-7.509268,-10.652134,-11.741903,-156.212280,-6.796380,-11.922396,-8.348365,-9.654817,9.881902,-8.515977,-6.750518,-2.227921,-3.300222,-8.921758,8064.000000,0.000000,4.000000,,,,0.000000,4.000000,4.000000,4.000000,4.000000,4.000000,4.000000,4.000000,4.000000,4.000000,4.000000,4.000000,4.000000,4.000000,4.000000,4.000000,4.000000,4.000000,4.000000,4.000000,4.000000,4.000000,2.000000,4.000000,4.000000,4.000000,4.000000,4.000000,4.000000,4.000000,4.000000,4.000000,4.000000,83.333336
1614490700.303589,57.000000,0.000000,-5.918139,5.493622,-1.524441,-6.005260,-7.976284,-7.034760,-7.539840,-0.264911,-9.325850,-55.850689,-13.557384,-10.392306,-16.838829,-20.702909,-26.843821,-11.115289,-7.441323,-22.898033,-8.527399,-21.923532,-18.396828,-180.158630,-11.404968,-15.500216,-9.878478,-9.645162,9.359200,-7.481820,-3.154024,1.364051,-3.296921,-7.887195,8064.000000,0.000000,4.000000,,,,0.000000,4.000000,4.000000,4.000000,4.000000,4.000000,4.000000,4.000000,4.000000,4.000000,4.000000,4.000000,4.000000,4.000000,4.000000,4.000000,4.000000,4.000000,4.000000,4.000000,4.000000,4.000000,2.000000,4.000000,4.000000,4.000000,4.000000,4.000000,4.000000,4.000000,4.000000,4.000000,4.000000,83.333336
1614490700.311438,58.000000,0.000000,-5.912220,8.052231,-2.548558,-8.050537,-2.840103,-7.027725,-6.506660,1.273816,-2.137038,-56.820477,0.302328,-8.330632,-14.770708,-16.579643,-17.586206,-10.078532,-7.433882,-9.541802,-6.467590,-39.337505,-25.045097,-189.722061,-10.880743,-15.997538,-9.355779,-7.071414,-8.086058,-6.961518,-2.638049,8.542174,-3.806445,-8.392128,8064.000000,0.000000,4.000000,,,,0.000000,4.000000,4.000000,4.000000,4.000000,4.000000,4.000000,4.000000,4.000000,4.000000,4.000000,4.000000,4.000000,4.000000,4.000000,4.000000,4.000000,4.000000,4.000000,4.000000,4.000000,4.000000,2.000000,4.000000,4.000000,4.000000,4.000000,4.000000,4.000000,4.000000,4.000000,4.000000,4.000000,83.333336
1614490700.319187,59.000000,0.000000,-5.393487,4.454435,-5.110112,-7.529666,-9.503929,-7.020697,-7.525794,0.246901,-0.596439,-57.789299,-3.800539,-8.322302,-16.807219,-13.486140,-19.107082,-11.606915,-8.964910,-12.096363,-11.589328,-48.016117,-28.096975,-156.711823,-14.459606,-21.109745,-11.910525,-6.038702,-26.539509,-9.005838,-6.225155,13.661837,-4.315459,-7.870915,8064.000000,0.000000,4.000000,,,,0.000000,4.000000,4.000000,4.000000,4.000000,4.000000,4.000000,4.000000,4.000000,4.000000,4.000000,4.000000,4.000000,4.000000,4.000000,4.000000,4.000000,4.000000,4.000000,4.000000,4.000000,4.000000,2.000000,4.000000,4.000000,4.000000,4.000000,4.000000,4.000000,4.000000,4.000000,4.000000,4.000000,83.333336
1614490700.327036,60.000000,0.000000,-5.900915,0.347417,-6.643463,-10.086239,-17.699553,-7.013676,-7.005447,0.759475,-4.185586,-56.705868,-8.924943,-8.313979,-13.713490,-13.472654,-17.036694,-11.595308,-5.366201,-18.750935,-10.039277,-32.583488,-15.761187,-145.785889,-21.111813,-13.396327,-14.462717,-6.545484,-30.102715,-5.407089,-4.680468,15.699457,-4.311143,-8.888685,8064.000000,0.000000,4.000000,,,,0.000000,4.000000,4.000000,4.000000,4.000000,4.000000,4.000000,4.000000,4.000000,4.000000,4.000000,4.000000,4.000000,4.000000,4.000000,4.000000,4.000000,4.000000,4.000000,4.000000,4.000000,4.000000,2.000000,4.000000,4.000000,4.000000,4.000000,4.000000,4.000000,4.000000,4.000000,4.000000,4.000000,83.333336
1614490700.334785,61.000000,0.000000,-5.895014,2.398351,-2.021435,-8.537691,-13.579289,-7.006663,-6.998442,0.758715,-7.258324,-54.085060,-0.198070,-8.305665,-6.520288,-10.382258,-5.224785,-2.352944,4.382755,-2.834747,9.457942,-1.268852,10.921241,-177.947800,-12.372752,13.283735,-7.781588,-6.538938,-16.226458,6.393190,3.016520,22.863245,-2.255550,-7.341335,8064.000000,0.000000,4.000000,,,,0.000000,4.000000,4.000000,4.000000,4.000000,4.000000,4.000000,4.000000,4.000000,4.000000,4.000000,4.000000,4.000000,4.000000,4.000000,4.000000,4.000000,4.000000,4.000000,4.000000,4.000000,4.000000,2.000000,4.000000,4.000000,4.000000,4.000000,4.000000,4.000000,4.000000,4.000000,4.000000,4.000000,83.333336
1614490700.342633,62.000000,0.000000,-4.863478,4.960056,1.057510,4.291359,-8.437506,-6.999656,-6.991444,0.757957,-6.738245,-50.954052,3.391872,-8.297359,-3.436845,-6.269312,1.959927,8.418640,7.455295,16.655268,32.012589,21.809340,24.756474,-185.462158,6.101159,33.783272,-0.594319,-6.532399,-4.415359,13.053464,6.090426,30.019869,0.310808,1.896775,8064.000000,0.000000,4.000000,,,,0.000000,4.000000,4.000000,4.000000,4.000000,4.000000,4.000000,4.000000,4.000000,4.000000,4.000000,4.000000,4.000000,4.000000,4.000000,4.000000,4.000000,4.000000,4.000000,4.000000,4.000000,4.000000,2.000000,4.000000,4.000000,4.000000,4.000000,4.000000,4.000000,4.000000,4.000000,4.000000,4.000000,83.333336
1614490700.350382,63.000000,0.000000,-7.935537,4.442275,2.082093,13.005016,-9.967529,-6.992656,-6.984452,2.808481,-6.218686,-46.287712,1.337198,-8.289063,-4.459049,-5.750222,5.547711,7.897401,3.858096,19.715536,39.672882,27.941378,19.090691,-165.789505,13.274545,35.800770,-6.747571,-6.525867,-2.872482,7.912205,4.545875,28.964209,-0.202324,7.023084,8064.000000,0.000000,4.000000,,,,0.000000,4.000000,4.000000,4.000000,4.000000,4.000000,4.000000,4.000000,4.000000,4.000000,4.000000,4.000000,4.000000,4.000000,4.000000,4.000000,4.000000,4.000000,4.000000,4.000000,4.000000,4.000000,2.000000,4.000000,4.000000,4.000000,4.000000,4.000000,4.000000,4.000000,4.000000,4.000000,4.000000,83.333336
1614490700.358231,64.000000,0.000000,-12.542986,3.925012,6.695395,11.966371,-10.470383,-6.985663,-6.977468,4.856954,-6.725288,-39.061939,5.951245,-8.280773,-4.454590,-6.257292,11.696010,8.915145,3.341418,20.208641,39.120388,26.887794,14.969037,-158.444229,11.209989,33.713688,-10.330567,-6.006520,1.232955,2.776088,5.054149,26.371141,-1.740583,-2.214709,0.000000,197.000000,4.000000,,,,0.000000,4.000000,4.000000,4.000000,4.000000,4.000000,4.000000,4.000000,4.000000,4.000000,4.000000,4.000000,4.000000,4.000000,4.000000,4.000000,4.000000,4.000000,4.000000,4.000000,4.000000,4.000000,2.000000,4.000000,4.000000,4.000000,4.000000,4.000000,4.000000,4.000000,4.000000,4.000000,4.000000,83.333336
1614490700.365980,65.000000,0.000000,-13.556085,4.433908,9.765623,10.928763,-9.434271,-6.978678,-6.970490,3.826456,-8.257025,-34.407490,8.509397,-8.272492,-3.937315,-6.251035,11.684313,17.624178,3.338076,25.316637,41.645370,29.937830,19.569452,-145.465271,11.711598,36.244076,-2.627929,-6.000514,14.052235,4.311773,5.049095,24.806309,-0.713201,-7.853519,0.000000,193.000000,4.000000,,,,0.000000,4.000000,4.000000,4.000000,4.000000,4.000000,4.000000,4.000000,4.000000,4.000000,4.000000,4.000000,4.000000,4.000000,4.000000,4.000000,4.000000,4.000000,4.000000,4.000000,4.000000,4.000000,2.000000,4.000000,4.000000,4.000000,4.000000,4.000000,4.000000,4.000000,4.000000,4.000000,4.000000,83.333336
1614490700.373629,66.000000,0.000000,-13.029708,4.429474,9.243037,11.430655,-9.424837,-6.971699,-6.963520,4.848271,-10.300050,-33.860264,7.475246,-8.264220,-4.446198,-5.731964,6.031603,18.119375,3.847559,26.316961,43.142185,33.497635,19.549883,-164.806992,13.751169,34.156551,0.964443,-6.507334,18.140747,4.307461,5.044046,26.319963,2.364435,-0.666179,0.000000,186.000000,4.000000,,,,0.000000,4.000000,4.000000,4.000000,4.000000,4.000000,4.000000,4.000000,4.000000,4.000000,4.000000,4.000000,4.000000,4.000000,4.000000,4.000000,4.000000,4.000000,4.000000,4.000000,4.000000,4.000000,2.000000,4.000000,4.000000,4.000000,4.000000,4.000000,4.000000,4.000000,4.000000,4.000000,4.000000,83.333336
1614490700.381378,67.000000,0.000000,-13.016678,4.425045,9.233794,12.444865,-9.928232,-6.964727,-6.956556,7.920346,-10.802569,-33.826405,7.980592,-8.255956,-4.441752,-3.162129,4.487110,8.870486,7.946275,24.752182,35.406738,23.720549,12.863667,-196.949875,11.173315,23.353165,0.450658,-5.988006,5.302093,1.739051,5.551822,27.319284,4.926173,4.975513,0.000000,195.000000,4.000000,,,,0.000000,4.000000,4.000000,4.000000,4.000000,4.000000,4.000000,4.000000,4.000000,4.000000,4.000000,4.000000,4.000000,4.000000,4.000000,4.000000,4.000000,4.000000,4.000000,4.000000,4.000000,4.000000,2.000000,4.000000,4.000000,4.000000,4.000000,4.000000,4.000000,4.000000,4.000000,4.000000,4.000000,83.333336
1614490700.389026,68.000000,0.000000,-13.516481,4.420619,7.173278,11.406779,-9.918304,-6.957763,-6.949600,5.861143,-10.278947,-33.792576,7.459791,-8.247700,-4.437310,-2.646147,3.456982,6.810333,9.989611,19.086405,21.525177,5.235289,9.773879,-163.932419,11.674963,10.509297,1.988669,-5.982018,-10.087825,0.198851,0.418065,12.932991,-0.719779,-0.670488,0.000000,204.000000,4.000000,,,,0.000000,4.000000,4.000000,4.000000,4.000000,4.000000,4.000000,4.000000,4.000000,4.000000,4.000000,4.000000,4.000000,4.000000,4.000000,4.000000,4.000000,4.000000,4.000000,4.000000,4.000000,4.000000,2.000000,4.000000,4.000000,4.000000,4.000000,4.000000,4.000000,4.000000,4.000000,4.000000,4.000000,83.333336
1614490700.396775,69.000000,0.000000,-12.990145,4.416199,2.037900,1.651783,-9.908386,-6.950805,-6.942650,0.727077,-10.268668,-36.322887,6.426690,-8.239452,-4.432873,-2.130680,1.402243,8.854805,7.415519,6.246806,10.734421,-2.462254,10.276926,-130.947968,12.176108,2.806481,-8.782551,-9.565780,-17.770044,-0.826989,-6.249019,-5.541481,-15.590854,-12.464689,0.000000,187.000000,4.000000,,,,0.000000,4.000000,4.000000,4.000000,4.000000,4.000000,4.000000,4.000000,4.000000,4.000000,4.000000,4.000000,4.000000,4.000000,4.000000,4.000000,4.000000,4.000000,4.000000,4.000000,4.000000,4.000000,2.000000,4.000000,4.000000,4.000000,4.000000,4.000000,4.000000,4.000000,4.000000,4.000000,4.000000,83.333336
1614490700.404424,70.000000,0.000000,-12.977155,4.411783,1.010221,-7.580638,-9.898478,-6.943854,-6.935707,0.213529,-10.258399,-37.825024,7.958724,-8.231213,-4.428440,-1.615729,0.375200,6.794668,6.382463,-1.964569,4.057019,-0.408510,10.266649,-163.124710,2.933163,-2.837351,-24.158384,-13.658778,-20.829197,-4.928726,-7.268411,-3.484657,-26.344494,-19.631712,0.000000,181.000000,4.000000,,,,0.000000,4.000000,4.000000,4.000000,4.000000,4.000000,4.000000,4.000000,4.000000,4.000000,4.000000,4.000000,4.000000,4.000000,4.000000,4.000000,4.000000,4.000000,4.000000,4.000000,4.000000,4.000000,2.000000,4.000000,4.000000,4.000000,4.000000,4.000000,4.000000,4.000000,4.000000,4.000000,4.000000,83.333336
1614490700.412173,71.000000,0.000000,-12.964177,4.407371,1.522031,-8.085878,-9.888579,-6.936911,-8.467233,0.726136,-10.248140,-37.787201,6.412304,-8.222981,-4.424012,-6.742318,-3.214919,3.710951,7.401721,-2.988246,3.540142,-1.433742,10.256383,-195.269287,-10.403104,-5.398616,-19.006020,-14.157940,-21.321188,-8.513541,-6.235502,6.262417,-23.754047,-16.535156,0.000000,194.000000,4.000000,,,,0.000000,4.000000,4.000000,4.000000,4.000000,4.000000,4.000000,4.000000,4.000000,4.000000,4.000000,4.000000,4.000000,4.000000,4.000000,4.000000,4.000000,4.000000,4.000000,4.000000,4.000000,4.000000,2.000000,4.000000,4.000000,4.000000,4.000000,4.000000,4.000000,4.000000,4.000000,4.000000,4.000000,83.333336
1614490700.419822,72.000000,0.000000,-12.951213,4.402964,1.520509,-6.539331,-9.878691,-6.929974,-10.510048,0.725410,-10.237892,-39.800694,2.303328,-8.214758,-4.419588,-12.376601,-6.288627,3.707240,6.881499,-1.446796,10.203268,0.618974,10.758946,-183.279144,-10.905521,1.786269,-4.115219,-13.118140,-20.787046,-7.992207,-6.742087,7.794617,-17.576447,-9.339135,0.000000,198.000000,4.000000,,,,0.000000,4.000000,4.000000,4.000000,4.000000,4.000000,4.000000,4.000000,4.000000,4.000000,4.000000,4.000000,4.000000,4.000000,4.000000,4.000000,4.000000,4.000000,4.000000,4.000000,4.000000,4.000000,2.000000,4.000000,4.000000,4.000000,4.000000,4.000000,4.000000,4.000000,4.000000,4.000000,4.000000,83.333336
1614490700.427571,73.000000,0.000000,-12.938262,4.911381,1.006168,-8.071253,-9.868812,-6.923044,-11.012359,0.211864,-10.227654,-44.376278,2.301025,-8.206544,-3.902348,-13.389866,-6.282339,4.216353,7.387438,1.631574,18.911015,8.310662,10.235367,-180.531754,-4.740769,11.528072,-2.059822,-14.130664,-17.176517,-7.471395,-6.735345,9.838104,-15.507587,-7.278513,0.000000,167.000000,4.000000,,,,0.000000,4.000000,4.000000,4.000000,4.000000,4.000000,4.000000,4.000000,4.000000,4.000000,4.000000,4.000000,4.000000,4.000000,4.000000,4.000000,4.000000,4.000000,4.000000,4.000000,4.000000,4.000000,2.000000,4.000000,4.000000,4.000000,4.000000,4.000000,4.000000,4.000000,4.000000,4.000000,4.000000,83.333336
1614490700.435220,74.000000,0.000000,-12.925323,3.368008,1.517982,-8.063182,-9.858943,-7.428941,-9.975705,0.211652,-10.217427,-46.383186,1.273083,-8.198337,-4.411266,-14.402117,-7.301697,4.724957,6.867230,1.629942,24.533129,11.892096,12.276414,-173.171738,-3.197567,16.131929,-4.621865,-13.603712,-13.569596,-8.489564,-6.728610,7.264163,-14.979259,-8.809696,0.000000,149.000000,4.000000,,,,0.000000,4.000000,4.000000,4.000000,4.000000,4.000000,4.000000,4.000000,4.000000,4.000000,4.000000,4.000000,4.000000,4.000000,4.000000,4.000000,2.000000,4.000000,4.000000,4.000000,4.000000,4.000000,2.000000,4.000000,4.000000,4.000000,4.000000,4.000000,4.000000,4.000000,4.000000,4.000000,4.000000,66.666664
1614490700.442969,75.000000,0.000000,-12.912398,0.800538,1.516464,-7.029478,-9.849084,-6.395871,-7.914447,0.724261,-10.207210,-45.823982,3.835912,-6.138857,-4.919675,-12.336432,-2.679011,6.771514,5.834722,3.166774,32.713722,16.495588,17.392344,-162.742157,-2.681549,22.782465,-2.565961,-13.077288,-13.043206,-5.916972,-6.209060,-1.461050,-14.451460,-7.262425,0.000000,175.000000,4.000000,,,,0.000000,4.000000,4.000000,4.000000,4.000000,4.000000,4.000000,4.000000,4.000000,4.000000,4.000000,4.000000,4.000000,4.000000,4.000000,4.000000,2.000000,4.000000,4.000000,4.000000,4.000000,4.000000,2.000000,4.000000,4.000000,4.000000,4.000000,4.000000,4.000000,4.000000,4.000000,4.000000,4.000000,66.666664
1614490700.450618,76.000000,0.000000,-12.899487,0.286916,0.489307,-6.509627,-9.839235,-6.902296,-6.368071,3.287640,-10.197002,-43.214054,12.550025,-4.594256,-3.889114,-1.554866,10.144181,11.892948,9.931451,19.061043,41.911777,23.145760,22.503155,-183.092239,0.398056,34.041733,-2.050574,-15.115493,-13.030163,-1.295670,-4.151569,2.130155,-13.924188,-7.255163,0.000000,153.000000,4.000000,,,,0.000000,4.000000,4.000000,4.000000,4.000000,4.000000,4.000000,4.000000,4.000000,4.000000,4.000000,4.000000,4.000000,4.000000,4.000000,4.000000,2.000000,4.000000,4.000000,4.000000,4.000000,4.000000,2.000000,4.000000,4.000000,4.000000,4.000000,4.000000,4.000000,4.000000,4.000000,4.000000,4.000000,66.666664
1614490700.458366,77.000000,0.000000,-12.373766,0.799450,-1.562464,-7.528759,-9.829395,-9.459496,-6.874524,5.335634,-10.186806,-41.119560,9.460552,-4.076841,-6.962148,-1.553311,11.159678,12.906695,8.383058,25.708649,37.767303,23.635433,22.993473,-182.396317,0.910478,32.469231,-3.074165,-17.151659,-13.017133,0.756907,-2.096136,7.256230,-13.910264,-12.888933,0.000000,215.000000,4.000000,,,,0.000000,4.000000,4.000000,4.000000,4.000000,4.000000,4.000000,4.000000,4.000000,4.000000,4.000000,4.000000,4.000000,4.000000,4.000000,4.000000,2.000000,4.000000,4.000000,4.000000,4.000000,4.000000,2.000000,4.000000,4.000000,4.000000,4.000000,4.000000,4.000000,4.000000,4.000000,4.000000,4.000000,66.666664
1614490700.466015,78.000000,0.000000,-13.387033,0.798651,-3.099363,-4.444307,-9.819567,-9.962857,-6.867649,4.304657,-9.663798,-42.616901,-6.959165,-4.585585,-14.647493,-16.936373,-2.184815,3.663020,-3.420197,4.144478,21.832100,16.432312,15.790992,-149.393417,0.909568,16.539324,-3.071091,-15.083225,-13.516936,-0.269491,-2.606860,4.684871,-14.921994,-14.927326,0.000000,205.000000,4.000000,,,,0.000000,4.000000,4.000000,4.000000,4.000000,4.000000,4.000000,4.000000,4.000000,4.000000,4.000000,4.000000,4.000000,4.000000,4.000000,4.000000,2.000000,4.000000,4.000000,4.000000,4.000000,4.000000,2.000000,4.000000,4.000000,4.000000,4.000000,4.000000,4.000000,4.000000,4.000000,4.000000,4.000000,66.666664
1614490700.473764,79.000000,0.000000,-13.373647,0.797852,-1.044982,2.739625,-6.732824,-7.901612,-5.835141,4.300353,-10.679775,-40.523003,-15.157334,-5.093820,-14.632846,-19.996359,-11.926220,-6.084233,-7.006520,-12.269922,11.553858,8.210751,6.031611,-142.577347,0.395838,4.215093,-3.068020,-13.016860,-10.939317,-0.269221,-2.604253,9.808392,-13.881432,-7.220091,0.000000,153.000000,4.000000,,,,0.000000,4.000000,4.000000,4.000000,4.000000,4.000000,4.000000,4.000000,4.000000,4.000000,4.000000,4.000000,4.000000,4.000000,4.000000,4.000000,2.000000,4.000000,4.000000,4.000000,4.000000,4.000000,2.000000,4.000000,4.000000,4.000000,4.000000,4.000000,4.000000,4.000000,4.000000,4.000000,4.000000,66.666664
1614490700.481413,80.000000,0.000000,-9.257709,0.797054,2.545807,3.762526,-2.623527,-6.355249,-3.265203,7.885796,-9.643455,-30.738890,-10.526793,-0.473342,-3.336162,-1.514825,-10.888653,-7.616610,2.744076,-6.616627,11.542304,-1.541050,1.923016,-163.460419,-1.655840,3.185237,-3.064952,-13.516664,-6.312993,-0.268952,-2.601649,16.978071,-11.303448,-3.623128,0.000000,183.000000,4.000000,,,,0.000000,4.000000,4.000000,4.000000,4.000000,4.000000,4.000000,4.000000,4.000000,4.000000,4.000000,4.000000,4.000000,4.000000,4.000000,4.000000,2.000000,4.000000,4.000000,4.000000,4.000000,4.000000,2.000000,4.000000,4.000000,4.000000,4.000000,4.000000,4.000000,4.000000,4.000000,4.000000,4.000000,66.666664
1614490700.489262,81.000000,0.000000,-5.658707,0.796257,-2.072124,-3.420724,-3.133724,-6.861714,-2.236297,6.339448,-7.069708,-25.067125,-5.388061,3.629696,4.359482,10.281562,-1.134175,-7.096173,7.869537,-5.584369,11.530762,-8.718996,2.946734,-174.066193,-3.705467,2.669231,-3.574707,-13.503147,-5.281039,-0.781503,-2.599047,9.268785,-10.266503,-10.798992,0.000000,200.000000,4.000000,,,,0.000000,4.000000,4.000000,4.000000,4.000000,4.000000,4.000000,4.000000,4.000000,4.000000,4.000000,4.000000,4.000000,4.000000,4.000000,4.000000,2.000000,4.000000,4.000000,4.000000,4.000000,4.000000,2.000000,4.000000,4.000000,4.000000,4.000000,4.000000,4.000000,4.000000,4.000000,4.000000,4.000000,66.666664
