title:30, start timestamp:1614491161.632548, stop timestamp:1614491206.793771, headset type:EPOCFLEX, headset serial:F00001ED, headset firmware:f12, subject name:s14, channels:75, sampling rate:128, samples:5829      , version:2.0
Timestamp,EEG.Counter,EEG.Interpolated,EEG.Cz,EEG.Fz,EEG.Fp1,EEG.F7,EEG.F3,EEG.FC1,EEG.C3,EEG.FC5,EEG.FT9,EEG.T7,EEG.TP9,EEG.CP5,EEG.CP1,EEG.P3,EEG.P7,EEG.O1,EEG.Pz,EEG.Oz,EEG.O2,EEG.P8,EEG.P4,EEG.CP2,EEG.CP6,EEG.TP10,EEG.T8,EEG.FT10,EEG.FC6,EEG.C4,EEG.FC2,EEG.F4,EEG.F8,EEG.Fp2,EEG.HighBitFlex,EEG.RawCq,EEG.Battery,MarkerIndex,MarkerType,MarkerValueInt,EEG.MarkerHardware,CQ.Cz,CQ.Fz,CQ.Fp1,CQ.F7,CQ.F3,CQ.FC1,CQ.C3,CQ.FC5,CQ.FT9,CQ.T7,CQ.TP9,CQ.CP5,CQ.CP1,CQ.P3,CQ.P7,CQ.O1,CQ.Pz,CQ.Oz,CQ.O2,CQ.P8,CQ.P4,CQ.CP2,CQ.CP6,CQ.TP10,CQ.T8,CQ.FT10,CQ.FC6,CQ.C4,CQ.FC2,CQ.F4,CQ.F8,CQ.Fp2,CQ.Overall
1614491161.632548,68.000000,0.000000,-6.897498,13.429301,7.343107,-10.249704,4.721000,4.874151,1.298073,-6.569289,-3.571340,0.233766,-2.644403,-6.625108,-3.457146,-10.426410,-13.711327,-3.311105,-9.544334,0.943635,-15.995788,1.641272,-4.258993,0.020133,0.465021,-1.304065,0.156493,-3.161317,-0.670535,-10.236543,-3.125187,-11.110315,2.114593,-9.449132,0.000000,182.000000,4.000000,,,,0.000000,4.000000,4.000000,4.000000,4.000000,4.000000,4.000000,4.000000,4.000000,4.000000,4.000000,4.000000,2.000000,4.000000,4.000000,4.000000,2.000000,4.000000,4.000000,4.000000,4.000000,4.000000,4.000000,4.000000,4.000000,4.000000,4.000000,4.000000,4.000000,4.000000,4.000000,4.000000,4.000000,66.666664
1614491161.640197,69.000000,0.000000,-3.300857,13.415872,3.233200,-5.624070,6.254740,4.869277,2.322416,1.129588,5.663001,3.823276,6.076190,-6.618483,3.725798,3.430170,-13.184795,1.307591,2.772902,16.840128,-10.338766,0.613990,7.027318,-3.569631,1.490197,5.876726,0.669158,-4.696618,2.407058,-0.995537,4.570246,-11.099205,-0.964445,-9.952503,0.000000,191.000000,4.000000,,,,0.000000,4.000000,4.000000,4.000000,4.000000,4.000000,4.000000,4.000000,4.000000,4.000000,4.000000,4.000000,2.000000,4.000000,4.000000,4.000000,2.000000,4.000000,4.000000,4.000000,4.000000,4.000000,4.000000,4.000000,4.000000,4.000000,4.000000,4.000000,4.000000,4.000000,4.000000,4.000000,4.000000,66.666664
1614491161.647946,70.000000,0.000000,1.317829,13.402456,3.229967,-3.054343,7.274127,4.864408,2.832914,6.256663,11.811184,2.793812,11.711140,-6.099043,7.824636,10.606227,-14.710072,1.306283,9.949616,20.413031,-7.251504,1.126196,13.686956,9.767272,13.283579,6.896490,2.719770,-4.179101,7.020036,9.774690,9.181060,-9.549644,0.062161,-9.942551,0.000000,195.000000,4.000000,,,,0.000000,4.000000,4.000000,4.000000,4.000000,4.000000,4.000000,4.000000,4.000000,4.000000,4.000000,4.000000,2.000000,4.000000,4.000000,4.000000,2.000000,4.000000,4.000000,4.000000,4.000000,4.000000,4.000000,4.000000,4.000000,4.000000,4.000000,4.000000,4.000000,4.000000,4.000000,4.000000,4.000000,66.666664
1614491161.655595,71.000000,0.000000,-1.247592,13.389053,4.252378,-8.179494,-2.989558,4.859543,-6.913508,-3.493183,10.260911,-7.465392,8.109685,-7.631406,0.637325,-0.686430,-26.490234,0.279336,5.324282,13.213130,-8.782714,0.612249,10.083526,11.295966,18.398500,5.863953,4.768332,-4.174922,7.525836,6.175171,3.530854,-6.975992,-0.450722,-9.419787,0.000000,192.000000,4.000000,,,,0.000000,4.000000,4.000000,4.000000,4.000000,4.000000,4.000000,4.000000,4.000000,4.000000,4.000000,4.000000,2.000000,4.000000,4.000000,4.000000,2.000000,4.000000,4.000000,4.000000,4.000000,4.000000,4.000000,4.000000,4.000000,4.000000,4.000000,4.000000,4.000000,4.000000,4.000000,4.000000,4.000000,66.666664
1614491161.663343,72.000000,0.000000,-5.861729,13.375665,3.735305,-5.607212,-11.704517,4.854684,-13.060441,-14.258921,10.250650,-11.560491,5.537473,-9.675056,-4.491518,-5.301128,-31.591949,1.304697,1.729214,12.174276,-8.773932,-1.952465,5.458058,22.566721,9.149332,5.858088,4.250744,-4.170746,7.005490,-2.036132,-3.139344,-6.969016,0.575370,-10.436008,0.000000,175.000000,4.000000,,,,0.000000,4.000000,4.000000,4.000000,4.000000,4.000000,4.000000,4.000000,4.000000,4.000000,4.000000,4.000000,2.000000,4.000000,4.000000,4.000000,2.000000,4.000000,4.000000,4.000000,4.000000,4.000000,4.000000,4.000000,4.000000,4.000000,4.000000,4.000000,4.000000,4.000000,4.000000,4.000000,4.000000,66.666664
1614491161.670992,73.000000,0.000000,-4.317405,13.362288,5.782852,4.654806,-4.513325,4.849829,-1.765329,-7.577995,10.753221,-1.292520,13.224243,-8.126920,-1.410103,5.473403,-17.714203,4.380316,2.240305,17.290308,-2.611311,-4.001795,6.478241,45.621078,3.499157,7.903512,4.246493,-4.166576,6.485664,-2.546917,-3.136205,-7.474868,3.138897,-7.861470,0.000000,161.000000,4.000000,,,,0.000000,4.000000,4.000000,4.000000,4.000000,4.000000,4.000000,4.000000,4.000000,4.000000,4.000000,4.000000,2.000000,4.000000,4.000000,4.000000,4.000000,4.000000,4.000000,4.000000,4.000000,4.000000,4.000000,4.000000,4.000000,4.000000,4.000000,4.000000,4.000000,4.000000,4.000000,4.000000,4.000000,83.333336
1614491161.678741,74.000000,0.000000,-1.748985,13.348927,7.828351,9.778356,3.696316,4.844979,10.031308,4.224454,11.255288,7.939541,19.364864,-6.067511,0.642589,12.134597,-5.901617,7.452858,3.776527,18.811478,2.519505,-4.510614,8.523045,55.319046,4.521299,11.485353,3.729426,-4.162409,6.991999,-1.518729,-2.620248,-7.467393,3.648579,-5.802327,0.000000,164.000000,4.000000,,,,0.000000,4.000000,4.000000,4.000000,4.000000,4.000000,4.000000,4.000000,4.000000,4.000000,4.000000,4.000000,2.000000,4.000000,4.000000,4.000000,4.000000,4.000000,4.000000,4.000000,4.000000,4.000000,4.000000,4.000000,4.000000,4.000000,4.000000,4.000000,4.000000,4.000000,4.000000,4.000000,4.000000,83.333336
1614491161.686390,75.000000,0.000000,-2.772877,13.335578,7.307702,9.768578,2.154158,4.840134,10.021276,5.245871,10.218391,8.957243,19.345499,-6.574264,-0.383695,9.558359,-5.895715,7.958226,5.311212,18.279846,3.029806,-3.480462,8.001701,56.802189,5.029598,13.525149,4.238517,-4.158247,7.497828,-2.542851,-3.643269,-6.947105,3.644930,-9.386268,0.000000,195.000000,4.000000,,,,0.000000,4.000000,4.000000,4.000000,4.000000,4.000000,4.000000,4.000000,4.000000,4.000000,4.000000,4.000000,2.000000,4.000000,4.000000,4.000000,4.000000,4.000000,4.000000,4.000000,4.000000,4.000000,4.000000,4.000000,4.000000,4.000000,4.000000,4.000000,4.000000,4.000000,4.000000,4.000000,4.000000,83.333336
1614491161.694239,76.000000,0.000000,-3.282925,13.322242,8.326035,5.656245,1.126363,4.835294,8.472794,4.727805,4.567147,4.332901,19.326155,-7.593331,-0.383311,9.548801,-5.889820,8.463088,5.305901,19.800028,4.052417,-2.451341,8.506520,49.053078,4.511748,14.024445,4.747099,-3.128448,6.464689,-1.514667,-3.639625,-7.452978,4.154106,-7.838420,0.000000,191.000000,4.000000,,,,0.000000,4.000000,4.000000,4.000000,4.000000,4.000000,4.000000,4.000000,4.000000,4.000000,4.000000,4.000000,2.000000,4.000000,4.000000,4.000000,4.000000,4.000000,4.000000,4.000000,4.000000,4.000000,4.000000,4.000000,4.000000,4.000000,4.000000,4.000000,4.000000,4.000000,4.000000,4.000000,4.000000,83.333336
1614491161.701988,77.000000,0.000000,-2.254001,13.308920,5.753607,-4.093001,3.176519,4.830459,11.028423,5.748718,-3.129728,-2.338098,19.819649,-4.508814,0.642713,11.590534,-5.371109,8.454625,6.326236,18.754587,3.022724,-3.474530,8.498013,21.824539,3.994416,13.497600,4.229532,-6.202242,7.483865,0.538130,-3.123165,-7.445525,4.149951,-1.676736,0.000000,188.000000,4.000000,,,,0.000000,4.000000,4.000000,4.000000,4.000000,4.000000,4.000000,4.000000,4.000000,4.000000,4.000000,4.000000,2.000000,4.000000,4.000000,4.000000,4.000000,4.000000,4.000000,4.000000,4.000000,4.000000,4.000000,4.000000,4.000000,4.000000,4.000000,4.000000,4.000000,4.000000,4.000000,4.000000,4.000000,83.333336
1614491161.709837,78.000000,0.000000,-2.764568,13.295610,-1.944455,-10.755575,2.660522,4.825628,11.017395,4.717328,-6.203521,1.253983,18.774187,0.623900,2.693352,12.091764,-3.827276,7.933350,7.858371,19.761473,2.506881,2.682791,7.463874,2.828356,8.092986,12.458461,6.276584,-11.324244,15.681509,3.101694,-3.120042,-7.438080,7.222724,-3.213520,0.000000,196.000000,4.000000,,,,0.000000,4.000000,4.000000,4.000000,4.000000,4.000000,4.000000,4.000000,4.000000,4.000000,4.000000,4.000000,4.000000,4.000000,4.000000,4.000000,4.000000,4.000000,4.000000,4.000000,4.000000,4.000000,4.000000,4.000000,4.000000,4.000000,4.000000,4.000000,4.000000,4.000000,4.000000,4.000000,4.000000,100.000000
1614491161.717585,79.000000,0.000000,-2.761803,13.282315,-7.070715,-7.155076,2.145041,4.820803,9.467916,9.840816,-2.607574,18.175806,19.781055,4.213019,7.306044,13.618134,6.432961,12.540802,8.876154,30.510942,8.658219,21.654467,13.610257,11.543476,20.392586,19.625490,15.501077,-11.312921,23.358135,8.226797,-3.116922,-7.430642,13.882169,-9.876973,0.000000,160.000000,4.000000,,,,0.000000,4.000000,4.000000,4.000000,4.000000,4.000000,4.000000,4.000000,4.000000,4.000000,4.000000,4.000000,4.000000,4.000000,4.000000,4.000000,4.000000,4.000000,4.000000,4.000000,4.000000,4.000000,4.000000,4.000000,4.000000,4.000000,4.000000,4.000000,4.000000,4.000000,4.000000,4.000000,4.000000,100.000000
1614491161.725434,80.000000,0.000000,-2.246221,13.781854,-7.063644,-5.096639,2.655716,5.328803,9.971269,15.472001,2.523239,25.337118,18.735632,6.260088,8.324379,14.630157,13.093195,18.682106,10.405739,38.172741,9.675202,31.889223,17.699211,20.762701,29.602962,24.221249,20.613781,-10.788787,20.770676,9.757032,-2.600985,-7.423211,13.355466,-8.328635,0.000000,182.000000,4.000000,,,,0.000000,4.000000,4.000000,4.000000,4.000000,4.000000,4.000000,4.000000,4.000000,4.000000,4.000000,4.000000,4.000000,4.000000,4.000000,4.000000,4.000000,4.000000,4.000000,4.000000,4.000000,4.000000,4.000000,4.000000,4.000000,4.000000,4.000000,4.000000,4.000000,4.000000,4.000000,4.000000,4.000000,100.000000
1614491161.733183,81.000000,0.000000,-4.808077,12.742431,-7.569401,-10.219748,0.601779,3.272192,9.961297,3.148837,-0.556207,9.927165,8.460487,0.612803,1.649388,6.923219,4.362153,13.535219,5.267128,25.314054,-8.283191,16.985538,5.373819,17.665016,25.983616,7.786771,9.311115,-14.880563,12.544776,5.131890,-4.136845,-7.415788,0.008777,-10.371589,0.000000,192.000000,4.000000,,,,0.000000,4.000000,4.000000,4.000000,4.000000,4.000000,4.000000,4.000000,4.000000,4.000000,4.000000,4.000000,4.000000,4.000000,4.000000,4.000000,4.000000,4.000000,4.000000,4.000000,4.000000,4.000000,4.000000,4.000000,4.000000,4.000000,4.000000,4.000000,4.000000,4.000000,4.000000,4.000000,4.000000,100.000000
1614491161.741032,82.000000,0.000000,-6.341731,11.191227,-6.536191,-13.799271,-3.501387,1.217637,1.746208,-14.290210,-11.324882,-7.005839,-2.830025,-13.233964,-8.095851,-4.878576,-7.437081,1.726813,-4.481729,5.801560,-23.659523,-3.031447,-9.503349,19.698633,10.060196,-11.708195,-5.057170,-18.968246,7.404026,1.024194,-6.183990,-7.408372,-14.350206,-23.694550,0.000000,187.000000,4.000000,,,,0.000000,4.000000,4.000000,4.000000,4.000000,4.000000,4.000000,4.000000,4.000000,4.000000,4.000000,4.000000,4.000000,4.000000,4.000000,4.000000,4.000000,4.000000,4.000000,4.000000,4.000000,4.000000,4.000000,4.000000,4.000000,4.000000,4.000000,4.000000,4.000000,4.000000,4.000000,4.000000,4.000000,100.000000
1614491161.748781,83.000000,0.000000,-4.796927,9.641574,-9.606578,-13.785472,-5.549168,0.703599,-7.486308,-18.378483,-16.441763,-11.614218,-2.314374,-17.836115,-7.062115,-4.873697,-9.993747,-3.915940,-3.964427,0.154733,-21.071760,-7.643800,-8.468205,37.627651,-6.872941,-10.670846,-8.129036,-18.949278,6.370981,1.535991,-4.126524,-7.400964,-19.976881,-32.388805,0.000000,154.000000,4.000000,,,,0.000000,4.000000,4.000000,4.000000,4.000000,4.000000,4.000000,4.000000,4.000000,4.000000,4.000000,4.000000,4.000000,4.000000,4.000000,4.000000,4.000000,4.000000,4.000000,4.000000,4.000000,4.000000,4.000000,4.000000,4.000000,4.000000,4.000000,4.000000,4.000000,4.000000,4.000000,4.000000,4.000000,100.000000
1614491161.756629,84.000000,0.000000,-2.228028,7.580650,-22.417484,-13.771687,-5.030798,1.215716,-10.555744,-17.847284,-15.399679,-10.576962,3.841786,-7.561869,3.201358,7.951689,-9.983753,-3.399203,6.295948,3.744322,-15.922483,-6.610516,-0.767429,56.051563,-8.917351,-2.455047,-6.069624,-18.417507,6.877430,1.534455,-2.583936,-7.393563,-16.367161,-32.356415,0.000000,212.000000,4.000000,,,,0.000000,4.000000,4.000000,4.000000,4.000000,4.000000,4.000000,4.000000,4.000000,4.000000,4.000000,4.000000,4.000000,4.000000,4.000000,4.000000,4.000000,4.000000,4.000000,4.000000,4.000000,4.000000,4.000000,4.000000,4.000000,4.000000,4.000000,4.000000,4.000000,4.000000,4.000000,4.000000,4.000000,100.000000
1614491161.764378,85.000000,0.000000,-2.738620,6.034608,-26.497631,-13.245094,-5.025767,0.701680,-9.006727,-16.803797,-15.384279,-10.566385,3.837945,-1.400460,8.326362,15.123225,-10.999410,-3.908625,9.879395,5.791860,-16.419382,-7.629546,0.258979,49.841663,-0.703305,-2.452592,-7.089196,-18.911911,6.357733,1.020100,-3.094173,-7.386169,-11.735410,-30.785597,0.000000,183.000000,4.000000,,,,0.000000,4.000000,4.000000,4.000000,4.000000,4.000000,4.000000,4.000000,4.000000,4.000000,4.000000,4.000000,4.000000,4.000000,4.000000,4.000000,4.000000,4.000000,4.000000,4.000000,4.000000,4.000000,4.000000,4.000000,4.000000,4.000000,4.000000,4.000000,4.000000,4.000000,4.000000,4.000000,4.000000,100.000000
1614491161.772227,86.000000,0.000000,-4.274343,5.515753,-15.189082,-13.744669,-5.533562,1.213799,-6.433618,-11.145967,-15.368896,-9.530178,3.321286,-3.450342,6.779574,11.518358,-9.962770,-4.417537,8.331055,6.811709,-15.890141,-8.134737,-0.254100,25.176439,-0.189781,-2.962960,-7.594927,-18.893000,6.864195,1.019080,-3.091079,-7.378783,-11.723674,-29.216351,0.000000,187.000000,4.000000,,,,0.000000,4.000000,4.000000,4.000000,4.000000,4.000000,4.000000,4.000000,4.000000,4.000000,4.000000,4.000000,4.000000,4.000000,4.000000,4.000000,4.000000,4.000000,4.000000,4.000000,4.000000,4.000000,4.000000,4.000000,4.000000,4.000000,4.000000,4.000000,4.000000,4.000000,4.000000,4.000000,4.000000,100.000000
1614491161.779976,87.000000,0.000000,-0.167505,6.023057,-9.020046,-14.243745,-5.015208,3.776688,0.752303,-6.006616,-15.866347,-6.956545,6.907708,-3.446892,7.285614,9.455558,-10.978448,-1.336196,8.835545,6.804897,-17.412714,-8.126602,0.771795,4.638442,-3.266515,-2.447176,-6.561691,-18.361286,7.370152,1.530881,-2.575167,-7.884225,-11.199130,-28.161493,0.000000,200.000000,4.000000,,,,0.000000,4.000000,4.000000,4.000000,4.000000,4.000000,4.000000,4.000000,4.000000,4.000000,4.000000,4.000000,4.000000,4.000000,4.000000,4.000000,4.000000,4.000000,4.000000,4.000000,4.000000,4.000000,4.000000,4.000000,4.000000,4.000000,4.000000,4.000000,4.000000,4.000000,4.000000,4.000000,4.000000,100.000000
1614491161.787824,88.000000,0.000000,8.550611,6.017035,-12.087950,-8.588476,-5.010193,4.798552,7.931038,-4.974968,-13.799199,-1.308563,12.541826,-1.904983,10.355252,12.523026,-10.967469,4.306166,8.826709,10.900657,-14.318377,-5.554373,0.258202,-10.237991,-2.237607,-2.444729,-6.555130,-18.342924,6.849961,1.529350,-3.085413,-4.799417,-10.675110,-26.594870,0.000000,199.000000,4.000000,,,,0.000000,4.000000,4.000000,4.000000,4.000000,4.000000,4.000000,4.000000,4.000000,4.000000,4.000000,4.000000,4.000000,4.000000,4.000000,4.000000,4.000000,4.000000,4.000000,4.000000,4.000000,4.000000,4.000000,4.000000,4.000000,4.000000,4.000000,4.000000,4.000000,4.000000,4.000000,4.000000,4.000000,100.000000
1614491161.795573,89.000000,0.000000,11.618984,6.011017,-10.024580,2.189343,-5.005183,5.306574,9.974389,-2.918711,-4.041810,7.923514,17.144669,-2.415899,11.370538,14.048964,0.838370,10.455706,8.305061,23.197449,-1.483546,0.092207,1.283585,-5.099548,-3.773831,3.711562,-7.061395,-18.324581,7.355932,1.527821,-3.082327,-1.204875,-11.177256,-22.465712,0.000000,192.000000,4.000000,,,,0.000000,4.000000,4.000000,4.000000,4.000000,4.000000,4.000000,4.000000,4.000000,4.000000,4.000000,4.000000,4.000000,4.000000,4.000000,4.000000,4.000000,4.000000,4.000000,4.000000,4.000000,4.000000,4.000000,4.000000,4.000000,4.000000,4.000000,4.000000,4.000000,4.000000,4.000000,4.000000,4.000000,100.000000
1614491161.803422,90.000000,0.000000,8.530442,6.005006,-10.527375,7.315359,-5.000177,5.301267,9.964415,-1.890151,4.167360,12.530975,19.178806,-2.926303,10.846347,13.522094,15.709327,16.086275,8.809577,35.994762,7.748706,5.220320,5.897686,27.213243,-2.231596,12.425799,-6.541513,-17.793436,7.348576,1.526293,-2.566424,-0.178029,-8.601975,-18.853502,0.000000,180.000000,4.000000,,,,0.000000,4.000000,4.000000,4.000000,4.000000,4.000000,4.000000,4.000000,4.000000,4.000000,4.000000,4.000000,4.000000,4.000000,4.000000,4.000000,4.000000,4.000000,4.000000,4.000000,4.000000,4.000000,4.000000,4.000000,4.000000,4.000000,4.000000,4.000000,4.000000,4.000000,4.000000,4.000000,4.000000,100.000000
1614491161.811171,91.000000,0.000000,7.496270,5.999002,-18.721977,4.231121,-4.995177,0.680581,9.954451,-1.888261,2.624731,12.005624,18.646807,-3.436198,9.809859,12.995751,17.744900,19.147112,7.262306,38.522873,5.689676,7.779202,7.430250,48.211670,6.488585,12.926194,-4.996510,-18.288464,3.238663,1.524767,-4.102319,0.334970,-1.413886,-19.860289,0.000000,192.000000,4.000000,,,,0.000000,4.000000,4.000000,4.000000,4.000000,4.000000,4.000000,4.000000,4.000000,4.000000,4.000000,4.000000,4.000000,4.000000,4.000000,4.000000,4.000000,4.000000,4.000000,4.000000,4.000000,4.000000,4.000000,4.000000,4.000000,4.000000,4.000000,4.000000,4.000000,4.000000,4.000000,4.000000,4.000000,100.000000
1614491161.818820,92.000000,0.000000,8.514415,5.993002,-20.241716,1.662787,-4.477362,-2.397022,9.944496,0.677730,0.570825,11.480798,19.653801,-2.919941,11.851332,13.495576,15.163052,19.127966,8.793505,36.433067,7.735268,7.771423,8.448461,45.599358,4.943635,12.400447,-3.453052,-18.270176,-0.354319,1.523242,-6.149499,2.898738,1.151630,-19.840429,0.000000,201.000000,4.000000,,,,0.000000,4.000000,4.000000,4.000000,4.000000,4.000000,4.000000,4.000000,4.000000,4.000000,4.000000,4.000000,4.000000,4.000000,4.000000,4.000000,4.000000,4.000000,4.000000,4.000000,4.000000,4.000000,4.000000,4.000000,4.000000,4.000000,4.000000,4.000000,4.000000,4.000000,4.000000,4.000000,4.000000,100.000000
1614491161.826569,93.000000,0.000000,7.993080,5.987010,-12.529166,2.686765,-6.524167,-0.343343,9.421731,1.189872,-0.968208,12.494958,22.198250,-3.429842,16.454865,15.533362,17.199171,19.108837,18.015480,37.422276,16.445482,11.353395,15.106679,54.271706,-0.702335,21.618816,1.678606,-17.226263,-0.866785,1.521719,-7.168991,3.921480,0.124837,-19.307768,0.000000,195.000000,4.000000,,,,0.000000,4.000000,4.000000,4.000000,4.000000,4.000000,4.000000,4.000000,4.000000,4.000000,4.000000,4.000000,4.000000,4.000000,4.000000,4.000000,4.000000,4.000000,4.000000,4.000000,4.000000,4.000000,4.000000,4.000000,4.000000,4.000000,4.000000,4.000000,4.000000,4.000000,4.000000,4.000000,4.000000,100.000000
1614491161.834218,94.000000,0.000000,7.985087,5.981022,-8.926894,-2.444127,-8.568924,1.708282,9.412309,-1.888241,-15.326214,10.944002,22.688871,-3.426412,18.489693,17.056292,14.105048,19.089729,24.151312,37.384853,18.480318,23.649734,22.783880,59.858459,11.093240,28.263865,7.830774,-20.285961,-0.865919,1.520197,-7.161821,2.891917,0.124713,-21.852562,0.000000,157.000000,4.000000,,,,0.000000,4.000000,4.000000,4.000000,4.000000,4.000000,4.000000,4.000000,4.000000,4.000000,4.000000,4.000000,4.000000,4.000000,4.000000,4.000000,4.000000,4.000000,4.000000,4.000000,4.000000,4.000000,4.000000,4.000000,4.000000,4.000000,4.000000,4.000000,4.000000,4.000000,4.000000,4.000000,4.000000,100.000000
1614491161.841966,95.000000,0.000000,7.977102,5.975041,-14.046172,-14.236554,-7.021894,1.193753,9.402897,-2.911993,-27.105759,8.368956,22.153362,0.679579,17.958382,17.039234,5.885815,18.557819,23.614340,32.732082,16.923376,36.446598,27.889301,35.183216,23.389839,27.209959,8.335763,-25.393879,2.211870,1.518677,-6.641839,3.401846,0.637408,-22.856352,0.000000,207.000000,4.000000,,,,0.000000,4.000000,4.000000,4.000000,4.000000,4.000000,4.000000,4.000000,4.000000,4.000000,4.000000,4.000000,4.000000,4.000000,4.000000,4.000000,4.000000,4.000000,4.000000,4.000000,4.000000,4.000000,4.000000,4.000000,4.000000,4.000000,4.000000,4.000000,4.000000,4.000000,4.000000,4.000000,4.000000,100.000000
1614491161.849615,96.000000,0.000000,7.969125,5.969067,-17.621870,-17.812061,-4.450769,0.679739,9.393494,-2.396261,-16.309423,7.334945,22.131210,6.832746,18.453243,17.022196,3.315827,18.539261,23.077906,29.109608,16.906452,31.281946,29.399874,14.635214,23.879269,28.208389,7.814607,-25.881306,10.414786,1.517158,-4.071095,3.398444,0.123950,-18.730930,8064.000000,0.000000,4.000000,,,,0.000000,4.000000,4.000000,4.000000,4.000000,4.000000,4.000000,4.000000,4.000000,4.000000,4.000000,4.000000,4.000000,4.000000,4.000000,4.000000,4.000000,4.000000,4.000000,4.000000,4.000000,4.000000,4.000000,4.000000,4.000000,4.000000,4.000000,4.000000,4.000000,4.000000,4.000000,4.000000,4.000000,100.000000
1614491161.857364,97.000000,0.000000,7.961156,5.963098,-17.604248,-9.589121,-4.959139,1.191880,9.384100,-2.906685,-0.908498,7.840431,22.109077,8.877194,18.434792,17.005173,4.850972,18.520721,23.054827,28.567677,13.299803,12.276304,23.216627,8.979553,24.881031,25.616079,8.832434,-24.829784,15.019756,1.515641,-2.528562,1.856584,0.636647,-15.635277,8064.000000,0.000000,4.000000,,,,0.000000,4.000000,4.000000,4.000000,4.000000,4.000000,4.000000,4.000000,4.000000,4.000000,4.000000,4.000000,4.000000,4.000000,4.000000,4.000000,4.000000,4.000000,4.000000,4.000000,4.000000,4.000000,4.000000,4.000000,4.000000,4.000000,4.000000,4.000000,4.000000,4.000000,4.000000,4.000000,4.000000,100.000000
1614491161.865013,98.000000,0.000000,7.953195,5.957134,-18.099464,-4.964147,-5.467000,1.190688,9.374716,-1.878137,0.630872,7.832591,22.086969,7.842677,17.903536,16.988169,4.846121,18.502201,20.467670,29.051929,5.081375,-0.043664,12.937000,-9.490965,16.651022,9.693027,3.695396,-26.343416,11.414993,1.514125,-3.551675,4.931651,-1.928092,-16.132462,8064.000000,0.000000,4.000000,,,,0.000000,4.000000,4.000000,4.000000,4.000000,4.000000,4.000000,4.000000,4.000000,4.000000,4.000000,4.000000,4.000000,4.000000,4.000000,4.000000,4.000000,4.000000,4.000000,4.000000,4.000000,4.000000,4.000000,4.000000,4.000000,4.000000,4.000000,4.000000,4.000000,4.000000,4.000000,4.000000,4.000000,100.000000
1614491161.872762,99.000000,0.000000,8.458062,5.951177,-14.491621,-7.010465,-4.948713,1.189497,9.365341,0.687843,-0.908221,7.824758,22.577703,8.347654,18.911274,16.971180,4.841275,18.996519,19.421560,29.535698,1.999370,-1.069262,10.359962,-7.430192,-1.827168,1.478206,-3.487787,-24.265791,7.813835,1.512611,-2.522482,10.054924,-2.951805,-16.116329,8064.000000,0.000000,4.000000,,,,0.000000,4.000000,4.000000,4.000000,4.000000,4.000000,4.000000,4.000000,4.000000,4.000000,4.000000,4.000000,4.000000,4.000000,4.000000,4.000000,4.000000,4.000000,4.000000,4.000000,4.000000,4.000000,4.000000,4.000000,4.000000,4.000000,4.000000,4.000000,4.000000,4.000000,4.000000,4.000000,4.000000,100.000000
1614491161.880411,100.000000,0.000000,6.398322,5.945226,-7.810462,-5.977814,-4.943764,1.188308,9.868796,2.225617,-0.394492,8.842574,22.042305,7.313666,16.841080,16.954208,4.323614,18.464703,19.402140,28.993341,5.587115,1.495910,12.400884,25.397751,-3.876623,10.707497,-0.920196,-18.600498,4.729098,0.998278,0.044143,10.044869,-0.897571,-15.587393,8064.000000,0.000000,4.000000,,,,0.000000,4.000000,4.000000,4.000000,4.000000,4.000000,4.000000,4.000000,4.000000,4.000000,4.000000,4.000000,4.000000,4.000000,4.000000,4.000000,4.000000,4.000000,4.000000,4.000000,4.000000,4.000000,4.000000,4.000000,4.000000,4.000000,4.000000,4.000000,4.000000,4.000000,4.000000,4.000000,4.000000,100.000000
1614491161.888160,101.000000,0.000000,4.340641,5.426460,-6.777011,-2.382092,-4.938820,1.187120,7.807646,1.710571,-3.471020,7.295270,21.507442,4.742249,12.208854,16.937254,4.832110,18.446238,18.869917,27.425886,10.709733,4.058517,12.901303,58.192867,6.896485,19.414738,4.208929,-17.556257,-2.455119,1.510100,1.069740,11.060465,0.128967,-16.084625,8064.000000,0.000000,4.000000,,,,0.000000,4.000000,4.000000,4.000000,4.000000,4.000000,4.000000,4.000000,4.000000,4.000000,4.000000,4.000000,4.000000,4.000000,4.000000,4.000000,4.000000,4.000000,4.000000,4.000000,4.000000,4.000000,4.000000,4.000000,4.000000,4.000000,4.000000,4.000000,4.000000,4.000000,4.000000,4.000000,4.000000,100.000000
1614491161.895809,102.000000,0.000000,3.823480,5.933854,-10.359978,-3.405351,-4.933882,1.185933,5.235735,1.196040,-7.570114,7.287975,21.998755,3.711866,9.632543,16.407497,4.314458,17.914970,19.363867,28.424103,15.314407,6.618561,14.426863,54.032108,8.940870,20.420965,4.204720,-21.128445,-6.042407,4.072693,0.043029,18.228891,0.641659,-16.068541,8064.000000,0.000000,4.000000,,,,0.000000,4.000000,4.000000,4.000000,4.000000,4.000000,4.000000,4.000000,4.000000,4.000000,4.000000,4.000000,4.000000,4.000000,4.000000,4.000000,4.000000,4.000000,4.000000,4.000000,4.000000,4.000000,4.000000,4.000000,4.000000,4.000000,4.000000,4.000000,4.000000,4.000000,4.000000,4.000000,4.000000,100.000000
1614491161.903558,103.000000,0.000000,4.332478,7.979202,-10.349618,-5.966048,-4.928948,1.184747,5.743320,1.707664,-8.075364,9.331968,20.438295,3.708154,10.648551,16.391088,-1.330882,13.281671,18.318863,27.882858,8.632426,8.150404,14.925257,41.670383,7.393468,16.810801,3.687695,-20.594496,-3.472262,5.607082,0.555807,22.826048,3.205120,-16.052473,8064.000000,0.000000,4.000000,,,,0.000000,4.000000,4.000000,4.000000,4.000000,4.000000,4.000000,4.000000,4.000000,4.000000,4.000000,4.000000,4.000000,4.000000,4.000000,4.000000,4.000000,4.000000,4.000000,4.000000,4.000000,4.000000,4.000000,4.000000,4.000000,4.000000,4.000000,4.000000,4.000000,4.000000,4.000000,4.000000,4.000000,100.000000
1614491161.911207,104.000000,0.000000,4.328145,10.022506,-9.826447,-5.960083,-4.924019,1.183562,5.224757,1.705957,-7.554468,3.168791,11.187087,4.217267,9.099441,17.400339,-9.021859,7.627364,13.172338,16.572924,-8.299283,6.090971,7.730844,15.987688,6.873254,5.511938,4.196828,-17.496979,-5.007251,4.575834,0.555251,21.777580,3.201915,-16.036421,8064.000000,0.000000,4.000000,,,,0.000000,4.000000,4.000000,4.000000,4.000000,4.000000,4.000000,4.000000,4.000000,4.000000,4.000000,4.000000,4.000000,4.000000,4.000000,4.000000,4.000000,4.000000,4.000000,4.000000,4.000000,4.000000,4.000000,4.000000,4.000000,4.000000,4.000000,4.000000,4.000000,4.000000,4.000000,4.000000,4.000000,100.000000
1614491161.918955,105.000000,0.000000,4.323817,9.499662,-10.329441,-6.979764,-4.919095,1.182378,1.629788,-3.423954,-7.546914,-8.629250,5.022054,4.213049,6.526239,16.870119,-11.576940,6.594095,11.107884,8.864043,-12.393548,7.623342,3.620549,-16.335991,-0.825927,1.403862,4.192631,-17.479481,-5.515065,4.571258,-0.470945,23.294264,-0.391031,-16.020384,8064.000000,0.000000,4.000000,,,,0.000000,4.000000,4.000000,4.000000,4.000000,4.000000,4.000000,4.000000,4.000000,4.000000,4.000000,4.000000,4.000000,4.000000,4.000000,4.000000,4.000000,4.000000,4.000000,4.000000,4.000000,4.000000,4.000000,4.000000,4.000000,4.000000,4.000000,4.000000,4.000000,4.000000,4.000000,4.000000,4.000000,100.000000
1614491161.926604,106.000000,0.000000,4.319493,9.490163,-10.319112,-9.536886,-4.914176,1.181196,2.653800,-9.574377,-9.077828,-8.620621,13.222160,3.183195,6.519713,15.314787,-4.385876,12.741347,13.660878,26.803896,10.182948,18.384949,12.847698,-14.781194,-2.363563,17.812714,4.188438,-18.487642,7.310963,8.156430,3.119269,25.835073,-1.416281,-16.517183,8064.000000,0.000000,4.000000,,,,0.000000,4.000000,4.000000,4.000000,4.000000,4.000000,4.000000,4.000000,4.000000,4.000000,4.000000,4.000000,4.000000,4.000000,4.000000,4.000000,4.000000,4.000000,4.000000,4.000000,4.000000,4.000000,4.000000,4.000000,4.000000,4.000000,4.000000,4.000000,4.000000,4.000000,4.000000,4.000000,4.000000,100.000000
1614491161.934453,107.000000,0.000000,4.315174,9.993493,-10.308793,-9.014528,-4.909262,1.180015,9.830633,-10.590444,-11.120032,3.182872,25.003809,5.231294,8.564475,20.427677,12.028767,19.908092,15.185679,52.418118,28.121483,29.135796,24.116901,14.977177,7.895211,30.615414,4.184250,-17.956335,19.098524,12.250837,7.731534,24.783596,0.636417,-15.987846,8064.000000,0.000000,4.000000,,,,0.000000,4.000000,4.000000,4.000000,4.000000,4.000000,4.000000,4.000000,4.000000,4.000000,4.000000,4.000000,4.000000,4.000000,4.000000,4.000000,4.000000,4.000000,4.000000,4.000000,4.000000,4.000000,4.000000,4.000000,4.000000,4.000000,4.000000,4.000000,4.000000,4.000000,4.000000,4.000000,4.000000,100.000000
1614491161.942202,108.000000,0.000000,4.310858,8.445038,-10.298484,-9.518334,-4.904352,1.178835,13.923367,-8.015750,-11.621733,8.820715,31.132652,10.354268,14.196937,27.586737,21.247507,21.939466,18.247417,54.416981,22.452335,28.593840,27.169708,29.321175,16.092443,31.097620,3.154425,-17.938377,12.925579,12.238587,6.698162,22.194710,-0.389860,-15.971858,8192.000000,0.000000,4.000000,,,,0.000000,4.000000,4.000000,4.000000,4.000000,4.000000,4.000000,4.000000,4.000000,4.000000,4.000000,4.000000,4.000000,4.000000,4.000000,4.000000,4.000000,4.000000,4.000000,4.000000,4.000000,4.000000,4.000000,4.000000,4.000000,4.000000,4.000000,4.000000,4.000000,4.000000,4.000000,4.000000,4.000000,100.000000
1614491161.950051,109.000000,0.000000,4.306548,6.385311,-10.801006,-10.021637,-4.899448,1.177656,12.883801,-6.469273,-11.610111,7.273432,29.050238,9.318273,20.336586,24.482227,11.995490,19.353424,23.357374,42.567692,13.199115,25.488321,26.116898,40.061085,15.563531,32.092163,7.253834,-18.433260,4.707526,11.713528,4.640182,20.634054,-5.517675,-16.981527,8064.000000,0.000000,4.000000,,,,0.000000,4.000000,4.000000,4.000000,4.000000,4.000000,4.000000,4.000000,4.000000,4.000000,4.000000,4.000000,4.000000,4.000000,4.000000,4.000000,4.000000,4.000000,4.000000,4.000000,4.000000,4.000000,4.000000,4.000000,4.000000,4.000000,4.000000,4.000000,4.000000,4.000000,4.000000,4.000000,4.000000,100.000000
1614491161.957799,110.000000,0.000000,4.302241,7.917387,-11.303025,-2.832128,-5.407369,3.227760,12.870918,-5.949983,-12.111321,7.778979,16.200674,4.180749,20.829069,16.765436,-0.324198,16.769970,19.744274,33.807178,12.160275,25.975655,18.911293,52.328716,15.035147,25.393404,13.913247,-17.902006,7.266921,12.727455,7.199644,21.126242,0.641689,-15.426085,8064.000000,0.000000,4.000000,,,,0.000000,4.000000,4.000000,4.000000,4.000000,4.000000,4.000000,4.000000,4.000000,4.000000,4.000000,4.000000,4.000000,4.000000,4.000000,4.000000,4.000000,4.000000,4.000000,4.000000,4.000000,4.000000,4.000000,4.000000,4.000000,4.000000,4.000000,4.000000,4.000000,4.000000,4.000000,4.000000,4.000000,100.000000
1614491161.965648,111.000000,0.000000,4.297939,9.960752,-10.778902,2.811730,-4.889141,5.275815,11.832406,-6.969674,-10.560749,8.284020,3.363961,3.663748,17.218496,15.723030,-2.887976,14.701917,10.493760,24.029779,9.071191,24.924038,9.148792,38.430233,16.045753,9.470574,15.950616,-14.807181,5.208372,10.663445,6.679624,20.592295,17.051304,-10.282454,8064.000000,0.000000,4.000000,,,,0.000000,4.000000,4.000000,4.000000,4.000000,4.000000,4.000000,4.000000,4.000000,4.000000,4.000000,4.000000,4.000000,4.000000,4.000000,4.000000,4.000000,4.000000,4.000000,4.000000,4.000000,4.000000,4.000000,4.000000,4.000000,4.000000,4.000000,4.000000,4.000000,4.000000,4.000000,4.000000,4.000000,100.000000
1614491161.973397,112.000000,0.000000,4.293641,9.437970,-9.229662,-8.985954,-2.832970,3.732077,9.256472,-5.424243,-8.498906,8.275737,4.386238,4.685725,14.124355,17.245770,-1.346626,14.687215,6.893523,18.877546,5.472376,22.335011,5.549900,16.853340,16.029707,6.897002,14.909024,-14.279553,2.639061,8.601501,4.108842,21.597343,21.136816,-7.708068,8064.000000,0.000000,4.000000,,,,0.000000,4.000000,4.000000,4.000000,4.000000,4.000000,4.000000,4.000000,4.000000,4.000000,4.000000,4.000000,4.000000,4.000000,4.000000,4.000000,4.000000,4.000000,4.000000,4.000000,4.000000,4.000000,4.000000,4.000000,4.000000,4.000000,4.000000,4.000000,4.000000,4.000000,4.000000,4.000000,4.000000,100.000000
1614491161.981246,113.000000,0.000000,4.289347,8.915712,-11.271714,-22.823122,-0.778855,1.164243,8.734394,-1.316255,-7.464766,7.754641,11.561338,4.168219,14.110230,16.202883,2.244464,19.287912,8.425091,23.986874,9.056647,21.799856,8.621273,12.733923,15.500857,15.608053,14.894115,-13.752454,13.918473,12.695463,4.104733,24.652668,12.397731,-8.213181,8064.000000,0.000000,4.000000,,,,0.000000,4.000000,4.000000,4.000000,4.000000,4.000000,4.000000,4.000000,4.000000,4.000000,4.000000,4.000000,4.000000,4.000000,4.000000,4.000000,4.000000,4.000000,4.000000,4.000000,4.000000,4.000000,4.000000,4.000000,4.000000,4.000000,4.000000,4.000000,4.000000,4.000000,4.000000,4.000000,4.000000,100.000000
1614491161.988995,114.000000,0.000000,4.285058,9.419617,-7.670699,-11.518248,-1.290897,1.163078,9.238481,1.761985,-1.816275,7.746886,14.113880,3.651230,14.096121,16.186680,8.908886,22.858368,8.416665,29.091091,9.047591,22.290876,10.151113,-3.176247,15.998177,16.618086,15.392041,-10.148958,25.186605,17.298153,4.100628,24.628016,13.410974,-6.666506,8064.000000,0.000000,4.000000,,,,0.000000,4.000000,4.000000,4.000000,4.000000,4.000000,4.000000,4.000000,4.000000,4.000000,4.000000,4.000000,4.000000,4.000000,4.000000,4.000000,4.000000,4.000000,4.000000,4.000000,4.000000,4.000000,4.000000,4.000000,4.000000,4.000000,4.000000,4.000000,4.000000,4.000000,4.000000,4.000000,4.000000,100.000000
1614491161.996843,115.000000,0.000000,4.280773,9.410197,7.208767,9.006091,-1.289606,1.161915,9.229241,1.760223,5.365028,8.251960,14.612587,4.160400,14.594845,17.196133,8.387156,18.732946,7.382608,28.549179,3.910338,22.268585,9.115321,-29.326916,16.494999,11.986084,14.863829,-6.549065,26.699881,14.716751,4.609348,24.090567,19.551409,-4.608557,8064.000000,0.000000,4.000000,,,,0.000000,4.000000,4.000000,4.000000,4.000000,4.000000,4.000000,4.000000,4.000000,4.000000,4.000000,4.000000,4.000000,4.000000,4.000000,4.000000,4.000000,4.000000,4.000000,4.000000,4.000000,4.000000,4.000000,4.000000,4.000000,4.000000,4.000000,4.000000,4.000000,4.000000,4.000000,4.000000,4.000000,100.000000
1614491162.004592,116.000000,0.000000,4.276492,9.400787,12.842584,13.612470,-1.288316,1.160753,9.220013,1.758462,7.923766,8.243708,14.597974,4.669060,14.067430,17.178938,-2.903282,15.124469,8.400867,29.033451,4.419249,22.246317,7.054924,-15.451436,14.940042,13.512559,14.848966,-5.516875,25.647539,11.625112,7.168841,26.117760,14.403652,-4.091128,8064.000000,0.000000,4.000000,,,,0.000000,4.000000,4.000000,4.000000,4.000000,4.000000,4.000000,4.000000,4.000000,4.000000,4.000000,4.000000,4.000000,4.000000,4.000000,4.000000,4.000000,4.000000,4.000000,4.000000,4.000000,4.000000,4.000000,4.000000,4.000000,4.000000,4.000000,4.000000,4.000000,4.000000,4.000000,4.000000,4.000000,100.000000
1614491162.012441,117.000000,0.000000,4.785036,9.391386,-1.529233,11.547575,-1.287028,1.159593,9.210793,1.756704,7.915842,7.722643,15.609017,4.151570,14.053362,16.136118,-11.105507,14.596524,8.392466,29.004417,6.466111,18.121506,7.047869,17.384529,15.950744,18.114431,14.321296,-7.049820,18.442406,12.639128,6.648852,21.476257,7.722582,-6.138319,8064.000000,0.000000,4.000000,,,,0.000000,4.000000,4.000000,4.000000,4.000000,4.000000,4.000000,4.000000,4.000000,4.000000,4.000000,4.000000,4.000000,4.000000,4.000000,4.000000,4.000000,4.000000,4.000000,4.000000,4.000000,4.000000,4.000000,4.000000,4.000000,4.000000,4.000000,4.000000,4.000000,4.000000,4.000000,4.000000,4.000000,100.000000
1614491162.020190,118.000000,0.000000,4.267430,9.381995,-13.322576,11.536028,-1.285741,1.158433,9.201582,0.216486,2.266900,6.176459,18.670332,3.121778,15.064950,16.632801,-6.991837,14.069107,8.384073,28.975412,2.869901,9.898256,7.553641,35.315861,16.960434,15.532214,14.306974,-13.196616,4.577809,12.113667,4.590921,10.172729,4.637937,-15.362950,8064.000000,0.000000,4.000000,,,,0.000000,4.000000,4.000000,4.000000,4.000000,4.000000,4.000000,4.000000,4.000000,4.000000,4.000000,4.000000,4.000000,4.000000,4.000000,4.000000,4.000000,4.000000,4.000000,4.000000,4.000000,4.000000,4.000000,4.000000,4.000000,4.000000,4.000000,4.000000,4.000000,4.000000,4.000000,4.000000,4.000000,100.000000
1614491162.028039,119.000000,0.000000,2.211881,9.372613,-15.360536,-2.834482,-1.284455,1.157274,8.679560,2.267551,-13.119982,2.580539,17.113199,4.144297,10.947321,16.103348,-4.420743,14.055038,8.375689,27.920797,2.354211,2.196050,5.494805,33.229263,6.174242,5.260272,14.805488,-18.311625,-2.093436,7.998990,4.586330,9.136915,-1.007727,-24.578356,8064.000000,0.000000,4.000000,,,,0.000000,4.000000,4.000000,4.000000,4.000000,4.000000,4.000000,4.000000,4.000000,4.000000,4.000000,4.000000,4.000000,4.000000,4.000000,4.000000,4.000000,4.000000,4.000000,4.000000,4.000000,4.000000,4.000000,4.000000,4.000000,4.000000,4.000000,4.000000,4.000000,4.000000,4.000000,4.000000,4.000000,100.000000
1614491162.035787,120.000000,0.000000,0.158387,9.363240,-20.986200,-27.959854,-1.283170,1.156117,6.106778,0.214002,-21.311991,-3.063067,5.814034,2.088871,0.679963,5.830835,-10.570168,8.399958,8.367313,18.662107,0.813395,-2.421530,2.925208,23.452444,-6.652444,-2.437296,13.765041,-18.293312,-2.604163,3.888427,2.017641,18.871368,-4.596463,-29.169163,8064.000000,0.000000,4.000000,,,,0.000000,4.000000,4.000000,4.000000,4.000000,4.000000,4.000000,4.000000,4.000000,4.000000,4.000000,4.000000,4.000000,4.000000,4.000000,4.000000,4.000000,4.000000,4.000000,4.000000,4.000000,4.000000,4.000000,4.000000,4.000000,4.000000,4.000000,4.000000,4.000000,4.000000,4.000000,4.000000,4.000000,100.000000
1614491162.043536,121.000000,0.000000,0.671049,9.353877,-16.862650,-32.034458,-1.281887,1.154961,3.023748,-11.068264,-11.547089,-7.675388,-3.935369,-7.143988,-4.961742,-6.482688,-18.764727,-4.941776,8.358946,3.771650,-9.956649,0.144994,2.922283,4.454634,-4.594510,-3.973320,14.776917,-17.762199,1.501006,4.397359,0.477162,21.416599,-5.104687,-27.601532,8064.000000,0.000000,4.000000,,,,0.000000,4.000000,4.000000,4.000000,4.000000,4.000000,4.000000,4.000000,4.000000,4.000000,4.000000,4.000000,4.000000,4.000000,4.000000,4.000000,4.000000,4.000000,4.000000,4.000000,4.000000,4.000000,4.000000,4.000000,4.000000,4.000000,4.000000,4.000000,4.000000,4.000000,4.000000,4.000000,4.000000,100.000000
1614491162.051285,122.000000,0.000000,0.670378,9.344523,-2.486813,-12.002423,-1.280605,1.153806,4.046365,-11.057196,-1.791952,-4.077970,-5.469895,-7.136844,-2.392678,-3.399282,-18.233141,-7.500937,8.350587,0.690955,-8.921051,11.426900,8.047565,-8.883154,2.589572,-1.405245,20.403166,-18.257257,12.781556,7.982705,6.117711,20.369541,-4.586762,-17.830341,8064.000000,0.000000,4.000000,,,,0.000000,4.000000,4.000000,4.000000,4.000000,4.000000,4.000000,4.000000,4.000000,4.000000,4.000000,4.000000,4.000000,4.000000,4.000000,4.000000,4.000000,4.000000,4.000000,4.000000,4.000000,4.000000,4.000000,4.000000,4.000000,4.000000,4.000000,4.000000,4.000000,4.000000,4.000000,4.000000,4.000000,100.000000
1614491162.058934,123.000000,0.000000,0.669708,9.335178,-1.458685,6.471118,-1.279325,1.152652,7.632062,5.876939,-0.764519,8.746621,0.176600,11.331832,-0.339003,10.963091,-2.830292,7.891180,8.342237,15.049238,9.549408,19.107780,13.680544,-8.361451,7.202367,6.288468,26.023788,-18.239000,23.538006,8.487543,6.624413,21.374813,0.033210,-6.530459,8064.000000,0.000000,4.000000,,,,0.000000,4.000000,4.000000,4.000000,4.000000,4.000000,4.000000,4.000000,4.000000,4.000000,4.000000,4.000000,4.000000,4.000000,4.000000,4.000000,4.000000,4.000000,4.000000,4.000000,4.000000,4.000000,4.000000,4.000000,4.000000,4.000000,4.000000,4.000000,4.000000,4.000000,4.000000,4.000000,4.000000,100.000000
1614491162.066683,124.000000,0.000000,0.669038,7.274561,-1.457227,12.105673,-1.278046,0.638679,15.316738,13.563370,1.800348,18.994286,14.535398,26.192295,-0.851485,23.772640,18.710999,22.242262,8.333894,29.905985,19.796268,18.575853,15.205325,-10.917192,16.938755,12.436026,25.997765,-17.707941,22.488827,5.402133,-1.074519,15.199593,6.699843,-3.447006,8064.000000,0.000000,4.000000,,,,0.000000,4.000000,4.000000,4.000000,4.000000,4.000000,4.000000,4.000000,4.000000,4.000000,4.000000,4.000000,4.000000,4.000000,4.000000,4.000000,4.000000,4.000000,4.000000,4.000000,4.000000,4.000000,4.000000,4.000000,4.000000,4.000000,4.000000,4.000000,4.000000,4.000000,4.000000,4.000000,4.000000,100.000000
1614491162.074332,125.000000,0.000000,0.668369,5.216005,9.313461,15.170490,-1.789588,1.150861,23.506550,11.498524,6.413933,23.077854,31.443939,27.191744,-1.876274,30.928356,29.974340,27.348227,8.325561,32.953003,16.186729,17.531635,14.164478,-12.444736,23.588482,12.936410,24.946127,-18.203053,14.261209,4.883910,-4.150367,6.466444,8.231605,-4.982020,8064.000000,0.000000,4.000000,,,,0.000000,4.000000,4.000000,4.000000,4.000000,4.000000,4.000000,4.000000,4.000000,4.000000,4.000000,4.000000,4.000000,4.000000,4.000000,4.000000,4.000000,4.000000,4.000000,4.000000,4.000000,4.000000,4.000000,4.000000,4.000000,4.000000,4.000000,4.000000,4.000000,4.000000,4.000000,4.000000,4.000000,100.000000
1614491162.082081,126.000000,0.000000,0.667701,5.723609,5.714404,18.232243,-1.274978,1.662531,20.406120,13.538307,7.945980,23.567596,32.950958,25.113270,-0.848757,30.897427,25.841801,25.269596,8.317235,32.407227,16.683363,19.565386,14.663135,1.413862,23.052073,12.410653,26.972462,-17.159208,8.093102,7.955949,-2.607755,5.947157,9.761835,-4.464218,8064.000000,0.000000,4.000000,,,,0.000000,4.000000,4.000000,4.000000,4.000000,4.000000,4.000000,4.000000,4.000000,4.000000,4.000000,4.000000,4.000000,4.000000,4.000000,4.000000,4.000000,4.000000,4.000000,4.000000,4.000000,4.000000,4.000000,4.000000,4.000000,4.000000,4.000000,4.000000,4.000000,4.000000,4.000000,4.000000,4.000000,100.000000
1614491162.089730,127.000000,0.000000,0.667033,4.692245,-6.599002,14.111446,-1.273703,-0.903234,8.078021,5.832461,6.912393,14.826081,19.071852,14.318926,0.690553,20.610119,11.456985,17.039198,8.821738,32.887642,19.230782,18.007359,15.161292,22.950911,24.567482,13.936705,24.381388,-15.090768,3.469624,8.973634,-3.630789,10.043774,11.803355,-4.972574,8064.000000,0.000000,4.000000,,,,0.000000,4.000000,4.000000,4.000000,4.000000,4.000000,4.000000,4.000000,4.000000,4.000000,4.000000,4.000000,4.000000,4.000000,4.000000,4.000000,4.000000,4.000000,4.000000,4.000000,4.000000,4.000000,4.000000,4.000000,4.000000,4.000000,4.000000,4.000000,4.000000,4.000000,4.000000,4.000000,4.000000,100.000000
1614491162.097478,0.000000,0.000000,0.666366,6.226014,-1.464198,7.430668,-2.298070,-2.440793,0.377636,-11.096448,5.879840,1.990742,7.770729,-5.695393,-1.361419,6.230535,-6.503190,8.304210,7.787275,27.726547,15.108988,12.861147,14.120490,41.389496,17.363428,13.409947,17.690338,-13.537215,-2.174871,8.451839,-3.114337,15.674756,7.688987,-4.967601,0.000000,177.000000,4.000000,,,,0.000000,4.000000,4.000000,4.000000,4.000000,4.000000,4.000000,4.000000,4.000000,4.000000,4.000000,4.000000,4.000000,4.000000,4.000000,4.000000,4.000000,4.000000,4.000000,4.000000,4.000000,4.000000,4.000000,4.000000,4.000000,4.000000,4.000000,4.000000,4.000000,4.000000,4.000000,4.000000,4.000000,100.000000
1614491162.105127,1.000000,0.000000,0.665699,12.886455,-3.001196,4.346314,-0.757311,0.125751,1.915719,-13.136634,2.797037,-4.165095,6.737318,-10.305082,0.691224,6.737125,-15.727456,6.244623,8.292309,22.057796,13.042597,9.771362,15.644831,48.014774,2.474270,11.858076,13.057264,-10.959576,-6.275260,8.443388,-0.547121,22.838568,3.578734,-4.962634,0.000000,166.000000,4.000000,,,,0.000000,4.000000,4.000000,4.000000,4.000000,4.000000,4.000000,4.000000,4.000000,4.000000,4.000000,4.000000,4.000000,4.000000,4.000000,4.000000,4.000000,4.000000,4.000000,4.000000,4.000000,4.000000,4.000000,4.000000,4.000000,4.000000,4.000000,4.000000,4.000000,4.000000,4.000000,4.000000,4.000000,100.000000
1614491162.112876,2.000000,0.000000,0.665034,17.488953,-15.818707,4.854788,3.346011,4.228189,8.067650,-2.867086,3.307060,-4.673750,11.345964,1.500094,14.023866,20.063721,-13.660446,7.264020,10.848119,21.522917,14.055195,12.838514,20.757391,31.043684,4.010257,12.871859,14.069848,-7.358873,-1.140780,8.434945,0.991888,24.354191,3.062335,-8.547415,0.000000,192.000000,4.000000,,,,0.000000,4.000000,4.000000,4.000000,4.000000,4.000000,4.000000,4.000000,4.000000,4.000000,4.000000,4.000000,4.000000,4.000000,4.000000,4.000000,4.000000,4.000000,4.000000,4.000000,4.000000,4.000000,4.000000,4.000000,4.000000,4.000000,4.000000,4.000000,4.000000,4.000000,4.000000,4.000000,4.000000,100.000000
1614491162.120525,3.000000,0.000000,0.664369,16.958643,-5.546478,4.849934,6.419588,5.249602,14.726249,3.289627,8.431958,-0.566512,12.873080,7.139620,23.240612,23.633400,-11.082684,7.256756,9.811629,17.398830,7.887293,14.876958,20.223812,4.345973,16.313938,11.320525,14.568599,-6.325873,9.629591,8.426510,0.478076,25.355478,3.059273,-8.538867,0.000000,188.000000,4.000000,,,,0.000000,4.000000,4.000000,4.000000,4.000000,4.000000,4.000000,4.000000,4.000000,4.000000,4.000000,4.000000,4.000000,4.000000,4.000000,4.000000,4.000000,4.000000,4.000000,4.000000,4.000000,4.000000,4.000000,4.000000,4.000000,4.000000,4.000000,4.000000,4.000000,4.000000,4.000000,4.000000,4.000000,100.000000
1614491162.128274,4.000000,0.000000,0.663704,16.428864,13.946248,3.819443,5.900348,4.731532,16.762804,5.850440,10.987629,5.075080,7.219182,6.619660,14.499422,16.430281,-10.045959,3.659755,5.186433,8.663483,-4.941107,11.272337,14.562564,-15.145553,19.887369,1.052794,13.528389,-6.832367,20.389193,8.418083,0.477598,28.407045,5.107495,-0.325200,0.000000,172.000000,4.000000,,,,0.000000,4.000000,4.000000,4.000000,4.000000,4.000000,4.000000,4.000000,4.000000,4.000000,4.000000,4.000000,4.000000,4.000000,4.000000,4.000000,4.000000,4.000000,4.000000,4.000000,4.000000,4.000000,4.000000,4.000000,4.000000,4.000000,4.000000,4.000000,4.000000,4.000000,4.000000,4.000000,4.000000,100.000000
1614491162.135923,5.000000,0.000000,0.663041,16.412436,11.881020,3.302803,5.894447,4.726800,13.156299,1.742025,10.463820,6.095646,0.032475,7.638681,1.151589,12.824106,-14.138477,-3.523391,3.642785,4.552255,-10.577191,9.722604,10.445436,-24.361176,17.816198,-7.153387,14.540502,-6.825535,24.471367,7.896844,0.477120,26.327356,9.204952,3.777689,0.000000,191.000000,4.000000,,,,0.000000,4.000000,4.000000,4.000000,4.000000,4.000000,4.000000,4.000000,4.000000,4.000000,4.000000,4.000000,4.000000,4.000000,4.000000,4.000000,4.000000,4.000000,4.000000,4.000000,4.000000,4.000000,4.000000,4.000000,4.000000,4.000000,4.000000,4.000000,4.000000,4.000000,4.000000,4.000000,4.000000,100.000000
1614491162.143672,6.000000,0.000000,0.662378,16.396023,6.740933,5.350782,5.888553,4.722074,9.553398,-8.003306,10.453357,3.525448,-2.531660,3.015658,-2.439306,11.785642,-23.355108,-5.571150,4.151963,5.060524,-6.464050,15.866727,9.409350,-12.029123,18.311203,-3.556489,17.090063,-6.818709,13.677666,8.914589,0.476643,24.762568,10.734209,0.184168,0.000000,196.000000,4.000000,,,,0.000000,4.000000,4.000000,4.000000,4.000000,4.000000,4.000000,4.000000,4.000000,4.000000,4.000000,4.000000,4.000000,4.000000,4.000000,4.000000,4.000000,4.000000,4.000000,4.000000,4.000000,4.000000,4.000000,4.000000,4.000000,4.000000,4.000000,4.000000,4.000000,4.000000,4.000000,4.000000,4.000000,100.000000
1614491162.151321,7.000000,0.000000,0.661715,16.892447,8.272654,4.832611,6.395485,4.717351,8.005383,-4.918380,10.955725,4.034742,3.624718,0.448540,4.229800,14.337958,-19.229189,1.613908,5.173452,11.209310,1.234722,22.004707,11.451223,13.623932,20.344173,4.652195,18.611435,-6.811891,-1.720628,11.469777,0.476166,27.301907,11.236295,0.183984,0.000000,193.000000,4.000000,,,,0.000000,4.000000,4.000000,4.000000,4.000000,4.000000,4.000000,4.000000,4.000000,4.000000,4.000000,4.000000,4.000000,4.000000,4.000000,4.000000,4.000000,4.000000,4.000000,4.000000,4.000000,4.000000,4.000000,4.000000,4.000000,4.000000,4.000000,4.000000,4.000000,4.000000,4.000000,4.000000,4.000000,100.000000
1614491162.159169,8.000000,0.000000,0.661053,14.824273,1.084894,-0.300427,7.927551,4.712634,10.048660,6.881410,10.431948,6.594810,16.441607,12.755783,13.456340,25.605671,1.302860,9.304602,9.270843,22.992971,7.900154,21.982702,16.055157,23.353897,21.862291,8.750107,18.080004,-6.805079,-9.924035,12.483948,0.475690,23.172041,10.712238,-3.405944,0.000000,196.000000,4.000000,,,,0.000000,4.000000,4.000000,4.000000,4.000000,4.000000,4.000000,4.000000,4.000000,4.000000,4.000000,4.000000,4.000000,4.000000,4.000000,4.000000,4.000000,4.000000,4.000000,4.000000,4.000000,4.000000,4.000000,4.000000,4.000000,4.000000,4.000000,4.000000,4.000000,4.000000,4.000000,4.000000,4.000000,100.000000
1614491162.166918,9.000000,0.000000,0.660392,13.270987,-4.557217,7.905002,8.945265,4.707922,15.679637,9.951451,10.421516,9.665138,22.066191,23.512259,18.058268,30.708271,13.609250,11.346580,12.338495,28.098185,10.456356,20.935078,17.577562,23.843365,22.866070,8.228537,18.061924,-6.798274,-9.914111,11.958644,0.475214,18.020664,8.650244,-14.684589,0.000000,182.000000,4.000000,,,,0.000000,4.000000,4.000000,4.000000,4.000000,4.000000,4.000000,4.000000,4.000000,4.000000,4.000000,4.000000,4.000000,4.000000,4.000000,4.000000,4.000000,4.000000,4.000000,4.000000,4.000000,4.000000,4.000000,4.000000,4.000000,4.000000,4.000000,4.000000,4.000000,4.000000,4.000000,4.000000,4.000000,100.000000
1614491162.174767,10.000000,0.000000,0.659732,14.796178,5.190930,29.435558,9.961960,4.703213,19.766521,9.428679,10.411095,15.809319,14.864636,20.924644,17.527390,21.446793,13.595640,10.822412,11.813336,22.429060,7.881797,22.965425,19.611267,33.563110,22.330383,8.220308,18.043861,-6.791476,-0.673428,12.459505,0.474739,23.130848,9.667234,-14.157084,0.000000,161.000000,4.000000,,,,0.000000,4.000000,4.000000,4.000000,4.000000,4.000000,4.000000,4.000000,4.000000,4.000000,4.000000,4.000000,4.000000,4.000000,4.000000,4.000000,4.000000,4.000000,4.000000,4.000000,4.000000,4.000000,4.000000,4.000000,4.000000,4.000000,4.000000,4.000000,4.000000,4.000000,4.000000,4.000000,4.000000,100.000000
1614491162.182516,11.000000,0.000000,0.659072,16.319843,13.903688,33.508686,8.926357,4.698510,20.259575,13.008994,10.400683,19.383253,10.234387,18.339617,18.535503,15.271501,13.069224,11.324410,11.801522,24.970734,7.361095,24.993742,24.719862,26.350060,22.820873,15.391575,18.538637,-6.271863,14.711861,11.934225,0.474264,28.748743,14.272952,-2.348055,0.000000,191.000000,4.000000,,,,0.000000,4.000000,4.000000,4.000000,4.000000,4.000000,4.000000,4.000000,4.000000,4.000000,4.000000,4.000000,4.000000,4.000000,4.000000,4.000000,4.000000,4.000000,4.000000,4.000000,4.000000,4.000000,4.000000,4.000000,4.000000,4.000000,4.000000,4.000000,4.000000,4.000000,4.000000,4.000000,4.000000,100.000000
1614491162.190365,12.000000,0.000000,0.658413,16.303524,6.197477,17.064922,4.302046,4.693811,18.700855,11.970345,10.390283,18.338230,14.326717,19.346918,19.029787,16.794691,13.056155,11.313086,12.302542,34.176533,8.892196,24.968748,29.823347,0.682685,22.285233,25.632593,18.007278,-7.291233,22.389456,11.922291,0.473790,28.719995,12.720218,-4.396989,0.000000,182.000000,4.000000,,,,0.000000,4.000000,4.000000,4.000000,4.000000,4.000000,4.000000,4.000000,4.000000,4.000000,4.000000,4.000000,4.000000,4.000000,4.000000,4.000000,4.000000,4.000000,4.000000,4.000000,4.000000,4.000000,4.000000,4.000000,4.000000,4.000000,4.000000,4.000000,4.000000,4.000000,4.000000,4.000000,4.000000,100.000000
1614491162.198113,13.000000,0.000000,0.144934,16.287220,-5.603592,11.919651,2.759283,4.689118,16.630871,8.368630,10.379892,17.807072,15.338032,16.763468,16.446655,16.777897,12.530278,10.276132,11.777418,35.680817,7.857662,25.969419,30.819164,-12.138511,22.262947,25.094141,17.989271,-6.771121,21.854246,12.423189,0.473316,27.152813,10.143394,-13.110541,0.000000,190.000000,4.000000,,,,0.000000,4.000000,4.000000,4.000000,4.000000,4.000000,4.000000,4.000000,4.000000,4.000000,4.000000,4.000000,4.000000,4.000000,4.000000,4.000000,4.000000,4.000000,4.000000,4.000000,4.000000,4.000000,4.000000,4.000000,4.000000,4.000000,4.000000,4.000000,4.000000,4.000000,4.000000,4.000000,4.000000,100.000000
1614491162.205962,14.000000,0.000000,0.657610,15.245292,-1.495425,18.574398,9.936010,4.684429,16.101419,7.334621,8.831051,18.814905,12.758591,14.695423,18.481491,15.735477,11.492107,10.265856,12.278461,33.081036,5.798522,22.866528,24.634499,-17.767399,22.753506,14.299815,17.971283,-6.251529,21.832392,10.359484,0.472843,19.433353,11.158893,-7.456405,0.000000,210.000000,4.000000,,,,0.000000,4.000000,4.000000,4.000000,4.000000,4.000000,4.000000,4.000000,4.000000,4.000000,4.000000,4.000000,2.000000,4.000000,4.000000,4.000000,4.000000,4.000000,4.000000,4.000000,4.000000,4.000000,4.000000,4.000000,4.000000,4.000000,4.000000,4.000000,4.000000,4.000000,4.000000,4.000000,4.000000,83.333336
1614491162.213711,15.000000,0.000000,1.169773,12.665943,6.711199,19.068645,14.541459,4.679744,16.598139,8.352927,6.770938,16.231987,11.720191,14.680727,17.950190,15.206921,-1.339898,10.768411,11.753363,25.355644,1.177339,13.100071,10.763711,-21.852194,20.166649,4.029105,17.440491,-9.835021,10.015688,5.733740,0.472370,9.670330,6.532349,-5.397666,0.000000,144.000000,4.000000,,,,0.000000,4.000000,4.000000,4.000000,4.000000,4.000000,4.000000,4.000000,4.000000,4.000000,4.000000,4.000000,2.000000,4.000000,4.000000,4.000000,4.000000,4.000000,4.000000,4.000000,4.000000,4.000000,4.000000,4.000000,4.000000,4.000000,4.000000,4.000000,4.000000,4.000000,4.000000,4.000000,4.000000,83.333336
1614491162.221560,16.000000,0.000000,-0.882679,12.140457,3.627565,14.947012,12.475636,4.675065,15.043079,7.831754,6.251347,10.061910,10.170010,11.589124,4.598905,12.114791,-21.851377,6.655078,8.151866,7.894392,-4.977684,4.881843,1.009357,-7.471368,15.531097,-2.641590,13.833306,-14.953392,-7.943045,4.189545,0.471898,9.147839,-0.653671,-14.110217,0.000000,184.000000,4.000000,,,,0.000000,4.000000,4.000000,4.000000,4.000000,4.000000,4.000000,4.000000,4.000000,4.000000,4.000000,4.000000,2.000000,4.000000,4.000000,4.000000,4.000000,4.000000,4.000000,4.000000,4.000000,4.000000,4.000000,4.000000,4.000000,4.000000,4.000000,4.000000,4.000000,4.000000,4.000000,4.000000,4.000000,83.333336
1614491162.229309,17.000000,0.000000,-2.933079,12.641137,10.290604,13.906424,12.463160,4.157569,12.463934,7.823922,6.757915,11.590309,9.647019,7.474970,-5.149283,8.512933,-22.342348,3.058679,4.041150,1.732651,-4.972706,6.415423,4.085271,17.151487,13.977105,-0.074846,10.229730,-11.348695,-8.447923,4.698176,0.471426,11.702793,1.911086,-10.506364,0.000000,205.000000,4.000000,,,,0.000000,4.000000,4.000000,4.000000,4.000000,4.000000,4.000000,4.000000,4.000000,4.000000,4.000000,4.000000,2.000000,4.000000,4.000000,4.000000,4.000000,4.000000,4.000000,4.000000,4.000000,4.000000,4.000000,4.000000,4.000000,4.000000,4.000000,4.000000,4.000000,4.000000,4.000000,4.000000,4.000000,83.333336
1614491162.237157,18.000000,0.000000,-0.366043,12.628496,30.280313,17.482262,15.527620,5.691873,11.938649,13.969944,8.802440,22.860769,12.201474,9.518778,4.086635,8.504419,2.808200,11.773569,4.037108,19.166817,3.237395,11.024392,11.773493,28.929209,14.988769,6.591895,11.245141,-3.645038,2.329756,4.693478,0.470955,12.716732,9.088662,4.888758,0.000000,188.000000,4.000000,,,,0.000000,4.000000,4.000000,4.000000,4.000000,4.000000,4.000000,4.000000,4.000000,4.000000,4.000000,4.000000,2.000000,4.000000,4.000000,4.000000,4.000000,4.000000,4.000000,4.000000,4.000000,4.000000,4.000000,4.000000,4.000000,4.000000,4.000000,4.000000,4.000000,4.000000,4.000000,4.000000,4.000000,83.333336
1614491162.244906,19.000000,0.000000,1.172785,12.615868,28.198751,23.105804,17.563374,8.250283,12.439531,22.673923,10.332099,30.530216,16.804657,11.560541,14.851779,11.060018,24.856674,24.582308,4.545892,34.019444,9.388003,13.577470,14.325822,23.259253,14.460959,8.123765,13.797998,-4.667034,6.942811,4.175963,0.470484,18.857861,11.643676,8.986433,0.000000,192.000000,4.000000,,,,0.000000,4.000000,4.000000,4.000000,4.000000,4.000000,4.000000,4.000000,4.000000,4.000000,4.000000,4.000000,2.000000,4.000000,4.000000,4.000000,4.000000,4.000000,4.000000,4.000000,4.000000,4.000000,4.000000,4.000000,4.000000,4.000000,4.000000,4.000000,4.000000,4.000000,4.000000,4.000000,4.000000,83.333336
1614491162.252755,20.000000,0.000000,-0.366850,13.116072,10.221834,27.185263,15.494529,8.754854,11.914271,22.651249,9.808947,27.935583,18.326315,11.036160,13.811287,12.074599,24.318996,27.121828,3.515705,35.011066,9.378615,14.076714,12.773035,8.877020,14.446499,9.141282,14.297021,-10.303392,5.910227,4.684608,0.470013,19.351824,10.093571,0.772319,0.000000,205.000000,4.000000,,,,0.000000,4.000000,4.000000,4.000000,4.000000,4.000000,4.000000,4.000000,4.000000,4.000000,4.000000,4.000000,2.000000,4.000000,4.000000,4.000000,4.000000,4.000000,4.000000,4.000000,4.000000,4.000000,4.000000,4.000000,4.000000,4.000000,4.000000,4.000000,4.000000,4.000000,4.000000,4.000000,4.000000,83.333336
1614491162.260504,21.000000,0.000000,2.197620,11.564494,7.134689,27.670898,12.914932,8.233278,11.902357,17.500393,11.337599,23.805084,17.795168,10.512303,12.771834,12.575345,13.525447,21.966501,5.050651,34.463234,9.369237,14.062636,16.862825,-0.362627,14.944873,16.824448,13.769903,-10.805910,5.904317,4.679924,0.469543,10.614523,3.929631,-7.946402,0.000000,158.000000,4.000000,,,,0.000000,4.000000,4.000000,4.000000,4.000000,4.000000,4.000000,4.000000,4.000000,4.000000,4.000000,4.000000,2.000000,4.000000,4.000000,4.000000,4.000000,4.000000,4.000000,4.000000,4.000000,4.000000,4.000000,4.000000,4.000000,4.000000,4.000000,4.000000,4.000000,4.000000,4.000000,4.000000,4.000000,83.333336
1614491162.268353,22.000000,0.000000,7.323627,8.988828,7.127554,22.002201,12.389196,8.225045,12.403275,15.431610,10.813440,22.242817,19.315834,11.527431,14.297523,13.075590,4.793973,19.893253,10.173805,36.992874,10.898329,14.561395,25.051092,-0.875084,14.929928,23.474291,14.268953,-9.769463,7.436874,4.675243,0.469074,12.655190,-0.689684,-12.553841,0.000000,193.000000,4.000000,,,,0.000000,4.000000,4.000000,4.000000,4.000000,4.000000,4.000000,4.000000,4.000000,4.000000,4.000000,4.000000,2.000000,4.000000,4.000000,4.000000,4.000000,4.000000,4.000000,4.000000,4.000000,4.000000,4.000000,4.000000,4.000000,4.000000,4.000000,4.000000,4.000000,4.000000,4.000000,4.000000,4.000000,83.333336
1614491162.276101,23.000000,0.000000,8.854765,8.467018,4.043504,15.313533,12.889627,8.216820,11.365231,14.903358,0.546217,21.707754,18.783697,11.003084,14.283226,12.549694,-2.903129,18.334898,12.727735,36.443062,10.374610,14.546833,26.564503,-0.361389,15.427818,19.861073,14.254684,-10.785335,6.916616,4.670568,0.468605,22.898947,4.439211,-12.541286,0.000000,222.000000,4.000000,,,,0.000000,4.000000,4.000000,4.000000,4.000000,4.000000,4.000000,4.000000,4.000000,4.000000,4.000000,4.000000,2.000000,4.000000,4.000000,4.000000,4.000000,4.000000,4.000000,4.000000,4.000000,4.000000,4.000000,4.000000,4.000000,4.000000,4.000000,4.000000,4.000000,4.000000,4.000000,4.000000,4.000000,83.333336
1614491162.283750,24.000000,0.000000,7.820270,8.971372,15.321511,17.349501,12.363917,8.208603,13.917968,16.939737,-3.044073,21.173225,16.200811,10.479260,13.756123,11.511503,0.176697,16.778103,11.176545,33.329693,8.312953,12.993825,21.922552,-0.873848,14.386749,13.174545,14.240430,-10.774549,6.396879,4.153077,0.468136,22.363226,10.588618,-9.964643,0.000000,180.000000,4.000000,,,,0.000000,4.000000,4.000000,4.000000,4.000000,4.000000,4.000000,4.000000,4.000000,4.000000,4.000000,4.000000,2.000000,4.000000,4.000000,4.000000,4.000000,4.000000,4.000000,4.000000,4.000000,4.000000,4.000000,4.000000,4.000000,4.000000,4.000000,4.000000,4.000000,4.000000,4.000000,4.000000,4.000000,83.333336
1614491162.291499,25.000000,0.000000,8.325270,8.962400,25.562601,23.998817,12.351554,8.713215,19.032255,19.486900,6.189741,21.152054,18.235893,10.981602,13.742367,15.089735,18.125238,21.376709,11.678189,35.347645,9.330281,12.980831,20.362169,3.229590,14.885183,13.161370,14.226190,-7.174031,6.390482,4.148924,0.467668,15.674196,10.578030,-6.364934,0.000000,212.000000,4.000000,,,,0.000000,4.000000,4.000000,4.000000,4.000000,4.000000,4.000000,4.000000,4.000000,4.000000,4.000000,4.000000,2.000000,4.000000,4.000000,4.000000,4.000000,4.000000,4.000000,4.000000,4.000000,4.000000,4.000000,4.000000,4.000000,4.000000,4.000000,4.000000,4.000000,4.000000,4.000000,4.000000,4.000000,83.333336
1614491162.299148,26.000000,0.000000,7.291304,8.440618,13.742166,19.359434,12.852022,7.166040,19.526043,14.339208,9.260474,21.130901,15.653554,10.457799,13.215804,16.100286,19.132755,20.842512,11.666511,32.748196,7.269669,13.993491,13.675139,12.969950,15.383119,8.020004,14.211964,-6.141216,6.384092,5.170416,0.467200,16.171343,10.054631,-4.820108,0.000000,205.000000,4.000000,,,,0.000000,4.000000,4.000000,4.000000,4.000000,4.000000,4.000000,4.000000,4.000000,4.000000,4.000000,4.000000,2.000000,4.000000,4.000000,4.000000,4.000000,4.000000,4.000000,4.000000,4.000000,4.000000,4.000000,4.000000,4.000000,4.000000,4.000000,4.000000,4.000000,4.000000,4.000000,4.000000,4.000000,83.333336
1614491162.306897,27.000000,0.000000,4.207089,8.944997,1.933552,9.596485,12.326350,5.107593,14.378312,6.119740,2.071726,16.494385,-2.823638,5.319136,13.715408,4.289314,-9.091507,1.847310,5.500998,14.766730,-5.558113,6.800010,-1.210330,23.726212,10.752351,-14.039298,14.197751,-7.160716,5.864887,3.626784,0.466733,17.693634,10.557397,-4.815288,0.000000,169.000000,4.000000,,,,0.000000,4.000000,4.000000,4.000000,4.000000,4.000000,4.000000,4.000000,4.000000,4.000000,4.000000,4.000000,2.000000,4.000000,4.000000,4.000000,4.000000,4.000000,4.000000,4.000000,4.000000,4.000000,4.000000,4.000000,4.000000,4.000000,4.000000,4.000000,4.000000,4.000000,4.000000,4.000000,4.000000,83.333336
1614491162.314546,28.000000,0.000000,3.690062,12.525796,6.547003,16.766376,12.826844,4.076844,11.287011,11.754646,2.582475,14.939429,-13.590045,4.288176,13.701693,-1.356001,-22.415749,-8.410948,0.367292,2.444271,-18.373068,-3.463200,-5.824504,25.753767,4.587752,-25.307310,14.183554,-4.076632,7.397484,4.648798,0.466266,16.650299,11.059660,-4.810472,0.000000,188.000000,4.000000,,,,0.000000,4.000000,4.000000,4.000000,4.000000,4.000000,4.000000,4.000000,4.000000,4.000000,4.000000,4.000000,2.000000,4.000000,4.000000,4.000000,4.000000,4.000000,4.000000,4.000000,4.000000,4.000000,4.000000,4.000000,4.000000,4.000000,4.000000,4.000000,4.000000,4.000000,4.000000,4.000000,4.000000,83.333336
1614491162.322295,29.000000,0.000000,4.199192,15.590193,16.284046,34.185509,14.865299,4.585588,12.301365,24.563404,8.733739,21.078337,4.885084,10.950555,13.687991,10.440228,-0.342051,10.571822,3.443848,21.416185,-6.559823,4.745391,9.053115,19.061346,6.121626,-1.179438,14.169370,3.106932,10.467010,14.387739,0.465800,16.633648,15.151164,-4.805662,0.000000,178.000000,4.000000,,,,0.000000,4.000000,4.000000,4.000000,4.000000,4.000000,4.000000,4.000000,4.000000,4.000000,4.000000,4.000000,2.000000,4.000000,4.000000,4.000000,4.000000,4.000000,4.000000,4.000000,4.000000,4.000000,4.000000,4.000000,4.000000,4.000000,4.000000,4.000000,4.000000,4.000000,4.000000,4.000000,4.000000,83.333336
1614491162.329944,30.000000,0.000000,4.194993,16.600245,19.344685,38.766705,16.388895,4.581002,14.340345,27.615765,11.289107,26.185463,29.495583,16.067810,15.212765,23.763121,19.658291,29.022789,10.619891,45.497334,20.113403,28.843210,21.864574,10.324336,11.243710,25.488407,14.155201,4.642286,11.482183,20.527199,0.465334,16.104195,18.725758,-5.313677,0.000000,165.000000,4.000000,,,,0.000000,4.000000,4.000000,4.000000,4.000000,4.000000,4.000000,4.000000,4.000000,4.000000,4.000000,4.000000,2.000000,4.000000,4.000000,4.000000,4.000000,4.000000,4.000000,4.000000,4.000000,4.000000,4.000000,4.000000,4.000000,4.000000,4.000000,4.000000,4.000000,4.000000,4.000000,4.000000,4.000000,83.333336
1614491162.337693,31.000000,0.000000,4.190798,16.070824,13.171494,30.009991,16.372507,4.576421,15.351646,25.024046,10.252177,25.133636,32.543011,17.590202,17.761654,25.790640,21.177095,28.993767,13.173373,42.374912,24.708675,37.019497,21.842710,-0.968039,11.745286,24.950098,14.141046,1.560721,9.419419,14.352824,0.464869,16.600910,17.168570,-4.795543,0.000000,191.000000,4.000000,,,,0.000000,4.000000,4.000000,4.000000,4.000000,4.000000,4.000000,4.000000,4.000000,4.000000,4.000000,4.000000,2.000000,4.000000,4.000000,4.000000,4.000000,4.000000,4.000000,4.000000,4.000000,4.000000,4.000000,4.000000,4.000000,4.000000,4.000000,4.000000,4.000000,4.000000,4.000000,4.000000,4.000000,83.333336
1614491162.345341,32.000000,0.000000,4.186607,16.054752,7.517297,25.877417,16.356134,4.571845,16.361937,26.537483,8.190643,25.108503,22.254057,19.623896,17.231071,19.098183,17.566174,28.451952,6.493534,29.512026,7.760889,26.213245,19.769585,-9.172199,10.707900,16.720020,11.049981,0.020699,10.435641,7.671805,0.464404,17.097130,14.587298,-4.790747,8064.000000,0.000000,4.000000,,,,0.000000,4.000000,4.000000,4.000000,4.000000,4.000000,4.000000,4.000000,4.000000,4.000000,4.000000,4.000000,2.000000,4.000000,4.000000,4.000000,4.000000,4.000000,4.000000,4.000000,4.000000,4.000000,4.000000,4.000000,4.000000,4.000000,4.000000,4.000000,4.000000,4.000000,4.000000,4.000000,4.000000,83.333336
1614491162.353090,33.000000,0.000000,4.695241,16.038698,10.073882,27.390001,16.852598,4.567273,16.858395,27.536587,12.797837,27.134676,14.026675,15.501707,11.572816,7.797032,11.907582,29.961962,-3.256550,28.456873,-0.452000,23.110109,19.749815,-2.496361,11.210012,18.754581,8.474829,1.046319,11.450847,8.176954,0.463939,13.490289,14.059891,-6.324418,8192.000000,0.000000,4.000000,,,,0.000000,4.000000,4.000000,4.000000,4.000000,4.000000,4.000000,4.000000,4.000000,4.000000,4.000000,4.000000,2.000000,4.000000,4.000000,4.000000,4.000000,4.000000,4.000000,4.000000,4.000000,4.000000,4.000000,4.000000,4.000000,4.000000,4.000000,4.000000,4.000000,4.000000,4.000000,4.000000,4.000000,83.333336
1614491162.360739,34.000000,0.000000,4.690546,16.022659,10.063808,26.336969,17.348566,4.562706,15.303075,24.432127,22.528629,24.543440,8.884443,6.768256,4.894576,2.148210,5.741828,25.316614,-6.843037,30.479698,3.138196,24.112640,14.089040,4.172802,12.737265,17.197367,7.440713,0.532452,-0.355476,9.707238,0.463476,9.374235,14.558651,-3.753991,8064.000000,0.000000,4.000000,,,,0.000000,4.000000,4.000000,4.000000,4.000000,4.000000,4.000000,4.000000,4.000000,4.000000,4.000000,4.000000,2.000000,4.000000,4.000000,4.000000,4.000000,4.000000,4.000000,4.000000,4.000000,4.000000,4.000000,4.000000,4.000000,4.000000,4.000000,4.000000,4.000000,4.000000,4.000000,4.000000,4.000000,83.333336
1614491162.368488,35.000000,0.000000,4.173035,16.006636,11.079386,24.772171,16.305576,4.558143,12.210849,23.382053,22.506100,22.467613,6.824277,3.171745,3.351220,2.146062,6.248907,22.214375,-6.323373,28.397936,3.135057,11.780834,8.433926,0.578886,12.724527,8.975040,6.407631,0.019099,-13.688454,8.159070,0.463012,8.852040,15.056913,3.429250,8192.000000,0.000000,4.000000,,,,0.000000,4.000000,4.000000,4.000000,4.000000,4.000000,4.000000,4.000000,4.000000,4.000000,4.000000,4.000000,2.000000,4.000000,4.000000,4.000000,4.000000,4.000000,4.000000,4.000000,4.000000,4.000000,4.000000,4.000000,4.000000,4.000000,4.000000,4.000000,4.000000,4.000000,4.000000,4.000000,4.000000,83.333336
1614491162.376137,36.000000,0.000000,4.681682,15.990629,24.914459,27.311502,16.289272,4.553585,13.224278,20.794569,14.278466,22.957966,8.355914,3.681393,3.347869,-1.445828,4.191376,21.166519,-6.829870,25.805435,1.080640,0.487002,6.374209,8.270615,8.609239,2.812220,7.939685,0.531901,-11.623484,6.099628,0.462549,8.843188,12.477754,7.015564,8064.000000,0.000000,4.000000,,,,0.000000,4.000000,4.000000,4.000000,4.000000,4.000000,4.000000,4.000000,4.000000,4.000000,4.000000,4.000000,2.000000,4.000000,4.000000,4.000000,4.000000,4.000000,4.000000,4.000000,4.000000,4.000000,4.000000,4.000000,4.000000,4.000000,4.000000,4.000000,4.000000,4.000000,4.000000,4.000000,4.000000,83.333336
1614491162.383886,37.000000,0.000000,5.189821,15.974639,33.094673,25.232908,17.811443,4.549031,10.134131,15.132750,13.751368,13.191419,-0.370390,-1.450493,-3.834966,-7.598228,-11.710251,9.863302,-7.848681,13.471937,-9.689672,-6.180151,-4.914216,21.082857,5.010885,-9.498285,7.418925,0.531369,-4.432373,5.580709,0.462086,9.859986,8.362712,5.982908,8064.000000,0.000000,4.000000,,,,0.000000,4.000000,4.000000,4.000000,4.000000,4.000000,4.000000,4.000000,4.000000,4.000000,4.000000,4.000000,2.000000,4.000000,4.000000,4.000000,4.000000,4.000000,4.000000,4.000000,4.000000,4.000000,4.000000,4.000000,4.000000,4.000000,4.000000,4.000000,4.000000,4.000000,4.000000,4.000000,4.000000,83.333336
1614491162.391535,38.000000,0.000000,0.056426,15.958664,22.805168,11.874342,13.691068,5.057302,-1.670875,7.938129,14.250436,-3.744849,-23.959764,-9.141351,-11.523438,-16.821400,-36.826744,-9.633741,-10.917756,-17.310764,-37.885109,-27.199612,-29.524687,3.113056,2.954592,-38.206734,-1.819263,1.556479,-4.427940,1.472564,0.461624,11.901408,6.815887,5.976925,8064.000000,0.000000,4.000000,,,,0.000000,4.000000,4.000000,4.000000,4.000000,4.000000,4.000000,4.000000,4.000000,4.000000,4.000000,4.000000,2.000000,4.000000,4.000000,4.000000,4.000000,4.000000,4.000000,4.000000,4.000000,4.000000,4.000000,4.000000,4.000000,4.000000,4.000000,4.000000,4.000000,4.000000,4.000000,4.000000,4.000000,83.333336
1614491162.399384,39.000000,0.000000,-7.123118,15.429885,17.141338,2.118878,2.908146,3.000963,-10.899973,2.801986,10.646442,-9.894951,-45.474266,-15.286056,-13.050377,-32.189194,-55.251457,-21.931799,-22.188889,-40.370377,-57.334404,-47.685234,-47.956699,-29.197748,-10.894516,-62.271091,-11.561033,0.529281,-2.885051,-5.195576,0.461163,13.427968,4.757790,6.483768,8192.000000,0.000000,4.000000,,,,0.000000,4.000000,4.000000,4.000000,4.000000,4.000000,4.000000,4.000000,4.000000,4.000000,4.000000,4.000000,2.000000,4.000000,4.000000,4.000000,4.000000,4.000000,4.000000,4.000000,4.000000,4.000000,4.000000,4.000000,4.000000,4.000000,4.000000,4.000000,4.000000,4.000000,4.000000,4.000000,4.000000,83.333336
1614491162.407133,40.000000,0.000000,-7.628815,16.440096,17.637016,3.142400,-2.735787,0.946680,-10.376252,0.747902,10.635796,-8.859415,-44.403149,-16.809231,-13.037327,-34.721107,-56.734669,-20.371407,-26.782085,-31.612059,-48.046299,-38.406780,-40.729256,-39.424961,-30.883621,-55.029335,-13.087934,-0.496889,0.194757,-7.241662,0.460702,12.901719,-0.375173,5.964464,8064.000000,0.000000,4.000000,,,,0.000000,4.000000,4.000000,4.000000,4.000000,4.000000,4.000000,4.000000,4.000000,4.000000,4.000000,4.000000,2.000000,4.000000,4.000000,4.000000,4.000000,4.000000,4.000000,4.000000,4.000000,4.000000,4.000000,4.000000,4.000000,4.000000,4.000000,4.000000,4.000000,4.000000,4.000000,4.000000,4.000000,83.333336
1614491162.414982,41.000000,0.000000,-4.031443,15.910835,7.362970,3.652078,-2.220231,0.432913,-7.288953,2.285615,8.061057,-8.850555,-23.845926,-10.638576,-7.383264,-16.737667,-45.395882,-11.633086,-11.370687,-11.580446,-29.023895,-11.188885,-12.996220,-37.847076,-29.314276,-25.743536,-11.023564,1.554890,-0.318258,-4.157497,0.460241,13.401638,-1.913260,5.445679,8064.000000,0.000000,4.000000,,,,0.000000,4.000000,4.000000,4.000000,4.000000,4.000000,4.000000,4.000000,4.000000,4.000000,4.000000,4.000000,2.000000,4.000000,4.000000,4.000000,4.000000,4.000000,4.000000,4.000000,4.000000,4.000000,4.000000,4.000000,4.000000,4.000000,4.000000,4.000000,4.000000,4.000000,4.000000,4.000000,4.000000,83.333336
1614491162.422730,42.000000,0.000000,-4.027411,12.305182,-3.926445,-0.454138,-2.218011,0.945300,-6.256023,4.334612,0.873509,-1.662218,-0.745157,-0.371526,3.906171,1.227788,-23.299204,0.173419,7.102221,1.251647,-11.558974,3.694099,8.042418,-31.655382,-6.208039,-7.256254,-12.038181,-2.036409,-0.317940,-2.614878,-1.078681,12.362596,-0.885705,5.440234,8064.000000,0.000000,4.000000,,,,0.000000,4.000000,4.000000,4.000000,4.000000,4.000000,4.000000,4.000000,4.000000,4.000000,4.000000,4.000000,2.000000,4.000000,4.000000,4.000000,4.000000,4.000000,4.000000,4.000000,4.000000,4.000000,4.000000,4.000000,4.000000,4.000000,4.000000,4.000000,4.000000,4.000000,4.000000,4.000000,4.000000,83.333336
1614491162.430579,43.000000,0.000000,-6.587486,8.703133,-6.999441,-0.966504,-2.215793,0.944355,-6.249767,3.817457,-1.178646,7.057393,8.999177,5.782691,9.030470,10.457330,4.416403,13.506578,8.633581,15.096549,2.811559,3.177584,11.624119,-7.008342,10.208426,-1.607972,-12.538964,-14.342065,-1.343263,-2.612263,-3.128884,9.786131,-0.884820,6.460434,8064.000000,0.000000,4.000000,,,,0.000000,4.000000,4.000000,4.000000,4.000000,4.000000,4.000000,4.000000,4.000000,4.000000,4.000000,4.000000,2.000000,4.000000,4.000000,4.000000,4.000000,4.000000,4.000000,4.000000,4.000000,4.000000,4.000000,4.000000,4.000000,4.000000,4.000000,4.000000,4.000000,4.000000,4.000000,4.000000,4.000000,83.333336
1614491162.438328,44.000000,0.000000,-7.093719,8.181609,-2.377057,3.137026,-2.213577,0.943411,-6.243517,4.326460,-4.254391,7.050336,7.964537,7.315370,6.457337,15.575077,22.873526,23.749483,4.009562,28.414785,7.936953,3.687227,13.150956,23.255077,10.198217,6.598764,-7.398220,-19.455927,-8.521407,-3.122472,-3.638576,8.750704,-0.371114,5.941154,8064.000000,0.000000,4.000000,,,,0.000000,4.000000,4.000000,4.000000,4.000000,4.000000,4.000000,4.000000,4.000000,4.000000,4.000000,4.000000,2.000000,4.000000,4.000000,4.000000,4.000000,4.000000,4.000000,4.000000,4.000000,4.000000,4.000000,4.000000,4.000000,4.000000,4.000000,4.000000,4.000000,4.000000,4.000000,4.000000,4.000000,83.333336
1614491162.446177,45.000000,0.000000,-6.060985,8.173428,13.009935,7.236454,-2.211364,1.455288,-3.673172,4.322134,-8.352700,11.145849,8.982214,7.820875,7.476521,18.636425,26.440395,27.315477,6.056835,31.463295,11.518760,15.991233,15.701908,34.513874,4.034173,14.797294,1.327127,-8.667241,-12.615450,-2.093708,-2.609296,9.254773,0.654898,4.909571,8192.000000,0.000000,4.000000,,,,0.000000,4.000000,4.000000,4.000000,4.000000,4.000000,4.000000,4.000000,4.000000,4.000000,4.000000,4.000000,2.000000,4.000000,4.000000,4.000000,4.000000,4.000000,4.000000,4.000000,4.000000,4.000000,4.000000,4.000000,4.000000,4.000000,4.000000,4.000000,4.000000,4.000000,4.000000,4.000000,4.000000,83.333336
1614491162.453926,46.000000,0.000000,-6.567744,9.703715,24.278976,8.254858,0.867771,0.941012,-1.618216,4.317811,-0.652040,21.903934,9.998873,9.351516,7.469044,20.156250,27.439596,26.775341,5.537958,33.483112,18.686728,25.718830,15.173386,21.146027,5.055779,15.808137,6.966825,3.136298,-10.038732,0.472488,-0.555405,9.245519,5.782448,10.545688,8064.000000,0.000000,4.000000,,,,0.000000,4.000000,4.000000,4.000000,4.000000,4.000000,4.000000,4.000000,4.000000,4.000000,4.000000,4.000000,2.000000,4.000000,4.000000,4.000000,4.000000,4.000000,4.000000,4.000000,4.000000,4.000000,4.000000,4.000000,4.000000,4.000000,4.000000,4.000000,4.000000,4.000000,4.000000,4.000000,4.000000,83.333336
1614491162.461774,47.000000,0.000000,-6.561176,14.309396,21.690596,7.220962,5.482288,0.940071,-2.129419,4.826314,12.169125,21.369209,6.911951,7.290882,-1.256374,12.956607,23.309591,26.235744,-3.185529,36.526554,16.103939,19.539267,13.619751,-2.464864,12.230211,13.741047,7.472679,5.184443,-7.464590,0.472016,0.983612,8.723453,12.443333,17.201809,8064.000000,0.000000,4.000000,,,,0.000000,4.000000,4.000000,4.000000,4.000000,4.000000,4.000000,4.000000,4.000000,4.000000,4.000000,4.000000,2.000000,4.000000,4.000000,4.000000,4.000000,4.000000,4.000000,4.000000,4.000000,4.000000,4.000000,4.000000,4.000000,4.000000,4.000000,4.000000,4.000000,4.000000,4.000000,4.000000,4.000000,83.333336
1614491162.469523,48.000000,0.000000,-6.554615,16.346369,18.079161,7.726562,3.425523,1.964772,-2.127289,3.283026,15.233879,9.552969,0.238372,0.616925,-10.485887,-8.594811,4.311924,23.132586,-10.361831,29.823360,3.267322,6.186393,3.862541,-16.821373,10.166698,5.009357,7.465207,0.051054,-7.969946,-2.092559,-0.555833,9.740370,12.943709,13.594863,8064.000000,0.000000,4.000000,,,,0.000000,4.000000,4.000000,4.000000,4.000000,4.000000,4.000000,4.000000,4.000000,4.000000,4.000000,4.000000,2.000000,4.000000,4.000000,4.000000,4.000000,4.000000,4.000000,4.000000,4.000000,4.000000,4.000000,4.000000,4.000000,4.000000,4.000000,4.000000,4.000000,4.000000,4.000000,4.000000,4.000000,83.333336
1614491162.477372,49.000000,0.000000,-6.548061,15.817202,18.061083,8.231656,-1.706107,-0.601295,-2.125162,1.228461,14.193004,0.312647,-11.043918,-3.486256,-13.039503,-25.509293,-17.230850,10.801761,-10.864289,13.896100,-11.094920,-5.101844,-12.551578,-22.445578,-2.663981,-14.995652,7.970562,-4.051561,-7.449156,-3.116107,-2.606559,8.192168,10.879483,6.401781,8064.000000,0.000000,4.000000,,,,0.000000,4.000000,4.000000,4.000000,4.000000,4.000000,4.000000,4.000000,4.000000,4.000000,4.000000,4.000000,2.000000,4.000000,4.000000,4.000000,4.000000,4.000000,4.000000,4.000000,4.000000,4.000000,4.000000,4.000000,4.000000,4.000000,4.000000,4.000000,4.000000,4.000000,4.000000,4.000000,4.000000,83.333336
1614491162.485121,50.000000,0.000000,-6.541512,15.801385,15.478918,7.197783,-2.217222,-5.216079,-2.123037,0.201592,10.589067,-3.277409,-24.879028,-3.995590,-12.000823,-25.996605,-31.059772,-6.132118,-10.853425,-4.066514,-29.545362,-16.891615,-20.231333,-22.935953,-8.302342,-31.903734,7.449771,-6.098792,-8.980168,-2.087350,-3.116773,5.619874,10.868605,5.882558,8064.000000,0.000000,4.000000,,,,0.000000,4.000000,4.000000,4.000000,4.000000,4.000000,4.000000,4.000000,4.000000,4.000000,4.000000,4.000000,2.000000,4.000000,4.000000,4.000000,4.000000,4.000000,4.000000,4.000000,4.000000,4.000000,4.000000,4.000000,4.000000,4.000000,4.000000,4.000000,4.000000,4.000000,4.000000,4.000000,4.000000,83.333336
1614491162.492970,51.000000,0.000000,-7.047791,16.298405,14.437799,7.190585,-1.189363,-7.262145,-2.633734,0.714211,0.322068,-6.863875,-33.059277,-7.581338,-11.988822,-24.432146,-43.336407,-18.946499,-15.457956,-20.985523,-43.361973,-26.618313,-24.313667,-10.092504,-6.755579,-39.051315,6.416680,-7.631155,-11.022470,-3.110904,-5.677759,7.152715,9.319274,6.389496,8064.000000,0.000000,4.000000,,,,0.000000,4.000000,4.000000,4.000000,4.000000,4.000000,4.000000,4.000000,4.000000,4.000000,4.000000,4.000000,2.000000,4.000000,4.000000,4.000000,4.000000,4.000000,4.000000,4.000000,4.000000,4.000000,4.000000,4.000000,4.000000,4.000000,4.000000,4.000000,4.000000,4.000000,4.000000,4.000000,4.000000,83.333336
1614491162.500718,52.000000,0.000000,-6.527923,15.769285,11.346437,9.234676,-1.700995,-6.229241,-2.631100,0.200676,-5.832100,-9.421114,-34.051857,-12.189142,-13.002474,-25.946177,-49.959736,-21.491655,-20.057882,-26.605564,-44.344250,-34.284000,-35.571404,7.353486,-10.851387,-45.166111,6.410264,-5.572241,-11.524268,-6.184716,-6.697722,9.196844,6.233032,4.844646,8064.000000,0.000000,4.000000,,,,0.000000,4.000000,4.000000,4.000000,4.000000,4.000000,4.000000,4.000000,4.000000,4.000000,4.000000,4.000000,2.000000,4.000000,4.000000,4.000000,4.000000,4.000000,4.000000,4.000000,4.000000,4.000000,4.000000,4.000000,4.000000,4.000000,4.000000,4.000000,4.000000,4.000000,4.000000,4.000000,4.000000,83.333336
1614491162.508567,53.000000,0.000000,-6.521395,15.753515,4.155604,10.763904,-2.724935,-6.223012,-2.115649,0.200475,-3.774986,-9.411694,-36.069088,-11.664132,-11.963831,-25.920229,-48.884136,-20.957342,-15.422441,-23.502035,-43.787086,-42.454845,-38.099934,12.474338,-19.558485,-45.633766,5.891033,0.074357,-17.153769,-6.178532,-4.639742,9.187648,6.226799,5.352622,8064.000000,0.000000,4.000000,,,,0.000000,4.000000,4.000000,4.000000,4.000000,4.000000,4.000000,4.000000,4.000000,4.000000,4.000000,4.000000,2.000000,4.000000,4.000000,4.000000,4.000000,4.000000,4.000000,4.000000,4.000000,4.000000,4.000000,4.000000,4.000000,4.000000,4.000000,4.000000,4.000000,4.000000,4.000000,4.000000,4.000000,83.333336
1614491162.516316,54.000000,0.000000,-8.053335,15.224941,2.100166,10.240319,-2.722210,-6.729609,-3.139174,0.200275,-1.719929,-7.863820,-32.956097,-11.139647,-3.746739,-18.202002,-51.399353,-22.474846,-3.612146,-22.965714,-44.256119,-39.335468,-24.215681,18.102888,-23.128670,-32.767620,-0.268705,-1.977000,-19.187899,-6.685174,-3.609462,8.665639,4.682110,3.808807,8064.000000,0.000000,4.000000,,,,0.000000,4.000000,4.000000,4.000000,4.000000,4.000000,4.000000,4.000000,4.000000,4.000000,4.000000,4.000000,2.000000,4.000000,4.000000,4.000000,4.000000,4.000000,4.000000,4.000000,4.000000,4.000000,4.000000,4.000000,4.000000,4.000000,4.000000,4.000000,4.000000,4.000000,4.000000,4.000000,4.000000,83.333336
1614491162.523965,55.000000,0.000000,-4.968359,15.722537,3.123707,11.255720,-1.693846,-6.722880,-3.136035,-0.312746,-1.205389,-9.394418,-11.384679,-7.025944,7.026239,0.277739,-49.296673,-15.785705,5.622235,-18.840183,-30.365709,-16.219210,-4.191466,22.187349,-19.002977,-13.247672,-4.883821,-10.180151,-13.527684,-6.678488,-1.041750,9.169794,1.087685,-6.451412,8064.000000,0.000000,4.000000,,,,0.000000,4.000000,4.000000,4.000000,4.000000,4.000000,4.000000,4.000000,4.000000,4.000000,4.000000,4.000000,2.000000,4.000000,4.000000,4.000000,4.000000,4.000000,4.000000,4.000000,4.000000,4.000000,4.000000,4.000000,4.000000,4.000000,4.000000,4.000000,4.000000,4.000000,4.000000,4.000000,4.000000,83.333336
1614491162.531714,56.000000,0.000000,4.267378,15.706815,2.094942,10.218823,-2.204973,-6.203337,3.020947,1.226028,-1.717004,-7.846562,19.908756,5.801595,11.121777,17.200539,-28.221735,10.383927,11.257639,1.178657,-1.104575,15.591882,18.889648,8.831830,-5.650640,10.355319,0.249268,-11.195612,-8.898772,-0.517964,6.138779,9.160625,5.701982,-9.521884,8064.000000,0.000000,4.000000,,,,0.000000,4.000000,4.000000,4.000000,4.000000,4.000000,4.000000,4.000000,4.000000,4.000000,4.000000,4.000000,2.000000,4.000000,4.000000,4.000000,4.000000,4.000000,4.000000,4.000000,4.000000,4.000000,4.000000,4.000000,4.000000,4.000000,4.000000,4.000000,4.000000,4.000000,4.000000,4.000000,4.000000,83.333336
1614491162.539363,57.000000,0.000000,9.391316,15.178288,8.759514,10.208604,-2.715589,-4.658672,8.658952,6.353007,-1.715287,7.033080,36.811924,17.590666,10.085014,25.388466,4.114180,43.194057,16.887407,33.997990,27.614479,40.191673,35.793835,-8.612900,9.739626,34.960350,12.556711,-5.030570,-5.300129,7.687683,8.696743,9.151464,17.491152,3.820972,8064.000000,0.000000,4.000000,,,,0.000000,4.000000,4.000000,4.000000,4.000000,4.000000,4.000000,4.000000,4.000000,4.000000,4.000000,4.000000,2.000000,4.000000,4.000000,4.000000,4.000000,4.000000,4.000000,4.000000,4.000000,4.000000,4.000000,4.000000,4.000000,4.000000,4.000000,4.000000,4.000000,4.000000,4.000000,4.000000,4.000000,83.333336
1614491162.547112,58.000000,0.000000,7.843463,16.188749,22.084087,21.993267,3.440973,-3.115552,8.650293,13.526141,8.030018,25.487585,38.826397,19.624357,10.587749,34.081024,36.417759,62.638042,20.460262,63.194763,43.997120,52.971996,38.834965,-14.245313,20.499117,47.745899,20.236462,-2.461437,5.474401,9.218456,8.175225,9.142312,22.089045,17.663305,8192.000000,0.000000,4.000000,,,,0.000000,4.000000,4.000000,4.000000,4.000000,4.000000,4.000000,4.000000,4.000000,4.000000,4.000000,4.000000,2.000000,4.000000,4.000000,4.000000,4.000000,4.000000,4.000000,4.000000,4.000000,4.000000,4.000000,4.000000,4.000000,4.000000,4.000000,4.000000,4.000000,4.000000,4.000000,4.000000,4.000000,83.333336
1614491162.554761,59.000000,0.000000,7.835620,18.736664,26.677389,38.381531,13.181122,-0.035513,12.744206,18.640820,22.893784,31.103123,38.274750,18.579092,10.577162,37.123867,58.945442,61.036942,19.414162,71.336693,50.106968,54.457485,39.308952,-9.615683,26.632463,48.723797,21.241867,-3.484617,13.161235,8.183597,8.167050,9.645990,21.554134,18.671282,8192.000000,0.000000,4.000000,,,,0.000000,4.000000,4.000000,4.000000,4.000000,4.000000,4.000000,4.000000,4.000000,4.000000,4.000000,4.000000,2.000000,4.000000,4.000000,4.000000,4.000000,4.000000,4.000000,4.000000,4.000000,4.000000,4.000000,4.000000,4.000000,4.000000,4.000000,4.000000,4.000000,4.000000,4.000000,4.000000,4.000000,83.333336
1614491162.562509,60.000000,0.000000,8.853425,18.205107,23.573788,40.907253,17.783325,4.067087,19.398129,19.647821,24.409351,29.533558,36.185192,18.560513,10.053764,25.804693,64.014702,54.822060,14.779363,68.188438,49.031223,48.249180,34.141438,6.291369,30.708395,47.136612,21.733446,-3.481132,7.507048,8.688233,5.594781,9.123524,24.096684,14.037227,8192.000000,0.000000,4.000000,,,,0.000000,4.000000,4.000000,4.000000,4.000000,4.000000,4.000000,4.000000,4.000000,4.000000,4.000000,4.000000,2.000000,4.000000,4.000000,4.000000,4.000000,4.000000,4.000000,4.000000,4.000000,4.000000,4.000000,4.000000,4.000000,4.000000,4.000000,4.000000,4.000000,4.000000,4.000000,4.000000,4.000000,83.333336
1614491162.570158,61.000000,0.000000,5.767649,15.622799,19.960470,37.276600,16.739901,5.088661,19.378731,18.602531,18.231096,30.016846,27.431057,19.054771,10.043711,17.573759,54.719917,53.228775,7.585096,65.043327,36.161678,33.329136,16.671398,22.182514,30.677687,33.756142,22.737352,-2.452010,-1.218408,8.679545,4.563545,9.627221,26.636690,14.023190,8192.000000,0.000000,4.000000,,,,0.000000,4.000000,4.000000,4.000000,4.000000,4.000000,4.000000,4.000000,4.000000,4.000000,4.000000,4.000000,2.000000,4.000000,4.000000,4.000000,4.000000,4.000000,4.000000,4.000000,4.000000,4.000000,4.000000,4.000000,4.000000,4.000000,4.000000,4.000000,4.000000,4.000000,4.000000,4.000000,4.000000,83.333336
1614491162.577907,62.000000,0.000000,3.710599,15.094356,18.914869,38.777786,16.723162,4.570751,16.795250,19.609570,18.725685,29.986828,13.044652,19.035717,10.033667,15.504904,40.306225,39.842213,2.962126,46.003922,10.997311,10.731706,0.757291,23.698793,26.031624,3.978795,19.124872,-2.449558,-3.781292,8.670866,7.635905,12.694517,25.071590,16.060448,8064.000000,0.000000,4.000000,,,,0.000000,4.000000,4.000000,4.000000,4.000000,4.000000,4.000000,4.000000,4.000000,4.000000,4.000000,4.000000,2.000000,4.000000,4.000000,4.000000,4.000000,4.000000,4.000000,4.000000,4.000000,4.000000,4.000000,4.000000,4.000000,4.000000,4.000000,4.000000,4.000000,4.000000,4.000000,4.000000,4.000000,83.333336
1614491162.585556,63.000000,0.000000,3.706888,15.592082,18.383133,33.610802,18.244900,4.566181,15.752813,20.102781,17.168497,27.905560,-0.301726,15.426938,10.023633,2.668886,20.265919,16.725447,1.420703,18.265612,-8.500866,-4.663641,-5.397313,20.085350,15.749183,-16.025185,14.490363,-2.959929,-4.290331,8.662195,6.602628,13.194643,25.046520,8.352080,8064.000000,0.000000,4.000000,,,,0.000000,4.000000,4.000000,4.000000,4.000000,4.000000,4.000000,4.000000,4.000000,4.000000,4.000000,4.000000,2.000000,4.000000,4.000000,4.000000,4.000000,4.000000,4.000000,4.000000,4.000000,4.000000,4.000000,4.000000,4.000000,4.000000,4.000000,4.000000,4.000000,4.000000,4.000000,4.000000,4.000000,83.333336
1614491162.593305,64.000000,0.000000,3.703182,15.576489,17.339109,21.782320,13.611270,5.074435,10.096035,13.928832,6.894919,19.159706,-6.968091,8.744844,10.013609,-11.692757,0.245652,6.452312,-2.170461,9.529396,-15.159032,-10.300003,-10.007300,15.962701,4.451382,-17.034800,12.937411,-2.444148,-4.286041,7.115071,4.031922,8.566064,23.483011,-6.528067,0.000000,196.000000,4.000000,,,,0.000000,4.000000,4.000000,4.000000,4.000000,4.000000,4.000000,4.000000,4.000000,4.000000,4.000000,4.000000,2.000000,4.000000,4.000000,4.000000,4.000000,4.000000,4.000000,4.000000,4.000000,4.000000,4.000000,4.000000,4.000000,4.000000,4.000000,4.000000,4.000000,4.000000,4.000000,4.000000,4.000000,83.333336
1614491162.600954,65.000000,0.000000,4.725120,15.048093,16.808950,19.196436,4.366889,4.556540,4.444913,4.684134,1.759819,2.217469,-8.499584,6.171997,10.003595,-11.168243,-13.600747,4.907398,-6.270855,5.417303,-21.297718,-15.417909,-12.048575,0.562123,0.344367,-22.145969,13.950114,-2.441704,-3.768934,5.056674,4.540711,4.967754,12.690298,-12.675385,0.000000,207.000000,4.000000,,,,0.000000,4.000000,4.000000,4.000000,4.000000,4.000000,4.000000,4.000000,4.000000,4.000000,4.000000,4.000000,2.000000,4.000000,4.000000,4.000000,4.000000,4.000000,4.000000,4.000000,4.000000,4.000000,4.000000,4.000000,4.000000,4.000000,4.000000,4.000000,4.000000,4.000000,4.000000,4.000000,4.000000,83.333336
1614491162.608703,66.000000,0.000000,5.233215,15.545865,14.228039,14.049034,0.259958,4.551983,4.440468,3.653809,3.809341,-8.553979,-11.055187,7.191466,10.506413,-9.618614,-27.946121,-5.866740,-6.777405,-13.562473,-29.481550,-20.530695,-13.574988,-19.438440,-2.220080,-39.046902,13.423344,-6.029006,-4.277986,4.538797,1.459247,4.962786,-2.194187,-15.226812,0.000000,199.000000,4.000000,,,,0.000000,4.000000,4.000000,4.000000,4.000000,4.000000,4.000000,4.000000,4.000000,4.000000,4.000000,4.000000,2.000000,4.000000,4.000000,4.000000,4.000000,4.000000,4.000000,4.000000,4.000000,4.000000,4.000000,4.000000,4.000000,4.000000,4.000000,4.000000,4.000000,4.000000,4.000000,4.000000,4.000000,83.333336
1614491162.616352,67.000000,0.000000,2.663879,15.530319,4.470221,-2.888092,1.798160,4.547431,3.923208,4.675797,-2.861135,-8.545425,-14.633876,7.184275,9.983086,-11.147457,-38.174583,-17.142925,-6.770627,-25.856604,-34.067451,-22.048626,-16.638336,-28.649771,-9.910168,-45.161701,13.409921,-10.125541,-7.863451,2.995797,-3.157597,5.983464,-9.371480,-21.365431,0.000000,174.000000,4.000000,,,,0.000000,4.000000,4.000000,4.000000,4.000000,4.000000,4.000000,4.000000,4.000000,4.000000,4.000000,4.000000,2.000000,4.000000,4.000000,4.000000,4.000000,4.000000,4.000000,4.000000,4.000000,4.000000,4.000000,4.000000,4.000000,4.000000,4.000000,4.000000,4.000000,4.000000,4.000000,4.000000,4.000000,83.333336
1614491162.624201,68.000000,0.000000,7.276600,15.514789,-5.277839,-8.526230,1.796362,4.542884,0.842361,-1.995546,-8.499300,-8.536880,-16.157703,6.664270,10.485923,-3.444002,-34.033848,-10.971935,-5.225395,-18.651258,-30.956461,-19.462475,-9.442210,-21.441633,-11.951539,-32.808846,13.909331,-10.628236,-8.881229,0.428698,1.973766,7.003122,-6.798006,-15.703041,0.000000,197.000000,4.000000,,,,0.000000,4.000000,4.000000,4.000000,4.000000,4.000000,4.000000,4.000000,4.000000,4.000000,4.000000,4.000000,2.000000,4.000000,4.000000,4.000000,4.000000,4.000000,4.000000,4.000000,4.000000,4.000000,4.000000,4.000000,4.000000,4.000000,4.000000,4.000000,4.000000,4.000000,4.000000,4.000000,4.000000,83.333336
1614491162.631950,69.000000,0.000000,13.935990,16.012094,-2.708459,-0.312575,1.281745,5.051162,0.841519,-8.147397,-4.388236,-8.528343,-15.115905,7.170426,11.501079,7.841494,-22.717762,7.500575,-0.604785,-5.299275,-18.104992,-7.648141,6.464668,-0.907371,-3.734460,-14.314499,13.895422,-10.104787,-6.821066,0.941090,8.638459,9.560222,-2.688644,-5.943748,0.000000,208.000000,4.000000,,,,0.000000,4.000000,4.000000,4.000000,4.000000,4.000000,4.000000,4.000000,4.000000,4.000000,4.000000,4.000000,2.000000,4.000000,4.000000,4.000000,4.000000,4.000000,4.000000,4.000000,4.000000,4.000000,4.000000,4.000000,4.000000,4.000000,4.000000,4.000000,4.000000,4.000000,4.000000,4.000000,4.000000,83.333336
1614491162.639798,70.000000,0.000000,6.742567,14.970442,2.935275,-2.363545,1.793284,4.533290,1.866318,-7.626429,-9.512053,-2.878789,-14.587968,7.163256,5.848551,10.910575,-19.618120,20.313587,0.421461,7.526537,-6.292016,2.615917,13.124869,19.606358,1.397480,3.135713,13.881526,-10.607503,-14.506553,0.940149,6.578538,9.037841,-1.147494,-11.578830,0.000000,183.000000,4.000000,,,,0.000000,4.000000,4.000000,4.000000,4.000000,4.000000,4.000000,4.000000,4.000000,4.000000,4.000000,4.000000,2.000000,4.000000,4.000000,4.000000,4.000000,4.000000,4.000000,4.000000,4.000000,4.000000,4.000000,4.000000,4.000000,4.000000,4.000000,4.000000,4.000000,4.000000,4.000000,4.000000,4.000000,83.333336
1614491162.647547,71.000000,0.000000,-6.084689,12.904189,1.906699,-3.386822,1.791491,1.964654,0.838811,-7.105982,-18.733311,0.201013,-16.111841,7.156092,-3.388066,8.848383,-22.162605,20.293274,-4.707166,10.595934,-4.747262,2.100481,11.060463,32.407265,0.883262,12.363346,13.867645,-10.596895,-30.902302,-1.624894,4.007857,6.977521,1.930577,-15.669815,0.000000,193.000000,4.000000,,,,0.000000,4.000000,4.000000,4.000000,4.000000,4.000000,4.000000,4.000000,4.000000,4.000000,4.000000,4.000000,2.000000,4.000000,4.000000,4.000000,4.000000,4.000000,4.000000,4.000000,4.000000,4.000000,4.000000,4.000000,4.000000,4.000000,4.000000,4.000000,4.000000,4.000000,4.000000,4.000000,4.000000,83.333336
1614491162.655396,72.000000,0.000000,-8.129886,11.352823,5.494536,10.975539,1.276878,0.424228,1.350793,-5.047594,-8.970987,-0.312009,-14.557268,7.148936,-5.948781,8.839534,-18.550699,19.760160,-7.266562,11.098159,3.975434,11.841970,10.536582,35.451778,-0.143262,13.889444,13.853777,-10.073478,-32.922684,-3.161730,4.516670,5.432082,7.569672,-5.397735,0.000000,197.000000,4.000000,,,,0.000000,4.000000,4.000000,4.000000,4.000000,4.000000,4.000000,4.000000,4.000000,4.000000,4.000000,4.000000,2.000000,4.000000,4.000000,4.000000,4.000000,4.000000,4.000000,4.000000,4.000000,4.000000,4.000000,4.000000,4.000000,4.000000,4.000000,4.000000,4.000000,4.000000,4.000000,4.000000,4.000000,83.333336
1614491162.663145,73.000000,0.000000,-6.070474,11.854291,14.206990,18.656872,1.788422,0.936624,1.862262,1.624120,3.345676,1.226765,-6.337583,7.141788,-4.404370,9.856336,-5.711635,23.842964,-5.720833,28.522957,19.868895,29.778847,12.577327,18.493250,3.446624,16.439657,13.839924,-10.063404,-14.428221,-3.158569,3.486512,5.426650,11.151846,0.761509,0.000000,183.000000,4.000000,,,,0.000000,4.000000,4.000000,4.000000,4.000000,4.000000,4.000000,4.000000,4.000000,4.000000,4.000000,4.000000,2.000000,4.000000,4.000000,4.000000,4.000000,4.000000,4.000000,4.000000,4.000000,4.000000,4.000000,4.000000,4.000000,4.000000,4.000000,4.000000,4.000000,4.000000,4.000000,4.000000,4.000000,83.333336
1614491162.670994,74.000000,0.000000,-7.090044,11.842437,10.090219,6.330522,1.786634,0.935688,-0.703702,5.212240,-0.247413,3.789641,0.848242,7.134645,-6.451248,8.820838,1.986384,22.280659,-8.279215,35.161102,16.772102,26.159323,11.539109,-13.832935,11.648306,7.705269,13.826083,-10.053341,2.509284,-2.129769,5.021487,5.421223,10.627873,-1.803355,0.000000,150.000000,4.000000,,,,0.000000,4.000000,4.000000,4.000000,4.000000,4.000000,4.000000,4.000000,4.000000,4.000000,4.000000,4.000000,2.000000,4.000000,4.000000,4.000000,2.000000,4.000000,4.000000,4.000000,4.000000,4.000000,4.000000,4.000000,4.000000,4.000000,4.000000,4.000000,4.000000,4.000000,4.000000,4.000000,4.000000,66.666664
1614491162.678742,75.000000,0.000000,-7.082954,11.830594,-0.176282,-1.368116,1.272027,0.934752,-2.241460,4.181386,-4.349730,3.785851,0.334573,7.127511,-9.008900,2.145351,-0.579705,13.540430,-13.911962,16.664402,-3.757490,7.158805,3.322442,-36.896027,9.585376,-14.866539,12.273796,-10.043288,5.070878,-3.666101,3.990825,5.415802,8.565964,-0.775911,0.000000,181.000000,4.000000,,,,0.000000,4.000000,4.000000,4.000000,4.000000,4.000000,4.000000,4.000000,4.000000,4.000000,4.000000,4.000000,2.000000,4.000000,4.000000,4.000000,2.000000,4.000000,4.000000,4.000000,4.000000,4.000000,4.000000,4.000000,4.000000,4.000000,4.000000,4.000000,4.000000,4.000000,4.000000,4.000000,4.000000,66.666664
1614491162.686591,76.000000,0.000000,-7.588692,11.818764,0.336715,7.351201,2.809216,0.933817,0.324884,4.177205,-5.371021,5.320527,-0.691402,7.120383,-7.974249,-2.985000,-2.630407,7.885864,-12.872408,10.493892,-14.010143,0.997800,-8.988573,-33.782207,-7.347287,-25.620903,10.210240,-10.033244,0.450422,-6.226537,-4.218294,5.410386,7.018936,-1.287955,0.000000,196.000000,4.000000,,,,0.000000,4.000000,4.000000,4.000000,4.000000,4.000000,4.000000,4.000000,4.000000,4.000000,4.000000,4.000000,2.000000,4.000000,4.000000,4.000000,2.000000,4.000000,4.000000,4.000000,4.000000,4.000000,4.000000,4.000000,4.000000,4.000000,4.000000,4.000000,4.000000,4.000000,4.000000,4.000000,4.000000,66.666664
1614491162.694340,77.000000,0.000000,-5.017001,11.806945,4.438942,18.113081,6.908971,0.420063,1.350200,4.685849,-3.314368,7.366488,2.899033,7.113263,-5.402173,2.659011,-1.089315,8.390799,-5.680049,19.201345,-12.457671,5.099367,-13.082149,-9.133039,-15.032248,-20.467077,9.687209,-10.023211,-5.191054,-6.220311,-5.239717,5.404975,5.986276,-7.440514,0.000000,201.000000,4.000000,,,,0.000000,4.000000,4.000000,4.000000,4.000000,4.000000,4.000000,4.000000,4.000000,4.000000,4.000000,4.000000,2.000000,4.000000,4.000000,4.000000,2.000000,4.000000,4.000000,4.000000,4.000000,4.000000,4.000000,4.000000,4.000000,4.000000,4.000000,4.000000,4.000000,4.000000,4.000000,4.000000,4.000000,66.666664
1614491162.702189,78.000000,0.000000,2.167503,11.795138,3.408863,19.633429,9.978985,1.958104,1.861670,3.655522,6.945356,7.359122,3.921775,7.106150,-2.319848,9.323019,-1.601047,9.408049,0.479477,12.515478,-11.419573,2.017344,-11.017784,23.696606,-6.812087,-16.856867,11.215983,-10.013188,-7.749966,-3.137167,2.457830,5.399570,6.493110,-6.407432,0.000000,180.000000,4.000000,,,,0.000000,4.000000,4.000000,4.000000,4.000000,4.000000,4.000000,4.000000,4.000000,4.000000,4.000000,4.000000,2.000000,4.000000,4.000000,4.000000,2.000000,4.000000,4.000000,4.000000,4.000000,4.000000,4.000000,4.000000,4.000000,4.000000,4.000000,4.000000,4.000000,4.000000,4.000000,4.000000,4.000000,66.666664
1614491162.709938,79.000000,0.000000,5.755079,11.783343,2.892633,13.459949,9.456185,4.520249,4.423911,4.677507,6.425591,6.326121,-0.184711,7.099043,0.246575,8.800875,-1.086625,6.834538,2.017459,3.785014,-14.997897,-6.702622,-12.032408,42.134449,-2.189890,-16.840010,9.666306,-10.003175,-7.229395,-1.595569,2.968193,5.906991,6.999437,-1.272819,0.000000,149.000000,4.000000,,,,0.000000,4.000000,4.000000,4.000000,4.000000,4.000000,4.000000,4.000000,4.000000,4.000000,4.000000,4.000000,2.000000,4.000000,4.000000,4.000000,2.000000,4.000000,4.000000,4.000000,4.000000,4.000000,4.000000,4.000000,4.000000,4.000000,4.000000,4.000000,4.000000,4.000000,4.000000,4.000000,4.000000,66.666664
1614491162.717786,80.000000,0.000000,2.672401,9.720278,3.402561,11.395206,6.369806,5.028549,4.932308,5.185650,-9.478271,1.191590,-3.261450,7.604765,-0.266492,4.689510,-1.085538,2.725139,1.502622,-0.321335,-21.136745,-12.849766,-11.507555,40.041031,-3.726161,-18.361631,3.502794,-9.993172,-7.222166,-2.619614,-3.701442,4.362623,4.428336,-3.835649,0.000000,183.000000,4.000000,,,,0.000000,4.000000,4.000000,4.000000,4.000000,4.000000,4.000000,4.000000,4.000000,4.000000,4.000000,4.000000,2.000000,4.000000,4.000000,4.000000,2.000000,4.000000,4.000000,4.000000,4.000000,4.000000,4.000000,4.000000,4.000000,4.000000,4.000000,4.000000,4.000000,4.000000,4.000000,4.000000,4.000000,66.666664
1614491162.725535,81.000000,0.000000,0.618447,8.172095,2.886338,14.460734,2.260872,3.997880,1.850452,0.565080,-8.955972,-3.424986,-4.283829,7.084340,-1.804687,1.095077,-4.161376,0.158312,0.988298,-8.526142,-18.038685,-13.349736,-2.265278,35.898426,-3.722435,-15.779166,-1.116094,-9.983178,-9.266226,-3.129815,-4.210561,0.768517,1.859805,-7.934378,0.000000,172.000000,4.000000,,,,0.000000,4.000000,4.000000,4.000000,4.000000,4.000000,4.000000,4.000000,4.000000,4.000000,4.000000,4.000000,2.000000,4.000000,4.000000,4.000000,2.000000,4.000000,4.000000,4.000000,4.000000,4.000000,4.000000,4.000000,4.000000,4.000000,4.000000,4.000000,4.000000,4.000000,4.000000,4.000000,4.000000,66.666664
1614491162.733384,82.000000,0.000000,0.617828,7.651103,3.909093,12.394992,1.232970,5.019523,1.335781,2.102976,4.899138,-4.447202,-3.253904,7.077255,4.350964,2.632443,-4.670035,4.260717,4.577054,-4.927872,-2.123211,-6.156899,7.993397,24.580477,-4.231534,2.698151,-1.627798,-9.973195,-5.154396,-0.049762,-2.667889,1.793389,6.473330,-4.336699,0.000000,193.000000,4.000000,,,,0.000000,4.000000,4.000000,4.000000,4.000000,4.000000,4.000000,4.000000,4.000000,4.000000,4.000000,4.000000,2.000000,4.000000,4.000000,4.000000,2.000000,4.000000,4.000000,4.000000,4.000000,4.000000,4.000000,4.000000,4.000000,4.000000,4.000000,4.000000,4.000000,4.000000,4.000000,4.000000,4.000000,66.666664
1614491162.741133,83.000000,0.000000,1.130031,8.156273,2.879543,4.690289,1.744558,7.578606,1.847266,9.793181,6.945521,-4.442755,-3.250650,8.095819,6.397895,2.116991,-6.203826,8.359021,5.085297,4.307825,8.648144,6.156950,9.011045,-5.700514,-0.637558,18.080069,-0.600529,-9.963223,1.517426,2.514390,-3.178041,5.894160,9.030959,-0.229799,0.000000,164.000000,4.000000,,,,0.000000,4.000000,4.000000,4.000000,4.000000,4.000000,4.000000,4.000000,4.000000,4.000000,4.000000,4.000000,2.000000,4.000000,4.000000,4.000000,2.000000,4.000000,4.000000,4.000000,4.000000,4.000000,4.000000,4.000000,4.000000,4.000000,4.000000,4.000000,4.000000,4.000000,4.000000,4.000000,4.000000,66.666664
1614491162.748782,84.000000,0.000000,0.616080,8.148116,-4.815645,2.634317,1.742813,8.596668,-0.718684,7.219285,2.323191,-7.002415,-8.375605,4.497980,-5.916195,-12.244101,-20.043777,7.325021,-3.637737,-4.927252,3.511290,11.278998,1.309726,-30.310198,7.055387,5.754296,-0.599929,-9.953259,1.515908,-5.693252,-3.687684,1.785702,3.380902,-1.255210,0.000000,178.000000,4.000000,,,,0.000000,4.000000,4.000000,4.000000,4.000000,4.000000,4.000000,4.000000,4.000000,4.000000,4.000000,4.000000,2.000000,4.000000,4.000000,4.000000,2.000000,4.000000,4.000000,4.000000,4.000000,4.000000,4.000000,4.000000,4.000000,4.000000,4.000000,4.000000,4.000000,4.000000,4.000000,4.000000,4.000000,66.666664
1614491162.756531,85.000000,0.000000,-0.410177,8.139968,-6.862111,3.657324,1.228250,6.536789,-2.256427,-5.095626,2.320867,-8.533874,-15.546717,-1.660364,-15.653869,-24.539549,-31.305784,5.266414,-13.377688,-9.024889,-2.646067,4.601052,-7.409532,-33.356812,3.971408,-9.636074,-1.624970,-9.943306,-5.665095,-13.892687,-3.683996,-5.395571,-1.750684,-1.766775,0.000000,191.000000,4.000000,,,,0.000000,4.000000,4.000000,4.000000,4.000000,4.000000,4.000000,4.000000,4.000000,4.000000,4.000000,4.000000,2.000000,4.000000,4.000000,4.000000,2.000000,4.000000,4.000000,4.000000,4.000000,4.000000,4.000000,4.000000,4.000000,4.000000,4.000000,4.000000,4.000000,4.000000,4.000000,4.000000,4.000000,66.666664
1614491162.764180,86.000000,0.000000,-2.461049,8.131828,0.837059,3.653666,1.739842,4.478971,-2.766991,-8.680274,0.267264,-7.499699,-14.505528,-4.735627,-13.074113,-15.284240,-20.505247,4.748327,-14.389953,4.317469,-4.181883,3.057990,-7.914943,-29.220890,-2.699230,-5.523874,-0.597704,-9.933362,-8.736353,-11.314692,-2.654671,-2.313252,-0.723292,-0.739368,0.000000,202.000000,4.000000,,,,0.000000,4.000000,4.000000,4.000000,4.000000,4.000000,4.000000,4.000000,4.000000,4.000000,4.000000,4.000000,2.000000,4.000000,4.000000,4.000000,2.000000,4.000000,4.000000,4.000000,4.000000,4.000000,4.000000,4.000000,4.000000,4.000000,4.000000,4.000000,4.000000,4.000000,4.000000,4.000000,4.000000,66.666664
1614491162.771928,87.000000,0.000000,-3.484229,8.123696,3.913145,3.650013,1.738103,4.474492,-2.251403,-6.107491,2.318279,-7.492199,-8.849998,-3.705250,-11.009756,-1.935623,-6.638588,5.769219,-13.349921,8.928536,-3.664881,12.285701,-2.778823,-12.268592,2.431675,2.686779,4.531099,-9.923429,-7.189155,-6.175172,-0.087914,6.919830,-0.209748,-0.738628,0.000000,184.000000,4.000000,,,,0.000000,4.000000,4.000000,4.000000,4.000000,4.000000,4.000000,4.000000,4.000000,4.000000,4.000000,4.000000,2.000000,4.000000,4.000000,4.000000,2.000000,4.000000,4.000000,4.000000,4.000000,4.000000,4.000000,4.000000,4.000000,4.000000,4.000000,4.000000,4.000000,4.000000,4.000000,4.000000,4.000000,66.666664
1614491162.779577,88.000000,0.000000,-2.967924,8.115573,2.883590,3.133542,1.736364,4.470017,-1.736331,-6.614204,2.315961,-7.484707,-7.302686,-3.701545,-12.537209,-1.420866,-5.093488,5.763450,-13.849392,4.304223,-3.148395,13.811877,-3.288865,20.564190,8.583089,1.658451,6.577850,-9.400685,-7.694786,-6.168997,0.424995,9.477013,-1.748000,-1.250710,0.000000,198.000000,4.000000,,,,0.000000,4.000000,4.000000,4.000000,4.000000,4.000000,4.000000,4.000000,4.000000,4.000000,4.000000,4.000000,2.000000,4.000000,4.000000,4.000000,2.000000,4.000000,4.000000,4.000000,4.000000,4.000000,4.000000,4.000000,4.000000,4.000000,4.000000,4.000000,4.000000,4.000000,4.000000,4.000000,4.000000,66.666664
1614491162.787326,89.000000,0.000000,-2.964956,8.107457,3.906348,0.566306,1.734628,4.465547,-4.298697,-7.633231,-8.455585,-7.477222,-7.808204,-4.210664,-12.011850,-5.522010,-6.114036,2.167943,-13.835543,1.735816,-10.837554,0.977552,-7.388140,36.953880,7.548865,-8.086798,4.007169,-9.904105,-9.225553,-4.624366,0.424570,8.441895,-1.746252,-1.762280,0.000000,202.000000,4.000000,,,,0.000000,4.000000,4.000000,4.000000,4.000000,4.000000,4.000000,4.000000,4.000000,4.000000,4.000000,4.000000,2.000000,4.000000,4.000000,4.000000,2.000000,4.000000,4.000000,4.000000,4.000000,4.000000,4.000000,4.000000,4.000000,4.000000,4.000000,4.000000,4.000000,4.000000,4.000000,4.000000,4.000000,66.666664
1614491162.794975,90.000000,0.000000,-2.961991,8.099350,-3.789866,-0.459901,1.732893,4.461082,-9.422604,-7.112778,-7.934309,-7.469745,-7.287575,-4.206453,-12.512659,-8.593410,-5.595101,-1.936789,-13.821707,-5.445407,-22.108768,-11.331118,-8.406393,13.840005,8.566957,-21.924864,2.464701,-11.945483,-5.113763,-2.055640,0.424145,9.971914,-0.718865,-1.247697,0.000000,175.000000,4.000000,,,,0.000000,4.000000,4.000000,4.000000,4.000000,4.000000,4.000000,4.000000,4.000000,4.000000,4.000000,4.000000,2.000000,4.000000,4.000000,4.000000,2.000000,4.000000,4.000000,4.000000,4.000000,4.000000,4.000000,4.000000,4.000000,4.000000,4.000000,4.000000,4.000000,4.000000,4.000000,4.000000,4.000000,66.666664
1614491162.802724,91.000000,0.000000,-2.959029,8.604071,-20.196333,0.053379,1.731161,4.456620,-9.926002,-6.080024,3.355676,-6.949455,-7.280287,-3.689426,-9.423223,-8.071997,-3.025404,-2.447673,-12.269423,-10.568167,-23.625120,-13.371069,-7.372345,-16.430246,3.943006,-27.031145,3.487877,-13.471999,1.045197,-2.053584,0.423721,8.936301,-0.718146,-5.861834,0.000000,194.000000,4.000000,,,,0.000000,4.000000,4.000000,4.000000,4.000000,4.000000,4.000000,4.000000,4.000000,4.000000,4.000000,4.000000,2.000000,4.000000,4.000000,4.000000,2.000000,4.000000,4.000000,4.000000,4.000000,4.000000,4.000000,4.000000,4.000000,4.000000,4.000000,4.000000,4.000000,4.000000,4.000000,4.000000,4.000000,66.666664
1614491162.810373,92.000000,0.000000,-2.956070,8.082646,-24.278700,0.053326,1.729429,4.452164,-6.326332,-3.509841,-2.288705,-7.455326,-4.708905,-1.634455,-2.234313,-3.961361,5.182750,-1.932404,-8.667411,-5.942214,-23.088675,-9.255134,-6.852152,-31.285610,-8.368629,-18.286165,3.484389,-13.458527,0.531331,-2.564351,0.423297,5.850442,-1.230248,-14.573921,0.000000,201.000000,4.000000,,,,0.000000,4.000000,4.000000,4.000000,4.000000,4.000000,4.000000,4.000000,4.000000,4.000000,4.000000,4.000000,2.000000,4.000000,4.000000,4.000000,2.000000,4.000000,4.000000,4.000000,4.000000,4.000000,4.000000,4.000000,4.000000,4.000000,4.000000,4.000000,4.000000,4.000000,4.000000,4.000000,4.000000,66.666664
1614491162.818122,93.000000,0.000000,-1.414652,8.074564,-9.895448,1.078913,1.727700,4.447711,-5.294365,-2.480690,-11.517186,-7.447870,-0.088811,0.418462,0.332024,-1.906117,8.767311,-1.930472,-6.607461,-3.372169,-24.091228,-3.604853,-3.768377,-28.177402,-8.360261,-6.985827,2.968084,-13.445068,0.017979,-2.561786,2.474156,6.870233,2.873546,-14.046527,0.000000,200.000000,4.000000,,,,0.000000,4.000000,4.000000,4.000000,4.000000,4.000000,4.000000,4.000000,4.000000,4.000000,4.000000,4.000000,2.000000,4.000000,4.000000,4.000000,2.000000,4.000000,4.000000,4.000000,4.000000,4.000000,4.000000,4.000000,4.000000,4.000000,4.000000,4.000000,4.000000,4.000000,4.000000,4.000000,4.000000,66.666664
1614491162.825771,94.000000,0.000000,0.125224,8.579309,2.422140,0.052194,1.725972,4.443264,-6.314712,-2.991030,-3.813361,-6.414782,0.936919,-0.094777,-0.693949,-1.391391,5.168800,0.635561,-5.575212,-1.830335,-13.297906,-0.524325,-0.687686,-6.610763,3.955791,0.713466,3.477937,-13.431623,3.607705,-2.559225,4.522964,10.965926,10.050159,-2.750429,0.000000,153.000000,4.000000,,,,0.000000,4.000000,4.000000,4.000000,4.000000,4.000000,4.000000,4.000000,4.000000,4.000000,4.000000,4.000000,2.000000,4.000000,4.000000,4.000000,2.000000,4.000000,4.000000,4.000000,4.000000,4.000000,4.000000,4.000000,4.000000,4.000000,4.000000,4.000000,4.000000,4.000000,4.000000,4.000000,4.000000,66.666664
1614491162.833520,95.000000,0.000000,1.150740,6.006628,3.958180,-1.486320,2.237067,4.438821,-6.308397,-2.475219,-3.296727,-9.485290,-1.628121,-0.094683,-0.180435,-1.389999,0.548247,2.173387,-5.056817,2.786880,3.638469,-0.523800,-0.174178,18.524054,9.080041,2.251214,1.935997,-13.418192,-6.652313,-2.043845,4.005620,5.313935,9.527288,-1.722037,0.000000,177.000000,4.000000,,,,0.000000,4.000000,4.000000,4.000000,4.000000,4.000000,4.000000,4.000000,4.000000,4.000000,4.000000,4.000000,2.000000,4.000000,4.000000,4.000000,2.000000,4.000000,4.000000,4.000000,4.000000,4.000000,4.000000,4.000000,4.000000,4.000000,4.000000,4.000000,4.000000,4.000000,4.000000,4.000000,4.000000,66.666664
1614491162.841168,96.000000,0.000000,1.149589,1.385236,2.928581,1.592089,0.696368,4.947202,-5.789268,-3.498384,-14.575481,-16.142471,-3.677775,-0.094588,-2.231536,-6.003994,-7.657430,-0.392889,-10.179965,3.296913,4.147651,-0.523277,-0.174003,23.120914,7.532499,-1.340781,-2.168503,-15.456056,-35.363609,-3.580263,4.001615,-9.050353,0.286992,-15.053649,8064.000000,0.000000,4.000000,,,,0.000000,4.000000,4.000000,4.000000,4.000000,4.000000,4.000000,4.000000,4.000000,4.000000,4.000000,4.000000,2.000000,4.000000,4.000000,4.000000,2.000000,4.000000,4.000000,4.000000,4.000000,4.000000,4.000000,4.000000,4.000000,4.000000,4.000000,4.000000,4.000000,4.000000,4.000000,4.000000,4.000000,66.666664
1614491162.848917,97.000000,0.000000,-1.415663,-0.154610,4.976934,-1.486426,-1.355610,2.890973,-5.783479,-6.058989,-17.125010,-19.203253,-3.674097,-0.094493,-7.357510,-12.151836,-16.367722,-1.930958,-16.836452,0.729514,-3.548804,-0.522753,-0.686650,15.405485,5.473685,-3.903543,-5.243258,-16.979061,-52.764145,-6.653605,3.997613,-14.169508,-4.841500,-24.782185,8064.000000,0.000000,4.000000,,,,0.000000,4.000000,4.000000,4.000000,4.000000,4.000000,4.000000,4.000000,4.000000,4.000000,4.000000,4.000000,2.000000,4.000000,4.000000,4.000000,2.000000,4.000000,4.000000,4.000000,4.000000,4.000000,4.000000,4.000000,4.000000,4.000000,4.000000,4.000000,4.000000,4.000000,4.000000,4.000000,4.000000,66.666664
1614491162.856566,98.000000,0.000000,-6.029632,0.358365,3.946316,-17.895197,-2.379896,0.836800,-6.290515,-7.078570,-15.569422,-18.158407,-3.670423,0.418422,-8.888614,-13.165325,-14.812892,-2.441847,-17.332436,-0.809677,-4.570896,-0.522231,-3.250066,16.415720,2.391288,-5.950921,-5.238014,-17.474903,-39.378048,-6.646952,3.993616,-10.052774,-5.349479,-23.731762,8064.000000,0.000000,4.000000,,,,0.000000,4.000000,4.000000,4.000000,4.000000,4.000000,4.000000,4.000000,4.000000,4.000000,4.000000,4.000000,2.000000,4.000000,4.000000,4.000000,2.000000,4.000000,4.000000,4.000000,4.000000,4.000000,4.000000,4.000000,4.000000,4.000000,4.000000,4.000000,4.000000,4.000000,4.000000,4.000000,4.000000,66.666664
1614491162.864415,99.000000,0.000000,-7.049243,1.383647,3.429549,-18.902943,-1.864695,0.323143,-5.258584,-6.558671,-14.528212,-18.140249,-3.666752,-0.607638,-6.315623,-13.152160,-9.157053,-2.439405,-15.263822,0.216774,-3.540684,-1.034529,-5.298098,16.912125,-0.175206,-5.944970,-4.207135,-16.944607,-9.595078,-5.614664,3.989622,-9.017080,-4.318488,-18.067003,8064.000000,0.000000,4.000000,,,,0.000000,4.000000,4.000000,4.000000,4.000000,4.000000,4.000000,4.000000,4.000000,4.000000,4.000000,4.000000,2.000000,4.000000,4.000000,4.000000,2.000000,4.000000,4.000000,4.000000,4.000000,4.000000,4.000000,4.000000,4.000000,4.000000,4.000000,4.000000,4.000000,4.000000,4.000000,4.000000,4.000000,66.666664
1614491162.872164,100.000000,0.000000,-6.529374,3.946366,4.451761,3.167243,-1.862831,0.835640,-2.689223,-6.552113,-5.795735,-19.147751,-2.124624,-0.094210,-4.770846,-12.626187,-9.660717,-0.385684,-9.607533,4.831942,-4.562785,-1.546315,-0.677415,3.049060,-0.175031,2.266103,-4.715749,-16.927662,11.440158,-7.147511,3.985632,-10.033705,-4.826990,-15.997655,8064.000000,0.000000,4.000000,,,,0.000000,4.000000,4.000000,4.000000,4.000000,4.000000,4.000000,4.000000,4.000000,4.000000,4.000000,4.000000,2.000000,4.000000,4.000000,4.000000,2.000000,4.000000,4.000000,4.000000,4.000000,4.000000,4.000000,4.000000,4.000000,4.000000,4.000000,4.000000,4.000000,4.000000,4.000000,4.000000,4.000000,66.666664
1614491162.880013,101.000000,0.000000,-6.522844,4.968061,-0.680896,13.420486,-2.373788,0.321984,-1.660893,-7.058381,0.876728,-18.102961,-0.584038,1.957167,-4.766075,-8.510997,-10.676697,4.742907,2.709768,10.468135,-5.071043,1.532155,6.502749,-10.800143,0.337965,8.417683,-5.736674,-17.423555,15.531281,-5.089081,3.981647,-4.382645,-6.360625,-16.494478,8064.000000,0.000000,4.000000,,,,0.000000,4.000000,4.000000,4.000000,4.000000,4.000000,4.000000,4.000000,4.000000,4.000000,4.000000,4.000000,2.000000,4.000000,4.000000,4.000000,2.000000,4.000000,4.000000,4.000000,4.000000,4.000000,4.000000,4.000000,4.000000,4.000000,4.000000,4.000000,4.000000,4.000000,4.000000,4.000000,4.000000,66.666664
1614491162.887762,102.000000,0.000000,-7.029142,3.937452,-6.834061,4.176297,-1.858594,0.321662,-2.684873,-6.538502,-1.688252,-18.597679,-0.070633,2.980850,-4.248488,-4.399922,-8.614738,6.276626,10.399365,10.970488,-6.604433,6.658828,8.034708,-11.814984,-0.688014,1.229778,-0.602732,-16.893311,16.028570,3.633957,3.977665,2.288404,-0.713239,-13.913880,8064.000000,0.000000,4.000000,,,,0.000000,4.000000,4.000000,4.000000,4.000000,4.000000,4.000000,4.000000,4.000000,4.000000,4.000000,4.000000,2.000000,4.000000,4.000000,4.000000,2.000000,4.000000,4.000000,4.000000,4.000000,4.000000,4.000000,4.000000,4.000000,4.000000,4.000000,4.000000,4.000000,4.000000,4.000000,4.000000,4.000000,66.666664
1614491162.895611,103.000000,0.000000,-6.509293,4.959156,-1.186202,3.659300,-1.856735,1.346981,-2.169368,-6.531964,0.877539,-18.579081,-0.070563,0.413767,-4.244240,-5.421163,-9.118944,4.731887,8.337685,11.472338,-8.136290,7.677810,7.001032,-11.290349,0.338315,-6.976580,9.654281,-14.312315,16.012543,9.784169,3.973687,3.311757,9.031064,-8.258942,8064.000000,0.000000,4.000000,,,,0.000000,4.000000,4.000000,4.000000,4.000000,4.000000,4.000000,4.000000,4.000000,4.000000,4.000000,4.000000,2.000000,4.000000,4.000000,4.000000,2.000000,4.000000,4.000000,4.000000,4.000000,4.000000,4.000000,4.000000,4.000000,4.000000,4.000000,4.000000,4.000000,4.000000,4.000000,4.000000,4.000000,66.666664
1614491162.903359,104.000000,0.000000,-6.502783,5.467017,3.943190,5.706923,-1.854879,0.832814,-1.141557,-6.012611,-0.148979,-13.945117,0.442328,-0.612288,-4.239995,-4.390101,-7.571364,7.291258,6.278065,12.486506,-5.564051,6.644491,7.506852,-7.176494,5.466182,-3.892680,11.695909,-12.246721,3.176017,9.774384,3.969714,-1.306940,11.073316,-6.199400,8064.000000,0.000000,4.000000,,,,0.000000,4.000000,4.000000,4.000000,4.000000,4.000000,4.000000,4.000000,4.000000,4.000000,4.000000,4.000000,2.000000,4.000000,4.000000,4.000000,2.000000,4.000000,4.000000,4.000000,4.000000,4.000000,4.000000,4.000000,4.000000,4.000000,4.000000,4.000000,4.000000,4.000000,4.000000,4.000000,4.000000,66.666664
1614491162.911208,105.000000,0.000000,-6.496280,0.333345,-2.727420,-4.042374,-1.853024,1.344802,-2.678877,-6.519419,-17.071907,-8.290147,4.544450,1.439607,-1.671653,0.229674,-2.435587,12.924993,5.246145,10.422738,-2.481564,8.689129,7.499345,16.420425,8.537639,2.777879,5.017546,-13.260116,-14.775877,5.149226,3.965744,-5.408197,6.446857,-8.244483,8064.000000,0.000000,4.000000,,,,0.000000,4.000000,4.000000,4.000000,4.000000,4.000000,4.000000,4.000000,4.000000,4.000000,4.000000,4.000000,2.000000,4.000000,4.000000,4.000000,2.000000,4.000000,4.000000,4.000000,4.000000,4.000000,4.000000,4.000000,4.000000,4.000000,4.000000,4.000000,4.000000,4.000000,4.000000,4.000000,4.000000,66.666664
1614491162.918957,106.000000,0.000000,-6.489784,-1.718271,-2.211872,-5.063973,0.200111,5.958841,-0.624916,-3.948797,-24.234324,-6.230575,12.232213,5.027911,3.458224,3.819188,5.771976,17.014631,4.728079,14.002059,1.110661,13.295824,6.979025,38.968109,7.503460,9.954589,2.961246,-13.246855,-21.940588,1.554333,3.961778,-5.402789,6.440411,-8.236238,8064.000000,0.000000,4.000000,,,,0.000000,4.000000,4.000000,4.000000,4.000000,4.000000,4.000000,4.000000,4.000000,4.000000,4.000000,4.000000,2.000000,4.000000,4.000000,4.000000,2.000000,4.000000,4.000000,4.000000,4.000000,4.000000,4.000000,4.000000,4.000000,4.000000,4.000000,4.000000,4.000000,4.000000,4.000000,4.000000,4.000000,66.666664
1614491162.926806,107.000000,0.000000,-4.432012,3.924473,-0.158378,8.274425,2.764014,8.516985,5.016735,0.670536,-9.338293,-2.634600,16.835365,9.125446,7.044509,7.917933,7.817487,18.023258,8.313094,22.706005,3.673653,14.308169,7.997687,29.698370,8.008777,14.560019,4.496747,-11.695147,-17.816084,1.552778,3.957816,-4.884565,7.972432,-5.663899,8064.000000,0.000000,4.000000,,,,0.000000,4.000000,4.000000,4.000000,4.000000,4.000000,4.000000,4.000000,4.000000,4.000000,4.000000,4.000000,2.000000,4.000000,4.000000,4.000000,2.000000,4.000000,4.000000,4.000000,4.000000,4.000000,4.000000,4.000000,4.000000,4.000000,4.000000,4.000000,4.000000,4.000000,4.000000,4.000000,4.000000,66.666664
1614491162.934555,108.000000,0.000000,-2.376298,3.920549,-16.568476,8.778971,0.709968,3.893084,3.473256,-0.355775,-4.713571,-3.144786,10.664684,6.552219,6.011824,3.294630,-5.010844,9.287286,6.253499,14.478171,-5.560790,6.088733,5.425587,-0.074917,6.975127,5.827510,-2.687237,-18.350119,-13.695704,-1.525697,4.466679,-6.418142,5.400357,-14.376184,8064.000000,0.000000,4.000000,,,,0.000000,4.000000,4.000000,4.000000,4.000000,4.000000,4.000000,4.000000,4.000000,4.000000,4.000000,4.000000,2.000000,4.000000,4.000000,4.000000,2.000000,4.000000,4.000000,4.000000,4.000000,4.000000,4.000000,4.000000,4.000000,4.000000,4.000000,4.000000,4.000000,4.000000,4.000000,4.000000,4.000000,66.666664
1614491162.942403,109.000000,0.000000,-2.886742,-4.288500,-24.244215,-3.537501,-5.957409,-3.803117,-7.812268,-7.022086,-15.990909,-15.449333,-5.756237,-4.736385,2.416068,-15.170203,-26.031473,-5.593796,-6.060447,-8.613231,-20.427025,-9.814792,-1.759326,-20.074842,-2.775438,-9.050113,-13.966601,-28.588179,-13.169188,-7.678018,2.923751,-8.975827,0.266751,-30.259245,8064.000000,0.000000,4.000000,,,,0.000000,4.000000,4.000000,4.000000,4.000000,4.000000,4.000000,4.000000,4.000000,4.000000,4.000000,4.000000,2.000000,4.000000,4.000000,4.000000,2.000000,4.000000,4.000000,4.000000,4.000000,4.000000,4.000000,4.000000,4.000000,4.000000,4.000000,4.000000,4.000000,4.000000,4.000000,4.000000,4.000000,66.666664
1614491162.950152,110.000000,0.000000,-2.883856,-6.848314,-6.271254,-8.662169,-10.054015,-6.876237,-14.983943,-11.117628,-19.051840,-26.203115,-17.545353,-11.911136,-0.150450,-23.872982,-33.697750,-10.203587,-11.182591,-16.296925,-22.970699,-14.933182,-4.321669,-29.285538,-11.490611,-14.169268,-18.055199,-27.021130,-3.412428,-2.542135,0.356725,-9.479671,-1.271977,-32.280266,8064.000000,0.000000,4.000000,,,,0.000000,4.000000,4.000000,4.000000,4.000000,4.000000,4.000000,4.000000,4.000000,4.000000,4.000000,4.000000,2.000000,4.000000,4.000000,4.000000,2.000000,4.000000,4.000000,4.000000,4.000000,4.000000,4.000000,4.000000,4.000000,4.000000,4.000000,4.000000,4.000000,4.000000,4.000000,4.000000,4.000000,66.666664
1614491162.958001,111.000000,0.000000,-2.880972,-3.251722,-7.290623,-8.653506,-9.018320,-6.356541,-10.866395,-10.080870,-18.007147,-26.176912,-10.348320,-8.309481,-0.663120,-10.002954,-24.946104,-1.475435,-3.479101,-2.947294,-17.819523,0.979187,-0.214783,-29.256252,-9.427838,-7.488431,-13.421759,-17.763338,13.001241,7.716818,0.356368,-8.957372,-0.757885,-24.042858,8064.000000,0.000000,4.000000,,,,0.000000,4.000000,4.000000,4.000000,4.000000,4.000000,4.000000,4.000000,4.000000,4.000000,4.000000,4.000000,2.000000,4.000000,4.000000,4.000000,2.000000,4.000000,4.000000,4.000000,4.000000,4.000000,4.000000,4.000000,4.000000,4.000000,4.000000,4.000000,4.000000,4.000000,4.000000,4.000000,4.000000,66.666664
