title:31, start timestamp:1614491237.937193, stop timestamp:1614491283.819143, headset type:EPOCFLEX, headset serial:F00001ED, headset firmware:f12, subject name:s14, channels:75, sampling rate:128, samples:5921      , version:2.0
Timestamp,EEG.Counter,EEG.Interpolated,EEG.Cz,EEG.Fz,EEG.Fp1,EEG.F7,EEG.F3,EEG.FC1,EEG.C3,EEG.FC5,EEG.FT9,EEG.T7,EEG.TP9,EEG.CP5,EEG.CP1,EEG.P3,EEG.P7,EEG.O1,EEG.Pz,EEG.Oz,EEG.O2,EEG.P8,EEG.P4,EEG.CP2,EEG.CP6,EEG.TP10,EEG.T8,EEG.FT10,EEG.FC6,EEG.C4,EEG.FC2,EEG.F4,EEG.F8,EEG.Fp2,EEG.HighBitFlex,EEG.RawCq,EEG.Battery,MarkerIndex,MarkerType,MarkerValueInt,EEG.MarkerHardware,CQ.Cz,CQ.Fz,CQ.Fp1,CQ.F7,CQ.F3,CQ.FC1,CQ.C3,CQ.FC5,CQ.FT9,CQ.T7,CQ.TP9,CQ.CP5,CQ.CP1,CQ.P3,CQ.P7,CQ.O1,CQ.Pz,CQ.Oz,CQ.O2,CQ.P8,CQ.P4,CQ.CP2,CQ.CP6,CQ.TP10,CQ.T8,CQ.FT10,CQ.FC6,CQ.C4,CQ.FC2,CQ.F4,CQ.F8,CQ.Fp2,CQ.Overall
1614491237.937193,58.000000,0.000000,-0.402080,-4.415330,-4.442206,-25.214310,-0.094741,1.321769,10.602403,-1.076134,-9.623372,-5.758873,6.732992,11.917370,6.189614,7.620506,-7.164051,-5.497063,5.092306,0.361855,-27.507051,-42.119225,-15.552701,107.205070,-8.738790,-6.388021,-9.436806,-6.112349,-11.226917,13.478597,-2.794236,-6.765323,4.888490,8.499692,8064.000000,0.000000,4.000000,,,,0.000000,4.000000,4.000000,4.000000,4.000000,4.000000,4.000000,4.000000,4.000000,4.000000,4.000000,4.000000,2.000000,4.000000,4.000000,4.000000,4.000000,4.000000,4.000000,4.000000,4.000000,4.000000,4.000000,4.000000,4.000000,4.000000,4.000000,4.000000,4.000000,4.000000,2.000000,4.000000,4.000000,66.666664
1614491237.944843,59.000000,0.000000,-0.401678,-4.923735,-5.463406,-20.573711,-4.710031,1.320447,9.053339,-10.818647,-10.639390,-5.753113,5.187797,11.905453,7.721886,6.074424,-8.182528,-11.132591,4.574393,-9.382097,-25.428261,-39.000183,-15.024327,139.918381,-9.755692,-5.868812,-10.453011,-7.644698,1.092002,11.413836,-3.817083,-8.809840,2.319499,2.850167,8064.000000,0.000000,4.000000,,,,0.000000,4.000000,4.000000,4.000000,4.000000,4.000000,4.000000,4.000000,4.000000,4.000000,4.000000,4.000000,2.000000,4.000000,4.000000,4.000000,4.000000,4.000000,4.000000,4.000000,4.000000,4.000000,4.000000,4.000000,4.000000,4.000000,4.000000,4.000000,4.000000,4.000000,2.000000,4.000000,4.000000,66.666664
1614491237.952592,60.000000,0.000000,-0.401277,-4.405991,-2.893839,-10.296727,-2.654039,1.319126,10.069926,-7.730906,-11.654391,-3.696078,3.644148,11.893547,7.714164,11.196555,-2.533320,-10.095818,7.646741,-12.449638,-17.197704,-37.935543,-8.342636,172.598969,-9.233115,-5.350122,-9.416916,-6.611413,4.167833,11.402423,-3.300445,-11.365132,0.265897,-5.357812,8064.000000,0.000000,4.000000,,,,0.000000,4.000000,4.000000,4.000000,4.000000,4.000000,4.000000,4.000000,4.000000,4.000000,4.000000,4.000000,2.000000,4.000000,4.000000,4.000000,4.000000,4.000000,4.000000,4.000000,4.000000,4.000000,4.000000,4.000000,4.000000,4.000000,4.000000,4.000000,4.000000,4.000000,2.000000,4.000000,4.000000,66.666664
1614491237.960241,61.000000,0.000000,-0.400875,-4.914405,-4.942228,-9.260789,3.502461,1.317807,8.521395,6.122979,-10.104276,-1.641100,5.178966,12.907295,8.732091,15.287923,3.110239,-5.983158,10.203197,-3.719240,-9.488200,-37.384785,-2.180448,140.118683,-8.711062,-5.344772,-9.920320,-6.604801,5.702127,8.314097,-3.297145,-10.840947,1.291272,-4.326813,8064.000000,0.000000,4.000000,,,,0.000000,4.000000,4.000000,4.000000,4.000000,4.000000,4.000000,4.000000,4.000000,4.000000,4.000000,4.000000,2.000000,4.000000,4.000000,4.000000,4.000000,4.000000,4.000000,4.000000,4.000000,4.000000,4.000000,4.000000,4.000000,4.000000,4.000000,4.000000,4.000000,4.000000,2.000000,4.000000,4.000000,66.666664
1614491237.967990,62.000000,0.000000,-0.400475,-4.909491,-12.629593,-18.482298,-5.218990,1.316489,3.384668,0.475830,-11.119812,-2.152280,4.660966,12.381567,7.697718,13.734173,7.209693,-6.489995,9.167353,-4.741161,-9.478711,-35.808941,-1.152626,107.670868,-8.702351,-4.826607,-9.910399,-7.623837,5.696424,3.690398,-3.293848,-10.830106,-0.761301,-3.296845,8064.000000,0.000000,4.000000,,,,0.000000,4.000000,4.000000,4.000000,4.000000,4.000000,4.000000,4.000000,4.000000,4.000000,4.000000,4.000000,2.000000,4.000000,4.000000,4.000000,4.000000,4.000000,4.000000,4.000000,4.000000,4.000000,4.000000,4.000000,4.000000,4.000000,4.000000,4.000000,4.000000,4.000000,2.000000,4.000000,4.000000,66.666664
1614491237.975639,63.000000,0.000000,-0.400074,-4.904582,-6.463117,-20.515097,-15.470181,1.315173,0.817181,-10.806697,-19.313820,-2.150127,4.143485,11.856365,7.177199,14.233259,11.817868,-4.432223,8.645365,-4.736420,-3.315387,-34.234669,-1.664294,140.383713,-8.180828,-4.308960,-9.387669,-5.564931,2.613805,2.661067,-3.290554,-11.332096,-3.324642,-5.344831,8064.000000,0.000000,4.000000,,,,0.000000,4.000000,4.000000,4.000000,4.000000,4.000000,4.000000,4.000000,4.000000,4.000000,4.000000,4.000000,2.000000,4.000000,4.000000,4.000000,4.000000,4.000000,4.000000,4.000000,4.000000,4.000000,4.000000,4.000000,4.000000,4.000000,4.000000,4.000000,4.000000,4.000000,2.000000,4.000000,4.000000,66.666664
1614491237.983388,64.000000,0.000000,-0.399674,-4.899677,12.004884,-11.776633,-6.223942,1.313858,2.867646,-1.052301,-13.653481,0.928946,6.190623,13.382970,9.221305,13.193385,15.395794,3.777337,9.662361,11.678573,10.534082,-24.456844,0.388652,163.833069,-9.198288,-1.740548,-9.378281,-0.943982,3.636832,3.684047,-3.287263,-8.243841,1.806888,2.865643,0.000000,175.000000,4.000000,,,,0.000000,4.000000,4.000000,4.000000,4.000000,4.000000,4.000000,4.000000,4.000000,4.000000,4.000000,4.000000,2.000000,4.000000,4.000000,4.000000,4.000000,4.000000,4.000000,4.000000,4.000000,4.000000,4.000000,4.000000,4.000000,4.000000,4.000000,4.000000,4.000000,4.000000,2.000000,4.000000,4.000000,66.666664
1614491237.991037,65.000000,0.000000,-0.399274,-4.894777,10.967238,-8.687934,2.500231,1.825364,2.351958,6.128239,5.334531,1.953658,0.543407,10.292664,0.494134,-1.178783,14.354757,3.773560,7.088596,16.282278,10.523548,-12.124696,2.439546,131.361542,-8.163449,-1.225987,-9.881723,1.621065,-2.007830,3.680363,-3.283976,-4.133033,7.958927,14.144828,0.000000,193.000000,4.000000,,,,0.000000,4.000000,4.000000,4.000000,4.000000,4.000000,4.000000,4.000000,4.000000,4.000000,4.000000,4.000000,2.000000,4.000000,4.000000,4.000000,4.000000,4.000000,4.000000,4.000000,4.000000,4.000000,4.000000,4.000000,4.000000,4.000000,4.000000,4.000000,4.000000,4.000000,2.000000,4.000000,4.000000,66.666664
1614491237.998786,66.000000,0.000000,-0.398875,-4.889883,2.238322,-9.704887,-0.579192,-0.227743,-6.368343,-5.159941,6.867658,-1.125219,-15.354572,-2.538141,-17.967897,-24.254526,7.160915,-2.896880,-3.687723,7.035227,3.333538,-12.625392,-3.203920,115.845566,-5.591183,-4.301684,-9.359021,-0.431839,-16.877617,1.112580,-3.280692,-3.616080,6.412507,12.079401,0.000000,171.000000,4.000000,,,,0.000000,4.000000,4.000000,4.000000,4.000000,4.000000,4.000000,4.000000,4.000000,4.000000,4.000000,4.000000,2.000000,4.000000,4.000000,4.000000,4.000000,4.000000,4.000000,4.000000,4.000000,4.000000,4.000000,4.000000,4.000000,4.000000,4.000000,4.000000,4.000000,4.000000,2.000000,4.000000,4.000000,66.666664
1614491238.006436,67.000000,0.000000,-0.398476,-4.884993,13.005315,-5.079797,1.985489,-2.278797,-14.054282,-13.359909,-6.472543,-3.175375,-27.134090,-11.766373,-25.642239,-37.563606,-8.743682,-6.483727,-13.940446,3.951269,2.304563,-18.766613,-17.559690,148.550232,-6.098412,-10.964049,-9.862482,0.594234,-17.886381,-0.939815,-3.790232,-4.125284,3.329171,7.451937,0.000000,165.000000,4.000000,,,,0.000000,4.000000,4.000000,4.000000,4.000000,4.000000,4.000000,4.000000,4.000000,4.000000,4.000000,4.000000,2.000000,4.000000,4.000000,4.000000,4.000000,4.000000,4.000000,4.000000,4.000000,4.000000,4.000000,4.000000,4.000000,4.000000,4.000000,4.000000,4.000000,4.000000,2.000000,4.000000,4.000000,66.666664
1614491238.014285,68.000000,0.000000,-0.910898,-5.392928,15.043591,-3.023436,6.086068,-0.738057,-14.553048,-10.782447,-1.850685,-5.223482,-28.132597,-10.216145,-19.975571,-34.961941,-27.196476,-18.272116,-15.464967,-6.309093,-9.492613,-19.260666,-26.772900,145.324768,-8.143596,-21.209496,-10.878261,2.132102,-4.535161,1.625228,-3.273621,-3.608338,4.351483,12.572691,0.000000,207.000000,4.000000,,,,0.000000,4.000000,4.000000,4.000000,4.000000,4.000000,4.000000,4.000000,4.000000,4.000000,4.000000,4.000000,2.000000,4.000000,4.000000,4.000000,4.000000,4.000000,4.000000,4.000000,4.000000,4.000000,4.000000,4.000000,4.000000,4.000000,4.000000,4.000000,4.000000,4.000000,2.000000,4.000000,4.000000,66.666664
1614491238.022034,69.000000,0.000000,-0.397167,-4.361894,-5.484272,-10.199900,1.464597,1.826784,-13.512855,-12.310125,5.843473,-8.808002,-26.053183,-11.744390,-12.263287,-27.234671,-37.938511,-29.023073,-9.295656,-17.584835,-18.201069,-20.779867,-21.105101,112.871750,-8.648273,-25.803671,-8.816101,-4.536697,-0.428062,3.162064,-3.270347,-3.604730,4.859952,16.149862,0.000000,202.000000,4.000000,,,,0.000000,4.000000,4.000000,4.000000,4.000000,4.000000,4.000000,4.000000,4.000000,4.000000,4.000000,4.000000,2.000000,4.000000,4.000000,4.000000,4.000000,4.000000,4.000000,4.000000,4.000000,4.000000,4.000000,4.000000,4.000000,4.000000,4.000000,4.000000,4.000000,4.000000,2.000000,4.000000,4.000000,66.666664
1614491238.029783,70.000000,0.000000,-0.396770,-1.793430,-12.145455,-14.292264,-1.613790,1.312136,-10.935239,-14.861918,-5.444422,-10.850476,-20.386103,-10.707005,-2.507434,-19.002308,-34.823650,-18.737640,1.482870,-3.208276,-0.746971,-22.810369,-7.750663,133.784515,-11.203727,-13.470175,-6.756002,-5.044981,-2.991736,2.646081,-4.292718,-4.113946,2.803810,14.595250,0.000000,177.000000,4.000000,,,,0.000000,4.000000,4.000000,4.000000,4.000000,4.000000,4.000000,4.000000,4.000000,4.000000,4.000000,4.000000,2.000000,4.000000,4.000000,4.000000,4.000000,4.000000,4.000000,4.000000,4.000000,4.000000,4.000000,4.000000,4.000000,4.000000,4.000000,4.000000,4.000000,4.000000,2.000000,4.000000,4.000000,66.666664
1614491238.037432,71.000000,0.000000,-1.422014,-1.278816,-1.364079,-14.790792,0.439106,0.798004,3.947491,-7.667569,-15.182568,-5.711421,-1.904179,9.303702,11.341228,2.555157,-12.737543,-5.898390,12.250618,11.666727,11.561468,-17.659353,7.128883,166.471237,-7.089959,2.440731,-7.262067,6.754936,2.139461,10.335743,-2.237143,0.505553,5.365108,14.067834,0.000000,192.000000,4.000000,,,,0.000000,4.000000,4.000000,4.000000,4.000000,4.000000,4.000000,4.000000,4.000000,4.000000,4.000000,4.000000,2.000000,4.000000,4.000000,4.000000,4.000000,4.000000,4.000000,4.000000,4.000000,4.000000,4.000000,4.000000,4.000000,4.000000,4.000000,4.000000,4.000000,4.000000,2.000000,4.000000,4.000000,66.666664
1614491238.045281,72.000000,0.000000,0.117870,-1.277537,0.688567,-13.237539,3.515589,3.361308,22.917902,5.160612,-7.475077,10.704547,26.302855,31.858501,26.201681,35.373116,19.582886,3.338278,24.033239,17.296087,3.857599,-10.975028,19.429447,148.868881,7.276105,7.053675,0.437503,12.389207,7.265526,21.094639,4.431761,10.761457,14.077692,14.566587,0.000000,209.000000,4.000000,,,,0.000000,4.000000,4.000000,4.000000,4.000000,4.000000,4.000000,4.000000,4.000000,4.000000,4.000000,4.000000,2.000000,4.000000,4.000000,4.000000,4.000000,4.000000,4.000000,4.000000,4.000000,4.000000,4.000000,4.000000,4.000000,4.000000,4.000000,4.000000,4.000000,4.000000,2.000000,4.000000,4.000000,66.666664
1614491238.053030,73.000000,0.000000,4.733137,-1.276260,-1.876224,-4.506353,9.153100,8.998973,34.177036,13.360579,-0.800935,28.642561,51.917576,36.442028,40.021633,57.389023,45.717148,24.360580,38.881001,40.355713,9.494767,-3.784566,26.076683,116.412315,17.525240,8.072263,15.308860,6.222971,7.771081,23.124825,8.529893,14.853260,19.704639,14.552020,0.000000,184.000000,4.000000,,,,0.000000,4.000000,4.000000,4.000000,4.000000,4.000000,4.000000,4.000000,4.000000,4.000000,4.000000,4.000000,2.000000,4.000000,4.000000,4.000000,4.000000,4.000000,4.000000,4.000000,4.000000,4.000000,4.000000,4.000000,4.000000,4.000000,4.000000,4.000000,4.000000,4.000000,2.000000,4.000000,4.000000,66.666664
1614491238.060879,74.000000,0.000000,7.805326,-1.274983,-0.848706,3.703281,13.759331,12.066896,37.732601,17.449783,-3.364237,36.306225,60.070786,34.867123,45.622639,61.947018,59.517586,34.592628,46.534428,54.674332,24.869888,3.398706,27.589069,147.577957,19.046175,12.679575,21.447397,3.139825,4.686387,21.563238,7.495722,7.658919,16.608013,14.537468,0.000000,161.000000,4.000000,,,,0.000000,4.000000,4.000000,4.000000,4.000000,4.000000,4.000000,4.000000,4.000000,4.000000,4.000000,4.000000,2.000000,4.000000,4.000000,4.000000,4.000000,4.000000,4.000000,4.000000,4.000000,4.000000,4.000000,4.000000,4.000000,4.000000,4.000000,4.000000,4.000000,4.000000,2.000000,4.000000,4.000000,66.666664
1614491238.068628,75.000000,0.000000,7.284700,-0.760888,-0.847858,5.750860,13.232751,12.054830,32.566666,19.483614,-3.873693,36.269920,52.831230,34.319435,37.371887,55.218407,60.996529,19.173422,38.795586,37.183762,23.819378,7.497871,27.561480,178.199600,22.616873,14.205357,19.887489,4.675147,6.220162,22.054497,7.488226,3.548697,15.565763,14.522931,0.000000,190.000000,4.000000,,,,0.000000,4.000000,4.000000,4.000000,4.000000,4.000000,4.000000,4.000000,4.000000,4.000000,4.000000,4.000000,2.000000,4.000000,4.000000,4.000000,4.000000,4.000000,4.000000,4.000000,4.000000,4.000000,4.000000,4.000000,4.000000,4.000000,4.000000,4.000000,4.000000,4.000000,2.000000,4.000000,4.000000,66.666664
1614491238.076477,76.000000,0.000000,6.764596,1.803976,2.742734,9.847673,13.219519,12.042775,20.226406,19.464130,-0.280076,32.131084,44.060448,30.695374,28.103745,41.317032,47.602200,11.974761,32.090122,32.018372,20.718636,11.080117,26.508276,145.713715,25.158360,13.165510,19.867601,4.157651,13.906250,20.493980,7.993558,8.673353,18.627121,14.508408,0.000000,193.000000,4.000000,,,,0.000000,4.000000,4.000000,4.000000,4.000000,4.000000,4.000000,4.000000,4.000000,4.000000,4.000000,4.000000,2.000000,4.000000,4.000000,4.000000,4.000000,4.000000,4.000000,4.000000,4.000000,4.000000,4.000000,4.000000,4.000000,4.000000,4.000000,4.000000,4.000000,4.000000,2.000000,4.000000,4.000000,66.666664
1614491238.084226,77.000000,0.000000,7.270651,5.391915,9.406657,12.914749,13.206299,12.030732,17.129257,19.444668,1.258666,25.432287,34.272800,28.100574,25.511539,27.942383,33.195625,17.603813,31.032393,42.755585,24.800480,15.171601,26.994589,117.875694,25.646021,13.665165,19.334913,3.640673,9.789780,17.909384,7.472744,11.741603,17.582853,14.493899,0.000000,199.000000,4.000000,,,,0.000000,4.000000,4.000000,4.000000,4.000000,4.000000,4.000000,4.000000,4.000000,4.000000,4.000000,4.000000,2.000000,4.000000,4.000000,4.000000,4.000000,4.000000,4.000000,4.000000,4.000000,4.000000,4.000000,4.000000,4.000000,4.000000,4.000000,4.000000,4.000000,4.000000,2.000000,4.000000,4.000000,66.666664
1614491238.092075,78.000000,0.000000,7.263381,6.412164,10.935713,6.235168,13.193092,12.018702,17.624949,16.861120,0.744587,19.765829,18.341091,18.841705,17.793720,14.068286,24.957300,10.919541,22.796232,28.866674,17.596193,13.617968,25.429132,150.578323,24.081913,10.574577,16.751476,3.637032,-6.630267,17.378654,7.465272,10.704220,12.949885,14.479405,0.000000,192.000000,4.000000,,,,0.000000,4.000000,4.000000,4.000000,4.000000,4.000000,4.000000,4.000000,4.000000,4.000000,4.000000,4.000000,2.000000,4.000000,4.000000,4.000000,4.000000,4.000000,4.000000,4.000000,4.000000,4.000000,4.000000,4.000000,4.000000,4.000000,4.000000,4.000000,4.000000,4.000000,2.000000,4.000000,4.000000,66.666664
1614491238.099824,79.000000,0.000000,6.230476,6.405752,11.950418,1.100727,13.692720,12.006682,2.735528,12.228874,1.256663,10.515295,0.374031,-0.664316,0.852849,-7.484243,6.470804,-0.886250,6.363179,6.786526,5.270904,10.527427,19.762678,159.145706,13.288601,5.948618,15.196262,4.659036,-5.597995,17.874096,7.457807,10.693516,11.398474,14.464927,0.000000,147.000000,4.000000,,,,0.000000,4.000000,4.000000,4.000000,4.000000,4.000000,4.000000,4.000000,4.000000,4.000000,4.000000,4.000000,2.000000,4.000000,4.000000,4.000000,4.000000,4.000000,4.000000,4.000000,4.000000,4.000000,4.000000,4.000000,4.000000,4.000000,4.000000,4.000000,4.000000,4.000000,2.000000,4.000000,4.000000,66.666664
1614491238.107673,80.000000,0.000000,3.660143,5.886526,13.989750,0.586806,10.089284,11.994676,-16.754387,4.524338,1.255406,-3.854195,-11.421215,-12.458524,-12.481337,-27.476759,-21.227974,-6.526389,-6.463697,4.728457,3.727171,10.516899,14.101890,126.678864,4.557363,4.404208,12.104143,4.654377,7.740936,17.856222,7.450349,10.682822,9.848614,14.963282,0.000000,197.000000,4.000000,,,,0.000000,4.000000,4.000000,4.000000,4.000000,4.000000,4.000000,4.000000,4.000000,4.000000,4.000000,4.000000,2.000000,4.000000,4.000000,4.000000,4.000000,4.000000,4.000000,4.000000,4.000000,4.000000,4.000000,4.000000,4.000000,4.000000,4.000000,4.000000,4.000000,4.000000,2.000000,4.000000,4.000000,66.666664
1614491238.115422,81.000000,0.000000,2.630842,6.393460,13.975760,1.611860,3.412528,11.982681,-18.788916,-7.275059,0.741330,-11.029828,-15.512358,-11.933245,-17.597061,-31.039026,-31.463156,-9.596786,-11.585439,5.749370,6.287547,5.378177,13.574967,121.936798,7.629729,4.912624,9.015116,3.111261,4.143451,17.325544,7.442898,10.672139,7.787483,14.435498,0.000000,192.000000,4.000000,,,,0.000000,4.000000,4.000000,4.000000,4.000000,4.000000,4.000000,4.000000,4.000000,4.000000,4.000000,4.000000,2.000000,4.000000,4.000000,4.000000,4.000000,4.000000,4.000000,4.000000,4.000000,4.000000,4.000000,4.000000,4.000000,4.000000,4.000000,4.000000,4.000000,4.000000,2.000000,4.000000,4.000000,66.666664
1614491238.123271,82.000000,0.000000,3.141032,6.387066,16.013065,2.123069,1.357833,11.970698,-16.718843,-15.985732,1.253409,-9.993157,-14.984025,-10.895670,-16.041002,-28.956705,-26.816309,-10.612830,-7.984109,3.179518,5.255619,-0.781047,15.099854,154.635376,7.109279,5.420532,7.467639,5.159432,-6.629923,17.308220,7.948276,11.687108,7.266875,12.882601,0.000000,191.000000,4.000000,,,,0.000000,4.000000,4.000000,4.000000,4.000000,4.000000,4.000000,4.000000,4.000000,4.000000,4.000000,4.000000,2.000000,4.000000,4.000000,4.000000,4.000000,4.000000,4.000000,4.000000,4.000000,4.000000,4.000000,4.000000,4.000000,4.000000,4.000000,4.000000,4.000000,4.000000,2.000000,4.000000,4.000000,66.666664
1614491238.131020,83.000000,0.000000,3.137891,3.816577,12.407310,-6.597003,1.356475,11.958728,-20.291868,-15.969747,0.226515,-16.137011,-17.020323,-11.397594,-10.383936,-29.953390,-32.430519,-11.115038,-5.412023,4.201979,4.224722,-2.318727,14.059114,157.044846,-1.102959,4.389471,5.408889,5.667093,-4.059190,17.803732,5.889046,6.547216,5.721147,12.356898,0.000000,178.000000,4.000000,,,,0.000000,4.000000,4.000000,4.000000,4.000000,4.000000,4.000000,4.000000,4.000000,4.000000,4.000000,4.000000,2.000000,4.000000,4.000000,4.000000,4.000000,4.000000,4.000000,4.000000,4.000000,4.000000,4.000000,4.000000,4.000000,4.000000,4.000000,4.000000,4.000000,4.000000,2.000000,4.000000,4.000000,66.666664
1614491238.138670,84.000000,0.000000,3.134753,2.274299,-6.066637,-18.385279,-1.208984,11.946769,-11.040808,-14.928136,-5.927558,-27.915745,-15.977661,-10.873377,-3.194064,-20.179846,-37.013474,-12.129563,-5.406610,7.274700,7.297420,-2.316409,13.532233,124.580101,-4.691599,3.872260,3.865019,-4.594984,-0.465388,17.785929,3.831875,-0.125998,1.612861,7.729156,0.000000,212.000000,4.000000,,,,0.000000,4.000000,4.000000,4.000000,4.000000,4.000000,4.000000,4.000000,4.000000,4.000000,4.000000,4.000000,2.000000,4.000000,4.000000,4.000000,4.000000,4.000000,4.000000,4.000000,4.000000,4.000000,4.000000,4.000000,4.000000,4.000000,4.000000,4.000000,4.000000,4.000000,4.000000,4.000000,4.000000,83.333336
1614491238.146419,85.000000,0.000000,3.131618,2.272024,-15.291339,-14.264329,-2.746236,11.934822,7.944592,-15.938848,-10.024195,-22.759624,-0.064248,-5.734298,6.039899,8.558283,-18.002100,-3.399485,5.880847,16.498196,14.469610,0.250010,18.646906,136.250397,-0.071523,10.022234,4.373974,-8.180133,-2.516204,16.742500,3.315222,1.412590,0.072787,-1.509342,0.000000,180.000000,4.000000,,,,0.000000,4.000000,4.000000,4.000000,4.000000,4.000000,4.000000,4.000000,4.000000,4.000000,4.000000,4.000000,2.000000,4.000000,4.000000,4.000000,4.000000,4.000000,4.000000,4.000000,4.000000,4.000000,4.000000,4.000000,4.000000,4.000000,4.000000,4.000000,4.000000,4.000000,4.000000,4.000000,4.000000,83.333336
1614491238.154068,86.000000,0.000000,3.128486,2.269753,-3.993996,-11.173141,-1.717849,11.922888,14.603314,-11.307525,-7.962888,-5.813787,17.371714,7.604769,15.777449,33.165108,8.682569,7.885965,21.772402,23.148363,17.532063,3.839504,25.294926,168.934662,8.646497,18.730162,4.369601,1.058817,2.101696,19.289862,3.824728,6.539382,0.585535,-5.097576,0.000000,198.000000,4.000000,,,,0.000000,4.000000,4.000000,4.000000,4.000000,4.000000,4.000000,4.000000,4.000000,4.000000,4.000000,4.000000,2.000000,4.000000,4.000000,4.000000,4.000000,4.000000,4.000000,4.000000,4.000000,4.000000,4.000000,4.000000,4.000000,4.000000,4.000000,4.000000,4.000000,4.000000,4.000000,4.000000,4.000000,83.333336
1614491238.161817,87.000000,0.000000,3.125358,1.754662,2.676664,-19.367096,-2.741772,11.910965,13.050249,0.498654,-6.929284,-3.243871,19.405624,18.879215,19.351416,36.208866,15.340553,6.339618,24.827553,16.458548,12.386326,5.374126,25.269630,161.586243,13.253235,19.737072,3.852411,-0.480704,9.279082,23.885956,3.820903,6.532843,0.072129,-2.528376,0.000000,206.000000,4.000000,,,,0.000000,4.000000,4.000000,4.000000,4.000000,4.000000,4.000000,4.000000,4.000000,4.000000,4.000000,4.000000,2.000000,4.000000,4.000000,4.000000,4.000000,4.000000,4.000000,4.000000,4.000000,4.000000,4.000000,4.000000,4.000000,4.000000,4.000000,4.000000,4.000000,4.000000,4.000000,4.000000,4.000000,83.333336
1614491238.169466,88.000000,0.000000,3.122232,2.265728,2.673988,-7.040037,-1.713389,11.899054,16.114122,8.190463,-6.922355,0.861937,18.873398,20.911619,19.844883,30.531631,12.761110,6.846099,23.264263,17.467731,14.938043,14.086700,26.270002,129.116959,10.163059,19.717335,6.925481,-10.223813,10.295444,25.400532,3.817082,6.526310,0.584877,0.038255,0.000000,197.000000,4.000000,,,,0.000000,4.000000,4.000000,4.000000,4.000000,4.000000,4.000000,4.000000,4.000000,4.000000,4.000000,4.000000,2.000000,4.000000,4.000000,4.000000,4.000000,4.000000,4.000000,4.000000,4.000000,4.000000,4.000000,4.000000,4.000000,4.000000,4.000000,4.000000,4.000000,4.000000,4.000000,4.000000,4.000000,83.333336
1614491238.177215,89.000000,0.000000,3.119110,2.263462,9.850801,20.146490,0.852427,11.887155,19.687752,6.643811,-5.889791,24.450819,27.059652,20.377886,22.389141,34.090843,21.979118,18.121304,27.856384,31.296417,24.666695,23.303383,31.371939,149.500656,19.383665,22.774540,12.559581,-7.136666,9.259507,26.400772,4.326085,7.545425,1.609933,0.551037,0.000000,192.000000,4.000000,,,,0.000000,4.000000,4.000000,4.000000,4.000000,4.000000,4.000000,4.000000,4.000000,4.000000,4.000000,4.000000,2.000000,4.000000,4.000000,4.000000,4.000000,4.000000,4.000000,4.000000,4.000000,4.000000,4.000000,4.000000,4.000000,4.000000,4.000000,4.000000,4.000000,4.000000,4.000000,4.000000,4.000000,83.333336
1614491238.184864,90.000000,0.000000,3.628812,0.209917,7.276847,19.100702,1.877215,12.388088,16.591141,4.585886,-7.422363,33.144318,27.032593,20.357510,22.879574,33.031113,31.187908,18.103182,26.290066,26.136915,22.077925,10.459567,24.673899,182.171677,36.287357,16.597919,13.059842,-2.514145,9.250248,24.835909,4.834579,6.512239,0.069862,-0.987975,0.000000,174.000000,4.000000,,,,0.000000,4.000000,4.000000,4.000000,4.000000,4.000000,4.000000,4.000000,4.000000,4.000000,4.000000,4.000000,2.000000,4.000000,4.000000,4.000000,4.000000,4.000000,4.000000,4.000000,4.000000,4.000000,4.000000,4.000000,4.000000,4.000000,4.000000,4.000000,4.000000,4.000000,4.000000,4.000000,4.000000,83.333336
1614491238.192613,91.000000,0.000000,3.112362,-1.328755,0.602904,5.235448,3.413800,11.862880,16.574551,7.145402,-5.363659,17.213736,21.364534,19.311510,21.831053,18.126286,29.105438,12.444054,19.597109,18.418470,19.491745,0.192697,18.495378,151.733093,25.481840,9.401834,12.021141,-3.537271,11.292280,18.657227,3.804104,11.633931,1.095433,0.551474,0.000000,197.000000,4.000000,,,,0.000000,4.000000,4.000000,4.000000,4.000000,4.000000,4.000000,4.000000,4.000000,4.000000,4.000000,4.000000,2.000000,4.000000,4.000000,4.000000,4.000000,4.000000,4.000000,4.000000,4.000000,4.000000,4.000000,4.000000,4.000000,4.000000,4.000000,4.000000,4.000000,4.000000,4.000000,4.000000,4.000000,83.333336
1614491238.200263,92.000000,0.000000,3.622071,1.236677,14.961275,10.871239,8.538591,11.338196,17.583616,9.189539,4.898115,14.632420,30.061119,21.343481,22.322042,12.467134,28.563513,19.098276,19.577513,40.451336,34.344048,17.628401,30.271755,119.273666,4.430717,19.136023,14.060402,4.671394,13.845090,19.664211,4.313120,23.417170,7.761004,9.781692,0.000000,201.000000,4.000000,,,,0.000000,4.000000,4.000000,4.000000,4.000000,4.000000,4.000000,4.000000,4.000000,4.000000,4.000000,4.000000,2.000000,4.000000,4.000000,4.000000,4.000000,4.000000,4.000000,4.000000,4.000000,4.000000,4.000000,4.000000,4.000000,4.000000,4.000000,4.000000,4.000000,4.000000,4.000000,4.000000,4.000000,83.333336
1614491238.208012,93.000000,0.000000,3.105628,5.850824,22.638622,10.860368,10.068514,12.865319,7.309622,3.026503,8.995781,18.207531,29.005417,14.655471,13.068951,15.531590,29.047770,17.027897,14.429729,48.103191,35.848164,22.226158,29.728662,151.462082,16.733978,21.168169,8.405316,10.820569,11.779963,22.208649,4.821628,26.470675,6.214781,9.771910,0.000000,203.000000,4.000000,,,,0.000000,4.000000,4.000000,4.000000,4.000000,4.000000,4.000000,4.000000,4.000000,4.000000,4.000000,4.000000,2.000000,4.000000,4.000000,4.000000,4.000000,4.000000,4.000000,4.000000,4.000000,4.000000,4.000000,4.000000,4.000000,4.000000,4.000000,4.000000,4.000000,4.000000,4.000000,4.000000,4.000000,83.333336
1614491238.215661,94.000000,0.000000,0.538420,5.844974,-0.460940,-9.150493,3.391779,11.313993,-12.184867,-6.720113,1.807298,-3.349138,-0.767178,-6.384826,-6.431298,-1.407018,8.505901,-5.553234,-8.148803,15.747396,5.555906,-6.514017,2.006627,184.131134,30.050579,-3.468384,-6.987704,3.117440,5.101516,6.801826,-0.824219,16.187794,-9.688869,-5.109657,0.000000,169.000000,4.000000,,,,0.000000,4.000000,4.000000,4.000000,4.000000,4.000000,4.000000,4.000000,4.000000,4.000000,4.000000,4.000000,2.000000,4.000000,4.000000,4.000000,4.000000,4.000000,4.000000,4.000000,4.000000,4.000000,4.000000,4.000000,4.000000,4.000000,4.000000,4.000000,4.000000,4.000000,4.000000,4.000000,4.000000,83.333336
1614491238.223410,95.000000,0.000000,-3.051862,2.249385,-18.922018,-19.910574,-2.252639,5.661653,-22.429092,-11.841599,-2.809894,-24.371429,-24.868975,-17.660492,-16.681276,-23.456894,-20.733374,-22.983578,-27.115013,-14.524762,-18.039392,-24.969042,-15.431277,151.639313,3.353861,-25.516197,-17.749949,-4.577985,1.506671,-10.640874,-10.054165,6.428017,-18.397129,-10.745573,0.000000,200.000000,4.000000,,,,0.000000,4.000000,4.000000,4.000000,4.000000,4.000000,4.000000,4.000000,4.000000,4.000000,4.000000,4.000000,2.000000,4.000000,4.000000,4.000000,4.000000,4.000000,4.000000,4.000000,4.000000,4.000000,4.000000,4.000000,4.000000,4.000000,4.000000,4.000000,4.000000,4.000000,4.000000,4.000000,4.000000,83.333336
1614491238.231059,96.000000,0.000000,-4.587272,2.247136,-10.185146,-17.326561,-1.737566,4.630350,-17.791279,-11.316936,-2.807084,-19.218853,-21.767183,-10.976165,-9.997929,-16.253950,-26.353666,-20.396492,-21.446873,-4.766648,-14.431610,-18.277407,-9.262000,119.179977,-20.239237,-20.362476,-17.219378,-3.034945,-2.597399,-7.553310,-11.582572,6.421588,-16.840271,-4.580981,8064.000000,0.000000,4.000000,,,,0.000000,4.000000,4.000000,4.000000,4.000000,4.000000,4.000000,4.000000,4.000000,4.000000,4.000000,4.000000,2.000000,4.000000,4.000000,4.000000,4.000000,4.000000,4.000000,4.000000,4.000000,4.000000,4.000000,4.000000,4.000000,4.000000,4.000000,4.000000,4.000000,4.000000,4.000000,4.000000,4.000000,83.333336
1614491238.238808,97.000000,0.000000,-4.069864,3.270530,0.594269,-16.283592,-1.223007,7.702643,-12.132462,-10.792799,-8.958123,-11.507327,-15.078749,-6.862625,-1.269982,0.172561,-18.122185,-11.145327,-5.527989,5.494529,-6.212050,-13.643744,-5.150174,151.881317,-8.936946,-9.572884,-16.689337,-2.519090,-8.748649,0.146551,-10.545348,7.953629,-21.438814,-5.602041,8064.000000,0.000000,4.000000,,,,0.000000,4.000000,4.000000,4.000000,4.000000,4.000000,4.000000,4.000000,4.000000,4.000000,4.000000,4.000000,2.000000,4.000000,4.000000,4.000000,4.000000,4.000000,4.000000,4.000000,4.000000,4.000000,4.000000,4.000000,4.000000,4.000000,4.000000,4.000000,4.000000,4.000000,4.000000,4.000000,4.000000,83.333336
1614491238.246457,98.000000,0.000000,-4.065794,-0.835305,-0.431966,-18.831411,-3.785887,5.130838,-10.069047,-12.320467,-14.590191,-14.059922,-13.012388,-4.291660,-0.243071,2.223671,-16.565601,-7.031617,-1.932718,1.386470,-6.718658,-17.219843,-8.734767,184.549942,3.379683,-10.588951,-21.288033,-3.542212,-9.765541,-3.956159,-11.047624,4.355931,-29.109684,-11.750285,8064.000000,0.000000,4.000000,,,,0.000000,4.000000,4.000000,4.000000,4.000000,4.000000,4.000000,4.000000,4.000000,4.000000,4.000000,4.000000,2.000000,4.000000,4.000000,4.000000,4.000000,4.000000,4.000000,4.000000,4.000000,4.000000,4.000000,4.000000,4.000000,4.000000,4.000000,4.000000,4.000000,4.000000,4.000000,4.000000,4.000000,83.333336
1614491238.254306,99.000000,0.000000,-4.061728,-4.937034,-2.995637,-21.376682,-4.807742,0.510322,-5.956414,-10.256865,-13.549959,-15.071504,-3.768607,4.943401,-1.268469,6.836832,-15.523395,-7.024586,-3.982067,0.872263,-8.763222,-18.741085,-11.290134,152.057709,-2.264722,-15.706568,-23.830847,-3.025849,-8.217314,-5.490665,-10.010935,3.325934,-29.080574,-11.738535,8064.000000,0.000000,4.000000,,,,0.000000,4.000000,4.000000,4.000000,4.000000,4.000000,4.000000,4.000000,4.000000,4.000000,4.000000,4.000000,2.000000,4.000000,4.000000,4.000000,4.000000,4.000000,4.000000,4.000000,4.000000,4.000000,4.000000,4.000000,4.000000,4.000000,4.000000,4.000000,4.000000,4.000000,4.000000,4.000000,4.000000,83.333336
1614491238.262055,100.000000,0.000000,-5.083308,-3.393635,3.674026,-20.842485,-0.187550,1.022632,-1.335073,-6.656865,-14.049230,-13.517970,2.389008,8.015381,0.271261,13.496661,-11.918127,-4.966279,-1.926803,3.435493,-10.805741,-18.722343,-13.842947,119.597954,-9.954765,-16.203682,-24.319838,-3.022823,-12.311661,-3.433892,-7.436821,8.450813,-29.051493,-10.188334,8064.000000,0.000000,4.000000,,,,0.000000,4.000000,4.000000,4.000000,4.000000,4.000000,4.000000,4.000000,4.000000,4.000000,4.000000,4.000000,2.000000,4.000000,4.000000,4.000000,4.000000,4.000000,4.000000,4.000000,4.000000,4.000000,4.000000,4.000000,4.000000,4.000000,4.000000,4.000000,4.000000,4.000000,4.000000,4.000000,4.000000,83.333336
1614491238.269904,101.000000,0.000000,-7.642327,-0.826139,11.362659,-18.257540,2.376740,-0.004031,-1.333738,-7.675848,-14.035181,-10.940350,-1.203125,4.417622,0.270990,9.380601,-12.419029,-5.474133,-1.412055,0.355135,-12.846217,-18.703623,-14.341925,152.298874,-8.919169,-16.187477,-25.321157,-2.506980,-17.427553,-4.968920,-6.403743,10.493645,-28.509621,-10.690967,8064.000000,0.000000,4.000000,,,,0.000000,4.000000,4.000000,4.000000,4.000000,4.000000,4.000000,4.000000,4.000000,4.000000,4.000000,4.000000,2.000000,4.000000,4.000000,4.000000,4.000000,4.000000,4.000000,4.000000,4.000000,4.000000,4.000000,4.000000,4.000000,4.000000,4.000000,4.000000,4.000000,4.000000,4.000000,4.000000,4.000000,83.333336
1614491238.277654,102.000000,0.000000,-8.147505,-1.338133,2.120527,-17.213642,1.861543,-5.132232,-2.358045,-6.642532,-6.328838,-6.826845,-3.766024,4.926025,-0.242102,4.755836,-8.304047,-7.007121,-2.949105,-0.670861,-8.730807,-15.607995,-9.199378,179.326050,-2.243583,-16.171291,-21.706093,-2.504473,-14.333203,-2.399848,-6.910160,7.406228,-19.763163,-11.193096,8064.000000,0.000000,4.000000,,,,0.000000,4.000000,4.000000,4.000000,4.000000,4.000000,4.000000,4.000000,4.000000,4.000000,4.000000,4.000000,2.000000,4.000000,4.000000,4.000000,4.000000,4.000000,4.000000,4.000000,4.000000,4.000000,4.000000,4.000000,4.000000,4.000000,4.000000,4.000000,4.000000,4.000000,4.000000,4.000000,4.000000,83.333336
1614491238.285502,103.000000,0.000000,-7.626537,-3.388077,-16.343132,-13.093864,1.859681,-7.178382,-0.817225,1.569239,-2.219945,-6.820018,0.340306,7.998022,-0.754680,4.238259,2.473488,0.179374,1.156408,11.637502,2.559975,-10.464182,-2.010691,146.839035,5.450968,-9.488453,-12.966438,-5.066071,-10.729126,5.294859,-6.903250,6.373181,-12.563912,-10.669083,8064.000000,0.000000,4.000000,,,,0.000000,4.000000,4.000000,4.000000,4.000000,4.000000,4.000000,4.000000,4.000000,4.000000,4.000000,4.000000,2.000000,4.000000,4.000000,4.000000,4.000000,4.000000,4.000000,4.000000,4.000000,4.000000,4.000000,4.000000,4.000000,4.000000,4.000000,4.000000,4.000000,4.000000,4.000000,4.000000,4.000000,83.333336
1614491238.293252,104.000000,0.000000,-7.618911,-4.923151,-16.326788,-3.850001,0.319360,-7.171204,1.234874,4.644593,-10.935674,-2.710634,4.442530,7.990024,-1.266746,4.746841,6.573579,5.307400,5.770637,27.010479,9.736902,-7.376795,1.068243,131.307587,5.958337,-2.299477,-7.825267,-6.599466,-13.795321,5.802385,-6.383526,7.392448,-15.628272,-10.658414,8064.000000,0.000000,4.000000,,,,0.000000,4.000000,4.000000,4.000000,4.000000,4.000000,4.000000,4.000000,4.000000,4.000000,4.000000,4.000000,2.000000,4.000000,4.000000,4.000000,4.000000,4.000000,4.000000,4.000000,4.000000,4.000000,4.000000,4.000000,4.000000,4.000000,4.000000,4.000000,4.000000,4.000000,4.000000,4.000000,4.000000,83.333336
1614491238.301101,105.000000,0.000000,-7.611292,-5.431048,0.099795,-0.769228,-2.245062,-6.138391,1.746459,-5.103642,-18.617046,4.984384,1.873985,7.469213,-0.239838,4.229274,4.002903,-5.979959,0.123840,21.855265,8.701525,-8.395059,0.554354,163.996796,2.362636,-2.809998,-9.355903,-6.592867,-9.166141,3.232480,-6.889963,6.872236,-15.612643,-11.160576,8064.000000,0.000000,4.000000,,,,0.000000,4.000000,4.000000,4.000000,4.000000,4.000000,4.000000,4.000000,4.000000,4.000000,4.000000,4.000000,2.000000,4.000000,4.000000,4.000000,4.000000,4.000000,4.000000,4.000000,4.000000,4.000000,4.000000,4.000000,4.000000,4.000000,4.000000,4.000000,4.000000,4.000000,4.000000,4.000000,4.000000,83.333336
1614491238.308850,106.000000,0.000000,-8.629321,-4.912796,0.612515,-11.024869,-1.729996,-6.645073,0.719072,-11.765204,-17.572788,-1.174446,-4.794556,7.461744,-1.265240,-2.441622,-1.642126,-15.204748,-8.081412,6.961614,5.615900,-7.873844,0.553799,172.550735,2.873093,-5.884111,-10.372189,-7.611915,11.355846,8.357452,-6.883073,7.378184,-9.956005,-11.149415,8064.000000,0.000000,4.000000,,,,0.000000,4.000000,4.000000,4.000000,4.000000,4.000000,4.000000,4.000000,4.000000,4.000000,4.000000,4.000000,2.000000,4.000000,4.000000,4.000000,4.000000,4.000000,4.000000,4.000000,4.000000,4.000000,4.000000,4.000000,4.000000,4.000000,4.000000,4.000000,4.000000,4.000000,4.000000,4.000000,4.000000,83.333336
1614491238.316699,107.000000,0.000000,-7.082231,-5.420704,-17.336815,-21.783075,-2.753907,-7.664070,1.231174,-4.573952,-17.042395,-9.891221,-2.738479,7.454282,-0.751154,-2.439180,-3.178945,-6.984416,-3.970766,11.570037,5.610284,-4.276226,1.578887,140.070496,4.921502,-5.365407,-8.823355,-10.168406,19.549618,15.015761,-6.876190,6.857985,-9.433228,-10.625445,8064.000000,0.000000,4.000000,,,,0.000000,4.000000,4.000000,4.000000,4.000000,4.000000,4.000000,4.000000,4.000000,4.000000,4.000000,4.000000,2.000000,4.000000,4.000000,4.000000,4.000000,4.000000,4.000000,4.000000,4.000000,4.000000,4.000000,4.000000,4.000000,4.000000,4.000000,4.000000,4.000000,4.000000,4.000000,4.000000,4.000000,83.333336
1614491238.324448,108.000000,0.000000,-2.459764,-4.902463,-20.396400,-19.710011,-1.725512,-2.528200,7.896609,3.635750,-18.050993,-1.163381,8.546310,9.498110,9.506007,18.588900,13.747311,0.202056,7.315256,22.840519,7.655956,-3.246309,3.628590,146.597092,4.403760,-1.257477,-8.301710,-11.183878,1.581351,15.000746,-6.869314,2.748563,-13.526360,-11.127641,8064.000000,0.000000,4.000000,,,,0.000000,4.000000,4.000000,4.000000,4.000000,4.000000,4.000000,4.000000,4.000000,4.000000,4.000000,4.000000,2.000000,4.000000,4.000000,4.000000,4.000000,4.000000,4.000000,4.000000,4.000000,4.000000,4.000000,4.000000,4.000000,4.000000,4.000000,4.000000,4.000000,4.000000,4.000000,4.000000,4.000000,83.333336
1614491238.332297,109.000000,0.000000,0.106798,-3.359099,2.188098,-10.459531,5.968521,7.730738,18.145123,8.760320,-11.366276,10.119834,18.794174,15.642458,20.265732,38.570313,36.297665,3.791598,11.410504,20.766396,12.263684,-5.807165,6.701884,179.271011,10.040382,1.307883,-11.370332,-10.659874,-11.753564,13.960104,-6.862445,-0.843929,-14.538474,-11.116513,8192.000000,0.000000,4.000000,,,,0.000000,4.000000,4.000000,4.000000,4.000000,4.000000,4.000000,4.000000,4.000000,4.000000,4.000000,4.000000,2.000000,4.000000,4.000000,4.000000,4.000000,4.000000,4.000000,4.000000,4.000000,4.000000,4.000000,4.000000,4.000000,4.000000,4.000000,4.000000,4.000000,4.000000,4.000000,4.000000,4.000000,83.333336
1614491238.340046,110.000000,0.000000,0.106692,-0.791637,13.980782,-3.269584,13.142039,12.851213,24.280823,17.469507,-1.611319,16.263559,26.980509,23.831944,22.296749,39.044559,43.440857,16.095499,12.424735,26.386656,12.764241,-1.698794,7.720823,160.630203,18.748291,1.819396,-9.307679,-9.623573,-0.972579,13.433324,-6.855582,-1.868726,-13.498295,-7.002832,8064.000000,0.000000,4.000000,,,,0.000000,4.000000,4.000000,4.000000,4.000000,4.000000,4.000000,4.000000,4.000000,4.000000,4.000000,4.000000,2.000000,4.000000,4.000000,4.000000,4.000000,4.000000,4.000000,4.000000,4.000000,4.000000,4.000000,4.000000,4.000000,4.000000,4.000000,4.000000,4.000000,4.000000,4.000000,4.000000,4.000000,83.333336
1614491238.347895,111.000000,0.000000,2.157867,1.773257,9.864237,8.528558,13.128898,11.812720,23.230902,24.118706,1.980036,27.016527,33.107376,29.961958,22.274452,39.005516,44.423058,25.822992,19.078978,46.360268,10.700195,7.533674,7.713103,128.161880,18.216722,1.817576,4.547782,-8.075488,5.182240,14.958352,-6.848727,0.184425,-10.920694,-0.841983,8192.000000,0.000000,4.000000,,,,0.000000,4.000000,4.000000,4.000000,4.000000,4.000000,4.000000,4.000000,4.000000,4.000000,4.000000,4.000000,2.000000,4.000000,4.000000,4.000000,4.000000,4.000000,4.000000,4.000000,4.000000,4.000000,4.000000,4.000000,4.000000,4.000000,4.000000,4.000000,4.000000,4.000000,4.000000,4.000000,4.000000,83.333336
1614491238.355644,112.000000,0.000000,4.206991,2.797125,20.623604,18.776440,12.602948,11.800907,23.720491,19.992022,0.439594,31.092075,27.946062,30.444817,21.739357,39.479332,42.327351,20.668964,19.572718,41.698524,9.151033,1.372294,7.705389,154.700378,13.070300,1.815759,8.645799,-4.477669,-8.669097,13.917752,-6.841878,-0.841401,-9.884132,0.697320,8064.000000,0.000000,4.000000,,,,0.000000,4.000000,4.000000,4.000000,4.000000,4.000000,4.000000,4.000000,4.000000,4.000000,4.000000,4.000000,2.000000,4.000000,4.000000,4.000000,4.000000,4.000000,4.000000,4.000000,4.000000,4.000000,4.000000,4.000000,4.000000,4.000000,4.000000,4.000000,4.000000,4.000000,4.000000,4.000000,4.000000,83.333336
1614491238.363393,113.000000,0.000000,3.177143,1.768686,33.423492,8.501252,13.103166,12.301928,24.722412,14.843825,0.951975,21.830214,16.636065,28.363091,16.076591,23.029596,23.310665,11.417526,9.296736,16.015799,8.116241,-13.500873,6.159223,187.366196,13.057230,1.813943,-4.696181,-0.370627,-15.839914,8.262809,-7.860677,-4.943123,-10.899889,-0.841839,8064.000000,0.000000,4.000000,,,,0.000000,4.000000,4.000000,4.000000,4.000000,4.000000,4.000000,4.000000,4.000000,4.000000,4.000000,4.000000,2.000000,4.000000,4.000000,4.000000,4.000000,4.000000,4.000000,4.000000,4.000000,4.000000,4.000000,4.000000,4.000000,4.000000,4.000000,4.000000,4.000000,4.000000,4.000000,4.000000,4.000000,83.333336
1614491238.371142,114.000000,0.000000,3.173966,2.279738,20.569555,-1.250838,13.090063,11.776805,19.569485,14.828981,5.566408,16.680178,14.055326,27.309086,13.496412,7.621951,3.800174,7.816365,3.133593,16.512604,9.646586,-7.846346,7.691525,159.999344,10.480070,1.299309,-2.640203,0.655385,-2.490741,9.280188,-6.827175,-1.348437,-6.273605,1.723106,8064.000000,0.000000,4.000000,,,,0.000000,4.000000,4.000000,4.000000,4.000000,4.000000,4.000000,4.000000,4.000000,4.000000,4.000000,4.000000,2.000000,4.000000,4.000000,4.000000,4.000000,4.000000,4.000000,4.000000,4.000000,4.000000,4.000000,4.000000,4.000000,4.000000,4.000000,4.000000,4.000000,4.000000,4.000000,4.000000,4.000000,83.333336
1614491238.378791,115.000000,0.000000,3.170792,5.867202,9.266935,10.032464,12.564152,11.765028,12.370428,12.762870,9.663405,20.766062,14.041270,24.204853,15.021378,7.614329,4.309195,7.808549,4.668921,32.906349,15.277966,11.135859,10.247936,127.531647,4.315743,1.810830,17.362438,0.654729,6.229698,16.450394,-3.743425,10.960604,0.399336,8.388049,8064.000000,0.000000,4.000000,,,,0.000000,4.000000,4.000000,4.000000,4.000000,4.000000,4.000000,4.000000,4.000000,4.000000,4.000000,4.000000,2.000000,4.000000,4.000000,4.000000,4.000000,4.000000,4.000000,4.000000,4.000000,4.000000,4.000000,4.000000,4.000000,4.000000,4.000000,4.000000,4.000000,4.000000,4.000000,4.000000,4.000000,83.333336
1614491238.386540,116.000000,0.000000,3.167621,9.451078,16.437155,14.124995,12.551588,11.240442,10.819595,9.673184,11.705024,16.642733,10.437486,17.001162,5.775587,1.452868,4.304885,8.313560,4.151431,22.104210,16.288328,14.714467,9.724868,160.224625,6.362710,1.296198,18.370716,4.243818,4.685007,17.459585,-3.739682,14.539387,1.937398,11.969405,8064.000000,0.000000,4.000000,,,,0.000000,4.000000,4.000000,4.000000,4.000000,4.000000,4.000000,4.000000,4.000000,4.000000,4.000000,4.000000,2.000000,4.000000,4.000000,4.000000,4.000000,4.000000,4.000000,4.000000,4.000000,4.000000,4.000000,4.000000,4.000000,4.000000,4.000000,4.000000,4.000000,4.000000,4.000000,4.000000,4.000000,83.333336
1614491238.394189,117.000000,0.000000,3.164454,9.954448,17.959179,2.315999,12.539037,11.229202,11.321597,13.253255,11.693319,9.959423,6.324484,12.881597,-2.435317,-7.779354,-5.955830,6.253965,3.634459,7.210311,15.246399,7.520265,12.792066,192.884918,11.997373,1.294902,1.429269,8.342138,11.346989,20.006227,-3.223121,10.935104,0.909819,10.931794,8064.000000,0.000000,4.000000,,,,0.000000,4.000000,4.000000,4.000000,4.000000,4.000000,4.000000,4.000000,4.000000,4.000000,4.000000,4.000000,2.000000,4.000000,4.000000,4.000000,4.000000,4.000000,4.000000,4.000000,4.000000,4.000000,4.000000,4.000000,4.000000,4.000000,4.000000,4.000000,4.000000,4.000000,4.000000,4.000000,4.000000,83.333336
1614491238.401938,118.000000,0.000000,3.161289,9.431673,14.864298,5.390605,12.526497,13.269255,14.387198,16.316925,11.681625,18.154591,5.292519,14.919996,9.874811,6.587400,-1.334489,7.786173,10.810312,22.587717,22.410641,16.743515,27.651068,163.974091,13.011017,7.447453,-0.110622,9.359437,23.130512,28.191349,2.421127,12.462630,1.421730,10.920863,8064.000000,0.000000,4.000000,,,,0.000000,4.000000,4.000000,4.000000,4.000000,4.000000,4.000000,4.000000,4.000000,4.000000,4.000000,4.000000,2.000000,4.000000,4.000000,4.000000,4.000000,4.000000,4.000000,4.000000,4.000000,4.000000,4.000000,4.000000,4.000000,4.000000,4.000000,4.000000,4.000000,4.000000,4.000000,4.000000,4.000000,83.333336
1614491238.409588,119.000000,0.000000,3.158128,9.422241,25.618664,18.718548,12.513970,14.794447,23.090759,15.274966,12.182764,34.546692,11.953893,17.469179,25.762373,27.093634,19.692486,17.521976,16.440527,43.590771,32.131821,34.675488,38.905468,133.553696,12.485185,15.132314,10.658719,10.375719,26.184305,26.111877,8.572553,15.014271,1.420308,11.935583,8064.000000,0.000000,4.000000,,,,0.000000,4.000000,4.000000,4.000000,4.000000,4.000000,4.000000,4.000000,4.000000,4.000000,4.000000,4.000000,2.000000,4.000000,4.000000,4.000000,4.000000,4.000000,4.000000,4.000000,4.000000,4.000000,4.000000,4.000000,4.000000,4.000000,4.000000,4.000000,4.000000,4.000000,4.000000,4.000000,4.000000,83.333336
1614491238.417337,120.000000,0.000000,3.154970,9.925639,34.310993,21.263933,12.501457,15.805294,30.247156,19.362255,11.657762,39.640350,28.865015,17.964531,25.223789,31.681925,32.493305,25.709583,15.911266,44.572819,35.689430,32.076710,36.815281,166.240662,12.472700,17.681284,11.160881,12.416625,24.106840,18.393457,8.563980,14.486436,0.906068,10.898006,8192.000000,0.000000,4.000000,,,,0.000000,4.000000,4.000000,4.000000,4.000000,4.000000,4.000000,4.000000,4.000000,4.000000,4.000000,4.000000,2.000000,4.000000,4.000000,4.000000,4.000000,4.000000,4.000000,4.000000,4.000000,4.000000,4.000000,4.000000,4.000000,4.000000,4.000000,4.000000,4.000000,4.000000,4.000000,4.000000,4.000000,83.333336
1614491238.424986,121.000000,0.000000,3.151815,9.402893,25.045914,19.704206,12.488955,17.840771,31.242550,24.983919,11.646104,34.985329,41.656662,18.459387,24.172924,32.675884,31.947992,27.222334,15.382534,41.451324,36.166561,15.121557,34.727184,193.253906,12.460227,16.637962,4.995874,11.378568,20.492989,17.349422,7.529775,14.471950,0.905161,10.887108,8064.000000,0.000000,4.000000,,,,0.000000,4.000000,4.000000,4.000000,4.000000,4.000000,4.000000,4.000000,4.000000,4.000000,4.000000,4.000000,2.000000,4.000000,4.000000,4.000000,4.000000,4.000000,4.000000,4.000000,4.000000,4.000000,4.000000,4.000000,4.000000,4.000000,4.000000,4.000000,4.000000,4.000000,4.000000,4.000000,4.000000,83.333336
1614491238.432735,122.000000,0.000000,3.148663,7.342208,7.584970,14.043477,11.963646,17.310108,29.160025,24.958935,11.634458,30.847778,36.999622,18.440928,27.225676,32.643208,28.326302,26.682291,15.879972,44.486797,29.976549,8.439769,31.102713,160.752960,13.473408,13.544400,3.965237,6.751804,10.216085,12.716688,8.035066,9.842093,-1.659846,11.389042,8192.000000,0.000000,4.000000,,,,0.000000,4.000000,4.000000,4.000000,4.000000,4.000000,4.000000,4.000000,4.000000,4.000000,4.000000,4.000000,2.000000,4.000000,4.000000,4.000000,4.000000,4.000000,4.000000,4.000000,4.000000,4.000000,4.000000,4.000000,4.000000,4.000000,4.000000,4.000000,4.000000,4.000000,4.000000,4.000000,4.000000,83.333336
1614491238.440384,123.000000,0.000000,3.145514,5.796405,1.936360,6.337126,12.464502,13.190235,26.566763,25.446796,10.084361,27.740007,25.167751,18.422485,17.454859,24.405436,25.733871,23.065866,13.299990,42.391026,13.023496,10.995432,18.251097,128.284515,10.895832,7.889831,5.499733,-0.434435,-5.178746,3.473202,4.437287,3.678404,-6.273571,8.300730,8064.000000,0.000000,4.000000,,,,0.000000,4.000000,4.000000,4.000000,4.000000,4.000000,4.000000,4.000000,4.000000,4.000000,4.000000,4.000000,2.000000,4.000000,4.000000,4.000000,4.000000,4.000000,4.000000,4.000000,4.000000,4.000000,4.000000,4.000000,4.000000,4.000000,4.000000,4.000000,4.000000,4.000000,4.000000,4.000000,4.000000,83.333336
1614491238.448133,124.000000,0.000000,3.142369,5.277788,12.703654,6.330789,12.452038,11.125763,24.488914,24.395708,7.510174,25.148165,21.552839,18.404064,6.668174,17.714363,25.195318,16.376133,11.235408,33.630688,3.266882,9.958795,9.514897,160.976746,3.705449,4.805017,5.494234,-4.023744,-12.353054,3.469729,0.330285,2.136264,-7.805759,3.164224,8064.000000,0.000000,4.000000,,,,0.000000,4.000000,4.000000,4.000000,4.000000,4.000000,4.000000,4.000000,4.000000,4.000000,4.000000,4.000000,2.000000,4.000000,4.000000,4.000000,4.000000,4.000000,4.000000,4.000000,4.000000,4.000000,4.000000,4.000000,4.000000,4.000000,4.000000,4.000000,4.000000,4.000000,4.000000,4.000000,4.000000,83.333336
1614491238.455782,125.000000,0.000000,3.139226,5.785331,20.383259,8.888560,11.413945,9.576176,20.874681,15.140544,7.502664,26.661478,23.069748,18.385660,10.251249,19.747932,26.195763,14.821296,11.224173,27.956032,7.879000,8.923195,10.018204,175.687561,0.624820,5.313033,4.975919,-2.481258,-1.571470,7.056003,-0.182865,3.159769,-3.182569,2.648239,8064.000000,0.000000,4.000000,,,,0.000000,4.000000,4.000000,4.000000,4.000000,4.000000,4.000000,4.000000,4.000000,4.000000,4.000000,4.000000,2.000000,4.000000,4.000000,4.000000,4.000000,4.000000,4.000000,4.000000,4.000000,4.000000,4.000000,4.000000,4.000000,4.000000,4.000000,4.000000,4.000000,4.000000,4.000000,4.000000,4.000000,83.333336
1614491238.463532,126.000000,0.000000,3.136087,5.779545,15.234670,7.854031,12.428172,8.028137,16.238422,11.535660,8.520802,26.634815,18.944115,18.367273,13.830741,19.728184,28.220850,16.344936,11.725769,27.928076,12.486506,10.452734,11.033826,143.204178,5.239580,4.282079,2.919661,0.085325,16.378819,6.536127,0.330138,4.182250,4.512922,5.722514,8064.000000,0.000000,4.000000,,,,0.000000,4.000000,4.000000,4.000000,4.000000,4.000000,4.000000,4.000000,4.000000,4.000000,4.000000,4.000000,2.000000,4.000000,4.000000,4.000000,4.000000,4.000000,4.000000,4.000000,4.000000,4.000000,4.000000,4.000000,4.000000,4.000000,4.000000,4.000000,4.000000,4.000000,4.000000,4.000000,4.000000,83.333336
1614491238.471181,127.000000,0.000000,3.132951,5.773766,13.680974,12.974382,18.056770,9.558571,14.683722,18.703611,7.486641,19.941515,11.232862,18.348907,7.663064,14.067430,25.628527,13.251668,11.201222,28.925789,11.448379,7.878178,9.997151,133.830215,8.311264,1.200874,-1.698643,0.085240,19.952185,5.503950,-0.183013,6.742171,5.021229,7.255253,8064.000000,0.000000,4.000000,,,,0.000000,4.000000,4.000000,4.000000,4.000000,4.000000,4.000000,4.000000,4.000000,4.000000,4.000000,4.000000,2.000000,4.000000,4.000000,4.000000,4.000000,4.000000,4.000000,4.000000,4.000000,4.000000,4.000000,4.000000,4.000000,4.000000,4.000000,4.000000,4.000000,4.000000,4.000000,4.000000,4.000000,83.333336
1614491238.479030,0.000000,0.000000,3.129818,5.255171,17.257036,17.063972,19.064354,11.600294,15.694679,21.761831,6.966333,11.716445,8.657527,18.330557,5.091299,8.925158,13.295205,11.699955,11.702842,27.871222,11.436930,1.716454,10.499975,166.516891,8.815773,0.686853,-4.261047,0.085155,16.342487,6.524086,0.329991,5.196967,-1.650459,7.247998,0.000000,195.000000,4.000000,,,,0.000000,4.000000,4.000000,4.000000,4.000000,4.000000,4.000000,4.000000,4.000000,4.000000,4.000000,4.000000,2.000000,4.000000,4.000000,4.000000,4.000000,4.000000,4.000000,4.000000,4.000000,4.000000,4.000000,4.000000,4.000000,4.000000,4.000000,4.000000,4.000000,4.000000,4.000000,4.000000,4.000000,83.333336
1614491238.486779,1.000000,0.000000,3.639509,6.275557,13.137215,7.303318,16.481188,11.075873,15.166164,17.637505,10.549110,11.191908,10.700151,18.825048,6.624669,7.377770,-1.589885,12.201076,11.691139,23.740786,11.938313,-1.362186,11.515116,178.145248,9.319777,2.224627,-5.795248,2.649172,19.403069,7.030383,3.406584,3.653309,-2.674449,7.240749,0.000000,192.000000,4.000000,,,,0.000000,4.000000,4.000000,4.000000,4.000000,4.000000,4.000000,4.000000,4.000000,4.000000,4.000000,4.000000,2.000000,4.000000,4.000000,4.000000,4.000000,4.000000,4.000000,4.000000,4.000000,4.000000,4.000000,4.000000,4.000000,4.000000,4.000000,4.000000,4.000000,4.000000,4.000000,4.000000,4.000000,83.333336
1614491238.494628,2.000000,0.000000,3.635870,8.833385,14.149719,-3.473216,18.003168,13.116080,15.663818,16.594227,12.077024,12.206357,10.689451,18.806223,6.618044,8.396034,-2.613936,7.060669,12.192268,20.640121,9.875093,-0.335182,12.016421,145.659409,6.746355,2.222403,-5.276632,4.697805,11.691358,7.536173,4.941639,3.649655,-1.646134,7.233509,0.000000,186.000000,4.000000,,,,0.000000,4.000000,4.000000,4.000000,4.000000,4.000000,4.000000,4.000000,4.000000,4.000000,4.000000,4.000000,2.000000,4.000000,4.000000,4.000000,4.000000,4.000000,4.000000,4.000000,4.000000,4.000000,4.000000,4.000000,4.000000,4.000000,4.000000,4.000000,4.000000,4.000000,4.000000,4.000000,4.000000,83.333336
1614491238.502377,3.000000,0.000000,1.068131,9.850192,21.315056,-0.905640,19.523626,15.667067,18.725079,18.116093,7.449562,10.655689,9.140301,17.761776,6.098606,7.874817,7.132268,0.899762,11.154435,20.106661,6.275475,-1.873309,9.440302,125.513748,2.124224,0.168898,-6.296997,4.180287,-11.397257,5.477355,3.398236,0.569082,-7.798334,7.226275,0.000000,169.000000,4.000000,,,,0.000000,4.000000,4.000000,4.000000,4.000000,4.000000,4.000000,4.000000,4.000000,4.000000,4.000000,4.000000,2.000000,4.000000,4.000000,4.000000,4.000000,4.000000,4.000000,4.000000,4.000000,4.000000,4.000000,4.000000,4.000000,4.000000,4.000000,4.000000,4.000000,4.000000,4.000000,4.000000,4.000000,83.333336
1614491238.510226,4.000000,0.000000,-0.471399,9.327521,13.088614,4.736291,16.427179,15.651400,17.680712,17.585157,10.006215,14.747598,11.182442,18.769655,6.092507,7.354122,12.253341,1.924503,11.143281,20.599375,11.910225,-1.358615,10.969323,158.208755,3.147741,3.758473,-6.803520,4.176106,-19.078167,5.984698,3.907658,-0.457128,-9.328997,7.219049,0.000000,211.000000,4.000000,,,,0.000000,4.000000,4.000000,4.000000,4.000000,4.000000,4.000000,4.000000,4.000000,4.000000,4.000000,4.000000,2.000000,4.000000,4.000000,4.000000,4.000000,4.000000,4.000000,4.000000,4.000000,4.000000,4.000000,4.000000,4.000000,4.000000,4.000000,4.000000,4.000000,4.000000,4.000000,4.000000,4.000000,83.333336
1614491238.517975,5.000000,0.000000,-0.470927,9.318193,-4.360373,4.731555,14.872291,15.635748,15.611749,17.567572,20.765440,14.732850,15.786644,18.750885,6.086415,7.859588,10.189805,4.999502,11.644958,21.091597,15.488058,0.181205,11.983995,165.230026,5.195876,6.831637,-4.232614,4.171930,-13.418063,8.029995,5.442212,5.184355,-1.627360,7.724650,0.000000,197.000000,4.000000,,,,0.000000,4.000000,4.000000,4.000000,4.000000,4.000000,4.000000,4.000000,4.000000,4.000000,4.000000,4.000000,2.000000,4.000000,4.000000,4.000000,4.000000,4.000000,4.000000,4.000000,4.000000,4.000000,4.000000,4.000000,4.000000,4.000000,4.000000,4.000000,4.000000,4.000000,4.000000,4.000000,4.000000,83.333336
1614491238.525824,6.000000,0.000000,-4.573020,9.308875,-5.381654,3.188362,15.883060,14.594471,15.596137,18.062824,19.206213,1.384784,16.283678,11.552647,6.593149,8.364550,7.615513,3.968861,7.530749,19.019222,1.113596,-8.024104,-0.335681,132.757111,4.677859,-3.431604,-8.843766,2.116477,-20.071312,-0.695983,-2.255538,4.666350,-0.600092,6.691285,0.000000,187.000000,4.000000,,,,0.000000,4.000000,4.000000,4.000000,4.000000,4.000000,4.000000,4.000000,4.000000,4.000000,4.000000,4.000000,2.000000,4.000000,4.000000,4.000000,4.000000,4.000000,4.000000,4.000000,4.000000,4.000000,4.000000,4.000000,4.000000,4.000000,4.000000,4.000000,4.000000,4.000000,4.000000,4.000000,4.000000,83.333336
1614491238.533573,7.000000,0.000000,-8.158191,9.299566,4.880138,5.236455,15.867176,12.015774,10.965157,15.993480,6.879313,-7.334550,13.703292,3.848787,6.073735,7.843364,10.172000,3.964893,-1.194731,17.974562,-9.656749,-15.195567,-12.643038,136.726913,4.673181,-13.171762,-18.578512,0.063078,-22.102522,-11.977339,-10.971231,1.071940,-6.240518,7.197414,0.000000,193.000000,4.000000,,,,0.000000,4.000000,4.000000,4.000000,4.000000,4.000000,4.000000,4.000000,4.000000,4.000000,4.000000,4.000000,2.000000,4.000000,4.000000,4.000000,4.000000,4.000000,4.000000,4.000000,4.000000,4.000000,4.000000,4.000000,4.000000,4.000000,4.000000,4.000000,4.000000,4.000000,4.000000,4.000000,4.000000,83.333336
1614491238.541422,8.000000,0.000000,-4.560289,9.290267,7.439361,5.744040,15.851309,10.978117,4.287525,12.387743,2.769870,-2.199010,14.715230,5.383399,5.554841,7.835521,10.161828,4.473748,1.883387,22.571972,5.737524,-5.949603,-1.348343,169.410690,4.668508,-2.389360,-16.508652,0.063015,3.047785,-3.247412,-7.883337,4.147791,-6.747097,8.215858,0.000000,198.000000,4.000000,,,,0.000000,4.000000,4.000000,4.000000,4.000000,4.000000,4.000000,4.000000,4.000000,4.000000,4.000000,4.000000,2.000000,4.000000,4.000000,4.000000,4.000000,4.000000,4.000000,4.000000,4.000000,4.000000,4.000000,4.000000,4.000000,4.000000,4.000000,4.000000,4.000000,4.000000,4.000000,4.000000,4.000000,83.333336
1614491238.549171,9.000000,0.000000,-0.453165,9.280977,5.893460,0.610090,15.835458,10.967139,5.308878,9.298432,4.818382,0.880112,17.264618,10.506221,10.677491,10.904609,7.074743,4.469275,15.214837,28.190426,20.603580,6.876860,19.165825,171.292572,5.176660,11.972004,-7.261374,0.575772,27.147301,13.166091,-0.183146,5.682105,-6.227530,4.617898,0.000000,178.000000,4.000000,,,,0.000000,4.000000,4.000000,4.000000,4.000000,4.000000,4.000000,4.000000,4.000000,4.000000,4.000000,4.000000,2.000000,4.000000,4.000000,4.000000,4.000000,4.000000,4.000000,4.000000,4.000000,4.000000,4.000000,4.000000,4.000000,4.000000,4.000000,4.000000,4.000000,4.000000,4.000000,4.000000,4.000000,83.333336
1614491238.557020,10.000000,0.000000,-0.452712,9.271696,5.374746,0.609480,15.819622,11.468992,10.944595,9.289134,4.300744,0.366411,18.272993,11.008535,16.820660,14.996268,13.221515,7.028908,23.404751,31.239159,19.557337,6.357162,23.249224,138.813583,11.325330,12.472852,-5.202830,0.575197,29.171436,15.204207,0.842678,3.625141,-5.708482,-0.002104,0.000000,160.000000,4.000000,,,,0.000000,4.000000,4.000000,4.000000,4.000000,4.000000,4.000000,4.000000,4.000000,4.000000,4.000000,4.000000,2.000000,4.000000,4.000000,4.000000,4.000000,4.000000,4.000000,4.000000,4.000000,4.000000,4.000000,4.000000,4.000000,4.000000,4.000000,4.000000,4.000000,4.000000,4.000000,4.000000,4.000000,83.333336
1614491238.564769,11.000000,0.000000,-0.965079,9.775245,6.395012,8.813999,16.316624,11.457523,12.472112,10.305486,3.783622,7.545532,17.741899,9.971886,16.291019,16.006912,23.464703,8.560340,23.381346,32.233562,19.024958,2.761062,21.174692,165.854263,15.929389,12.460380,-3.146345,0.574621,27.090982,12.624901,-0.696626,7.724080,-0.574568,3.587641,0.000000,191.000000,4.000000,,,,0.000000,4.000000,4.000000,4.000000,4.000000,4.000000,4.000000,4.000000,4.000000,4.000000,4.000000,4.000000,2.000000,4.000000,4.000000,4.000000,4.000000,4.000000,4.000000,4.000000,4.000000,4.000000,4.000000,4.000000,4.000000,4.000000,4.000000,4.000000,4.000000,4.000000,4.000000,4.000000,4.000000,83.333336
1614491238.572618,12.000000,0.000000,-0.451294,8.227008,6.901438,2.138518,14.761845,9.394784,10.921178,9.269539,2.754198,11.640551,15.160055,10.987555,13.197804,14.965264,16.261751,6.500498,20.793861,29.124405,18.493113,2.758301,22.691978,198.508911,15.913460,12.960739,1.985006,0.574047,27.576712,14.150737,0.329712,10.793279,0.451647,7.173797,0.000000,188.000000,4.000000,,,,0.000000,4.000000,4.000000,4.000000,4.000000,4.000000,4.000000,4.000000,4.000000,4.000000,4.000000,4.000000,2.000000,4.000000,4.000000,4.000000,4.000000,4.000000,4.000000,4.000000,4.000000,4.000000,4.000000,4.000000,4.000000,4.000000,4.000000,4.000000,4.000000,4.000000,4.000000,4.000000,4.000000,83.333336
1614491238.580367,13.000000,0.000000,-0.450843,5.654678,-1.310592,-11.196954,12.182981,7.846928,10.910257,8.747449,0.187341,8.039166,11.555152,10.976567,13.184607,15.463120,0.860874,3.417074,17.183325,23.967075,10.269491,-1.347022,19.592363,166.002716,17.436007,3.204189,-0.581081,0.573473,22.933750,14.649406,0.842203,5.141460,-4.677010,4.602521,0.000000,193.000000,4.000000,,,,0.000000,4.000000,4.000000,4.000000,4.000000,4.000000,4.000000,4.000000,4.000000,4.000000,4.000000,4.000000,2.000000,4.000000,4.000000,4.000000,4.000000,4.000000,4.000000,4.000000,4.000000,4.000000,4.000000,4.000000,4.000000,4.000000,4.000000,4.000000,4.000000,4.000000,4.000000,4.000000,4.000000,83.333336
1614491238.588216,14.000000,0.000000,-0.450392,5.136203,-10.027230,-0.929346,11.657977,9.890363,16.540373,15.918189,0.699974,9.569589,11.030776,11.478412,16.248344,23.652784,6.501039,4.439298,14.602038,23.943108,10.259222,-5.448239,14.444567,134.041840,14.341648,0.124062,-1.606141,0.572899,16.756971,14.121937,0.328540,2.572216,-7.236435,3.059457,0.000000,192.000000,4.000000,,,,0.000000,4.000000,4.000000,4.000000,4.000000,4.000000,4.000000,4.000000,4.000000,4.000000,4.000000,4.000000,2.000000,4.000000,4.000000,4.000000,4.000000,4.000000,4.000000,4.000000,4.000000,4.000000,4.000000,4.000000,4.000000,4.000000,4.000000,4.000000,4.000000,4.000000,4.000000,4.000000,4.000000,83.333336
1614491238.595965,15.000000,0.000000,-0.449941,5.643888,0.752028,14.456199,11.646319,11.931754,23.703320,22.056116,0.186454,15.201045,13.583848,13.518215,17.257738,33.372723,22.391973,6.998961,15.100257,25.457626,19.992552,-4.929970,13.917301,166.728317,6.634999,9.867527,3.523670,0.572326,14.176111,13.082174,0.328211,3.082464,-5.690737,3.056397,0.000000,149.000000,4.000000,,,,0.000000,4.000000,4.000000,4.000000,4.000000,4.000000,4.000000,4.000000,4.000000,4.000000,4.000000,4.000000,2.000000,4.000000,4.000000,4.000000,4.000000,4.000000,4.000000,4.000000,4.000000,4.000000,4.000000,4.000000,4.000000,4.000000,4.000000,4.000000,4.000000,4.000000,4.000000,4.000000,4.000000,83.333336
1614491238.603614,16.000000,0.000000,-0.449491,5.125423,17.674353,7.262255,11.121852,10.894181,20.602694,17.931496,0.186267,16.211485,14.595905,14.530338,17.240480,32.313709,23.395224,8.017604,15.085156,20.303963,23.562304,-5.437860,14.416204,189.638504,9.192467,10.370481,3.520146,0.571754,19.290140,13.581912,0.327883,-0.510362,-6.197867,3.053341,0.000000,184.000000,4.000000,,,,0.000000,4.000000,4.000000,4.000000,4.000000,4.000000,4.000000,4.000000,4.000000,4.000000,4.000000,4.000000,2.000000,4.000000,4.000000,4.000000,4.000000,4.000000,4.000000,4.000000,4.000000,4.000000,4.000000,4.000000,4.000000,4.000000,4.000000,4.000000,4.000000,4.000000,4.000000,4.000000,4.000000,83.333336
1614491238.611363,17.000000,0.000000,-0.449042,6.658759,16.118217,1.101146,14.187654,11.908929,15.966705,19.964848,6.852747,16.195272,15.094130,15.028628,17.736061,24.589087,19.269264,9.548048,15.582892,18.745197,18.923357,-15.176012,12.863327,157.141174,14.824300,1.129341,-1.611579,0.571182,29.527260,13.568331,0.327555,-0.509851,-6.704489,8.691314,0.000000,181.000000,4.000000,,,,0.000000,4.000000,4.000000,4.000000,4.000000,4.000000,4.000000,4.000000,4.000000,4.000000,4.000000,4.000000,2.000000,4.000000,4.000000,4.000000,4.000000,4.000000,4.000000,4.000000,4.000000,4.000000,4.000000,4.000000,4.000000,4.000000,4.000000,4.000000,4.000000,4.000000,4.000000,4.000000,4.000000,83.333336
1614491238.619013,18.000000,0.000000,-0.448593,9.216203,8.922611,9.305174,18.788851,14.461123,18.514841,31.226933,14.538202,15.153437,14.053394,15.526420,17.718325,22.513216,21.301277,11.589782,15.567309,22.829016,15.314690,-25.930067,10.799182,147.753265,10.194091,-2.974353,-2.635608,0.570611,30.010553,11.503480,0.327228,5.131684,-6.184964,14.323647,0.000000,193.000000,4.000000,,,,0.000000,4.000000,4.000000,4.000000,4.000000,4.000000,4.000000,4.000000,4.000000,4.000000,4.000000,4.000000,2.000000,4.000000,4.000000,4.000000,4.000000,4.000000,4.000000,4.000000,4.000000,4.000000,4.000000,4.000000,4.000000,4.000000,4.000000,4.000000,4.000000,4.000000,4.000000,4.000000,4.000000,83.333336
1614491238.626762,19.000000,0.000000,-0.448144,9.719808,14.041894,13.911253,19.795702,15.472302,17.983505,25.554680,14.010844,15.138284,13.013700,10.895509,15.136503,23.003523,19.741514,11.578192,15.038921,23.319008,16.325016,-17.186188,10.788383,180.426025,4.542871,-2.971378,-1.607332,0.570040,21.262594,9.440695,0.326900,6.152194,-6.178780,9.693939,0.000000,177.000000,4.000000,,,,0.000000,4.000000,4.000000,4.000000,4.000000,4.000000,4.000000,4.000000,4.000000,4.000000,4.000000,4.000000,2.000000,4.000000,4.000000,4.000000,4.000000,4.000000,4.000000,4.000000,4.000000,4.000000,4.000000,4.000000,4.000000,4.000000,4.000000,4.000000,4.000000,4.000000,4.000000,4.000000,4.000000,83.333336
1614491238.634411,20.000000,0.000000,-0.447696,9.197267,19.156057,12.358880,19.263086,14.944009,13.350138,6.554767,11.432731,17.174427,15.051969,7.294870,14.095726,20.416416,13.055105,12.079434,16.049524,24.834150,23.488178,3.856639,13.854517,178.194321,4.025508,3.698260,-0.067263,0.569470,17.138767,11.482536,0.326574,3.581939,-6.172601,7.120143,0.000000,186.000000,4.000000,,,,0.000000,4.000000,4.000000,4.000000,4.000000,4.000000,4.000000,4.000000,4.000000,4.000000,4.000000,4.000000,2.000000,4.000000,4.000000,4.000000,4.000000,4.000000,4.000000,4.000000,4.000000,4.000000,4.000000,4.000000,4.000000,4.000000,4.000000,4.000000,4.000000,4.000000,4.000000,4.000000,4.000000,83.333336
1614491238.642160,21.000000,0.000000,-0.447248,9.188069,14.008697,9.782419,19.756643,14.929065,10.772685,2.445648,11.421298,9.464945,9.908711,8.313216,12.030348,12.703692,4.324102,9.503252,12.956551,27.886240,19.874947,4.365602,15.891945,145.708435,5.559944,5.233023,2.496907,0.568901,13.019065,13.522335,0.326247,2.552716,-6.166428,10.702766,0.000000,183.000000,4.000000,,,,0.000000,4.000000,4.000000,4.000000,4.000000,4.000000,4.000000,4.000000,4.000000,4.000000,4.000000,4.000000,2.000000,4.000000,4.000000,4.000000,4.000000,4.000000,4.000000,4.000000,4.000000,4.000000,4.000000,4.000000,4.000000,4.000000,4.000000,4.000000,4.000000,4.000000,4.000000,4.000000,4.000000,83.333336
1614491238.649809,22.000000,0.000000,-0.446801,9.178882,8.866483,1.567508,17.172785,15.426957,6.146528,7.571408,10.897056,-9.518879,-9.075557,1.125416,3.300369,-2.693626,-9.526377,-1.788302,0.123081,9.909636,-4.760313,-20.766968,5.106822,148.126831,8.631307,-16.310671,-2.120975,0.055512,0.698354,13.508813,0.325921,3.575804,-6.160262,8.640781,0.000000,185.000000,4.000000,,,,0.000000,4.000000,4.000000,4.000000,4.000000,4.000000,4.000000,4.000000,4.000000,4.000000,4.000000,4.000000,2.000000,4.000000,4.000000,4.000000,4.000000,4.000000,4.000000,4.000000,4.000000,4.000000,4.000000,4.000000,4.000000,4.000000,4.000000,4.000000,4.000000,4.000000,4.000000,4.000000,4.000000,83.333336
1614491238.657558,23.000000,0.000000,-0.446354,9.169703,9.883257,-2.023803,12.027407,14.385889,1.012176,6.538195,11.911799,-13.099103,-17.784430,-7.593658,-1.318316,-11.921701,-17.721977,-12.042924,-8.594991,-12.151556,-23.217091,-36.130817,-9.770080,180.799210,4.007291,-32.191795,-11.349623,0.568277,-5.456191,12.982484,0.325595,3.572228,-6.666922,2.991115,0.000000,190.000000,4.000000,,,,0.000000,4.000000,4.000000,4.000000,4.000000,4.000000,4.000000,4.000000,4.000000,4.000000,4.000000,4.000000,2.000000,4.000000,4.000000,4.000000,4.000000,4.000000,4.000000,4.000000,4.000000,4.000000,4.000000,4.000000,4.000000,4.000000,4.000000,4.000000,4.000000,4.000000,4.000000,4.000000,4.000000,83.333336
1614491238.665207,24.000000,0.000000,-0.445908,9.160533,9.873374,-2.021779,10.989738,11.807400,2.549626,4.993196,10.874247,-1.291133,1.207714,1.644704,5.862489,3.987656,-10.524769,-7.415497,-4.483831,-0.344533,-10.886182,-25.325455,-8.221848,167.797897,-7.791588,-16.262169,-11.851093,1.080529,-0.322530,13.482322,0.325269,2.030195,-5.634614,3.500945,0.000000,176.000000,4.000000,,,,0.000000,4.000000,4.000000,4.000000,4.000000,4.000000,4.000000,4.000000,4.000000,4.000000,4.000000,4.000000,2.000000,4.000000,4.000000,4.000000,4.000000,4.000000,4.000000,4.000000,4.000000,4.000000,4.000000,4.000000,4.000000,4.000000,4.000000,4.000000,4.000000,4.000000,4.000000,4.000000,4.000000,83.333336
1614491238.672957,25.000000,0.000000,-0.445462,9.151373,9.350679,-8.173604,12.004390,10.769952,3.572717,6.013844,4.196706,0.248620,19.668045,14.463573,11.497653,24.496489,5.383192,4.386790,1.161678,26.322477,10.663166,-9.915514,3.581246,135.322403,-5.219694,0.677170,-6.198217,0.566628,3.267537,13.468840,0.324944,-2.587220,-5.628979,2.984623,0.000000,173.000000,4.000000,,,,0.000000,4.000000,4.000000,4.000000,4.000000,4.000000,4.000000,4.000000,4.000000,4.000000,4.000000,4.000000,2.000000,4.000000,4.000000,4.000000,4.000000,4.000000,4.000000,4.000000,4.000000,4.000000,4.000000,4.000000,4.000000,4.000000,4.000000,4.000000,4.000000,4.000000,4.000000,4.000000,4.000000,83.333336
1614491238.680606,26.000000,0.000000,-0.445017,9.142221,11.905432,-0.985943,11.479565,11.272002,5.620427,6.520650,7.269433,3.325294,22.212479,14.449109,9.434873,27.548916,18.198322,14.125994,4.750260,32.962822,18.857632,-5.290214,6.654587,159.289642,5.041936,2.214954,-5.166378,0.566061,6.341192,13.455371,0.324619,-4.635915,-7.674633,3.494459,0.000000,175.000000,4.000000,,,,0.000000,4.000000,4.000000,4.000000,4.000000,4.000000,4.000000,4.000000,4.000000,4.000000,4.000000,4.000000,2.000000,4.000000,4.000000,4.000000,4.000000,4.000000,4.000000,4.000000,4.000000,4.000000,4.000000,4.000000,4.000000,4.000000,4.000000,4.000000,4.000000,4.000000,4.000000,4.000000,4.000000,83.333336
1614491238.688355,27.000000,0.000000,-0.444572,9.133079,11.893526,24.656069,11.468085,11.260731,12.281472,6.514130,19.569855,19.732225,24.241549,18.024403,9.938258,25.982904,25.359610,19.752893,11.412176,31.391397,19.351593,-5.284924,6.647933,191.950867,8.113817,6.828124,-6.186852,3.642418,17.616901,13.441916,0.324294,-2.067177,-4.590034,11.183272,0.000000,196.000000,4.000000,,,,0.000000,4.000000,4.000000,4.000000,4.000000,4.000000,4.000000,4.000000,4.000000,4.000000,4.000000,4.000000,2.000000,4.000000,4.000000,4.000000,4.000000,4.000000,4.000000,4.000000,4.000000,4.000000,4.000000,4.000000,4.000000,4.000000,4.000000,4.000000,4.000000,4.000000,4.000000,4.000000,4.000000,83.333336
1614491238.696004,28.000000,0.000000,-0.444127,9.123946,7.266248,24.118591,11.969438,10.736650,11.756371,6.507615,17.499002,20.225313,25.242949,24.673046,10.953961,27.495384,23.795790,15.117756,16.528969,29.308725,18.306601,-5.792459,7.666926,159.451233,12.208267,8.359757,-5.667845,5.177237,24.778772,13.428473,0.323970,0.498993,-0.482881,13.223371,0.000000,188.000000,4.000000,,,,0.000000,4.000000,4.000000,4.000000,4.000000,4.000000,4.000000,4.000000,4.000000,4.000000,4.000000,4.000000,2.000000,4.000000,4.000000,4.000000,4.000000,4.000000,4.000000,4.000000,4.000000,4.000000,4.000000,4.000000,4.000000,4.000000,4.000000,4.000000,4.000000,4.000000,4.000000,4.000000,4.000000,83.333336
1614491238.703753,29.000000,0.000000,-0.956504,9.114821,5.207700,-1.546552,11.957468,11.238733,4.565127,6.501108,4.660992,1.743550,16.499756,18.494526,6.840443,22.339684,20.182249,4.333407,13.948338,19.023006,15.211371,-7.837949,5.095157,126.984085,9.119136,0.146269,-5.149356,0.043855,13.984763,12.902225,0.323646,-1.552788,-7.149064,1.928096,0.000000,195.000000,4.000000,,,,0.000000,4.000000,4.000000,4.000000,4.000000,4.000000,4.000000,4.000000,4.000000,4.000000,4.000000,4.000000,2.000000,4.000000,4.000000,4.000000,4.000000,4.000000,4.000000,4.000000,4.000000,4.000000,4.000000,4.000000,4.000000,4.000000,4.000000,4.000000,4.000000,4.000000,4.000000,4.000000,4.000000,83.333336
1614491238.711402,30.000000,0.000000,0.070094,9.618527,6.740953,-2.057826,11.945511,11.227494,4.560562,7.007427,2.092228,-5.437681,9.303770,10.270904,2.731039,16.676317,17.597965,-0.286311,11.370287,12.850137,12.119237,-7.317290,12.782369,159.677612,-2.172034,2.710226,-5.144207,-6.110035,1.663086,13.914963,-0.189498,-4.628158,-14.321403,-4.740499,0.000000,170.000000,4.000000,,,,0.000000,4.000000,4.000000,4.000000,4.000000,4.000000,4.000000,4.000000,4.000000,4.000000,4.000000,4.000000,2.000000,4.000000,4.000000,4.000000,4.000000,4.000000,4.000000,4.000000,4.000000,4.000000,4.000000,4.000000,4.000000,4.000000,4.000000,4.000000,4.000000,4.000000,4.000000,4.000000,4.000000,83.333336
1614491238.719151,31.000000,0.000000,2.121306,9.608909,6.221392,11.790385,11.933565,11.216267,3.530360,7.000420,5.167059,2.260065,10.320107,10.260633,2.215487,12.557077,9.888060,1.252437,11.871737,17.965492,15.184041,0.382335,29.692663,192.338455,9.112189,13.476747,-5.651884,-7.129566,16.533218,15.952331,0.836332,-0.520966,-8.153234,-3.710117,0.000000,173.000000,4.000000,,,,0.000000,4.000000,4.000000,4.000000,4.000000,4.000000,4.000000,4.000000,4.000000,4.000000,4.000000,4.000000,2.000000,4.000000,4.000000,4.000000,4.000000,4.000000,4.000000,4.000000,4.000000,4.000000,4.000000,4.000000,4.000000,4.000000,4.000000,4.000000,4.000000,4.000000,4.000000,4.000000,4.000000,83.333336
1614491238.726800,32.000000,0.000000,2.119185,9.086479,5.189529,4.086287,11.921632,11.205050,-2.114196,4.429317,4.136251,4.821908,9.796967,9.737552,2.726092,4.852212,1.673043,0.738364,7.757301,21.537270,19.784241,8.074260,28.124510,159.838425,29.103077,13.463269,-5.646232,-6.609616,41.132069,17.987659,2.886778,6.146222,0.572867,-4.219227,8064.000000,0.000000,4.000000,,,,0.000000,4.000000,4.000000,4.000000,4.000000,4.000000,4.000000,4.000000,4.000000,4.000000,4.000000,4.000000,2.000000,4.000000,4.000000,4.000000,4.000000,4.000000,4.000000,4.000000,4.000000,4.000000,4.000000,4.000000,4.000000,4.000000,4.000000,4.000000,4.000000,4.000000,4.000000,4.000000,4.000000,83.333336
1614491238.734550,33.000000,0.000000,-0.447037,9.590214,7.235622,-5.661388,11.909710,11.193846,-0.573620,3.399246,3.619294,3.278624,6.710246,6.650891,2.210546,0.231976,0.132908,-0.288015,3.646980,20.490091,18.225996,4.989263,15.275872,134.550369,19.843204,8.321601,-5.127765,-6.603006,36.988373,17.456852,4.935174,6.652896,1.597935,-0.625264,8064.000000,0.000000,4.000000,,,,0.000000,4.000000,4.000000,4.000000,4.000000,4.000000,4.000000,4.000000,4.000000,4.000000,4.000000,4.000000,2.000000,4.000000,4.000000,4.000000,4.000000,4.000000,4.000000,4.000000,4.000000,4.000000,4.000000,4.000000,4.000000,4.000000,4.000000,4.000000,4.000000,4.000000,4.000000,4.000000,4.000000,83.333336
1614491238.742199,34.000000,0.000000,-0.959411,9.580624,6.715566,-0.527522,11.897800,11.695472,4.555159,2.883027,3.615675,4.300986,6.190715,6.644240,2.208335,4.847128,1.671237,0.737914,6.207436,19.956781,14.105206,-1.169573,14.747776,166.723511,4.438746,10.364561,-6.148278,-6.596404,16.951384,16.926575,3.904597,3.569320,2.621978,-0.624639,8064.000000,0.000000,4.000000,,,,0.000000,4.000000,4.000000,4.000000,4.000000,4.000000,4.000000,4.000000,4.000000,4.000000,4.000000,4.000000,2.000000,4.000000,4.000000,4.000000,4.000000,4.000000,4.000000,4.000000,4.000000,4.000000,4.000000,4.000000,4.000000,4.000000,4.000000,4.000000,4.000000,4.000000,4.000000,4.000000,4.000000,83.333336
1614491238.750048,35.000000,0.000000,0.067190,3.930017,1.067825,-1.552635,11.885902,10.145315,4.550604,-0.709600,4.637700,3.783865,6.697345,6.637596,2.718947,8.432025,1.156745,0.737176,8.252510,20.962465,13.578279,1.395699,13.707387,175.787567,10.075333,9.328556,-8.706232,-8.641089,11.806228,17.935289,3.900693,1.514469,-0.457567,-13.444528,8064.000000,0.000000,4.000000,,,,0.000000,4.000000,4.000000,4.000000,4.000000,4.000000,4.000000,4.000000,4.000000,4.000000,4.000000,4.000000,2.000000,4.000000,4.000000,4.000000,4.000000,4.000000,4.000000,4.000000,4.000000,4.000000,4.000000,4.000000,4.000000,4.000000,4.000000,4.000000,4.000000,4.000000,4.000000,4.000000,4.000000,83.333336
1614491238.757797,36.000000,0.000000,-0.445698,-2.227759,1.066757,-10.781852,11.874017,7.571067,4.546053,-0.708890,4.120242,1.728799,6.177827,7.143779,2.716228,7.397952,1.155589,0.736439,6.192976,21.454323,9.974957,-0.144158,0.873167,143.304077,12.116540,-4.014106,-10.235988,-10.170910,8.717499,16.891712,4.922433,-0.025507,-8.149417,-17.533648,8064.000000,0.000000,4.000000,,,,0.000000,4.000000,4.000000,4.000000,4.000000,4.000000,4.000000,4.000000,4.000000,4.000000,4.000000,4.000000,2.000000,4.000000,4.000000,4.000000,4.000000,4.000000,4.000000,4.000000,4.000000,4.000000,4.000000,4.000000,4.000000,4.000000,4.000000,4.000000,4.000000,4.000000,4.000000,4.000000,4.000000,83.333336
1614491238.765646,37.000000,0.000000,-0.445252,-2.225531,5.681075,-7.181326,11.862143,7.563496,4.541507,3.907203,-2.550545,0.188609,6.684470,7.649456,2.713512,7.390553,1.667253,0.735702,4.135500,17.843124,1.247034,-17.579910,-6.307194,132.904373,3.899295,-13.753681,-7.661649,-10.673559,-4.624552,9.695333,2.353408,-1.051123,-9.679729,-4.695601,8064.000000,0.000000,4.000000,,,,0.000000,4.000000,4.000000,4.000000,4.000000,4.000000,4.000000,4.000000,4.000000,4.000000,4.000000,4.000000,2.000000,4.000000,4.000000,4.000000,4.000000,4.000000,4.000000,4.000000,4.000000,4.000000,4.000000,4.000000,4.000000,4.000000,4.000000,4.000000,4.000000,4.000000,4.000000,4.000000,4.000000,83.333336
1614491238.773395,38.000000,0.000000,-0.444807,-2.223306,1.060009,2.056624,11.850280,7.555933,-2.642522,-1.737730,-7.676199,0.701240,6.677786,4.052063,2.197978,8.408804,1.665586,0.734966,2.592904,9.620153,-4.908059,-34.998230,-9.890630,165.591980,-1.232810,-13.739928,-11.243731,-10.662886,-12.825056,2.506151,-2.264330,-0.537251,-9.157228,-0.588341,8064.000000,0.000000,4.000000,,,,0.000000,4.000000,4.000000,4.000000,4.000000,4.000000,4.000000,4.000000,4.000000,4.000000,4.000000,4.000000,2.000000,4.000000,4.000000,4.000000,4.000000,4.000000,4.000000,4.000000,4.000000,4.000000,4.000000,4.000000,4.000000,4.000000,4.000000,4.000000,4.000000,4.000000,4.000000,4.000000,4.000000,83.333336
1614491238.781244,39.000000,0.000000,-0.444362,-6.323647,-10.735923,-1.535176,11.325609,2.420171,-6.229623,-8.402658,-8.181344,0.700539,4.619826,4.560831,3.221421,7.887575,1.663921,0.734231,1.051849,3.456687,-9.005715,-39.065796,-17.573048,176.708435,-8.411064,-18.341572,-26.104282,-10.652223,-10.248128,1.478004,-4.313348,-2.075176,-19.917303,-13.408265,8064.000000,0.000000,4.000000,,,,0.000000,4.000000,4.000000,4.000000,4.000000,4.000000,4.000000,4.000000,4.000000,4.000000,4.000000,4.000000,2.000000,4.000000,4.000000,4.000000,4.000000,4.000000,4.000000,4.000000,4.000000,4.000000,4.000000,4.000000,4.000000,4.000000,4.000000,4.000000,4.000000,4.000000,4.000000,4.000000,4.000000,83.333336
1614491238.788993,40.000000,0.000000,-0.443918,-5.291682,-15.340571,-8.200308,11.314283,3.956213,1.468915,1.349334,-7.147521,0.187018,2.563924,11.735757,5.269482,7.366867,1.149436,-0.292144,-0.487664,3.966051,-11.560812,-39.026730,-21.145218,144.224030,-13.530858,-26.015539,-33.770485,-10.128750,-6.648137,2.502167,-3.283393,-0.534639,-25.538410,-21.087164,8064.000000,0.000000,4.000000,,,,0.000000,4.000000,4.000000,4.000000,4.000000,4.000000,4.000000,4.000000,4.000000,4.000000,4.000000,4.000000,2.000000,4.000000,4.000000,4.000000,4.000000,4.000000,4.000000,4.000000,4.000000,4.000000,4.000000,4.000000,4.000000,4.000000,4.000000,4.000000,4.000000,4.000000,4.000000,4.000000,4.000000,83.333336
1614491238.796842,41.000000,0.000000,-0.443474,0.354635,-7.120102,0.013021,12.328610,13.695847,9.672574,13.142857,-6.627553,0.186831,4.612642,12.749662,6.802674,10.436423,1.148287,0.220969,0.538464,11.141572,-3.344123,-31.295395,-14.457406,137.925964,-15.055789,-21.374138,-24.505945,-10.631442,-4.077386,1.986844,-3.280110,5.106922,-17.307743,-16.963514,8064.000000,0.000000,4.000000,,,,0.000000,4.000000,4.000000,4.000000,4.000000,4.000000,4.000000,4.000000,4.000000,4.000000,4.000000,4.000000,2.000000,4.000000,4.000000,4.000000,4.000000,4.000000,4.000000,4.000000,4.000000,4.000000,4.000000,4.000000,4.000000,4.000000,4.000000,4.000000,4.000000,4.000000,4.000000,4.000000,4.000000,83.333336
1614491238.804591,42.000000,0.000000,-0.443030,1.892742,8.784453,10.782239,10.777821,10.605227,6.585979,1.847662,-6.108106,0.699465,7.172132,7.608708,6.795871,12.477268,2.685600,2.272030,0.537926,17.797098,7.428452,-16.905125,-5.212179,170.608551,-14.527912,-11.096354,-17.301952,-9.595169,-2.534847,1.472037,-4.302471,6.127456,-14.213513,-7.715781,8064.000000,0.000000,4.000000,,,,0.000000,4.000000,4.000000,4.000000,4.000000,4.000000,4.000000,4.000000,4.000000,4.000000,4.000000,4.000000,2.000000,4.000000,4.000000,4.000000,4.000000,4.000000,4.000000,4.000000,4.000000,4.000000,4.000000,4.000000,4.000000,4.000000,4.000000,4.000000,4.000000,4.000000,4.000000,4.000000,4.000000,83.333336
1614491238.812440,43.000000,0.000000,-0.442587,2.403670,17.493618,5.130431,7.177299,0.851033,-6.753941,-13.538801,-1.999433,1.724406,6.139319,6.575458,5.763434,7.336586,0.631632,-1.832806,-0.488253,15.215198,7.421024,-10.734373,-1.104403,182.745636,-4.256974,-9.546796,-17.284651,-5.483010,1.570252,2.496206,-3.272527,7.659790,-10.096736,2.035525,8064.000000,0.000000,4.000000,,,,0.000000,4.000000,4.000000,4.000000,4.000000,4.000000,4.000000,4.000000,4.000000,4.000000,4.000000,4.000000,2.000000,4.000000,4.000000,4.000000,4.000000,4.000000,4.000000,4.000000,4.000000,4.000000,4.000000,4.000000,4.000000,4.000000,4.000000,4.000000,4.000000,4.000000,4.000000,4.000000,4.000000,83.333336
1614491238.820189,44.000000,0.000000,-0.442145,7.016651,16.450483,-0.002905,10.759866,9.568130,-11.362572,-5.832954,13.387181,-0.841421,5.620359,7.081703,6.783312,4.252326,1.143821,-2.343794,1.563517,19.302547,12.541808,-8.672357,-0.077657,150.255203,12.670360,-9.024429,-1.369930,-2.400604,7.722528,6.596274,0.833309,19.447002,6.836438,9.212976,8064.000000,0.000000,4.000000,,,,0.000000,4.000000,4.000000,4.000000,4.000000,4.000000,4.000000,4.000000,4.000000,4.000000,4.000000,4.000000,2.000000,4.000000,4.000000,4.000000,4.000000,4.000000,4.000000,4.000000,4.000000,4.000000,4.000000,4.000000,4.000000,4.000000,4.000000,4.000000,4.000000,4.000000,4.000000,4.000000,4.000000,83.333336
1614491238.828038,45.000000,0.000000,-0.441703,10.086557,21.049417,13.843252,18.441414,23.917536,6.084688,12.121596,23.630205,0.185062,11.255764,7.587442,11.904734,11.940382,11.911908,13.043165,6.177339,41.334526,24.324139,-0.458556,5.563446,153.694687,18.298716,0.728185,22.221184,-2.398203,9.253267,10.179421,4.422220,26.094221,18.624474,11.767866,8064.000000,0.000000,4.000000,,,,0.000000,4.000000,4.000000,4.000000,4.000000,4.000000,4.000000,4.000000,4.000000,4.000000,4.000000,4.000000,2.000000,4.000000,4.000000,4.000000,4.000000,4.000000,4.000000,4.000000,4.000000,4.000000,4.000000,4.000000,4.000000,4.000000,4.000000,4.000000,4.000000,4.000000,4.000000,4.000000,4.000000,83.333336
1614491238.835787,46.000000,0.000000,-0.441261,9.563650,25.130932,21.521717,17.910151,21.329515,18.899117,13.647936,14.375805,8.902825,18.423996,11.682419,13.431291,17.056646,16.515381,22.773712,8.222444,48.985500,26.351095,5.182928,11.711728,186.361511,15.716313,10.471046,23.224604,-2.395805,7.192732,10.169242,4.417797,18.888639,15.528926,11.756098,8064.000000,0.000000,4.000000,,,,0.000000,4.000000,4.000000,4.000000,4.000000,4.000000,4.000000,4.000000,4.000000,4.000000,4.000000,4.000000,2.000000,4.000000,4.000000,4.000000,4.000000,4.000000,4.000000,4.000000,4.000000,4.000000,4.000000,4.000000,4.000000,4.000000,4.000000,4.000000,4.000000,4.000000,4.000000,4.000000,4.000000,83.333336
1614491238.843436,47.000000,0.000000,-0.440820,9.041266,11.772468,2.525836,10.712754,14.641521,6.572525,2.865058,3.592199,8.893923,16.354290,12.696377,8.802474,10.885744,4.703994,11.468886,7.701400,29.449335,20.683720,4.152104,11.700017,165.662323,16.213417,9.434935,8.842404,-2.393409,15.390667,9.646252,3.900559,12.203085,12.436474,11.744342,8064.000000,0.000000,4.000000,,,,0.000000,4.000000,4.000000,4.000000,4.000000,4.000000,4.000000,4.000000,4.000000,4.000000,4.000000,4.000000,2.000000,4.000000,4.000000,4.000000,4.000000,4.000000,4.000000,4.000000,4.000000,4.000000,4.000000,4.000000,4.000000,4.000000,4.000000,4.000000,4.000000,4.000000,4.000000,4.000000,4.000000,83.333336
1614491238.851185,48.000000,0.000000,-0.440379,9.545046,-2.085459,-11.835665,7.625118,13.088417,-4.203278,-1.240372,4.101427,-2.909843,10.184090,7.555476,6.229569,8.823576,-2.993018,2.226649,7.693699,19.676296,18.611753,3.635131,10.149856,133.188965,17.222845,4.810115,4.218177,-2.391016,27.682968,10.149426,4.409479,15.267804,12.936858,11.732597,8064.000000,0.000000,4.000000,,,,0.000000,4.000000,4.000000,4.000000,4.000000,4.000000,4.000000,4.000000,4.000000,4.000000,4.000000,4.000000,2.000000,4.000000,4.000000,4.000000,4.000000,4.000000,4.000000,4.000000,4.000000,4.000000,4.000000,4.000000,4.000000,4.000000,4.000000,4.000000,4.000000,4.000000,4.000000,4.000000,4.000000,83.333336
1614491238.858835,49.000000,0.000000,-0.439938,9.535501,2.532011,0.996684,8.643134,9.485585,2.980412,0.299330,4.610146,-0.855651,9.661084,6.009459,9.300262,16.507061,3.163821,4.788525,8.198826,29.913029,20.131603,2.093035,11.678167,157.671158,15.667161,6.856587,6.778061,-2.388625,32.270672,9.626456,4.405069,13.714075,13.436742,8.643942,8064.000000,0.000000,4.000000,,,,0.000000,4.000000,4.000000,4.000000,4.000000,4.000000,4.000000,4.000000,4.000000,4.000000,4.000000,4.000000,2.000000,4.000000,4.000000,4.000000,4.000000,4.000000,4.000000,4.000000,4.000000,4.000000,4.000000,4.000000,4.000000,4.000000,4.000000,4.000000,4.000000,4.000000,4.000000,4.000000,4.000000,83.333336
1614491238.866584,50.000000,0.000000,-0.439498,9.013144,10.734608,13.816200,8.634491,6.399177,6.567175,-2.777892,3.579895,11.965717,10.677065,7.541911,10.829424,17.516193,7.263221,5.296556,8.703447,30.908758,21.137112,1.065301,9.615207,190.334000,15.651494,6.849730,4.207181,-4.437518,30.699938,9.616830,3.887844,3.956771,11.884843,1.968632,8064.000000,0.000000,4.000000,,,,0.000000,4.000000,4.000000,4.000000,4.000000,4.000000,4.000000,4.000000,4.000000,4.000000,4.000000,4.000000,2.000000,4.000000,4.000000,4.000000,4.000000,4.000000,4.000000,4.000000,4.000000,4.000000,4.000000,4.000000,4.000000,4.000000,4.000000,4.000000,4.000000,4.000000,4.000000,4.000000,4.000000,83.333336
1614491238.874233,51.000000,0.000000,-0.439059,6.952849,10.211053,8.674179,7.087395,6.905598,1.432403,-6.364858,2.550674,7.338367,9.640746,7.021548,9.792953,11.857653,5.204676,3.752799,8.181923,20.108618,14.962129,-0.987047,4.477386,157.835983,16.148663,-5.977632,-6.566257,-9.048466,28.617956,9.607213,3.883956,-2.713852,6.744753,-3.161542,8192.000000,0.000000,4.000000,,,,0.000000,4.000000,4.000000,4.000000,4.000000,4.000000,4.000000,4.000000,4.000000,4.000000,4.000000,4.000000,2.000000,4.000000,4.000000,4.000000,4.000000,4.000000,4.000000,4.000000,4.000000,4.000000,4.000000,4.000000,4.000000,4.000000,4.000000,4.000000,4.000000,4.000000,4.000000,4.000000,4.000000,83.333336
1614491238.881982,52.000000,0.000000,-0.438620,5.407435,7.123919,0.460376,1.952102,7.411513,-0.620311,-1.230288,-1.041620,-4.463843,10.143927,6.501706,9.270340,10.820153,3.661010,3.749046,7.148100,15.473125,-0.437448,-7.652727,2.934448,125.370453,16.132515,-17.253706,-15.790461,-11.090699,22.435492,9.084785,3.880072,-0.659856,1.096983,-4.184022,8064.000000,0.000000,4.000000,,,,0.000000,4.000000,4.000000,4.000000,4.000000,4.000000,4.000000,4.000000,4.000000,4.000000,4.000000,4.000000,2.000000,4.000000,4.000000,4.000000,4.000000,4.000000,4.000000,4.000000,4.000000,4.000000,4.000000,4.000000,4.000000,4.000000,4.000000,4.000000,4.000000,4.000000,4.000000,4.000000,4.000000,83.333336
1614491238.889631,53.000000,0.000000,-0.438181,5.402028,5.578333,0.972736,-3.178055,7.404101,1.431591,3.386327,-3.091861,0.668826,9.620962,7.008025,10.799532,8.758051,5.195810,3.232476,8.679414,15.970472,-7.103678,-11.234818,5.495615,158.065598,15.090740,-14.159529,-9.620824,-10.053967,15.233569,10.101341,3.876192,2.417727,0.583065,-3.667017,8064.000000,0.000000,4.000000,,,,0.000000,4.000000,4.000000,4.000000,4.000000,4.000000,4.000000,4.000000,4.000000,4.000000,4.000000,4.000000,2.000000,4.000000,4.000000,4.000000,4.000000,4.000000,4.000000,4.000000,4.000000,4.000000,4.000000,4.000000,4.000000,4.000000,4.000000,4.000000,4.000000,4.000000,4.000000,4.000000,4.000000,83.333336
1614491238.897380,54.000000,0.000000,-0.437743,5.396626,7.111216,1.997405,-3.687697,6.371056,0.917339,-4.309367,-0.524666,9.386106,6.021597,6.488196,7.711809,4.646729,6.216256,5.280526,6.619452,15.441681,-0.942728,-10.197942,7.028582,190.728043,17.126932,-7.991523,3.722131,-10.043913,14.705516,12.142522,3.872316,2.415309,0.582482,-4.176171,8064.000000,0.000000,4.000000,,,,0.000000,4.000000,4.000000,4.000000,4.000000,4.000000,4.000000,4.000000,4.000000,4.000000,4.000000,4.000000,2.000000,4.000000,4.000000,4.000000,4.000000,4.000000,4.000000,4.000000,4.000000,4.000000,4.000000,4.000000,4.000000,4.000000,4.000000,4.000000,4.000000,4.000000,4.000000,4.000000,4.000000,83.333336
1614491238.905029,55.000000,0.000000,-0.437305,4.878408,5.052823,-5.184080,-2.658369,4.313403,-4.724604,-12.510186,-0.011321,0.145950,2.938653,4.430426,-0.501031,3.103621,-3.020730,3.736784,-6.207680,15.939060,-1.967426,-14.290308,4.970271,158.229614,14.032882,-15.163019,1.154306,-10.546690,16.742092,13.668841,3.868443,2.412894,1.094720,-4.684815,8064.000000,0.000000,4.000000,,,,0.000000,4.000000,4.000000,4.000000,4.000000,4.000000,4.000000,4.000000,4.000000,4.000000,4.000000,4.000000,2.000000,4.000000,4.000000,4.000000,4.000000,4.000000,4.000000,4.000000,4.000000,4.000000,4.000000,4.000000,4.000000,4.000000,4.000000,4.000000,4.000000,4.000000,4.000000,4.000000,4.000000,83.333336
1614491238.912778,56.000000,0.000000,-0.436868,5.386350,-0.593256,-11.845562,-3.168531,3.283448,-10.873726,-9.420753,0.501511,-11.136247,-0.141209,2.374714,-5.115915,0.023594,-14.299760,-3.959261,-14.919421,14.897480,-11.196228,-19.404222,1.375557,125.763695,2.736798,-21.814522,-11.154541,-10.023323,13.135606,13.142352,3.864575,3.436122,1.606446,-3.654489,8064.000000,0.000000,4.000000,,,,0.000000,4.000000,4.000000,4.000000,4.000000,4.000000,4.000000,4.000000,4.000000,4.000000,4.000000,4.000000,2.000000,4.000000,4.000000,4.000000,4.000000,4.000000,4.000000,4.000000,4.000000,4.000000,4.000000,4.000000,4.000000,4.000000,4.000000,4.000000,4.000000,4.000000,4.000000,4.000000,4.000000,83.333336
1614491238.920428,57.000000,0.000000,-0.436431,5.380964,2.997081,-3.628589,-3.165362,3.792986,-7.785929,-7.872870,1.013830,-4.971264,-1.679530,4.936441,-3.059517,1.562032,-8.644435,-4.468122,-10.289117,10.780018,-11.185032,-19.384819,-0.164280,158.458450,-2.906965,-15.126041,-14.220309,-7.962017,7.994266,13.129210,3.860710,3.432686,-3.010545,-3.650835,8064.000000,0.000000,4.000000,,,,0.000000,4.000000,4.000000,4.000000,4.000000,4.000000,4.000000,4.000000,4.000000,4.000000,4.000000,4.000000,2.000000,4.000000,4.000000,4.000000,4.000000,4.000000,4.000000,4.000000,4.000000,4.000000,4.000000,4.000000,4.000000,4.000000,4.000000,4.000000,4.000000,4.000000,4.000000,4.000000,4.000000,83.333336
1614491238.928177,58.000000,0.000000,-0.435995,4.349942,11.199212,10.221194,-2.649376,3.276372,-1.624297,-8.377818,-1.038466,11.443963,4.475996,10.572531,1.046107,14.893804,6.748825,4.254295,-3.612161,14.871802,0.108205,-19.365433,2.912807,191.120499,-0.339955,-3.316043,-12.667627,-5.902773,10.550374,13.116080,3.856850,2.916433,-5.571637,-4.672825,8064.000000,0.000000,4.000000,,,,0.000000,4.000000,4.000000,4.000000,4.000000,4.000000,4.000000,4.000000,4.000000,4.000000,4.000000,4.000000,2.000000,4.000000,4.000000,4.000000,4.000000,4.000000,4.000000,4.000000,4.000000,4.000000,4.000000,4.000000,4.000000,4.000000,4.000000,4.000000,4.000000,4.000000,4.000000,4.000000,4.000000,83.333336
1614491238.935826,59.000000,0.000000,-0.948379,5.884054,9.136731,11.236613,-1.108266,4.298737,0.428610,2.399791,3.577957,17.586365,14.727930,14.151702,7.711728,24.109678,12.895923,8.865425,0.494015,30.754366,10.364507,-17.807606,8.550920,158.621689,1.198846,3.353939,-12.654960,-6.922512,16.180849,13.102964,3.852993,3.426337,-0.437860,-1.591229,8064.000000,0.000000,4.000000,,,,0.000000,4.000000,4.000000,4.000000,4.000000,4.000000,4.000000,4.000000,4.000000,4.000000,4.000000,4.000000,2.000000,4.000000,4.000000,4.000000,4.000000,4.000000,4.000000,4.000000,4.000000,4.000000,4.000000,4.000000,4.000000,4.000000,4.000000,4.000000,4.000000,4.000000,4.000000,4.000000,4.000000,83.333336
1614491238.943675,60.000000,0.000000,-0.947431,8.442272,6.563492,7.122813,0.944125,6.858541,3.505104,10.602519,12.292328,10.902112,18.302946,14.137550,15.396323,22.034286,11.857386,7.830919,6.134547,37.390278,12.405424,-12.661593,11.106472,126.155373,1.197648,4.889047,-10.591022,-6.402769,12.062104,13.089861,3.849140,3.422910,0.588219,2.512926,8064.000000,0.000000,4.000000,,,,0.000000,4.000000,4.000000,4.000000,4.000000,4.000000,4.000000,4.000000,4.000000,4.000000,4.000000,4.000000,2.000000,4.000000,4.000000,4.000000,4.000000,4.000000,4.000000,4.000000,4.000000,4.000000,4.000000,4.000000,4.000000,4.000000,4.000000,4.000000,4.000000,4.000000,4.000000,4.000000,4.000000,83.333336
1614491238.951424,61.000000,0.000000,-0.433663,6.382548,5.018466,8.141331,0.943181,7.877323,4.014420,2.386788,8.177471,4.224544,17.259003,14.123412,17.945030,21.499432,12.358349,6.284626,8.692514,27.096478,10.854557,-12.136111,10.069724,158.849731,4.273373,3.345696,-9.554790,-5.883545,4.870555,13.076772,3.845291,-0.170256,-7.104677,0.971952,8064.000000,0.000000,4.000000,,,,0.000000,4.000000,4.000000,4.000000,4.000000,4.000000,4.000000,4.000000,4.000000,4.000000,4.000000,4.000000,2.000000,4.000000,4.000000,4.000000,4.000000,4.000000,4.000000,4.000000,4.000000,4.000000,4.000000,4.000000,4.000000,4.000000,4.000000,4.000000,4.000000,4.000000,4.000000,4.000000,4.000000,83.333336
1614491238.959273,62.000000,0.000000,-0.946050,5.863345,-3.191680,9.158831,0.942237,7.356625,0.933482,-3.769444,1.502627,6.271601,17.754564,14.622109,17.414265,23.016394,13.884452,9.355265,8.171001,25.530920,15.459087,-9.047052,11.085296,183.306274,4.781920,3.855171,-8.519595,-9.467405,3.840043,13.063695,3.841445,-4.272650,-11.200136,-1.080302,8192.000000,0.000000,4.000000,,,,0.000000,4.000000,4.000000,4.000000,4.000000,4.000000,4.000000,4.000000,4.000000,4.000000,4.000000,4.000000,2.000000,4.000000,4.000000,4.000000,4.000000,4.000000,4.000000,4.000000,4.000000,4.000000,4.000000,4.000000,4.000000,4.000000,4.000000,4.000000,4.000000,4.000000,4.000000,4.000000,4.000000,83.333336
1614491238.967022,63.000000,0.000000,-0.432283,13.036968,-0.111565,8.124031,0.941295,7.349268,4.522292,4.952274,3.552407,11.393535,19.275270,14.607488,17.396851,22.993378,17.460310,19.089499,8.162830,39.864365,22.110294,3.269687,14.151134,150.815262,4.264318,8.979521,-0.818768,-8.945117,5.374665,13.050631,3.837604,-4.781198,-9.650475,1.484881,8064.000000,0.000000,4.000000,,,,0.000000,4.000000,4.000000,4.000000,4.000000,4.000000,4.000000,4.000000,4.000000,4.000000,4.000000,4.000000,2.000000,4.000000,4.000000,4.000000,4.000000,4.000000,4.000000,4.000000,4.000000,4.000000,4.000000,4.000000,4.000000,4.000000,4.000000,4.000000,4.000000,4.000000,4.000000,4.000000,4.000000,83.333336
1614491238.974871,64.000000,0.000000,4.183534,15.075213,13.734700,10.167189,0.427533,7.341919,11.184437,13.665270,2.010392,11.382141,16.179071,14.080060,17.379454,21.944744,18.981312,20.096050,7.641848,39.311680,23.113825,7.881802,14.136982,138.869583,7.849797,11.534644,7.900000,-2.269506,4.343649,13.037580,3.833766,-4.263596,-8.102363,3.021857,0.000000,197.000000,4.000000,,,,0.000000,4.000000,4.000000,4.000000,4.000000,4.000000,4.000000,4.000000,4.000000,4.000000,4.000000,4.000000,2.000000,4.000000,4.000000,4.000000,4.000000,4.000000,4.000000,4.000000,4.000000,4.000000,4.000000,4.000000,4.000000,4.000000,4.000000,4.000000,4.000000,4.000000,4.000000,4.000000,4.000000,83.333336
1614491238.982620,65.000000,0.000000,7.256273,9.419113,11.156863,10.669843,2.478388,7.334578,9.121970,15.190066,2.521203,11.370759,13.085970,13.553159,16.849253,21.922798,17.423868,12.383647,8.147026,27.477495,24.116352,1.720074,13.610024,171.551224,7.329127,13.574391,10.969023,1.322508,3.826485,13.024543,3.829933,-4.772153,-5.530158,4.557297,0.000000,205.000000,4.000000,,,,0.000000,4.000000,4.000000,4.000000,4.000000,4.000000,4.000000,4.000000,4.000000,4.000000,4.000000,4.000000,2.000000,4.000000,4.000000,4.000000,4.000000,4.000000,4.000000,4.000000,4.000000,4.000000,4.000000,4.000000,4.000000,4.000000,4.000000,4.000000,4.000000,4.000000,4.000000,4.000000,4.000000,83.333336
1614491238.990469,66.000000,0.000000,7.249017,7.871232,1.914937,13.223275,7.091294,7.327243,4.497463,11.072312,14.313553,12.385029,14.611345,15.078068,17.345224,22.926517,18.432087,14.935366,8.651699,28.475658,21.528133,1.718354,16.673338,181.636078,5.270515,14.586458,8.906772,1.834006,5.873940,13.011518,3.826103,-4.767381,-0.396423,9.680944,0.000000,185.000000,4.000000,,,,0.000000,4.000000,4.000000,4.000000,4.000000,4.000000,4.000000,4.000000,4.000000,4.000000,4.000000,4.000000,2.000000,4.000000,4.000000,4.000000,4.000000,4.000000,4.000000,4.000000,4.000000,4.000000,4.000000,4.000000,4.000000,4.000000,4.000000,4.000000,4.000000,4.000000,4.000000,4.000000,4.000000,83.333336
1614491238.998218,67.000000,0.000000,6.728948,9.401822,4.477125,11.671590,8.622664,7.319916,5.005786,1.830471,15.837701,4.680336,9.981350,13.524528,16.302238,20.852308,8.670064,9.279405,2.489202,21.780516,3.045067,-3.924390,11.528460,149.146759,9.367809,-2.351205,1.205557,1.832172,5.868066,12.998507,3.822277,-4.249793,2.680897,10.696905,0.000000,188.000000,4.000000,,,,0.000000,4.000000,4.000000,4.000000,4.000000,4.000000,4.000000,4.000000,4.000000,4.000000,4.000000,4.000000,2.000000,4.000000,4.000000,4.000000,4.000000,4.000000,4.000000,4.000000,4.000000,4.000000,4.000000,4.000000,4.000000,4.000000,4.000000,4.000000,4.000000,4.000000,4.000000,4.000000,4.000000,83.333336
1614491239.006067,68.000000,0.000000,7.235039,8.879601,4.472647,1.403508,8.101221,7.312596,4.487960,-4.838027,3.514171,-6.093575,-5.926067,5.818696,13.209013,13.139149,-16.466810,-13.806798,-3.667134,-1.318187,-11.316952,-22.382004,-1.816403,140.792480,11.409723,-20.297571,-7.000776,-4.323507,3.298096,12.985508,3.818454,-4.245543,0.626934,6.070824,0.000000,214.000000,4.000000,,,,0.000000,4.000000,4.000000,4.000000,4.000000,4.000000,4.000000,4.000000,4.000000,4.000000,4.000000,4.000000,2.000000,4.000000,4.000000,4.000000,4.000000,4.000000,4.000000,4.000000,4.000000,4.000000,4.000000,4.000000,4.000000,4.000000,4.000000,4.000000,4.000000,4.000000,4.000000,4.000000,4.000000,83.333336
1614491239.013816,69.000000,0.000000,6.714983,8.357900,6.006636,-0.649177,8.093120,7.305283,6.021934,-2.781906,-1.104728,-3.523378,-7.971424,3.248774,12.682983,10.049087,-19.014446,-12.254529,-0.073723,0.734413,-2.587687,-24.923725,0.236696,173.472198,4.731647,-6.943941,-10.070699,-3.806363,8.935823,12.972523,3.814636,-4.241298,-2.450616,4.013471,0.000000,186.000000,4.000000,,,,0.000000,4.000000,4.000000,4.000000,4.000000,4.000000,4.000000,4.000000,4.000000,4.000000,4.000000,4.000000,2.000000,4.000000,4.000000,4.000000,4.000000,4.000000,4.000000,4.000000,4.000000,4.000000,4.000000,4.000000,4.000000,4.000000,4.000000,4.000000,4.000000,4.000000,4.000000,4.000000,4.000000,83.333336
1614491239.021665,70.000000,0.000000,6.708269,8.862363,17.282681,9.607882,8.597847,7.297978,7.554373,-0.215022,0.434839,5.198094,8.446804,10.425013,14.208762,12.090320,3.568671,13.398751,5.054556,20.733679,4.081568,-8.488544,11.005690,183.042313,0.111531,8.960439,-8.522166,6.966674,16.619196,12.959550,3.810821,-4.237056,-1.422524,7.086380,0.000000,216.000000,4.000000,,,,0.000000,4.000000,4.000000,4.000000,4.000000,4.000000,4.000000,4.000000,4.000000,4.000000,4.000000,4.000000,2.000000,4.000000,4.000000,4.000000,4.000000,4.000000,4.000000,4.000000,4.000000,4.000000,4.000000,4.000000,4.000000,4.000000,4.000000,4.000000,4.000000,4.000000,4.000000,4.000000,4.000000,83.333336
1614491239.029414,71.000000,0.000000,6.701560,8.853500,16.752577,7.546992,8.076429,7.290680,-1.171130,-1.240448,0.947224,0.577511,13.053742,9.388947,9.066348,8.488485,6.642025,19.026379,2.485399,16.610380,-5.666103,-9.505697,1.251095,150.551590,1.137060,-6.433137,-9.026464,2.857144,6.858986,12.946590,3.807010,-4.232820,-2.446743,8.104935,0.000000,193.000000,4.000000,,,,0.000000,4.000000,4.000000,4.000000,4.000000,4.000000,4.000000,4.000000,4.000000,4.000000,4.000000,4.000000,2.000000,4.000000,4.000000,4.000000,4.000000,4.000000,4.000000,4.000000,4.000000,4.000000,4.000000,4.000000,4.000000,4.000000,4.000000,4.000000,4.000000,4.000000,4.000000,4.000000,4.000000,83.333336
1614491239.037263,72.000000,0.000000,6.694859,8.844646,7.505056,-1.691324,8.068353,7.283389,-10.913548,-1.239208,2.997559,-10.192297,3.809919,-2.415314,1.877794,-0.750772,-12.851796,8.750941,-0.594010,3.260437,-12.327104,-27.957729,-12.083489,146.811295,1.648744,-22.324141,-11.581541,-8.940585,-9.558129,12.933644,3.803203,-4.228587,-7.572501,4.507086,0.000000,172.000000,4.000000,,,,0.000000,4.000000,4.000000,4.000000,4.000000,4.000000,4.000000,4.000000,4.000000,4.000000,4.000000,4.000000,2.000000,4.000000,4.000000,4.000000,4.000000,4.000000,4.000000,4.000000,4.000000,4.000000,4.000000,4.000000,4.000000,4.000000,4.000000,4.000000,4.000000,4.000000,4.000000,4.000000,4.000000,83.333336
1614491239.045012,73.000000,0.000000,7.200984,6.784520,4.420628,1.387290,8.060285,7.276106,-9.364173,-0.212327,0.943280,-11.720567,2.780468,-2.412899,1.875916,-4.852586,-18.992790,6.690908,0.432225,4.282818,-9.750674,-34.596439,-5.917560,179.484985,0.621454,-17.686432,-12.595600,-7.906003,-9.548571,12.920711,4.312221,-4.224358,-9.616211,0.912836,0.000000,183.000000,4.000000,,,,0.000000,4.000000,4.000000,4.000000,4.000000,4.000000,4.000000,4.000000,4.000000,4.000000,4.000000,4.000000,2.000000,4.000000,4.000000,4.000000,4.000000,4.000000,4.000000,4.000000,4.000000,4.000000,4.000000,4.000000,4.000000,4.000000,4.000000,4.000000,4.000000,4.000000,4.000000,4.000000,4.000000,83.333336
1614491239.052861,74.000000,0.000000,6.168142,5.239274,-4.301742,2.924365,8.052224,7.268830,-5.765066,-0.212115,-5.211510,-9.144743,0.726406,6.820283,5.976604,-3.309272,-14.871234,4.120115,0.944614,5.816997,-8.715282,-31.997740,1.780665,180.843964,-2.968911,-14.079001,-14.121467,-8.923738,-4.410817,12.907789,4.307909,-4.220134,-10.119415,-5.241923,0.000000,192.000000,4.000000,,,,0.000000,4.000000,4.000000,4.000000,4.000000,4.000000,4.000000,4.000000,4.000000,4.000000,4.000000,4.000000,2.000000,4.000000,4.000000,4.000000,4.000000,4.000000,4.000000,4.000000,4.000000,4.000000,4.000000,4.000000,4.000000,4.000000,4.000000,4.000000,4.000000,4.000000,4.000000,4.000000,4.000000,83.333336
1614491239.060610,75.000000,0.000000,3.597872,5.234035,-16.605133,-4.770867,8.044171,7.261561,-6.784942,-0.211903,-3.155016,-10.161240,-10.556372,5.787822,6.483449,-3.818783,-16.394825,-3.063493,0.430848,1.195795,-10.757850,-32.478561,-0.785218,148.355423,-6.555686,-17.141846,-20.261190,-19.684046,-11.073073,12.894882,1.739498,-4.215913,-16.775963,-14.467451,0.000000,182.000000,4.000000,,,,0.000000,4.000000,4.000000,4.000000,4.000000,4.000000,4.000000,4.000000,4.000000,4.000000,4.000000,4.000000,2.000000,4.000000,4.000000,4.000000,4.000000,4.000000,4.000000,4.000000,4.000000,4.000000,4.000000,4.000000,4.000000,4.000000,4.000000,4.000000,4.000000,4.000000,4.000000,4.000000,4.000000,83.333336
1614491239.068459,76.000000,0.000000,2.568633,5.228801,-15.562886,-4.766097,8.548948,7.254299,-6.778157,-0.724511,-1.100579,-11.176720,-14.135559,2.192291,4.938504,-4.840605,-17.404070,-5.111711,-0.595223,-0.343863,-11.259912,-32.446083,0.241208,152.822464,-6.549130,-18.663164,-24.856314,-19.151541,-14.138923,12.881987,0.199297,-4.211698,-20.861750,-14.965804,0.000000,175.000000,4.000000,,,,0.000000,4.000000,4.000000,4.000000,4.000000,4.000000,4.000000,4.000000,4.000000,4.000000,4.000000,4.000000,2.000000,4.000000,4.000000,4.000000,4.000000,4.000000,4.000000,4.000000,4.000000,4.000000,4.000000,4.000000,4.000000,4.000000,4.000000,4.000000,4.000000,4.000000,4.000000,4.000000,4.000000,83.333336
1614491239.076208,77.000000,0.000000,3.591705,5.223572,-11.957580,-1.171587,7.001938,7.247045,-6.258558,0.301854,-5.202043,-9.627081,-5.916296,8.343945,5.959206,1.830902,-11.232821,-3.568138,-0.081808,1.194943,-9.197371,-29.336716,7.933275,185.490143,-3.978478,-16.080399,-18.677612,-12.465723,-0.278630,12.869105,0.199098,-4.207486,-16.225504,-6.232889,0.000000,190.000000,4.000000,,,,0.000000,4.000000,4.000000,4.000000,4.000000,4.000000,4.000000,4.000000,4.000000,4.000000,4.000000,4.000000,2.000000,4.000000,4.000000,4.000000,4.000000,4.000000,4.000000,4.000000,4.000000,4.000000,4.000000,4.000000,4.000000,4.000000,4.000000,4.000000,4.000000,4.000000,4.000000,4.000000,4.000000,83.333336
1614491239.083957,78.000000,0.000000,3.588113,5.731169,-12.458443,-4.247338,3.918013,5.188516,-5.739479,0.301552,-7.760943,-10.130275,-3.859097,10.899703,8.004529,8.495738,-7.119023,-2.538929,2.995197,3.757850,-8.162532,-28.281736,7.412521,172.996964,-2.436038,-14.013037,-11.479447,-13.478898,11.003699,13.369057,-1.339563,-2.664817,-12.619535,-3.149733,0.000000,196.000000,4.000000,,,,0.000000,4.000000,4.000000,4.000000,4.000000,4.000000,4.000000,4.000000,4.000000,4.000000,4.000000,4.000000,2.000000,4.000000,4.000000,4.000000,4.000000,4.000000,4.000000,4.000000,4.000000,4.000000,4.000000,4.000000,4.000000,4.000000,4.000000,4.000000,4.000000,4.000000,4.000000,4.000000,4.000000,83.333336
1614491239.091707,79.000000,0.000000,1.020423,5.212617,-9.369061,-6.294373,0.837172,3.644866,-6.246560,-8.929519,-7.240362,-13.197067,-11.034725,4.734957,3.381140,5.923140,-9.676007,-3.562031,-2.136003,4.266913,-11.744113,-28.253456,-3.364123,140.516281,0.130500,-17.588768,-14.032070,-13.978240,4.838850,12.842867,-3.389505,-0.610870,-12.606915,-3.659404,0.000000,133.000000,4.000000,,,,0.000000,4.000000,4.000000,4.000000,4.000000,4.000000,4.000000,4.000000,4.000000,4.000000,4.000000,4.000000,2.000000,4.000000,4.000000,4.000000,4.000000,4.000000,4.000000,4.000000,4.000000,4.000000,4.000000,4.000000,4.000000,4.000000,4.000000,4.000000,4.000000,4.000000,4.000000,4.000000,4.000000,83.333336
1614491239.099356,80.000000,0.000000,-1.031880,5.207405,-5.257128,-6.288079,-0.702127,3.128401,-9.317236,-19.177000,-6.207480,-14.209512,-11.023690,1.653299,-2.776088,2.840294,-9.153510,-4.071290,-7.262072,5.288287,-4.552881,-29.250843,-4.899220,157.298843,1.156011,-14.494255,-15.043679,-7.810416,-3.883938,12.317204,-3.898937,-0.610259,-11.568667,3.523742,0.000000,167.000000,4.000000,,,,0.000000,4.000000,4.000000,4.000000,4.000000,4.000000,4.000000,4.000000,4.000000,4.000000,4.000000,4.000000,2.000000,4.000000,4.000000,4.000000,4.000000,4.000000,4.000000,4.000000,4.000000,4.000000,4.000000,4.000000,4.000000,4.000000,4.000000,4.000000,4.000000,4.000000,4.000000,4.000000,4.000000,83.333336
1614491239.107105,81.000000,0.000000,-0.518027,5.715018,-3.713409,-13.461278,0.837036,3.638093,-9.820740,-19.670643,-4.149991,-13.169661,0.782205,4.215748,3.380535,7.452838,-0.939229,5.676372,6.078523,17.077871,12.887568,-29.734413,11.515936,189.962051,1.667675,7.571521,-12.464533,-4.725682,-2.341592,13.330527,-3.382217,-1.122469,-8.992996,7.109962,0.000000,192.000000,4.000000,,,,0.000000,4.000000,4.000000,4.000000,4.000000,4.000000,4.000000,4.000000,4.000000,4.000000,4.000000,4.000000,2.000000,4.000000,4.000000,4.000000,4.000000,4.000000,4.000000,4.000000,4.000000,4.000000,4.000000,4.000000,4.000000,4.000000,4.000000,4.000000,4.000000,4.000000,4.000000,4.000000,4.000000,83.333336
1614491239.114754,82.000000,0.000000,-0.517509,1.606739,-5.248157,-20.627304,-0.189442,3.121634,-6.221175,-21.189434,-6.709943,-17.259056,6.935269,1.647430,11.069462,4.368462,-5.040854,11.824541,15.303214,22.701818,9.284938,-28.166216,17.658266,159.002853,4.230110,15.769077,-17.067453,-10.361982,-1.826430,11.778735,-3.378835,-0.095706,-7.958363,-0.589455,0.000000,197.000000,4.000000,,,,0.000000,4.000000,4.000000,4.000000,4.000000,4.000000,4.000000,4.000000,4.000000,4.000000,4.000000,4.000000,2.000000,4.000000,4.000000,4.000000,4.000000,4.000000,4.000000,4.000000,4.000000,4.000000,4.000000,4.000000,4.000000,4.000000,4.000000,4.000000,4.000000,4.000000,4.000000,4.000000,4.000000,83.333336
1614491239.122503,83.000000,0.000000,-2.568274,-5.061535,-12.422397,-21.632317,-4.291816,3.631333,-7.753416,-29.886192,-14.908361,-23.395643,-6.405000,-8.610627,-1.249300,-11.533342,-24.010172,-1.520616,-3.173628,5.243219,-15.339732,-32.240616,-5.436316,126.536163,2.687418,-9.887717,-26.281155,-17.018286,-10.029732,4.587469,-3.375456,-1.121251,-13.591430,-8.281174,0.000000,158.000000,4.000000,,,,0.000000,4.000000,4.000000,4.000000,4.000000,4.000000,4.000000,4.000000,4.000000,4.000000,4.000000,4.000000,2.000000,4.000000,4.000000,4.000000,4.000000,4.000000,4.000000,4.000000,4.000000,4.000000,4.000000,4.000000,4.000000,4.000000,4.000000,4.000000,4.000000,4.000000,4.000000,4.000000,4.000000,83.333336
1614491239.130152,84.000000,0.000000,-4.616988,-5.569294,-16.512539,-22.636326,-1.210601,3.627702,-9.796945,-31.907589,-13.867812,-21.320965,-21.270390,-13.730222,-15.094204,-21.778219,-26.550264,-14.339608,-19.580711,-11.685101,-27.632084,-40.413502,-23.379597,155.640396,-9.622961,-29.877829,-29.331797,-18.026909,-13.609446,0.993138,-3.884901,-0.094489,-20.757326,-8.785713,0.000000,197.000000,4.000000,,,,0.000000,4.000000,4.000000,4.000000,4.000000,4.000000,4.000000,4.000000,4.000000,4.000000,4.000000,4.000000,2.000000,4.000000,4.000000,4.000000,4.000000,4.000000,4.000000,4.000000,4.000000,4.000000,4.000000,4.000000,4.000000,4.000000,4.000000,4.000000,4.000000,4.000000,4.000000,4.000000,4.000000,83.333336
1614491239.137901,85.000000,0.000000,-4.612370,-0.948340,-7.778077,-20.562408,10.585481,3.111253,0.469263,-18.542347,-4.110355,-14.120156,-15.095273,-3.460082,-4.309879,-16.115416,-8.062176,-13.299628,-13.407284,-6.545211,-20.424965,-33.193600,-15.151090,188.305267,-15.767184,-19.591541,-27.764004,-15.444780,-0.775324,6.633171,-3.368196,3.495349,-18.685286,-5.187183,0.000000,183.000000,4.000000,,,,0.000000,4.000000,4.000000,4.000000,4.000000,4.000000,4.000000,4.000000,4.000000,4.000000,4.000000,4.000000,2.000000,4.000000,4.000000,4.000000,4.000000,4.000000,4.000000,4.000000,4.000000,4.000000,4.000000,4.000000,4.000000,4.000000,4.000000,4.000000,4.000000,4.000000,4.000000,4.000000,4.000000,83.333336
1614491239.145551,86.000000,0.000000,-2.043656,2.129531,4.024573,-9.259794,16.728743,4.133783,12.263665,-2.113549,2.047602,-9.490652,-1.746844,9.363892,11.079046,-4.817249,0.151015,-9.696585,-5.701569,6.281847,-9.635309,-11.109126,-3.341066,156.834915,-5.495007,-7.264257,-19.531111,-11.326771,11.533144,13.806025,-1.313545,7.594418,-9.948652,-1.079432,0.000000,170.000000,4.000000,,,,0.000000,4.000000,4.000000,4.000000,4.000000,4.000000,4.000000,4.000000,4.000000,4.000000,4.000000,4.000000,2.000000,4.000000,4.000000,4.000000,4.000000,4.000000,4.000000,4.000000,4.000000,4.000000,4.000000,4.000000,4.000000,4.000000,4.000000,4.000000,4.000000,4.000000,4.000000,4.000000,4.000000,83.333336
1614491239.153300,87.000000,0.000000,-0.503151,1.614581,7.097472,-3.609509,15.686372,6.693752,13.277042,0.452667,1.019913,-3.840136,0.306185,9.867348,9.016685,1.854235,-2.413239,-6.097145,-6.721508,11.403770,-6.035931,-5.456991,-3.337725,127.447311,8.356642,-9.308275,-10.793632,-9.264162,2.290842,13.792219,0.226230,7.074003,-8.400242,-0.052712,0.000000,200.000000,4.000000,,,,0.000000,4.000000,4.000000,4.000000,4.000000,4.000000,4.000000,4.000000,4.000000,4.000000,4.000000,4.000000,2.000000,4.000000,4.000000,4.000000,4.000000,4.000000,4.000000,4.000000,4.000000,4.000000,4.000000,4.000000,4.000000,4.000000,4.000000,4.000000,4.000000,4.000000,4.000000,4.000000,4.000000,83.333336
1614491239.160949,88.000000,0.000000,-0.502647,1.100146,6.577554,-7.708463,15.670686,7.712699,11.212483,-5.701632,-0.519568,5.394474,-1.745404,10.883121,6.443565,2.365201,1.691739,2.114081,-8.766068,11.905188,-10.132459,-17.759226,-6.411311,160.140381,10.912388,-10.837428,-13.346940,-9.767718,-7.455039,11.214324,0.738824,2.964365,-9.930304,0.460161,0.000000,174.000000,4.000000,,,,0.000000,4.000000,4.000000,4.000000,4.000000,4.000000,4.000000,4.000000,4.000000,4.000000,4.000000,4.000000,2.000000,4.000000,4.000000,4.000000,4.000000,4.000000,4.000000,4.000000,4.000000,4.000000,4.000000,4.000000,4.000000,4.000000,4.000000,4.000000,4.000000,4.000000,4.000000,4.000000,4.000000,83.333336
1614491239.168698,89.000000,0.000000,-0.502145,2.637508,6.058156,4.094117,15.655015,7.192166,14.278194,5.073300,4.096336,14.107028,2.871726,21.641470,18.231995,8.003861,6.305432,5.701710,-4.654738,12.918923,-2.430018,-12.100442,-1.789515,181.005875,6.286091,-2.621463,-9.743850,-9.245131,8.962672,14.280033,2.276547,-0.628343,-3.766527,8.664829,0.000000,167.000000,4.000000,,,,0.000000,4.000000,4.000000,4.000000,4.000000,4.000000,4.000000,4.000000,4.000000,4.000000,4.000000,4.000000,2.000000,4.000000,4.000000,4.000000,4.000000,4.000000,4.000000,4.000000,4.000000,4.000000,4.000000,4.000000,4.000000,4.000000,4.000000,4.000000,4.000000,4.000000,4.000000,4.000000,4.000000,83.333336
1614491239.176347,90.000000,0.000000,-0.501643,5.711793,7.590559,28.192587,16.152180,9.749076,17.340839,25.068228,12.297368,22.298050,7.997060,25.722391,23.854788,20.816370,7.324767,4.670368,5.093506,16.495749,11.418566,5.860377,13.084069,148.517181,9.869548,4.047825,9.753074,-6.158962,21.261402,18.368317,4.838373,-1.140535,3.416727,16.861294,0.000000,194.000000,4.000000,,,,0.000000,4.000000,4.000000,4.000000,4.000000,4.000000,4.000000,4.000000,4.000000,4.000000,4.000000,4.000000,2.000000,4.000000,4.000000,4.000000,4.000000,4.000000,4.000000,4.000000,4.000000,4.000000,4.000000,4.000000,4.000000,4.000000,4.000000,4.000000,4.000000,4.000000,4.000000,4.000000,4.000000,83.333336
1614491239.184196,91.000000,0.000000,-0.501141,5.706081,10.147071,27.651573,16.136028,11.790609,14.759396,18.889313,8.182507,18.686008,4.399319,16.978722,11.010420,20.282734,5.778981,5.178518,2.011489,15.966432,5.253301,-1.837791,14.609447,131.958405,21.654551,-2.110069,9.743320,-5.639983,-0.811141,10.144820,4.320714,-0.626574,-1.714895,10.177765,0.000000,210.000000,4.000000,,,,0.000000,4.000000,4.000000,4.000000,4.000000,4.000000,4.000000,4.000000,4.000000,4.000000,4.000000,4.000000,2.000000,4.000000,4.000000,4.000000,4.000000,4.000000,4.000000,4.000000,4.000000,4.000000,4.000000,4.000000,4.000000,4.000000,4.000000,4.000000,4.000000,4.000000,4.000000,4.000000,4.000000,83.333336
1614491239.191945,92.000000,0.000000,-0.500640,-0.966291,6.034360,0.957256,7.914764,7.676255,7.052329,-4.206500,-7.210292,-3.896781,-2.271747,9.782255,-2.846745,4.365016,-4.996029,2.609236,-11.836676,10.822260,-9.110927,-26.964159,-4.379521,164.646957,13.427768,-11.338728,-16.420269,-10.762547,-25.425714,-1.660196,0.213829,-1.138768,-15.046514,-4.191387,0.000000,176.000000,4.000000,,,,0.000000,4.000000,4.000000,4.000000,4.000000,4.000000,4.000000,4.000000,4.000000,4.000000,4.000000,4.000000,2.000000,4.000000,4.000000,4.000000,4.000000,4.000000,4.000000,4.000000,4.000000,4.000000,4.000000,4.000000,4.000000,4.000000,4.000000,4.000000,4.000000,4.000000,4.000000,4.000000,4.000000,83.333336
1614491239.199794,93.000000,0.000000,-0.500139,-6.093530,-4.228085,-15.966779,-0.298279,3.053194,1.404251,-9.330498,-12.844107,-24.405704,-5.859219,10.285294,-2.331077,-0.767555,-16.273085,-2.521578,-8.747916,7.734515,-10.640278,-35.655144,-11.041808,166.533600,-15.816429,-13.891492,-29.224361,-14.854349,-20.272083,1.418387,-3.888949,-2.163270,-17.595570,-8.802581,0.000000,194.000000,4.000000,,,,0.000000,4.000000,4.000000,4.000000,4.000000,4.000000,4.000000,4.000000,4.000000,4.000000,4.000000,4.000000,2.000000,4.000000,4.000000,4.000000,4.000000,4.000000,4.000000,4.000000,4.000000,4.000000,4.000000,4.000000,4.000000,4.000000,4.000000,4.000000,4.000000,4.000000,4.000000,4.000000,4.000000,83.333336
1614491239.207543,94.000000,0.000000,-0.499639,-6.087437,-6.275139,-13.386709,-0.297981,3.050141,1.402846,-8.295527,-4.113314,-26.945402,-4.827718,11.300649,3.312279,6.925520,-14.205529,-4.057518,3.055703,8.239601,-12.168098,-29.465641,1.276926,134.059372,-22.980101,-12.339139,-19.451548,-12.275393,-11.533863,13.211841,-3.885060,-0.622646,-8.347204,-0.588650,0.000000,181.000000,4.000000,,,,0.000000,4.000000,4.000000,4.000000,4.000000,4.000000,4.000000,4.000000,4.000000,4.000000,4.000000,4.000000,2.000000,4.000000,4.000000,4.000000,4.000000,4.000000,4.000000,4.000000,4.000000,4.000000,4.000000,4.000000,4.000000,4.000000,4.000000,4.000000,4.000000,4.000000,4.000000,4.000000,4.000000,83.333336
1614491239.215392,95.000000,0.000000,-0.499139,-5.055708,-0.115017,-12.860502,0.727958,3.559911,-0.649839,-20.082104,2.044645,-24.354353,-2.771609,8.725245,-0.280776,3.841672,-8.037477,-2.514999,-1.562737,9.257002,-11.643110,-26.872074,0.762828,146.233002,-3.469940,-10.788338,-13.278250,-6.109271,-14.086432,13.711449,-2.855534,1.942080,-3.723473,6.078606,0.000000,188.000000,4.000000,,,,0.000000,4.000000,4.000000,4.000000,4.000000,4.000000,4.000000,4.000000,4.000000,4.000000,4.000000,4.000000,2.000000,4.000000,4.000000,4.000000,4.000000,4.000000,4.000000,4.000000,4.000000,4.000000,4.000000,4.000000,4.000000,4.000000,4.000000,4.000000,4.000000,4.000000,4.000000,4.000000,4.000000,83.333336
1614491239.223141,96.000000,0.000000,0.014180,-6.589114,0.397918,-16.437386,-3.888154,3.043530,-7.828676,-26.728687,-1.034322,-27.406921,-4.820119,3.075495,-8.998445,-6.931401,-11.106363,-2.512484,-10.279122,8.222104,-1.887877,-30.434944,-7.443063,178.907288,0.636094,-13.854473,-17.367535,-6.615982,-9.969781,8.056712,-4.391140,2.452958,-7.822313,7.098168,8064.000000,0.000000,4.000000,,,,0.000000,4.000000,4.000000,4.000000,4.000000,4.000000,4.000000,4.000000,4.000000,4.000000,4.000000,4.000000,2.000000,4.000000,4.000000,4.000000,4.000000,4.000000,4.000000,4.000000,4.000000,4.000000,4.000000,4.000000,4.000000,4.000000,4.000000,4.000000,4.000000,4.000000,4.000000,4.000000,4.000000,83.333336
1614491239.230990,97.000000,0.000000,-0.498654,-6.582525,1.935982,-14.369665,-4.397087,3.040487,-12.436232,-17.471189,-1.033288,-23.789772,-6.353761,-1.542965,-6.938164,-9.488572,-13.659359,-5.074074,-9.243202,7.188241,-2.398810,-30.404510,-0.256133,167.959137,-15.774799,-16.404720,-18.375809,-6.609366,3.373522,10.612758,-3.361108,7.065890,-5.250389,6.578249,8064.000000,0.000000,4.000000,,,,0.000000,4.000000,4.000000,4.000000,4.000000,4.000000,4.000000,4.000000,4.000000,4.000000,4.000000,4.000000,2.000000,4.000000,4.000000,4.000000,4.000000,4.000000,4.000000,4.000000,4.000000,4.000000,4.000000,4.000000,4.000000,4.000000,4.000000,4.000000,4.000000,4.000000,4.000000,4.000000,4.000000,83.333336
1614491239.238739,98.000000,0.000000,0.014665,-1.960558,12.703277,-3.586065,1.761157,3.550267,-10.885334,-6.171667,11.275437,-10.945469,4.421824,-1.028602,3.838005,-4.350878,-11.081597,-2.504897,-5.131395,13.847719,-2.909232,-14.476669,11.026175,135.483490,-17.810307,-4.593444,-3.485638,1.602371,11.062456,21.884195,4.334561,17.315233,8.088195,6.571671,8064.000000,0.000000,4.000000,,,,0.000000,4.000000,4.000000,4.000000,4.000000,4.000000,4.000000,4.000000,4.000000,4.000000,4.000000,4.000000,2.000000,4.000000,4.000000,4.000000,4.000000,4.000000,4.000000,4.000000,4.000000,4.000000,4.000000,4.000000,4.000000,4.000000,4.000000,4.000000,4.000000,4.000000,4.000000,4.000000,4.000000,83.333336
1614491239.246588,99.000000,0.000000,0.014650,2.143967,10.639291,5.648290,5.861959,3.546717,-5.746243,-2.062931,16.392366,-1.703755,11.596889,-0.514753,5.372629,-1.782425,-6.967951,2.112992,-2.049341,19.474897,10.427011,2.973704,14.092072,158.937744,1.181863,5.667559,10.876822,6.216154,7.974471,25.452055,8.945611,22.938944,12.182672,8.103561,8064.000000,0.000000,4.000000,,,,0.000000,4.000000,4.000000,4.000000,4.000000,4.000000,4.000000,4.000000,4.000000,4.000000,4.000000,4.000000,2.000000,4.000000,4.000000,4.000000,4.000000,4.000000,4.000000,4.000000,4.000000,4.000000,4.000000,4.000000,4.000000,4.000000,4.000000,4.000000,4.000000,4.000000,4.000000,4.000000,4.000000,83.333336
1614491239.254337,100.000000,0.000000,-3.575108,1.116182,-3.730323,5.129821,3.291995,3.030349,-7.791780,-5.650612,2.017000,-2.214871,-4.824964,-1.539879,-2.837872,-8.447309,-9.012265,-6.094249,-7.175497,8.686192,2.211456,-7.798500,6.385672,191.086502,16.052477,-11.261185,-0.416106,-1.995191,-5.879658,9.529168,4.321281,20.864723,-1.675665,7.069817,8064.000000,0.000000,4.000000,,,,0.000000,4.000000,4.000000,4.000000,4.000000,4.000000,4.000000,4.000000,4.000000,4.000000,4.000000,4.000000,2.000000,4.000000,4.000000,4.000000,4.000000,4.000000,4.000000,4.000000,4.000000,4.000000,4.000000,4.000000,4.000000,4.000000,4.000000,4.000000,4.000000,4.000000,4.000000,4.000000,4.000000,83.333336
1614491239.262186,101.000000,0.000000,-7.674097,2.653527,8.581100,4.099051,4.314344,3.540140,-6.245526,-3.080859,-3.113222,-1.699836,-20.204754,0.512943,-6.424778,-12.028605,-10.541715,-10.190719,-21.014475,0.985198,-19.842037,-24.713779,-11.569431,158.587723,5.267193,-29.711462,-14.774665,-6.095759,-22.284035,-5.864977,-0.298425,18.279757,-7.315015,5.524285,8064.000000,0.000000,4.000000,,,,0.000000,4.000000,4.000000,4.000000,4.000000,4.000000,4.000000,4.000000,4.000000,4.000000,4.000000,4.000000,2.000000,4.000000,4.000000,4.000000,4.000000,4.000000,4.000000,4.000000,4.000000,4.000000,4.000000,4.000000,4.000000,4.000000,4.000000,4.000000,4.000000,4.000000,4.000000,4.000000,4.000000,83.333336
