title:07, start timestamp:1614302261.523129, stop timestamp:1614302307.560417, headset type:EPOCFLEX, headset serial:F00001ED, headset firmware:f12, subject name:s09, channels:75, sampling rate:128, samples:5942      , version:2.0
Timestamp,EEG.Counter,EEG.Interpolated,EEG.Cz,EEG.Fz,EEG.Fp1,EEG.AF3,EEG.F7,EEG.F3,EEG.FC1,EEG.C3,EEG.FC5,EEG.T7,EEG.CP5,EEG.CP1,EEG.P3,EEG.P7,EEG.PO3,EEG.O1,EEG.Pz,EEG.Oz,EEG.O2,EEG.PO4,EEG.P8,EEG.P4,EEG.CP2,EEG.CP6,EEG.T8,EEG.FC6,EEG.C4,EEG.FC2,EEG.F4,EEG.F8,EEG.AF4,EEG.Fp2,EEG.HighBitFlex,EEG.RawCq,EEG.Battery,MarkerIndex,MarkerType,MarkerValueInt,EEG.MarkerHardware,CQ.Cz,CQ.Fz,CQ.Fp1,CQ.AF3,CQ.F7,CQ.F3,CQ.FC1,CQ.C3,CQ.FC5,CQ.T7,CQ.CP5,CQ.CP1,CQ.P3,CQ.P7,CQ.PO3,CQ.O1,CQ.Pz,CQ.Oz,CQ.O2,CQ.PO4,CQ.P8,CQ.P4,CQ.CP2,CQ.CP6,CQ.T8,CQ.FC6,CQ.C4,CQ.FC2,CQ.F4,CQ.F8,CQ.AF4,CQ.Fp2,CQ.Overall
1614302261.523129,114.000000,0.000000,5.355927,6.559101,14.889128,-5.703458,18.081818,3.811691,2.559325,2.261384,10.960999,-5.418427,0.463826,-6.694743,1.369337,-2.233405,7.083226,6.236748,-7.878119,15.810365,17.741793,7.683465,3.984330,-12.318759,-17.675648,-11.705310,1.736936,-0.916823,-6.698062,1.726586,8.873488,1.442769,9.868582,14.647553,8064.000000,0.000000,4.000000,,,,0.000000,4.000000,4.000000,4.000000,2.000000,4.000000,2.000000,4.000000,4.000000,4.000000,4.000000,4.000000,4.000000,4.000000,4.000000,4.000000,4.000000,4.000000,4.000000,4.000000,4.000000,4.000000,4.000000,4.000000,4.000000,4.000000,4.000000,4.000000,4.000000,4.000000,4.000000,4.000000,4.000000,66.666664
1614302261.530978,115.000000,0.000000,-4.393019,3.988440,14.874238,-5.184934,18.063736,6.371982,1.018304,2.259123,9.411576,-5.925829,0.463362,-8.226510,-7.349981,-6.846556,-9.846934,-3.000258,-11.972805,0.409939,-0.224667,-2.067808,-6.788886,-17.434645,-18.170792,-13.232066,1.222378,-2.454367,-6.178544,-0.326422,8.351795,6.569531,7.294611,15.145726,8064.000000,0.000000,4.000000,,,,0.000000,4.000000,4.000000,4.000000,2.000000,4.000000,2.000000,4.000000,4.000000,4.000000,4.000000,4.000000,4.000000,4.000000,4.000000,4.000000,4.000000,4.000000,4.000000,4.000000,4.000000,4.000000,4.000000,4.000000,4.000000,4.000000,4.000000,4.000000,4.000000,4.000000,4.000000,4.000000,4.000000,66.666664
1614302261.538727,116.000000,0.000000,-8.491190,2.445990,14.346543,-7.231031,17.532850,7.904071,1.530107,2.256864,14.530370,-5.919903,-0.049921,-11.295207,-15.034939,-16.583300,-16.503754,-7.612643,-23.242884,-9.846881,-9.968032,-25.655483,-15.500046,-18.442852,-17.126980,-11.680372,0.195515,-1.426272,-7.198007,-6.479942,8.343443,-0.616525,2.671932,14.104939,8064.000000,0.000000,4.000000,,,,0.000000,4.000000,4.000000,4.000000,2.000000,4.000000,2.000000,4.000000,4.000000,4.000000,4.000000,4.000000,4.000000,4.000000,4.000000,4.000000,4.000000,4.000000,4.000000,4.000000,4.000000,4.000000,4.000000,4.000000,4.000000,4.000000,4.000000,4.000000,4.000000,4.000000,4.000000,4.000000,4.000000,66.666664
1614302261.546576,117.000000,0.000000,-2.328852,2.443544,14.845017,-9.275083,18.028139,7.383347,1.528576,2.254607,15.028660,-5.401163,0.462949,-11.283912,-17.071186,-19.130819,-15.974430,-13.758876,-24.758102,-9.324213,-10.470884,-35.886238,-21.125570,-20.988510,-17.622675,-12.181513,1.220960,-0.912025,-6.677988,-10.063206,9.360741,-6.769755,2.669260,15.116476,8064.000000,0.000000,4.000000,,,,0.000000,4.000000,4.000000,4.000000,2.000000,4.000000,2.000000,4.000000,4.000000,4.000000,4.000000,4.000000,4.000000,4.000000,4.000000,4.000000,4.000000,4.000000,4.000000,4.000000,4.000000,4.000000,4.000000,4.000000,4.000000,4.000000,4.000000,4.000000,4.000000,4.000000,4.000000,4.000000,4.000000,66.666664
1614302261.554325,118.000000,0.000000,-0.788062,1.415459,12.778891,-9.265807,18.010111,7.375963,1.527048,2.252352,11.936708,-6.421403,-0.050334,-10.246986,-13.977191,-14.496304,-14.932815,-20.411783,-11.400010,-7.776428,-13.537336,-31.234968,-18.540342,-21.480343,-18.630692,-12.169331,-1.857184,-9.629062,-6.158490,-10.565963,5.761636,-6.762985,-1.948794,12.537257,8064.000000,0.000000,4.000000,,,,0.000000,4.000000,4.000000,4.000000,2.000000,4.000000,2.000000,4.000000,4.000000,4.000000,4.000000,4.000000,4.000000,4.000000,4.000000,4.000000,4.000000,4.000000,4.000000,4.000000,4.000000,4.000000,4.000000,4.000000,4.000000,4.000000,4.000000,4.000000,4.000000,4.000000,4.000000,4.000000,4.000000,66.666664
1614302261.562174,119.000000,0.000000,-1.812915,-1.662879,7.637907,-9.256541,17.479280,7.368587,1.525521,2.250100,14.488874,-5.389340,-0.050284,-12.288022,-4.219625,-10.892063,-6.712753,-17.314449,-1.645021,-8.794292,-16.087902,-30.178093,-21.085905,-18.381939,-13.996677,-14.721264,-14.163019,-20.901484,-10.254895,-10.555397,-4.500535,-8.807504,-9.126332,5.858053,8064.000000,0.000000,4.000000,,,,0.000000,4.000000,4.000000,4.000000,2.000000,4.000000,2.000000,4.000000,4.000000,4.000000,4.000000,4.000000,4.000000,4.000000,4.000000,4.000000,4.000000,4.000000,4.000000,4.000000,4.000000,4.000000,4.000000,4.000000,4.000000,4.000000,4.000000,4.000000,4.000000,4.000000,4.000000,4.000000,4.000000,66.666664
1614302261.569923,120.000000,0.000000,4.855565,-1.661216,6.091807,-9.247285,17.974621,7.361218,1.011175,2.247850,16.525667,1.282716,4.565151,-7.147529,9.117929,-3.188864,3.037549,-6.527904,2.459188,-8.785498,-16.584635,-26.045349,-32.346870,-12.722532,1.914756,-19.834747,-24.918087,-21.393404,-10.757461,-6.955098,-7.060138,-10.849978,-6.553104,2.262451,8064.000000,0.000000,4.000000,,,,0.000000,4.000000,4.000000,4.000000,2.000000,4.000000,2.000000,4.000000,4.000000,4.000000,4.000000,4.000000,4.000000,4.000000,4.000000,4.000000,4.000000,4.000000,4.000000,4.000000,4.000000,4.000000,4.000000,4.000000,4.000000,4.000000,4.000000,4.000000,4.000000,4.000000,4.000000,4.000000,4.000000,66.666664
1614302261.577772,121.000000,0.000000,11.517376,-0.633914,7.111356,-9.238038,20.520748,7.353858,1.522984,2.245602,16.509142,7.435279,8.663150,5.680132,16.801119,7.070735,5.598614,4.247855,8.610576,-6.212610,-13.491127,-8.070586,-25.135036,-4.504681,16.271814,-19.814913,-16.175220,-12.654061,-1.003114,-2.332758,0.126410,-8.787847,-0.905525,3.285830,8064.000000,0.000000,4.000000,,,,0.000000,4.000000,4.000000,4.000000,2.000000,4.000000,2.000000,4.000000,4.000000,4.000000,4.000000,4.000000,4.000000,4.000000,4.000000,4.000000,4.000000,4.000000,4.000000,4.000000,4.000000,4.000000,4.000000,4.000000,4.000000,4.000000,4.000000,4.000000,4.000000,4.000000,4.000000,4.000000,4.000000,66.666664
1614302261.585521,122.000000,0.000000,12.018679,-1.658921,6.591424,-9.228800,22.038691,7.346504,2.034281,2.756177,19.569555,5.889382,8.654487,9.777016,15.758677,7.063664,7.131477,8.346171,12.191709,-0.565372,-0.144302,5.783638,-1.007337,2.166490,17.281185,-18.769457,1.789673,-8.538843,6.690197,-5.920169,1.151924,-6.727777,-1.930261,3.282544,8064.000000,0.000000,4.000000,,,,0.000000,4.000000,4.000000,4.000000,2.000000,4.000000,2.000000,4.000000,4.000000,4.000000,4.000000,4.000000,4.000000,4.000000,4.000000,4.000000,4.000000,4.000000,4.000000,4.000000,4.000000,4.000000,4.000000,4.000000,4.000000,4.000000,4.000000,4.000000,4.000000,4.000000,4.000000,4.000000,4.000000,66.666664
1614302261.593370,123.000000,0.000000,9.955379,-0.631621,7.097653,-9.219571,21.503830,7.339157,0.493786,2.240600,18.011524,4.345031,7.620191,4.126213,9.076251,3.466857,8.149987,6.799363,9.102593,3.537758,10.625073,6.803495,8.737260,2.677144,13.674160,-19.263508,8.967371,-5.453381,3.606584,-10.016813,0.125131,-4.669767,-0.902689,2.253620,8064.000000,0.000000,4.000000,,,,0.000000,4.000000,4.000000,4.000000,2.000000,4.000000,2.000000,4.000000,4.000000,4.000000,4.000000,4.000000,4.000000,4.000000,4.000000,4.000000,4.000000,4.000000,4.000000,4.000000,4.000000,4.000000,4.000000,4.000000,4.000000,4.000000,4.000000,4.000000,4.000000,4.000000,4.000000,4.000000,4.000000,66.666664
1614302261.601119,124.000000,0.000000,9.945423,6.548497,9.654658,-9.210351,21.482327,7.844638,2.031754,2.238360,12.865308,8.956071,9.151032,4.634908,4.451790,4.489031,7.116196,8.331025,7.042209,4.047040,13.178551,6.283871,8.215702,2.161646,13.660485,-13.090399,11.522506,3.270021,2.064516,-5.391411,12.432698,-0.049712,3.713598,2.764187,8064.000000,0.000000,4.000000,,,,0.000000,4.000000,4.000000,4.000000,2.000000,4.000000,2.000000,4.000000,4.000000,4.000000,4.000000,4.000000,4.000000,4.000000,4.000000,4.000000,4.000000,4.000000,4.000000,4.000000,4.000000,4.000000,4.000000,4.000000,4.000000,4.000000,4.000000,4.000000,4.000000,4.000000,4.000000,4.000000,4.000000,66.666664
1614302261.608768,125.000000,0.000000,12.499579,11.670154,11.183465,-9.201141,21.973665,8.349614,7.157927,2.748942,13.365263,8.434295,7.090600,6.681555,2.396056,-0.643663,1.980875,0.630387,4.983885,2.504532,11.626910,3.200664,9.233128,2.159485,10.057081,0.256025,13.049445,7.369315,6.165016,-0.770635,23.702316,0.975978,7.812449,4.299885,8064.000000,0.000000,4.000000,,,,0.000000,4.000000,4.000000,4.000000,2.000000,4.000000,2.000000,4.000000,4.000000,4.000000,4.000000,4.000000,4.000000,4.000000,4.000000,4.000000,4.000000,4.000000,4.000000,4.000000,4.000000,4.000000,4.000000,4.000000,4.000000,4.000000,4.000000,4.000000,4.000000,4.000000,4.000000,4.000000,4.000000,66.666664
1614302261.616517,126.000000,0.000000,5.820414,6.530279,11.172282,-9.191939,18.874767,5.777162,6.637949,1.207731,10.787795,-3.881832,-2.660081,-3.068717,-8.888391,-15.514813,-12.892901,-25.011269,-5.277510,-2.626178,-1.205229,-13.212792,-5.647901,-6.560624,-0.722207,5.383974,1.241524,-1.356003,0.517825,-5.898070,18.037590,-3.640382,6.778995,2.757123,8064.000000,0.000000,4.000000,,,,0.000000,4.000000,4.000000,4.000000,2.000000,4.000000,2.000000,4.000000,4.000000,4.000000,4.000000,4.000000,4.000000,4.000000,4.000000,4.000000,4.000000,4.000000,4.000000,4.000000,4.000000,4.000000,4.000000,4.000000,4.000000,4.000000,4.000000,4.000000,4.000000,4.000000,4.000000,4.000000,4.000000,66.666664
1614302261.624366,127.000000,0.000000,-10.082843,-1.168559,10.648289,-8.669928,13.214868,3.207282,2.015926,-2.896040,3.084700,-14.134360,-10.862549,-16.398981,-24.264118,-24.730068,-28.264624,-47.037540,-17.067104,-11.854321,-22.742485,-31.148298,-26.667894,-17.836115,-9.439433,-7.441923,-18.759718,-10.072596,-10.764745,-12.558839,8.275962,-8.764947,1.131190,-0.835377,8064.000000,0.000000,4.000000,,,,0.000000,4.000000,4.000000,4.000000,2.000000,4.000000,2.000000,4.000000,4.000000,4.000000,4.000000,4.000000,4.000000,4.000000,4.000000,4.000000,4.000000,4.000000,4.000000,4.000000,4.000000,4.000000,4.000000,4.000000,4.000000,4.000000,4.000000,4.000000,4.000000,4.000000,4.000000,4.000000,4.000000,66.666664
1614302261.632115,0.000000,0.000000,-16.739426,-1.167391,11.663281,-8.661258,14.740114,4.742537,1.501089,-5.457247,2.568794,-9.504842,-11.364507,-18.946684,-20.137291,-20.089954,-30.287642,-44.426399,-19.614140,-16.457851,-30.924871,-32.142792,-27.154047,-18.843920,-10.455635,-25.383200,-22.843521,-9.036881,-13.318082,-14.084742,7.754865,-8.756182,0.617239,3.268022,0.000000,175.000000,4.000000,,,,0.000000,4.000000,4.000000,4.000000,2.000000,4.000000,2.000000,4.000000,4.000000,4.000000,4.000000,4.000000,4.000000,4.000000,4.000000,4.000000,4.000000,4.000000,4.000000,4.000000,4.000000,4.000000,4.000000,4.000000,4.000000,4.000000,4.000000,4.000000,4.000000,4.000000,4.000000,4.000000,4.000000,66.666664
1614302261.639765,1.000000,0.000000,-10.056021,1.910700,11.651619,-9.165417,18.827938,2.686512,1.499588,-5.451790,4.104687,-2.315850,-10.327501,-14.312353,-4.732537,-8.787812,-18.975302,-22.330692,-16.517603,-13.364470,-24.740101,-21.854239,-18.921764,-13.696870,-7.881076,-26.383457,-15.641191,-7.489384,-9.715020,-13.557836,9.285572,-5.670503,2.667903,7.367318,0.000000,174.000000,4.000000,,,,0.000000,4.000000,4.000000,4.000000,2.000000,4.000000,2.000000,4.000000,4.000000,4.000000,4.000000,4.000000,4.000000,4.000000,4.000000,4.000000,4.000000,4.000000,4.000000,4.000000,4.000000,4.000000,4.000000,4.000000,4.000000,4.000000,4.000000,4.000000,4.000000,4.000000,4.000000,4.000000,4.000000,66.666664
1614302261.647514,2.000000,0.000000,-7.481862,2.421610,4.973300,-8.643431,14.706546,-5.521303,-4.655757,-4.420697,-3.591725,-1.800713,-10.829994,-14.298041,-0.112420,-0.573896,-6.648634,-0.257079,-15.988264,-10.274182,-21.638437,-16.191359,-17.877201,-12.144711,-6.334734,-15.587842,-13.061447,-11.584458,-9.705305,-13.544278,7.737825,-8.741755,-4.001431,-2.383639,0.000000,199.000000,4.000000,,,,0.000000,4.000000,4.000000,4.000000,2.000000,4.000000,2.000000,4.000000,4.000000,4.000000,4.000000,4.000000,4.000000,4.000000,4.000000,4.000000,4.000000,4.000000,4.000000,4.000000,4.000000,4.000000,4.000000,4.000000,4.000000,4.000000,4.000000,4.000000,4.000000,4.000000,4.000000,4.000000,4.000000,66.666664
1614302261.655163,3.000000,0.000000,-9.525662,2.419188,-4.262442,-8.634788,8.537993,-8.592705,-6.702384,-2.364994,-6.665057,-1.798913,-10.819164,-14.283743,-0.112308,0.965139,2.588783,7.948307,-16.997917,-13.340832,-24.180901,-17.713629,-19.397785,-13.158208,-6.328399,-10.956870,-15.612489,-16.188259,-10.208421,-14.043554,7.730087,-17.450962,-12.715379,-15.714588,0.000000,187.000000,4.000000,,,,0.000000,4.000000,4.000000,4.000000,2.000000,4.000000,2.000000,4.000000,4.000000,4.000000,4.000000,4.000000,4.000000,4.000000,4.000000,4.000000,4.000000,4.000000,4.000000,4.000000,4.000000,4.000000,4.000000,4.000000,4.000000,4.000000,4.000000,4.000000,4.000000,4.000000,4.000000,4.000000,4.000000,66.666664
1614302261.662912,4.000000,0.000000,-12.080239,2.416769,-7.847923,-12.215896,5.965353,-7.045650,-4.644399,-0.824168,0.521096,-1.284293,-10.295525,-11.192536,2.451907,-0.061467,5.150297,6.914717,-15.955277,-15.378773,-22.105438,-17.183094,-18.865568,-13.657870,-5.809250,-12.997195,-17.135338,-17.197712,-9.685391,-13.516690,8.235177,-22.048897,-10.651381,-15.698874,0.000000,99.000000,4.000000,,,,0.000000,4.000000,4.000000,4.000000,2.000000,4.000000,2.000000,4.000000,4.000000,4.000000,4.000000,4.000000,4.000000,4.000000,4.000000,4.000000,4.000000,4.000000,4.000000,4.000000,4.000000,4.000000,4.000000,4.000000,4.000000,4.000000,4.000000,4.000000,4.000000,4.000000,4.000000,4.000000,4.000000,66.666664
1614302261.670561,5.000000,0.000000,-18.734825,0.363070,-12.455461,-16.819065,0.831183,-8.577066,-8.229499,-1.336164,-0.505067,-1.283009,-10.285230,-9.642882,4.500737,3.015517,4.632326,11.523187,-15.939322,-6.132625,-9.262820,-10.499244,-11.667214,-10.567289,-5.803441,-12.471377,-17.118202,-15.642052,-9.162886,-13.503174,8.226942,-19.975565,-9.102268,-14.144713,0.000000,167.000000,4.000000,,,,0.000000,4.000000,4.000000,4.000000,2.000000,4.000000,4.000000,4.000000,4.000000,4.000000,4.000000,4.000000,4.000000,4.000000,4.000000,4.000000,4.000000,4.000000,4.000000,4.000000,4.000000,4.000000,4.000000,4.000000,4.000000,4.000000,4.000000,4.000000,4.000000,4.000000,4.000000,4.000000,4.000000,83.333336
1614302261.678310,6.000000,0.000000,-21.793015,-1.688575,-19.109671,-17.315065,-4.297854,-6.004386,-8.221269,-1.334828,-5.632767,-0.768905,-9.762124,-9.633240,5.521878,1.474040,6.678976,14.588587,-15.923383,1.565816,3.054135,-4.847719,-0.886317,-5.941337,-5.797637,-10.920444,-16.588264,-13.575128,-9.666543,-14.002491,8.218716,-19.955589,-13.195730,-15.669030,0.000000,176.000000,4.000000,,,,0.000000,4.000000,4.000000,4.000000,2.000000,4.000000,4.000000,4.000000,4.000000,4.000000,4.000000,4.000000,4.000000,4.000000,4.000000,4.000000,4.000000,4.000000,4.000000,4.000000,4.000000,4.000000,4.000000,4.000000,4.000000,4.000000,4.000000,4.000000,4.000000,4.000000,4.000000,4.000000,4.000000,83.333336
1614302261.685959,7.000000,0.000000,-17.155836,-1.174066,-17.039280,-14.733648,-4.806376,4.258028,-0.520740,-0.820673,-1.524570,-2.819418,-9.752361,-10.136427,2.952253,-9.296664,3.595374,-1.836258,-15.907460,-4.589596,5.102363,-6.381333,0.653031,-4.909755,-5.791840,-11.422344,-17.084496,-12.535912,-9.656877,-12.962848,8.210497,-21.474096,-10.618431,-12.576438,0.000000,188.000000,4.000000,,,,0.000000,4.000000,4.000000,4.000000,2.000000,4.000000,4.000000,4.000000,4.000000,4.000000,4.000000,4.000000,4.000000,4.000000,4.000000,4.000000,4.000000,4.000000,4.000000,4.000000,4.000000,4.000000,4.000000,4.000000,4.000000,4.000000,4.000000,4.000000,4.000000,4.000000,4.000000,4.000000,4.000000,83.333336
1614302261.693708,8.000000,0.000000,-16.113039,-1.172892,-10.355574,-12.667633,-4.288750,7.843513,1.018242,-2.358313,1.041057,-9.996086,-11.281071,-10.639111,-6.281468,-19.030958,-5.638991,-20.808781,-16.917192,-8.687571,3.558799,-8.939054,-4.988647,-8.494589,-6.298869,-11.923743,-17.580233,-12.523376,-9.647220,-10.898602,8.202286,-20.939800,-4.966787,-7.435657,0.000000,213.000000,4.000000,,,,0.000000,4.000000,4.000000,4.000000,2.000000,4.000000,4.000000,4.000000,4.000000,4.000000,4.000000,4.000000,4.000000,4.000000,4.000000,4.000000,4.000000,4.000000,4.000000,4.000000,4.000000,4.000000,4.000000,4.000000,4.000000,4.000000,4.000000,4.000000,4.000000,4.000000,4.000000,4.000000,4.000000,83.333336
1614302261.701358,9.000000,0.000000,-18.661028,-1.171719,-12.909321,-12.654965,-4.284461,4.245927,-4.623802,-4.407237,-4.601009,-13.575833,-9.731328,-10.115651,-11.916213,-22.088850,-10.761557,-23.864895,-15.874635,-6.627601,2.016779,-9.442936,-8.060582,-9.511735,-5.779749,-12.424640,-16.537010,-12.510852,-10.150393,-9.349242,8.194084,-19.380400,-5.987462,-6.402580,0.000000,202.000000,4.000000,,,,0.000000,4.000000,4.000000,4.000000,2.000000,4.000000,4.000000,4.000000,4.000000,4.000000,4.000000,4.000000,4.000000,4.000000,4.000000,4.000000,4.000000,4.000000,4.000000,4.000000,4.000000,4.000000,4.000000,4.000000,4.000000,4.000000,4.000000,4.000000,4.000000,4.000000,4.000000,4.000000,4.000000,83.333336
1614302261.709107,10.000000,0.000000,-18.642368,-1.170547,-18.024616,-12.642310,-3.767356,3.728860,-6.670460,-5.941291,-6.647690,-12.536617,-10.234417,-9.079894,-12.417117,-30.271889,-15.879001,-34.097439,-15.858761,-19.954308,-8.241649,-15.074518,-12.667906,-8.476583,-5.773969,-11.899394,-17.546114,-11.985521,-9.627422,-9.339893,6.134608,-22.950762,-9.058397,-7.934639,0.000000,171.000000,4.000000,,,,0.000000,4.000000,4.000000,4.000000,2.000000,4.000000,4.000000,4.000000,4.000000,4.000000,4.000000,4.000000,4.000000,4.000000,4.000000,4.000000,4.000000,4.000000,4.000000,4.000000,4.000000,4.000000,4.000000,4.000000,4.000000,4.000000,4.000000,4.000000,4.000000,4.000000,4.000000,4.000000,4.000000,83.333336
1614302261.716756,11.000000,0.000000,-20.162188,-1.169377,-18.519413,-12.629668,-7.353332,3.725131,-5.638148,-8.499453,-6.128222,-14.575362,-18.942131,-12.147738,-22.661110,-42.549309,-30.222095,-53.037701,-17.381363,-34.293327,-19.515457,-21.726110,-18.809084,-10.519388,-6.281016,-11.374675,-17.528568,-12.486356,-9.617795,-10.356194,4.590012,-27.543196,-8.536518,-10.490807,0.000000,190.000000,4.000000,,,,0.000000,4.000000,4.000000,4.000000,2.000000,4.000000,4.000000,4.000000,4.000000,4.000000,4.000000,4.000000,4.000000,4.000000,4.000000,4.000000,4.000000,4.000000,4.000000,4.000000,4.000000,4.000000,4.000000,4.000000,4.000000,4.000000,4.000000,4.000000,4.000000,4.000000,4.000000,4.000000,4.000000,83.333336
1614302261.724505,12.000000,0.000000,-21.680487,-1.168208,-17.475252,-12.617039,-7.345979,1.157304,-5.119689,-9.003774,-6.122094,-10.971044,-20.974472,-13.161231,-26.741013,-36.865734,-33.268795,-45.805176,-13.261417,-22.976982,-15.393378,-18.627460,-17.251814,-7.944766,-5.249094,-13.927402,-13.921296,-12.986691,-10.633819,-9.320197,4.585422,-23.925909,-8.015162,-10.993136,0.000000,198.000000,4.000000,,,,0.000000,4.000000,4.000000,4.000000,2.000000,4.000000,4.000000,4.000000,4.000000,4.000000,4.000000,4.000000,4.000000,4.000000,4.000000,4.000000,4.000000,4.000000,4.000000,4.000000,4.000000,4.000000,4.000000,4.000000,4.000000,4.000000,4.000000,4.000000,4.000000,4.000000,4.000000,4.000000,4.000000,83.333336
1614302261.732154,13.000000,0.000000,-18.069061,-1.167039,-17.970596,-12.091600,0.353675,-0.382315,-1.524826,-4.892206,-1.500587,2.886081,-8.132984,-4.942942,-9.791195,-9.136561,-14.261169,-13.964500,-2.991746,-2.441185,-0.506190,-10.916526,-8.516613,2.319589,-0.628460,-15.964757,-9.291990,-11.435242,-8.059082,-5.208313,4.580836,-17.235317,-8.519967,-10.469323,0.000000,196.000000,4.000000,,,,0.000000,4.000000,4.000000,4.000000,2.000000,4.000000,4.000000,4.000000,4.000000,4.000000,4.000000,4.000000,4.000000,4.000000,4.000000,4.000000,4.000000,4.000000,4.000000,4.000000,4.000000,4.000000,4.000000,4.000000,4.000000,4.000000,4.000000,4.000000,4.000000,4.000000,4.000000,4.000000,4.000000,83.333336
1614302261.740003,14.000000,0.000000,-16.512531,-1.165872,-18.465446,-12.592330,3.430244,-0.894753,2.066442,-0.784750,2.090657,9.037042,2.644380,1.215848,4.577570,13.949499,3.701810,6.049464,3.165092,1.663821,4.622521,-8.854327,0.722673,11.035218,5.013194,-10.307767,-9.282699,-8.859704,-0.358715,-2.126181,4.576255,-15.679621,-8.511447,-11.484495,0.000000,200.000000,4.000000,,,,0.000000,4.000000,4.000000,4.000000,2.000000,4.000000,4.000000,4.000000,4.000000,4.000000,4.000000,4.000000,4.000000,4.000000,4.000000,4.000000,4.000000,4.000000,4.000000,4.000000,4.000000,4.000000,4.000000,4.000000,4.000000,4.000000,4.000000,4.000000,4.000000,4.000000,4.000000,4.000000,4.000000,83.333336
1614302261.747752,15.000000,0.000000,-21.111404,-1.164706,-18.446981,-12.066916,-0.162929,-2.945141,2.064376,-0.783965,1.575746,2.874158,1.103274,-2.887932,4.060173,17.525293,5.236570,9.120338,3.674747,-1.414766,3.079437,-8.845473,6.875796,10.511362,4.495360,-4.143613,-10.299057,-8.338024,2.718567,-2.124055,4.571679,-17.202402,-8.502935,-14.549933,0.000000,210.000000,4.000000,,,,0.000000,4.000000,4.000000,4.000000,2.000000,4.000000,4.000000,4.000000,4.000000,4.000000,4.000000,4.000000,4.000000,4.000000,4.000000,4.000000,4.000000,4.000000,4.000000,4.000000,4.000000,4.000000,4.000000,4.000000,4.000000,4.000000,4.000000,4.000000,4.000000,4.000000,4.000000,4.000000,4.000000,83.333336
1614302261.755601,16.000000,0.000000,-23.141575,-1.163542,-18.428535,-9.490747,3.939798,-3.967837,1.549491,-1.296001,4.651093,2.358464,1.102170,-6.474788,7.645856,15.969306,4.205692,9.111217,3.158252,2.176392,7.178922,-7.810987,9.945844,8.962390,2.439583,-3.626649,-5.673373,-8.842506,1.177387,-2.634752,4.567107,-16.159559,-8.494432,-14.535383,0.000000,213.000000,4.000000,,,,0.000000,4.000000,4.000000,4.000000,2.000000,4.000000,4.000000,4.000000,4.000000,4.000000,4.000000,4.000000,4.000000,4.000000,4.000000,4.000000,4.000000,4.000000,4.000000,4.000000,4.000000,4.000000,4.000000,4.000000,4.000000,4.000000,4.000000,4.000000,4.000000,4.000000,4.000000,4.000000,4.000000,83.333336
1614302261.763350,17.000000,0.000000,-21.579971,-1.162378,-17.384464,-7.942795,10.602525,-3.451048,2.060762,-0.781885,8.749006,7.484311,6.229273,-5.955492,16.868979,20.055901,7.791230,13.717491,3.155094,7.302421,12.299948,-7.803176,12.500000,12.543171,2.437143,-4.648663,-1.565136,-8.833664,1.689030,-2.119296,5.075361,-15.630579,-8.485938,-11.443925,0.000000,197.000000,4.000000,,,,0.000000,4.000000,4.000000,4.000000,2.000000,4.000000,4.000000,4.000000,4.000000,4.000000,4.000000,4.000000,4.000000,4.000000,4.000000,4.000000,4.000000,4.000000,4.000000,4.000000,4.000000,4.000000,4.000000,4.000000,4.000000,4.000000,4.000000,4.000000,4.000000,4.000000,4.000000,4.000000,4.000000,83.333336
1614302261.771199,18.000000,0.000000,-21.558392,-1.161216,-17.367081,-10.498955,7.514999,-3.447597,2.058701,-0.781103,3.612052,7.989646,5.197403,-5.436717,14.800828,14.394819,9.834721,15.242235,4.177580,9.346400,13.313289,-8.308193,13.000320,8.428063,-1.667858,-3.618373,-3.102032,-8.312010,1.174520,-2.629998,3.531824,-17.666231,-7.964632,-10.919661,0.000000,193.000000,4.000000,,,,0.000000,4.000000,4.000000,4.000000,2.000000,4.000000,4.000000,4.000000,4.000000,4.000000,4.000000,4.000000,4.000000,4.000000,4.000000,4.000000,4.000000,4.000000,4.000000,4.000000,4.000000,4.000000,4.000000,4.000000,4.000000,4.000000,4.000000,4.000000,4.000000,4.000000,4.000000,4.000000,4.000000,83.333336
1614302261.778948,19.000000,0.000000,-22.049654,-1.160055,-16.836893,-12.539738,0.840817,-3.444149,2.056642,-0.267501,-5.109509,4.391913,-0.961641,-5.944100,1.452694,-8.183679,3.158220,1.893660,2.122120,8.311413,12.787155,-8.299885,7.859116,-7.477800,-7.820036,-4.127575,-5.663033,-8.303698,-4.980500,-2.627368,-0.574272,-18.674206,-7.956667,-12.960023,0.000000,204.000000,4.000000,,,,0.000000,4.000000,4.000000,4.000000,2.000000,4.000000,4.000000,4.000000,4.000000,4.000000,4.000000,4.000000,4.000000,4.000000,4.000000,4.000000,4.000000,4.000000,4.000000,4.000000,4.000000,4.000000,4.000000,4.000000,4.000000,4.000000,4.000000,4.000000,4.000000,4.000000,4.000000,4.000000,4.000000,83.333336
1614302261.786797,20.000000,0.000000,-22.027603,-1.158894,-12.204672,-12.527198,-0.698485,-3.440706,1.541765,-2.831336,-6.642861,0.797778,-6.088884,-11.066361,-11.882092,-30.739597,-11.203913,-25.800541,-11.213335,0.097973,1.492317,-17.522354,-3.430795,-20.803656,-11.401959,-9.251653,-7.195831,-8.808214,-9.590904,-2.624740,-3.137800,-17.629890,-8.974351,-15.511166,0.000000,218.000000,4.000000,,,,0.000000,4.000000,4.000000,4.000000,2.000000,4.000000,4.000000,4.000000,4.000000,4.000000,4.000000,4.000000,4.000000,4.000000,4.000000,4.000000,4.000000,4.000000,4.000000,4.000000,4.000000,4.000000,4.000000,4.000000,4.000000,4.000000,4.000000,4.000000,4.000000,4.000000,4.000000,4.000000,4.000000,83.333336
1614302261.794546,21.000000,0.000000,-22.005575,-1.157736,-7.064262,-12.001850,0.840675,-3.437265,1.027403,-6.931069,-4.072115,-3.305584,-13.775103,-16.696321,-22.126619,-48.657574,-29.654247,-56.031151,-26.073917,-22.466227,-25.175842,-33.402267,-24.453005,-25.911058,-14.467481,-14.370606,-11.804020,-8.286586,-10.094134,-2.622116,-3.134663,-16.073799,-4.862813,-12.931552,0.000000,190.000000,4.000000,,,,0.000000,4.000000,4.000000,4.000000,2.000000,4.000000,4.000000,4.000000,4.000000,4.000000,4.000000,4.000000,4.000000,4.000000,4.000000,4.000000,4.000000,4.000000,4.000000,4.000000,4.000000,4.000000,4.000000,4.000000,4.000000,4.000000,4.000000,4.000000,4.000000,4.000000,4.000000,4.000000,4.000000,83.333336
1614302261.802395,22.000000,0.000000,-21.983570,-1.156578,-8.595659,-12.502669,0.327014,-2.921007,2.564837,-8.462600,-6.632146,-19.712534,-26.581841,-17.705265,-33.386543,-66.044815,-43.983566,-83.154610,-28.099125,-48.597607,-47.714767,-42.599636,-47.505474,-31.013351,-17.017117,-18.458799,-17.946062,-8.791120,-9.571219,-2.619493,-0.054605,-16.570545,-0.242565,-5.739133,0.000000,197.000000,4.000000,,,,0.000000,4.000000,4.000000,4.000000,2.000000,4.000000,4.000000,4.000000,4.000000,4.000000,4.000000,4.000000,4.000000,4.000000,4.000000,4.000000,4.000000,4.000000,4.000000,4.000000,4.000000,4.000000,4.000000,4.000000,4.000000,4.000000,4.000000,4.000000,4.000000,4.000000,4.000000,4.000000,4.000000,83.333336
1614302261.810144,23.000000,0.000000,-21.961586,-1.155421,-19.356295,-12.490167,-8.391262,-4.456548,1.023811,-13.582342,-15.856283,-44.821026,-37.837311,-20.251663,-46.686493,-77.773643,-52.657532,-102.045815,-28.071026,-60.856701,-53.820900,-44.095497,-57.201561,-32.520802,-17.512920,-22.542906,-22.543501,-11.346431,-10.074469,-2.616874,1.483911,-20.656538,-7.421810,-11.887240,0.000000,224.000000,4.000000,,,,0.000000,4.000000,4.000000,4.000000,2.000000,4.000000,4.000000,4.000000,4.000000,4.000000,4.000000,4.000000,4.000000,4.000000,4.000000,4.000000,4.000000,4.000000,4.000000,4.000000,4.000000,4.000000,4.000000,4.000000,4.000000,4.000000,4.000000,4.000000,4.000000,4.000000,4.000000,4.000000,4.000000,83.333336
1614302261.817993,24.000000,0.000000,-21.939625,-1.154266,-36.772835,-12.477676,-20.690563,-8.554655,-6.156701,-22.286709,-24.558374,-50.930054,-45.491779,-21.769873,-50.229549,-80.259972,-54.143337,-102.456589,-27.530134,-59.770203,-52.741440,-40.461658,-54.580254,-28.385715,-15.956945,-26.110106,-25.597879,-15.437649,-10.064394,-2.614257,-2.107316,-27.815369,-18.696440,-28.798429,0.000000,185.000000,4.000000,,,,0.000000,4.000000,4.000000,4.000000,2.000000,4.000000,4.000000,4.000000,4.000000,4.000000,4.000000,4.000000,4.000000,4.000000,4.000000,4.000000,4.000000,4.000000,4.000000,4.000000,4.000000,4.000000,4.000000,4.000000,4.000000,4.000000,4.000000,4.000000,4.000000,4.000000,4.000000,4.000000,4.000000,83.333336
1614302261.825743,25.000000,0.000000,-21.404865,-1.153112,-43.402729,-12.465199,-24.259617,-11.110203,-8.714646,-21.751602,-25.559458,-36.520149,-42.882187,-15.594256,-38.897266,-74.025864,-40.755859,-81.328491,-14.682092,-47.915562,-46.534851,-26.062222,-46.320545,-20.665022,-13.889706,-28.135279,-25.059462,-17.986313,-9.541510,-2.611643,-6.720593,-28.300375,-20.216204,-29.282452,0.000000,207.000000,4.000000,,,,0.000000,4.000000,4.000000,4.000000,2.000000,4.000000,4.000000,4.000000,4.000000,4.000000,4.000000,4.000000,4.000000,4.000000,4.000000,4.000000,4.000000,4.000000,4.000000,4.000000,4.000000,4.000000,4.000000,4.000000,4.000000,4.000000,4.000000,4.000000,4.000000,4.000000,4.000000,4.000000,4.000000,83.333336
1614302261.833592,26.000000,0.000000,-18.819357,-1.151958,-26.949070,-12.452733,-17.055870,-11.099092,-3.577727,-14.037542,-19.892874,-28.278500,-26.429047,-9.424816,-21.422474,-49.849274,-17.638182,-48.939468,2.768488,-26.842005,-31.103701,-10.651544,-31.402431,-9.362306,-10.286073,-25.543039,-22.470301,-14.891404,-9.531968,-2.609031,-6.713873,-23.656689,-16.606245,-14.894195,0.000000,208.000000,4.000000,,,,0.000000,4.000000,4.000000,4.000000,2.000000,4.000000,4.000000,4.000000,4.000000,4.000000,4.000000,4.000000,4.000000,4.000000,4.000000,4.000000,4.000000,4.000000,4.000000,4.000000,4.000000,4.000000,4.000000,4.000000,4.000000,4.000000,4.000000,4.000000,4.000000,4.000000,4.000000,4.000000,4.000000,83.333336
1614302261.841341,27.000000,0.000000,-17.774897,-1.150807,-13.588787,-12.440281,-11.910608,-10.575173,-3.061328,-10.946582,-12.693493,-23.634836,-14.094926,-9.415391,-9.606179,-18.517374,-3.774389,-19.146938,7.893925,-6.815164,-11.072597,-7.563969,-14.447952,-1.147815,-8.737325,-17.312368,-17.319624,-8.209846,-9.522436,-3.119243,-3.630236,-20.556110,-15.563997,-9.751096,0.000000,182.000000,4.000000,,,,0.000000,4.000000,4.000000,4.000000,2.000000,4.000000,4.000000,4.000000,4.000000,4.000000,4.000000,4.000000,4.000000,4.000000,4.000000,4.000000,4.000000,4.000000,4.000000,4.000000,4.000000,4.000000,4.000000,4.000000,4.000000,4.000000,4.000000,4.000000,4.000000,4.000000,4.000000,4.000000,4.000000,83.333336
1614302261.849190,28.000000,0.000000,-18.269943,-1.149656,-19.216225,-12.427840,-11.385878,-11.077418,-6.135190,-12.474096,-8.578236,-10.277868,-12.542370,-9.918797,-3.955547,-4.652703,0.844770,5.487593,6.347569,8.063446,4.323091,-7.556406,-0.074530,-0.633846,-8.728588,-11.141211,-5.507433,-5.124713,-10.025734,-2.603303,-3.113785,-10.791964,-12.471510,-11.279806,0.000000,207.000000,4.000000,,,,0.000000,4.000000,4.000000,4.000000,2.000000,4.000000,4.000000,4.000000,4.000000,4.000000,4.000000,4.000000,4.000000,4.000000,4.000000,4.000000,4.000000,4.000000,4.000000,4.000000,4.000000,4.000000,4.000000,4.000000,4.000000,4.000000,4.000000,4.000000,4.000000,4.000000,4.000000,4.000000,4.000000,83.333336
1614302261.856939,29.000000,0.000000,-18.251673,-1.148506,-19.197008,-12.415413,-10.348850,-10.553520,-6.129055,-11.948802,-9.082478,-2.062462,-9.965725,-9.396057,-1.900310,-3.109589,5.972130,20.353899,7.366863,17.286152,12.011076,-3.446285,11.720416,-0.120392,-8.719859,-11.130069,6.292946,-4.093947,-8.990067,-2.600700,-2.597851,4.603444,-6.818013,-6.653141,0.000000,209.000000,4.000000,,,,0.000000,4.000000,4.000000,4.000000,2.000000,4.000000,4.000000,4.000000,4.000000,4.000000,4.000000,4.000000,4.000000,4.000000,4.000000,4.000000,4.000000,4.000000,4.000000,4.000000,4.000000,4.000000,4.000000,4.000000,4.000000,4.000000,4.000000,4.000000,4.000000,4.000000,4.000000,4.000000,4.000000,83.333336
1614302261.864588,30.000000,0.000000,-17.720600,-1.147358,-9.947042,-11.890177,-7.261579,-8.491685,-6.122926,-11.424032,-8.560575,-4.111682,-4.314734,-9.386662,-1.898409,-3.619300,4.427697,10.589956,4.795393,14.191943,12.511886,-3.442838,13.759978,-1.145913,-8.711140,-11.631760,9.363576,0.012710,-6.416975,-3.110919,-0.543971,13.316789,-1.682990,-1.518283,0.000000,180.000000,4.000000,,,,0.000000,4.000000,4.000000,4.000000,2.000000,4.000000,4.000000,4.000000,4.000000,4.000000,4.000000,4.000000,4.000000,4.000000,4.000000,4.000000,4.000000,4.000000,4.000000,4.000000,4.000000,4.000000,4.000000,4.000000,4.000000,4.000000,4.000000,4.000000,4.000000,4.000000,4.000000,4.000000,4.000000,83.333336
1614302261.872337,31.000000,0.000000,-18.215700,-1.146210,-9.424274,-11.878286,-5.715855,-6.944732,-5.091162,-11.412608,-7.526373,-3.081929,-5.848880,-9.890095,-5.999075,-13.872091,-5.833141,-15.061660,-2.388889,2.895700,6.858348,-6.003498,3.489808,-5.760151,-9.215249,-10.594486,7.302931,3.602441,-5.897737,-2.594988,1.507855,14.329113,1.908437,1.047338,0.000000,212.000000,4.000000,,,,0.000000,4.000000,4.000000,4.000000,2.000000,4.000000,4.000000,4.000000,4.000000,4.000000,4.000000,4.000000,4.000000,4.000000,4.000000,4.000000,4.000000,4.000000,4.000000,4.000000,4.000000,4.000000,4.000000,4.000000,4.000000,4.000000,4.000000,4.000000,4.000000,4.000000,4.000000,4.000000,4.000000,83.333336
1614302261.879986,32.000000,0.000000,-18.710306,0.906218,-13.517414,-12.379229,-6.222960,-6.424966,1.580596,-11.914017,-8.544488,-5.642950,-9.945596,-9.880205,-13.172563,-31.294117,-14.032436,-37.097881,-5.463424,-5.825145,-7.507485,-7.023136,-10.359836,-8.318494,-9.206034,-10.583892,3.705884,2.573198,-5.379019,2.022992,1.506347,13.801964,3.444990,1.046290,8064.000000,0.000000,4.000000,,,,0.000000,4.000000,4.000000,4.000000,2.000000,4.000000,4.000000,4.000000,4.000000,4.000000,4.000000,4.000000,4.000000,4.000000,4.000000,4.000000,4.000000,4.000000,4.000000,4.000000,4.000000,4.000000,4.000000,4.000000,4.000000,4.000000,4.000000,4.000000,4.000000,4.000000,4.000000,4.000000,4.000000,83.333336
1614302261.887735,33.000000,0.000000,-17.665955,2.956594,-14.016717,-11.341208,-7.755198,-6.418541,6.194400,-11.902102,-9.561584,-15.893717,-14.551034,-9.870325,-18.287596,-44.083336,-20.685070,-53.471039,-6.996422,-19.152653,-25.448696,-17.272522,-26.759733,-8.822996,-9.196827,-11.598949,-4.502950,2.057804,-2.809537,5.097892,1.504841,11.224059,2.928724,-0.493218,8064.000000,0.000000,4.000000,,,,0.000000,4.000000,4.000000,4.000000,2.000000,4.000000,4.000000,4.000000,4.000000,4.000000,4.000000,4.000000,4.000000,4.000000,4.000000,4.000000,4.000000,4.000000,4.000000,4.000000,4.000000,4.000000,4.000000,4.000000,4.000000,4.000000,4.000000,4.000000,4.000000,4.000000,4.000000,4.000000,4.000000,83.333336
1614302261.895384,34.000000,0.000000,-15.597006,2.440817,-18.105265,-13.381149,-6.721802,-7.437764,5.675385,-11.890201,-8.013561,-21.006029,-19.151869,-9.860455,-19.294949,-50.193096,-27.843872,-64.186798,-9.040708,-36.056576,-39.782223,-34.691147,-46.220154,-12.916737,-9.187631,-11.074530,-10.652293,2.568567,-2.806728,5.092794,0.477695,8.648732,2.925795,1.045737,8064.000000,0.000000,4.000000,,,,0.000000,4.000000,4.000000,4.000000,2.000000,4.000000,4.000000,4.000000,4.000000,4.000000,4.000000,4.000000,4.000000,4.000000,4.000000,4.000000,4.000000,4.000000,4.000000,4.000000,4.000000,4.000000,4.000000,4.000000,4.000000,4.000000,4.000000,4.000000,4.000000,4.000000,4.000000,4.000000,4.000000,83.333336
1614302261.903133,35.000000,0.000000,-14.042948,2.438376,-20.651262,-17.470333,-6.202260,-10.507249,5.156889,-12.391130,-11.082471,-22.523483,-21.696819,-9.850594,-19.275654,-51.168545,-29.354490,-65.148254,-9.031667,-42.687187,-48.460388,-40.297482,-55.917522,-17.006384,-9.178443,-12.089096,-9.616000,-0.510925,-5.880844,4.574881,-2.599706,2.486237,0.871588,0.019050,8064.000000,0.000000,4.000000,,,,0.000000,4.000000,4.000000,4.000000,2.000000,4.000000,4.000000,4.000000,4.000000,4.000000,4.000000,4.000000,4.000000,4.000000,4.000000,4.000000,4.000000,4.000000,4.000000,4.000000,4.000000,4.000000,4.000000,4.000000,4.000000,4.000000,4.000000,4.000000,4.000000,4.000000,4.000000,4.000000,4.000000,83.333336
1614302261.910783,36.000000,0.000000,-14.541725,2.948758,-23.707533,-20.016964,-14.914006,-11.009562,5.664553,-12.378739,-19.276516,-28.141987,-21.675121,-9.840743,-19.256378,-52.143017,-30.350777,-65.083107,-9.022635,-44.182961,-52.001671,-38.205902,-55.348785,-16.476557,-9.169265,-15.666751,-13.196127,-4.612978,-6.900604,5.083126,-3.109927,-11.362403,-1.180566,-11.775841,8064.000000,0.000000,4.000000,,,,0.000000,4.000000,4.000000,4.000000,2.000000,4.000000,4.000000,4.000000,4.000000,4.000000,4.000000,4.000000,4.000000,4.000000,4.000000,4.000000,4.000000,4.000000,4.000000,4.000000,4.000000,4.000000,4.000000,4.000000,4.000000,4.000000,4.000000,4.000000,4.000000,4.000000,4.000000,4.000000,4.000000,83.333336
1614302261.918532,37.000000,0.000000,-14.527184,0.894527,-30.350492,-21.022589,-25.668324,-10.485732,5.146068,-11.340719,-20.795702,-32.729229,-21.140627,-9.830902,-18.724302,-53.116516,-28.781965,-66.556480,-9.013612,-44.651600,-52.462490,-40.218979,-55.806255,-15.947260,-9.160095,-19.240828,-21.388060,-7.172468,-5.355242,4.565223,-2.593996,-18.530527,-1.692206,-19.456373,8064.000000,0.000000,4.000000,,,,0.000000,4.000000,4.000000,4.000000,2.000000,4.000000,4.000000,4.000000,4.000000,4.000000,4.000000,4.000000,4.000000,4.000000,4.000000,4.000000,4.000000,4.000000,4.000000,4.000000,4.000000,4.000000,4.000000,4.000000,4.000000,4.000000,4.000000,4.000000,4.000000,4.000000,4.000000,4.000000,4.000000,83.333336
1614302261.926181,38.000000,0.000000,-14.512656,-1.670470,-30.320143,-18.437464,-23.078552,-10.988068,5.140922,-12.867841,-15.133880,-29.619577,-18.042562,-9.821072,-13.577373,-39.217247,-13.368567,-50.592491,-3.363573,-35.376179,-47.794643,-33.512093,-51.135063,-15.931313,-9.150935,-20.247229,-17.776928,-5.114013,-6.888349,4.560658,-3.617043,-11.332510,-2.203334,-13.283070,8064.000000,0.000000,4.000000,,,,0.000000,4.000000,4.000000,4.000000,2.000000,4.000000,4.000000,4.000000,4.000000,4.000000,4.000000,4.000000,4.000000,4.000000,4.000000,4.000000,4.000000,4.000000,4.000000,4.000000,4.000000,4.000000,4.000000,4.000000,4.000000,4.000000,4.000000,4.000000,4.000000,4.000000,4.000000,4.000000,4.000000,83.333336
1614302261.933930,39.000000,0.000000,-13.985323,-0.643158,-21.571873,-8.675436,-15.875987,-9.438618,5.135781,-11.829331,-13.067464,-15.743803,-11.870674,-9.811251,-2.794564,-13.024182,4.593519,-18.234205,2.280816,-19.956186,-30.823771,-16.042685,-35.186493,-14.376920,-9.654605,-18.175699,-8.015561,2.583409,-5.855819,4.556097,-2.074965,-3.628870,0.875792,-3.526197,8064.000000,0.000000,4.000000,,,,0.000000,4.000000,4.000000,4.000000,2.000000,4.000000,4.000000,4.000000,4.000000,4.000000,4.000000,4.000000,4.000000,4.000000,4.000000,4.000000,4.000000,4.000000,4.000000,4.000000,4.000000,4.000000,4.000000,4.000000,4.000000,4.000000,4.000000,4.000000,4.000000,4.000000,4.000000,4.000000,4.000000,83.333336
1614302261.941579,40.000000,0.000000,-11.407235,1.921587,-16.422096,-0.974453,-11.244726,-4.813795,5.130645,-4.125195,-9.464653,5.810402,-1.089572,-10.314260,6.439000,2.886278,9.717131,8.963516,2.278535,-6.602897,-7.203204,-7.308692,-18.228230,-12.311261,-9.644950,-12.516498,-3.392161,11.298774,3.380806,4.551540,2.542495,2.528605,8.054403,4.169637,8064.000000,0.000000,4.000000,,,,0.000000,4.000000,4.000000,4.000000,2.000000,4.000000,4.000000,4.000000,4.000000,4.000000,4.000000,4.000000,4.000000,4.000000,4.000000,4.000000,4.000000,4.000000,4.000000,4.000000,4.000000,4.000000,4.000000,4.000000,4.000000,4.000000,4.000000,4.000000,4.000000,4.000000,4.000000,4.000000,4.000000,83.333336
1614302261.949328,41.000000,0.000000,-10.370187,2.432486,-12.303110,-0.460658,0.561391,-2.244878,5.125515,3.058418,2.339684,21.702028,9.680748,-9.791125,8.483843,6.985955,9.194593,18.698143,2.276257,5.198577,3.060410,-7.814204,-12.056156,-9.734847,-7.584023,-5.324493,6.867641,13.851578,10.044092,4.546989,5.616876,16.372231,11.123272,10.319313,8064.000000,0.000000,4.000000,,,,0.000000,4.000000,4.000000,4.000000,2.000000,4.000000,4.000000,4.000000,4.000000,4.000000,4.000000,4.000000,4.000000,4.000000,4.000000,4.000000,4.000000,4.000000,4.000000,4.000000,4.000000,4.000000,4.000000,4.000000,4.000000,4.000000,4.000000,4.000000,4.000000,4.000000,4.000000,4.000000,4.000000,83.333336
1614302261.956977,42.000000,0.000000,-10.872637,2.430054,-6.649782,-0.973018,11.842880,-3.268274,5.120389,3.568180,10.542472,21.680326,5.568503,-9.781334,5.398436,8.517431,6.108475,12.525599,2.786801,8.270302,-0.019574,-8.319210,-12.556920,-8.699471,-5.525157,-0.703785,18.655645,12.812085,6.444304,4.542442,5.098438,26.099447,9.573688,11.847456,8064.000000,0.000000,4.000000,,,,0.000000,4.000000,4.000000,4.000000,2.000000,4.000000,4.000000,4.000000,4.000000,4.000000,4.000000,4.000000,4.000000,4.000000,4.000000,4.000000,4.000000,4.000000,4.000000,4.000000,4.000000,4.000000,4.000000,4.000000,4.000000,4.000000,4.000000,4.000000,4.000000,4.000000,4.000000,4.000000,4.000000,83.333336
1614302261.964826,43.000000,0.000000,-10.861765,2.427624,-5.104671,-2.510507,10.805396,-3.265006,5.115268,2.538971,10.019109,14.479158,-4.693476,-10.797194,1.290473,4.406350,-3.128402,-0.307440,1.758373,5.697929,-1.558016,-7.798071,-12.031543,-8.690772,-2.955529,0.322560,15.560067,13.824914,4.899398,4.537899,4.067698,20.945143,10.076934,12.348429,8064.000000,0.000000,4.000000,,,,0.000000,4.000000,4.000000,4.000000,2.000000,4.000000,4.000000,4.000000,4.000000,4.000000,4.000000,4.000000,4.000000,4.000000,4.000000,4.000000,4.000000,4.000000,4.000000,4.000000,4.000000,4.000000,4.000000,4.000000,4.000000,4.000000,4.000000,4.000000,4.000000,4.000000,4.000000,4.000000,4.000000,83.333336
1614302261.972575,44.000000,0.000000,-10.338082,1.399555,-5.612386,-4.559278,7.717668,-2.748920,5.110153,3.049252,9.496269,10.362115,-0.586218,-8.735114,-0.762099,-1.751903,-7.740658,-5.948159,4.833538,7.230693,-0.530817,-4.713350,-8.942588,-2.015414,2.175631,0.322238,9.390660,14.323910,8.997063,5.046182,5.602093,15.795994,10.066857,10.797619,8064.000000,0.000000,4.000000,,,,0.000000,4.000000,4.000000,4.000000,2.000000,4.000000,4.000000,4.000000,4.000000,4.000000,4.000000,4.000000,4.000000,4.000000,4.000000,4.000000,4.000000,4.000000,4.000000,4.000000,4.000000,4.000000,4.000000,4.000000,4.000000,4.000000,4.000000,4.000000,4.000000,4.000000,4.000000,4.000000,4.000000,83.333336
1614302261.980424,45.000000,0.000000,-10.840565,-0.653126,-7.145235,-4.554719,7.709950,-3.258992,5.617864,3.046203,8.461132,9.326112,4.542573,-2.059713,0.264304,-2.775792,-2.091892,-4.403749,12.521012,7.736282,-3.094388,-0.606072,-7.908004,6.704550,5.763199,0.321916,9.894091,9.694201,5.911143,3.502675,4.570849,17.831480,3.390124,4.632975,8064.000000,0.000000,4.000000,,,,0.000000,4.000000,4.000000,4.000000,2.000000,4.000000,4.000000,4.000000,4.000000,4.000000,4.000000,4.000000,4.000000,4.000000,4.000000,4.000000,4.000000,4.000000,4.000000,4.000000,4.000000,4.000000,4.000000,4.000000,4.000000,4.000000,4.000000,4.000000,4.000000,4.000000,4.000000,4.000000,4.000000,83.333336
1614302261.988174,46.000000,0.000000,-10.829724,-2.190935,-17.394501,-7.627087,2.061215,-3.255733,4.073784,2.530336,5.375748,9.829606,-0.590174,2.044911,4.366604,-2.773016,0.987123,-3.373704,13.534132,5.164443,-5.655396,-4.195210,-10.464199,7.723486,6.270257,0.321594,3.217530,3.530661,-1.787076,1.447890,0.463714,15.249545,-2.254292,-0.499863,8064.000000,0.000000,4.000000,,,,0.000000,4.000000,4.000000,4.000000,2.000000,4.000000,4.000000,4.000000,4.000000,4.000000,4.000000,4.000000,4.000000,4.000000,4.000000,4.000000,4.000000,4.000000,4.000000,4.000000,4.000000,4.000000,4.000000,4.000000,4.000000,4.000000,4.000000,4.000000,4.000000,4.000000,4.000000,4.000000,4.000000,83.333336
1614302261.996023,47.000000,0.000000,-10.818894,-1.675923,-25.582233,-12.234844,-4.607513,-3.765298,2.018428,2.527806,5.370372,8.794135,-0.589584,1.530046,8.464802,-2.770243,0.473315,-2.344689,9.930855,4.133638,-9.239485,-7.267938,-16.094761,5.664481,5.751166,-2.755651,-7.554918,1.475848,-3.323750,0.420801,-3.126493,4.977886,-2.252038,-1.012184,8064.000000,0.000000,4.000000,,,,0.000000,4.000000,4.000000,4.000000,2.000000,4.000000,4.000000,4.000000,4.000000,4.000000,4.000000,4.000000,4.000000,4.000000,4.000000,4.000000,4.000000,4.000000,4.000000,4.000000,4.000000,4.000000,4.000000,4.000000,4.000000,4.000000,4.000000,4.000000,4.000000,4.000000,4.000000,4.000000,4.000000,83.333336
1614302262.003772,48.000000,0.000000,-10.808076,0.377035,-24.531012,-12.735431,-4.090085,-3.761533,0.990769,3.038099,5.877822,2.631495,0.436646,2.554157,7.430696,-2.254653,0.472842,-2.855165,5.818359,-2.024342,-20.512297,-10.337593,-28.386358,2.069072,0.617210,-7.881101,-10.111466,-0.064089,-1.781965,0.933201,-0.559264,-0.668118,-0.198504,0.014469,8064.000000,0.000000,4.000000,,,,0.000000,4.000000,4.000000,4.000000,2.000000,4.000000,4.000000,4.000000,4.000000,4.000000,4.000000,4.000000,4.000000,4.000000,4.000000,4.000000,4.000000,4.000000,4.000000,4.000000,4.000000,4.000000,4.000000,4.000000,4.000000,4.000000,4.000000,4.000000,4.000000,4.000000,4.000000,4.000000,4.000000,83.333336
1614302262.011621,49.000000,0.000000,-10.797268,2.427940,-21.429556,-11.697054,-3.060354,-2.219310,0.989778,2.522240,4.333483,-0.960880,-5.204816,-0.525320,2.295060,-4.303680,0.985189,-9.518976,-6.495151,-13.304368,-32.286655,-25.199051,-43.742588,-10.753510,-10.665459,-15.565527,-13.691098,-2.115307,-2.293004,0.932267,1.492578,0.871012,1.852977,-0.498366,8064.000000,0.000000,4.000000,,,,0.000000,4.000000,4.000000,4.000000,2.000000,4.000000,4.000000,4.000000,4.000000,4.000000,4.000000,4.000000,4.000000,4.000000,4.000000,4.000000,4.000000,4.000000,4.000000,4.000000,4.000000,4.000000,4.000000,4.000000,4.000000,4.000000,4.000000,4.000000,4.000000,4.000000,4.000000,4.000000,4.000000,83.333336
1614302262.019370,50.000000,0.000000,-10.786470,1.912691,-21.408127,-12.198177,-4.082935,-0.165808,2.014429,2.519718,6.893252,3.142645,-2.635509,-7.704282,0.241483,-5.837838,1.497025,-14.637663,-19.309170,-16.880808,-34.818474,-39.020004,-49.339870,-31.255577,-18.347101,-22.216629,-21.369715,-2.113192,-2.803531,0.931335,-0.560197,0.870141,2.363944,-1.010688,8064.000000,0.000000,4.000000,,,,0.000000,4.000000,4.000000,4.000000,2.000000,4.000000,4.000000,4.000000,4.000000,4.000000,4.000000,4.000000,4.000000,4.000000,4.000000,4.000000,4.000000,4.000000,4.000000,4.000000,4.000000,4.000000,4.000000,4.000000,4.000000,4.000000,4.000000,4.000000,4.000000,4.000000,4.000000,4.000000,4.000000,83.333336
1614302262.027219,51.000000,0.000000,-10.775683,4.474881,-19.848257,-12.185979,-4.078852,2.398460,4.063697,3.030019,12.527385,6.729246,4.033793,-9.235040,-3.861323,-6.344820,-2.607036,-16.161488,-21.341143,-14.812645,-33.245193,-40.519447,-47.239246,-41.480732,-17.815933,-23.220053,-20.835526,-2.623899,-2.800728,0.930404,2.004466,0.356450,1.335939,0.528784,8064.000000,0.000000,4.000000,,,,0.000000,4.000000,4.000000,4.000000,2.000000,4.000000,4.000000,4.000000,4.000000,4.000000,4.000000,4.000000,4.000000,4.000000,4.000000,4.000000,4.000000,4.000000,4.000000,4.000000,4.000000,4.000000,4.000000,4.000000,4.000000,4.000000,4.000000,4.000000,4.000000,4.000000,4.000000,4.000000,4.000000,83.333336
1614302262.034968,52.000000,0.000000,-10.764908,8.572970,-17.264307,-12.173793,-3.049132,5.472985,5.598095,-0.049935,10.463575,5.184055,-4.175368,-14.866830,-11.549769,-13.005142,-10.296737,-25.888914,-22.858263,-18.387575,-34.237587,-43.043030,-49.243290,-36.823864,-17.285297,-23.196833,-17.737766,-1.595634,-2.285106,0.929473,9.694769,3.433017,4.411527,5.143641,8064.000000,0.000000,4.000000,,,,0.000000,4.000000,4.000000,4.000000,2.000000,4.000000,4.000000,4.000000,4.000000,4.000000,4.000000,4.000000,4.000000,4.000000,4.000000,4.000000,4.000000,4.000000,4.000000,4.000000,4.000000,4.000000,4.000000,4.000000,4.000000,4.000000,4.000000,4.000000,4.000000,4.000000,4.000000,4.000000,4.000000,83.333336
1614302262.042817,53.000000,0.000000,-10.241323,10.102859,-14.682940,-12.161619,-4.071724,8.544435,5.079676,-4.152449,5.324906,0.563487,-14.427603,-24.595552,-18.717707,-18.633163,-15.927465,-39.709179,-24.886686,-19.394829,-32.664890,-39.410244,-41.501740,-31.146017,-17.780832,-24.712097,-17.207209,5.585449,-2.282821,0.928544,12.761997,4.968045,9.022500,7.702599,8064.000000,0.000000,4.000000,,,,0.000000,4.000000,4.000000,4.000000,2.000000,4.000000,4.000000,4.000000,4.000000,4.000000,4.000000,4.000000,4.000000,4.000000,4.000000,4.000000,4.000000,4.000000,4.000000,4.000000,4.000000,4.000000,4.000000,4.000000,4.000000,4.000000,4.000000,4.000000,4.000000,4.000000,4.000000,4.000000,4.000000,83.333336
1614302262.050566,54.000000,0.000000,-10.743902,9.579935,-14.155437,-12.149458,-6.631754,7.510250,5.074596,-5.173937,0.704197,-6.103744,-14.925996,-20.981215,-20.237452,-19.127350,-16.424358,-38.131008,-15.631030,-13.221588,-19.811710,-16.806730,-15.306392,-20.345640,-10.070744,-18.533539,-7.959231,12.759350,-3.306180,0.927615,11.723594,5.475898,10.039118,7.182076,8064.000000,0.000000,4.000000,,,,0.000000,4.000000,4.000000,4.000000,2.000000,4.000000,4.000000,4.000000,4.000000,4.000000,4.000000,4.000000,4.000000,4.000000,4.000000,4.000000,4.000000,4.000000,4.000000,4.000000,4.000000,4.000000,4.000000,4.000000,4.000000,4.000000,4.000000,4.000000,4.000000,4.000000,4.000000,4.000000,4.000000,83.333336
1614302262.058415,55.000000,0.000000,-11.245978,9.570355,-14.141281,-12.137308,-7.650764,2.887355,5.069522,-5.168763,-11.091379,-10.200204,-15.423891,-9.678182,-14.063367,-19.621044,-10.254088,-20.656981,-1.769245,-4.490418,2.772203,8.338282,10.349940,7.367014,2.759840,-5.694493,3.843600,13.259412,0.286870,0.926688,11.711870,7.521704,9.003438,7.174894,8064.000000,0.000000,4.000000,,,,0.000000,4.000000,4.000000,4.000000,2.000000,4.000000,4.000000,4.000000,4.000000,4.000000,4.000000,4.000000,4.000000,4.000000,4.000000,4.000000,4.000000,4.000000,4.000000,4.000000,4.000000,4.000000,4.000000,4.000000,4.000000,4.000000,4.000000,4.000000,4.000000,4.000000,4.000000,4.000000,4.000000,83.333336
1614302262.066164,56.000000,0.000000,-7.644989,10.073606,-13.101499,-12.125171,-7.130292,0.320365,5.064452,-4.650774,-20.823877,-5.061799,-7.716159,-4.027478,3.386594,-8.832191,9.756166,5.517522,12.078678,13.462790,24.820713,27.817123,24.698565,35.051956,12.500669,2.003510,6.403859,12.733332,6.953250,0.925761,12.212979,9.052644,9.507256,7.680540,8064.000000,0.000000,4.000000,,,,0.000000,4.000000,4.000000,4.000000,2.000000,4.000000,4.000000,4.000000,4.000000,4.000000,4.000000,4.000000,4.000000,4.000000,4.000000,4.000000,4.000000,4.000000,4.000000,4.000000,4.000000,4.000000,4.000000,4.000000,4.000000,4.000000,4.000000,4.000000,4.000000,4.000000,4.000000,4.000000,4.000000,83.333336
1614302262.074013,57.000000,0.000000,-3.534780,9.550712,-15.139679,-12.113046,-7.123162,-0.192776,5.059388,-0.543559,-13.110746,4.686853,14.855659,4.181678,26.460131,21.433050,33.336155,36.794056,29.502497,41.654457,35.052303,45.225204,33.904636,42.196388,16.590733,6.104070,5.884634,13.233418,10.023220,0.924835,11.687945,8.530770,10.010569,6.647218,8064.000000,0.000000,4.000000,,,,0.000000,4.000000,4.000000,4.000000,2.000000,4.000000,4.000000,4.000000,4.000000,4.000000,4.000000,4.000000,4.000000,4.000000,4.000000,4.000000,4.000000,4.000000,4.000000,4.000000,4.000000,4.000000,4.000000,4.000000,4.000000,4.000000,4.000000,4.000000,4.000000,4.000000,4.000000,4.000000,4.000000,83.333336
1614302262.081762,58.000000,0.000000,-3.018425,9.541161,-14.098898,-12.100933,-8.141680,-0.192583,5.054328,3.046728,-4.892507,13.912935,29.199778,14.946727,38.741364,46.539822,45.610508,64.449570,38.190945,56.997417,37.068531,48.256901,37.460472,40.102913,17.086964,12.251812,9.468493,13.220185,8.474735,0.923910,11.676258,8.522240,8.974916,8.691853,8192.000000,0.000000,4.000000,,,,0.000000,4.000000,4.000000,4.000000,2.000000,4.000000,4.000000,4.000000,4.000000,4.000000,4.000000,4.000000,4.000000,4.000000,4.000000,4.000000,4.000000,4.000000,4.000000,4.000000,4.000000,4.000000,4.000000,4.000000,4.000000,4.000000,4.000000,4.000000,4.000000,4.000000,4.000000,4.000000,4.000000,83.333336
1614302262.089511,59.000000,0.000000,-3.528227,9.531620,-0.751466,-12.088832,-5.569436,0.320430,5.049274,3.043681,-6.426076,19.540049,28.657759,17.495882,42.805183,52.134308,48.641823,71.564606,35.075829,52.325035,34.467361,37.439415,36.397373,42.626911,17.582697,17.367765,9.459024,12.694144,8.466260,0.922987,11.664581,8.513718,9.478763,13.298546,8192.000000,0.000000,4.000000,,,,0.000000,4.000000,4.000000,4.000000,2.000000,4.000000,4.000000,4.000000,4.000000,4.000000,4.000000,4.000000,4.000000,4.000000,4.000000,4.000000,4.000000,4.000000,4.000000,4.000000,4.000000,4.000000,4.000000,4.000000,4.000000,4.000000,4.000000,4.000000,4.000000,4.000000,4.000000,4.000000,4.000000,83.333336
1614302262.097260,60.000000,0.000000,-3.011878,9.522088,10.531337,-12.076743,0.077159,-0.705532,5.044225,3.040637,-1.291445,20.546148,27.090639,17.991207,42.249561,50.543713,47.567539,59.185352,34.015114,49.195786,27.253407,26.632744,34.822514,36.943260,18.077934,15.811936,8.936746,13.194271,9.996256,0.922064,12.165737,9.018024,14.597488,15.849350,8192.000000,0.000000,4.000000,,,,0.000000,4.000000,4.000000,4.000000,2.000000,4.000000,4.000000,4.000000,4.000000,4.000000,4.000000,4.000000,4.000000,4.000000,4.000000,4.000000,4.000000,4.000000,4.000000,4.000000,4.000000,4.000000,4.000000,4.000000,4.000000,4.000000,4.000000,4.000000,4.000000,4.000000,4.000000,4.000000,4.000000,83.333336
1614302262.104909,61.000000,0.000000,-3.008866,9.512566,8.469523,-11.039025,1.615544,0.320815,5.039181,3.550417,6.402154,21.551245,25.525087,14.383472,31.950899,45.364964,38.802021,44.254372,27.314430,47.095310,17.482563,11.734316,22.480000,16.906315,11.393189,9.129457,10.466270,12.668256,6.396516,0.921141,11.640751,11.060288,18.172634,14.807859,8064.000000,0.000000,4.000000,,,,0.000000,4.000000,4.000000,4.000000,2.000000,4.000000,4.000000,4.000000,4.000000,4.000000,4.000000,4.000000,4.000000,4.000000,4.000000,4.000000,4.000000,4.000000,4.000000,4.000000,4.000000,4.000000,4.000000,4.000000,4.000000,4.000000,4.000000,4.000000,4.000000,4.000000,4.000000,4.000000,4.000000,83.333336
1614302262.112658,62.000000,0.000000,-3.518678,9.503054,9.999516,-8.463883,-0.437354,4.423058,5.034142,2.521226,3.318829,22.555334,19.858536,3.599859,19.098436,34.037548,18.250401,24.722937,7.287116,24.484112,1.567645,-7.764598,-4.209148,-5.161873,-0.925896,4.504943,1.225035,11.117126,-0.276547,0.920220,11.629110,12.587689,16.616001,14.280231,8064.000000,0.000000,4.000000,,,,0.000000,4.000000,4.000000,4.000000,2.000000,4.000000,4.000000,4.000000,4.000000,4.000000,4.000000,4.000000,4.000000,4.000000,4.000000,4.000000,4.000000,4.000000,4.000000,4.000000,4.000000,4.000000,4.000000,4.000000,4.000000,4.000000,4.000000,4.000000,4.000000,4.000000,4.000000,4.000000,4.000000,83.333336
1614302262.120307,63.000000,0.000000,-3.515159,10.006371,24.348490,-7.429779,5.204109,8.008379,5.541928,3.544346,-0.787054,17.404573,10.607908,-2.044767,9.335748,14.003510,-3.819132,-7.609479,-7.079145,-5.796783,-24.074947,-23.141449,-29.333143,-22.079788,-8.617278,-0.114946,-14.673626,9.054728,-3.353194,0.919300,12.130301,13.087922,17.112206,18.368515,8064.000000,0.000000,4.000000,,,,0.000000,4.000000,4.000000,4.000000,2.000000,4.000000,4.000000,4.000000,4.000000,4.000000,4.000000,4.000000,4.000000,4.000000,4.000000,4.000000,4.000000,4.000000,4.000000,4.000000,4.000000,4.000000,4.000000,4.000000,4.000000,4.000000,4.000000,4.000000,4.000000,4.000000,4.000000,4.000000,4.000000,83.333336
1614302262.128057,64.000000,0.000000,-3.511644,9.996365,26.888245,-8.447990,11.865572,8.000370,3.485104,3.027981,-1.811908,7.130758,-5.812956,-5.119645,-9.647947,-13.189981,-12.533262,-33.755714,-7.072066,-15.021756,-35.332924,-27.733692,-35.970478,-31.288477,-10.147122,-12.935344,-18.761517,7.507211,-2.837020,0.918381,10.579710,11.023552,18.633554,19.375788,0.000000,194.000000,4.000000,,,,0.000000,4.000000,4.000000,4.000000,2.000000,4.000000,4.000000,4.000000,4.000000,4.000000,4.000000,4.000000,4.000000,4.000000,4.000000,4.000000,4.000000,4.000000,4.000000,4.000000,4.000000,4.000000,4.000000,4.000000,4.000000,4.000000,4.000000,4.000000,4.000000,4.000000,4.000000,4.000000,4.000000,83.333336
1614302262.135706,65.000000,0.000000,-3.508132,7.422266,7.374177,-8.439542,4.161398,7.479549,1.430337,-5.692996,-9.502403,-0.055860,-17.089195,-13.832475,-30.663940,-31.638329,-14.059190,-39.875805,-5.013712,-11.929811,-21.964258,-18.475189,-19.011431,-23.052061,-9.624154,-23.691639,-14.640191,5.448421,-1.295722,0.917462,5.953746,7.422785,9.384151,9.100001,0.000000,180.000000,4.000000,,,,0.000000,4.000000,4.000000,4.000000,2.000000,4.000000,4.000000,4.000000,4.000000,4.000000,4.000000,4.000000,4.000000,4.000000,4.000000,4.000000,4.000000,4.000000,4.000000,4.000000,4.000000,4.000000,4.000000,4.000000,4.000000,4.000000,4.000000,4.000000,4.000000,4.000000,4.000000,4.000000,4.000000,83.333336
1614302262.143455,66.000000,0.000000,-3.504624,6.389202,-12.633198,-7.405461,-11.227379,6.959249,0.916086,-12.866790,-19.749311,-7.748111,-18.610567,-16.895565,-31.658916,-35.709255,-20.198977,-39.323109,-7.059981,-13.969163,-9.634602,-5.123381,3.571684,-4.054650,-3.973505,-17.514101,-13.599910,4.930153,0.756856,0.916545,3.896510,4.851260,-3.445745,-3.729612,0.000000,194.000000,4.000000,,,,0.000000,4.000000,4.000000,4.000000,2.000000,4.000000,4.000000,4.000000,4.000000,4.000000,4.000000,4.000000,4.000000,4.000000,4.000000,4.000000,4.000000,4.000000,4.000000,4.000000,4.000000,4.000000,4.000000,4.000000,4.000000,4.000000,4.000000,4.000000,4.000000,4.000000,4.000000,4.000000,4.000000,83.333336
1614302262.151104,67.000000,0.000000,-4.013940,6.382813,-18.774410,-9.962158,-16.857178,4.901008,1.427990,-12.341103,-21.780844,-14.407030,-19.617598,-12.263285,-18.293924,-34.647903,-19.665958,-32.104298,-6.027280,-10.365451,-0.907018,3.599692,17.927086,9.282738,4.235597,-4.163254,-8.970925,5.438043,1.268920,0.915628,4.405434,3.820768,-7.032043,-5.777164,0.000000,195.000000,4.000000,,,,0.000000,4.000000,4.000000,4.000000,2.000000,4.000000,4.000000,4.000000,4.000000,4.000000,4.000000,4.000000,4.000000,4.000000,4.000000,4.000000,4.000000,4.000000,4.000000,4.000000,4.000000,4.000000,4.000000,4.000000,4.000000,4.000000,4.000000,4.000000,4.000000,4.000000,4.000000,4.000000,4.000000,83.333336
1614302262.158853,68.000000,0.000000,-2.984285,2.786687,-17.217175,-15.080401,-13.763396,3.357646,1.426562,-12.328761,-19.707781,-10.290059,-15.495416,-8.661278,-5.455118,-21.792744,3.943452,-4.379888,1.671055,8.106453,22.170813,17.955067,30.729671,19.017044,7.308285,5.584499,-0.244006,5.945426,1.780471,0.914713,4.401029,1.765665,-4.973729,-2.694464,0.000000,121.000000,4.000000,,,,0.000000,4.000000,4.000000,4.000000,2.000000,4.000000,4.000000,4.000000,4.000000,4.000000,4.000000,4.000000,4.000000,4.000000,4.000000,4.000000,4.000000,4.000000,4.000000,4.000000,4.000000,4.000000,4.000000,4.000000,4.000000,4.000000,4.000000,4.000000,4.000000,4.000000,4.000000,4.000000,4.000000,83.333336
1614302262.166502,69.000000,0.000000,-0.417198,-1.831485,-18.225599,-16.090961,-15.288095,3.867108,1.425136,-11.290792,-20.200893,-3.613102,0.417516,-2.498770,7.883670,4.895716,28.042072,23.829620,8.336051,22.970142,39.071716,30.757624,37.365608,22.587772,6.275335,11.219940,3.345982,4.913839,2.804332,1.426619,3.883807,0.738258,-6.507217,-4.743052,0.000000,181.000000,4.000000,,,,0.000000,4.000000,4.000000,4.000000,2.000000,4.000000,4.000000,4.000000,4.000000,4.000000,4.000000,4.000000,4.000000,4.000000,4.000000,4.000000,4.000000,4.000000,4.000000,4.000000,4.000000,4.000000,4.000000,4.000000,4.000000,4.000000,4.000000,4.000000,4.000000,4.000000,4.000000,4.000000,4.000000,83.333336
1614302262.174251,70.000000,0.000000,0.608860,-2.342474,-20.771475,-10.433846,-16.298449,3.863241,1.423711,-5.125655,-21.206335,-2.071028,10.673509,2.119113,15.568094,19.762615,32.116596,29.959637,6.276433,23.459991,30.314697,22.521738,26.046192,15.898517,5.756239,12.234361,1.291354,5.421746,-1.301036,0.912371,4.392744,1.250340,-4.962248,-5.251129,0.000000,198.000000,4.000000,,,,0.000000,4.000000,4.000000,4.000000,2.000000,4.000000,4.000000,4.000000,4.000000,4.000000,4.000000,4.000000,4.000000,4.000000,4.000000,4.000000,4.000000,4.000000,4.000000,4.000000,4.000000,4.000000,4.000000,4.000000,4.000000,4.000000,4.000000,4.000000,4.000000,4.000000,4.000000,4.000000,4.000000,83.333336
1614302262.181901,71.000000,0.000000,0.095431,-1.314490,-10.494294,-7.859309,-9.102662,3.859378,1.422287,0.007676,-19.646666,10.238736,9.124373,0.578532,17.090988,20.768494,31.571657,30.442497,6.782977,23.949352,22.079254,7.627421,13.199634,9.728772,7.288945,11.196486,1.802883,8.493247,-1.812556,0.911459,3.875530,0.736269,1.709381,3.472071,0.000000,215.000000,4.000000,,,,0.000000,4.000000,4.000000,4.000000,2.000000,4.000000,4.000000,4.000000,4.000000,4.000000,4.000000,4.000000,4.000000,4.000000,4.000000,4.000000,4.000000,4.000000,4.000000,4.000000,4.000000,4.000000,4.000000,4.000000,4.000000,4.000000,4.000000,4.000000,4.000000,4.000000,4.000000,4.000000,4.000000,83.333336
1614302262.189650,72.000000,0.000000,0.608156,-1.825996,4.900816,-8.364270,-0.375611,4.368339,1.420865,0.007668,-12.960353,26.125933,10.653710,0.065133,15.535436,23.824648,31.027266,32.976158,7.801835,23.412582,15.390509,-2.123796,5.494126,2.026736,4.204733,12.210930,2.826721,9.510395,2.291821,1.423368,4.384475,1.248354,6.323056,11.673727,0.000000,190.000000,4.000000,,,,0.000000,4.000000,4.000000,4.000000,2.000000,4.000000,4.000000,4.000000,4.000000,4.000000,4.000000,4.000000,4.000000,4.000000,4.000000,4.000000,4.000000,4.000000,4.000000,4.000000,4.000000,4.000000,4.000000,4.000000,4.000000,4.000000,4.000000,4.000000,4.000000,4.000000,4.000000,4.000000,4.000000,83.333336
1614302262.197299,73.000000,0.000000,-0.418093,-1.824170,1.306171,-8.355906,3.214509,2.825509,1.419444,-1.017980,-7.819188,20.458782,6.540493,-6.601599,-1.403177,13.544413,8.944956,13.456002,-11.180326,-0.713394,-11.291549,-28.788338,-17.075470,-22.077854,-12.722548,7.583334,-1.278670,3.859859,-7.454061,-0.629337,4.892911,2.272746,6.316733,6.533848,0.000000,192.000000,4.000000,,,,0.000000,4.000000,4.000000,4.000000,2.000000,4.000000,4.000000,4.000000,4.000000,4.000000,4.000000,4.000000,4.000000,4.000000,4.000000,4.000000,4.000000,4.000000,4.000000,4.000000,4.000000,4.000000,4.000000,4.000000,4.000000,4.000000,4.000000,4.000000,4.000000,4.000000,4.000000,4.000000,4.000000,83.333336
1614302262.205148,74.000000,0.000000,-3.494598,-0.796705,-13.566930,-7.834730,-0.891270,0.258581,1.418024,-3.581065,-8.324189,3.515246,-11.927587,-24.543715,-32.171005,-16.212721,-23.371681,-18.865147,-38.861454,-30.969091,-39.998207,-59.015961,-43.725063,-47.696804,-30.658545,-7.808864,-7.944058,1.804717,-24.369684,-5.244092,3.862377,0.219192,6.310416,-0.139352,0.000000,195.000000,4.000000,,,,0.000000,4.000000,4.000000,4.000000,2.000000,4.000000,4.000000,4.000000,4.000000,4.000000,4.000000,4.000000,4.000000,4.000000,4.000000,4.000000,4.000000,4.000000,4.000000,4.000000,4.000000,4.000000,4.000000,4.000000,4.000000,4.000000,4.000000,4.000000,4.000000,4.000000,4.000000,4.000000,4.000000,83.333336
1614302262.212897,75.000000,0.000000,-4.003924,1.768194,-9.450799,-8.339715,-0.890379,0.258323,1.416606,-5.115945,-7.803044,0.947628,-23.710531,-32.211479,-48.036270,-34.145226,-36.681644,-39.359100,-43.437977,-39.143250,-47.137695,-59.469765,-50.348003,-52.777309,-33.191990,-24.724133,-10.500216,7.443938,-21.268391,-6.777310,4.884156,1.757434,6.304106,5.501813,0.000000,176.000000,4.000000,,,,0.000000,4.000000,4.000000,4.000000,2.000000,4.000000,4.000000,4.000000,4.000000,4.000000,4.000000,4.000000,4.000000,4.000000,4.000000,4.000000,4.000000,4.000000,4.000000,4.000000,4.000000,4.000000,4.000000,4.000000,4.000000,4.000000,4.000000,4.000000,4.000000,4.000000,4.000000,4.000000,4.000000,83.333336
1614302262.220646,76.000000,0.000000,-3.487100,2.792067,9.020190,-8.331376,10.392563,0.770885,1.415190,-4.085188,-4.205498,4.023603,-21.122717,-26.538242,-45.424129,-34.623901,-35.106499,-52.653076,-35.189411,-40.642567,-45.552094,-48.128242,-48.246372,-44.519405,-23.415207,-31.366076,-9.464075,10.000596,-7.400969,-5.744892,9.494657,9.960805,7.836263,15.239901,0.000000,190.000000,4.000000,,,,0.000000,4.000000,4.000000,4.000000,2.000000,4.000000,4.000000,4.000000,4.000000,4.000000,4.000000,4.000000,4.000000,4.000000,4.000000,4.000000,4.000000,4.000000,4.000000,4.000000,4.000000,4.000000,4.000000,4.000000,4.000000,4.000000,4.000000,4.000000,4.000000,4.000000,4.000000,4.000000,4.000000,83.333336
1614302262.228295,77.000000,0.000000,-3.996433,2.276454,7.472709,-7.810224,8.330889,-0.768348,1.413775,-6.645206,-5.739754,-8.288113,-23.152876,-25.998882,-46.404346,-43.307228,-43.276520,-69.523499,-36.692684,-53.422440,-44.480904,-47.054474,-47.685307,-29.603090,-13.135381,-26.719324,-9.454611,8.964954,-4.829465,-7.277608,12.562085,10.463664,10.392529,13.686199,0.000000,197.000000,4.000000,,,,0.000000,4.000000,4.000000,4.000000,2.000000,4.000000,4.000000,4.000000,4.000000,4.000000,4.000000,4.000000,4.000000,4.000000,4.000000,4.000000,4.000000,4.000000,4.000000,4.000000,4.000000,4.000000,4.000000,4.000000,4.000000,4.000000,4.000000,4.000000,4.000000,4.000000,4.000000,4.000000,4.000000,83.333336
1614302262.236144,78.000000,0.000000,-3.479616,2.274178,-15.098866,-8.315234,-17.318468,-4.870143,1.412361,-12.792407,-11.375039,-19.561876,-27.745108,-21.870319,-45.332302,-48.904945,-44.771706,-65.864235,-28.963682,-53.369015,-33.667191,-34.186909,-28.150442,-5.470924,-5.429938,-15.923374,-9.957977,8.443170,-5.850277,-6.244689,9.472600,0.709611,7.818035,5.980206,0.000000,201.000000,4.000000,,,,0.000000,4.000000,4.000000,4.000000,2.000000,4.000000,4.000000,4.000000,4.000000,4.000000,4.000000,4.000000,4.000000,4.000000,4.000000,4.000000,4.000000,4.000000,4.000000,4.000000,4.000000,4.000000,4.000000,4.000000,4.000000,4.000000,4.000000,4.000000,4.000000,4.000000,4.000000,4.000000,4.000000,83.333336
1614302262.243893,79.000000,0.000000,-1.424855,2.271904,-27.904280,-8.306919,-23.967817,-6.916555,1.410948,-10.215512,-12.389305,-10.311544,-14.384030,-5.438193,-21.697226,-25.266296,-19.598730,-35.029137,-3.806513,-25.623339,-10.556601,-1.845028,3.159760,14.534547,-0.296303,-3.599758,-9.948019,8.434726,-2.254683,1.453863,7.411845,-3.906483,0.117909,-0.179621,0.000000,202.000000,4.000000,,,,0.000000,4.000000,4.000000,4.000000,2.000000,4.000000,4.000000,4.000000,4.000000,4.000000,4.000000,4.000000,4.000000,4.000000,4.000000,4.000000,4.000000,4.000000,4.000000,4.000000,4.000000,4.000000,4.000000,4.000000,4.000000,4.000000,4.000000,4.000000,4.000000,4.000000,4.000000,4.000000,4.000000,83.333336
1614302262.251742,80.000000,0.000000,0.115032,2.269632,-22.235350,-7.785791,-1.379746,-7.422459,1.409537,-0.461707,-7.248711,5.596203,6.143175,4.310834,9.606523,7.579483,13.241382,-2.173595,12.607550,5.684335,14.069341,20.208099,18.541216,19.648218,2.268096,6.147431,-9.938071,9.451933,-0.713967,5.554973,8.430075,-2.876936,-3.471953,-1.205082,0.000000,195.000000,4.000000,,,,0.000000,4.000000,4.000000,4.000000,2.000000,4.000000,4.000000,4.000000,4.000000,4.000000,4.000000,4.000000,4.000000,4.000000,4.000000,4.000000,4.000000,4.000000,4.000000,4.000000,4.000000,4.000000,4.000000,4.000000,4.000000,4.000000,4.000000,4.000000,4.000000,4.000000,4.000000,4.000000,4.000000,83.333336
1614302262.259491,81.000000,0.000000,0.627737,2.267362,-20.674654,-9.829288,2.211377,-7.927857,1.408128,3.641319,-4.677360,9.180350,13.316519,1.742421,24.468710,20.905237,29.125576,30.649092,12.082122,22.601728,27.388605,23.264814,18.009853,19.115749,2.778648,11.269489,-8.902492,7.391199,-2.251714,2.472495,7.908824,-5.438161,-1.417199,-0.178236,0.000000,190.000000,4.000000,,,,0.000000,4.000000,4.000000,4.000000,2.000000,4.000000,4.000000,4.000000,4.000000,4.000000,4.000000,4.000000,4.000000,4.000000,4.000000,4.000000,4.000000,4.000000,4.000000,4.000000,4.000000,4.000000,4.000000,4.000000,4.000000,4.000000,4.000000,4.000000,4.000000,4.000000,4.000000,4.000000,4.000000,83.333336
1614302262.267340,82.000000,0.000000,0.114289,1.752275,-25.269363,-12.383561,-8.047244,-6.894289,0.893899,2.612037,-5.185503,8.145529,12.277561,1.740679,23.931421,20.884331,31.147734,49.592800,11.044398,28.220152,28.386858,23.754370,17.479023,20.122274,2.775870,12.283860,-9.919230,1.229961,-2.249463,0.418740,4.311172,-6.971185,-2.441422,-2.742161,0.000000,196.000000,4.000000,,,,0.000000,4.000000,4.000000,4.000000,2.000000,4.000000,4.000000,4.000000,4.000000,4.000000,4.000000,4.000000,4.000000,4.000000,4.000000,4.000000,4.000000,4.000000,4.000000,4.000000,4.000000,4.000000,4.000000,4.000000,4.000000,4.000000,4.000000,4.000000,4.000000,4.000000,4.000000,4.000000,4.000000,83.333336
1614302262.275089,83.000000,0.000000,-1.424287,1.750522,-14.474863,-11.858356,4.268495,-4.836112,1.405826,2.609425,-2.616215,13.265589,13.290924,2.764579,21.856207,21.889088,28.552483,43.902184,8.469252,27.679111,29.384111,20.653692,18.487186,15.486767,2.260273,10.733115,-7.858029,3.792834,-1.734393,1.443963,3.794040,-5.938572,-3.464622,0.850325,0.000000,203.000000,4.000000,,,,0.000000,4.000000,4.000000,4.000000,2.000000,4.000000,4.000000,4.000000,4.000000,4.000000,4.000000,4.000000,4.000000,4.000000,4.000000,4.000000,4.000000,4.000000,4.000000,4.000000,4.000000,4.000000,4.000000,4.000000,4.000000,4.000000,4.000000,4.000000,4.000000,4.000000,4.000000,4.000000,4.000000,83.333336
1614302262.282938,84.000000,0.000000,-3.474145,4.825695,2.975509,-12.359319,22.212944,-3.292814,0.891600,3.632457,-0.562317,19.406170,13.277634,0.197712,19.783070,21.354378,25.447006,34.627510,2.306936,29.702715,28.329086,9.863808,17.955877,6.240511,0.719552,11.748023,1.893419,17.635195,-1.732658,1.442519,8.405630,-1.830070,7.308073,16.234091,0.000000,188.000000,4.000000,,,,0.000000,4.000000,4.000000,4.000000,2.000000,4.000000,4.000000,4.000000,4.000000,4.000000,4.000000,4.000000,4.000000,4.000000,4.000000,4.000000,4.000000,4.000000,4.000000,4.000000,4.000000,4.000000,4.000000,4.000000,4.000000,4.000000,4.000000,4.000000,4.000000,4.000000,4.000000,4.000000,4.000000,83.333336
1614302262.290687,85.000000,0.000000,-3.983491,6.359331,8.613559,-12.859780,23.729193,-0.212599,0.890708,2.603183,-1.587395,20.925224,12.238715,-2.366588,10.532517,20.820204,14.652329,29.464678,-6.413320,26.083267,14.454603,-3.992210,10.758435,-1.970858,-3.383732,11.736275,9.583833,24.797047,-2.756567,0.928256,11.986968,10.992273,21.659740,28.012728,0.000000,180.000000,4.000000,,,,0.000000,4.000000,4.000000,4.000000,2.000000,4.000000,4.000000,4.000000,4.000000,4.000000,4.000000,4.000000,4.000000,4.000000,4.000000,4.000000,4.000000,4.000000,4.000000,4.000000,4.000000,4.000000,4.000000,4.000000,4.000000,4.000000,4.000000,4.000000,4.000000,4.000000,4.000000,4.000000,4.000000,83.333336
1614302262.298536,86.000000,0.000000,-3.466687,4.301689,13.220330,-1.052049,26.269567,6.454281,4.992382,2.600580,-1.585808,20.391479,13.252117,-4.928324,-7.426733,19.773743,-6.900784,5.332650,-19.740240,1.954620,-7.611133,-19.885654,-7.713862,-17.353502,-6.457272,4.032231,4.446044,23.233788,-2.753810,0.927327,10.949340,20.212049,25.740644,30.035997,0.000000,198.000000,4.000000,,,,0.000000,4.000000,4.000000,4.000000,2.000000,4.000000,4.000000,4.000000,4.000000,4.000000,4.000000,4.000000,4.000000,4.000000,4.000000,4.000000,4.000000,4.000000,4.000000,4.000000,4.000000,4.000000,4.000000,4.000000,4.000000,4.000000,4.000000,4.000000,4.000000,4.000000,4.000000,4.000000,4.000000,83.333336
1614302262.306285,87.000000,0.000000,-3.463220,8.912772,27.053265,10.231054,33.422783,11.576032,9.089953,3.110800,-1.584222,18.832626,6.572198,-6.461857,-22.291101,2.830892,-23.304140,-25.954735,-27.925627,-27.790924,-25.039419,-34.224743,-27.193327,-36.310509,-5.425173,-4.176929,-2.737889,23.723375,-1.212595,0.926400,10.938391,16.089273,23.663622,33.595703,0.000000,207.000000,4.000000,,,,0.000000,4.000000,4.000000,4.000000,2.000000,4.000000,4.000000,4.000000,4.000000,4.000000,4.000000,4.000000,4.000000,4.000000,4.000000,4.000000,4.000000,4.000000,4.000000,4.000000,4.000000,4.000000,4.000000,4.000000,4.000000,4.000000,4.000000,4.000000,4.000000,4.000000,4.000000,4.000000,4.000000,83.333336
1614302262.314134,88.000000,0.000000,-3.459757,17.621809,29.077492,6.631080,34.415001,11.564456,9.080863,-0.482055,-2.095458,15.224050,-4.203605,-5.942575,-24.320093,-22.812965,-25.844938,-38.236473,-28.923344,-36.481083,-34.757969,-37.780262,-33.832802,-38.838299,-5.932569,-6.224034,-2.222331,23.699652,-6.852407,0.925474,12.465914,12.483441,24.665598,36.126213,0.000000,174.000000,4.000000,,,,0.000000,4.000000,4.000000,4.000000,2.000000,4.000000,4.000000,4.000000,4.000000,4.000000,4.000000,4.000000,4.000000,4.000000,4.000000,4.000000,4.000000,4.000000,4.000000,4.000000,4.000000,4.000000,4.000000,4.000000,4.000000,4.000000,4.000000,4.000000,4.000000,4.000000,4.000000,4.000000,4.000000,83.333336
1614302262.321883,89.000000,0.000000,-3.456297,19.655468,20.330465,2.521885,31.303665,11.040071,8.558962,-4.584137,-1.580542,12.644723,-7.789145,-9.013556,-24.295773,-33.046562,-25.819094,-42.813622,-29.920061,-35.418961,-39.338596,-33.639915,-34.311790,-29.568691,-6.952277,-9.807554,-3.758570,14.958003,-14.537863,0.924548,10.402166,11.445316,23.615292,30.449060,0.000000,192.000000,4.000000,,,,0.000000,4.000000,4.000000,4.000000,2.000000,4.000000,4.000000,4.000000,4.000000,4.000000,4.000000,4.000000,4.000000,4.000000,4.000000,4.000000,4.000000,4.000000,4.000000,4.000000,4.000000,4.000000,4.000000,4.000000,4.000000,4.000000,4.000000,4.000000,4.000000,4.000000,4.000000,4.000000,4.000000,83.333336
1614302262.329533,90.000000,0.000000,-3.452841,16.558889,17.233213,6.109107,24.605694,11.541851,9.063223,-6.118014,-2.091782,11.606437,-8.806996,-11.055824,-26.322758,-29.936592,-24.254812,-48.924652,-21.685013,-37.947643,-36.735157,-27.452431,-32.226196,-20.308353,0.746983,-14.413131,-7.344555,7.763558,-8.369479,0.923624,7.314841,4.254384,20.514753,24.264765,0.000000,186.000000,4.000000,,,,0.000000,4.000000,4.000000,4.000000,2.000000,4.000000,4.000000,4.000000,4.000000,4.000000,4.000000,4.000000,4.000000,4.000000,4.000000,4.000000,4.000000,4.000000,4.000000,4.000000,4.000000,4.000000,4.000000,4.000000,4.000000,4.000000,4.000000,4.000000,4.000000,4.000000,4.000000,4.000000,4.000000,83.333336
1614302262.337282,91.000000,0.000000,-3.449388,16.029510,17.728800,0.461972,18.940063,11.530309,7.002878,-4.573434,-3.115332,10.569190,-6.234087,0.750104,-9.373359,-21.188707,-12.435686,-35.542393,-0.637686,-25.089182,-19.775343,-9.989080,-15.783712,0.224775,14.079570,-5.680769,-2.721826,8.268615,3.433762,0.922700,12.435731,2.198848,19.468597,23.214859,0.000000,185.000000,4.000000,,,,0.000000,4.000000,4.000000,4.000000,2.000000,4.000000,4.000000,4.000000,4.000000,4.000000,4.000000,4.000000,4.000000,4.000000,4.000000,4.000000,4.000000,4.000000,4.000000,4.000000,4.000000,4.000000,4.000000,4.000000,4.000000,4.000000,4.000000,4.000000,4.000000,4.000000,4.000000,4.000000,4.000000,83.333336
1614302262.344931,92.000000,0.000000,-3.445939,17.039122,20.787994,-7.743618,18.921124,11.005959,4.944593,0.046523,-0.548114,17.738108,8.131122,15.108328,18.328321,2.422225,10.140852,-4.224801,15.260387,5.705137,11.013663,19.251677,13.975661,26.891216,18.168055,9.709527,5.486024,12.875731,5.481611,0.921777,18.577141,9.888956,19.961950,25.242926,0.000000,181.000000,4.000000,,,,0.000000,4.000000,4.000000,4.000000,2.000000,4.000000,4.000000,4.000000,4.000000,4.000000,4.000000,4.000000,4.000000,4.000000,4.000000,4.000000,4.000000,4.000000,4.000000,4.000000,4.000000,4.000000,4.000000,4.000000,4.000000,4.000000,4.000000,4.000000,4.000000,4.000000,4.000000,4.000000,4.000000,83.333336
1614302262.352680,93.000000,0.000000,-3.442493,16.509262,29.485155,-4.658952,19.927843,10.994952,4.426828,7.225964,3.554999,32.592163,25.046068,16.118860,34.207428,35.240314,35.258915,28.599937,23.450254,30.827637,37.669315,39.745247,34.474506,34.556633,16.098604,16.879305,9.583102,16.965420,4.963308,0.920856,15.481642,12.443171,19.941988,26.756145,0.000000,177.000000,4.000000,,,,0.000000,4.000000,4.000000,4.000000,2.000000,4.000000,4.000000,4.000000,4.000000,4.000000,4.000000,4.000000,4.000000,4.000000,4.000000,4.000000,4.000000,4.000000,4.000000,4.000000,4.000000,4.000000,4.000000,4.000000,4.000000,4.000000,4.000000,4.000000,4.000000,4.000000,4.000000,4.000000,4.000000,83.333336
1614302262.360329,94.000000,0.000000,-3.439050,15.979933,33.045414,-1.064549,24.523300,10.983957,4.422401,10.808482,5.089905,40.251881,35.277431,17.641203,46.480915,58.794819,58.813400,60.879028,32.657574,52.335270,46.862415,42.269604,40.081059,33.496437,17.108147,19.939348,13.163262,19.512556,10.599371,0.919935,10.337955,11.917907,19.409225,26.729389,0.000000,191.000000,4.000000,,,,0.000000,4.000000,4.000000,4.000000,2.000000,4.000000,4.000000,4.000000,4.000000,4.000000,4.000000,4.000000,4.000000,4.000000,4.000000,4.000000,4.000000,4.000000,4.000000,4.000000,4.000000,4.000000,4.000000,4.000000,4.000000,4.000000,4.000000,4.000000,4.000000,4.000000,4.000000,4.000000,4.000000,83.333336
1614302262.368078,95.000000,0.000000,-3.435611,16.476772,34.038010,-0.550664,37.319290,10.460153,5.443620,10.797673,10.213020,39.698807,41.396000,24.290228,59.254948,63.351410,67.985359,82.869431,34.676197,74.334221,52.456577,41.201694,42.092258,35.001400,17.603859,26.586075,17.252663,20.005865,12.640054,0.919015,11.353257,17.034193,19.902637,31.318045,0.000000,178.000000,4.000000,,,,0.000000,4.000000,4.000000,4.000000,2.000000,4.000000,4.000000,4.000000,4.000000,4.000000,4.000000,4.000000,4.000000,4.000000,4.000000,4.000000,4.000000,4.000000,4.000000,4.000000,4.000000,4.000000,4.000000,4.000000,4.000000,4.000000,4.000000,4.000000,4.000000,4.000000,4.000000,4.000000,4.000000,83.333336
1614302262.375727,96.000000,0.000000,-3.944996,16.460297,41.183456,5.603733,44.461456,10.962513,7.489458,10.274055,18.407936,38.120647,43.405888,21.189014,54.580307,64.313698,52.019936,82.273743,28.487677,70.157318,54.968224,43.211773,37.947601,24.709990,14.509332,26.559490,17.235411,19.473038,9.037670,0.918096,11.854725,19.068441,21.934015,41.543137,8064.000000,0.000000,4.000000,,,,0.000000,4.000000,4.000000,4.000000,2.000000,4.000000,4.000000,4.000000,4.000000,4.000000,4.000000,4.000000,4.000000,4.000000,4.000000,4.000000,4.000000,4.000000,4.000000,4.000000,4.000000,4.000000,4.000000,4.000000,4.000000,4.000000,4.000000,4.000000,4.000000,4.000000,4.000000,4.000000,4.000000,83.333336
1614302262.383477,97.000000,0.000000,-3.428231,16.443836,45.757660,10.726335,43.391354,13.002832,8.507609,10.263781,21.466450,39.108166,41.311199,16.552443,40.166752,60.146820,31.455095,62.191467,25.382265,42.394855,40.041462,31.886511,27.140423,9.300664,12.956361,15.763700,17.218176,19.453566,8.002991,0.917178,10.817229,19.562193,23.450544,47.655437,8192.000000,0.000000,4.000000,,,,0.000000,4.000000,4.000000,4.000000,2.000000,4.000000,4.000000,4.000000,4.000000,4.000000,4.000000,4.000000,4.000000,4.000000,4.000000,4.000000,4.000000,4.000000,4.000000,4.000000,4.000000,4.000000,4.000000,4.000000,4.000000,4.000000,4.000000,4.000000,4.000000,4.000000,4.000000,4.000000,4.000000,83.333336
1614302262.391126,98.000000,0.000000,-1.373520,16.427393,43.660618,10.202787,45.399246,14.528292,9.011923,11.279159,21.957804,40.094700,38.192963,16.535889,29.870176,39.061031,20.141588,33.411327,19.715858,20.813997,16.411676,6.213598,16.856873,3.137517,10.892122,10.106910,20.790701,21.998215,9.020629,0.916260,10.806412,23.645195,23.427094,49.659065,8064.000000,0.000000,4.000000,,,,0.000000,4.000000,4.000000,4.000000,2.000000,4.000000,4.000000,4.000000,4.000000,4.000000,4.000000,4.000000,4.000000,4.000000,4.000000,4.000000,4.000000,4.000000,4.000000,4.000000,4.000000,4.000000,4.000000,4.000000,4.000000,4.000000,4.000000,4.000000,4.000000,4.000000,4.000000,4.000000,4.000000,83.333336
1614302262.398875,99.000000,0.000000,0.166315,16.410965,44.129780,9.679764,37.148716,14.513763,8.490090,6.652494,17.320463,28.259733,19.693233,5.237302,7.276203,6.714279,3.711190,3.121507,4.311526,0.793184,-4.630376,-16.869539,-1.621523,-8.660493,3.188923,10.096803,18.718628,24.027498,6.960327,0.915344,11.308426,16.954884,23.403666,49.096584,8064.000000,0.000000,4.000000,,,,0.000000,4.000000,4.000000,4.000000,2.000000,4.000000,4.000000,4.000000,4.000000,4.000000,4.000000,4.000000,4.000000,4.000000,4.000000,4.000000,4.000000,4.000000,4.000000,4.000000,4.000000,4.000000,4.000000,4.000000,4.000000,4.000000,4.000000,4.000000,4.000000,4.000000,4.000000,4.000000,4.000000,83.333336
1614302262.406524,100.000000,0.000000,0.166148,16.907373,42.034367,6.593161,15.060287,14.499249,6.430318,-3.610568,1.405706,3.103269,-9.044409,-12.203833,-21.961843,-25.087307,-24.497648,-29.189306,-14.667144,-28.951199,-32.830875,-36.339848,-32.901951,-28.651833,-5.532215,4.445681,5.366576,20.926548,4.902084,0.914429,11.297117,-2.549251,23.380262,42.380821,8064.000000,0.000000,4.000000,,,,0.000000,4.000000,4.000000,4.000000,2.000000,4.000000,4.000000,4.000000,4.000000,4.000000,4.000000,4.000000,4.000000,4.000000,4.000000,4.000000,4.000000,4.000000,4.000000,4.000000,4.000000,4.000000,4.000000,4.000000,4.000000,4.000000,4.000000,4.000000,4.000000,4.000000,4.000000,4.000000,4.000000,83.333336
1614302262.414273,101.000000,0.000000,0.165982,15.352005,34.300026,2.996824,4.275996,14.484750,4.372606,-11.812086,-9.877751,-10.745988,-25.445621,-19.371117,-37.324497,-48.139141,-41.909050,-58.903706,-26.447350,-50.973530,-56.387787,-49.124020,-50.817768,-33.751385,-8.603606,-3.763893,-8.484944,16.290236,4.384362,0.913514,11.285820,-12.803112,23.869703,35.158955,8064.000000,0.000000,4.000000,,,,0.000000,4.000000,4.000000,4.000000,2.000000,4.000000,4.000000,4.000000,4.000000,4.000000,4.000000,4.000000,4.000000,4.000000,4.000000,4.000000,4.000000,4.000000,4.000000,4.000000,4.000000,4.000000,4.000000,4.000000,4.000000,4.000000,4.000000,4.000000,4.000000,4.000000,4.000000,4.000000,4.000000,83.333336
1614302262.421922,102.000000,0.000000,0.165816,13.285372,26.060598,4.019469,5.297361,14.470265,4.881053,-14.364376,-10.380693,-11.760883,-28.497099,-18.838924,-36.774353,-52.193569,-35.713295,-64.485832,-21.805517,-51.435375,-48.126270,-37.792847,-36.407978,-17.820198,-2.441156,-6.324232,-6.937998,14.735484,4.892797,0.912601,11.274534,-10.226206,23.333012,34.610977,8064.000000,0.000000,4.000000,,,,0.000000,4.000000,4.000000,4.000000,2.000000,4.000000,4.000000,4.000000,4.000000,4.000000,4.000000,4.000000,4.000000,4.000000,4.000000,4.000000,4.000000,4.000000,4.000000,4.000000,4.000000,4.000000,4.000000,4.000000,4.000000,4.000000,4.000000,4.000000,4.000000,4.000000,4.000000,4.000000,4.000000,83.333336
1614302262.429771,103.000000,0.000000,0.165650,12.246445,23.470434,4.528270,5.804884,14.455795,4.363352,-8.708986,-10.370313,-11.236301,-23.340397,-14.204700,-21.352962,-35.218296,-22.344246,-40.831600,-4.347814,-31.383942,-16.796093,-8.011463,-6.115158,4.761724,6.279233,-4.779446,6.915094,16.259211,6.426366,0.911688,12.288901,-7.651877,23.309679,34.576363,8192.000000,0.000000,4.000000,,,,0.000000,4.000000,4.000000,4.000000,2.000000,4.000000,4.000000,4.000000,4.000000,4.000000,4.000000,4.000000,4.000000,4.000000,4.000000,4.000000,4.000000,4.000000,4.000000,4.000000,4.000000,4.000000,4.000000,4.000000,4.000000,4.000000,4.000000,4.000000,4.000000,4.000000,4.000000,4.000000,4.000000,83.333336
1614302262.437520,104.000000,0.000000,2.729587,12.747019,29.600809,8.113485,11.440104,14.441339,4.871809,4.633056,-5.744558,1.595447,-6.906800,-1.882804,0.206853,-13.131797,-9.501390,-18.226665,8.989867,-6.224352,8.861729,9.432446,17.480701,20.141579,9.862698,2.917641,16.651770,16.755772,7.958402,1.423597,11.250971,-6.618585,24.312010,35.054607,8064.000000,0.000000,4.000000,,,,0.000000,4.000000,4.000000,4.000000,2.000000,4.000000,4.000000,4.000000,4.000000,4.000000,4.000000,4.000000,4.000000,4.000000,4.000000,4.000000,4.000000,4.000000,4.000000,4.000000,4.000000,4.000000,4.000000,4.000000,4.000000,4.000000,4.000000,4.000000,4.000000,4.000000,4.000000,4.000000,4.000000,83.333336
1614302262.445369,105.000000,0.000000,3.752499,12.734272,35.725056,16.310499,20.146614,14.426898,7.431040,13.859192,4.004776,15.440005,7.459082,6.324207,8.411775,1.240310,4.867086,-8.464849,10.006518,7.115205,19.622097,11.474295,24.642708,22.172718,8.827194,14.709595,16.122297,14.687734,8.976085,0.909353,8.162797,-6.611966,22.749237,37.583656,8064.000000,0.000000,4.000000,,,,0.000000,4.000000,4.000000,4.000000,2.000000,4.000000,4.000000,4.000000,4.000000,4.000000,4.000000,4.000000,4.000000,4.000000,4.000000,4.000000,4.000000,4.000000,4.000000,4.000000,4.000000,4.000000,4.000000,4.000000,4.000000,4.000000,4.000000,4.000000,4.000000,4.000000,4.000000,4.000000,4.000000,83.333336
1614302262.453118,106.000000,0.000000,3.748746,12.208717,31.586765,19.883932,19.100826,14.412471,8.449250,13.845333,5.539233,9.783540,8.477263,5.292242,7.377721,6.880095,14.092988,7.953872,9.483691,14.800398,23.192219,11.975641,23.592424,20.099264,9.331187,18.797449,15.080533,11.596123,9.479929,0.908444,7.641814,-6.092534,17.085463,36.007610,8064.000000,0.000000,4.000000,,,,0.000000,4.000000,4.000000,4.000000,2.000000,4.000000,4.000000,4.000000,4.000000,4.000000,4.000000,4.000000,4.000000,4.000000,4.000000,4.000000,4.000000,4.000000,4.000000,4.000000,4.000000,4.000000,4.000000,4.000000,4.000000,4.000000,4.000000,4.000000,4.000000,4.000000,4.000000,4.000000,4.000000,83.333336
1614302262.460967,107.000000,0.000000,4.257818,12.709329,31.555180,16.787127,18.568905,14.910879,8.953621,13.831488,6.559335,5.158372,8.468786,5.799770,10.960088,7.386035,16.642998,27.433098,11.012670,25.554829,27.784412,16.066229,26.645754,20.591986,8.296215,17.240191,17.629555,13.122989,4.855064,1.420356,7.634172,-4.547979,16.042736,33.920322,8064.000000,0.000000,4.000000,,,,0.000000,4.000000,4.000000,4.000000,2.000000,4.000000,4.000000,4.000000,4.000000,4.000000,4.000000,4.000000,4.000000,4.000000,4.000000,4.000000,4.000000,4.000000,4.000000,4.000000,4.000000,4.000000,4.000000,4.000000,4.000000,4.000000,4.000000,4.000000,4.000000,4.000000,4.000000,4.000000,4.000000,83.333336
1614302262.468716,108.000000,0.000000,2.202278,12.696620,39.215931,16.770338,20.601618,12.844687,8.431848,14.843297,9.629699,11.819880,9.998779,4.768330,10.949127,8.404290,15.087893,28.944126,11.001657,27.580555,29.295090,15.537343,25.080647,13.904727,4.185355,19.274233,14.022182,11.571404,-3.354919,-0.119526,-0.578590,-8.645995,13.975410,34.912041,8064.000000,0.000000,4.000000,,,,0.000000,4.000000,4.000000,4.000000,2.000000,4.000000,4.000000,4.000000,4.000000,4.000000,4.000000,4.000000,4.000000,4.000000,4.000000,4.000000,4.000000,4.000000,4.000000,4.000000,4.000000,4.000000,4.000000,4.000000,4.000000,4.000000,4.000000,4.000000,4.000000,4.000000,4.000000,4.000000,4.000000,83.333336
1614302262.476565,109.000000,0.000000,-2.928129,12.683923,33.535690,17.266388,15.965631,7.703637,3.808031,11.238710,2.953402,7.705496,4.860575,-0.364644,4.271512,6.857425,8.406138,18.145950,8.426553,21.399128,18.496563,6.803857,7.619669,-3.545076,1.617067,16.690855,3.238929,-0.747860,-6.941308,-4.221971,-11.347242,-15.304016,6.781948,32.313026,8064.000000,0.000000,4.000000,,,,0.000000,4.000000,4.000000,4.000000,2.000000,4.000000,4.000000,4.000000,4.000000,4.000000,4.000000,4.000000,4.000000,4.000000,4.000000,4.000000,4.000000,4.000000,4.000000,4.000000,4.000000,4.000000,4.000000,4.000000,4.000000,4.000000,4.000000,4.000000,4.000000,4.000000,4.000000,4.000000,4.000000,83.333336
1614302262.484314,110.000000,0.000000,-2.925201,12.671239,24.784206,16.736301,14.924025,7.183112,1.240120,6.099267,-4.741859,1.543945,1.265971,-1.902741,2.728778,-1.867382,-0.320216,9.409857,6.366844,13.685422,2.580631,-3.972178,-9.311028,-13.797941,1.102630,1.802370,-3.943797,-9.465060,-6.421546,-6.781851,-11.848716,-17.852814,6.775167,30.229433,8064.000000,0.000000,4.000000,,,,0.000000,4.000000,4.000000,4.000000,2.000000,4.000000,4.000000,4.000000,4.000000,4.000000,4.000000,4.000000,4.000000,4.000000,4.000000,4.000000,4.000000,4.000000,4.000000,4.000000,4.000000,4.000000,4.000000,4.000000,4.000000,4.000000,4.000000,4.000000,4.000000,4.000000,4.000000,4.000000,4.000000,83.333336
1614302262.492163,111.000000,0.000000,2.205929,12.658568,39.118397,20.309309,22.088587,10.252852,3.802983,5.067526,0.903908,9.747529,5.880089,0.663264,2.726050,-6.480899,-2.883999,-4.958528,5.847656,-3.764161,-7.678360,-7.045129,-11.352999,-10.194399,1.101527,-10.507125,-3.427033,-3.301749,-5.389483,-4.723787,-3.631739,-16.809320,17.024801,39.429974,8064.000000,0.000000,4.000000,,,,0.000000,4.000000,4.000000,4.000000,2.000000,4.000000,4.000000,4.000000,4.000000,4.000000,4.000000,4.000000,4.000000,4.000000,4.000000,4.000000,4.000000,4.000000,4.000000,4.000000,4.000000,4.000000,4.000000,4.000000,4.000000,4.000000,4.000000,4.000000,4.000000,4.000000,4.000000,4.000000,4.000000,83.333336
1614302262.499913,112.000000,0.000000,4.255005,12.645909,55.489532,24.391563,22.066500,10.755420,5.337641,6.088099,6.031209,14.865987,8.438312,1.175422,-3.430523,-5.448777,-3.906756,-25.979210,3.790527,-22.734756,-14.850169,-6.012443,-14.931390,-10.184205,1.100425,-8.958156,-1.885144,1.829757,-1.281530,-1.129320,3.551380,-17.305332,20.597521,50.159775,8064.000000,0.000000,4.000000,,,,0.000000,4.000000,4.000000,4.000000,2.000000,4.000000,4.000000,4.000000,4.000000,4.000000,4.000000,4.000000,4.000000,4.000000,4.000000,4.000000,4.000000,4.000000,4.000000,4.000000,4.000000,4.000000,4.000000,4.000000,4.000000,4.000000,4.000000,4.000000,4.000000,4.000000,4.000000,4.000000,4.000000,83.333336
1614302262.507762,113.000000,0.000000,3.225109,12.633264,51.331482,22.828711,16.916227,10.231844,4.306663,5.056371,2.435435,11.774198,5.352951,0.148605,-8.555297,-12.622815,-5.954131,-35.184002,1.735454,-28.353046,-21.501986,-13.698738,-26.711330,-13.763764,1.612146,-4.846634,-5.985823,0.289466,1.796675,0.410271,3.547829,-17.288027,19.551281,48.571152,8064.000000,0.000000,4.000000,,,,0.000000,4.000000,4.000000,4.000000,2.000000,4.000000,4.000000,4.000000,4.000000,4.000000,4.000000,4.000000,4.000000,4.000000,4.000000,4.000000,4.000000,4.000000,4.000000,4.000000,4.000000,4.000000,4.000000,4.000000,4.000000,4.000000,4.000000,4.000000,4.000000,4.000000,4.000000,4.000000,4.000000,83.333336
1614302262.515511,114.000000,0.000000,3.734705,12.620630,44.613483,19.728958,16.386490,10.734432,4.302356,2.487211,0.894538,12.788064,3.296316,1.174098,-10.085203,-20.302500,-5.948177,-28.482149,1.733719,-28.837515,-23.018946,-19.326065,-21.043592,-6.570513,1.097713,-6.380249,-9.569581,0.801997,1.282058,0.922681,0.980178,-17.270739,20.044552,42.368736,8064.000000,0.000000,4.000000,,,,0.000000,4.000000,4.000000,4.000000,2.000000,4.000000,4.000000,4.000000,4.000000,4.000000,4.000000,4.000000,4.000000,4.000000,4.000000,4.000000,4.000000,4.000000,4.000000,4.000000,4.000000,4.000000,4.000000,4.000000,4.000000,4.000000,4.000000,4.000000,4.000000,4.000000,4.000000,4.000000,4.000000,83.333336
1614302262.523360,115.000000,0.000000,4.243791,13.120830,46.620152,20.222050,16.370104,10.723699,5.323694,1.971904,1.919284,9.185533,4.318660,1.172924,-6.485374,-13.102711,-3.378126,-20.761360,0.706344,-23.680471,-11.713875,-5.973405,4.105656,1.641185,2.122256,-4.322587,-4.944627,1.826836,1.793596,0.921758,0.979198,-16.740648,15.921943,41.300724,8064.000000,0.000000,4.000000,,,,0.000000,4.000000,4.000000,4.000000,2.000000,4.000000,4.000000,4.000000,4.000000,4.000000,4.000000,4.000000,4.000000,4.000000,4.000000,4.000000,4.000000,4.000000,4.000000,4.000000,4.000000,4.000000,4.000000,4.000000,4.000000,4.000000,4.000000,4.000000,4.000000,4.000000,4.000000,4.000000,4.000000,83.333336
1614302262.531109,116.000000,0.000000,4.239547,13.107709,47.599171,20.714649,19.943478,10.712975,5.318371,5.046855,3.455827,6.099424,9.442547,0.658930,9.418547,1.782187,7.394483,-4.330342,3.782561,0.958594,8.810659,15.571030,19.998985,2.665185,4.684237,3.374044,2.239805,1.825009,1.791802,1.433657,-0.047422,-12.621343,13.341918,42.797886,8064.000000,0.000000,4.000000,,,,0.000000,4.000000,4.000000,4.000000,2.000000,4.000000,4.000000,4.000000,4.000000,4.000000,4.000000,4.000000,4.000000,4.000000,4.000000,4.000000,4.000000,4.000000,4.000000,4.000000,4.000000,4.000000,4.000000,4.000000,4.000000,4.000000,4.000000,4.000000,4.000000,4.000000,4.000000,4.000000,4.000000,83.333336
1614302262.538758,117.000000,0.000000,3.722487,12.068960,46.013111,20.181114,31.718407,10.702262,4.800232,8.631552,4.990832,19.426659,16.099771,4.248015,29.409128,21.267584,24.310165,25.417578,13.522367,26.085840,24.699286,22.734945,19.978987,8.303546,5.192373,7.986054,6.852950,7.977031,1.277190,0.919403,-3.124298,-6.967696,17.431141,44.293549,8064.000000,0.000000,4.000000,,,,0.000000,4.000000,4.000000,4.000000,2.000000,4.000000,4.000000,4.000000,4.000000,4.000000,4.000000,4.000000,4.000000,4.000000,4.000000,4.000000,4.000000,4.000000,4.000000,4.000000,4.000000,4.000000,4.000000,4.000000,4.000000,4.000000,4.000000,4.000000,4.000000,4.000000,4.000000,4.000000,4.000000,83.333336
1614302262.546507,118.000000,0.000000,3.718764,13.595353,45.454277,20.160933,39.891815,10.691560,4.282611,11.699843,5.498662,32.740566,19.673414,10.397613,38.097668,43.810421,32.490982,46.930622,20.175512,31.700781,30.315611,20.148108,20.471828,17.526011,5.700001,9.003710,9.410199,13.610079,1.275913,0.918484,-3.633994,-4.909446,19.977812,44.762077,8064.000000,0.000000,4.000000,,,,0.000000,4.000000,4.000000,4.000000,2.000000,4.000000,4.000000,4.000000,4.000000,4.000000,4.000000,4.000000,4.000000,4.000000,4.000000,4.000000,4.000000,4.000000,4.000000,4.000000,4.000000,4.000000,4.000000,4.000000,4.000000,4.000000,4.000000,4.000000,4.000000,4.000000,4.000000,4.000000,4.000000,83.333336
1614302262.554156,119.000000,0.000000,4.227866,12.043296,46.434464,21.166412,40.364746,10.680868,5.816790,14.252246,6.005984,28.092440,20.166561,13.976959,36.008289,42.228146,32.458492,47.396511,21.180977,30.130617,31.310936,22.179243,17.887255,13.918742,8.258404,10.533167,6.836687,8.981085,0.248996,1.430386,-3.117539,-6.955819,19.445013,44.717316,8192.000000,0.000000,4.000000,,,,0.000000,4.000000,4.000000,4.000000,2.000000,4.000000,4.000000,4.000000,4.000000,4.000000,4.000000,4.000000,4.000000,4.000000,4.000000,4.000000,4.000000,4.000000,4.000000,4.000000,4.000000,4.000000,4.000000,4.000000,4.000000,4.000000,4.000000,4.000000,4.000000,4.000000,4.000000,4.000000,4.000000,83.333336
1614302262.561905,120.000000,0.000000,3.710818,3.313304,45.362389,19.606785,37.247456,10.670187,3.759691,10.135429,5.999978,19.346397,17.069471,11.398879,29.818434,19.621817,34.477318,36.579884,21.672617,29.587667,28.715523,21.131422,7.100136,3.648413,8.250145,8.471352,-0.349637,-0.258666,-3.340997,-0.109506,-4.140063,-9.512965,18.912748,44.672596,8192.000000,0.000000,4.000000,,,,0.000000,4.000000,4.000000,4.000000,2.000000,4.000000,4.000000,4.000000,4.000000,4.000000,4.000000,4.000000,4.000000,4.000000,4.000000,4.000000,4.000000,4.000000,4.000000,4.000000,4.000000,4.000000,4.000000,4.000000,4.000000,4.000000,4.000000,4.000000,4.000000,4.000000,4.000000,4.000000,4.000000,83.333336
1614302262.569554,121.000000,0.000000,1.655825,-3.356676,41.214462,15.997435,29.517902,10.659516,-5.474838,2.945807,1.378593,15.224487,11.411377,7.284916,20.557846,8.832964,30.340275,22.184330,19.599663,20.327311,19.456038,12.392342,0.426369,1.080662,4.652151,-0.255068,-1.887749,-3.848151,-7.440220,-2.673499,-6.187205,-9.503452,14.791270,44.627926,8064.000000,0.000000,4.000000,,,,0.000000,4.000000,4.000000,4.000000,2.000000,4.000000,4.000000,4.000000,4.000000,4.000000,4.000000,4.000000,4.000000,4.000000,4.000000,4.000000,4.000000,4.000000,4.000000,4.000000,4.000000,4.000000,4.000000,4.000000,4.000000,4.000000,4.000000,4.000000,4.000000,4.000000,4.000000,4.000000,4.000000,83.333336
1614302262.577303,122.000000,0.000000,0.115707,-0.276396,41.686069,17.007078,23.334538,10.648857,-8.546286,1.917220,-1.186888,8.542597,8.323043,5.739170,8.742416,7.285669,11.848395,8.315992,14.964678,7.486470,9.180172,2.636360,0.425943,2.618043,5.673140,-5.383018,0.678241,-1.793021,-5.894318,-3.183646,-8.232300,-10.006769,11.699556,44.583298,8064.000000,0.000000,4.000000,,,,0.000000,4.000000,4.000000,4.000000,2.000000,4.000000,4.000000,4.000000,4.000000,4.000000,4.000000,4.000000,4.000000,4.000000,4.000000,4.000000,4.000000,4.000000,4.000000,4.000000,4.000000,4.000000,4.000000,4.000000,4.000000,4.000000,4.000000,4.000000,4.000000,4.000000,4.000000,4.000000,4.000000,83.333336
1614302262.584953,123.000000,0.000000,-0.397229,1.262342,47.798229,15.451610,25.875305,10.638208,-0.845432,2.940944,2.916863,3.918669,6.776258,2.656508,-0.497095,0.098897,-2.522427,-0.410272,10.847150,1.325137,0.965864,-3.007302,0.938338,2.615425,9.257211,-0.762250,1.190384,4.875439,1.803884,-2.667642,-5.659965,-9.996762,13.226318,44.025894,8064.000000,0.000000,4.000000,,,,0.000000,4.000000,4.000000,4.000000,2.000000,4.000000,4.000000,4.000000,4.000000,4.000000,4.000000,4.000000,4.000000,4.000000,4.000000,4.000000,4.000000,4.000000,4.000000,4.000000,4.000000,4.000000,4.000000,4.000000,4.000000,4.000000,4.000000,4.000000,4.000000,4.000000,4.000000,4.000000,4.000000,83.333336
1614302262.592702,124.000000,0.000000,0.115989,1.261080,48.776070,7.231030,27.387892,10.627570,2.232337,0.373901,4.965228,5.966033,2.666918,-4.525636,-3.573521,-3.490946,-2.519905,-6.563708,1.092713,-3.804393,-6.214590,-5.055577,0.937399,0.561527,6.171031,6.417999,0.676373,11.537230,5.391824,-2.664975,1.525182,-4.345740,14.751554,44.494686,8064.000000,0.000000,4.000000,,,,0.000000,4.000000,4.000000,4.000000,2.000000,4.000000,4.000000,4.000000,4.000000,4.000000,4.000000,4.000000,4.000000,4.000000,4.000000,4.000000,4.000000,4.000000,4.000000,4.000000,4.000000,4.000000,4.000000,4.000000,4.000000,4.000000,4.000000,4.000000,4.000000,4.000000,4.000000,4.000000,4.000000,83.333336
1614302262.600351,125.000000,0.000000,0.115873,6.900844,49.240116,7.223799,26.847683,10.616942,0.691643,-2.190576,1.883340,9.549810,0.100148,-7.598033,-8.185332,-6.564378,-5.594308,-13.736631,-13.267355,-12.005717,-9.285298,-7.614624,-2.140461,-3.541598,-0.501807,6.924401,1.188517,11.525693,0.771047,-2.662310,4.600580,0.786811,18.839367,50.091217,8064.000000,0.000000,4.000000,,,,0.000000,4.000000,4.000000,4.000000,2.000000,4.000000,4.000000,4.000000,4.000000,4.000000,4.000000,4.000000,4.000000,4.000000,4.000000,4.000000,4.000000,4.000000,4.000000,4.000000,4.000000,4.000000,4.000000,4.000000,4.000000,4.000000,4.000000,4.000000,4.000000,4.000000,4.000000,4.000000,4.000000,83.333336
1614302262.608100,126.000000,0.000000,0.115757,13.047790,60.985748,17.472984,31.949041,10.606325,5.306335,-1.162744,1.368636,6.463337,-1.951234,-6.564795,-17.407917,-12.711659,-13.281021,-19.363920,-21.459215,-17.634737,-7.737551,-14.273676,-5.728064,-6.102160,-2.552588,3.327734,1.187328,8.950065,-2.819467,-2.659647,5.108800,1.811665,27.538475,58.246254,8064.000000,0.000000,4.000000,,,,0.000000,4.000000,4.000000,4.000000,2.000000,4.000000,4.000000,4.000000,4.000000,4.000000,4.000000,4.000000,4.000000,4.000000,4.000000,4.000000,4.000000,4.000000,4.000000,4.000000,4.000000,4.000000,4.000000,4.000000,4.000000,4.000000,4.000000,4.000000,4.000000,4.000000,4.000000,4.000000,4.000000,83.333336
1614302262.615749,127.000000,0.000000,0.115641,13.034741,71.693993,21.045256,38.070938,10.595719,9.916414,-1.674402,2.392909,0.815848,-2.974924,-6.045409,-19.954611,-10.647666,-14.806202,-20.370197,-22.463398,-15.565820,-7.729814,-17.336325,-6.747977,-5.070416,-2.037215,2.811585,1.186141,10.479576,-1.791007,-2.656988,6.642153,3.861135,31.100681,62.290573,8064.000000,0.000000,4.000000,,,,0.000000,4.000000,4.000000,4.000000,2.000000,4.000000,4.000000,4.000000,4.000000,4.000000,4.000000,4.000000,4.000000,4.000000,4.000000,4.000000,4.000000,4.000000,4.000000,4.000000,4.000000,4.000000,4.000000,4.000000,4.000000,4.000000,4.000000,4.000000,4.000000,4.000000,4.000000,4.000000,4.000000,83.333336
1614302262.623498,0.000000,0.000000,0.115526,12.508886,70.083839,19.485748,38.545689,10.072303,7.342395,-1.159907,1.877695,2.866315,-0.920667,-6.552184,-11.729528,-2.944711,-9.150370,-8.554955,-18.338369,-15.550255,-6.696443,-10.652323,-6.741229,-5.065346,-2.035177,3.321594,1.184955,14.058841,-1.789216,-2.654331,8.686792,6.421377,30.043940,63.766743,0.000000,196.000000,4.000000,,,,0.000000,4.000000,4.000000,4.000000,2.000000,4.000000,4.000000,4.000000,4.000000,4.000000,4.000000,4.000000,4.000000,4.000000,4.000000,4.000000,4.000000,4.000000,4.000000,4.000000,4.000000,4.000000,4.000000,4.000000,4.000000,4.000000,4.000000,4.000000,4.000000,4.000000,4.000000,4.000000,4.000000,83.333336
1614302262.631147,1.000000,0.000000,0.628231,13.009198,66.936829,20.491903,38.507141,10.575051,4.770950,2.943817,1.362997,11.068577,3.695638,-7.058453,0.077073,4.750542,4.704935,10.940779,-7.037980,-15.534704,4.079484,0.127561,-5.708847,-4.547460,-2.545963,2.805452,1.183770,12.506320,-2.300247,-2.651676,9.190927,0.773930,30.526716,61.651695,0.000000,199.000000,4.000000,,,,0.000000,4.000000,4.000000,4.000000,2.000000,4.000000,4.000000,4.000000,4.000000,4.000000,4.000000,4.000000,4.000000,4.000000,4.000000,4.000000,4.000000,4.000000,4.000000,4.000000,4.000000,4.000000,4.000000,4.000000,4.000000,4.000000,4.000000,4.000000,4.000000,4.000000,4.000000,4.000000,4.000000,83.333336
1614302262.638897,2.000000,0.000000,0.627602,12.996189,61.228867,18.932951,36.417351,10.564476,4.766179,6.530617,1.874454,13.108790,7.281686,-4.487291,11.359047,16.027842,21.623306,24.775991,7.328032,0.378266,15.870276,8.332561,-0.062113,-1.465989,-2.030596,2.802647,1.182586,3.775865,-2.297947,-2.649025,5.079171,-5.893511,29.470547,50.820812,0.000000,198.000000,4.000000,,,,0.000000,4.000000,4.000000,4.000000,2.000000,4.000000,4.000000,4.000000,4.000000,4.000000,4.000000,4.000000,4.000000,4.000000,4.000000,4.000000,4.000000,4.000000,4.000000,4.000000,4.000000,4.000000,4.000000,4.000000,4.000000,4.000000,4.000000,4.000000,4.000000,4.000000,4.000000,4.000000,4.000000,83.333336
1614302262.646546,3.000000,0.000000,-1.937128,12.470372,51.424049,13.785812,28.688627,10.041091,4.761413,6.524086,1.359759,11.557220,10.864148,-0.380240,19.039995,24.729763,29.293991,33.469166,15.525832,23.967632,20.982611,11.913972,4.040514,0.586759,-2.028566,2.799844,1.181404,-2.894578,-3.834110,-2.646376,-3.131036,-6.400438,26.364155,42.052044,0.000000,174.000000,4.000000,,,,0.000000,4.000000,4.000000,4.000000,2.000000,4.000000,4.000000,4.000000,4.000000,4.000000,4.000000,4.000000,4.000000,4.000000,4.000000,4.000000,4.000000,4.000000,4.000000,4.000000,4.000000,4.000000,4.000000,4.000000,4.000000,4.000000,4.000000,4.000000,4.000000,4.000000,4.000000,4.000000,4.000000,83.333336
1614302262.654295,4.000000,0.000000,-3.473652,12.457902,52.398266,11.720745,27.634298,11.569511,4.756651,6.004741,1.871220,12.571303,11.878925,2.184243,20.559418,26.243496,29.777517,41.128002,18.587231,33.174435,23.525732,14.466161,5.062114,2.637454,-2.026537,2.284224,1.180222,-2.891683,-5.881558,-2.643729,-7.743289,-5.368396,26.337790,48.163837,0.000000,124.000000,4.000000,,,,0.000000,4.000000,4.000000,4.000000,2.000000,4.000000,4.000000,4.000000,4.000000,4.000000,4.000000,4.000000,4.000000,4.000000,4.000000,4.000000,4.000000,4.000000,4.000000,4.000000,4.000000,4.000000,4.000000,4.000000,4.000000,4.000000,4.000000,4.000000,4.000000,4.000000,4.000000,4.000000,4.000000,83.333336
1614302262.661944,5.000000,0.000000,-3.470179,12.958264,62.602276,12.734665,37.863075,13.609224,4.751895,7.024378,3.920631,12.558732,12.379867,2.182058,14.897833,24.678791,29.747740,32.881748,17.543001,24.936131,17.861179,15.990156,5.569872,3.660458,-1.511690,2.794760,1.179042,-2.375971,-5.875677,-2.641086,-6.709905,-5.875849,26.824272,59.397724,0.000000,171.000000,4.000000,,,,0.000000,4.000000,4.000000,4.000000,2.000000,4.000000,4.000000,4.000000,4.000000,4.000000,4.000000,4.000000,4.000000,4.000000,4.000000,4.000000,4.000000,4.000000,4.000000,4.000000,4.000000,4.000000,4.000000,4.000000,4.000000,4.000000,4.000000,4.000000,4.000000,4.000000,4.000000,4.000000,4.000000,83.333336
1614302262.669793,6.000000,0.000000,-3.979529,12.945306,62.539677,13.234751,42.953415,14.621256,5.259964,6.504533,5.455172,9.469251,11.341846,-0.384226,2.062422,14.397701,16.384659,5.669378,8.294689,4.911195,-1.131040,8.794679,3.513021,-0.958588,-3.048640,4.330427,1.177863,-0.835133,-5.356981,-2.638444,-6.703196,-5.357152,26.284628,58.825508,0.000000,191.000000,4.000000,,,,0.000000,4.000000,4.000000,4.000000,2.000000,4.000000,4.000000,4.000000,4.000000,4.000000,4.000000,4.000000,4.000000,4.000000,4.000000,4.000000,4.000000,4.000000,4.000000,4.000000,4.000000,4.000000,4.000000,4.000000,4.000000,4.000000,4.000000,4.000000,4.000000,4.000000,4.000000,4.000000,4.000000,83.333336
1614302262.677542,7.000000,0.000000,-6.539652,11.906720,60.425854,12.195875,41.372002,14.093814,4.741883,5.472387,5.962537,7.408499,7.227940,-4.486406,-8.196051,-2.539773,-6.195828,-15.361933,-6.072580,-17.657820,-14.463243,-7.111552,1.971046,-9.162757,-5.096873,0.223532,1.176685,2.755445,-5.864444,-2.635806,-7.209313,-5.864615,26.258343,53.125656,0.000000,203.000000,4.000000,,,,0.000000,4.000000,4.000000,4.000000,2.000000,4.000000,4.000000,4.000000,4.000000,4.000000,4.000000,4.000000,4.000000,4.000000,4.000000,4.000000,4.000000,4.000000,4.000000,4.000000,4.000000,4.000000,4.000000,4.000000,4.000000,4.000000,4.000000,4.000000,4.000000,4.000000,4.000000,4.000000,4.000000,83.333336
1614302262.685391,8.000000,0.000000,-7.558753,13.433274,66.006454,12.696500,42.356270,14.079720,4.737141,7.005376,5.443754,10.990834,3.118148,-6.533202,-9.213496,-10.742362,-14.394761,-19.449135,-13.245995,-22.255547,-9.833394,-14.283927,8.635742,-7.615133,-5.604597,-1.315153,2.201149,5.829613,-5.345759,-2.120350,-4.638001,-5.345931,26.744905,56.149452,0.000000,205.000000,4.000000,,,,0.000000,4.000000,4.000000,4.000000,2.000000,4.000000,4.000000,4.000000,4.000000,4.000000,4.000000,4.000000,4.000000,4.000000,4.000000,4.000000,4.000000,4.000000,4.000000,4.000000,4.000000,4.000000,4.000000,4.000000,4.000000,4.000000,4.000000,4.000000,4.000000,4.000000,4.000000,4.000000,4.000000,83.333336
1614302262.693140,9.000000,0.000000,-7.038374,12.394200,60.299423,13.709444,40.775452,14.065640,5.758045,5.459909,3.899849,11.492663,4.653491,-7.552310,-8.691462,-9.705978,-9.764981,-18.404045,-14.258389,-14.028162,-3.156894,-12.731182,12.216849,-0.940851,-5.598992,8.942573,1.686128,6.336604,-5.340414,-3.143870,-3.094901,-4.314943,20.051495,56.093304,0.000000,203.000000,4.000000,,,,0.000000,4.000000,4.000000,4.000000,2.000000,4.000000,4.000000,4.000000,4.000000,4.000000,4.000000,4.000000,4.000000,4.000000,4.000000,4.000000,4.000000,4.000000,4.000000,4.000000,4.000000,4.000000,4.000000,4.000000,4.000000,4.000000,4.000000,4.000000,4.000000,4.000000,4.000000,4.000000,4.000000,83.333336
1614302262.700989,10.000000,0.000000,-7.031336,3.663857,42.803223,10.618812,34.068008,14.051575,2.675364,-2.237858,2.357487,2.250402,3.623197,-10.621680,-9.708411,-9.696273,-11.806499,-18.898460,-16.808233,-16.065416,-0.589635,-14.769732,4.512325,-7.093756,-8.157495,12.010553,-0.879661,-0.849220,-8.924817,-6.217649,-5.143088,-9.438833,8.236570,38.088493,0.000000,222.000000,4.000000,,,,0.000000,4.000000,4.000000,4.000000,2.000000,4.000000,4.000000,4.000000,4.000000,4.000000,4.000000,4.000000,4.000000,4.000000,4.000000,4.000000,4.000000,4.000000,4.000000,4.000000,4.000000,4.000000,4.000000,4.000000,4.000000,4.000000,4.000000,4.000000,4.000000,4.000000,4.000000,4.000000,4.000000,83.333336
1614302262.708738,11.000000,0.000000,-7.024304,-3.006473,35.068115,3.941526,30.444199,14.037523,-3.481158,-9.927928,1.842310,-6.982618,-4.072734,-13.687982,-12.262806,-9.686576,-18.974178,-19.392384,-20.381168,-24.254478,-1.101866,-19.883167,-2.158854,-25.035381,-12.251903,-3.386073,-2.417243,-13.668883,-12.505635,-6.211432,-7.189228,-20.711447,3.100129,24.204250,0.000000,157.000000,4.000000,,,,0.000000,4.000000,4.000000,4.000000,2.000000,4.000000,4.000000,4.000000,4.000000,4.000000,4.000000,4.000000,4.000000,4.000000,4.000000,4.000000,4.000000,4.000000,4.000000,4.000000,4.000000,4.000000,4.000000,4.000000,4.000000,4.000000,4.000000,4.000000,4.000000,4.000000,4.000000,4.000000,4.000000,83.333336
1614302262.716587,12.000000,0.000000,-7.017280,-3.003467,39.648430,0.347841,30.926575,14.023486,-6.554600,-8.892359,1.327647,-4.924353,-7.658405,-15.212755,-12.763363,-7.625607,-14.852641,-14.757607,-22.412069,-15.512276,-4.177687,-22.427387,-4.720798,-35.266754,-17.367855,-13.639097,-6.004569,-17.244959,-15.057232,-5.692400,-6.669218,-25.306120,4.635490,35.462097,0.000000,167.000000,4.000000,,,,0.000000,4.000000,4.000000,4.000000,2.000000,4.000000,4.000000,4.000000,4.000000,4.000000,4.000000,4.000000,4.000000,4.000000,4.000000,4.000000,4.000000,4.000000,4.000000,4.000000,4.000000,4.000000,4.000000,4.000000,4.000000,4.000000,4.000000,4.000000,4.000000,4.000000,4.000000,4.000000,4.000000,83.333336
1614302262.724336,13.000000,0.000000,-7.010263,-2.487643,44.736988,1.373134,29.357187,14.009462,-7.060865,-3.755262,3.890422,2.772879,1.580023,-11.094978,-3.519831,-0.438495,3.623750,-0.383874,-17.261452,0.913493,-0.070945,-16.251114,-8.818641,-26.000719,-18.376129,-11.574176,-14.203692,-11.073867,-16.580637,-10.814913,-6.662549,-23.742352,4.118034,46.195866,0.000000,197.000000,4.000000,,,,0.000000,4.000000,4.000000,4.000000,2.000000,4.000000,4.000000,4.000000,4.000000,4.000000,4.000000,4.000000,4.000000,4.000000,4.000000,4.000000,4.000000,4.000000,4.000000,4.000000,4.000000,4.000000,4.000000,4.000000,4.000000,4.000000,4.000000,4.000000,4.000000,4.000000,4.000000,4.000000,4.000000,83.333336
1614302262.732185,14.000000,0.000000,-7.516073,-0.946694,44.179428,3.423043,30.866291,13.995453,-5.002522,-1.700224,5.937813,4.821388,11.834853,1.736629,12.893946,11.869636,17.466280,12.949843,-1.346755,9.630528,13.775280,-0.850247,-10.861104,-7.000360,-8.614163,-13.613884,-17.266413,-9.011511,-16.051235,-13.368200,-6.655886,-23.718609,3.088275,38.970181,0.000000,221.000000,4.000000,,,,0.000000,4.000000,4.000000,4.000000,2.000000,4.000000,4.000000,4.000000,4.000000,4.000000,4.000000,4.000000,4.000000,4.000000,4.000000,4.000000,4.000000,4.000000,4.000000,4.000000,4.000000,4.000000,4.000000,4.000000,4.000000,4.000000,4.000000,4.000000,4.000000,4.000000,4.000000,4.000000,4.000000,83.333336
1614302262.739934,15.000000,0.000000,-6.995737,3.669638,35.930122,4.958082,28.784143,13.468637,-0.382136,-1.698524,-0.734791,2.765285,6.694813,9.940021,20.060539,12.883408,18.474455,17.039457,11.987925,11.672180,14.274324,8.381372,-10.337422,2.750230,3.702143,-14.113091,-11.095300,-10.540961,-13.471082,-8.226627,-6.649230,-24.207710,6.162110,31.238905,0.000000,179.000000,4.000000,,,,0.000000,4.000000,4.000000,4.000000,2.000000,4.000000,4.000000,4.000000,4.000000,4.000000,4.000000,4.000000,4.000000,4.000000,4.000000,4.000000,4.000000,4.000000,4.000000,4.000000,4.000000,4.000000,4.000000,4.000000,4.000000,4.000000,4.000000,4.000000,4.000000,4.000000,4.000000,4.000000,4.000000,83.333336
1614302262.747783,16.000000,0.000000,-6.475920,5.717250,29.227526,4.953124,16.447666,13.455169,0.643888,-1.184005,-9.964826,-2.365686,-6.132395,7.878799,13.886632,-0.462809,16.404699,16.509598,14.027219,8.583585,-1.637385,4.783247,-13.916829,2.234660,6.775364,-6.919490,-10.058563,-9.504779,-12.431970,-6.167119,-6.642581,-23.670683,8.720051,32.746128,0.000000,201.000000,4.000000,,,,0.000000,4.000000,4.000000,4.000000,2.000000,4.000000,4.000000,4.000000,4.000000,4.000000,4.000000,4.000000,4.000000,4.000000,4.000000,4.000000,4.000000,4.000000,4.000000,4.000000,4.000000,4.000000,4.000000,4.000000,4.000000,4.000000,4.000000,4.000000,4.000000,4.000000,4.000000,4.000000,4.000000,83.333336
1614302262.755532,17.000000,0.000000,-8.007906,5.198712,33.813683,5.460991,13.867116,13.954534,-2.946500,-2.208462,-10.467681,-10.055628,-7.151903,5.306818,7.718899,-9.693116,13.824191,7.262319,12.987551,0.369873,-8.815235,0.163079,-12.877271,2.232425,5.230127,-3.835648,-14.151069,-9.495275,-12.932358,-6.160951,-6.635938,-23.647013,6.147228,33.739021,0.000000,197.000000,4.000000,,,,0.000000,4.000000,4.000000,4.000000,2.000000,4.000000,4.000000,4.000000,4.000000,4.000000,4.000000,4.000000,4.000000,4.000000,4.000000,4.000000,4.000000,4.000000,4.000000,4.000000,4.000000,4.000000,4.000000,4.000000,4.000000,4.000000,4.000000,4.000000,4.000000,4.000000,4.000000,4.000000,4.000000,83.333336
1614302262.763381,18.000000,0.000000,-5.948616,5.706334,36.856792,8.532454,26.673761,12.914938,-2.430733,-4.770356,-7.893111,-10.558393,-3.042187,5.301511,6.685539,-10.196243,8.682162,-8.642380,14.513024,-5.784343,-6.755138,-0.349904,-5.684906,4.794295,6.763359,-4.344633,-11.059995,-8.972959,-12.919426,-3.590688,-6.629303,-23.623365,5.115439,31.141180,0.000000,196.000000,4.000000,,,,0.000000,4.000000,4.000000,4.000000,2.000000,4.000000,4.000000,4.000000,4.000000,4.000000,4.000000,4.000000,4.000000,4.000000,4.000000,4.000000,4.000000,4.000000,4.000000,4.000000,4.000000,4.000000,4.000000,4.000000,4.000000,4.000000,4.000000,4.000000,4.000000,4.000000,4.000000,4.000000,4.000000,83.333336
1614302262.771130,19.000000,0.000000,0.723999,4.674987,40.409679,9.036741,34.852215,14.440485,0.135800,-2.714304,-7.885218,5.349602,-4.577607,5.296209,6.678854,-7.621944,5.596557,-12.736301,14.498511,-3.727277,-8.799664,-1.888016,-3.115119,2.738219,6.243775,-2.289006,-2.330986,-4.861422,-11.368045,-2.561456,-6.622673,-23.599741,11.264171,32.648502,0.000000,183.000000,4.000000,,,,0.000000,4.000000,4.000000,4.000000,2.000000,4.000000,4.000000,4.000000,4.000000,4.000000,4.000000,4.000000,4.000000,4.000000,4.000000,4.000000,4.000000,4.000000,4.000000,4.000000,4.000000,4.000000,4.000000,4.000000,4.000000,4.000000,4.000000,4.000000,4.000000,4.000000,4.000000,4.000000,4.000000,83.333336
1614302262.778979,20.000000,0.000000,4.825840,6.208774,52.676960,9.027704,38.407108,19.041430,1.161306,3.442257,-2.749128,27.395535,-0.470465,8.367836,8.723457,2.129267,5.078140,-0.928693,12.945552,3.968758,-1.098557,0.165154,4.580304,3.761122,5.724711,-4.850820,1.261089,-1.779637,-9.818215,-1.533254,-6.616050,-23.576141,16.381111,41.846622,0.000000,182.000000,4.000000,,,,0.000000,4.000000,4.000000,4.000000,2.000000,4.000000,4.000000,4.000000,4.000000,4.000000,4.000000,4.000000,4.000000,4.000000,4.000000,4.000000,4.000000,4.000000,4.000000,4.000000,4.000000,4.000000,4.000000,4.000000,4.000000,4.000000,4.000000,4.000000,4.000000,4.000000,4.000000,4.000000,4.000000,83.333336
1614302262.786728,21.000000,0.000000,4.821014,11.330770,60.829411,11.069959,47.086651,22.099310,5.262709,6.515738,8.535673,36.598907,12.863338,8.872289,12.817298,14.434831,6.098702,11.379928,12.932606,11.144277,23.005106,9.395758,27.652647,9.398386,6.744627,-2.281866,1.772648,-1.777857,-7.757115,3.083664,-6.609434,-23.552567,15.851910,48.984261,0.000000,193.000000,4.000000,,,,0.000000,4.000000,4.000000,4.000000,2.000000,4.000000,4.000000,4.000000,4.000000,4.000000,4.000000,4.000000,4.000000,4.000000,4.000000,4.000000,4.000000,4.000000,4.000000,4.000000,4.000000,4.000000,4.000000,4.000000,4.000000,4.000000,4.000000,4.000000,4.000000,4.000000,4.000000,4.000000,4.000000,83.333336
1614302262.794378,22.000000,0.000000,3.277731,10.293797,57.178841,12.597350,51.142128,21.051571,8.847189,5.996401,14.168162,31.946924,20.542784,2.196750,14.342942,17.497318,10.195168,18.548035,13.945314,11.645953,39.392357,17.591490,36.855762,9.901808,0.071216,13.617852,2.796516,-1.776080,-8.774999,2.567760,-6.602825,-23.016193,15.323237,47.396816,0.000000,203.000000,4.000000,,,,0.000000,4.000000,4.000000,4.000000,2.000000,4.000000,4.000000,4.000000,4.000000,4.000000,4.000000,4.000000,4.000000,4.000000,4.000000,4.000000,4.000000,4.000000,4.000000,4.000000,4.000000,4.000000,4.000000,4.000000,4.000000,4.000000,4.000000,4.000000,4.000000,4.000000,4.000000,4.000000,4.000000,83.333336
1614302262.802127,23.000000,0.000000,-0.315290,5.668119,56.096020,13.097573,49.039703,21.030519,7.299881,5.990405,13.641174,28.325233,20.009420,-2.420832,13.815779,17.479820,13.774716,22.119230,9.315985,10.608665,38.327324,16.035437,16.306087,-1.390145,-8.646804,14.117054,-1.308844,-0.748662,-15.945711,-4.614295,-6.596222,-22.993177,15.820734,47.349419,0.000000,191.000000,4.000000,,,,0.000000,4.000000,4.000000,4.000000,2.000000,4.000000,4.000000,4.000000,4.000000,4.000000,4.000000,4.000000,4.000000,4.000000,4.000000,4.000000,4.000000,4.000000,4.000000,4.000000,4.000000,4.000000,4.000000,4.000000,4.000000,4.000000,4.000000,4.000000,4.000000,4.000000,4.000000,4.000000,4.000000,83.333336
1614302262.809776,24.000000,0.000000,-3.391898,7.200913,55.527103,15.135758,50.016304,21.522308,4.728478,6.497235,14.140353,26.758448,17.938128,-2.931231,14.314783,19.513624,13.760942,24.661213,2.640002,12.649339,31.622330,7.301454,-2.171758,-11.132344,-10.176619,-11.538088,-10.025484,-2.799196,-23.622072,-7.173783,-6.589626,-23.483004,16.317734,49.353352,0.000000,189.000000,4.000000,,,,0.000000,4.000000,4.000000,4.000000,2.000000,4.000000,4.000000,4.000000,4.000000,4.000000,4.000000,4.000000,4.000000,4.000000,4.000000,4.000000,4.000000,4.000000,4.000000,4.000000,4.000000,4.000000,4.000000,4.000000,4.000000,4.000000,4.000000,4.000000,4.000000,4.000000,4.000000,4.000000,4.000000,83.333336
1614302262.817525,25.000000,0.000000,-3.388506,9.244994,46.240807,16.146263,43.812443,19.962324,4.723750,3.926635,8.998008,19.039381,13.304806,-10.620607,13.787648,12.314623,14.260001,25.149372,1.098900,11.098228,20.821476,-1.936617,-10.374714,-15.223776,-8.627980,-27.936806,-15.656485,-1.770756,-24.624092,-5.628148,-6.583036,-22.946701,14.250134,42.124512,0.000000,191.000000,4.000000,,,,0.000000,4.000000,4.000000,4.000000,2.000000,4.000000,4.000000,4.000000,4.000000,4.000000,4.000000,4.000000,4.000000,4.000000,4.000000,4.000000,4.000000,4.000000,4.000000,4.000000,4.000000,4.000000,4.000000,4.000000,4.000000,4.000000,4.000000,4.000000,4.000000,4.000000,4.000000,4.000000,4.000000,83.333336
1614302262.825174,26.000000,0.000000,-3.897938,5.646006,36.963795,15.617296,30.948116,17.378260,4.719026,1.871427,-2.805862,7.738290,6.112014,-18.302296,9.158476,1.533077,12.194459,14.354993,2.636263,2.882002,6.441680,-8.088527,-27.287416,-22.900860,-9.644994,-26.370409,-16.666470,-0.743344,-23.061007,-6.135340,-6.576453,-22.410933,10.646141,31.313156,0.000000,182.000000,4.000000,,,,0.000000,4.000000,4.000000,4.000000,2.000000,4.000000,4.000000,4.000000,4.000000,4.000000,4.000000,4.000000,4.000000,4.000000,4.000000,4.000000,4.000000,4.000000,4.000000,4.000000,4.000000,4.000000,4.000000,4.000000,4.000000,4.000000,4.000000,4.000000,4.000000,4.000000,4.000000,4.000000,4.000000,83.333336
1614302262.832923,27.000000,0.000000,-3.894040,4.614718,35.901192,16.627321,25.276142,16.848061,4.714307,3.920837,-7.418441,3.115167,4.054620,-13.668608,3.508291,-2.571020,8.079700,-3.608080,1.095165,-5.326008,-5.872454,-9.106079,-45.721668,-31.083088,-9.635348,-28.908140,-17.162622,-9.460549,-24.063587,-6.642025,-6.569877,-25.465445,8.584212,28.204920,0.000000,199.000000,4.000000,,,,0.000000,4.000000,4.000000,4.000000,2.000000,4.000000,4.000000,4.000000,4.000000,4.000000,4.000000,4.000000,4.000000,4.000000,4.000000,4.000000,4.000000,4.000000,4.000000,4.000000,4.000000,4.000000,4.000000,4.000000,4.000000,4.000000,4.000000,4.000000,4.000000,4.000000,4.000000,4.000000,4.000000,83.333336
1614302262.840572,28.000000,0.000000,-1.326043,5.635745,36.890930,14.559411,26.276506,17.344034,4.709593,5.968198,-4.846920,3.624873,2.512103,-6.475452,2.479142,-7.696654,4.994698,-15.912165,3.658173,-10.448888,-14.584530,-9.096973,-49.778511,-31.052004,-9.112893,-34.520256,-17.145460,-20.733139,-24.039522,-6.122563,-6.563307,-30.055365,5.498705,27.663895,0.000000,170.000000,4.000000,,,,0.000000,4.000000,4.000000,4.000000,2.000000,4.000000,4.000000,4.000000,4.000000,4.000000,4.000000,4.000000,4.000000,4.000000,4.000000,4.000000,4.000000,4.000000,4.000000,4.000000,4.000000,4.000000,4.000000,4.000000,4.000000,4.000000,4.000000,4.000000,4.000000,4.000000,4.000000,4.000000,4.000000,83.333336
