title:29, start timestamp:1614304346.043236, stop timestamp:1614304391.825931, headset type:EPOCFLEX, headset serial:F00001ED, headset firmware:f12, subject name:s09, channels:75, sampling rate:128, samples:5913      , version:2.0
Timestamp,EEG.Counter,EEG.Interpolated,EEG.Cz,EEG.Fz,EEG.Fp1,EEG.AF3,EEG.F7,EEG.F3,EEG.FC1,EEG.C3,EEG.FC5,EEG.T7,EEG.CP5,EEG.CP1,EEG.P3,EEG.P7,EEG.PO3,EEG.O1,EEG.Pz,EEG.Oz,EEG.O2,EEG.PO4,EEG.P8,EEG.P4,EEG.CP2,EEG.CP6,EEG.T8,EEG.FC6,EEG.C4,EEG.FC2,EEG.F4,EEG.F8,EEG.AF4,EEG.Fp2,EEG.HighBitFlex,EEG.RawCq,EEG.Battery,MarkerIndex,MarkerType,MarkerValueInt,EEG.MarkerHardware,CQ.Cz,CQ.Fz,CQ.Fp1,CQ.AF3,CQ.F7,CQ.F3,CQ.FC1,CQ.C3,CQ.FC5,CQ.T7,CQ.CP5,CQ.CP1,CQ.P3,CQ.P7,CQ.PO3,CQ.O1,CQ.Pz,CQ.Oz,CQ.O2,CQ.PO4,CQ.P8,CQ.P4,CQ.CP2,CQ.CP6,CQ.T8,CQ.FC6,CQ.C4,CQ.FC2,CQ.F4,CQ.F8,CQ.AF4,CQ.Fp2,CQ.Overall
1614304346.043236,62.000000,0.000000,15.630301,5.673835,-131.634888,17.780798,28.303333,23.201042,13.556614,19.892609,12.681913,19.043327,27.330809,19.123375,33.520206,48.803696,38.253517,48.181118,20.061047,42.632362,51.653275,38.217995,53.658478,34.933342,23.242487,38.959480,41.907524,16.256962,23.535332,8.593656,21.268847,16.166033,17.056149,-15.122246,8064.000000,0.000000,4.000000,,,,0.000000,4.000000,4.000000,4.000000,4.000000,4.000000,4.000000,4.000000,4.000000,4.000000,4.000000,4.000000,4.000000,4.000000,4.000000,4.000000,4.000000,4.000000,4.000000,4.000000,4.000000,4.000000,4.000000,4.000000,4.000000,4.000000,4.000000,4.000000,4.000000,4.000000,4.000000,4.000000,4.000000,100.000000
1614304346.051085,63.000000,0.000000,13.050569,7.206623,-132.016068,17.250196,26.223749,25.229122,16.619980,14.231689,12.156411,17.998642,17.559889,13.463225,11.948225,28.754892,25.907572,28.645758,8.758935,29.256397,42.370853,31.000288,40.784306,20.026613,13.475656,39.946159,33.147667,7.009936,7.614361,8.585062,20.734756,8.457559,18.064734,-15.619944,8192.000000,0.000000,4.000000,,,,0.000000,4.000000,4.000000,4.000000,4.000000,4.000000,4.000000,4.000000,4.000000,4.000000,4.000000,4.000000,4.000000,4.000000,4.000000,4.000000,4.000000,4.000000,4.000000,4.000000,4.000000,4.000000,4.000000,4.000000,4.000000,4.000000,4.000000,4.000000,4.000000,4.000000,4.000000,4.000000,4.000000,100.000000
1614304346.058834,64.000000,0.000000,1.755467,7.712237,-132.909698,18.258587,20.556499,25.203894,9.423873,0.371304,9.580153,16.442183,6.773098,-1.422032,-10.115005,2.572290,9.471409,-1.126478,-7.147260,11.791244,20.277199,10.456467,15.615316,-3.583157,-1.409615,29.136984,20.806828,4.438824,-6.239407,8.576477,21.739662,9.987562,19.585129,-13.553041,0.000000,207.000000,4.000000,,,,0.000000,4.000000,4.000000,4.000000,4.000000,4.000000,4.000000,4.000000,4.000000,4.000000,4.000000,4.000000,4.000000,4.000000,4.000000,4.000000,4.000000,4.000000,4.000000,4.000000,4.000000,4.000000,4.000000,4.000000,4.000000,4.000000,4.000000,4.000000,4.000000,4.000000,4.000000,4.000000,4.000000,100.000000
1614304346.066683,65.000000,0.000000,-4.400135,7.191704,-133.289597,17.727509,17.971840,22.101767,1.209321,-9.372657,3.416726,13.861638,6.253504,-12.189841,-20.874121,-11.276436,-13.614985,-23.176634,-16.883703,-5.143625,-7.435386,-7.502707,-16.195171,-22.553932,-12.177436,6.030923,0.786020,-5.309205,-6.233168,8.567901,21.205103,-1.817297,12.386057,-25.334360,0.000000,213.000000,4.000000,,,,0.000000,4.000000,4.000000,4.000000,4.000000,4.000000,4.000000,4.000000,4.000000,4.000000,4.000000,4.000000,4.000000,4.000000,4.000000,4.000000,4.000000,4.000000,4.000000,4.000000,4.000000,4.000000,4.000000,4.000000,4.000000,4.000000,4.000000,4.000000,4.000000,4.000000,4.000000,4.000000,4.000000,100.000000
1614304346.074432,66.000000,0.000000,-2.857273,5.646051,-139.310165,13.607217,16.415407,20.541204,0.695291,-6.286361,0.336386,14.873417,8.298532,-13.203292,-28.545555,-25.111313,-39.242397,-48.794483,-18.405281,-25.651302,-30.504873,-22.366999,-41.820000,-32.787788,-15.242182,-12.436646,-14.086560,-16.585947,-4.688473,8.559333,21.183897,-19.251377,-0.446842,-50.950050,0.000000,193.000000,4.000000,,,,0.000000,4.000000,4.000000,4.000000,4.000000,4.000000,4.000000,4.000000,4.000000,4.000000,4.000000,4.000000,4.000000,4.000000,4.000000,4.000000,4.000000,4.000000,4.000000,4.000000,4.000000,4.000000,4.000000,4.000000,4.000000,4.000000,4.000000,4.000000,4.000000,4.000000,4.000000,4.000000,4.000000,100.000000
1614304346.082281,67.000000,0.000000,-2.854416,3.589123,-150.452896,10.003866,5.629761,21.033484,1.720237,-4.228793,0.848870,10.755980,-1.453356,-12.677269,-38.260597,-49.701588,-56.639053,-76.437996,-19.925337,-46.651291,-44.833344,-43.883095,-59.726898,-39.934490,-15.739760,-21.654980,-21.251961,-18.620644,-6.735066,8.550774,21.162714,-23.334690,-5.574600,-56.540127,0.000000,173.000000,4.000000,,,,0.000000,4.000000,4.000000,4.000000,4.000000,4.000000,4.000000,4.000000,4.000000,4.000000,4.000000,4.000000,4.000000,4.000000,4.000000,4.000000,4.000000,4.000000,4.000000,4.000000,4.000000,4.000000,4.000000,4.000000,4.000000,4.000000,4.000000,4.000000,4.000000,4.000000,4.000000,4.000000,4.000000,100.000000
1614304346.090030,68.000000,0.000000,-3.877203,3.072713,-154.917831,10.506682,-2.068177,22.038090,0.692876,-5.763025,0.335201,-6.177854,-17.862160,-13.690232,-46.940289,-69.651886,-65.300362,-93.797455,-22.469515,-66.091820,-54.532101,-53.069981,-65.308197,-40.920197,-15.724020,-28.299990,-23.794811,-17.063560,-5.702691,8.542223,21.141552,-25.875458,-4.543384,-41.098972,0.000000,203.000000,4.000000,,,,0.000000,4.000000,4.000000,4.000000,4.000000,4.000000,4.000000,4.000000,4.000000,4.000000,4.000000,4.000000,4.000000,4.000000,4.000000,4.000000,4.000000,4.000000,4.000000,4.000000,4.000000,4.000000,4.000000,4.000000,4.000000,4.000000,4.000000,4.000000,4.000000,4.000000,4.000000,4.000000,4.000000,100.000000
1614304346.097879,69.000000,0.000000,-3.360505,3.582461,-154.762909,11.008997,-2.578929,19.451950,0.692183,-5.244442,0.334866,-17.453728,-22.459681,-13.163722,-43.303604,-68.043770,-62.158138,-92.165199,-22.447044,-69.615471,-59.092953,-42.247681,-55.499298,-36.263889,-14.169835,-31.348614,-24.283838,-17.046497,-2.620065,8.533680,21.120409,-33.541889,-4.538841,-47.724541,0.000000,184.000000,4.000000,,,,0.000000,4.000000,4.000000,4.000000,4.000000,4.000000,4.000000,4.000000,4.000000,4.000000,4.000000,4.000000,4.000000,4.000000,4.000000,4.000000,4.000000,4.000000,4.000000,4.000000,4.000000,4.000000,4.000000,4.000000,4.000000,4.000000,4.000000,4.000000,4.000000,4.000000,4.000000,4.000000,4.000000,100.000000
1614304346.105628,70.000000,0.000000,-2.844324,3.578879,-160.249176,7.408244,-6.166094,11.227369,1.204311,-4.726377,0.847351,-17.436274,-17.821836,-12.637737,-25.824402,-50.027008,-48.762646,-70.021751,-21.398956,-51.597137,-53.392834,-33.487484,-38.520725,-31.099421,-11.591562,-28.753162,-24.772373,-17.029451,-1.078983,6.473865,21.099289,-26.841681,-5.047122,-74.856300,0.000000,219.000000,4.000000,,,,0.000000,4.000000,4.000000,4.000000,4.000000,4.000000,4.000000,4.000000,4.000000,4.000000,4.000000,4.000000,4.000000,4.000000,4.000000,4.000000,4.000000,4.000000,4.000000,4.000000,4.000000,4.000000,4.000000,4.000000,4.000000,4.000000,4.000000,4.000000,4.000000,4.000000,4.000000,4.000000,4.000000,100.000000
1614304346.113477,71.000000,0.000000,-2.841480,3.575300,-169.319702,3.811092,-9.236851,5.062296,1.203107,-4.721651,0.333683,-17.931658,-14.727092,-12.625099,-13.490886,-29.464163,-30.765165,-39.695316,-21.890377,-30.519899,-33.852261,-26.787329,-22.584766,-22.863194,-10.554330,-25.647486,-19.619396,-17.525242,-1.590725,4.928929,21.078190,-9.378942,-4.529255,-74.268623,0.000000,220.000000,4.000000,,,,0.000000,4.000000,4.000000,4.000000,4.000000,4.000000,4.000000,4.000000,4.000000,4.000000,4.000000,4.000000,4.000000,4.000000,4.000000,4.000000,4.000000,4.000000,4.000000,4.000000,4.000000,4.000000,4.000000,4.000000,4.000000,4.000000,4.000000,4.000000,4.000000,4.000000,4.000000,4.000000,4.000000,100.000000
1614304346.121226,72.000000,0.000000,-2.838638,3.571724,-172.227295,2.781640,-10.253255,6.082875,1.201904,-4.716929,0.846170,-13.298341,-10.609801,-12.612474,-13.477394,-13.537262,-14.324144,-12.988955,-21.355667,-12.027842,-3.049178,-12.914388,-6.151926,-13.096741,-10.543776,-19.467993,-5.240803,-14.943614,-1.589134,4.924000,21.057112,-2.190076,-4.524726,-47.014870,0.000000,199.000000,4.000000,,,,0.000000,4.000000,4.000000,4.000000,4.000000,4.000000,4.000000,4.000000,4.000000,4.000000,4.000000,4.000000,4.000000,4.000000,4.000000,4.000000,4.000000,4.000000,4.000000,4.000000,4.000000,4.000000,4.000000,4.000000,4.000000,4.000000,4.000000,4.000000,4.000000,4.000000,4.000000,4.000000,4.000000,100.000000
1614304346.128975,73.000000,0.000000,-2.835799,3.568153,-168.465332,2.266038,-9.217360,6.589612,1.200702,-4.712212,2.896606,-4.054274,-3.932524,-12.599862,-14.489558,-2.241673,-4.566230,8.562496,-20.821491,9.522648,21.056435,-4.183525,6.674739,-7.955439,-12.071693,-11.243397,4.508028,-9.800466,-1.074724,4.919076,21.036055,-3.726347,-4.007380,-40.814007,0.000000,202.000000,4.000000,,,,0.000000,4.000000,4.000000,4.000000,4.000000,4.000000,4.000000,4.000000,4.000000,4.000000,4.000000,4.000000,4.000000,4.000000,4.000000,4.000000,4.000000,4.000000,4.000000,4.000000,4.000000,4.000000,4.000000,4.000000,4.000000,4.000000,4.000000,4.000000,4.000000,4.000000,4.000000,4.000000,4.000000,100.000000
1614304346.136724,74.000000,0.000000,-2.832964,3.564584,-162.655838,3.802233,0.022626,4.531741,0.686680,-4.707500,4.432171,-1.486117,-0.338848,-13.612904,-13.449428,2.375953,-3.023202,18.297523,-22.339130,21.307997,25.137943,-5.204982,12.821911,-8.973125,-14.623724,-8.668051,3.477879,-8.765024,-2.099291,4.914157,21.015018,-3.722621,-4.003373,-54.106529,0.000000,214.000000,4.000000,,,,0.000000,4.000000,4.000000,4.000000,4.000000,4.000000,4.000000,4.000000,4.000000,4.000000,4.000000,4.000000,4.000000,4.000000,4.000000,4.000000,4.000000,4.000000,4.000000,4.000000,4.000000,4.000000,4.000000,4.000000,4.000000,4.000000,4.000000,4.000000,4.000000,4.000000,4.000000,4.000000,4.000000,100.000000
1614304346.144373,75.000000,0.000000,-4.368592,3.561020,-157.877792,7.900995,14.381577,8.629773,1.198814,-4.702792,4.427739,1.079472,-0.851330,-12.573649,-13.435978,1.347936,-3.533000,18.792046,-21.803970,20.261047,21.523062,-5.712598,11.270627,-12.553895,-14.609100,-10.197844,3.474401,-9.269079,-4.661294,4.909243,21.506824,0.383666,-5.025011,-55.078064,0.000000,198.000000,4.000000,,,,0.000000,4.000000,4.000000,4.000000,4.000000,4.000000,4.000000,4.000000,4.000000,4.000000,4.000000,4.000000,4.000000,4.000000,4.000000,4.000000,4.000000,4.000000,4.000000,4.000000,4.000000,4.000000,4.000000,4.000000,4.000000,4.000000,4.000000,4.000000,4.000000,4.000000,4.000000,4.000000,4.000000,100.000000
1614304346.152123,76.000000,0.000000,-6.415506,3.557459,-153.104538,10.970017,18.469761,15.800631,1.197616,-5.723731,5.448952,9.796341,-1.363299,-13.073896,-15.473825,1.346588,-3.016646,17.747612,-16.653963,19.727966,20.475897,-5.194065,0.490126,-15.618264,-15.107312,-9.674826,3.983747,-6.695708,-5.682273,4.904334,20.972496,4.485846,-1.430242,-49.381958,0.000000,197.000000,4.000000,,,,0.000000,4.000000,4.000000,4.000000,4.000000,4.000000,4.000000,4.000000,4.000000,4.000000,4.000000,4.000000,4.000000,4.000000,4.000000,4.000000,4.000000,4.000000,4.000000,4.000000,4.000000,4.000000,4.000000,4.000000,4.000000,4.000000,4.000000,4.000000,4.000000,4.000000,4.000000,4.000000,4.000000,100.000000
1614304346.159772,77.000000,0.000000,-6.921911,3.553901,-149.874512,10.446227,16.912828,18.348932,-0.854864,-4.692366,7.494785,14.401930,-1.361936,-15.112104,-18.535273,-2.244502,-7.116194,3.883712,-14.586026,16.118496,16.865679,-6.727332,-12.843698,-18.679569,-16.630667,-10.177971,2.441302,-5.150550,-5.163771,4.899429,20.951525,3.968540,5.237855,-46.255653,0.000000,197.000000,4.000000,,,,0.000000,4.000000,4.000000,4.000000,4.000000,4.000000,4.000000,4.000000,4.000000,4.000000,4.000000,4.000000,4.000000,4.000000,4.000000,4.000000,4.000000,4.000000,4.000000,4.000000,4.000000,4.000000,4.000000,4.000000,4.000000,4.000000,4.000000,4.000000,4.000000,4.000000,4.000000,4.000000,4.000000,100.000000
1614304346.167521,78.000000,0.000000,-3.838066,3.037527,-150.237457,10.435781,17.408737,16.792122,4.274196,-2.123571,8.000111,13.361887,-1.873395,-8.943146,-18.003918,-10.447386,-12.237283,-18.684275,-14.571440,4.820325,7.618043,-5.694963,-17.446239,-17.635248,-10.460189,-10.680614,3.464501,-5.658220,-5.671427,3.868889,21.443394,4.990212,7.283899,-35.440166,0.000000,201.000000,4.000000,,,,0.000000,4.000000,4.000000,4.000000,4.000000,4.000000,4.000000,4.000000,4.000000,4.000000,4.000000,4.000000,4.000000,4.000000,4.000000,4.000000,4.000000,4.000000,4.000000,4.000000,4.000000,4.000000,4.000000,4.000000,4.000000,4.000000,4.000000,4.000000,4.000000,4.000000,4.000000,4.000000,4.000000,100.000000
1614304346.175170,79.000000,0.000000,2.319618,3.547310,-149.574402,10.938166,17.904148,17.288151,14.013512,-1.608627,8.504931,14.374166,-1.358701,1.835028,-15.421811,-15.052323,-12.737865,-29.947641,-5.838920,-0.825521,0.943758,-6.202089,-17.428793,-11.976587,-2.244601,-10.157113,2.948216,-5.652562,-5.665756,5.403481,18.345026,10.113427,6.763794,-30.276522,0.000000,202.000000,4.000000,,,,0.000000,4.000000,4.000000,4.000000,4.000000,4.000000,4.000000,4.000000,4.000000,4.000000,4.000000,4.000000,4.000000,4.000000,4.000000,4.000000,4.000000,4.000000,4.000000,4.000000,4.000000,4.000000,4.000000,4.000000,4.000000,4.000000,4.000000,4.000000,4.000000,4.000000,4.000000,4.000000,4.000000,100.000000
1614304346.182919,80.000000,0.000000,4.368581,3.543763,-146.347900,10.414407,17.886244,17.270863,13.999497,0.444264,6.957965,12.821330,-1.870162,5.935757,-15.406389,-16.575733,-13.750769,-30.943335,3.910509,-0.824695,-0.082826,-7.734349,-16.385723,-4.785123,0.321746,-10.659776,-2.182937,-6.159730,-5.147270,5.398078,13.711297,11.641775,6.757031,-40.502655,0.000000,200.000000,4.000000,,,,0.000000,4.000000,4.000000,4.000000,4.000000,4.000000,4.000000,4.000000,4.000000,4.000000,4.000000,4.000000,4.000000,4.000000,4.000000,4.000000,4.000000,4.000000,4.000000,4.000000,4.000000,4.000000,4.000000,4.000000,4.000000,4.000000,4.000000,4.000000,4.000000,4.000000,4.000000,4.000000,4.000000,100.000000
1614304346.190568,81.000000,0.000000,3.338571,2.514578,-145.688736,10.403993,18.893999,17.253592,8.344473,7.110487,8.489469,15.372611,-1.868292,10.545206,-9.237137,-15.533516,-10.660095,-27.835468,7.496342,-1.849512,-0.082744,-1.572768,-10.215490,-1.190595,5.449630,-10.649117,-1.155113,-4.615109,-3.090840,3.341398,12.671945,8.040390,6.750274,-43.539078,0.000000,203.000000,4.000000,,,,0.000000,4.000000,4.000000,4.000000,4.000000,4.000000,4.000000,4.000000,4.000000,4.000000,4.000000,4.000000,4.000000,4.000000,4.000000,4.000000,4.000000,4.000000,4.000000,4.000000,4.000000,4.000000,4.000000,4.000000,4.000000,4.000000,4.000000,4.000000,4.000000,4.000000,4.000000,4.000000,4.000000,100.000000
1614304346.198317,82.000000,0.000000,8.976258,5.076166,-146.568680,10.393588,21.439207,19.800440,11.413052,12.744402,15.147646,23.562366,4.800242,19.252609,3.592613,-4.748752,1.658257,-18.576864,10.052948,2.767723,0.430160,10.736497,-5.077070,3.425981,14.674950,-3.458980,9.615273,0.517711,2.040456,8.466262,13.684914,7.006708,7.256344,-30.162203,0.000000,207.000000,4.000000,,,,0.000000,4.000000,4.000000,4.000000,4.000000,4.000000,4.000000,4.000000,4.000000,4.000000,4.000000,4.000000,4.000000,4.000000,4.000000,4.000000,4.000000,4.000000,4.000000,4.000000,4.000000,4.000000,4.000000,4.000000,4.000000,4.000000,4.000000,4.000000,4.000000,4.000000,4.000000,4.000000,4.000000,100.000000
1614304346.205967,83.000000,0.000000,18.198051,10.199295,-144.883652,10.383195,20.904947,20.806280,17.042664,14.270119,17.183781,18.410599,12.487750,20.258997,8.717226,4.486766,10.374548,-9.840339,13.119818,6.867519,0.942550,13.802684,-4.046352,9.576401,16.198736,7.826530,15.246683,7.183860,8.192262,18.201385,13.158408,8.025343,12.890113,-19.875631,0.000000,203.000000,4.000000,,,,0.000000,4.000000,4.000000,4.000000,4.000000,4.000000,4.000000,4.000000,4.000000,4.000000,4.000000,4.000000,4.000000,4.000000,4.000000,4.000000,4.000000,4.000000,4.000000,4.000000,4.000000,4.000000,4.000000,4.000000,4.000000,4.000000,4.000000,4.000000,4.000000,4.000000,4.000000,4.000000,4.000000,100.000000
1614304346.213815,84.000000,0.000000,18.179853,11.214737,-147.302872,10.372811,11.140453,18.734192,14.974339,12.204567,9.987109,-2.633452,14.013724,16.648994,4.605945,-0.645925,8.825711,-8.804857,10.029776,1.219626,-1.109675,6.609394,-5.067947,8.028362,14.131255,12.434089,13.692975,9.740779,10.235351,17.157543,13.145250,7.504497,15.441326,-22.419859,0.000000,184.000000,4.000000,,,,0.000000,4.000000,4.000000,4.000000,4.000000,4.000000,4.000000,4.000000,4.000000,4.000000,4.000000,4.000000,4.000000,4.000000,4.000000,4.000000,4.000000,4.000000,4.000000,4.000000,4.000000,4.000000,4.000000,4.000000,4.000000,4.000000,4.000000,4.000000,4.000000,4.000000,4.000000,4.000000,4.000000,100.000000
1614304346.221565,85.000000,0.000000,15.084750,10.690701,-155.360703,10.362438,1.385723,16.664177,11.882442,7.576977,6.900199,-12.374409,12.461248,17.145166,3.575697,-3.209382,6.765604,-9.308873,4.891541,-0.320055,-5.723949,1.474579,-7.626981,3.404950,15.655585,11.908834,14.192102,8.705398,9.199474,8.935257,13.644925,7.496992,11.836141,-36.756413,0.000000,190.000000,4.000000,,,,0.000000,4.000000,4.000000,4.000000,4.000000,4.000000,4.000000,4.000000,4.000000,4.000000,4.000000,4.000000,4.000000,4.000000,4.000000,4.000000,4.000000,4.000000,4.000000,4.000000,4.000000,4.000000,4.000000,4.000000,4.000000,4.000000,4.000000,4.000000,4.000000,4.000000,4.000000,4.000000,4.000000,100.000000
1614304346.229414,86.000000,0.000000,15.582486,13.756933,-155.718155,10.864897,6.512542,17.160334,11.870560,6.030939,8.431761,-3.644085,13.474428,13.538278,5.623404,2.434853,6.246018,-9.812385,4.373828,6.346931,-8.282328,0.960284,-9.157816,1.350263,10.511724,12.409745,13.152269,9.209513,9.190275,7.387860,13.631280,7.489495,10.798664,-47.488888,0.000000,192.000000,4.000000,,,,0.000000,4.000000,4.000000,4.000000,4.000000,4.000000,4.000000,4.000000,4.000000,4.000000,4.000000,4.000000,4.000000,4.000000,4.000000,4.000000,4.000000,4.000000,4.000000,4.000000,4.000000,4.000000,4.000000,4.000000,4.000000,4.000000,4.000000,4.000000,4.000000,4.000000,4.000000,4.000000,4.000000,100.000000
1614304346.237163,87.000000,0.000000,14.541263,13.743176,-149.921417,10.854032,13.685517,17.655993,12.371510,6.537728,7.910508,6.615969,13.460954,8.909355,2.540857,0.893957,4.188490,-10.315392,3.343813,4.289302,-5.197123,0.446503,-9.148658,-2.240831,-0.268018,10.346053,10.575014,9.713123,9.693906,9.431754,13.617649,7.482006,13.864788,-43.338833,0.000000,171.000000,4.000000,,,,0.000000,4.000000,4.000000,4.000000,4.000000,4.000000,4.000000,4.000000,4.000000,4.000000,4.000000,4.000000,4.000000,4.000000,4.000000,4.000000,4.000000,4.000000,4.000000,4.000000,4.000000,4.000000,4.000000,4.000000,4.000000,4.000000,4.000000,4.000000,4.000000,4.000000,4.000000,4.000000,4.000000,100.000000
1614304346.245012,88.000000,0.000000,11.962619,8.088408,-153.874054,9.817536,8.543626,16.099874,12.359138,4.992729,7.389777,9.173455,12.934672,8.900446,-5.153991,-4.235142,3.158660,-9.279436,-1.274915,0.182449,-7.756028,-5.194969,-13.754894,-8.905257,-4.883134,3.669041,10.564440,8.164948,9.171391,8.396682,13.604032,7.987344,12.825282,-41.244213,0.000000,191.000000,4.000000,,,,0.000000,4.000000,4.000000,4.000000,4.000000,4.000000,4.000000,4.000000,4.000000,4.000000,4.000000,4.000000,4.000000,4.000000,4.000000,4.000000,4.000000,4.000000,4.000000,4.000000,4.000000,4.000000,4.000000,4.000000,4.000000,4.000000,4.000000,4.000000,4.000000,4.000000,4.000000,4.000000,4.000000,100.000000
1614304346.252761,89.000000,0.000000,11.437836,6.541858,-161.925308,10.833361,1.868416,13.519673,9.782676,2.423634,7.895208,7.113000,12.921738,5.301802,-11.815504,-4.743728,-6.588088,-21.065029,-4.350563,-1.869016,-22.107246,-18.523108,-20.920626,-15.050198,-4.878251,-1.462833,7.476952,5.592681,9.162220,7.875464,13.077607,6.953716,8.709893,-54.536301,0.000000,168.000000,4.000000,,,,0.000000,4.000000,4.000000,4.000000,4.000000,4.000000,4.000000,4.000000,4.000000,4.000000,4.000000,4.000000,4.000000,4.000000,4.000000,4.000000,4.000000,4.000000,4.000000,4.000000,4.000000,4.000000,4.000000,4.000000,4.000000,4.000000,4.000000,4.000000,4.000000,4.000000,4.000000,4.000000,4.000000,100.000000
1614304346.260610,90.000000,0.000000,9.887937,7.560957,-163.301849,11.335347,1.866548,12.993333,5.157509,1.908390,7.887312,5.567425,12.908816,2.219577,-16.419073,-11.405651,-22.478935,-41.043964,-3.320572,-16.226120,-30.803087,-26.709713,-21.412527,-15.035148,-3.847732,-3.512653,3.366911,4.561448,9.153057,8.380409,14.090170,7.459583,6.649901,-66.276634,0.000000,191.000000,4.000000,,,,0.000000,4.000000,4.000000,4.000000,4.000000,4.000000,4.000000,4.000000,4.000000,4.000000,4.000000,4.000000,4.000000,4.000000,4.000000,4.000000,4.000000,4.000000,4.000000,4.000000,4.000000,4.000000,4.000000,4.000000,4.000000,4.000000,4.000000,4.000000,4.000000,4.000000,4.000000,4.000000,4.000000,100.000000
1614304346.268359,91.000000,0.000000,8.339587,5.502114,-166.215469,5.682986,1.351861,13.493160,4.126710,2.419302,7.879425,6.074678,12.895907,7.858383,-14.351372,-15.496809,-18.866713,-36.900356,-4.342892,-22.876562,-24.618439,-17.452234,-14.211626,-7.840625,2.309962,-3.509140,5.927647,5.069706,9.143905,8.372029,14.076080,7.964944,3.566328,-66.723183,0.000000,208.000000,4.000000,,,,0.000000,4.000000,4.000000,4.000000,4.000000,4.000000,4.000000,4.000000,4.000000,4.000000,4.000000,4.000000,4.000000,4.000000,4.000000,4.000000,4.000000,4.000000,4.000000,4.000000,4.000000,4.000000,4.000000,4.000000,4.000000,4.000000,4.000000,4.000000,4.000000,4.000000,4.000000,4.000000,4.000000,100.000000
1614304346.276208,92.000000,0.000000,10.382529,2.932509,-172.715912,-0.476543,-1.213594,13.992487,4.635404,2.416883,7.871546,6.068604,12.883012,13.491550,-4.080610,-2.147979,0.639333,-10.709609,-2.800088,-4.904967,-14.337410,-2.562986,-5.479466,-1.166118,7.435857,-0.941528,10.537104,5.064637,9.134761,8.363657,9.959440,4.880056,-2.591084,-64.605179,0.000000,197.000000,4.000000,,,,0.000000,4.000000,4.000000,4.000000,4.000000,4.000000,4.000000,4.000000,4.000000,4.000000,4.000000,4.000000,4.000000,4.000000,4.000000,4.000000,4.000000,4.000000,4.000000,4.000000,4.000000,4.000000,4.000000,4.000000,4.000000,4.000000,4.000000,4.000000,4.000000,4.000000,4.000000,4.000000,4.000000,100.000000
1614304346.283957,93.000000,0.000000,10.372147,3.442397,-174.081665,-1.501707,-1.725201,13.465674,4.630769,2.414466,7.863674,6.062535,13.382949,12.965238,5.667060,10.161861,10.382283,2.634434,3.869379,7.407630,-3.553842,2.567782,1.192680,1.399151,6.915601,1.110695,10.013746,5.059572,9.125626,8.355293,5.846916,1.285432,-5.152596,-60.950829,0.000000,182.000000,4.000000,,,,0.000000,4.000000,4.000000,4.000000,4.000000,4.000000,4.000000,4.000000,4.000000,4.000000,4.000000,4.000000,4.000000,4.000000,4.000000,4.000000,4.000000,4.000000,4.000000,4.000000,4.000000,4.000000,4.000000,4.000000,4.000000,4.000000,4.000000,4.000000,4.000000,4.000000,4.000000,4.000000,4.000000,100.000000
1614304346.291806,94.000000,0.000000,7.797672,3.438955,-172.881943,-0.474564,-1.210655,12.939388,4.113317,2.412051,7.855811,5.030832,12.856746,12.439452,7.199854,11.690161,13.448824,2.631800,8.480894,8.425864,8.757404,10.770342,6.832513,7.038777,8.447146,0.596764,9.490911,5.054513,9.116500,8.346938,5.841069,2.309788,-4.121802,-58.325775,0.000000,211.000000,4.000000,,,,0.000000,4.000000,4.000000,4.000000,4.000000,4.000000,4.000000,4.000000,4.000000,4.000000,4.000000,4.000000,4.000000,4.000000,4.000000,4.000000,4.000000,4.000000,4.000000,4.000000,4.000000,4.000000,4.000000,4.000000,4.000000,4.000000,4.000000,4.000000,4.000000,4.000000,4.000000,4.000000,4.000000,100.000000
1614304346.299555,95.000000,0.000000,7.277054,3.435516,-173.221878,-0.986910,-1.209445,13.952089,4.622025,2.409639,7.847955,6.051442,13.356709,12.939834,7.705475,20.396420,20.614862,11.859937,7.959593,23.289232,16.953775,24.605726,11.953886,13.185584,9.977161,2.647449,10.507062,5.049458,11.158666,8.338592,6.348049,4.358760,-4.630501,-61.344372,0.000000,174.000000,4.000000,,,,0.000000,4.000000,4.000000,4.000000,4.000000,4.000000,4.000000,4.000000,4.000000,4.000000,4.000000,4.000000,4.000000,4.000000,4.000000,4.000000,4.000000,4.000000,4.000000,4.000000,4.000000,4.000000,4.000000,4.000000,4.000000,4.000000,4.000000,4.000000,4.000000,4.000000,4.000000,4.000000,4.000000,100.000000
1614304346.307404,96.000000,0.000000,8.295418,3.432081,-172.023010,-0.985923,-0.695415,14.450958,4.617403,2.407229,7.840107,6.558211,13.343352,12.926893,8.723411,26.017048,22.132710,23.642948,7.438813,33.522354,18.475283,23.555479,5.788085,6.505732,4.838979,5.208905,10.496554,5.044409,13.198789,8.330253,5.828880,4.354401,-4.625871,-63.847130,8064.000000,0.000000,4.000000,,,,0.000000,4.000000,4.000000,4.000000,4.000000,4.000000,4.000000,4.000000,4.000000,4.000000,4.000000,4.000000,4.000000,4.000000,4.000000,4.000000,4.000000,4.000000,4.000000,4.000000,4.000000,4.000000,4.000000,4.000000,4.000000,4.000000,4.000000,4.000000,4.000000,4.000000,4.000000,4.000000,4.000000,100.000000
1614304346.315153,97.000000,0.000000,7.774302,1.377366,-173.902283,-0.472117,-3.771642,6.744200,4.612785,2.404822,7.832267,1.423448,9.227445,11.888326,2.560841,13.683339,14.418268,16.952639,7.431374,18.104216,10.764500,7.121667,-14.730523,-4.270004,-1.319706,2.126773,9.973238,5.039364,11.134308,8.321922,5.823051,3.837226,-4.108424,-65.834564,8064.000000,0.000000,4.000000,,,,0.000000,4.000000,4.000000,4.000000,4.000000,4.000000,4.000000,4.000000,4.000000,4.000000,4.000000,4.000000,4.000000,4.000000,4.000000,4.000000,4.000000,4.000000,4.000000,4.000000,4.000000,4.000000,4.000000,4.000000,4.000000,4.000000,4.000000,4.000000,4.000000,4.000000,4.000000,4.000000,4.000000,100.000000
1614304346.323002,98.000000,0.000000,7.253707,-0.162472,-182.446320,-0.471645,-8.383255,3.147712,4.608172,1.889597,7.824434,-5.244642,4.602833,6.748232,-6.159668,2.900425,3.121799,-0.500211,7.423943,3.214317,-5.656521,-0.577762,-30.613228,-5.804196,-1.318387,-5.054842,9.450444,4.521504,8.559072,8.313601,6.330049,3.833389,-5.129957,-65.255913,8064.000000,0.000000,4.000000,,,,0.000000,4.000000,4.000000,4.000000,4.000000,4.000000,4.000000,4.000000,4.000000,4.000000,4.000000,4.000000,4.000000,4.000000,4.000000,4.000000,4.000000,4.000000,4.000000,4.000000,4.000000,4.000000,4.000000,4.000000,4.000000,4.000000,4.000000,4.000000,4.000000,4.000000,4.000000,4.000000,4.000000,100.000000
1614304346.330751,99.000000,0.000000,7.759274,-0.675130,-186.366440,-0.471173,-8.887692,7.759949,4.603564,2.400528,7.816610,-6.265039,5.111051,2.638920,-8.204791,1.871884,-3.547990,-13.320224,7.929339,1.672641,-15.394454,1.474097,-31.095436,-8.875315,-0.291427,-8.126710,10.979455,6.055444,9.063333,8.305286,6.323719,4.855196,-7.176109,-58.523987,8064.000000,0.000000,4.000000,,,,0.000000,4.000000,4.000000,4.000000,4.000000,4.000000,4.000000,4.000000,4.000000,4.000000,4.000000,4.000000,4.000000,4.000000,4.000000,4.000000,4.000000,4.000000,4.000000,4.000000,4.000000,4.000000,4.000000,4.000000,4.000000,4.000000,4.000000,4.000000,4.000000,4.000000,4.000000,4.000000,4.000000,100.000000
1614304346.338600,100.000000,0.000000,8.264336,-0.161635,-184.641617,0.042118,-7.340343,7.752189,4.598960,2.910948,7.808794,-4.207492,6.131581,0.584999,-7.683765,-4.283834,-5.595724,-21.512032,6.895769,-0.893134,-14.353418,-3.142761,-32.602802,-14.507465,-0.803956,-6.580122,8.917193,5.023748,9.054270,8.296982,6.317395,3.311880,-7.681753,-65.132126,8064.000000,0.000000,4.000000,,,,0.000000,4.000000,4.000000,4.000000,4.000000,4.000000,4.000000,4.000000,4.000000,4.000000,4.000000,4.000000,4.000000,4.000000,4.000000,4.000000,4.000000,4.000000,4.000000,4.000000,4.000000,4.000000,4.000000,4.000000,4.000000,4.000000,4.000000,4.000000,4.000000,4.000000,4.000000,4.000000,4.000000,100.000000
1614304346.346349,101.000000,0.000000,7.743250,-0.161473,-189.072357,0.042076,-8.358644,2.616231,4.594362,1.882396,7.800985,-5.741746,4.074167,0.071593,-7.163261,-10.433396,-7.641410,-26.618725,7.914514,-6.533267,-14.339066,-7.755003,-32.570198,-10.390393,-0.290332,-6.573541,1.215969,-0.109481,9.045215,8.288685,6.311078,-1.306817,-7.674072,-81.477257,8064.000000,0.000000,4.000000,,,,0.000000,4.000000,4.000000,4.000000,4.000000,4.000000,4.000000,4.000000,4.000000,4.000000,4.000000,4.000000,4.000000,4.000000,4.000000,4.000000,4.000000,4.000000,4.000000,4.000000,4.000000,4.000000,4.000000,4.000000,4.000000,4.000000,4.000000,4.000000,4.000000,4.000000,4.000000,4.000000,4.000000,100.000000
1614304346.353998,102.000000,0.000000,7.222687,-0.161312,-189.908920,-0.983607,-9.375926,4.664897,4.589767,4.444616,7.793184,-5.736004,8.172657,5.712547,-1.515072,-3.756297,-3.018384,-16.848516,15.598907,-4.988272,-14.324726,-2.106222,-16.127373,-3.200516,2.786881,-8.618250,3.266035,1.941911,8.523350,8.280396,6.304767,-3.356792,-8.179218,-72.677826,8064.000000,0.000000,4.000000,,,,0.000000,4.000000,4.000000,4.000000,4.000000,4.000000,4.000000,4.000000,4.000000,4.000000,4.000000,4.000000,4.000000,4.000000,4.000000,4.000000,4.000000,4.000000,4.000000,4.000000,4.000000,4.000000,4.000000,4.000000,4.000000,4.000000,4.000000,4.000000,4.000000,4.000000,4.000000,4.000000,4.000000,100.000000
1614304346.361747,103.000000,0.000000,10.805207,-0.161150,-179.462601,0.043018,-6.802448,6.198694,5.097998,9.568377,7.785390,3.500501,18.933716,14.937604,5.153110,5.478229,10.317967,3.168333,19.685873,2.196204,-11.746299,4.049730,1.837473,-2.171674,8.425120,-3.481426,14.544820,8.606635,9.027646,8.272116,6.811283,-3.866256,-7.145398,-55.169254,7936.000000,0.000000,4.000000,,,,0.000000,4.000000,4.000000,4.000000,4.000000,4.000000,4.000000,4.000000,4.000000,4.000000,4.000000,4.000000,4.000000,4.000000,4.000000,4.000000,4.000000,4.000000,4.000000,4.000000,4.000000,4.000000,4.000000,4.000000,4.000000,4.000000,4.000000,4.000000,4.000000,4.000000,4.000000,4.000000,4.000000,100.000000
1614304346.369596,104.000000,0.000000,12.332864,-0.160989,-184.411346,0.042975,-10.385389,3.115572,4.580080,9.045988,7.777605,6.573924,20.453243,15.435487,7.712059,7.011212,18.512777,12.395933,10.948238,1.168366,-10.196091,4.045680,3.374097,-3.195144,11.493618,8.316927,12.991814,2.957003,9.018619,8.263844,5.266010,-6.426492,-9.702355,-72.549980,8064.000000,0.000000,4.000000,,,,0.000000,4.000000,4.000000,4.000000,4.000000,4.000000,4.000000,4.000000,4.000000,4.000000,4.000000,4.000000,4.000000,4.000000,4.000000,4.000000,4.000000,4.000000,4.000000,4.000000,4.000000,4.000000,4.000000,4.000000,4.000000,4.000000,4.000000,4.000000,4.000000,4.000000,4.000000,4.000000,4.000000,100.000000
1614304346.377345,105.000000,0.000000,6.166685,-0.160828,-203.714111,-5.598094,-22.682695,1.573995,2.524217,1.857455,4.692904,-8.817266,12.740482,9.266205,7.704347,5.465740,14.904522,8.793794,0.168059,-5.499469,-11.724357,4.041635,-0.219021,-2.679128,9.430842,12.411174,-0.867332,-6.276723,8.496779,8.255580,2.696641,-7.958527,-16.872139,-96.579994,8064.000000,0.000000,4.000000,,,,0.000000,4.000000,4.000000,4.000000,4.000000,4.000000,4.000000,4.000000,4.000000,4.000000,4.000000,4.000000,4.000000,4.000000,4.000000,4.000000,4.000000,4.000000,4.000000,4.000000,4.000000,4.000000,4.000000,4.000000,4.000000,4.000000,4.000000,4.000000,4.000000,4.000000,4.000000,4.000000,4.000000,100.000000
1614304346.384995,106.000000,0.000000,4.622056,-0.160667,-202.484756,-11.233521,-29.326679,2.598062,0.470411,-2.246967,-0.439994,-20.090500,8.625177,8.231298,6.671001,7.511556,14.376797,10.323462,-1.370571,1.172698,-9.148530,4.550414,7.986327,-2.163628,6.857309,6.244917,-2.404926,0.909041,9.513924,8.247324,2.181124,-6.924927,-18.906549,-92.893669,8064.000000,0.000000,4.000000,,,,0.000000,4.000000,4.000000,4.000000,4.000000,4.000000,4.000000,4.000000,4.000000,4.000000,4.000000,4.000000,4.000000,4.000000,4.000000,4.000000,4.000000,4.000000,4.000000,4.000000,4.000000,4.000000,4.000000,4.000000,4.000000,4.000000,4.000000,4.000000,4.000000,4.000000,4.000000,4.000000,4.000000,100.000000
1614304346.392744,107.000000,0.000000,12.309742,-0.160507,-185.872025,-9.171006,-21.092224,2.595464,0.982761,-1.219079,-3.516477,-9.813999,9.129373,9.761528,4.613049,13.145070,20.516266,18.518267,1.707723,15.017678,8.296516,6.597145,22.337315,1.428279,6.850452,4.187390,11.443632,12.703004,13.606975,8.239077,2.691763,-8.969284,-11.708156,-76.903343,8064.000000,0.000000,4.000000,,,,0.000000,4.000000,4.000000,4.000000,4.000000,4.000000,4.000000,4.000000,4.000000,4.000000,4.000000,4.000000,4.000000,4.000000,4.000000,4.000000,4.000000,4.000000,4.000000,4.000000,4.000000,4.000000,4.000000,4.000000,4.000000,4.000000,4.000000,4.000000,4.000000,4.000000,4.000000,4.000000,4.000000,100.000000
1614304346.400393,108.000000,0.000000,13.835894,-0.160346,-183.634872,-6.597732,-13.378825,2.592869,0.981778,-1.217860,-3.512960,0.965046,10.145885,8.726126,4.095615,14.157566,21.521391,22.602312,5.295759,19.618046,25.211296,14.282856,32.571388,6.042235,7.356422,8.285767,21.175779,13.203121,17.183111,8.743658,2.689071,-4.857751,-5.029781,-54.775158,8064.000000,0.000000,4.000000,,,,0.000000,4.000000,4.000000,4.000000,4.000000,4.000000,4.000000,4.000000,4.000000,4.000000,4.000000,4.000000,4.000000,4.000000,4.000000,4.000000,4.000000,4.000000,4.000000,4.000000,4.000000,4.000000,4.000000,4.000000,4.000000,4.000000,4.000000,4.000000,4.000000,4.000000,4.000000,4.000000,4.000000,100.000000
1614304346.408142,109.000000,0.000000,8.181032,-0.160186,-184.476868,-8.129596,-11.826984,2.590276,0.980797,-1.729463,-3.509447,1.476901,13.212662,8.204579,6.655622,14.656229,20.474228,26.169453,6.828925,27.803556,28.775829,25.550625,36.641380,10.138757,6.836245,10.841583,21.154602,11.651457,16.140287,7.709273,2.686382,6.941978,-3.486290,-42.925510,8064.000000,0.000000,4.000000,,,,0.000000,4.000000,4.000000,4.000000,4.000000,4.000000,4.000000,4.000000,4.000000,4.000000,4.000000,4.000000,4.000000,4.000000,4.000000,4.000000,4.000000,4.000000,4.000000,4.000000,4.000000,4.000000,4.000000,4.000000,4.000000,4.000000,4.000000,4.000000,4.000000,4.000000,4.000000,4.000000,4.000000,100.000000
1614304346.415791,110.000000,0.000000,6.634390,-0.160026,-175.061630,-7.608646,-5.148491,2.587685,0.979816,-1.727733,-1.454656,11.731834,16.276371,8.709195,8.187428,18.231316,21.992216,27.168924,8.360558,37.519341,28.234232,28.601997,35.066277,13.205542,6.829409,11.343562,20.620628,12.665446,10.995941,5.137462,2.683696,13.088882,-3.995624,-61.344124,8064.000000,0.000000,4.000000,,,,0.000000,4.000000,4.000000,4.000000,4.000000,4.000000,4.000000,4.000000,4.000000,4.000000,4.000000,4.000000,4.000000,4.000000,4.000000,4.000000,4.000000,4.000000,4.000000,4.000000,4.000000,4.000000,4.000000,4.000000,4.000000,4.000000,4.000000,4.000000,4.000000,4.000000,4.000000,4.000000,4.000000,100.000000
1614304346.423540,111.000000,0.000000,8.166217,-0.159866,-170.783997,-7.088217,1.010504,2.585098,0.978836,-1.213185,0.598081,21.976513,17.798557,9.213306,3.563856,12.059238,14.277916,13.295602,8.352197,24.148489,21.026512,17.291344,19.646595,8.064131,6.822579,11.845039,22.138468,12.652781,8.933663,4.619503,2.681012,12.050153,-3.478808,-77.180214,8064.000000,0.000000,4.000000,,,,0.000000,4.000000,4.000000,4.000000,4.000000,4.000000,4.000000,4.000000,4.000000,4.000000,4.000000,4.000000,4.000000,4.000000,4.000000,4.000000,4.000000,4.000000,4.000000,4.000000,4.000000,4.000000,4.000000,4.000000,4.000000,4.000000,4.000000,4.000000,4.000000,4.000000,4.000000,4.000000,4.000000,100.000000
1614304346.431189,112.000000,0.000000,7.645230,-0.159706,-174.715775,-10.158051,-3.093071,2.582513,0.977857,-1.211972,0.597483,9.134024,12.652554,8.691273,-7.208939,-3.337436,-5.223542,-7.743334,1.164357,0.534597,-5.661182,-0.674666,-10.116641,-3.225985,6.815757,11.320374,18.526587,12.640128,10.976011,4.614884,2.678331,11.012462,-3.475329,-61.718418,8064.000000,0.000000,4.000000,,,,0.000000,4.000000,4.000000,4.000000,4.000000,4.000000,4.000000,4.000000,4.000000,4.000000,4.000000,4.000000,4.000000,4.000000,4.000000,4.000000,4.000000,4.000000,4.000000,4.000000,4.000000,4.000000,4.000000,4.000000,4.000000,4.000000,4.000000,4.000000,4.000000,4.000000,4.000000,4.000000,4.000000,100.000000
1614304346.438938,113.000000,0.000000,7.637585,-0.159546,-178.130814,-14.763278,-10.782286,2.579930,0.976879,-1.210760,0.596885,-8.311007,2.896311,6.118479,-18.483782,-13.590508,-17.013189,-21.068924,-7.041935,-14.850553,-29.758085,-11.956042,-37.286011,-6.812502,6.808941,8.744950,9.277290,11.601847,12.503497,4.610269,2.675653,7.924526,-5.523136,-49.861828,8064.000000,0.000000,4.000000,,,,0.000000,4.000000,4.000000,4.000000,4.000000,4.000000,4.000000,4.000000,4.000000,4.000000,4.000000,4.000000,4.000000,4.000000,4.000000,4.000000,4.000000,4.000000,4.000000,4.000000,4.000000,4.000000,4.000000,4.000000,4.000000,4.000000,4.000000,4.000000,4.000000,4.000000,4.000000,4.000000,4.000000,100.000000
1614304346.446588,114.000000,0.000000,7.629948,-0.159387,-184.106522,-15.261335,-12.309965,2.577350,0.975902,-1.209549,1.109109,-10.353979,1.354953,4.573899,-22.567862,-14.602559,-18.021818,-30.791445,-8.060534,-28.169035,-35.369354,-17.585112,-49.556419,-7.831331,6.802132,7.197744,5.165450,6.974860,11.978173,4.605659,2.672977,1.762755,-7.568895,-59.042736,8064.000000,0.000000,4.000000,,,,0.000000,4.000000,4.000000,4.000000,4.000000,4.000000,4.000000,4.000000,4.000000,4.000000,4.000000,4.000000,4.000000,4.000000,4.000000,4.000000,4.000000,4.000000,4.000000,4.000000,4.000000,4.000000,4.000000,4.000000,4.000000,4.000000,4.000000,4.000000,4.000000,4.000000,4.000000,4.000000,4.000000,100.000000
1614304346.454337,115.000000,0.000000,7.622317,-0.672048,-195.204468,-14.733253,-11.272014,2.574773,0.974927,-1.208339,0.082359,-8.805163,9.558726,5.594966,-13.827345,-5.870008,-14.926873,-27.683731,-6.514012,-28.653687,-35.333984,-22.695732,-47.455578,-12.951705,6.795330,7.703367,5.160284,3.890962,11.966195,5.113874,2.670304,-0.803110,-8.074146,-66.163177,8064.000000,0.000000,4.000000,,,,0.000000,4.000000,4.000000,4.000000,4.000000,4.000000,4.000000,4.000000,4.000000,4.000000,4.000000,4.000000,4.000000,4.000000,4.000000,4.000000,4.000000,4.000000,4.000000,4.000000,4.000000,4.000000,4.000000,4.000000,4.000000,4.000000,4.000000,4.000000,4.000000,4.000000,4.000000,4.000000,4.000000,100.000000
1614304346.461986,116.000000,0.000000,8.127516,-0.158555,-198.598999,-15.231340,-12.286383,2.572198,0.973952,-1.207131,1.107918,-6.232255,13.138911,5.589371,-3.557107,9.007657,-9.270921,-6.630406,-7.533139,-15.291700,-27.606342,-21.647396,-34.587612,-11.913112,6.788535,7.182843,6.693585,4.399892,11.954228,2.544657,2.154814,-0.289486,-7.553252,-63.532913,8064.000000,0.000000,4.000000,,,,0.000000,4.000000,4.000000,4.000000,4.000000,4.000000,4.000000,4.000000,4.000000,4.000000,4.000000,4.000000,4.000000,4.000000,4.000000,4.000000,4.000000,4.000000,4.000000,4.000000,4.000000,4.000000,4.000000,4.000000,4.000000,4.000000,4.000000,4.000000,4.000000,4.000000,4.000000,4.000000,4.000000,100.000000
1614304346.469735,117.000000,0.000000,6.580927,0.354424,-192.246567,-15.216109,-12.274096,2.569626,0.972978,-1.205924,3.670912,1.979105,12.100131,1.481217,-3.040730,14.639675,-1.056521,10.299301,-7.525606,-8.609741,-13.219761,-12.907800,-13.527382,-7.285814,6.781746,7.688481,11.815097,7.985235,12.967916,0.490831,3.178300,0.223624,-8.058519,-54.238613,8064.000000,0.000000,4.000000,,,,0.000000,4.000000,4.000000,4.000000,4.000000,4.000000,4.000000,4.000000,4.000000,4.000000,4.000000,4.000000,4.000000,4.000000,4.000000,4.000000,4.000000,4.000000,4.000000,4.000000,4.000000,4.000000,4.000000,4.000000,4.000000,4.000000,4.000000,4.000000,4.000000,4.000000,4.000000,4.000000,4.000000,100.000000
1614304346.477384,118.000000,0.000000,4.010243,-1.697213,-190.003036,-14.688073,-12.261823,2.567056,1.484825,-1.204718,3.154421,6.592511,12.600852,-2.622828,-4.063330,14.112215,8.688125,14.391566,-7.005260,-2.447286,-5.514233,-6.741045,8.537427,-5.227246,6.774964,10.244895,18.982769,15.669558,15.519051,1.003160,5.739224,-0.802241,-6.511999,-45.979244,8064.000000,0.000000,4.000000,,,,0.000000,4.000000,4.000000,4.000000,4.000000,4.000000,4.000000,4.000000,4.000000,4.000000,4.000000,4.000000,4.000000,4.000000,4.000000,4.000000,4.000000,4.000000,4.000000,4.000000,4.000000,4.000000,4.000000,4.000000,4.000000,4.000000,4.000000,4.000000,4.000000,4.000000,4.000000,4.000000,4.000000,100.000000
1614304346.485133,119.000000,0.000000,3.493412,-3.233977,-190.838669,-15.699026,-11.736740,2.564489,-0.567942,-1.203513,1.099984,6.073098,11.562610,-2.620205,-2.007985,19.739128,13.807642,23.095123,-6.998255,14.478238,2.183589,-2.631740,23.400684,0.419007,6.768189,11.773111,21.015068,22.833376,16.529173,-0.023484,6.759126,0.224202,-7.531128,-47.984547,8064.000000,0.000000,4.000000,,,,0.000000,4.000000,4.000000,4.000000,4.000000,4.000000,4.000000,4.000000,4.000000,4.000000,4.000000,4.000000,4.000000,4.000000,4.000000,4.000000,4.000000,4.000000,4.000000,4.000000,4.000000,4.000000,4.000000,4.000000,4.000000,4.000000,4.000000,4.000000,4.000000,4.000000,4.000000,4.000000,4.000000,100.000000
1614304346.492782,120.000000,0.000000,4.002739,-1.692281,-187.058090,-13.119225,-9.673721,3.074745,-2.618656,-1.202310,0.586064,6.067024,9.499765,-2.104764,-4.570079,21.770672,10.204091,29.225874,-6.991257,23.694529,15.001918,4.037558,26.454206,6.059613,6.761421,11.761338,20.994053,23.836184,15.999823,-2.587563,6.239546,5.352183,-8.036417,-52.039127,8064.000000,0.000000,4.000000,,,,0.000000,4.000000,4.000000,4.000000,4.000000,4.000000,4.000000,4.000000,4.000000,4.000000,4.000000,4.000000,4.000000,4.000000,4.000000,4.000000,4.000000,4.000000,4.000000,4.000000,4.000000,4.000000,4.000000,4.000000,4.000000,4.000000,4.000000,4.000000,4.000000,4.000000,4.000000,4.000000,4.000000,100.000000
1614304346.500631,121.000000,0.000000,3.998737,0.360693,-182.255646,-6.439438,-7.612765,3.071670,-2.616037,-1.201108,-1.978625,6.060957,8.464624,-2.615480,-10.206534,18.671978,6.091323,25.606905,-7.497086,24.183655,18.576660,6.084803,24.376471,5.027913,6.754660,11.749577,21.998699,23.812347,15.983823,-1.046514,7.258948,11.500677,-2.387355,-50.961449,8064.000000,0.000000,4.000000,,,,0.000000,4.000000,4.000000,4.000000,4.000000,4.000000,4.000000,4.000000,4.000000,4.000000,4.000000,4.000000,4.000000,4.000000,4.000000,4.000000,4.000000,4.000000,4.000000,4.000000,4.000000,4.000000,4.000000,4.000000,4.000000,4.000000,4.000000,4.000000,4.000000,4.000000,4.000000,4.000000,4.000000,100.000000
1614304346.508380,122.000000,0.000000,3.994738,0.360332,-180.534927,-2.330435,-8.117973,2.042958,-2.613421,-1.199906,-6.079210,6.054896,8.968981,-2.612865,-12.247610,17.627665,7.110872,24.555656,-5.438307,25.697933,15.993980,5.053077,23.326454,5.022885,6.747905,11.225007,20.951061,22.762894,15.967839,1.518635,5.200407,12.514817,-0.846506,-51.423306,8064.000000,0.000000,4.000000,,,,0.000000,4.000000,4.000000,4.000000,4.000000,4.000000,4.000000,4.000000,4.000000,4.000000,4.000000,4.000000,4.000000,4.000000,4.000000,4.000000,4.000000,4.000000,4.000000,4.000000,4.000000,4.000000,4.000000,4.000000,4.000000,4.000000,4.000000,4.000000,4.000000,4.000000,4.000000,4.000000,4.000000,100.000000
1614304346.516229,123.000000,0.000000,3.990743,-0.152849,-181.380035,-2.840925,-8.109856,3.579376,-2.610808,-1.198707,-7.611593,6.048841,8.960011,-2.097431,-9.671260,10.430550,1.462736,16.838793,-3.381586,18.492748,16.490807,6.586485,13.046717,4.505041,6.741157,11.726603,20.930109,16.586285,16.464691,1.517117,0.579822,8.912560,-11.614891,-50.346241,8064.000000,0.000000,4.000000,,,,0.000000,4.000000,4.000000,4.000000,4.000000,4.000000,4.000000,4.000000,4.000000,4.000000,4.000000,4.000000,4.000000,4.000000,4.000000,4.000000,4.000000,4.000000,4.000000,4.000000,4.000000,4.000000,4.000000,4.000000,4.000000,4.000000,4.000000,4.000000,4.000000,4.000000,4.000000,4.000000,4.000000,100.000000
1614304346.523979,124.000000,0.000000,3.986753,-0.152696,-181.711472,-4.889366,-8.101746,3.062976,-2.608197,-1.197508,-7.091161,1.427408,6.899769,-2.095334,-12.225692,-2.913214,-10.333599,-4.716506,-4.403846,6.679384,4.679444,0.426053,-7.479150,-1.140489,7.247237,11.714876,22.447641,12.467134,16.448227,0.489958,-1.472040,4.288262,-20.321224,-52.860001,8064.000000,0.000000,4.000000,,,,0.000000,4.000000,4.000000,4.000000,4.000000,4.000000,4.000000,4.000000,4.000000,4.000000,4.000000,4.000000,4.000000,4.000000,4.000000,4.000000,4.000000,4.000000,4.000000,4.000000,4.000000,4.000000,4.000000,4.000000,4.000000,4.000000,4.000000,4.000000,4.000000,4.000000,4.000000,4.000000,4.000000,100.000000
1614304346.531827,125.000000,0.000000,3.982766,0.360277,-179.991302,-9.499862,-8.093643,-3.093933,-3.631230,-1.196310,-6.058428,-1.650942,4.328767,-2.606059,-19.392954,-7.525686,-13.913009,-15.993841,-6.963544,0.518858,-16.350876,-13.420527,-17.728081,-6.780375,6.727169,8.113418,16.271347,10.403385,13.354856,1.515110,-1.470568,3.258333,-18.762442,-70.755859,8064.000000,0.000000,4.000000,,,,0.000000,4.000000,4.000000,4.000000,4.000000,4.000000,4.000000,4.000000,4.000000,4.000000,4.000000,4.000000,4.000000,4.000000,4.000000,4.000000,4.000000,4.000000,4.000000,4.000000,4.000000,4.000000,4.000000,4.000000,4.000000,4.000000,4.000000,4.000000,4.000000,4.000000,4.000000,4.000000,4.000000,100.000000
1614304346.539577,126.000000,0.000000,3.978783,-0.665724,-182.375412,-15.644208,-8.085550,-8.731864,-6.191701,-1.195114,-3.488267,0.914811,6.888541,-2.090632,-15.783816,-1.364314,-11.334993,-10.336822,-7.469401,-9.225250,-24.539654,-20.073774,-18.735994,-7.799235,6.720442,1.951458,1.896101,6.290418,12.828680,1.513594,-1.469098,3.255074,-17.718039,-87.608177,8064.000000,0.000000,4.000000,,,,0.000000,4.000000,4.000000,4.000000,4.000000,4.000000,4.000000,4.000000,4.000000,4.000000,4.000000,4.000000,4.000000,4.000000,4.000000,4.000000,4.000000,4.000000,4.000000,4.000000,4.000000,4.000000,4.000000,4.000000,4.000000,4.000000,4.000000,4.000000,4.000000,4.000000,4.000000,4.000000,4.000000,100.000000
1614304346.547426,127.000000,0.000000,3.974804,-5.793263,-190.398163,-18.705486,-8.077464,-8.723132,-6.698330,-1.706739,-3.997600,2.452358,11.497037,2.526843,-4.998802,1.713973,-9.272376,-8.788024,-6.949111,-16.395512,-22.976652,-18.002419,-24.358284,-6.765795,7.739362,-2.153058,-4.259641,4.232845,11.790211,-1.052022,-0.954808,0.174896,-19.238781,-87.007751,8064.000000,0.000000,4.000000,,,,0.000000,4.000000,4.000000,4.000000,4.000000,4.000000,4.000000,4.000000,4.000000,4.000000,4.000000,4.000000,4.000000,4.000000,4.000000,4.000000,4.000000,4.000000,4.000000,4.000000,4.000000,4.000000,4.000000,4.000000,4.000000,4.000000,4.000000,4.000000,4.000000,4.000000,4.000000,4.000000,4.000000,100.000000
1614304346.555175,0.000000,0.000000,3.970829,-7.838752,-196.361618,-18.686781,-8.069387,-8.714410,-6.178811,-1.192212,-2.967961,0.911444,12.511181,5.601239,-2.942521,3.250721,-5.673360,-7.240774,-6.942163,-11.763732,-22.953676,-17.471594,-24.333925,-6.246209,5.167520,-3.176546,-1.178458,2.690151,3.573292,-2.589431,-2.492315,-3.927843,-19.219543,-85.895103,0.000000,218.000000,4.000000,,,,0.000000,4.000000,4.000000,4.000000,4.000000,4.000000,4.000000,4.000000,4.000000,4.000000,4.000000,4.000000,4.000000,4.000000,4.000000,4.000000,4.000000,4.000000,4.000000,4.000000,4.000000,4.000000,4.000000,4.000000,4.000000,4.000000,4.000000,4.000000,4.000000,4.000000,4.000000,4.000000,4.000000,100.000000
1614304346.563024,1.000000,0.000000,3.966859,-5.266811,-195.652435,-18.668095,-8.061317,-8.705695,-6.172632,-1.191020,3.188853,2.448994,14.037131,5.595638,-1.913937,10.426957,3.563082,7.638262,-7.448041,-9.187866,-19.853800,-15.915662,-15.591643,-7.778424,0.034148,-4.199010,-2.202921,-0.902283,-2.584127,-3.099662,-5.053925,-6.488018,-18.174683,-85.296387,0.000000,200.000000,4.000000,,,,0.000000,4.000000,4.000000,4.000000,4.000000,4.000000,4.000000,4.000000,4.000000,4.000000,4.000000,4.000000,4.000000,4.000000,4.000000,4.000000,4.000000,4.000000,4.000000,4.000000,4.000000,4.000000,4.000000,4.000000,4.000000,4.000000,4.000000,4.000000,4.000000,4.000000,4.000000,4.000000,4.000000,100.000000
1614304346.570773,2.000000,0.000000,3.962892,-3.210262,-195.969604,-18.136606,-7.540436,-5.107246,-6.166460,-2.215470,1.134382,6.549109,15.561556,5.077222,5.267464,22.211403,15.354391,21.989597,-6.414952,-5.588934,-8.039073,-4.104874,-8.396564,-6.232184,-0.991528,-3.681991,-0.662256,8.842209,1.521021,-3.096563,0.079334,1.723599,-13.028302,-70.339294,0.000000,197.000000,4.000000,,,,0.000000,4.000000,4.000000,4.000000,4.000000,4.000000,4.000000,4.000000,4.000000,4.000000,4.000000,4.000000,4.000000,4.000000,4.000000,4.000000,4.000000,4.000000,4.000000,4.000000,4.000000,4.000000,4.000000,4.000000,4.000000,4.000000,4.000000,4.000000,4.000000,4.000000,4.000000,4.000000,4.000000,100.000000
1614304346.578622,3.000000,0.000000,3.958929,-3.719872,-193.722351,-18.631289,-7.532896,-6.127779,-6.160293,-0.674793,-6.046239,5.004098,15.545994,5.072145,8.851940,32.958420,26.621088,36.839401,-0.767511,19.032040,12.994607,12.309487,5.457986,4.543279,2.086387,1.449896,16.774303,25.243624,7.673346,-1.555005,7.771563,17.619310,-7.887069,-55.909981,0.000000,161.000000,4.000000,,,,0.000000,4.000000,4.000000,4.000000,4.000000,4.000000,4.000000,4.000000,4.000000,4.000000,4.000000,4.000000,4.000000,4.000000,4.000000,4.000000,4.000000,4.000000,4.000000,4.000000,4.000000,4.000000,4.000000,4.000000,4.000000,4.000000,4.000000,4.000000,4.000000,4.000000,4.000000,4.000000,4.000000,100.000000
1614304346.586371,4.000000,0.000000,3.954970,-3.716152,-185.323502,-18.099838,-8.038183,-7.147293,-6.154133,3.941267,-0.399167,4.999094,22.709936,4.554252,8.330267,39.079308,35.312416,54.751282,6.412744,43.628391,38.109818,21.527946,26.478168,15.820786,3.109942,13.243319,35.731888,26.244020,8.691314,3.061935,10.840714,26.832460,-6.853541,-54.315609,0.000000,188.000000,4.000000,,,,0.000000,4.000000,4.000000,4.000000,4.000000,4.000000,4.000000,4.000000,4.000000,4.000000,4.000000,4.000000,4.000000,4.000000,4.000000,4.000000,4.000000,4.000000,4.000000,4.000000,4.000000,4.000000,4.000000,4.000000,4.000000,4.000000,4.000000,4.000000,4.000000,4.000000,4.000000,4.000000,4.000000,100.000000
1614304346.594020,5.000000,0.000000,3.951015,-3.199615,-178.471512,-13.979174,-7.517324,-3.037581,-4.609517,6.501428,6.780719,13.199224,26.276968,5.575338,3.706553,39.040230,33.738644,49.055504,6.919151,41.020660,42.174271,19.967957,29.528614,16.830606,2.594011,22.973665,33.132053,25.192135,8.169802,5.110155,12.368335,25.779987,-6.846687,-47.594627,0.000000,183.000000,4.000000,,,,0.000000,4.000000,4.000000,4.000000,4.000000,4.000000,4.000000,4.000000,4.000000,4.000000,4.000000,4.000000,4.000000,4.000000,4.000000,4.000000,4.000000,4.000000,4.000000,4.000000,4.000000,4.000000,4.000000,4.000000,4.000000,4.000000,4.000000,4.000000,4.000000,4.000000,4.000000,4.000000,4.000000,100.000000
1614304346.601769,6.000000,0.000000,3.947064,-3.709236,-178.293030,-10.888271,-8.022628,-0.983262,-2.553626,6.494926,0.107271,16.262947,10.353256,4.031301,-8.604846,25.667856,18.833109,20.801321,2.809668,29.184769,20.593636,13.794144,12.063188,13.224033,3.104238,19.360947,16.175844,29.269508,8.674453,4.592225,13.894428,25.241386,-6.839841,-39.854725,0.000000,206.000000,4.000000,,,,0.000000,4.000000,4.000000,4.000000,4.000000,4.000000,4.000000,4.000000,4.000000,4.000000,4.000000,4.000000,4.000000,4.000000,4.000000,4.000000,4.000000,4.000000,4.000000,4.000000,4.000000,4.000000,4.000000,4.000000,4.000000,4.000000,4.000000,4.000000,4.000000,4.000000,4.000000,4.000000,4.000000,100.000000
1614304346.609418,7.000000,0.000000,3.430296,-3.705527,-183.755768,-12.415845,-11.604348,-6.110484,-2.551072,5.975611,-4.508220,5.990274,-5.554533,-1.100935,-16.801371,7.693470,3.429660,5.908725,-0.782885,28.129942,6.214068,8.652144,0.256253,11.159527,2.588313,10.110817,8.980182,23.086391,8.152958,4.587632,13.367713,26.241787,-6.833001,-49.558460,0.000000,224.000000,4.000000,,,,0.000000,4.000000,4.000000,4.000000,4.000000,4.000000,4.000000,4.000000,4.000000,4.000000,4.000000,4.000000,4.000000,4.000000,4.000000,4.000000,4.000000,4.000000,4.000000,4.000000,4.000000,4.000000,4.000000,4.000000,4.000000,4.000000,4.000000,4.000000,4.000000,4.000000,4.000000,4.000000,4.000000,100.000000
1614304346.617167,8.000000,0.000000,4.452507,-3.189001,-189.725861,-14.967531,-15.182487,-9.181296,-2.548521,4.431174,-2.965251,-0.169562,1.117688,2.489910,-10.117902,6.660136,3.939051,8.466919,0.243539,29.640274,9.284777,7.617851,-1.282465,11.661188,4.637007,5.998142,9.996842,14.858177,8.144805,5.095865,14.379987,25.702724,-6.826168,-61.816593,0.000000,159.000000,4.000000,,,,0.000000,4.000000,4.000000,4.000000,4.000000,4.000000,4.000000,4.000000,4.000000,4.000000,4.000000,4.000000,4.000000,4.000000,4.000000,4.000000,4.000000,4.000000,4.000000,4.000000,4.000000,4.000000,4.000000,4.000000,4.000000,4.000000,4.000000,4.000000,4.000000,4.000000,4.000000,4.000000,4.000000,100.000000
1614304346.624816,9.000000,0.000000,6.499337,-4.724274,-190.561768,-14.439743,-15.680125,-8.146474,-2.545972,3.913922,-2.962285,5.471633,14.962725,13.256651,2.712729,22.038092,15.217163,11.535375,4.858680,27.559351,2.608825,8.123054,-4.870926,12.162347,9.247754,7.530606,5.884281,14.330499,8.649480,4.577949,10.775863,25.164202,-8.870624,-60.216316,0.000000,194.000000,4.000000,,,,0.000000,4.000000,4.000000,4.000000,4.000000,4.000000,4.000000,4.000000,4.000000,4.000000,4.000000,4.000000,4.000000,4.000000,4.000000,4.000000,4.000000,4.000000,4.000000,4.000000,4.000000,4.000000,4.000000,4.000000,4.000000,4.000000,4.000000,4.000000,4.000000,4.000000,4.000000,4.000000,4.000000,100.000000
1614304346.632566,10.000000,0.000000,8.031299,-6.770832,-189.858398,-13.912483,-15.151625,-8.138328,-2.543426,5.448470,1.656062,9.055905,22.640070,17.858778,9.376683,31.759644,21.868612,18.190506,7.417924,27.018972,-9.701476,6.576469,-6.917337,8.047621,10.776968,7.523075,5.878397,11.239244,8.640831,4.060550,3.585600,25.139036,-10.913035,-57.591995,0.000000,201.000000,4.000000,,,,0.000000,4.000000,4.000000,4.000000,4.000000,4.000000,4.000000,4.000000,4.000000,4.000000,4.000000,4.000000,4.000000,4.000000,4.000000,4.000000,4.000000,4.000000,4.000000,4.000000,4.000000,4.000000,4.000000,4.000000,4.000000,4.000000,4.000000,4.000000,4.000000,4.000000,4.000000,4.000000,4.000000,100.000000
1614304346.640215,11.000000,0.000000,7.510447,-5.738420,-191.207001,-14.411391,-15.136474,-8.643009,-2.540883,6.468662,8.321073,8.534028,28.771275,15.276817,11.418589,31.215063,24.923666,28.941545,7.410506,28.017593,0.051815,9.133995,3.858811,11.116496,10.766191,5.464270,12.026365,7.638262,8.632190,5.082131,3.582014,25.626719,-10.902122,-59.072865,0.000000,172.000000,4.000000,,,,0.000000,4.000000,4.000000,4.000000,4.000000,4.000000,4.000000,4.000000,4.000000,4.000000,4.000000,4.000000,4.000000,4.000000,4.000000,4.000000,4.000000,4.000000,4.000000,4.000000,4.000000,4.000000,4.000000,4.000000,4.000000,4.000000,4.000000,4.000000,4.000000,4.000000,4.000000,4.000000,4.000000,100.000000
1614304346.647964,12.000000,0.000000,7.502937,-3.168579,-187.938858,-14.396979,-15.121337,-8.634367,-2.538342,6.462193,5.748649,11.089597,31.306606,16.287182,14.484093,31.696669,32.078232,34.553631,8.941557,28.502398,20.564585,17.842810,20.265209,25.464354,10.242604,9.561370,12.527159,12.758829,16.828686,7.128331,11.270740,26.113913,-10.891220,-57.475330,0.000000,161.000000,4.000000,,,,0.000000,4.000000,4.000000,4.000000,4.000000,4.000000,4.000000,4.000000,4.000000,4.000000,4.000000,4.000000,4.000000,4.000000,4.000000,4.000000,4.000000,4.000000,4.000000,4.000000,4.000000,4.000000,4.000000,4.000000,4.000000,4.000000,4.000000,4.000000,4.000000,4.000000,4.000000,4.000000,4.000000,100.000000
1614304346.655613,13.000000,0.000000,7.495434,-3.678231,-180.571442,-14.382583,-15.106215,-8.112912,-2.535804,5.430090,0.614695,12.104149,31.788120,17.296535,16.520891,32.177792,35.635895,36.057537,12.009539,27.961073,24.133762,22.953173,27.424431,34.669659,10.232362,19.295399,17.642838,19.412737,27.581089,8.659664,14.336392,24.549337,-10.880329,-58.443497,0.000000,200.000000,4.000000,,,,0.000000,4.000000,4.000000,4.000000,4.000000,4.000000,4.000000,4.000000,4.000000,4.000000,4.000000,4.000000,4.000000,4.000000,4.000000,4.000000,4.000000,4.000000,4.000000,4.000000,4.000000,4.000000,4.000000,4.000000,4.000000,4.000000,4.000000,4.000000,4.000000,4.000000,4.000000,4.000000,4.000000,100.000000
1614304346.663362,14.000000,0.000000,7.487938,-4.187373,-177.313950,-14.368200,-15.091109,-8.104799,-2.533268,2.860558,0.614080,9.527942,31.243511,11.638213,10.863344,32.145615,27.395132,35.508659,9.946247,26.394651,21.032707,22.930220,27.397007,30.019604,10.734950,26.455589,33.522629,21.957426,24.989405,8.138184,13.296414,26.063250,-10.869449,-57.872231,0.000000,207.000000,4.000000,,,,0.000000,4.000000,4.000000,4.000000,4.000000,4.000000,4.000000,4.000000,4.000000,4.000000,4.000000,4.000000,4.000000,4.000000,4.000000,4.000000,4.000000,4.000000,4.000000,4.000000,4.000000,4.000000,4.000000,4.000000,4.000000,4.000000,4.000000,4.000000,4.000000,4.000000,4.000000,4.000000,4.000000,100.000000
1614304346.671011,15.000000,0.000000,6.967630,-3.670365,-177.649445,-14.353832,-15.076018,-8.609514,-3.043555,1.832056,1.126287,8.492773,21.468679,3.934267,-0.429570,30.062187,15.572865,31.370588,4.808095,27.906717,25.627058,22.394468,27.882429,25.374201,8.672933,26.941956,37.591671,21.422649,12.656723,8.130046,13.283118,26.550007,-10.858579,-51.147694,0.000000,175.000000,4.000000,,,,0.000000,4.000000,4.000000,4.000000,4.000000,4.000000,4.000000,4.000000,4.000000,4.000000,4.000000,4.000000,4.000000,4.000000,4.000000,4.000000,4.000000,4.000000,4.000000,4.000000,4.000000,4.000000,4.000000,4.000000,4.000000,4.000000,4.000000,4.000000,4.000000,4.000000,4.000000,4.000000,4.000000,100.000000
1614304346.678760,16.000000,0.000000,7.473483,-3.666695,-177.471802,-14.339478,-15.060943,-7.575264,-2.527691,1.317404,0.612340,8.997101,6.575415,-1.710693,-8.634269,18.750072,5.300881,25.698191,2.752005,27.878811,25.088612,21.859253,23.239162,16.118057,1.997593,21.273987,23.707926,18.324303,8.028682,8.121916,12.244194,14.728584,-10.847720,-53.147827,0.000000,200.000000,4.000000,,,,0.000000,4.000000,4.000000,4.000000,4.000000,4.000000,4.000000,4.000000,4.000000,4.000000,4.000000,4.000000,4.000000,4.000000,4.000000,4.000000,4.000000,4.000000,4.000000,4.000000,4.000000,4.000000,4.000000,4.000000,4.000000,4.000000,4.000000,4.000000,4.000000,4.000000,4.000000,4.000000,4.000000,100.000000
1614304346.686410,17.000000,0.000000,7.466009,-3.663028,-179.858429,-14.325139,-15.045881,-5.516407,-2.525163,0.803266,0.098907,4.372719,1.953455,-2.734623,-14.266661,3.346708,-4.960830,14.903262,-1.353311,19.132984,13.781470,17.222010,10.908231,1.742965,-0.568507,8.945021,10.863706,15.741876,9.046294,8.113793,9.667848,-1.696401,-10.324052,-69.504936,0.000000,200.000000,4.000000,,,,0.000000,4.000000,4.000000,4.000000,4.000000,4.000000,4.000000,4.000000,4.000000,4.000000,4.000000,4.000000,4.000000,4.000000,4.000000,4.000000,4.000000,4.000000,4.000000,4.000000,4.000000,4.000000,4.000000,4.000000,4.000000,4.000000,4.000000,4.000000,4.000000,4.000000,4.000000,4.000000,4.000000,100.000000
1614304346.694259,18.000000,0.000000,6.432902,-3.659365,-184.806778,-14.823634,-15.543656,-4.485249,-3.035459,-2.274461,0.611628,0.778602,5.028425,2.396317,-16.303677,-0.246382,-2.391766,7.196051,-1.351958,17.062569,9.152305,14.640685,2.179374,3.279683,5.585908,-3.371616,4.186175,14.187673,6.985965,8.105680,7.606897,-6.310089,-10.826549,-81.230301,0.000000,198.000000,4.000000,,,,0.000000,4.000000,4.000000,4.000000,4.000000,4.000000,4.000000,4.000000,4.000000,4.000000,4.000000,4.000000,4.000000,4.000000,4.000000,4.000000,4.000000,4.000000,4.000000,4.000000,4.000000,4.000000,4.000000,4.000000,4.000000,4.000000,4.000000,4.000000,4.000000,4.000000,4.000000,4.000000,4.000000,100.000000
1614304346.702008,19.000000,0.000000,8.990572,-3.655705,-186.160431,-14.808810,-15.015292,-4.480764,-1.493962,-3.297827,0.611017,1.803465,12.202884,8.547767,-1.928398,10.523095,14.020882,23.086290,15.572472,30.378839,15.809819,17.190147,10.382323,21.225121,13.785450,-3.368245,5.720450,12.122203,10.568723,8.097574,6.060829,-4.252497,-10.815722,-81.149071,0.000000,182.000000,4.000000,,,,0.000000,4.000000,4.000000,4.000000,4.000000,4.000000,4.000000,4.000000,4.000000,4.000000,4.000000,4.000000,4.000000,4.000000,4.000000,4.000000,4.000000,4.000000,4.000000,4.000000,4.000000,4.000000,4.000000,4.000000,4.000000,4.000000,4.000000,4.000000,4.000000,4.000000,4.000000,4.000000,4.000000,100.000000
1614304346.709857,20.000000,0.000000,16.673889,-3.652050,-184.948639,-14.281181,-14.487456,-4.476283,3.122917,6.961881,0.610406,3.340123,25.011194,9.052039,23.201736,30.512571,31.442759,49.217052,36.582539,39.066410,20.409393,20.762699,20.628351,30.434666,20.438332,5.353072,15.458320,11.084439,18.763283,8.089477,5.541948,-5.273885,-10.804907,-81.067924,0.000000,176.000000,4.000000,,,,0.000000,4.000000,4.000000,4.000000,4.000000,4.000000,4.000000,4.000000,4.000000,4.000000,4.000000,4.000000,4.000000,4.000000,4.000000,4.000000,4.000000,4.000000,4.000000,4.000000,4.000000,4.000000,4.000000,4.000000,4.000000,4.000000,4.000000,4.000000,4.000000,4.000000,4.000000,4.000000,4.000000,100.000000
1614304346.717606,21.000000,0.000000,19.734138,-3.648398,-185.276505,-14.779720,-16.011431,-4.471807,5.683897,19.262611,0.096975,7.952168,37.293873,8.530167,34.973404,49.456417,48.334393,64.552452,42.699802,38.514523,23.465908,22.793219,21.120543,29.378590,25.033278,9.963104,19.032604,10.047714,16.180416,8.081388,6.049226,-4.755791,-11.819742,-77.397110,0.000000,188.000000,4.000000,,,,0.000000,4.000000,4.000000,4.000000,4.000000,4.000000,4.000000,4.000000,4.000000,4.000000,4.000000,4.000000,4.000000,4.000000,4.000000,4.000000,4.000000,4.000000,4.000000,4.000000,4.000000,4.000000,4.000000,4.000000,4.000000,4.000000,4.000000,4.000000,4.000000,4.000000,4.000000,4.000000,4.000000,100.000000
1614304346.725455,22.000000,0.000000,17.150301,-3.644749,-185.604050,-14.764940,-14.456957,-4.980155,5.165392,20.268990,1.122519,19.226267,39.820683,10.060098,34.938431,61.201832,63.157852,78.846870,41.118641,46.168316,34.211674,25.847349,29.304550,30.374853,26.033886,11.491602,15.936649,7.473564,8.984749,8.073306,6.043177,-4.751035,-14.372025,-76.806892,0.000000,202.000000,4.000000,,,,0.000000,4.000000,4.000000,4.000000,4.000000,4.000000,4.000000,4.000000,4.000000,4.000000,4.000000,4.000000,4.000000,4.000000,4.000000,4.000000,4.000000,4.000000,4.000000,4.000000,4.000000,4.000000,4.000000,4.000000,4.000000,4.000000,4.000000,4.000000,4.000000,4.000000,4.000000,4.000000,4.000000,100.000000
1614304346.733204,23.000000,0.000000,14.569049,-3.641105,-180.803055,-9.109150,-7.775834,-2.923893,4.647406,17.171797,3.685499,26.899347,38.242401,9.024397,34.903496,63.704735,67.710083,89.024437,41.077522,54.840096,43.921051,27.359964,49.275246,31.370119,26.007851,17.633957,21.561739,7.978911,12.052688,8.065232,5.524313,-4.746284,-15.383294,-80.832649,0.000000,188.000000,4.000000,,,,0.000000,4.000000,4.000000,4.000000,4.000000,4.000000,4.000000,4.000000,4.000000,4.000000,4.000000,4.000000,4.000000,4.000000,4.000000,4.000000,4.000000,4.000000,4.000000,4.000000,4.000000,4.000000,4.000000,4.000000,4.000000,4.000000,4.000000,4.000000,4.000000,4.000000,4.000000,4.000000,4.000000,100.000000
1614304346.741053,24.000000,0.000000,15.067300,-3.637464,-169.340210,-3.459015,-3.152673,-1.382508,5.155579,17.667446,4.707455,27.898090,39.229801,9.015372,31.278847,60.051285,63.539806,80.730286,36.933884,53.759617,43.877129,25.794142,58.969563,29.800287,24.956203,24.795811,30.770947,10.535034,16.656019,7.544347,6.544430,6.540514,-12.803808,-64.854385,0.000000,189.000000,4.000000,,,,0.000000,4.000000,4.000000,4.000000,4.000000,4.000000,4.000000,4.000000,4.000000,4.000000,4.000000,4.000000,4.000000,4.000000,4.000000,4.000000,4.000000,4.000000,4.000000,4.000000,4.000000,4.000000,4.000000,4.000000,4.000000,4.000000,4.000000,4.000000,4.000000,4.000000,4.000000,4.000000,4.000000,100.000000
1614304346.748802,25.000000,0.000000,14.539412,-3.633826,-159.940094,-2.429915,-3.662341,0.157336,5.663244,15.598496,4.189927,28.895832,39.190571,10.544819,21.503979,54.863029,55.271137,71.418785,26.640537,55.244316,45.371716,27.306808,58.397770,31.821768,19.290220,26.822296,32.791458,12.062961,16.126543,8.049623,8.589168,20.380127,-10.739722,-39.148502,0.000000,190.000000,4.000000,,,,0.000000,4.000000,4.000000,4.000000,4.000000,4.000000,4.000000,4.000000,4.000000,4.000000,4.000000,4.000000,4.000000,4.000000,4.000000,4.000000,4.000000,4.000000,4.000000,4.000000,4.000000,4.000000,4.000000,4.000000,4.000000,4.000000,4.000000,4.000000,4.000000,4.000000,4.000000,4.000000,4.000000,100.000000
1614304346.756651,26.000000,0.000000,10.422309,-3.630192,-157.216049,-2.940306,-4.171499,2.208461,2.067837,11.480334,4.185737,23.738731,29.407789,1.303505,9.687603,44.551758,33.677406,65.706337,9.177999,51.086510,44.300701,26.766682,53.723988,26.661741,9.014521,26.795473,31.733025,14.615001,16.110416,8.554394,10.119040,21.898209,-11.241803,-40.134995,0.000000,198.000000,4.000000,,,,0.000000,4.000000,4.000000,4.000000,4.000000,4.000000,4.000000,4.000000,4.000000,4.000000,4.000000,4.000000,4.000000,4.000000,4.000000,4.000000,4.000000,4.000000,4.000000,4.000000,4.000000,4.000000,4.000000,4.000000,4.000000,4.000000,4.000000,4.000000,4.000000,4.000000,4.000000,4.000000,4.000000,100.000000
1614304346.764400,27.000000,0.000000,3.232399,-4.139382,-157.058838,-2.937366,-3.654507,3.231893,-2.036794,6.340649,2.643089,6.791916,11.942484,-15.108055,-8.270803,21.430281,5.951420,39.486786,-9.805537,30.009781,26.820503,12.893762,35.208725,7.660721,-0.738084,23.691755,29.137188,15.626027,11.478921,6.494557,9.596101,17.773746,-10.204921,-56.505116,0.000000,202.000000,4.000000,,,,0.000000,4.000000,4.000000,4.000000,4.000000,4.000000,4.000000,4.000000,4.000000,4.000000,4.000000,4.000000,4.000000,4.000000,4.000000,4.000000,4.000000,4.000000,4.000000,4.000000,4.000000,4.000000,4.000000,4.000000,4.000000,4.000000,4.000000,4.000000,4.000000,4.000000,4.000000,4.000000,4.000000,100.000000
1614304346.772249,28.000000,0.000000,-0.873397,-2.596782,-157.414597,-2.934428,-3.650852,2.715841,-3.573219,-2.383641,0.589164,0.118457,-1.915612,-22.785255,-33.903557,-3.719354,-16.105814,7.139606,-20.052141,12.031054,7.306503,-4.042209,13.122235,-6.193094,-6.378372,14.950115,27.056768,14.584760,1.723853,4.436780,9.586504,17.755972,-5.579331,-57.987072,0.000000,200.000000,4.000000,,,,0.000000,4.000000,4.000000,4.000000,4.000000,4.000000,4.000000,4.000000,4.000000,4.000000,4.000000,4.000000,4.000000,4.000000,4.000000,4.000000,4.000000,4.000000,4.000000,4.000000,4.000000,4.000000,4.000000,4.000000,4.000000,4.000000,4.000000,4.000000,4.000000,4.000000,4.000000,4.000000,4.000000,100.000000
1614304346.779998,29.000000,0.000000,0.665938,-0.030082,-157.257187,-2.931494,-3.647202,3.225945,-3.056826,-8.022283,0.075754,5.246544,-8.067543,-22.762470,-50.279911,-13.459225,-27.884579,-10.303431,-22.083372,8.942100,4.735094,-6.602270,4.903985,-5.161260,-5.859173,10.319780,28.055353,18.672739,-0.329153,6.483626,10.089739,18.763857,-2.496829,-53.826523,0.000000,193.000000,4.000000,,,,0.000000,4.000000,4.000000,4.000000,4.000000,4.000000,4.000000,4.000000,4.000000,4.000000,4.000000,4.000000,4.000000,4.000000,4.000000,4.000000,4.000000,4.000000,4.000000,4.000000,4.000000,4.000000,4.000000,4.000000,4.000000,4.000000,4.000000,4.000000,4.000000,4.000000,4.000000,4.000000,4.000000,100.000000
1614304346.787847,30.000000,0.000000,3.742195,0.482768,-156.587112,-3.954203,-6.207657,1.684258,-3.053769,-5.450158,0.075679,-1.425369,-8.572295,-21.201246,-37.921940,-12.932945,-24.266951,-8.754665,-19.497187,7.907516,4.730359,-3.005924,-3.818868,-5.156098,-4.827672,9.796640,19.309349,17.115604,0.696817,8.015604,9.054008,16.693811,-4.032794,-52.747055,0.000000,205.000000,4.000000,,,,0.000000,4.000000,4.000000,4.000000,4.000000,4.000000,4.000000,4.000000,4.000000,4.000000,4.000000,4.000000,4.000000,4.000000,4.000000,4.000000,4.000000,4.000000,4.000000,4.000000,4.000000,4.000000,4.000000,4.000000,4.000000,4.000000,4.000000,4.000000,4.000000,4.000000,4.000000,4.000000,4.000000,100.000000
1614304346.795596,31.000000,0.000000,3.225632,-0.030535,-160.020264,-8.052814,-11.329655,-0.368708,-3.050715,-5.957528,0.075603,-10.654713,-8.050902,-12.462095,-13.268632,-5.740525,-5.268325,6.125884,-8.195638,6.873968,-3.992320,-6.592661,-17.148382,-9.766327,-6.361306,0.556074,-0.709960,1.201053,-1.867983,2.879383,4.942389,10.010450,-7.105684,-54.745590,0.000000,190.000000,4.000000,,,,0.000000,4.000000,4.000000,4.000000,4.000000,4.000000,4.000000,4.000000,4.000000,4.000000,4.000000,4.000000,4.000000,4.000000,4.000000,4.000000,4.000000,4.000000,4.000000,4.000000,4.000000,4.000000,4.000000,4.000000,4.000000,4.000000,4.000000,4.000000,4.000000,4.000000,4.000000,4.000000,4.000000,100.000000
1614304346.803445,32.000000,0.000000,2.709586,-0.030504,-168.578186,-11.121683,-11.831145,-0.881160,-3.560485,-6.977211,0.075527,1.663634,2.213558,6.011905,2.642073,18.880600,18.839506,34.837708,10.786917,18.661964,5.755262,-0.945043,-9.951747,-2.577073,-1.226740,-15.341918,-10.965660,-5.979635,-6.481499,-4.302983,0.834883,4.872235,-10.688322,-65.972893,8064.000000,0.000000,4.000000,,,,0.000000,4.000000,4.000000,4.000000,4.000000,4.000000,4.000000,4.000000,4.000000,4.000000,4.000000,4.000000,4.000000,4.000000,4.000000,4.000000,4.000000,4.000000,4.000000,4.000000,4.000000,4.000000,4.000000,4.000000,4.000000,4.000000,4.000000,4.000000,4.000000,4.000000,4.000000,4.000000,4.000000,100.000000
1614304346.811194,33.000000,0.000000,5.270979,-0.030474,-173.537811,-11.110561,-11.819314,-1.905920,-2.531283,4.824637,0.075452,19.097868,29.903652,24.980251,21.613789,51.682232,46.000156,67.623383,30.776131,42.745869,33.954636,25.209747,19.801794,17.938324,12.107821,-16.865038,0.327357,3.257114,-4.936556,-3.785860,1.859689,9.995568,-10.677633,-71.547951,8064.000000,0.000000,4.000000,,,,0.000000,4.000000,4.000000,4.000000,4.000000,4.000000,4.000000,4.000000,4.000000,4.000000,4.000000,4.000000,4.000000,4.000000,4.000000,4.000000,4.000000,4.000000,4.000000,4.000000,4.000000,4.000000,4.000000,4.000000,4.000000,4.000000,4.000000,4.000000,4.000000,4.000000,4.000000,4.000000,4.000000,100.000000
1614304346.819043,34.000000,0.000000,9.881092,0.482377,-170.287354,-9.560989,-10.781854,1.685730,3.625094,22.768530,3.665120,23.694155,52.437851,39.314247,44.669098,70.604912,71.082359,93.709602,45.617149,66.292862,52.895039,48.261463,49.525581,38.946026,22.352123,4.690289,20.839849,9.407702,5.837611,3.397413,5.960393,18.703522,-8.102853,-57.630245,8064.000000,0.000000,4.000000,,,,0.000000,4.000000,4.000000,4.000000,4.000000,4.000000,4.000000,4.000000,4.000000,4.000000,4.000000,4.000000,4.000000,4.000000,4.000000,4.000000,4.000000,4.000000,4.000000,4.000000,4.000000,4.000000,4.000000,4.000000,4.000000,4.000000,4.000000,4.000000,4.000000,4.000000,4.000000,4.000000,4.000000,100.000000
1614304346.826792,35.000000,0.000000,11.922494,0.481895,-166.014511,-11.089890,-3.078764,9.889173,8.236854,25.822685,11.866583,23.670460,53.411053,38.249290,47.188534,73.611229,78.703583,105.410767,48.648457,74.431702,60.534451,53.854225,68.450417,51.727592,22.842590,32.890728,34.152344,7.859834,17.626646,8.522221,5.954433,17.146357,-7.069109,-45.264923,8064.000000,0.000000,4.000000,,,,0.000000,4.000000,4.000000,4.000000,4.000000,4.000000,4.000000,4.000000,4.000000,4.000000,4.000000,4.000000,4.000000,4.000000,4.000000,4.000000,4.000000,4.000000,4.000000,4.000000,4.000000,4.000000,4.000000,4.000000,4.000000,4.000000,4.000000,4.000000,4.000000,4.000000,4.000000,4.000000,4.000000,100.000000
1614304346.834441,36.000000,0.000000,10.372109,-0.544228,-159.694641,-11.078800,11.283289,14.494668,9.254258,20.155836,19.034204,24.159611,50.793541,22.826426,33.808010,71.486336,68.881294,96.587410,38.856216,69.741882,70.217506,54.826012,76.587097,50.650227,16.665903,45.678349,38.220757,9.390435,19.660301,8.513699,4.922838,18.154850,-3.985117,-46.245300,8064.000000,0.000000,4.000000,,,,0.000000,4.000000,4.000000,4.000000,4.000000,4.000000,4.000000,4.000000,4.000000,4.000000,4.000000,4.000000,4.000000,4.000000,4.000000,4.000000,4.000000,4.000000,4.000000,4.000000,4.000000,4.000000,4.000000,4.000000,4.000000,4.000000,4.000000,4.000000,4.000000,4.000000,4.000000,4.000000,4.000000,100.000000
1614304346.842190,37.000000,0.000000,8.310455,0.481957,-154.406738,-6.452337,18.964314,16.018635,8.732183,17.571579,21.066452,25.673912,49.204285,10.495908,25.056253,60.645618,50.863693,71.875435,22.407104,64.031120,70.147293,47.591698,77.023331,38.804703,8.956928,40.504467,40.746635,13.483609,16.050898,7.992364,12.097403,31.470030,5.249637,-44.147774,8064.000000,0.000000,4.000000,,,,0.000000,4.000000,4.000000,4.000000,4.000000,4.000000,4.000000,4.000000,4.000000,4.000000,4.000000,4.000000,4.000000,4.000000,4.000000,4.000000,4.000000,4.000000,4.000000,4.000000,4.000000,4.000000,4.000000,4.000000,4.000000,4.000000,4.000000,4.000000,4.000000,4.000000,4.000000,4.000000,4.000000,100.000000
1614304346.849839,38.000000,0.000000,7.789324,0.994296,-159.893372,-7.471526,9.201759,10.874411,6.159348,12.938622,14.378718,23.084135,30.180723,2.793104,7.595300,32.892662,20.556419,40.521507,4.948800,53.710674,54.179707,22.928722,66.689896,23.894104,5.871049,35.335754,38.654610,13.470125,16.034845,9.010013,17.213511,30.412918,8.321311,-41.539524,8064.000000,0.000000,4.000000,,,,0.000000,4.000000,4.000000,4.000000,4.000000,4.000000,4.000000,4.000000,4.000000,4.000000,4.000000,4.000000,4.000000,4.000000,4.000000,4.000000,4.000000,4.000000,4.000000,4.000000,4.000000,4.000000,4.000000,4.000000,4.000000,4.000000,4.000000,4.000000,4.000000,4.000000,4.000000,4.000000,4.000000,100.000000
1614304346.857589,39.000000,0.000000,5.730253,-6.186186,-169.989883,-19.771746,-12.858725,-6.059541,0.512163,3.694915,2.056648,7.163616,5.022337,-8.491740,-20.617424,0.552079,-10.746189,8.173295,-8.902303,28.528759,33.099884,1.880153,40.469357,6.947133,6.377998,30.172215,31.436466,7.302809,14.993170,6.949721,5.401424,7.305583,-3.481882,-52.780033,7936.000000,0.000000,4.000000,,,,0.000000,4.000000,4.000000,4.000000,4.000000,4.000000,4.000000,4.000000,4.000000,4.000000,4.000000,4.000000,4.000000,4.000000,4.000000,4.000000,4.000000,4.000000,4.000000,4.000000,4.000000,4.000000,4.000000,4.000000,4.000000,4.000000,4.000000,4.000000,4.000000,4.000000,4.000000,4.000000,4.000000,100.000000
1614304346.865238,40.000000,0.000000,3.160420,-13.872308,-173.922455,-23.854538,-25.666378,-15.284250,-3.078092,1.127117,-4.099256,-9.253804,-2.162173,-12.072992,-32.904499,-24.063858,-25.094418,-15.937443,-13.508785,2.346385,9.477042,-4.788393,9.146836,-4.341866,5.858799,18.347172,24.738363,-0.396801,10.362792,2.327387,-4.860387,-5.522236,-13.221991,-64.009308,8064.000000,0.000000,4.000000,,,,0.000000,4.000000,4.000000,4.000000,4.000000,4.000000,4.000000,4.000000,4.000000,4.000000,4.000000,4.000000,4.000000,4.000000,4.000000,4.000000,4.000000,4.000000,4.000000,4.000000,4.000000,4.000000,4.000000,4.000000,4.000000,4.000000,4.000000,4.000000,4.000000,4.000000,4.000000,4.000000,4.000000,100.000000
1614304346.872987,41.000000,0.000000,3.670080,-11.807153,-175.286987,-19.215300,-26.666353,-7.576658,-3.075014,2.151631,-3.069515,-10.783011,-0.621549,-2.830150,-31.333132,-28.142359,-24.043682,-24.126633,-11.956815,-9.450833,-6.942691,-15.552836,-17.016157,-4.850345,5.852941,4.995491,11.380292,-3.986148,7.788327,0.786598,-4.855527,-4.491073,-14.747230,-63.945297,8064.000000,0.000000,4.000000,,,,0.000000,4.000000,4.000000,4.000000,4.000000,4.000000,4.000000,4.000000,4.000000,4.000000,4.000000,4.000000,4.000000,4.000000,4.000000,4.000000,4.000000,4.000000,4.000000,4.000000,4.000000,4.000000,4.000000,4.000000,4.000000,4.000000,4.000000,4.000000,4.000000,4.000000,4.000000,4.000000,4.000000,100.000000
1614304346.880636,42.000000,0.000000,3.666410,-7.179961,-181.265549,-23.298649,-29.716610,-7.569082,-2.559119,-4.004367,-4.604907,-12.310690,-4.723492,0.249603,-31.301800,-24.524471,-18.891434,-24.102507,-12.970499,-14.056767,-11.551133,-25.793694,-35.973499,-8.435238,4.308626,-4.240274,-9.656730,-12.187290,5.729257,-0.239830,-11.004518,-11.153249,-18.835047,-69.009560,8064.000000,0.000000,4.000000,,,,0.000000,4.000000,4.000000,4.000000,4.000000,4.000000,4.000000,4.000000,4.000000,4.000000,4.000000,4.000000,4.000000,4.000000,4.000000,4.000000,4.000000,4.000000,4.000000,4.000000,4.000000,4.000000,4.000000,4.000000,4.000000,4.000000,4.000000,4.000000,4.000000,4.000000,4.000000,4.000000,4.000000,100.000000
1614304346.888385,43.000000,0.000000,0.585821,-7.172781,-182.622757,-29.942017,-34.302277,-16.279461,-3.069380,-10.667029,-7.164405,-18.965046,-3.693127,-2.827570,-23.065369,-11.166615,-6.564849,-9.719430,-11.931888,-12.504250,-12.565223,-21.665335,-36.450348,-12.529366,1.740215,-15.005264,-14.775278,-18.841770,4.185066,-2.803693,-18.685820,-17.295940,-22.405954,-79.196960,8064.000000,0.000000,4.000000,,,,0.000000,4.000000,4.000000,4.000000,4.000000,4.000000,4.000000,4.000000,4.000000,4.000000,4.000000,4.000000,4.000000,4.000000,4.000000,4.000000,4.000000,4.000000,4.000000,4.000000,4.000000,4.000000,4.000000,4.000000,4.000000,4.000000,4.000000,4.000000,4.000000,4.000000,4.000000,4.000000,4.000000,100.000000
1614304346.896034,44.000000,0.000000,0.072414,-7.165608,-180.901672,-25.809511,-34.267975,-16.263182,-2.553490,-6.553798,-7.670061,-14.843517,7.592618,2.303463,-3.555124,16.536860,15.492997,21.572340,-0.637905,4.944152,-6.398812,-12.412901,-20.003639,-3.286068,2.764116,-18.067183,-2.965631,-11.130620,4.693701,-2.800889,-15.590212,-13.176082,-22.896370,-81.169044,8064.000000,0.000000,4.000000,,,,0.000000,4.000000,4.000000,4.000000,4.000000,4.000000,4.000000,4.000000,4.000000,4.000000,4.000000,4.000000,4.000000,4.000000,4.000000,4.000000,4.000000,4.000000,4.000000,4.000000,4.000000,4.000000,4.000000,4.000000,4.000000,4.000000,4.000000,4.000000,4.000000,4.000000,4.000000,4.000000,4.000000,100.000000
1614304346.903783,45.000000,0.000000,3.149265,-9.209725,-183.284866,-24.758060,-33.720886,-16.246920,-2.550937,-2.444680,-8.688032,-5.597905,17.841434,8.967826,8.243302,36.007504,30.349298,47.704617,10.644785,26.477671,10.017843,-2.656898,-6.650302,9.024910,6.863916,-5.741423,3.191181,-4.452823,7.253110,-0.233986,-11.984878,-12.137264,-22.873474,-76.472488,8192.000000,0.000000,4.000000,,,,0.000000,4.000000,4.000000,4.000000,4.000000,4.000000,4.000000,4.000000,4.000000,4.000000,4.000000,4.000000,4.000000,4.000000,4.000000,4.000000,4.000000,4.000000,4.000000,4.000000,4.000000,4.000000,4.000000,4.000000,4.000000,4.000000,4.000000,4.000000,4.000000,4.000000,4.000000,4.000000,4.000000,100.000000
1614304346.911433,46.000000,0.000000,4.171757,-10.226156,-174.896454,-24.733301,-25.482038,-13.666570,-2.548386,-2.442235,-4.063959,-1.489742,22.951799,8.958858,10.799162,41.099701,32.370232,55.862038,12.172602,35.169140,23.853979,14.268835,8.740963,13.118449,9.933975,5.033549,6.777733,-2.909909,9.297139,1.304710,-10.434431,-12.125127,-17.722395,-70.754990,8064.000000,0.000000,4.000000,,,,0.000000,4.000000,4.000000,4.000000,4.000000,4.000000,4.000000,4.000000,4.000000,4.000000,4.000000,4.000000,4.000000,4.000000,4.000000,4.000000,4.000000,4.000000,4.000000,4.000000,4.000000,4.000000,4.000000,4.000000,4.000000,4.000000,4.000000,4.000000,4.000000,4.000000,4.000000,4.000000,4.000000,100.000000
1614304346.919182,47.000000,0.000000,3.141944,-3.549263,-150.618988,-12.400876,-5.456556,1.218892,-2.545837,4.226873,7.222156,12.357902,26.005770,7.924259,16.429388,50.289371,30.286579,58.883099,10.109147,43.339100,35.624996,30.664824,35.911709,20.284819,9.924041,8.105439,19.078648,10.939156,11.339124,2.841867,-2.218869,0.707511,-7.961082,-64.017570,8192.000000,0.000000,4.000000,,,,0.000000,4.000000,4.000000,4.000000,4.000000,4.000000,4.000000,4.000000,4.000000,4.000000,4.000000,4.000000,4.000000,4.000000,4.000000,4.000000,4.000000,4.000000,4.000000,4.000000,4.000000,4.000000,4.000000,4.000000,4.000000,4.000000,4.000000,4.000000,4.000000,4.000000,4.000000,4.000000,4.000000,100.000000
1614304346.926831,48.000000,0.000000,3.651623,0.044029,-138.673508,-2.644886,5.830952,9.935622,-2.543292,12.940596,12.855960,30.294262,27.005405,8.429154,18.977062,57.418568,30.256294,63.952423,10.611858,58.167557,49.435528,33.711082,53.311695,26.931200,9.914117,19.379385,27.264698,24.261549,12.353426,4.890307,3.937196,14.040137,-5.389019,-55.748425,8064.000000,0.000000,4.000000,,,,0.000000,4.000000,4.000000,4.000000,4.000000,4.000000,4.000000,4.000000,4.000000,4.000000,4.000000,4.000000,4.000000,4.000000,4.000000,4.000000,4.000000,4.000000,4.000000,4.000000,4.000000,4.000000,4.000000,4.000000,4.000000,4.000000,4.000000,4.000000,4.000000,4.000000,4.000000,4.000000,4.000000,100.000000
1614304346.934680,49.000000,0.000000,3.647971,-6.622681,-144.175858,-8.283266,-1.354367,2.746199,-2.540748,10.363552,11.304642,31.802429,25.952759,7.907905,13.317059,50.181664,31.251678,60.298725,11.114067,61.186310,58.104038,33.677372,56.848125,26.391449,9.904203,32.693340,32.878460,23.211647,11.315432,2.834135,2.907618,15.051738,-6.922091,-41.846519,8192.000000,0.000000,4.000000,,,,0.000000,4.000000,4.000000,4.000000,4.000000,4.000000,4.000000,4.000000,4.000000,4.000000,4.000000,4.000000,4.000000,4.000000,4.000000,4.000000,4.000000,4.000000,4.000000,4.000000,4.000000,4.000000,4.000000,4.000000,4.000000,4.000000,4.000000,4.000000,4.000000,4.000000,4.000000,4.000000,4.000000,100.000000
1614304346.942429,50.000000,0.000000,3.131502,-10.718623,-147.108597,-14.428829,-7.506858,-2.384752,-3.051028,4.712163,11.293338,22.539856,25.926805,11.489740,10.226819,40.900711,26.092220,45.366631,10.590132,52.919998,59.584396,36.207794,66.534866,27.390697,9.894299,31.122183,41.050709,23.188435,11.816936,1.292839,2.904710,14.011045,-6.402349,-32.573906,8064.000000,0.000000,4.000000,,,,0.000000,4.000000,4.000000,4.000000,4.000000,4.000000,4.000000,4.000000,4.000000,4.000000,4.000000,4.000000,4.000000,4.000000,4.000000,4.000000,4.000000,4.000000,4.000000,4.000000,4.000000,4.000000,4.000000,4.000000,4.000000,4.000000,4.000000,4.000000,4.000000,4.000000,4.000000,4.000000,4.000000,100.000000
1614304346.950278,51.000000,0.000000,4.666832,-7.630981,-146.448669,-13.388760,-6.473711,-0.331085,-2.535156,6.758733,12.307685,19.440393,25.900879,18.144918,10.216592,32.654682,16.835360,31.987932,9.553901,42.610668,55.935070,33.607487,64.417053,29.927410,9.884404,29.552601,37.419914,23.678068,12.317940,1.291546,3.414626,15.022675,-5.883126,-40.746460,8064.000000,0.000000,4.000000,,,,0.000000,4.000000,4.000000,4.000000,4.000000,4.000000,4.000000,4.000000,4.000000,4.000000,4.000000,4.000000,4.000000,4.000000,4.000000,4.000000,4.000000,4.000000,4.000000,4.000000,4.000000,4.000000,4.000000,4.000000,4.000000,4.000000,4.000000,4.000000,4.000000,4.000000,4.000000,4.000000,4.000000,100.000000
1614304346.958027,52.000000,0.000000,6.713448,-6.084888,-150.404785,-13.375371,-6.467237,0.694887,0.031481,9.316076,11.782557,20.446594,25.874979,20.178055,10.206375,25.955360,14.767242,25.802097,11.595629,29.234722,45.622723,28.958492,42.301353,28.871841,9.874520,29.523046,21.485058,10.321056,8.715878,-1.273848,0.847109,6.802524,-6.902884,-51.474945,8064.000000,0.000000,4.000000,,,,0.000000,4.000000,4.000000,4.000000,4.000000,4.000000,4.000000,4.000000,4.000000,4.000000,4.000000,4.000000,4.000000,4.000000,4.000000,4.000000,4.000000,4.000000,4.000000,4.000000,4.000000,4.000000,4.000000,4.000000,4.000000,4.000000,4.000000,4.000000,4.000000,4.000000,4.000000,4.000000,4.000000,100.000000
1614304346.965876,53.000000,0.000000,7.732375,-7.617265,-154.356949,-13.361995,-7.999231,1.207012,1.569911,9.306761,11.257954,21.964609,27.900385,19.132236,11.734631,31.570431,23.983244,25.263475,18.250700,23.564463,38.397614,27.391073,32.515461,28.842970,9.351825,18.211473,14.284086,-0.458496,9.219983,-0.759754,-1.205020,-1.409407,-7.408802,-52.961929,8064.000000,0.000000,4.000000,,,,0.000000,4.000000,4.000000,4.000000,4.000000,4.000000,4.000000,4.000000,4.000000,4.000000,4.000000,4.000000,4.000000,4.000000,4.000000,4.000000,4.000000,4.000000,4.000000,4.000000,4.000000,4.000000,4.000000,4.000000,4.000000,4.000000,4.000000,4.000000,4.000000,4.000000,4.000000,4.000000,4.000000,100.000000
1614304346.973625,54.000000,0.000000,9.775925,-7.609648,-155.741058,-8.733249,-2.863027,1.718626,1.568341,11.348736,11.246696,21.942644,33.513512,19.113104,16.338280,41.795269,37.805416,41.648468,22.335014,39.951153,40.923317,28.389322,42.739357,30.865408,11.393755,12.039415,21.449289,3.131706,15.877430,3.343570,-2.742277,2.694567,-7.914213,-53.934608,8064.000000,0.000000,4.000000,,,,0.000000,4.000000,4.000000,4.000000,4.000000,4.000000,4.000000,4.000000,4.000000,4.000000,4.000000,4.000000,4.000000,4.000000,4.000000,4.000000,4.000000,4.000000,4.000000,4.000000,4.000000,4.000000,4.000000,4.000000,4.000000,4.000000,4.000000,4.000000,4.000000,4.000000,4.000000,4.000000,4.000000,100.000000
1614304346.981474,55.000000,0.000000,11.304610,-6.576397,-153.021210,-7.186054,1.242401,3.255369,1.566773,13.388669,11.235449,22.433523,39.633842,19.606812,22.988609,48.932964,54.690685,73.401688,21.287037,61.449665,45.497780,33.489140,48.337643,32.885826,13.433643,24.335068,32.197071,8.256780,20.476936,1.288945,-0.688252,10.384180,-6.880658,-49.778111,8064.000000,0.000000,4.000000,,,,0.000000,4.000000,4.000000,4.000000,4.000000,4.000000,4.000000,4.000000,4.000000,4.000000,4.000000,4.000000,4.000000,4.000000,4.000000,4.000000,4.000000,4.000000,4.000000,4.000000,4.000000,4.000000,4.000000,4.000000,4.000000,4.000000,4.000000,4.000000,4.000000,4.000000,4.000000,4.000000,4.000000,100.000000
1614304346.989223,56.000000,0.000000,10.780485,-7.082641,-153.381012,-11.794252,-5.425508,4.277754,-0.998896,13.375280,9.685752,23.436729,40.619850,19.587204,28.606646,57.601978,65.405228,88.712906,21.265751,68.567703,47.503563,42.686420,46.238022,33.365761,13.420210,34.054321,33.190514,7.222882,18.917999,-3.327729,-0.687564,10.373796,-7.386598,-41.523205,8192.000000,0.000000,4.000000,,,,0.000000,4.000000,4.000000,4.000000,4.000000,4.000000,4.000000,4.000000,4.000000,4.000000,4.000000,4.000000,4.000000,4.000000,4.000000,4.000000,4.000000,4.000000,4.000000,4.000000,4.000000,4.000000,4.000000,4.000000,4.000000,4.000000,4.000000,4.000000,4.000000,4.000000,4.000000,4.000000,4.000000,100.000000
1614304346.997072,57.000000,0.000000,10.769705,-7.588379,-163.996857,-14.859381,-13.625212,-3.418831,-5.613282,12.336265,7.624784,19.823549,37.502308,17.003515,28.578039,55.493095,57.134693,77.854958,21.757305,66.960670,44.379139,44.182194,46.191784,31.793932,12.893970,31.968987,24.952196,5.677197,18.386261,-3.324401,-7.353543,8.312140,-8.404852,-49.173988,8064.000000,0.000000,4.000000,,,,0.000000,4.000000,4.000000,4.000000,4.000000,4.000000,4.000000,4.000000,4.000000,4.000000,4.000000,4.000000,4.000000,4.000000,4.000000,4.000000,4.000000,4.000000,4.000000,4.000000,4.000000,4.000000,4.000000,4.000000,4.000000,4.000000,4.000000,4.000000,4.000000,4.000000,4.000000,4.000000,4.000000,100.000000
1614304347.004821,58.000000,0.000000,10.758935,-5.529509,-167.422607,-12.793240,-13.611586,-8.030797,-6.633310,12.323928,7.104339,15.701162,35.413525,15.448050,24.959717,40.052986,45.282688,67.007874,21.222727,65.868073,41.257835,43.112370,48.196877,31.762138,12.881075,30.911377,25.440063,8.748444,19.906336,-3.321077,-5.294908,12.919212,-2.242601,-52.714558,8192.000000,0.000000,4.000000,,,,0.000000,4.000000,4.000000,4.000000,4.000000,4.000000,4.000000,4.000000,4.000000,4.000000,4.000000,4.000000,4.000000,4.000000,4.000000,4.000000,4.000000,4.000000,4.000000,4.000000,4.000000,4.000000,4.000000,4.000000,4.000000,4.000000,4.000000,4.000000,4.000000,4.000000,4.000000,4.000000,4.000000,100.000000
1614304347.012670,59.000000,0.000000,10.748177,-0.395774,-149.819290,-5.600959,-10.521051,3.772106,-3.549753,13.850065,7.610055,18.762384,37.429390,15.945422,21.857834,37.961651,44.724583,70.017792,21.201506,68.879128,53.524269,48.197464,50.712780,36.345760,13.381015,32.418926,37.722317,15.406362,18.347967,-1.779294,11.633464,21.624243,6.990410,-31.123383,8192.000000,0.000000,4.000000,,,,0.000000,4.000000,4.000000,4.000000,4.000000,4.000000,4.000000,4.000000,4.000000,4.000000,4.000000,4.000000,4.000000,4.000000,4.000000,4.000000,4.000000,4.000000,4.000000,4.000000,4.000000,4.000000,4.000000,4.000000,4.000000,4.000000,4.000000,4.000000,4.000000,4.000000,4.000000,4.000000,4.000000,100.000000
1614304347.020419,60.000000,0.000000,10.737428,0.630263,-138.900238,-2.005615,-11.023351,9.409359,-2.520563,11.784933,8.115266,23.871826,36.366322,11.314092,15.169311,45.615997,41.090115,65.845207,21.180304,66.758965,63.214336,42.508240,51.174889,31.694031,12.854814,32.899330,43.325619,19.493519,15.252696,3.350690,16.750036,25.705181,9.034702,-20.323029,8192.000000,0.000000,4.000000,,,,0.000000,4.000000,4.000000,4.000000,4.000000,4.000000,4.000000,4.000000,4.000000,4.000000,4.000000,4.000000,4.000000,4.000000,4.000000,4.000000,4.000000,4.000000,4.000000,4.000000,4.000000,4.000000,4.000000,4.000000,4.000000,4.000000,4.000000,4.000000,4.000000,4.000000,4.000000,4.000000,4.000000,100.000000
1614304347.028268,61.000000,0.000000,10.726690,0.116812,-147.992096,-3.542071,-11.525148,-2.907742,-2.518042,5.106482,7.594330,21.796673,28.637648,7.713034,9.000295,39.929356,28.228512,44.753723,21.159122,47.717846,44.176762,21.440090,43.944225,17.303362,13.354779,30.302326,37.641270,18.961205,14.724624,5.398622,7.502517,24.653835,8.000027,-31.071936,8192.000000,0.000000,4.000000,,,,0.000000,4.000000,4.000000,4.000000,4.000000,4.000000,4.000000,4.000000,4.000000,4.000000,4.000000,4.000000,4.000000,4.000000,4.000000,4.000000,4.000000,4.000000,4.000000,4.000000,4.000000,4.000000,4.000000,4.000000,4.000000,4.000000,4.000000,4.000000,4.000000,4.000000,4.000000,4.000000,4.000000,100.000000
1614304347.036017,62.000000,0.000000,10.715964,0.629516,-153.485138,-5.076990,-11.000802,-8.033040,-2.515524,7.665478,7.586736,19.210773,25.019266,17.961731,14.632320,31.171476,24.097719,31.375635,21.650784,26.131668,21.055662,10.649420,36.207973,14.721956,18.469629,23.092537,33.501064,19.455065,17.274002,4.367582,5.443732,25.654823,9.017668,-34.117786,8064.000000,0.000000,4.000000,,,,0.000000,4.000000,4.000000,4.000000,4.000000,4.000000,4.000000,4.000000,4.000000,4.000000,4.000000,4.000000,4.000000,4.000000,4.000000,4.000000,4.000000,4.000000,4.000000,4.000000,4.000000,4.000000,4.000000,4.000000,4.000000,4.000000,4.000000,4.000000,4.000000,4.000000,4.000000,4.000000,4.000000,100.000000
1614304347.043866,63.000000,0.000000,10.705248,-2.448037,-153.844467,-8.661656,-10.989801,-4.435263,-2.513009,17.401402,9.117610,19.704384,33.199375,27.174540,24.874098,33.704407,31.253109,34.934002,21.116314,23.541433,21.034607,13.715693,34.633305,22.912363,23.579365,21.018162,32.441921,17.384327,19.308010,4.363214,6.463929,24.090706,2.854804,-37.673412,8064.000000,0.000000,4.000000,,,,0.000000,4.000000,4.000000,4.000000,4.000000,4.000000,4.000000,4.000000,4.000000,4.000000,4.000000,4.000000,4.000000,4.000000,4.000000,4.000000,4.000000,4.000000,4.000000,4.000000,4.000000,4.000000,4.000000,4.000000,4.000000,4.000000,4.000000,4.000000,4.000000,4.000000,4.000000,4.000000,4.000000,100.000000
1614304347.051615,64.000000,0.000000,10.694543,-7.573794,-160.357300,-17.883764,-10.465991,-7.507751,-2.510495,17.384001,5.518749,19.171858,36.755920,21.506338,25.874865,37.260448,33.273140,37.463173,20.069555,24.543533,23.577675,12.163517,35.111492,23.402271,23.042965,26.125349,30.358196,10.187456,19.288702,4.871672,-1.747663,14.323026,-7.917282,-56.610100,0.000000,195.000000,4.000000,,,,0.000000,4.000000,4.000000,4.000000,4.000000,4.000000,4.000000,4.000000,4.000000,4.000000,4.000000,4.000000,4.000000,4.000000,4.000000,4.000000,4.000000,4.000000,4.000000,4.000000,4.000000,4.000000,4.000000,4.000000,4.000000,4.000000,4.000000,4.000000,4.000000,4.000000,4.000000,4.000000,4.000000,100.000000
1614304347.059264,65.000000,0.000000,10.683848,-6.540579,-164.299500,-22.994085,-9.942705,-8.525884,-2.507985,9.674309,-4.230359,16.075764,31.078138,14.305346,19.695145,35.684727,31.188583,35.887249,21.587948,23.493349,22.528456,13.176994,35.589203,21.840406,20.968639,28.663326,29.302198,6.587525,17.730951,4.353980,-6.361300,6.103575,-12.011929,-63.732975,0.000000,198.000000,4.000000,,,,0.000000,4.000000,4.000000,4.000000,4.000000,4.000000,4.000000,4.000000,4.000000,4.000000,4.000000,4.000000,4.000000,4.000000,4.000000,4.000000,4.000000,4.000000,4.000000,4.000000,4.000000,4.000000,4.000000,4.000000,4.000000,4.000000,4.000000,4.000000,4.000000,4.000000,4.000000,4.000000,4.000000,100.000000
1614304347.067014,66.000000,0.000000,10.673164,-0.893013,-160.545456,-20.406988,-10.958403,-2.876333,-2.505477,8.126173,-7.815873,13.495585,28.482958,15.316681,17.624166,35.136219,33.208675,44.569309,20.027899,37.316010,35.326439,27.009972,43.245918,27.459593,20.947672,27.609022,29.785715,7.606578,15.661938,4.862446,-5.329298,5.584651,-10.461455,-54.438473,0.000000,179.000000,4.000000,,,,0.000000,4.000000,4.000000,4.000000,4.000000,4.000000,4.000000,4.000000,4.000000,4.000000,4.000000,4.000000,4.000000,4.000000,4.000000,4.000000,4.000000,4.000000,4.000000,4.000000,4.000000,4.000000,4.000000,4.000000,4.000000,4.000000,4.000000,4.000000,4.000000,4.000000,4.000000,4.000000,4.000000,100.000000
1614304347.074663,67.000000,0.000000,10.662491,1.159162,-158.846451,-17.822479,-10.947445,-0.309354,-2.502972,9.143688,-6.782415,16.559013,28.967295,15.814184,18.119364,36.126724,36.252392,55.806789,10.777102,54.201771,51.701370,37.239372,53.459084,29.483416,20.926723,28.607054,29.755930,7.598972,15.133455,4.344763,-4.811148,6.604707,-10.450994,-51.307110,0.000000,155.000000,4.000000,,,,0.000000,4.000000,4.000000,4.000000,4.000000,4.000000,4.000000,4.000000,4.000000,4.000000,4.000000,4.000000,4.000000,4.000000,4.000000,4.000000,4.000000,4.000000,4.000000,4.000000,4.000000,4.000000,4.000000,4.000000,4.000000,4.000000,4.000000,4.000000,4.000000,4.000000,4.000000,4.000000,4.000000,100.000000
1614304347.082412,68.000000,0.000000,10.651829,-0.893279,-159.200424,-17.291836,-9.398036,-0.309044,-2.500468,6.057621,-9.852556,13.978352,25.348583,14.772730,13.998679,36.090599,35.190498,55.238163,7.689401,53.121925,55.239410,36.689312,55.969727,28.941111,20.392977,28.578447,29.726173,7.078552,15.118322,4.853239,-5.319157,6.085282,-11.466184,-52.281445,0.000000,188.000000,4.000000,,,,0.000000,4.000000,4.000000,4.000000,4.000000,4.000000,4.000000,4.000000,4.000000,4.000000,4.000000,4.000000,4.000000,4.000000,4.000000,4.000000,4.000000,4.000000,4.000000,4.000000,4.000000,4.000000,4.000000,4.000000,4.000000,4.000000,4.000000,4.000000,4.000000,4.000000,4.000000,4.000000,4.000000,100.000000
1614304347.090061,69.000000,0.000000,10.641177,-2.943668,-159.041229,-17.274544,-14.516843,-0.821556,-2.497968,4.513102,-14.458088,-2.445884,21.220671,14.757957,9.369296,35.541687,32.591206,49.541901,17.425301,46.402138,52.620071,35.626980,53.862476,28.912170,20.885405,28.037048,28.670807,7.584294,15.103204,4.848385,-4.801017,6.079196,-10.429076,-49.152241,0.000000,187.000000,4.000000,,,,0.000000,4.000000,4.000000,4.000000,4.000000,4.000000,4.000000,4.000000,4.000000,4.000000,4.000000,4.000000,4.000000,4.000000,4.000000,4.000000,4.000000,4.000000,4.000000,4.000000,4.000000,4.000000,4.000000,4.000000,4.000000,4.000000,4.000000,4.000000,4.000000,4.000000,4.000000,4.000000,4.000000,100.000000
1614304347.097810,70.000000,0.000000,9.092074,-3.453545,-158.369370,-17.257271,-24.245916,-4.410478,-2.495470,5.021410,-14.956450,-11.161386,20.173809,14.743198,9.872747,35.506145,31.020151,49.492359,21.510441,47.381378,51.541809,35.591354,53.295792,23.755053,17.274775,29.034653,24.026752,7.576710,15.088100,1.766614,-4.796216,6.585938,-10.418648,-44.487705,0.000000,200.000000,4.000000,,,,0.000000,4.000000,4.000000,4.000000,4.000000,4.000000,4.000000,4.000000,4.000000,4.000000,4.000000,4.000000,4.000000,4.000000,4.000000,4.000000,4.000000,4.000000,4.000000,4.000000,4.000000,4.000000,4.000000,4.000000,4.000000,4.000000,4.000000,4.000000,4.000000,4.000000,4.000000,4.000000,4.000000,100.000000
1614304347.105459,71.000000,0.000000,7.031700,-3.450091,-158.210999,-17.240013,-26.272951,-7.482990,-2.492975,6.042029,-14.941494,5.772852,21.179276,15.241276,12.426977,35.470638,33.553234,52.006969,17.386366,48.359638,50.464626,35.555763,52.216858,17.064631,11.103654,24.903053,18.361700,7.569133,14.047372,-3.363358,-4.791420,6.066531,-10.408229,-39.827831,0.000000,185.000000,4.000000,,,,0.000000,4.000000,4.000000,4.000000,4.000000,4.000000,4.000000,4.000000,4.000000,4.000000,4.000000,4.000000,4.000000,4.000000,4.000000,4.000000,4.000000,4.000000,4.000000,4.000000,4.000000,4.000000,4.000000,4.000000,4.000000,4.000000,4.000000,4.000000,4.000000,4.000000,4.000000,4.000000,4.000000,100.000000
1614304347.113208,72.000000,0.000000,6.511848,-3.446641,-158.565598,-17.222773,-22.656935,-5.937046,-2.490482,8.087269,-9.798347,20.638874,26.286303,17.277317,14.978653,35.947990,38.135067,51.954960,16.343338,45.747173,44.260315,33.981747,43.446690,16.021925,9.041268,16.160202,17.830517,7.561564,11.982042,-3.359994,-4.786629,6.573286,-10.397820,-42.352108,0.000000,200.000000,4.000000,,,,0.000000,4.000000,4.000000,4.000000,4.000000,4.000000,4.000000,4.000000,4.000000,4.000000,4.000000,4.000000,4.000000,4.000000,4.000000,4.000000,4.000000,4.000000,4.000000,4.000000,4.000000,4.000000,4.000000,4.000000,4.000000,4.000000,4.000000,4.000000,4.000000,4.000000,4.000000,4.000000,4.000000,100.000000
1614304347.120858,73.000000,0.000000,7.018157,-3.443195,-157.894211,-17.205549,-21.608637,-5.931109,-2.487991,9.617643,-3.121883,14.464389,31.901041,19.311321,20.604700,36.937683,40.661034,53.954288,17.865456,43.137325,34.472466,25.742636,25.454525,17.031544,8.519406,13.067119,18.838327,7.554002,10.944419,-3.356634,-4.781842,6.566712,-10.387423,-56.155907,0.000000,201.000000,4.000000,,,,0.000000,4.000000,4.000000,4.000000,4.000000,4.000000,4.000000,4.000000,4.000000,4.000000,4.000000,4.000000,4.000000,4.000000,4.000000,4.000000,4.000000,4.000000,4.000000,4.000000,4.000000,4.000000,4.000000,4.000000,4.000000,4.000000,4.000000,4.000000,4.000000,4.000000,4.000000,4.000000,4.000000,100.000000
1614304347.128607,74.000000,0.000000,7.011138,-2.926931,-156.710678,-16.675524,-22.099850,-7.463639,-2.485503,9.608026,-3.631581,7.270437,33.407600,20.830471,22.122557,35.875103,39.594730,56.464436,19.386053,43.094189,30.335428,19.563047,18.762405,17.527332,10.049349,12.028410,17.793848,8.059269,11.959116,-3.353278,-4.777060,6.047325,-10.377035,-62.766418,0.000000,173.000000,4.000000,,,,0.000000,4.000000,4.000000,4.000000,4.000000,4.000000,4.000000,4.000000,4.000000,4.000000,4.000000,4.000000,4.000000,4.000000,4.000000,4.000000,4.000000,4.000000,4.000000,4.000000,4.000000,4.000000,4.000000,4.000000,4.000000,4.000000,4.000000,4.000000,4.000000,4.000000,4.000000,4.000000,4.000000,100.000000
1614304347.136256,75.000000,0.000000,7.004127,-3.949645,-158.092438,-16.658848,-21.564928,-8.481816,-2.483018,9.085597,-6.192052,9.314449,34.399834,22.348103,21.587614,35.326408,39.555138,55.382332,20.905128,44.076736,33.382015,29.799894,39.256462,24.689293,18.244427,13.554843,19.314516,7.538389,11.434336,2.803922,-4.772283,7.066918,-8.315376,-49.883141,0.000000,200.000000,4.000000,,,,0.000000,4.000000,4.000000,4.000000,4.000000,4.000000,4.000000,4.000000,4.000000,4.000000,4.000000,4.000000,4.000000,4.000000,4.000000,4.000000,4.000000,4.000000,4.000000,4.000000,4.000000,4.000000,4.000000,4.000000,4.000000,4.000000,4.000000,4.000000,4.000000,4.000000,4.000000,4.000000,4.000000,100.000000
1614304347.144005,76.000000,0.000000,6.484303,-2.407234,-156.908691,-16.129370,-21.543364,-9.498976,-2.480535,8.050871,-3.621758,8.792315,29.237230,22.325754,22.591667,36.316723,40.541222,56.352589,20.371403,45.058300,34.374275,47.205990,63.832592,39.023579,25.405670,23.797699,23.910585,7.018030,10.910081,10.493425,-4.767511,11.162416,-6.255779,-36.499924,0.000000,168.000000,4.000000,,,,0.000000,4.000000,4.000000,4.000000,4.000000,4.000000,4.000000,4.000000,4.000000,4.000000,4.000000,4.000000,4.000000,4.000000,4.000000,4.000000,4.000000,4.000000,4.000000,4.000000,4.000000,4.000000,4.000000,4.000000,4.000000,4.000000,4.000000,4.000000,4.000000,4.000000,4.000000,4.000000,4.000000,100.000000
1614304347.151654,77.000000,0.000000,6.990639,-0.353544,-148.033844,-13.036317,-21.521820,-4.361272,-2.990875,6.504358,-2.079674,1.091214,18.438763,19.739326,16.415230,30.639380,35.372475,54.244957,22.402313,48.090164,33.314259,53.312630,70.435425,48.728146,22.303341,35.568771,26.963598,9.062294,12.437633,13.047034,-4.762743,14.228176,-6.762344,-39.027527,0.000000,185.000000,4.000000,,,,0.000000,4.000000,4.000000,4.000000,4.000000,4.000000,4.000000,4.000000,4.000000,4.000000,4.000000,4.000000,4.000000,4.000000,4.000000,4.000000,4.000000,4.000000,4.000000,4.000000,4.000000,4.000000,4.000000,4.000000,4.000000,4.000000,4.000000,4.000000,4.000000,4.000000,4.000000,4.000000,4.000000,100.000000
1614304347.159403,78.000000,0.000000,6.983648,-2.404473,-146.860168,-12.510460,-20.987478,2.309756,-2.475063,3.420931,-3.103236,-6.089365,14.317760,12.027280,1.014199,15.224126,24.567873,41.370197,20.328629,45.990791,34.819408,45.054192,69.339348,40.474289,18.178474,37.071667,25.910994,5.976309,9.861093,11.495526,-4.757981,13.188307,-6.755581,-45.655167,0.000000,219.000000,4.000000,,,,0.000000,4.000000,4.000000,4.000000,4.000000,4.000000,4.000000,4.000000,4.000000,4.000000,4.000000,4.000000,4.000000,4.000000,4.000000,4.000000,4.000000,4.000000,4.000000,4.000000,4.000000,4.000000,4.000000,4.000000,4.000000,4.000000,4.000000,4.000000,4.000000,4.000000,4.000000,4.000000,4.000000,100.000000
1614304347.167052,79.000000,0.000000,4.925383,-7.017453,-159.533813,-20.190258,-21.992132,-1.795118,-2.472588,-0.685054,-3.100132,-8.134557,7.636775,-0.805261,-9.756046,3.414030,17.876638,27.482674,2.872402,35.175571,35.297409,31.162983,65.680267,20.946634,12.519270,31.906389,21.782518,-3.260437,0.620462,4.817364,-5.266043,10.611016,-6.748826,-47.147972,0.000000,199.000000,4.000000,,,,0.000000,4.000000,4.000000,4.000000,4.000000,4.000000,4.000000,4.000000,4.000000,4.000000,4.000000,4.000000,4.000000,4.000000,4.000000,4.000000,4.000000,4.000000,4.000000,4.000000,4.000000,4.000000,4.000000,4.000000,4.000000,4.000000,4.000000,4.000000,4.000000,4.000000,4.000000,4.000000,4.000000,100.000000
1614304347.174801,80.000000,0.000000,3.381995,-8.036077,-165.015305,-23.759809,-20.944498,-6.408707,-2.982936,-2.735651,-3.097032,-5.562320,-4.165733,-6.445481,-9.746290,8.538820,16.833120,26.429550,-9.438162,28.473728,32.185188,23.952332,48.691509,9.643637,0.199058,20.592432,17.145351,-8.385382,-5.021184,0.197162,-4.747957,8.549123,-6.742077,-47.100822,0.000000,175.000000,4.000000,,,,0.000000,4.000000,4.000000,4.000000,4.000000,4.000000,4.000000,4.000000,4.000000,4.000000,4.000000,4.000000,4.000000,4.000000,4.000000,4.000000,4.000000,4.000000,4.000000,4.000000,4.000000,4.000000,4.000000,4.000000,4.000000,4.000000,4.000000,4.000000,4.000000,4.000000,4.000000,4.000000,4.000000,100.000000
1614304347.182451,81.000000,0.000000,6.455537,-4.438297,-156.132339,-14.505281,-16.308170,2.315650,-1.441492,-1.707275,-3.093935,0.597089,5.069201,4.330195,-0.505775,25.966179,17.329107,32.044147,-3.787699,31.009356,31.640182,24.441200,28.642817,9.121172,-6.467807,6.725685,14.564104,-5.300073,-1.426419,4.299529,-2.691926,7.002112,-6.735335,-45.515263,0.000000,211.000000,4.000000,,,,0.000000,4.000000,4.000000,4.000000,4.000000,4.000000,4.000000,4.000000,4.000000,4.000000,4.000000,4.000000,4.000000,4.000000,4.000000,4.000000,4.000000,4.000000,4.000000,4.000000,4.000000,4.000000,4.000000,4.000000,4.000000,4.000000,4.000000,4.000000,4.000000,4.000000,4.000000,4.000000,4.000000,100.000000
1614304347.190200,82.000000,0.000000,10.551645,0.181526,-151.873657,-7.824110,-13.214938,8.980001,0.611232,-1.705567,-3.090841,9.827261,29.679518,18.684839,14.366526,39.786366,22.439983,33.037743,1.857115,33.029629,29.557261,21.339836,19.896225,9.112051,-3.384417,1.077934,14.549540,-3.243491,0.113469,7.372152,-0.637953,5.969470,-6.728600,-42.905643,0.000000,196.000000,4.000000,,,,0.000000,4.000000,4.000000,4.000000,4.000000,4.000000,4.000000,4.000000,4.000000,4.000000,4.000000,4.000000,4.000000,4.000000,4.000000,4.000000,4.000000,4.000000,4.000000,4.000000,4.000000,4.000000,4.000000,4.000000,4.000000,4.000000,4.000000,4.000000,4.000000,4.000000,4.000000,4.000000,4.000000,100.000000
1614304347.197849,83.000000,0.000000,10.541094,-0.844297,-153.260239,-12.944490,-13.201723,4.868457,1.636262,-2.216682,-3.087750,14.945639,38.367786,23.281540,22.044468,45.387608,31.135492,32.491886,3.906540,31.970959,19.784113,16.190292,13.209662,8.590118,2.259994,1.589676,14.534990,-3.753068,-0.399465,2.236575,-1.150135,6.476321,-6.721871,-45.939659,0.000000,201.000000,4.000000,,,,0.000000,4.000000,4.000000,4.000000,4.000000,4.000000,4.000000,4.000000,4.000000,4.000000,4.000000,4.000000,4.000000,4.000000,4.000000,4.000000,4.000000,4.000000,4.000000,4.000000,4.000000,4.000000,4.000000,4.000000,4.000000,4.000000,4.000000,4.000000,4.000000,4.000000,4.000000,4.000000,4.000000,100.000000
1614304347.205698,84.000000,0.000000,10.530553,-6.997299,-152.081345,-17.034109,-13.701342,2.812307,1.121805,-1.701645,-2.571842,13.905052,37.303776,21.719795,22.022423,47.906322,36.745384,33.997852,14.671864,31.426167,10.533560,15.661281,3.452863,8.581529,8.411580,0.562445,14.520455,-4.774956,7.293242,2.747159,-1.148985,5.957024,-7.227970,-51.534748,0.000000,201.000000,4.000000,,,,0.000000,4.000000,4.000000,4.000000,4.000000,4.000000,4.000000,4.000000,4.000000,4.000000,4.000000,4.000000,4.000000,4.000000,4.000000,4.000000,4.000000,4.000000,4.000000,4.000000,4.000000,4.000000,4.000000,4.000000,4.000000,4.000000,4.000000,4.000000,4.000000,4.000000,4.000000,4.000000,4.000000,100.000000
1614304347.213447,85.000000,0.000000,10.520021,-5.964660,-156.031815,-16.504255,-19.841486,0.758212,1.120683,-1.699943,-3.594912,12.352685,34.189552,22.723717,22.000401,47.345596,37.734280,33.963856,22.862320,29.343458,6.420462,14.107158,-1.678795,9.598588,13.531373,2.100344,14.505935,-2.718899,15.491076,7.359797,-1.147836,6.463887,-6.195101,-45.842186,0.000000,197.000000,4.000000,,,,0.000000,4.000000,4.000000,4.000000,4.000000,4.000000,4.000000,4.000000,4.000000,4.000000,4.000000,4.000000,4.000000,4.000000,4.000000,4.000000,4.000000,4.000000,4.000000,4.000000,4.000000,4.000000,4.000000,4.000000,4.000000,4.000000,4.000000,4.000000,4.000000,4.000000,4.000000,4.000000,4.000000,100.000000
1614304347.221296,86.000000,0.000000,10.509501,4.297715,-163.055283,-18.539034,-30.078056,-2.832289,1.119562,-1.698243,-5.642599,11.827512,22.873310,23.726635,20.952759,39.605942,35.645264,33.417072,21.813816,25.724371,3.337119,12.041769,2.938269,14.717195,13.517842,3.636706,15.004250,3.437666,15.988406,6.326796,-1.146688,6.457423,-4.137623,-36.052753,0.000000,204.000000,4.000000,,,,0.000000,4.000000,4.000000,4.000000,4.000000,4.000000,4.000000,4.000000,4.000000,4.000000,4.000000,4.000000,4.000000,4.000000,4.000000,4.000000,4.000000,4.000000,4.000000,4.000000,4.000000,4.000000,4.000000,4.000000,4.000000,4.000000,4.000000,4.000000,4.000000,4.000000,4.000000,4.000000,4.000000,100.000000
1614304347.229045,87.000000,0.000000,10.498992,8.908802,-163.917862,-21.084597,-33.124901,-4.367919,1.118443,-1.696545,-7.175417,12.328506,14.132488,22.677267,14.777960,27.258642,29.968592,34.922115,21.792004,24.673006,8.974807,15.106650,15.755843,21.881964,12.991504,6.197172,14.989244,8.562434,14.946776,5.807648,-1.145542,5.938145,-2.595024,-40.119267,0.000000,189.000000,4.000000,,,,0.000000,4.000000,4.000000,4.000000,4.000000,4.000000,4.000000,4.000000,4.000000,4.000000,4.000000,4.000000,4.000000,4.000000,4.000000,4.000000,4.000000,4.000000,4.000000,4.000000,4.000000,4.000000,4.000000,4.000000,4.000000,4.000000,4.000000,4.000000,4.000000,4.000000,4.000000,4.000000,4.000000,100.000000
1614304347.236894,88.000000,0.000000,10.488493,5.310149,-163.753937,-21.063513,-32.066135,-7.953294,1.117324,-1.694849,-6.655422,11.803356,12.067073,22.141769,6.558053,16.974974,26.348879,29.758989,19.718929,24.648333,26.914551,23.809492,31.637524,26.988287,14.004153,15.934565,14.974256,8.041051,15.957471,6.314662,-1.144396,6.957848,-3.105250,-48.284275,0.000000,185.000000,4.000000,,,,0.000000,4.000000,4.000000,4.000000,4.000000,4.000000,4.000000,4.000000,4.000000,4.000000,4.000000,4.000000,4.000000,4.000000,4.000000,4.000000,4.000000,4.000000,4.000000,4.000000,4.000000,4.000000,4.000000,4.000000,4.000000,4.000000,4.000000,4.000000,4.000000,4.000000,4.000000,4.000000,4.000000,100.000000
1614304347.244643,89.000000,0.000000,10.478004,3.766377,-163.590195,-21.042448,-33.572529,-12.560726,1.116207,-1.693154,-6.648766,11.278732,5.901160,22.632448,1.423290,12.342614,19.655863,15.370255,14.571005,24.623686,38.682507,31.990810,42.375118,29.525402,13.477328,25.149399,14.959281,7.007369,15.428693,2.718603,-1.143252,9.514993,-3.102144,-42.082146,0.000000,181.000000,4.000000,,,,0.000000,4.000000,4.000000,4.000000,4.000000,4.000000,4.000000,4.000000,4.000000,4.000000,4.000000,4.000000,4.000000,4.000000,4.000000,4.000000,4.000000,4.000000,4.000000,4.000000,4.000000,4.000000,4.000000,4.000000,4.000000,4.000000,4.000000,4.000000,4.000000,4.000000,4.000000,4.000000,4.000000,100.000000
1614304347.252492,90.000000,0.000000,10.467526,2.736970,-156.759933,-19.995766,-31.487675,-11.009704,1.115091,-1.691461,-6.642118,11.780274,1.279874,21.071354,-1.142235,7.202066,4.251592,6.636937,13.530793,25.111881,39.669468,35.035744,46.948128,28.470236,12.951031,25.124249,14.944323,8.026003,15.413264,0.664602,-1.142108,10.018298,-3.099042,-30.758011,0.000000,214.000000,4.000000,,,,0.000000,4.000000,4.000000,4.000000,4.000000,4.000000,4.000000,4.000000,4.000000,4.000000,4.000000,4.000000,4.000000,4.000000,4.000000,4.000000,4.000000,4.000000,4.000000,4.000000,4.000000,4.000000,4.000000,4.000000,4.000000,4.000000,4.000000,4.000000,4.000000,4.000000,4.000000,4.000000,4.000000,100.000000
1614304347.260241,91.000000,0.000000,10.457059,0.682951,-148.910858,-17.411667,-21.712599,-5.357668,1.113976,-1.689769,-6.635475,11.768494,1.278594,14.383615,-2.166734,0.015377,-6.521891,6.117479,11.978801,24.573950,40.142616,36.539169,48.952461,28.954586,13.963720,25.611946,14.929378,10.069259,14.372210,3.740861,-1.140966,10.008280,-3.095943,-27.650330,0.000000,195.000000,4.000000,,,,0.000000,4.000000,4.000000,4.000000,4.000000,4.000000,4.000000,4.000000,4.000000,4.000000,4.000000,4.000000,4.000000,4.000000,4.000000,4.000000,4.000000,4.000000,4.000000,4.000000,4.000000,4.000000,4.000000,4.000000,4.000000,4.000000,4.000000,4.000000,4.000000,4.000000,4.000000,4.000000,4.000000,100.000000
1614304347.268090,92.000000,0.000000,10.446602,0.169448,-146.710678,-16.368614,-16.049860,-3.813849,1.625682,-2.200900,-6.116019,12.269546,3.328598,8.215386,-1.651747,4.117926,-1.899984,7.649823,7.351437,26.087837,37.025551,36.502628,45.313763,29.951273,10.360013,25.586334,14.914449,11.597651,8.716812,4.762761,-1.139825,9.998272,-3.092847,-29.673962,0.000000,197.000000,4.000000,,,,0.000000,4.000000,4.000000,4.000000,4.000000,4.000000,4.000000,4.000000,4.000000,4.000000,4.000000,4.000000,4.000000,4.000000,4.000000,4.000000,4.000000,4.000000,4.000000,4.000000,4.000000,4.000000,4.000000,4.000000,4.000000,4.000000,4.000000,4.000000,4.000000,4.000000,4.000000,4.000000,4.000000,100.000000
1614304347.275839,93.000000,0.000000,10.436155,-0.856363,-145.538315,-16.352245,-16.033810,-4.835676,1.624057,-1.173058,-5.597083,11.744455,12.556039,7.181530,5.016572,23.088167,10.409608,20.462687,5.292804,30.164314,31.347500,24.158434,32.447937,19.152090,2.657346,17.355619,14.899534,11.073233,3.579890,3.732357,-1.138685,7.936992,-3.089755,-29.644287,0.000000,220.000000,4.000000,,,,0.000000,4.000000,4.000000,4.000000,4.000000,4.000000,4.000000,4.000000,4.000000,4.000000,4.000000,4.000000,4.000000,4.000000,4.000000,4.000000,4.000000,4.000000,4.000000,4.000000,4.000000,4.000000,4.000000,4.000000,4.000000,4.000000,4.000000,4.000000,4.000000,4.000000,4.000000,4.000000,4.000000,100.000000
1614304347.283688,94.000000,0.000000,10.425719,-3.419609,-143.341507,-16.335894,-17.556238,-4.318020,1.109612,1.392218,-6.617127,12.245532,23.312714,7.687169,12.191042,35.885593,23.219711,40.442223,6.825973,33.723892,25.162306,4.647097,15.492413,1.184220,-1.960696,10.158776,14.884634,11.062160,3.576310,4.241446,-1.137547,6.390593,-3.086665,-26.024899,0.000000,201.000000,4.000000,,,,0.000000,4.000000,4.000000,4.000000,4.000000,4.000000,4.000000,4.000000,4.000000,4.000000,4.000000,4.000000,4.000000,4.000000,4.000000,4.000000,4.000000,4.000000,4.000000,4.000000,4.000000,4.000000,4.000000,4.000000,4.000000,4.000000,4.000000,4.000000,4.000000,4.000000,4.000000,4.000000,4.000000,100.000000
1614304347.291437,95.000000,0.000000,10.415294,-3.929010,-143.198151,-17.858019,-16.513041,-3.800881,1.621323,3.442107,-6.610509,13.258927,27.391964,7.679482,15.255774,38.413807,30.375978,50.145370,5.280685,31.638887,9.239708,-3.049858,-0.420516,-7.022092,-2.471556,7.584515,14.869750,11.051097,4.085555,4.237204,-1.136409,8.948305,-3.083578,-22.921951,0.000000,187.000000,4.000000,,,,0.000000,4.000000,4.000000,4.000000,4.000000,4.000000,4.000000,4.000000,4.000000,4.000000,4.000000,4.000000,4.000000,4.000000,4.000000,4.000000,4.000000,4.000000,4.000000,4.000000,4.000000,4.000000,4.000000,4.000000,4.000000,4.000000,4.000000,4.000000,4.000000,4.000000,4.000000,4.000000,4.000000,100.000000
1614304347.299286,96.000000,0.000000,10.404879,-3.412260,-143.567780,-19.891443,-15.470886,-4.309901,1.619702,1.900204,-5.065438,7.604643,25.826111,8.184623,15.753339,36.836933,27.268681,47.018303,3.736943,20.325197,-11.282351,-3.046808,-13.240608,-4.963789,-0.930623,0.397443,14.854880,11.040046,3.568649,4.745787,-1.135273,9.964997,-3.080494,-24.950312,8064.000000,0.000000,4.000000,,,,0.000000,4.000000,4.000000,4.000000,4.000000,4.000000,4.000000,4.000000,4.000000,4.000000,4.000000,4.000000,4.000000,4.000000,4.000000,4.000000,4.000000,4.000000,4.000000,4.000000,4.000000,4.000000,4.000000,4.000000,4.000000,4.000000,4.000000,4.000000,4.000000,4.000000,4.000000,4.000000,4.000000,100.000000
1614304347.307035,97.000000,0.000000,10.394474,-3.408848,-143.424210,-20.384373,-19.557980,-4.305591,-4.022943,-0.152978,-11.214218,-2.659372,16.569515,3.048233,9.070919,23.979584,19.549103,34.663593,1.169103,8.509999,-22.040300,-9.710428,-22.970957,-5.471645,0.608769,-5.756800,14.840025,11.029006,3.565080,4.228221,-1.134138,9.442212,-3.077414,-29.027925,8064.000000,0.000000,4.000000,,,,0.000000,4.000000,4.000000,4.000000,4.000000,4.000000,4.000000,4.000000,4.000000,4.000000,4.000000,4.000000,4.000000,4.000000,4.000000,4.000000,4.000000,4.000000,4.000000,4.000000,4.000000,4.000000,4.000000,4.000000,4.000000,4.000000,4.000000,4.000000,4.000000,4.000000,4.000000,4.000000,4.000000,100.000000
1614304347.314684,98.000000,0.000000,10.384079,-3.405439,-144.819244,-21.389629,-31.333294,-5.326927,-10.172767,-2.716928,-23.510696,-8.810559,4.245254,-4.134303,-2.220203,7.545348,15.939811,17.705851,-1.396168,3.886105,-16.890055,-9.700718,-17.819782,-6.491815,2.146622,-6.263864,14.825185,11.017977,4.074335,3.711172,-1.133003,11.484052,-3.074337,-28.998898,8064.000000,0.000000,4.000000,,,,0.000000,4.000000,4.000000,4.000000,4.000000,4.000000,4.000000,4.000000,4.000000,4.000000,4.000000,4.000000,4.000000,4.000000,4.000000,4.000000,4.000000,4.000000,4.000000,4.000000,4.000000,4.000000,4.000000,4.000000,4.000000,4.000000,4.000000,4.000000,4.000000,4.000000,4.000000,4.000000,4.000000,100.000000
1614304347.322434,99.000000,0.000000,10.373695,-3.402034,-143.648788,-20.855419,-37.455807,-4.808779,-10.675415,-6.816775,-26.051289,-8.801748,2.189727,-5.155809,-5.294906,3.435238,17.975153,10.508658,-0.881952,5.933501,-1.488549,5.180778,4.762141,-0.844297,2.144475,-5.744780,14.810360,11.006959,4.070261,5.245923,-1.131870,14.036671,-3.071262,-28.969898,8064.000000,0.000000,4.000000,,,,0.000000,4.000000,4.000000,4.000000,4.000000,4.000000,4.000000,4.000000,4.000000,4.000000,4.000000,4.000000,4.000000,4.000000,4.000000,4.000000,4.000000,4.000000,4.000000,4.000000,4.000000,4.000000,4.000000,4.000000,4.000000,4.000000,4.000000,4.000000,4.000000,4.000000,4.000000,4.000000,4.000000,100.000000
1614304347.330083,100.000000,0.000000,10.363321,-3.398632,-142.479507,-19.296103,-35.367069,-3.265509,-9.639098,-11.938164,-19.358570,-10.331409,-1.402207,-2.586551,-6.315252,-2.209223,14.367435,6.395586,-2.419531,6.440388,10.307811,17.483290,23.218918,5.823214,2.655151,-1.123650,14.795549,10.995953,4.066191,4.727856,-1.130738,14.022634,-3.068191,-28.428108,8064.000000,0.000000,4.000000,,,,0.000000,4.000000,4.000000,4.000000,4.000000,4.000000,4.000000,4.000000,4.000000,4.000000,4.000000,4.000000,4.000000,4.000000,4.000000,4.000000,4.000000,4.000000,4.000000,4.000000,4.000000,4.000000,4.000000,4.000000,4.000000,4.000000,4.000000,4.000000,4.000000,4.000000,4.000000,4.000000,4.000000,100.000000
1614304347.337832,101.000000,0.000000,10.352958,-3.395233,-146.439590,-24.405010,-36.870163,-6.339167,-10.655100,-16.028790,-18.826391,-15.962103,-12.682856,-4.635246,-17.590988,-19.130091,-3.595651,-7.969784,-8.570958,2.844204,12.861606,17.978626,25.246981,7.355852,0.601214,8.108243,14.780754,10.984956,4.062124,-0.405077,-1.129608,12.982970,-3.577943,-29.425322,8064.000000,0.000000,4.000000,,,,0.000000,4.000000,4.000000,4.000000,4.000000,4.000000,4.000000,4.000000,4.000000,4.000000,4.000000,4.000000,4.000000,4.000000,4.000000,4.000000,4.000000,4.000000,4.000000,4.000000,4.000000,4.000000,4.000000,4.000000,4.000000,4.000000,4.000000,4.000000,4.000000,4.000000,4.000000,4.000000,4.000000,100.000000
1614304347.345481,102.000000,0.000000,9.829784,-3.904659,-143.729050,-27.970348,-33.243549,-7.358468,-8.080342,-10.884556,-13.679359,-12.869217,-6.516327,-5.143432,-20.650320,-21.675062,-14.874106,-13.090019,-8.049566,8.995206,19.515411,16.422186,24.196093,5.810035,-1.963490,11.177057,14.253153,10.973971,4.058063,-2.968774,-1.641299,13.995628,-3.061545,-35.549744,8064.000000,0.000000,4.000000,,,,0.000000,4.000000,4.000000,4.000000,4.000000,4.000000,4.000000,4.000000,4.000000,4.000000,4.000000,4.000000,4.000000,4.000000,4.000000,4.000000,4.000000,4.000000,4.000000,4.000000,4.000000,4.000000,4.000000,4.000000,4.000000,4.000000,4.000000,4.000000,4.000000,4.000000,4.000000,4.000000,4.000000,100.000000
1614304347.353230,103.000000,0.000000,10.332775,-3.387933,-129.739166,-15.121866,-14.235947,2.905300,-1.405595,9.126329,1.718935,10.733396,21.182497,7.169404,-0.116850,3.987638,4.115127,11.025635,3.240535,29.499031,31.290768,18.457047,26.223179,6.829866,0.602576,9.114598,14.751720,10.962997,3.541184,0.111118,-1.126837,13.468812,-1.007201,-38.078293,8064.000000,0.000000,4.000000,,,,0.000000,4.000000,4.000000,4.000000,4.000000,4.000000,4.000000,4.000000,4.000000,4.000000,4.000000,4.000000,4.000000,4.000000,4.000000,4.000000,4.000000,4.000000,4.000000,4.000000,4.000000,4.000000,4.000000,4.000000,4.000000,4.000000,4.000000,4.000000,4.000000,4.000000,4.000000,4.000000,4.000000,100.000000
1614304347.360879,104.000000,0.000000,10.835263,-2.871725,-122.942757,-4.337513,-0.375557,11.620344,3.724015,25.014639,10.435164,33.799583,37.571571,21.008389,22.447371,34.752880,33.854603,43.835121,10.929602,45.879787,35.362041,20.489872,25.684135,6.823036,2.140435,9.618304,14.736968,10.952034,4.050463,-0.914635,-0.612890,11.404061,1.045088,-33.937653,8064.000000,0.000000,4.000000,,,,0.000000,4.000000,4.000000,4.000000,4.000000,4.000000,4.000000,4.000000,4.000000,4.000000,4.000000,4.000000,4.000000,4.000000,4.000000,4.000000,4.000000,4.000000,4.000000,4.000000,4.000000,4.000000,4.000000,4.000000,4.000000,4.000000,4.000000,4.000000,4.000000,4.000000,4.000000,4.000000,4.000000,100.000000
