title:30, start timestamp:1614304423.115720, stop timestamp:1614304468.988965, headset type:EPOCFLEX, headset serial:F00001ED, headset firmware:f12, subject name:s09, channels:75, sampling rate:128, samples:5919      , version:2.0
Timestamp,EEG.Counter,EEG.Interpolated,EEG.Cz,EEG.Fz,EEG.Fp1,EEG.AF3,EEG.F7,EEG.F3,EEG.FC1,EEG.C3,EEG.FC5,EEG.T7,EEG.CP5,EEG.CP1,EEG.P3,EEG.P7,EEG.PO3,EEG.O1,EEG.Pz,EEG.Oz,EEG.O2,EEG.PO4,EEG.P8,EEG.P4,EEG.CP2,EEG.CP6,EEG.T8,EEG.FC6,EEG.C4,EEG.FC2,EEG.F4,EEG.F8,EEG.AF4,EEG.Fp2,EEG.HighBitFlex,EEG.RawCq,EEG.Battery,MarkerIndex,MarkerType,MarkerValueInt,EEG.MarkerHardware,CQ.Cz,CQ.Fz,CQ.Fp1,CQ.AF3,CQ.F7,CQ.F3,CQ.FC1,CQ.C3,CQ.FC5,CQ.T7,CQ.CP5,CQ.CP1,CQ.P3,CQ.P7,CQ.PO3,CQ.O1,CQ.Pz,CQ.Oz,CQ.O2,CQ.PO4,CQ.P8,CQ.P4,CQ.CP2,CQ.CP6,CQ.T8,CQ.FC6,CQ.C4,CQ.FC2,CQ.F4,CQ.F8,CQ.AF4,CQ.Fp2,CQ.Overall
1614304423.115720,28.000000,0.000000,-3.550957,11.934059,9.490204,20.518105,9.023178,6.716268,-1.710799,-1.193467,13.355074,-1.485334,1.475240,3.012661,-3.514638,-8.603333,-0.528563,-7.345473,-0.486201,9.499955,-10.636698,2.515864,-11.679600,9.644484,-0.666601,2.965826,7.454645,5.845549,8.174373,6.087459,-1.801775,4.092019,11.537479,6.362576,0.000000,170.000000,4.000000,,,,0.000000,4.000000,4.000000,4.000000,4.000000,4.000000,4.000000,4.000000,4.000000,4.000000,4.000000,4.000000,4.000000,4.000000,4.000000,4.000000,4.000000,4.000000,4.000000,4.000000,4.000000,4.000000,4.000000,4.000000,4.000000,4.000000,4.000000,4.000000,4.000000,4.000000,4.000000,4.000000,4.000000,100.000000
1614304423.123569,29.000000,0.000000,-3.547406,6.793920,4.865329,20.497585,1.834668,6.196731,-0.683447,-1.192274,9.239155,-0.458208,4.550687,1.471187,1.617081,-2.953704,3.574529,4.456745,1.052747,17.182764,7.322657,7.641553,-0.385869,4.506634,-0.153114,4.501321,4.370267,8.403806,2.012352,6.081371,-1.287153,-0.014637,11.525942,6.356214,0.000000,200.000000,4.000000,,,,0.000000,4.000000,4.000000,4.000000,4.000000,4.000000,4.000000,4.000000,4.000000,4.000000,4.000000,4.000000,4.000000,4.000000,4.000000,4.000000,4.000000,4.000000,4.000000,4.000000,4.000000,4.000000,4.000000,4.000000,4.000000,4.000000,4.000000,4.000000,4.000000,4.000000,4.000000,4.000000,4.000000,100.000000
1614304423.131318,30.000000,0.000000,-3.543859,6.274305,4.347643,20.477089,5.935398,6.190534,1.368519,0.860201,9.742736,1.593532,8.648701,4.033818,10.333413,10.382584,10.237621,18.298441,4.641438,23.319427,31.930719,23.531347,19.101696,13.732897,2.923963,3.471179,14.109487,14.036427,8.164186,6.075290,1.791057,5.113583,11.514416,7.375499,0.000000,216.000000,4.000000,,,,0.000000,4.000000,4.000000,4.000000,4.000000,4.000000,4.000000,4.000000,4.000000,4.000000,4.000000,4.000000,4.000000,4.000000,4.000000,4.000000,4.000000,4.000000,4.000000,4.000000,4.000000,4.000000,4.000000,4.000000,4.000000,4.000000,4.000000,4.000000,4.000000,4.000000,4.000000,4.000000,4.000000,100.000000
1614304423.138967,31.000000,0.000000,-3.540315,5.755210,7.420219,20.456612,13.108950,6.697165,2.905612,2.910622,13.835557,6.720144,12.229795,6.081066,20.579491,26.269636,26.124821,34.690399,8.226540,39.193542,45.232121,36.841148,33.441570,25.001215,4.459500,7.570272,22.300505,14.535212,17.386791,6.582035,2.814907,17.928982,11.502901,10.445046,0.000000,166.000000,4.000000,,,,0.000000,4.000000,4.000000,4.000000,4.000000,4.000000,4.000000,4.000000,4.000000,4.000000,4.000000,4.000000,4.000000,4.000000,4.000000,4.000000,4.000000,4.000000,4.000000,4.000000,4.000000,4.000000,4.000000,4.000000,4.000000,4.000000,4.000000,4.000000,4.000000,4.000000,4.000000,4.000000,4.000000,100.000000
1614304423.146716,32.000000,0.000000,-3.536775,1.134071,8.438439,19.923334,13.095840,6.690467,2.389886,2.394891,11.257619,10.303167,17.858591,5.562165,23.123013,34.961315,31.226900,43.886478,8.218313,48.385120,47.238171,34.753025,30.844025,21.899290,1.890938,16.793470,20.226923,14.007856,16.856585,5.549812,2.812092,19.962336,11.491399,14.537166,8064.000000,0.000000,4.000000,,,,0.000000,4.000000,4.000000,4.000000,4.000000,4.000000,4.000000,4.000000,4.000000,4.000000,4.000000,4.000000,4.000000,4.000000,4.000000,4.000000,4.000000,4.000000,4.000000,4.000000,4.000000,4.000000,4.000000,4.000000,4.000000,4.000000,4.000000,4.000000,4.000000,4.000000,4.000000,4.000000,4.000000,100.000000
1614304423.154565,33.000000,0.000000,-3.533238,-1.943986,7.917181,20.416231,12.569924,6.683777,2.387496,2.905317,6.630977,14.395429,25.020220,6.582243,22.587069,33.900715,28.118750,36.150284,7.184454,41.670067,44.114010,29.077248,22.095232,15.723545,0.350586,19.853600,19.693874,10.404104,13.249984,1.954518,2.809280,10.711603,11.479907,14.522629,8192.000000,0.000000,4.000000,,,,0.000000,4.000000,4.000000,4.000000,4.000000,4.000000,4.000000,4.000000,4.000000,4.000000,4.000000,4.000000,4.000000,4.000000,4.000000,4.000000,4.000000,4.000000,4.000000,4.000000,4.000000,4.000000,4.000000,4.000000,4.000000,4.000000,4.000000,4.000000,4.000000,4.000000,4.000000,4.000000,4.000000,100.000000
1614304423.162314,34.000000,0.000000,-3.529705,-1.429222,8.422084,20.908636,13.582995,6.677093,2.385108,2.902411,11.239731,14.381033,21.918278,3.498738,20.000380,24.636044,23.988068,22.267981,7.177269,33.423267,34.326305,16.740479,13.355188,8.528335,-0.162586,12.654260,19.161362,1.675752,11.185452,2.465384,0.242368,6.598328,11.468428,4.251696,8064.000000,0.000000,4.000000,,,,0.000000,4.000000,4.000000,4.000000,4.000000,4.000000,4.000000,4.000000,4.000000,4.000000,4.000000,4.000000,4.000000,4.000000,4.000000,4.000000,4.000000,4.000000,4.000000,4.000000,4.000000,4.000000,4.000000,4.000000,4.000000,4.000000,4.000000,4.000000,4.000000,4.000000,4.000000,4.000000,4.000000,100.000000
1614304423.169964,35.000000,0.000000,-3.526175,-0.914972,9.439303,18.836445,11.518130,6.670416,2.382723,-1.203055,12.254131,4.110241,8.050205,-3.171427,7.672687,9.226792,2.938438,3.271353,2.041887,18.518051,12.753519,-10.455750,-7.683807,-4.813527,-4.777808,2.898016,6.834507,-2.428488,3.994779,6.052663,-4.373259,6.078909,11.456959,-8.573069,8064.000000,0.000000,4.000000,,,,0.000000,4.000000,4.000000,4.000000,4.000000,4.000000,4.000000,4.000000,4.000000,4.000000,4.000000,4.000000,4.000000,4.000000,4.000000,4.000000,4.000000,4.000000,4.000000,4.000000,4.000000,4.000000,4.000000,4.000000,4.000000,4.000000,4.000000,4.000000,4.000000,4.000000,4.000000,4.000000,4.000000,100.000000
1614304423.177813,36.000000,0.000000,-3.522649,-0.914057,8.917043,16.766327,8.942510,6.663745,2.380340,-5.304416,2.498288,-4.611817,0.349847,-6.245179,-7.719601,-4.628589,-23.218346,-24.424227,-13.344770,-10.731236,-19.566927,-32.496574,-35.881252,-18.142046,-13.490978,-6.335651,-8.556943,-1.400419,-2.675883,2.456866,-5.907347,-0.593837,11.445502,-8.051676,8064.000000,0.000000,4.000000,,,,0.000000,4.000000,4.000000,4.000000,4.000000,4.000000,4.000000,4.000000,4.000000,4.000000,4.000000,4.000000,4.000000,4.000000,4.000000,4.000000,4.000000,4.000000,4.000000,4.000000,4.000000,4.000000,4.000000,4.000000,4.000000,4.000000,4.000000,4.000000,4.000000,4.000000,4.000000,4.000000,4.000000,100.000000
1614304423.185562,37.000000,0.000000,-3.515607,-1.425050,7.874090,14.683579,6.875916,6.650424,2.375582,-9.392274,-12.881578,-13.311830,-5.797006,-8.793720,-28.201605,-22.041388,-54.940651,-65.886169,-38.943733,-58.372860,-74.880119,-59.589050,-77.832603,-39.118088,-25.250164,-25.800936,-28.011633,0.139817,-9.843354,-5.236763,-6.919641,-13.919316,11.422623,-0.343785,8064.000000,0.000000,4.000000,,,,0.000000,4.000000,4.000000,4.000000,4.000000,4.000000,4.000000,4.000000,4.000000,4.000000,4.000000,4.000000,4.000000,4.000000,4.000000,4.000000,4.000000,4.000000,4.000000,4.000000,4.000000,4.000000,4.000000,4.000000,4.000000,4.000000,4.000000,4.000000,4.000000,4.000000,4.000000,4.000000,4.000000,100.000000
1614304423.193411,38.000000,0.000000,-3.512092,-1.423625,7.866216,13.130435,5.843399,6.643774,2.373206,-9.382882,-10.817414,-12.785697,-6.816850,-8.784926,-27.147762,-20.993706,-49.244686,-59.153618,-30.699663,-56.263206,-70.189857,-56.965359,-69.036819,-36.002048,-24.199272,-30.903339,-25.419518,-0.885964,-8.807870,-0.616141,-6.399900,-13.905397,11.411200,-1.881903,8064.000000,0.000000,4.000000,,,,0.000000,4.000000,4.000000,4.000000,4.000000,4.000000,4.000000,4.000000,4.000000,4.000000,4.000000,4.000000,4.000000,4.000000,4.000000,4.000000,4.000000,4.000000,4.000000,4.000000,4.000000,4.000000,4.000000,4.000000,4.000000,4.000000,4.000000,4.000000,4.000000,4.000000,4.000000,4.000000,4.000000,100.000000
1614304423.201160,39.000000,0.000000,-3.508579,2.167542,2.730144,10.553202,3.786273,6.637130,2.370833,-9.373499,-10.806597,-11.234449,-6.297213,-5.699219,-26.607794,-22.511173,-46.118515,-53.966259,-19.899733,-53.642841,-56.786331,-45.113522,-54.095989,-21.607071,-24.175074,-24.718590,-22.829996,-1.397899,-8.286242,3.999859,-6.906321,-14.404312,11.399789,-5.469765,8064.000000,0.000000,4.000000,,,,0.000000,4.000000,4.000000,4.000000,4.000000,4.000000,4.000000,4.000000,4.000000,4.000000,4.000000,4.000000,4.000000,4.000000,4.000000,4.000000,4.000000,4.000000,4.000000,4.000000,4.000000,4.000000,4.000000,4.000000,4.000000,4.000000,4.000000,4.000000,4.000000,4.000000,4.000000,4.000000,4.000000,100.000000
1614304423.209009,40.000000,0.000000,-3.505071,2.678195,-8.554637,10.542648,2.756846,6.630493,2.368462,-8.851305,-11.308611,-5.582190,-2.701172,-2.103776,-18.888880,-18.386097,-37.867271,-45.194344,-19.879833,-44.871250,-48.524418,-25.581228,-42.247021,-11.329054,-24.663719,-15.975923,-14.602037,4.244525,-9.303596,0.918936,-7.412235,-12.338626,11.901209,3.253654,8064.000000,0.000000,4.000000,,,,0.000000,4.000000,4.000000,4.000000,4.000000,4.000000,4.000000,4.000000,4.000000,4.000000,4.000000,4.000000,4.000000,4.000000,4.000000,4.000000,4.000000,4.000000,4.000000,4.000000,4.000000,4.000000,4.000000,4.000000,4.000000,4.000000,4.000000,4.000000,4.000000,4.000000,4.000000,4.000000,4.000000,100.000000
1614304423.216758,41.000000,0.000000,-3.501566,-1.427048,-15.212749,11.557747,3.266909,7.136683,2.366094,-9.868094,-11.810122,-4.550966,-2.185650,-0.050390,-5.023836,-7.085660,-22.957607,-20.533766,-17.295851,-16.621250,-27.450253,-12.735135,-25.281698,-8.240802,-22.587772,-12.370203,-1.766923,9.881306,-7.755831,-1.646085,-3.815080,-1.557056,11.376488,14.532452,8064.000000,0.000000,4.000000,,,,0.000000,4.000000,4.000000,4.000000,4.000000,4.000000,4.000000,4.000000,4.000000,4.000000,4.000000,4.000000,4.000000,4.000000,4.000000,4.000000,4.000000,4.000000,4.000000,4.000000,4.000000,4.000000,4.000000,4.000000,4.000000,4.000000,4.000000,4.000000,4.000000,4.000000,4.000000,4.000000,4.000000,100.000000
1614304423.224607,42.000000,0.000000,-3.498064,-0.399980,-13.659075,11.546189,6.853386,7.129547,2.363728,-8.832585,-10.259851,-4.546415,-1.157824,2.000942,0.109393,0.613733,-11.652599,-4.102975,-9.073426,6.985115,3.346429,-0.927528,-1.153852,2.536670,-18.975441,-4.665525,4.901511,11.409886,3.021156,-1.131618,2.342582,6.649629,11.877932,15.543560,8192.000000,0.000000,4.000000,,,,0.000000,4.000000,4.000000,4.000000,4.000000,4.000000,4.000000,4.000000,4.000000,4.000000,4.000000,4.000000,4.000000,4.000000,4.000000,4.000000,4.000000,4.000000,4.000000,4.000000,4.000000,4.000000,4.000000,4.000000,4.000000,4.000000,4.000000,4.000000,4.000000,4.000000,4.000000,4.000000,4.000000,100.000000
1614304423.232356,43.000000,0.000000,-3.494566,5.241446,-11.081313,10.509002,9.923455,6.096776,2.361364,-1.644266,-5.634207,1.099157,6.535642,3.024583,0.109283,2.664402,-7.025562,-1.534770,-5.987430,10.055053,19.240519,9.842630,13.206277,14.841825,-14.341082,10.723756,5.922250,17.552322,11.736083,-0.617666,5.929983,6.130159,12.378874,13.989554,8064.000000,0.000000,4.000000,,,,0.000000,4.000000,4.000000,4.000000,4.000000,4.000000,4.000000,4.000000,4.000000,4.000000,4.000000,4.000000,4.000000,4.000000,4.000000,4.000000,4.000000,4.000000,4.000000,4.000000,4.000000,4.000000,4.000000,4.000000,4.000000,4.000000,4.000000,4.000000,4.000000,4.000000,4.000000,4.000000,4.000000,100.000000
1614304423.240205,44.000000,0.000000,-3.491072,6.261846,-10.044591,11.011313,10.939174,7.629141,2.871823,1.947122,-2.551649,2.123698,10.631670,3.021558,-0.403647,1.636096,-3.941613,-2.046056,-7.007083,9.019357,16.657175,6.755865,9.090507,12.262881,-11.249818,16.866879,3.865046,15.996308,8.647425,-1.129869,5.411232,6.636849,9.289572,16.026848,8064.000000,0.000000,4.000000,,,,0.000000,4.000000,4.000000,4.000000,4.000000,4.000000,4.000000,4.000000,4.000000,4.000000,4.000000,4.000000,4.000000,4.000000,4.000000,4.000000,4.000000,4.000000,4.000000,4.000000,4.000000,4.000000,4.000000,4.000000,4.000000,4.000000,4.000000,4.000000,4.000000,4.000000,4.000000,4.000000,4.000000,100.000000
1614304423.247954,45.000000,0.000000,-2.974760,2.665840,-11.573008,12.025943,7.851311,7.108691,0.817669,-2.670210,-3.574739,-8.134835,4.467192,3.018536,-9.121192,-9.647591,-10.604339,-16.402985,-7.512897,2.856491,0.743082,-2.994481,-7.328841,-0.569894,-12.777029,8.644883,-5.882409,0.082876,-0.591992,-1.128739,0.277616,3.040469,4.152078,11.395436,8064.000000,0.000000,4.000000,,,,0.000000,4.000000,4.000000,4.000000,4.000000,4.000000,4.000000,4.000000,4.000000,4.000000,4.000000,4.000000,4.000000,4.000000,4.000000,4.000000,4.000000,4.000000,4.000000,4.000000,4.000000,4.000000,4.000000,4.000000,4.000000,4.000000,4.000000,4.000000,4.000000,4.000000,4.000000,4.000000,4.000000,100.000000
1614304423.255803,46.000000,0.000000,-4.510247,2.150354,-18.228102,6.885712,-3.951412,-1.103546,-1.234430,-5.744462,-3.571164,-17.870291,-4.255224,1.477056,-23.983866,-25.535379,-33.157837,-44.591709,-12.633589,-22.787392,-29.514071,-16.837641,-36.552280,-20.569324,-17.379637,-4.184275,-22.799603,-7.096694,-8.283709,-0.614790,-7.927790,-9.783085,1.071002,-1.436472,8064.000000,0.000000,4.000000,,,,0.000000,4.000000,4.000000,4.000000,4.000000,4.000000,4.000000,4.000000,4.000000,4.000000,4.000000,4.000000,4.000000,4.000000,4.000000,4.000000,4.000000,4.000000,4.000000,4.000000,4.000000,4.000000,4.000000,4.000000,4.000000,4.000000,4.000000,4.000000,4.000000,4.000000,4.000000,4.000000,4.000000,100.000000
1614304423.263552,47.000000,0.000000,-6.557019,3.173845,-23.850899,-1.839123,-15.229512,-8.794750,-1.746016,-5.225897,-3.054772,-20.416523,-6.815071,-2.114164,-29.088087,-33.202152,-53.124680,-59.418911,-24.415827,-51.482552,-55.638405,-42.461830,-68.823418,-43.625679,-19.926359,-20.590347,-34.058857,-9.653700,-15.454911,-2.152637,-10.996785,-17.978430,-4.571095,-10.152985,8064.000000,0.000000,4.000000,,,,0.000000,4.000000,4.000000,4.000000,4.000000,4.000000,4.000000,4.000000,4.000000,4.000000,4.000000,4.000000,4.000000,4.000000,4.000000,4.000000,4.000000,4.000000,4.000000,4.000000,4.000000,4.000000,4.000000,4.000000,4.000000,4.000000,4.000000,4.000000,4.000000,4.000000,4.000000,4.000000,4.000000,100.000000
1614304423.271401,48.000000,0.000000,-7.576103,2.657850,-23.314228,-3.888566,-12.137360,-8.785955,-1.231450,-7.271954,-3.564538,-19.883286,-6.295435,-4.676153,-28.033358,-32.143307,-57.174118,-57.308212,-32.596539,-61.687481,-64.813538,-62.932186,-82.600754,-52.812820,-20.419254,-33.903091,-37.101719,-29.644045,-20.054842,-4.714587,-9.960148,-17.447630,-10.720369,-11.168472,8064.000000,0.000000,4.000000,,,,0.000000,4.000000,4.000000,4.000000,4.000000,4.000000,4.000000,4.000000,4.000000,4.000000,4.000000,4.000000,4.000000,4.000000,4.000000,4.000000,4.000000,4.000000,4.000000,4.000000,4.000000,4.000000,4.000000,4.000000,4.000000,4.000000,4.000000,4.000000,4.000000,4.000000,4.000000,4.000000,4.000000,100.000000
1614304423.279250,49.000000,0.000000,-7.055706,3.680833,-20.213991,-0.807754,-5.458555,-7.751528,-1.230218,-9.315964,-3.560974,-20.889044,-6.289140,-6.722759,-26.979683,-32.623985,-57.629765,-56.225262,-33.589584,-61.112972,-62.697437,-64.407715,-82.005333,-51.221546,-19.886015,-37.458931,-38.090260,-35.255428,-20.034786,-5.222693,-10.975828,-17.430183,-11.735291,-11.670125,8064.000000,0.000000,4.000000,,,,0.000000,4.000000,4.000000,4.000000,4.000000,4.000000,4.000000,4.000000,4.000000,4.000000,4.000000,4.000000,4.000000,4.000000,4.000000,4.000000,4.000000,4.000000,4.000000,4.000000,4.000000,4.000000,4.000000,4.000000,4.000000,4.000000,4.000000,4.000000,4.000000,4.000000,4.000000,4.000000,4.000000,100.000000
1614304423.286999,50.000000,0.000000,-7.048650,6.241255,-21.732239,0.218695,-4.940276,-9.282238,-1.228988,-9.819468,-3.557413,-21.380974,-7.308492,-8.767318,-29.003986,-33.104183,-61.161877,-59.758781,-34.581635,-62.590321,-63.660381,-64.856133,-83.461784,-51.683147,-19.866129,-34.344547,-36.513706,-11.630428,-18.989111,-4.704649,-10.452032,-17.925573,-11.210734,-13.196916,8064.000000,0.000000,4.000000,,,,0.000000,4.000000,4.000000,4.000000,4.000000,4.000000,4.000000,4.000000,4.000000,4.000000,4.000000,4.000000,4.000000,4.000000,4.000000,4.000000,4.000000,4.000000,4.000000,4.000000,4.000000,4.000000,4.000000,4.000000,4.000000,4.000000,4.000000,4.000000,4.000000,4.000000,4.000000,4.000000,4.000000,100.000000
1614304423.294848,51.000000,0.000000,-7.041602,6.747834,-21.710506,-1.319985,-2.884054,-6.708853,-1.227759,-9.296828,-4.579496,-17.257030,-6.788363,-8.758551,-27.436520,-22.814669,-51.869946,-52.519535,-35.059875,-58.425167,-63.596722,-61.714352,-77.224480,-44.964798,-20.871902,-36.361485,-34.938732,-0.336747,-19.995762,-5.212765,-10.441580,-14.830725,-10.686703,-12.158078,8064.000000,0.000000,4.000000,,,,0.000000,4.000000,4.000000,4.000000,4.000000,4.000000,4.000000,4.000000,4.000000,4.000000,4.000000,4.000000,4.000000,4.000000,4.000000,4.000000,4.000000,4.000000,4.000000,4.000000,4.000000,4.000000,4.000000,4.000000,4.000000,4.000000,4.000000,4.000000,4.000000,4.000000,4.000000,4.000000,4.000000,100.000000
1614304423.302597,52.000000,0.000000,-7.034560,6.228266,-13.996488,0.219796,2.247035,-2.086760,-1.226532,-4.672147,-2.523635,-13.137209,-0.114908,-8.749792,-13.050109,-2.279033,-28.741154,-26.825989,-25.794044,-42.469307,-45.584408,-38.575714,-52.531868,-26.971113,-18.286928,-36.325123,-31.314049,-1.874871,-18.437305,-4.694732,-10.943959,-11.738971,-8.111914,-5.992074,8064.000000,0.000000,4.000000,,,,0.000000,4.000000,4.000000,4.000000,4.000000,4.000000,4.000000,4.000000,4.000000,4.000000,4.000000,4.000000,4.000000,4.000000,4.000000,4.000000,4.000000,4.000000,4.000000,4.000000,4.000000,4.000000,4.000000,4.000000,4.000000,4.000000,4.000000,4.000000,4.000000,4.000000,4.000000,4.000000,4.000000,100.000000
1614304423.310446,53.000000,0.000000,-7.027525,6.734858,-5.777363,2.270859,8.398634,-0.546212,-1.225305,-1.077731,1.581453,-11.072789,11.167258,-8.228222,4.398839,14.133503,-8.712413,1.405965,-11.409277,-19.349913,-17.333694,-16.998676,-27.351133,-11.559527,-11.601975,-19.878542,-19.487864,7.870593,-13.803483,-2.638755,-6.830451,-6.086206,-4.001238,-0.857877,8064.000000,0.000000,4.000000,,,,0.000000,4.000000,4.000000,4.000000,4.000000,4.000000,4.000000,4.000000,4.000000,4.000000,4.000000,4.000000,4.000000,4.000000,4.000000,4.000000,4.000000,4.000000,4.000000,4.000000,4.000000,4.000000,4.000000,4.000000,4.000000,4.000000,4.000000,4.000000,4.000000,4.000000,4.000000,4.000000,4.000000,100.000000
1614304423.318195,54.000000,0.000000,-7.020498,6.215303,-5.258765,3.807049,18.646646,2.018437,-1.224080,-1.589474,4.656795,-1.318127,17.822758,-3.604609,7.984183,20.786036,-0.498572,14.737892,-6.269663,7.848924,1.145177,-7.238087,-12.964808,-6.932583,-8.000629,0.141336,-1.519658,16.580671,-10.712757,-1.097655,1.381508,6.740393,1.643789,1.194263,8064.000000,0.000000,4.000000,,,,0.000000,4.000000,4.000000,4.000000,4.000000,4.000000,4.000000,4.000000,4.000000,4.000000,4.000000,4.000000,4.000000,4.000000,4.000000,4.000000,4.000000,4.000000,4.000000,4.000000,4.000000,4.000000,4.000000,4.000000,4.000000,4.000000,4.000000,4.000000,4.000000,4.000000,4.000000,4.000000,4.000000,100.000000
1614304423.326044,55.000000,0.000000,-7.013477,6.721908,-6.279147,6.367345,24.781845,6.631804,-1.222856,1.489039,8.241881,12.529346,23.445961,3.578483,8.489019,24.354994,4.117311,18.825718,-5.750573,28.353895,10.887622,4.564023,-0.644150,-4.361548,-8.505449,5.269400,10.276733,19.128193,-11.214865,-0.070916,4.969870,19.041344,7.795991,4.269992,8064.000000,0.000000,4.000000,,,,0.000000,4.000000,4.000000,4.000000,4.000000,4.000000,4.000000,4.000000,4.000000,4.000000,4.000000,4.000000,4.000000,4.000000,4.000000,4.000000,4.000000,4.000000,4.000000,4.000000,4.000000,4.000000,4.000000,4.000000,4.000000,4.000000,4.000000,4.000000,4.000000,4.000000,4.000000,4.000000,4.000000,100.000000
1614304423.333793,56.000000,0.000000,-7.006464,6.202366,-5.760047,9.950721,21.680141,8.163633,-1.221633,5.590114,11.823383,12.516816,25.473797,3.574904,6.942069,18.689613,-1.015012,8.037662,-8.821745,20.120415,12.415196,6.097920,2.433417,-2.818725,-9.009765,3.212848,8.727996,17.570604,-12.229291,-1.096486,4.964900,15.432560,9.326657,7.342645,8192.000000,0.000000,4.000000,,,,0.000000,4.000000,4.000000,4.000000,4.000000,4.000000,4.000000,4.000000,4.000000,4.000000,4.000000,4.000000,4.000000,4.000000,4.000000,4.000000,4.000000,4.000000,4.000000,4.000000,4.000000,4.000000,4.000000,4.000000,4.000000,4.000000,4.000000,4.000000,4.000000,4.000000,4.000000,4.000000,4.000000,100.000000
1614304423.341642,57.000000,0.000000,-6.999458,2.093599,-5.754287,11.479232,18.581537,6.104187,-1.220411,5.071703,9.760278,2.760709,12.114989,1.007227,-9.987950,-4.918820,-25.629381,-23.252426,-17.018051,-5.540732,0.095088,-13.395357,-10.389529,-8.456932,-12.077678,2.696815,-2.049963,3.194058,-11.191421,-6.736416,5.985576,2.596614,6.753228,8.360944,8064.000000,0.000000,4.000000,,,,0.000000,4.000000,4.000000,4.000000,4.000000,4.000000,4.000000,4.000000,4.000000,4.000000,4.000000,4.000000,4.000000,4.000000,4.000000,4.000000,4.000000,4.000000,4.000000,4.000000,4.000000,4.000000,4.000000,4.000000,4.000000,4.000000,4.000000,4.000000,4.000000,4.000000,4.000000,4.000000,4.000000,100.000000
1614304423.349391,58.000000,0.000000,-6.992458,-0.985417,-5.748533,11.467752,16.511673,7.636545,-1.219191,3.528170,3.596671,-3.395898,-5.845843,1.006220,-27.926680,-30.554928,-52.270420,-51.434303,-22.129238,-22.971088,-18.879366,-29.279398,-25.250935,-19.730526,-15.655344,-0.895626,-9.740221,-4.501443,-11.180229,-8.268141,1.877026,-0.995726,5.720834,8.352583,8064.000000,0.000000,4.000000,,,,0.000000,4.000000,4.000000,4.000000,4.000000,4.000000,4.000000,4.000000,4.000000,4.000000,4.000000,4.000000,4.000000,4.000000,4.000000,4.000000,4.000000,4.000000,4.000000,4.000000,4.000000,4.000000,4.000000,4.000000,4.000000,4.000000,4.000000,4.000000,4.000000,4.000000,4.000000,4.000000,4.000000,100.000000
1614304423.357240,59.000000,0.000000,-6.472645,-1.497253,-6.255605,11.456285,8.290034,7.628908,-1.217971,-1.090743,0.516152,-8.520707,-10.968203,-5.148633,-32.514137,-38.216679,-64.013023,-66.254662,-22.619930,-36.281452,-36.809204,-35.403965,-37.533375,-28.428745,-16.152510,-2.946012,-10.756122,-1.932839,-14.758792,-7.747052,-6.842799,-2.533192,2.638190,2.703204,8064.000000,0.000000,4.000000,,,,0.000000,4.000000,4.000000,4.000000,4.000000,4.000000,4.000000,4.000000,4.000000,4.000000,4.000000,4.000000,4.000000,4.000000,4.000000,4.000000,4.000000,4.000000,4.000000,4.000000,4.000000,4.000000,4.000000,4.000000,4.000000,4.000000,4.000000,4.000000,4.000000,4.000000,4.000000,4.000000,4.000000,100.000000
1614304423.364989,60.000000,0.000000,-6.466173,-4.059858,-8.813452,9.393546,2.640718,0.441792,-1.216753,-9.807601,-1.535647,-15.178853,-11.470055,-18.476818,-39.661110,-39.716927,-72.154137,-82.598663,-29.776796,-54.193886,-56.772396,-48.189072,-54.931740,-31.477240,-16.136356,-6.532810,-9.719725,-19.366804,-19.359419,-12.354690,-11.964162,-12.787069,-3.005474,-7.555909,8064.000000,0.000000,4.000000,,,,0.000000,4.000000,4.000000,4.000000,4.000000,4.000000,4.000000,4.000000,4.000000,4.000000,4.000000,4.000000,4.000000,4.000000,4.000000,4.000000,4.000000,4.000000,4.000000,4.000000,4.000000,4.000000,4.000000,4.000000,4.000000,4.000000,4.000000,4.000000,4.000000,4.000000,4.000000,4.000000,4.000000,100.000000
1614304423.372838,61.000000,0.000000,-7.485347,-4.055798,-10.343101,7.845691,2.638077,-4.686855,-1.215537,-11.849075,-3.072572,-17.214956,-15.048328,-24.612186,-47.826576,-45.318233,-76.697365,-92.259659,-34.875225,-62.344822,-67.484856,-57.371655,-66.671677,-32.984222,-16.633039,-18.833969,-11.761287,-30.629488,-19.340059,-7.726950,-9.900915,-18.928127,-4.028110,-9.599635,8064.000000,0.000000,4.000000,,,,0.000000,4.000000,4.000000,4.000000,4.000000,4.000000,4.000000,4.000000,4.000000,4.000000,4.000000,4.000000,4.000000,4.000000,4.000000,4.000000,4.000000,4.000000,4.000000,4.000000,4.000000,4.000000,4.000000,4.000000,4.000000,4.000000,4.000000,4.000000,4.000000,4.000000,4.000000,4.000000,4.000000,100.000000
1614304423.380587,62.000000,0.000000,-6.452221,-0.974819,-9.819937,6.812205,1.096978,-1.605245,-1.214321,-9.273124,-3.582320,-16.172100,-13.494819,-20.485010,-41.624905,-41.683170,-63.287334,-80.885345,-30.224966,-55.102989,-63.827625,-55.775822,-65.579369,-31.925598,-15.590766,-24.968981,-12.262346,-5.983474,-14.192513,3.562828,-6.301271,-13.268174,-1.972800,-6.000292,8064.000000,0.000000,4.000000,,,,0.000000,4.000000,4.000000,4.000000,4.000000,4.000000,4.000000,4.000000,4.000000,4.000000,4.000000,4.000000,4.000000,4.000000,4.000000,4.000000,4.000000,4.000000,4.000000,4.000000,4.000000,4.000000,4.000000,4.000000,4.000000,4.000000,4.000000,4.000000,4.000000,4.000000,4.000000,4.000000,4.000000,100.000000
1614304423.388436,63.000000,0.000000,-6.958589,-4.563588,-10.322937,1.677187,-0.955401,-1.603640,-1.213107,-13.366415,-9.219764,-17.181568,-9.891580,-18.413244,-34.916615,-32.923538,-48.865074,-68.496765,-25.066536,-48.381222,-61.712517,-56.745686,-67.052246,-31.893673,-18.652098,-17.251705,-10.198802,2.740458,-16.229603,-0.030479,-9.371893,-16.331829,-10.175955,-13.686600,8064.000000,0.000000,4.000000,,,,0.000000,4.000000,4.000000,4.000000,4.000000,4.000000,4.000000,4.000000,4.000000,4.000000,4.000000,4.000000,4.000000,4.000000,4.000000,4.000000,4.000000,4.000000,4.000000,4.000000,4.000000,4.000000,4.000000,4.000000,4.000000,4.000000,4.000000,4.000000,4.000000,4.000000,4.000000,4.000000,4.000000,100.000000
1614304423.396185,64.000000,0.000000,-14.131118,-8.661589,-13.902358,-3.965516,-1.980087,-7.243062,-1.211894,-17.455612,-14.338749,-16.138746,-10.907330,-20.958933,-34.368877,-31.352154,-47.790565,-65.864166,-26.579931,-49.358479,-63.702084,-53.099197,-66.472374,-32.887421,-24.274471,-17.234453,-9.675782,-21.364847,-22.880039,-12.338140,-18.080469,-21.443703,-18.370907,-25.980606,0.000000,200.000000,4.000000,,,,0.000000,4.000000,4.000000,4.000000,4.000000,4.000000,4.000000,4.000000,4.000000,4.000000,4.000000,4.000000,4.000000,4.000000,4.000000,4.000000,4.000000,4.000000,4.000000,4.000000,4.000000,4.000000,4.000000,4.000000,4.000000,4.000000,4.000000,4.000000,4.000000,4.000000,4.000000,4.000000,4.000000,100.000000
1614304423.404034,65.000000,0.000000,-16.681089,-6.088824,-18.503839,-4.474370,-5.567850,-8.261459,-1.210682,-15.899695,-15.350052,-15.096967,-6.281037,-19.399511,-22.539637,-22.602854,-34.409443,-48.875229,-25.014889,-41.103992,-49.792229,-34.071739,-46.405903,-24.136583,-22.711737,-27.986450,-10.691748,-20.830662,-18.754597,-12.838623,-14.985466,-10.140207,-9.121767,-19.287958,0.000000,202.000000,4.000000,,,,0.000000,4.000000,4.000000,4.000000,4.000000,4.000000,4.000000,4.000000,4.000000,4.000000,4.000000,4.000000,4.000000,4.000000,4.000000,4.000000,4.000000,4.000000,4.000000,4.000000,4.000000,4.000000,4.000000,4.000000,4.000000,4.000000,4.000000,4.000000,4.000000,4.000000,4.000000,4.000000,4.000000,100.000000
1614304423.411784,66.000000,0.000000,-9.997742,-5.057095,-16.946875,-1.905794,-6.075103,-5.176275,-1.209471,-15.883796,-14.821881,-17.133152,5.007295,-10.662164,-5.594019,1.522313,-8.734008,-16.005838,-17.297565,-14.396223,-18.973206,-15.576128,-24.308216,-8.215011,-17.047998,-20.266155,-2.988748,5.856836,-8.479431,-11.287323,-0.611506,5.767369,3.707868,0.218510,0.000000,193.000000,4.000000,,,,0.000000,4.000000,4.000000,4.000000,4.000000,4.000000,4.000000,4.000000,4.000000,4.000000,4.000000,4.000000,4.000000,4.000000,4.000000,4.000000,4.000000,4.000000,4.000000,4.000000,4.000000,4.000000,4.000000,4.000000,4.000000,4.000000,4.000000,4.000000,4.000000,4.000000,4.000000,4.000000,4.000000,100.000000
1614304423.419632,67.000000,0.000000,-5.885180,-3.513576,-9.237620,0.660215,-0.428002,-3.632637,-1.208262,-14.842271,-11.217316,-9.423711,10.643313,-3.472015,-1.485861,21.007971,1.018316,7.599910,-9.075141,12.797661,5.148332,-6.842603,-11.463395,-0.514488,-15.492489,2.831034,14.962958,17.645851,-6.419670,-11.276035,5.542952,11.402627,5.242621,8.423419,0.000000,161.000000,4.000000,,,,0.000000,4.000000,4.000000,4.000000,4.000000,4.000000,4.000000,4.000000,4.000000,4.000000,4.000000,4.000000,4.000000,4.000000,4.000000,4.000000,4.000000,4.000000,4.000000,4.000000,4.000000,4.000000,4.000000,4.000000,4.000000,4.000000,4.000000,4.000000,4.000000,4.000000,4.000000,4.000000,4.000000,100.000000
1614304423.427382,68.000000,0.000000,-6.904935,4.182245,-2.561716,2.710837,6.239092,-1.064902,-1.207053,-7.647941,0.588774,7.508790,12.171131,-3.981363,-3.535657,24.063885,-0.521164,12.207695,-2.399399,25.605375,15.912414,3.933470,3.932684,-0.513974,-15.476996,12.058972,22.640303,14.551282,-8.464532,-4.598093,5.537408,12.929686,5.750199,8.414996,0.000000,187.000000,4.000000,,,,0.000000,4.000000,4.000000,4.000000,4.000000,4.000000,4.000000,4.000000,4.000000,4.000000,4.000000,4.000000,4.000000,4.000000,4.000000,4.000000,4.000000,4.000000,4.000000,4.000000,4.000000,4.000000,4.000000,4.000000,4.000000,4.000000,4.000000,4.000000,4.000000,4.000000,4.000000,4.000000,4.000000,100.000000
1614304423.435231,69.000000,0.000000,-6.385210,5.716525,-1.533513,4.246587,16.489264,3.038727,-1.205846,-3.537729,5.716390,13.142306,14.210242,-3.977382,-3.019301,15.321873,-5.136028,1.939077,-3.935461,19.425924,15.896502,8.032101,8.544136,-0.513460,-12.384597,10.508451,7.233047,12.485449,-6.917606,0.534711,5.531871,11.378295,9.847013,11.996325,0.000000,185.000000,4.000000,,,,0.000000,4.000000,4.000000,4.000000,4.000000,4.000000,4.000000,4.000000,4.000000,4.000000,4.000000,4.000000,4.000000,4.000000,4.000000,4.000000,4.000000,4.000000,4.000000,4.000000,4.000000,4.000000,4.000000,4.000000,4.000000,4.000000,4.000000,4.000000,4.000000,4.000000,4.000000,4.000000,4.000000,100.000000
1614304423.442980,70.000000,0.000000,-7.404466,-1.981499,-3.070441,4.242341,16.985596,4.061329,-1.204641,-8.662396,-0.955993,0.821472,3.939622,-2.947763,-15.323975,-7.770372,-28.207815,-24.216707,-17.777679,-7.260169,-1.555292,-11.463111,-12.490049,-5.641151,-12.885033,12.549225,-11.235724,10.934502,-7.936329,-3.568388,0.398134,4.187429,7.785884,10.958687,0.000000,174.000000,4.000000,,,,0.000000,4.000000,4.000000,4.000000,4.000000,4.000000,4.000000,4.000000,4.000000,4.000000,4.000000,4.000000,4.000000,4.000000,4.000000,4.000000,4.000000,4.000000,4.000000,4.000000,4.000000,4.000000,4.000000,4.000000,4.000000,4.000000,4.000000,4.000000,4.000000,4.000000,4.000000,4.000000,4.000000,100.000000
1614304423.450829,71.000000,0.000000,-12.012446,-5.569262,-7.169935,2.699637,-0.980109,2.518806,-1.203436,-15.833221,-6.596063,-9.435760,-14.525856,-10.124303,-39.924034,-40.070293,-56.384735,-55.987362,-30.067595,-35.458035,-28.733225,-34.528572,-28.887815,-14.866280,-18.000353,2.793086,-13.788590,3.231260,-11.005316,-8.180204,-5.756110,-0.944963,1.111431,2.742600,0.000000,202.000000,4.000000,,,,0.000000,4.000000,4.000000,4.000000,4.000000,4.000000,4.000000,4.000000,4.000000,4.000000,4.000000,4.000000,4.000000,4.000000,4.000000,4.000000,4.000000,4.000000,4.000000,4.000000,4.000000,4.000000,4.000000,4.000000,4.000000,4.000000,4.000000,4.000000,4.000000,4.000000,4.000000,4.000000,4.000000,100.000000
1614304423.458578,72.000000,0.000000,-14.564536,-4.025231,-14.855073,0.645655,-15.338103,-0.560636,-1.202232,-15.817389,-6.589467,-10.451964,-22.203638,-18.832127,-53.730267,-58.491764,-64.533478,-73.367271,-30.037527,-43.627708,-45.627567,-40.135067,-33.987133,-20.492439,-19.520813,-17.722527,-13.774802,-9.079664,-10.994310,-8.172024,-6.263175,-5.046583,-3.505065,-1.362707,0.000000,198.000000,4.000000,,,,0.000000,4.000000,4.000000,4.000000,4.000000,4.000000,4.000000,4.000000,4.000000,4.000000,4.000000,4.000000,4.000000,4.000000,4.000000,4.000000,4.000000,4.000000,4.000000,4.000000,4.000000,4.000000,4.000000,4.000000,4.000000,4.000000,4.000000,4.000000,4.000000,4.000000,4.000000,4.000000,4.000000,100.000000
1614304423.466427,73.000000,0.000000,-14.037151,-4.534026,-20.481243,-0.380632,-13.271482,-3.636998,-1.201030,-15.288751,-7.095697,-12.492795,-21.668613,-19.326115,-48.548328,-55.869167,-62.930485,-75.858009,-28.981848,-47.173824,-56.863991,-45.223137,-52.414684,-27.651434,-19.501293,-25.909933,-25.043079,-12.147508,-14.573060,-8.163852,-9.846655,-12.733844,-6.065662,-0.848523,0.000000,203.000000,4.000000,,,,0.000000,4.000000,4.000000,4.000000,4.000000,4.000000,4.000000,4.000000,4.000000,4.000000,4.000000,4.000000,4.000000,4.000000,4.000000,4.000000,4.000000,4.000000,4.000000,4.000000,4.000000,4.000000,4.000000,4.000000,4.000000,4.000000,4.000000,4.000000,4.000000,4.000000,4.000000,4.000000,4.000000,100.000000
1614304423.474276,74.000000,0.000000,-14.023114,-5.042313,-22.512043,0.645390,-10.694109,-3.633361,-1.199829,-15.786282,-7.601422,-17.095686,-20.108484,-15.717046,-39.269012,-47.608170,-62.867554,-74.243690,-30.491327,-63.024086,-68.089180,-57.998428,-70.310989,-35.828911,-22.558714,-24.345562,-35.787266,-7.519975,-21.225153,-8.668509,-14.452193,-13.746751,-7.085238,-1.360495,0.000000,177.000000,4.000000,,,,0.000000,4.000000,4.000000,4.000000,4.000000,4.000000,4.000000,4.000000,4.000000,4.000000,4.000000,4.000000,4.000000,4.000000,4.000000,4.000000,4.000000,4.000000,4.000000,4.000000,4.000000,4.000000,4.000000,4.000000,4.000000,4.000000,4.000000,4.000000,4.000000,4.000000,4.000000,4.000000,4.000000,100.000000
1614304423.482025,75.000000,0.000000,-14.521912,-4.524450,-23.515173,0.644745,-12.221876,-4.655369,-1.198629,-15.770495,-7.593821,-16.052950,-18.037094,-15.188508,-38.204102,-46.022102,-62.804684,-75.195084,-29.435196,-76.294395,-70.072372,-64.094276,-70.753494,-38.870007,-26.638720,-26.372498,-37.289940,-16.743225,-26.844954,-8.147019,-13.924920,-14.245825,-7.078152,-7.000160,0.000000,177.000000,4.000000,,,,0.000000,4.000000,4.000000,4.000000,4.000000,4.000000,4.000000,4.000000,4.000000,4.000000,4.000000,4.000000,4.000000,4.000000,4.000000,4.000000,4.000000,4.000000,4.000000,4.000000,4.000000,4.000000,4.000000,4.000000,4.000000,4.000000,4.000000,4.000000,4.000000,4.000000,4.000000,4.000000,4.000000,100.000000
1614304423.489874,76.000000,0.000000,-13.994569,-4.519925,-26.568581,-4.484105,-13.748116,-11.317380,-1.197431,-17.293186,-14.252893,-15.524076,-20.070339,-15.686140,-38.165897,-48.540180,-63.254700,-74.607071,-29.405760,-73.653999,-70.515121,-64.030182,-69.657104,-40.882416,-28.663364,-27.884586,-37.765472,-25.444429,-28.869390,-8.651693,-14.936636,-23.462349,-9.635177,-12.121366,0.000000,197.000000,4.000000,,,,0.000000,4.000000,4.000000,4.000000,4.000000,4.000000,4.000000,4.000000,4.000000,4.000000,4.000000,4.000000,4.000000,4.000000,4.000000,4.000000,4.000000,4.000000,4.000000,4.000000,4.000000,4.000000,4.000000,4.000000,4.000000,4.000000,4.000000,4.000000,4.000000,4.000000,4.000000,4.000000,4.000000,100.000000
1614304423.497623,77.000000,0.000000,-13.980575,-4.515405,-30.644577,-10.633467,-19.888214,-16.434267,-1.196233,-18.814356,-22.443769,-23.713680,-20.563089,-15.670454,-30.948244,-37.209591,-53.447857,-56.583744,-29.376354,-56.144444,-63.265118,-56.786663,-63.433601,-37.251789,-25.044956,-29.395164,-30.035398,-5.931806,-19.609753,-8.130221,-12.357597,-21.387604,-10.651182,-8.006680,0.000000,196.000000,4.000000,,,,0.000000,4.000000,4.000000,4.000000,4.000000,4.000000,4.000000,4.000000,4.000000,4.000000,4.000000,4.000000,4.000000,4.000000,4.000000,4.000000,4.000000,4.000000,4.000000,4.000000,4.000000,4.000000,4.000000,4.000000,4.000000,4.000000,4.000000,4.000000,4.000000,4.000000,4.000000,4.000000,4.000000,100.000000
1614304423.505472,78.000000,0.000000,-13.966594,-4.510890,-32.152393,-11.648475,-20.381145,-14.879372,-1.195037,-16.744259,-19.344402,-21.125864,-6.696372,-15.141963,-22.199348,-9.480073,-29.291845,-23.706650,-23.193132,-28.908813,-34.483902,-29.037569,-35.677856,-17.214539,-15.276322,-24.750383,-4.364337,18.689510,-0.615784,-4.019527,0.475273,-0.853396,-4.486685,1.232096,0.000000,204.000000,4.000000,,,,0.000000,4.000000,4.000000,4.000000,4.000000,4.000000,4.000000,4.000000,4.000000,4.000000,4.000000,4.000000,4.000000,4.000000,4.000000,4.000000,4.000000,4.000000,4.000000,4.000000,4.000000,4.000000,4.000000,4.000000,4.000000,4.000000,4.000000,4.000000,4.000000,4.000000,4.000000,4.000000,4.000000,100.000000
1614304423.513221,79.000000,0.000000,-13.952627,-4.506379,-28.017677,-10.098365,-10.104355,-11.274749,-1.193842,-15.189053,-9.581469,-3.668841,8.694941,-15.126822,-20.638687,7.452485,-14.390759,-4.708583,-16.503271,-5.802982,-7.782753,-1.829044,-6.924232,1.777035,-7.568738,-1.648711,15.640027,20.209282,8.615602,-0.425764,9.192747,14.019253,1.158827,3.794966,0.000000,185.000000,4.000000,,,,0.000000,4.000000,4.000000,4.000000,4.000000,4.000000,4.000000,4.000000,4.000000,4.000000,4.000000,4.000000,4.000000,4.000000,4.000000,4.000000,4.000000,4.000000,4.000000,4.000000,4.000000,4.000000,4.000000,4.000000,4.000000,4.000000,4.000000,4.000000,4.000000,4.000000,4.000000,4.000000,4.000000,100.000000
1614304423.521070,80.000000,0.000000,-14.451495,-4.501873,-22.348633,-8.549805,-3.940404,-9.212193,-1.192648,-16.199505,-7.520605,3.514315,9.199066,-15.624515,-22.156509,5.393750,-16.940470,-6.755157,-17.512409,2.407949,-1.621124,3.813810,3.851923,3.826540,-8.073990,19.891399,16.650028,18.650612,5.017242,-0.425338,9.696375,13.492413,3.721771,5.329633,0.000000,200.000000,4.000000,,,,0.000000,4.000000,4.000000,4.000000,4.000000,4.000000,4.000000,4.000000,4.000000,4.000000,4.000000,4.000000,4.000000,4.000000,4.000000,4.000000,4.000000,4.000000,4.000000,4.000000,4.000000,4.000000,4.000000,4.000000,4.000000,4.000000,4.000000,4.000000,4.000000,4.000000,4.000000,4.000000,4.000000,100.000000
1614304423.528819,81.000000,0.000000,-10.847301,-4.497371,-19.762182,-5.464332,-3.423643,-7.664518,-1.191456,-14.644844,-10.590007,-2.643046,4.574482,-14.070429,-21.621532,4.362715,-18.461990,-7.261222,-18.007717,4.456823,3.508702,4.322817,5.899354,3.309893,-8.065916,21.409969,12.530814,20.683243,4.499404,-0.937733,8.661037,11.427638,5.256511,10.452509,0.000000,201.000000,4.000000,,,,0.000000,4.000000,4.000000,4.000000,4.000000,4.000000,4.000000,4.000000,4.000000,4.000000,4.000000,4.000000,4.000000,4.000000,4.000000,4.000000,4.000000,4.000000,4.000000,4.000000,4.000000,4.000000,4.000000,4.000000,4.000000,4.000000,4.000000,4.000000,4.000000,4.000000,4.000000,4.000000,4.000000,100.000000
1614304423.536668,82.000000,0.000000,-6.733889,-4.492873,-19.229599,-2.894765,0.169524,-7.656854,-1.190264,-10.014814,-10.579417,-4.178864,7.134010,-9.440974,-21.087091,3.845532,-21.520452,-11.356525,-12.861505,-2.727121,1.966732,1.241571,-3.337315,3.819403,-6.519388,17.798817,5.338796,9.893329,1.930802,-0.423975,3.011350,8.339288,2.687151,7.365133,0.000000,171.000000,4.000000,,,,0.000000,4.000000,4.000000,4.000000,4.000000,4.000000,4.000000,4.000000,4.000000,4.000000,4.000000,4.000000,4.000000,4.000000,4.000000,4.000000,4.000000,4.000000,4.000000,4.000000,4.000000,4.000000,4.000000,4.000000,4.000000,4.000000,4.000000,4.000000,4.000000,4.000000,4.000000,4.000000,4.000000,100.000000
1614304423.544417,83.000000,0.000000,-6.214334,-5.001201,-21.774473,-2.891870,-2.394748,-7.649197,-1.189074,-7.953517,-9.543197,-4.687506,5.075594,-6.867430,-22.091644,-10.517288,-38.422009,-36.986195,-15.925567,-25.801317,-24.189081,-20.810953,-31.026285,-9.004929,-10.102612,11.627172,-11.589620,-3.962718,-10.378821,-0.936371,-7.760892,-0.387000,-3.982202,-5.975565,0.000000,203.000000,4.000000,,,,0.000000,4.000000,4.000000,4.000000,4.000000,4.000000,4.000000,4.000000,4.000000,4.000000,4.000000,4.000000,4.000000,4.000000,4.000000,4.000000,4.000000,4.000000,4.000000,4.000000,4.000000,4.000000,4.000000,4.000000,4.000000,4.000000,4.000000,4.000000,4.000000,4.000000,4.000000,4.000000,4.000000,100.000000
1614304423.552266,84.000000,0.000000,-6.720941,-3.970559,-26.368082,-3.401799,-9.059020,-7.641548,-1.187885,-7.945564,-11.072115,-10.323844,-5.185892,-7.886204,-24.633656,-25.891386,-54.793842,-62.590233,-29.755795,-48.852440,-48.780277,-43.867065,-52.533722,-25.406181,-14.195074,-5.820354,-21.834440,-4.984396,-16.009468,-0.935435,-11.342875,-8.591742,-7.055143,-13.149077,0.000000,184.000000,4.000000,,,,0.000000,4.000000,4.000000,4.000000,4.000000,4.000000,4.000000,4.000000,4.000000,4.000000,4.000000,4.000000,4.000000,4.000000,4.000000,4.000000,4.000000,4.000000,4.000000,4.000000,4.000000,4.000000,4.000000,4.000000,4.000000,4.000000,4.000000,4.000000,4.000000,4.000000,4.000000,4.000000,4.000000,100.000000
1614304423.560015,85.000000,0.000000,-6.714220,-1.402486,-27.880177,-2.885576,-5.973038,-7.633906,-1.186697,-7.424798,-10.035402,-11.851981,-9.796090,-7.365497,-25.121841,-26.891136,-58.841614,-67.655846,-36.905525,-54.957432,-54.885342,-52.028324,-54.019650,-28.457697,-16.232161,-16.583763,-20.786964,-2.415309,-11.890894,-0.934500,-9.793070,-10.121612,-6.535267,-8.520543,0.000000,162.000000,4.000000,,,,0.000000,4.000000,4.000000,4.000000,4.000000,4.000000,4.000000,4.000000,4.000000,4.000000,4.000000,4.000000,4.000000,4.000000,4.000000,4.000000,4.000000,4.000000,4.000000,4.000000,4.000000,4.000000,4.000000,4.000000,4.000000,4.000000,4.000000,4.000000,4.000000,4.000000,4.000000,4.000000,4.000000,100.000000
1614304423.567864,86.000000,0.000000,-6.194685,-0.375442,-26.826654,-2.882691,-3.915783,-7.626272,-0.672690,-10.494296,-9.512546,-12.865770,-6.709371,-6.845311,-25.096720,-25.838604,-58.269951,-65.024094,-35.842979,-54.902473,-65.086868,-59.155785,-52.427166,-26.377958,-23.395416,-15.541539,-23.330280,-8.053920,-12.904644,-0.933565,-10.296098,-9.085849,-6.528732,-7.999202,0.000000,194.000000,4.000000,,,,0.000000,4.000000,4.000000,4.000000,4.000000,4.000000,4.000000,4.000000,4.000000,4.000000,4.000000,4.000000,4.000000,4.000000,4.000000,4.000000,4.000000,4.000000,4.000000,4.000000,4.000000,4.000000,4.000000,4.000000,4.000000,4.000000,4.000000,4.000000,4.000000,4.000000,4.000000,4.000000,4.000000,100.000000
1614304423.575613,87.000000,0.000000,-6.701311,-0.887887,-28.851110,-7.495193,-17.758020,-7.618646,-1.697658,-15.612007,-17.708162,-20.545212,-8.753944,-9.402569,-26.097265,-32.479431,-51.545013,-61.369324,-36.832779,-55.873215,-72.714088,-61.147911,-58.015766,-31.479784,-30.551508,-21.167023,-31.512077,-17.276636,-18.532764,-0.932631,-10.285801,-11.128045,-8.573485,-17.221972,0.000000,186.000000,4.000000,,,,0.000000,4.000000,4.000000,4.000000,4.000000,4.000000,4.000000,4.000000,4.000000,4.000000,4.000000,4.000000,4.000000,4.000000,4.000000,4.000000,4.000000,4.000000,4.000000,4.000000,4.000000,4.000000,4.000000,4.000000,4.000000,4.000000,4.000000,4.000000,4.000000,4.000000,4.000000,4.000000,4.000000,100.000000
1614304423.583462,88.000000,0.000000,-6.694609,-0.886999,-31.386362,-11.077441,-27.483852,-7.611027,-4.260063,-15.596395,-24.357121,-27.191334,-13.360575,-10.931627,-23.507065,-35.011055,-36.621674,-53.102825,-34.744663,-50.176315,-59.820862,-52.368813,-58.983391,-36.576511,-32.059418,-31.915087,-33.531849,-18.797819,-20.052694,-0.931699,-10.275516,-13.681019,-10.103374,-18.743212,0.000000,162.000000,4.000000,,,,0.000000,4.000000,4.000000,4.000000,4.000000,4.000000,4.000000,4.000000,4.000000,4.000000,4.000000,4.000000,4.000000,4.000000,4.000000,4.000000,4.000000,4.000000,4.000000,4.000000,4.000000,4.000000,4.000000,4.000000,4.000000,4.000000,4.000000,4.000000,4.000000,4.000000,4.000000,4.000000,4.000000,100.000000
1614304423.591211,89.000000,0.000000,-6.687915,-0.886112,-31.354975,-8.502261,-21.815344,-7.603416,-5.281444,-15.067978,-20.230200,-27.164143,-13.347214,-11.946337,-20.406635,-32.924763,-29.918386,-45.870235,-29.581713,-43.972290,-44.376427,-46.675419,-53.283382,-35.001472,-30.488897,-31.370352,-25.806009,-14.676458,-19.007000,-0.930767,-9.752419,-13.154518,-10.093270,-12.057802,0.000000,185.000000,4.000000,,,,0.000000,4.000000,4.000000,4.000000,4.000000,4.000000,4.000000,4.000000,4.000000,4.000000,4.000000,4.000000,4.000000,4.000000,4.000000,4.000000,4.000000,4.000000,4.000000,4.000000,4.000000,4.000000,4.000000,4.000000,4.000000,4.000000,4.000000,4.000000,4.000000,4.000000,4.000000,4.000000,4.000000,100.000000
1614304423.599060,90.000000,0.000000,-6.681227,-0.885226,-30.810801,-6.442477,-17.178143,-7.595813,-4.763342,-21.719576,-16.107405,-26.624159,-15.897969,-16.549774,-29.616997,-39.045685,-35.529495,-46.337185,-32.116234,-43.928318,-44.844868,-45.090282,-53.230099,-34.453651,-30.458408,-27.749237,-19.626356,-12.097679,-18.475172,-0.417016,-7.691385,-12.628543,-10.083177,-13.584206,0.000000,204.000000,4.000000,,,,0.000000,4.000000,4.000000,4.000000,4.000000,4.000000,4.000000,4.000000,4.000000,4.000000,4.000000,4.000000,4.000000,4.000000,4.000000,4.000000,4.000000,4.000000,4.000000,4.000000,4.000000,4.000000,4.000000,4.000000,4.000000,4.000000,4.000000,4.000000,4.000000,4.000000,4.000000,4.000000,4.000000,100.000000
1614304423.606809,91.000000,0.000000,-6.674545,-0.884341,-31.292810,-7.461676,-19.725067,-7.588217,-4.758579,-27.851704,-20.193861,-26.597534,-24.600019,-22.174252,-39.843792,-49.775867,-39.083706,-46.803669,-37.212322,-36.704903,-43.261562,-37.865704,-53.176868,-36.470478,-31.966412,-28.234308,-21.658012,-10.034300,-19.482338,-2.467881,-6.145232,-12.615914,-10.073093,-14.083442,0.000000,192.000000,4.000000,,,,0.000000,4.000000,4.000000,4.000000,4.000000,4.000000,4.000000,4.000000,4.000000,4.000000,4.000000,4.000000,4.000000,4.000000,4.000000,4.000000,4.000000,4.000000,4.000000,4.000000,4.000000,4.000000,4.000000,4.000000,4.000000,4.000000,4.000000,4.000000,4.000000,4.000000,4.000000,4.000000,4.000000,100.000000
1614304423.614658,92.000000,0.000000,-7.180692,-0.883457,-31.261517,-6.941393,-18.679701,-7.580629,-5.266641,-26.798210,-21.712130,-27.596577,-25.088240,-24.716179,-36.214203,-48.700451,-38.018982,-45.731224,-31.534084,-23.847687,-26.808044,-27.058609,-35.174973,-25.664778,-29.370342,-24.103510,-22.149176,-5.408881,-19.462856,-4.516695,-5.626266,-11.064837,-6.986098,-0.223205,0.000000,195.000000,4.000000,,,,0.000000,4.000000,4.000000,4.000000,4.000000,4.000000,4.000000,4.000000,4.000000,4.000000,4.000000,4.000000,4.000000,4.000000,4.000000,4.000000,4.000000,4.000000,4.000000,4.000000,4.000000,4.000000,4.000000,4.000000,4.000000,4.000000,4.000000,4.000000,4.000000,4.000000,4.000000,4.000000,4.000000,100.000000
1614304423.622407,93.000000,0.000000,-6.147870,-0.882573,-28.666153,-4.370349,-11.994355,-7.573048,-4.748553,-27.284233,-18.613493,-25.517698,-18.909306,-20.076078,-30.024143,-41.472263,-37.980965,-46.198315,-18.169218,-19.721275,-9.345340,-12.159756,-10.524414,-3.075010,-17.546101,-13.822996,-9.306513,-2.326549,-12.776727,-2.460896,-3.056538,-5.925567,-5.440650,6.956505,0.000000,199.000000,4.000000,,,,0.000000,4.000000,4.000000,4.000000,4.000000,4.000000,4.000000,4.000000,4.000000,4.000000,4.000000,4.000000,4.000000,4.000000,4.000000,4.000000,4.000000,4.000000,4.000000,4.000000,4.000000,4.000000,4.000000,4.000000,4.000000,4.000000,4.000000,4.000000,4.000000,4.000000,4.000000,4.000000,4.000000,100.000000
1614304423.630256,94.000000,0.000000,-3.577619,-0.881691,-26.586205,-2.314697,-7.366976,-7.565475,-4.743805,-26.744127,-17.056419,-18.312695,-17.351934,-11.338054,-27.430016,-37.841049,-37.430161,-43.588013,-8.920279,-16.624630,-5.233430,3.749840,-1.795941,8.722937,-6.246502,-3.039943,5.574589,-2.837043,-1.481899,0.105667,-1.515020,-1.304257,-7.999312,-1.768400,0.000000,204.000000,4.000000,,,,0.000000,4.000000,4.000000,4.000000,4.000000,4.000000,4.000000,4.000000,4.000000,4.000000,4.000000,4.000000,4.000000,4.000000,4.000000,4.000000,4.000000,4.000000,4.000000,4.000000,4.000000,4.000000,4.000000,4.000000,4.000000,4.000000,4.000000,4.000000,4.000000,4.000000,4.000000,4.000000,4.000000,100.000000
1614304423.638005,95.000000,0.000000,-2.548401,-0.880809,-26.559618,-2.825203,-6.333968,-7.557910,-4.739061,-17.999435,-17.039362,-12.140535,-12.719199,-7.224152,-17.658997,-29.598078,-35.341450,-35.852116,-6.860076,-6.864416,-7.279479,8.361475,-2.306966,7.175752,-2.650512,8.245149,6.594655,-2.834205,1.596506,-0.920080,-2.539145,-2.841414,-10.042595,-4.843554,0.000000,163.000000,4.000000,,,,0.000000,4.000000,4.000000,4.000000,4.000000,4.000000,4.000000,4.000000,4.000000,4.000000,4.000000,4.000000,4.000000,4.000000,4.000000,4.000000,4.000000,4.000000,4.000000,4.000000,4.000000,4.000000,4.000000,4.000000,4.000000,4.000000,4.000000,4.000000,4.000000,4.000000,4.000000,4.000000,4.000000,100.000000
1614304423.645854,96.000000,0.000000,-3.058673,-0.879928,-27.045879,-3.335198,-7.353275,-7.550352,-4.734322,-8.237846,-15.483861,-10.589933,-1.424428,-5.678466,-6.872107,-14.696686,-29.152262,-28.123957,-5.314755,-4.806269,-6.759379,4.763370,-3.330300,7.681397,-1.109400,19.006134,1.972676,-2.831371,-0.456372,-1.431980,-0.998145,-10.018060,-9.519732,-1.761788,8064.000000,0.000000,4.000000,,,,0.000000,4.000000,4.000000,4.000000,4.000000,4.000000,4.000000,4.000000,4.000000,4.000000,4.000000,4.000000,4.000000,4.000000,4.000000,4.000000,4.000000,4.000000,4.000000,4.000000,4.000000,4.000000,4.000000,4.000000,4.000000,4.000000,4.000000,4.000000,4.000000,4.000000,4.000000,4.000000,4.000000,100.000000
1614304423.653603,97.000000,0.000000,-2.542794,-0.879048,-26.506012,-2.306222,-6.833101,-7.542801,-4.729588,-4.127044,-13.417095,-10.579343,4.218022,-1.057403,-3.275491,-4.425579,-23.994905,-24.506090,-3.770979,-15.570694,-16.496208,-5.497804,-11.019278,6.648075,-0.082650,21.038410,-1.619040,-5.392642,1.082546,0.107914,-5.099711,-13.084965,-11.561494,-6.375411,8064.000000,0.000000,4.000000,,,,0.000000,4.000000,4.000000,4.000000,4.000000,4.000000,4.000000,4.000000,4.000000,4.000000,4.000000,4.000000,4.000000,4.000000,4.000000,4.000000,4.000000,4.000000,4.000000,4.000000,4.000000,4.000000,4.000000,4.000000,4.000000,4.000000,4.000000,4.000000,4.000000,4.000000,4.000000,4.000000,4.000000,100.000000
1614304423.661452,98.000000,0.000000,-2.540251,-0.878169,-26.479507,-3.842377,-5.800627,-7.535259,-4.724858,-3.610097,-12.378037,-11.594404,2.675342,1.507757,-6.861959,-5.446794,-31.663218,-28.584146,-13.510798,-28.888456,-36.992535,-27.543589,-22.803129,-5.153445,-4.185132,12.299423,-12.899472,-6.925711,-1.995460,-2.456297,-18.427944,-12.046239,-15.652496,-11.497240,8064.000000,0.000000,4.000000,,,,0.000000,4.000000,4.000000,4.000000,4.000000,4.000000,4.000000,4.000000,4.000000,4.000000,4.000000,4.000000,4.000000,4.000000,4.000000,4.000000,4.000000,4.000000,4.000000,4.000000,4.000000,4.000000,4.000000,4.000000,4.000000,4.000000,4.000000,4.000000,4.000000,4.000000,4.000000,4.000000,4.000000,100.000000
1614304423.669201,99.000000,0.000000,-6.127454,-0.877291,-25.940207,-8.453919,-7.333288,-6.502082,-4.720133,-4.119307,-13.391300,-13.634092,2.672667,-1.057853,-19.162790,-12.108014,-43.939247,-39.837616,-30.420364,-38.603157,-49.263233,-44.951942,-36.626480,-24.635471,-15.462997,-1.559030,-26.732727,-7.944427,-12.762695,-9.633327,-24.563362,-13.059834,-17.688126,-10.972922,8064.000000,0.000000,4.000000,,,,0.000000,4.000000,4.000000,4.000000,4.000000,4.000000,4.000000,4.000000,4.000000,4.000000,4.000000,4.000000,4.000000,4.000000,4.000000,4.000000,4.000000,4.000000,4.000000,4.000000,4.000000,4.000000,4.000000,4.000000,4.000000,4.000000,4.000000,4.000000,4.000000,4.000000,4.000000,4.000000,4.000000,100.000000
1614304423.677050,100.000000,0.000000,-10.223891,-0.876414,-26.427088,-11.522388,-13.479801,-7.521222,-4.715413,-2.576726,-16.967653,-14.133279,-2.458211,-4.646539,-30.425678,-24.916418,-45.433769,-45.438801,-38.595070,-43.692760,-50.239613,-48.496735,-58.128315,-38.969810,-27.242407,-16.942087,-30.295738,-9.987764,-19.929420,-12.187797,-19.410595,-13.046774,-17.670439,-12.500411,8064.000000,0.000000,4.000000,,,,0.000000,4.000000,4.000000,4.000000,4.000000,4.000000,4.000000,4.000000,4.000000,4.000000,4.000000,4.000000,4.000000,4.000000,4.000000,4.000000,4.000000,4.000000,4.000000,4.000000,4.000000,4.000000,4.000000,4.000000,4.000000,4.000000,4.000000,4.000000,4.000000,4.000000,4.000000,4.000000,4.000000,100.000000
1614304423.684799,101.000000,0.000000,-10.726487,-0.875537,-27.939121,-10.485226,-16.030424,-8.539341,-4.710698,-5.138252,-17.463505,-18.221710,-16.814728,-11.308558,-34.497818,-42.840221,-47.952438,-49.495926,-39.069298,-44.161888,-50.189373,-53.063622,-77.044548,-45.597507,-31.317728,-26.155914,-30.265442,-11.516238,-18.883850,-9.098686,-16.827082,-7.392701,-17.139946,-18.128937,8064.000000,0.000000,4.000000,,,,0.000000,4.000000,4.000000,4.000000,4.000000,4.000000,4.000000,4.000000,4.000000,4.000000,4.000000,4.000000,4.000000,4.000000,4.000000,4.000000,4.000000,4.000000,4.000000,4.000000,4.000000,4.000000,4.000000,4.000000,4.000000,4.000000,4.000000,4.000000,4.000000,4.000000,4.000000,4.000000,4.000000,100.000000
1614304423.692648,102.000000,0.000000,-10.202940,0.150979,-25.347080,-10.474740,-12.424650,-5.453879,-4.705987,-15.389524,-15.907580,-26.921436,-28.592785,-17.451096,-46.771011,-55.617893,-64.827560,-63.805405,-40.055870,-46.169006,-54.241745,-57.625942,-85.685448,-52.218575,-30.260769,-31.257963,-36.389023,-10.991901,-19.377787,-7.551126,-13.733331,-4.821206,-15.071525,-19.136448,8064.000000,0.000000,4.000000,,,,0.000000,4.000000,4.000000,4.000000,4.000000,4.000000,4.000000,4.000000,4.000000,4.000000,4.000000,4.000000,4.000000,4.000000,4.000000,4.000000,4.000000,4.000000,4.000000,4.000000,4.000000,4.000000,4.000000,4.000000,4.000000,4.000000,4.000000,4.000000,4.000000,4.000000,4.000000,4.000000,4.000000,100.000000
1614304423.700398,103.000000,0.000000,-10.192738,-1.387633,-27.373014,-10.977086,-19.078892,-10.063809,-4.701281,-23.579264,-25.635263,-30.484259,-32.153934,-18.459286,-58.519112,-63.254581,-73.480682,-78.100578,-40.528633,-51.763863,-57.264427,-55.517033,-91.753609,-54.217640,-31.768970,-40.970295,-39.942379,-9.955268,-19.871229,-8.569216,-7.052931,-11.995872,-12.492351,-14.501927,8064.000000,0.000000,4.000000,,,,0.000000,4.000000,4.000000,4.000000,4.000000,4.000000,4.000000,4.000000,4.000000,4.000000,4.000000,4.000000,4.000000,4.000000,4.000000,4.000000,4.000000,4.000000,4.000000,4.000000,4.000000,4.000000,4.000000,4.000000,4.000000,4.000000,4.000000,4.000000,4.000000,4.000000,4.000000,4.000000,4.000000,100.000000
1614304423.708247,104.000000,0.000000,-10.182545,-4.975989,-41.704617,-11.478930,-35.470070,-23.387079,-4.696579,-24.068504,-39.455780,-32.505058,-32.634602,-19.979288,-49.229824,-65.755432,-65.714897,-76.484016,-31.770155,-50.686459,-51.053318,-46.230747,-81.405449,-34.163422,-25.583355,-47.595993,-32.210129,-10.970954,-10.620588,-8.560647,-6.020237,-17.112082,-14.018320,-14.487426,8064.000000,0.000000,4.000000,,,,0.000000,4.000000,4.000000,4.000000,4.000000,4.000000,4.000000,4.000000,4.000000,4.000000,4.000000,4.000000,4.000000,4.000000,4.000000,4.000000,4.000000,4.000000,4.000000,4.000000,4.000000,4.000000,4.000000,4.000000,4.000000,4.000000,4.000000,4.000000,4.000000,4.000000,4.000000,4.000000,4.000000,100.000000
1614304423.715996,105.000000,0.000000,-10.685183,-3.432552,-43.201374,-10.441810,-33.383316,-22.850872,-5.717524,-23.531614,-35.313763,-34.011013,-27.473763,-18.420847,-29.180593,-51.330700,-51.803028,-57.433170,-13.789668,-36.789619,-28.438162,-24.646055,-48.503529,-2.847207,-7.609054,-30.112497,-15.254840,-11.472804,1.697724,-7.526445,-3.450114,-11.966763,-13.491481,-15.498579,8064.000000,0.000000,4.000000,,,,0.000000,4.000000,4.000000,4.000000,4.000000,4.000000,4.000000,4.000000,4.000000,4.000000,4.000000,4.000000,4.000000,4.000000,4.000000,4.000000,4.000000,4.000000,4.000000,4.000000,4.000000,4.000000,4.000000,4.000000,4.000000,4.000000,4.000000,4.000000,4.000000,4.000000,4.000000,4.000000,4.000000,100.000000
1614304423.723845,106.000000,0.000000,-10.674498,-0.865017,-26.235094,-10.431368,-16.426857,-8.981867,-4.173345,-22.995262,-23.996397,-30.387259,-15.138596,-6.094735,-15.305259,-22.048601,-32.776863,-28.144968,1.095917,-19.829752,-6.358441,-3.082948,-15.634513,12.027435,3.680607,1.199666,2.709132,-2.230562,4.772950,-3.929175,4.245644,-5.800951,-7.836964,-2.149747,8064.000000,0.000000,4.000000,,,,0.000000,4.000000,4.000000,4.000000,4.000000,4.000000,4.000000,4.000000,4.000000,4.000000,4.000000,4.000000,4.000000,4.000000,4.000000,4.000000,4.000000,4.000000,4.000000,4.000000,4.000000,4.000000,4.000000,4.000000,4.000000,4.000000,4.000000,4.000000,4.000000,4.000000,4.000000,4.000000,4.000000,100.000000
1614304423.731594,107.000000,0.000000,-9.125361,-5.992357,-23.644756,-11.959397,-15.384789,-7.434423,-4.681992,-22.459448,-25.510862,-27.792768,-8.969611,0.578027,-6.059185,-0.488091,-14.282549,-8.629643,2.120462,-14.681718,-2.249518,-3.079865,-6.388109,12.015408,0.087183,16.583082,8.347449,8.028079,3.742536,-3.925246,2.190116,-3.743868,-5.777845,12.211377,8064.000000,0.000000,4.000000,,,,0.000000,4.000000,4.000000,4.000000,4.000000,4.000000,4.000000,4.000000,4.000000,4.000000,4.000000,4.000000,4.000000,4.000000,4.000000,4.000000,4.000000,4.000000,4.000000,4.000000,4.000000,4.000000,4.000000,4.000000,4.000000,4.000000,4.000000,4.000000,4.000000,4.000000,4.000000,4.000000,4.000000,100.000000
1614304423.739243,108.000000,0.000000,-11.680339,-12.140210,-33.364700,-7.332054,-16.907866,-12.555194,-8.779874,-23.462629,-23.434069,-22.636770,-8.447821,-8.140500,-5.027484,3.102141,-12.216985,-6.569732,-4.035505,-16.205498,-7.375474,-13.333196,-6.381721,10.464931,-4.015469,16.053679,-1.404488,3.917487,4.764434,-9.562346,-8.068484,-5.278586,-10.900272,3.994037,8064.000000,0.000000,4.000000,,,,0.000000,4.000000,4.000000,4.000000,4.000000,4.000000,4.000000,4.000000,4.000000,4.000000,4.000000,4.000000,4.000000,4.000000,4.000000,4.000000,4.000000,4.000000,4.000000,4.000000,4.000000,4.000000,4.000000,4.000000,4.000000,4.000000,4.000000,4.000000,4.000000,4.000000,4.000000,4.000000,4.000000,100.000000
1614304423.747092,109.000000,0.000000,-14.232761,-12.128070,-24.100569,2.931689,-1.506343,-2.286229,-5.181351,-13.695577,-9.051661,-4.665416,0.791396,-9.158001,-5.022457,7.714423,-15.794512,-2.460598,-5.569931,-14.650830,-9.419380,-13.832683,-3.298416,6.864722,-3.498633,13.986342,-8.582571,-3.265918,3.734029,-11.604066,-10.624518,-5.273307,-13.453475,-10.368931,8064.000000,0.000000,4.000000,,,,0.000000,4.000000,4.000000,4.000000,4.000000,4.000000,4.000000,4.000000,4.000000,4.000000,4.000000,4.000000,4.000000,4.000000,4.000000,4.000000,4.000000,4.000000,4.000000,4.000000,4.000000,4.000000,4.000000,4.000000,4.000000,4.000000,4.000000,4.000000,4.000000,4.000000,4.000000,4.000000,4.000000,100.000000
1614304423.754841,110.000000,0.000000,-7.039041,-11.090302,-6.640570,10.108244,8.751574,10.536571,7.131523,6.830940,-0.324660,8.159762,14.636759,2.646029,1.649232,17.450298,-8.599230,7.285453,-4.538720,-7.969513,-7.871500,-11.767569,-1.243835,4.293755,-2.982314,12.946715,-2.420142,-2.749831,4.243115,-3.387334,-9.588253,-2.703931,-12.414380,-9.845741,8064.000000,0.000000,4.000000,,,,0.000000,4.000000,4.000000,4.000000,4.000000,4.000000,4.000000,4.000000,4.000000,4.000000,4.000000,4.000000,4.000000,4.000000,4.000000,4.000000,4.000000,4.000000,4.000000,4.000000,4.000000,4.000000,4.000000,4.000000,4.000000,4.000000,4.000000,4.000000,4.000000,4.000000,4.000000,4.000000,4.000000,100.000000
1614304423.762690,111.000000,0.000000,2.711588,-12.104852,-9.198032,9.585316,5.665899,5.910649,10.714135,10.413853,-0.837156,3.536218,12.570840,3.669024,-3.480622,15.381566,-7.052169,4.201244,-8.123924,-2.320518,-4.273884,-10.217339,-4.319515,2.238179,-5.030613,13.446589,-2.930542,-3.772722,4.238872,0.718618,-12.655588,-8.342253,-17.530170,-11.374357,8064.000000,0.000000,4.000000,,,,0.000000,4.000000,4.000000,4.000000,4.000000,4.000000,4.000000,4.000000,4.000000,4.000000,4.000000,4.000000,4.000000,4.000000,4.000000,4.000000,4.000000,4.000000,4.000000,4.000000,4.000000,4.000000,4.000000,4.000000,4.000000,4.000000,4.000000,4.000000,4.000000,4.000000,4.000000,4.000000,4.000000,100.000000
1614304423.770439,112.000000,0.000000,-3.957790,-12.092747,-26.111912,2.909064,-0.493613,-5.890133,4.549574,-7.032459,-5.964523,-7.749370,-5.390449,-8.642337,-24.502783,-8.223558,-29.096399,-14.777316,-18.885031,-8.472043,-10.936277,-14.309686,-18.674170,-14.687137,-12.717891,5.740835,-25.491714,-15.051001,-7.560238,-7.487229,-13.668573,-23.205706,-24.179308,-25.721958,8064.000000,0.000000,4.000000,,,,0.000000,4.000000,4.000000,4.000000,4.000000,4.000000,4.000000,4.000000,4.000000,4.000000,4.000000,4.000000,4.000000,4.000000,4.000000,4.000000,4.000000,4.000000,4.000000,4.000000,4.000000,4.000000,4.000000,4.000000,4.000000,4.000000,4.000000,4.000000,4.000000,4.000000,4.000000,4.000000,4.000000,100.000000
1614304423.778288,113.000000,0.000000,-18.825628,-11.055014,-35.316570,-4.273333,-13.826452,-11.525269,-0.070360,-20.871580,-15.702148,-22.613415,-17.179930,-19.402925,-40.375717,-38.984566,-58.298073,-42.967667,-31.173840,-28.463572,-36.566368,-33.269733,-49.424725,-44.928860,-23.474403,-20.931574,-53.671352,-28.369284,-24.475756,-15.172050,-13.654904,-31.900448,-25.180769,-34.927006,8064.000000,0.000000,4.000000,,,,0.000000,4.000000,4.000000,4.000000,4.000000,4.000000,4.000000,4.000000,4.000000,4.000000,4.000000,4.000000,4.000000,4.000000,4.000000,4.000000,4.000000,4.000000,4.000000,4.000000,4.000000,4.000000,4.000000,4.000000,4.000000,4.000000,4.000000,4.000000,4.000000,4.000000,4.000000,4.000000,4.000000,100.000000
1614304423.786137,114.000000,0.000000,-21.370905,-11.556779,-36.306892,-7.345983,-27.658779,-10.488102,-2.634392,-22.389170,-24.404396,-37.975418,-17.162750,-23.998907,-45.463547,-57.407120,-70.547462,-71.129829,-37.809330,-44.332542,-59.093903,-50.159542,-80.657356,-63.858288,-29.604774,-52.705513,-67.976654,-33.981941,-28.041023,-15.669698,-13.128429,-31.868547,-24.129948,-33.353615,8064.000000,0.000000,4.000000,,,,0.000000,4.000000,4.000000,4.000000,4.000000,4.000000,4.000000,4.000000,4.000000,4.000000,4.000000,4.000000,4.000000,4.000000,4.000000,4.000000,4.000000,4.000000,4.000000,4.000000,4.000000,4.000000,4.000000,4.000000,4.000000,4.000000,4.000000,4.000000,4.000000,4.000000,4.000000,4.000000,4.000000,100.000000
1614304423.793886,115.000000,0.000000,-15.195687,-12.058043,-40.885971,-10.928380,-28.656763,-9.964794,-4.170219,-22.366781,-25.405632,-42.552826,-16.632767,-21.923626,-43.879620,-61.452278,-67.912819,-82.853569,-36.745880,-47.877956,-62.111732,-49.083740,-94.422852,-58.666225,-25.472607,-69.063065,-64.831757,-32.409496,-25.961700,-14.628387,-12.089660,-31.836679,-24.618637,-33.320263,8064.000000,0.000000,4.000000,,,,0.000000,4.000000,4.000000,4.000000,4.000000,4.000000,4.000000,4.000000,4.000000,4.000000,4.000000,4.000000,4.000000,4.000000,4.000000,4.000000,4.000000,4.000000,4.000000,4.000000,4.000000,4.000000,4.000000,4.000000,4.000000,4.000000,4.000000,4.000000,4.000000,4.000000,4.000000,4.000000,4.000000,100.000000
1614304423.801635,116.000000,0.000000,-13.129210,-11.020344,-48.537392,-18.096939,-35.294773,-14.057393,-4.678869,-23.882875,-24.354586,-41.997452,-18.154596,-15.747856,-37.169075,-60.365185,-60.665417,-75.078407,-32.606571,-47.830078,-61.536800,-47.496197,-93.302788,-46.299866,-14.677903,-65.404259,-52.972050,-32.889908,-27.474199,-15.639400,-16.692955,-30.779202,-24.081200,-32.774120,8064.000000,0.000000,4.000000,,,,0.000000,4.000000,4.000000,4.000000,4.000000,4.000000,4.000000,4.000000,4.000000,4.000000,4.000000,4.000000,4.000000,4.000000,4.000000,4.000000,4.000000,4.000000,4.000000,4.000000,4.000000,4.000000,4.000000,4.000000,4.000000,4.000000,4.000000,4.000000,4.000000,4.000000,4.000000,4.000000,4.000000,100.000000
1614304423.809484,117.000000,0.000000,-14.654542,-12.034965,-50.027317,-19.104483,-47.054348,-18.145901,-8.776754,-23.858994,-25.355871,-40.416992,-15.572339,-11.629544,-27.901134,-50.048409,-44.194492,-61.157177,-29.497042,-47.782246,-59.423981,-43.346138,-81.927429,-35.484337,-9.535020,-50.467060,-41.637028,-33.369839,-21.292879,-15.623760,-23.342928,-31.774063,-24.057117,-26.587502,8064.000000,0.000000,4.000000,,,,0.000000,4.000000,4.000000,4.000000,4.000000,4.000000,4.000000,4.000000,4.000000,4.000000,4.000000,4.000000,4.000000,4.000000,4.000000,4.000000,4.000000,4.000000,4.000000,4.000000,4.000000,4.000000,4.000000,4.000000,4.000000,4.000000,4.000000,4.000000,4.000000,4.000000,4.000000,4.000000,4.000000,100.000000
1614304423.817233,118.000000,0.000000,-14.639888,-15.099853,-46.387547,-17.546917,-36.238064,-19.153395,-11.844901,-19.732571,-24.304874,-28.068884,-4.787536,-3.925607,-11.975799,-24.357334,-17.483633,-38.531918,-20.236774,-36.452412,-38.851738,-19.713047,-54.666016,-13.910391,-5.935741,-30.929411,-25.185135,-24.618519,-6.912612,-15.095316,-21.781124,-31.229469,-24.033060,-19.381426,8064.000000,0.000000,4.000000,,,,0.000000,4.000000,4.000000,4.000000,4.000000,4.000000,4.000000,4.000000,4.000000,4.000000,4.000000,4.000000,4.000000,4.000000,4.000000,4.000000,4.000000,4.000000,4.000000,4.000000,4.000000,4.000000,4.000000,4.000000,4.000000,4.000000,4.000000,4.000000,4.000000,4.000000,4.000000,4.000000,4.000000,100.000000
1614304423.825082,119.000000,0.000000,-10.009863,-14.059112,-41.725773,-18.042191,-15.689005,-18.621422,-9.781774,-13.558991,-21.203648,-13.169021,9.063406,8.386010,12.651562,5.923433,6.123594,-5.672872,-0.216539,-9.749294,-5.992372,8.511795,-21.790838,17.898392,4.839425,-7.308739,-1.570205,-12.799029,2.325070,-15.080221,-16.631138,-13.249521,-21.957745,-15.259481,8064.000000,0.000000,4.000000,,,,0.000000,4.000000,4.000000,4.000000,4.000000,4.000000,4.000000,4.000000,4.000000,4.000000,4.000000,4.000000,4.000000,4.000000,4.000000,4.000000,4.000000,4.000000,4.000000,4.000000,4.000000,4.000000,4.000000,4.000000,4.000000,4.000000,4.000000,4.000000,4.000000,4.000000,4.000000,4.000000,4.000000,100.000000
1614304423.832831,120.000000,0.000000,-3.846007,-8.916847,-35.530201,-17.511328,-11.570752,-18.089979,-7.720710,-10.468509,-20.156803,-8.540467,15.721009,12.993010,28.023525,22.327766,14.835420,22.537930,15.168293,18.465584,26.321314,24.913540,8.487364,35.829212,12.526894,16.288313,15.354442,-7.658025,4.374027,-15.065141,-16.614506,8.815010,-19.884506,-8.064734,8192.000000,0.000000,4.000000,,,,0.000000,4.000000,4.000000,4.000000,4.000000,4.000000,4.000000,4.000000,4.000000,4.000000,4.000000,4.000000,4.000000,4.000000,4.000000,4.000000,4.000000,4.000000,4.000000,4.000000,4.000000,4.000000,4.000000,4.000000,4.000000,4.000000,4.000000,4.000000,4.000000,4.000000,4.000000,4.000000,4.000000,100.000000
1614304423.840680,121.000000,0.000000,-1.278058,-6.856648,-30.366467,-18.006638,-14.123284,-18.584709,-8.225810,-10.458040,-20.136646,-8.531927,14.166826,9.390272,21.328836,26.920824,12.769302,32.258980,17.717228,32.293270,42.705250,32.068111,17.196825,33.742100,8.924623,31.143820,16.364729,-9.188828,4.369653,-14.537255,-17.110712,8.293374,-19.864620,-0.877183,8064.000000,0.000000,4.000000,,,,0.000000,4.000000,4.000000,4.000000,4.000000,4.000000,4.000000,4.000000,4.000000,4.000000,4.000000,4.000000,4.000000,4.000000,4.000000,4.000000,4.000000,4.000000,4.000000,4.000000,4.000000,4.000000,4.000000,4.000000,4.000000,4.000000,4.000000,4.000000,4.000000,4.000000,4.000000,4.000000,4.000000,100.000000
1614304423.848429,122.000000,0.000000,-2.815242,-8.388253,-29.310459,-16.962990,-13.083520,-19.078945,-8.730405,-11.473224,-18.065228,-5.959292,10.562916,8.868062,8.486994,24.329800,11.218071,32.739544,15.135407,34.312260,40.098442,31.010405,16.666807,26.016050,6.351596,33.163960,14.297082,-10.205280,4.878104,-15.548359,-17.093601,-4.022611,-20.357576,-5.491690,8192.000000,0.000000,4.000000,,,,0.000000,4.000000,4.000000,4.000000,4.000000,4.000000,4.000000,4.000000,4.000000,4.000000,4.000000,4.000000,4.000000,4.000000,4.000000,4.000000,4.000000,4.000000,4.000000,4.000000,4.000000,4.000000,4.000000,4.000000,4.000000,4.000000,4.000000,4.000000,4.000000,4.000000,4.000000,4.000000,4.000000,100.000000
1614304423.856278,123.000000,0.000000,-2.812427,-7.354224,-28.768328,-13.356283,-12.557615,-12.906020,-8.208854,-11.461750,-15.483059,-4.927692,6.962609,5.782271,0.786199,14.561880,7.104289,25.527317,10.504888,33.252308,35.955776,27.902470,13.573217,14.707982,5.832424,28.002590,16.334066,-5.066870,3.847584,-13.994349,-15.538047,-4.018589,-19.824398,-12.665686,8192.000000,0.000000,4.000000,,,,0.000000,4.000000,4.000000,4.000000,4.000000,4.000000,4.000000,4.000000,4.000000,4.000000,4.000000,4.000000,4.000000,4.000000,4.000000,4.000000,4.000000,4.000000,4.000000,4.000000,4.000000,4.000000,4.000000,4.000000,4.000000,4.000000,4.000000,4.000000,4.000000,4.000000,4.000000,4.000000,4.000000,100.000000
1614304423.864027,124.000000,0.000000,-1.783973,-3.757126,-26.175457,-9.240362,-12.032238,-3.662345,-8.200644,-9.911827,-17.006037,-11.589431,-3.300763,-4.992743,-13.060740,0.701165,-10.338713,3.450507,-0.274848,20.911362,32.330078,21.720722,-2.850612,-2.742623,-3.404178,20.282278,9.138246,-0.446419,-1.797289,-11.416252,-9.881483,-3.501750,-20.317394,-7.011994,8064.000000,0.000000,4.000000,,,,0.000000,4.000000,4.000000,4.000000,4.000000,4.000000,4.000000,4.000000,4.000000,4.000000,4.000000,4.000000,4.000000,4.000000,4.000000,4.000000,4.000000,4.000000,4.000000,4.000000,4.000000,4.000000,4.000000,4.000000,4.000000,4.000000,4.000000,4.000000,4.000000,4.000000,4.000000,4.000000,4.000000,100.000000
1614304423.871876,125.000000,0.000000,-4.346292,-4.779010,-24.610819,-9.743942,-16.122770,-4.171503,-8.192444,-12.978838,-21.604416,-26.449636,-20.733360,-12.680058,-40.227165,-21.350819,-42.123245,-28.860636,-18.223291,-11.417241,4.092620,-6.506127,-35.155453,-29.406548,-19.811029,7.441484,-18.563200,-10.702382,-16.154467,-11.917656,-5.769037,-13.241838,-20.297077,-7.004982,8064.000000,0.000000,4.000000,,,,0.000000,4.000000,4.000000,4.000000,4.000000,4.000000,4.000000,4.000000,4.000000,4.000000,4.000000,4.000000,4.000000,4.000000,4.000000,4.000000,4.000000,4.000000,4.000000,4.000000,4.000000,4.000000,4.000000,4.000000,4.000000,4.000000,4.000000,4.000000,4.000000,4.000000,4.000000,4.000000,4.000000,100.000000
1614304423.879625,126.000000,0.000000,-8.957330,-7.338334,-26.124670,-12.811122,-25.337416,-10.321177,-8.697072,-21.170988,-24.146914,-34.628315,-34.558781,-13.693018,-61.725403,-52.611519,-70.799072,-61.139469,-33.589684,-43.200695,-28.219166,-38.807312,-67.427994,-51.428421,-30.047628,-21.796726,-49.826687,-28.640398,-30.497286,-14.469841,-7.301730,-19.382442,-20.276781,-23.921055,8064.000000,0.000000,4.000000,,,,0.000000,4.000000,4.000000,4.000000,4.000000,4.000000,4.000000,4.000000,4.000000,4.000000,4.000000,4.000000,4.000000,4.000000,4.000000,4.000000,4.000000,4.000000,4.000000,4.000000,4.000000,4.000000,4.000000,4.000000,4.000000,4.000000,4.000000,4.000000,4.000000,4.000000,4.000000,4.000000,4.000000,100.000000
1614304423.887474,127.000000,0.000000,-10.999655,-8.356636,-28.149828,-13.311131,-29.927464,-10.310857,-8.688375,-21.662638,-24.635588,-31.516764,-38.626785,-10.602402,-55.509830,-72.046089,-79.446220,-81.591148,-32.530453,-53.413906,-46.652485,-42.358250,-81.206718,-45.223148,-22.325274,-53.056980,-60.033272,-33.739964,-28.928328,-15.481012,-8.320069,-22.952803,-20.769323,-33.640724,7936.000000,0.000000,4.000000,,,,0.000000,4.000000,4.000000,4.000000,4.000000,4.000000,4.000000,4.000000,4.000000,4.000000,4.000000,4.000000,4.000000,4.000000,4.000000,4.000000,4.000000,4.000000,4.000000,4.000000,4.000000,4.000000,4.000000,4.000000,4.000000,4.000000,4.000000,4.000000,4.000000,4.000000,4.000000,4.000000,4.000000,100.000000
1614304423.895223,0.000000,0.000000,-9.963014,-7.835459,-31.711422,-13.810640,-28.871895,-10.813366,-6.115584,-16.512770,-24.610952,-37.639091,-35.511234,-5.976415,-42.120987,-71.974037,-72.187286,-84.586479,-22.754332,-52.334850,-45.580189,-32.059483,-82.151154,-20.049719,-8.456795,-55.055206,-54.845036,-32.167763,-15.566065,-14.952711,-12.927134,-35.237541,-20.235735,-34.119904,0.000000,203.000000,4.000000,,,,0.000000,4.000000,4.000000,4.000000,4.000000,4.000000,4.000000,4.000000,4.000000,4.000000,4.000000,4.000000,4.000000,4.000000,4.000000,4.000000,4.000000,4.000000,4.000000,4.000000,4.000000,4.000000,4.000000,4.000000,4.000000,4.000000,4.000000,4.000000,4.000000,4.000000,4.000000,4.000000,4.000000,100.000000
1614304423.903072,1.000000,0.000000,-9.953052,-7.314803,-39.372017,-15.848112,-30.381485,-15.930758,-4.058187,-15.470615,-24.586342,-48.370686,-24.706493,-4.944798,-35.925018,-66.773865,-55.192024,-78.860870,-18.629013,-53.308155,-45.534611,-32.027420,-78.992073,-10.286080,-5.371415,-40.641178,-47.097881,-34.186874,-10.422294,-14.937758,-19.580873,-37.253586,-19.702679,-44.855015,0.000000,174.000000,4.000000,,,,0.000000,4.000000,4.000000,4.000000,4.000000,4.000000,4.000000,4.000000,4.000000,4.000000,4.000000,4.000000,4.000000,4.000000,4.000000,4.000000,4.000000,4.000000,4.000000,4.000000,4.000000,4.000000,4.000000,4.000000,4.000000,4.000000,4.000000,4.000000,4.000000,4.000000,4.000000,4.000000,4.000000,100.000000
1614304423.910821,2.000000,0.000000,-10.968740,-8.333129,-45.999313,-17.883545,-32.915207,-18.478930,-5.079770,-11.352581,-23.023293,-38.578724,-6.220249,-2.375750,-15.889094,-49.784012,-25.906061,-49.551239,-9.892436,-39.408695,-35.232666,-19.174881,-60.964367,-5.147589,-1.776300,-33.933868,-30.640528,-24.409100,-12.463154,-15.948462,-16.484369,-24.395821,-21.221437,-44.810158,0.000000,199.000000,4.000000,,,,0.000000,4.000000,4.000000,4.000000,4.000000,4.000000,4.000000,4.000000,4.000000,4.000000,4.000000,4.000000,4.000000,4.000000,4.000000,4.000000,4.000000,4.000000,4.000000,4.000000,4.000000,4.000000,4.000000,4.000000,4.000000,4.000000,4.000000,4.000000,4.000000,4.000000,4.000000,4.000000,4.000000,100.000000
1614304423.918670,3.000000,0.000000,-8.906488,-7.811975,-43.389210,-17.352842,-33.395111,-18.973272,-5.074689,0.966464,-23.513090,-23.668350,13.273150,13.524061,15.921666,-16.913713,6.940357,-16.681175,8.578995,-6.548773,-3.915382,9.049422,-28.082890,15.883200,13.097271,-17.489679,-7.020143,-4.897511,-5.271204,-14.394052,-9.288398,-16.166296,-18.123293,-21.688425,0.000000,151.000000,4.000000,,,,0.000000,4.000000,4.000000,4.000000,4.000000,4.000000,4.000000,4.000000,4.000000,2.000000,4.000000,4.000000,4.000000,4.000000,4.000000,4.000000,4.000000,4.000000,4.000000,4.000000,4.000000,4.000000,4.000000,4.000000,4.000000,4.000000,4.000000,4.000000,4.000000,4.000000,4.000000,4.000000,4.000000,83.333336
1614304423.926420,4.000000,0.000000,-3.256556,-4.727241,-31.038130,-17.335489,-27.720690,-17.415836,-0.454230,7.632164,-22.976757,-19.029297,28.644493,26.331051,30.777540,14.385251,32.574444,16.156019,17.288364,21.150084,28.909046,25.450628,1.175963,32.277573,20.776482,12.784221,6.833031,2.799695,4.477657,-9.764273,-9.279109,-7.432182,-10.412862,-4.743660,0.000000,164.000000,4.000000,,,,0.000000,4.000000,4.000000,4.000000,4.000000,4.000000,4.000000,4.000000,4.000000,2.000000,4.000000,4.000000,4.000000,4.000000,4.000000,4.000000,4.000000,4.000000,4.000000,4.000000,4.000000,4.000000,4.000000,4.000000,4.000000,4.000000,4.000000,4.000000,4.000000,4.000000,4.000000,4.000000,4.000000,83.333336
1614304423.934069,5.000000,0.000000,1.362085,-4.209693,-21.263502,-17.318153,-13.846815,-13.295856,3.135967,9.162993,-14.235831,-5.164114,35.282516,22.714975,29.721121,24.627275,35.618790,22.806530,17.783897,31.898165,45.290394,30.040564,14.508121,31.732475,18.191603,28.156052,10.415942,3.822536,5.498821,-6.677585,-9.782651,11.036789,-8.351167,-2.687634,0.000000,183.000000,4.000000,,,,0.000000,4.000000,4.000000,4.000000,4.000000,4.000000,4.000000,4.000000,4.000000,2.000000,4.000000,4.000000,4.000000,4.000000,4.000000,4.000000,4.000000,4.000000,4.000000,4.000000,4.000000,4.000000,4.000000,4.000000,4.000000,4.000000,4.000000,4.000000,4.000000,4.000000,4.000000,4.000000,4.000000,83.333336
1614304423.941818,6.000000,0.000000,1.360723,-6.256765,-20.729418,-17.300835,-7.679122,-11.231278,3.132832,6.076908,-8.580570,4.584640,20.888258,14.999952,24.563194,19.987265,21.737019,20.732441,17.253292,38.020111,45.757923,29.497702,16.032074,28.623819,16.122129,29.153538,12.969628,9.972560,3.442040,-7.696549,-8.747227,15.641137,-13.983841,0.904797,0.000000,196.000000,4.000000,,,,0.000000,4.000000,4.000000,4.000000,4.000000,4.000000,4.000000,4.000000,4.000000,2.000000,4.000000,4.000000,4.000000,4.000000,4.000000,4.000000,4.000000,4.000000,4.000000,4.000000,4.000000,4.000000,4.000000,4.000000,4.000000,4.000000,4.000000,4.000000,4.000000,4.000000,4.000000,4.000000,4.000000,83.333336
1614304423.949467,7.000000,0.000000,-1.717561,-7.788970,-21.734329,-17.283535,-13.312469,-13.271330,2.616878,-6.749682,-22.418142,-18.496868,-9.389040,5.754184,0.948888,0.480097,-1.874462,2.250171,1.851424,27.212862,30.327551,8.442563,1.657067,13.210580,2.772673,25.021820,9.879736,8.424126,4.464239,-7.688852,-9.251301,7.933188,-16.533960,2.442354,0.000000,181.000000,4.000000,,,,0.000000,4.000000,4.000000,4.000000,4.000000,4.000000,4.000000,4.000000,4.000000,2.000000,4.000000,4.000000,4.000000,4.000000,4.000000,4.000000,4.000000,4.000000,4.000000,4.000000,4.000000,4.000000,4.000000,4.000000,4.000000,4.000000,4.000000,4.000000,4.000000,4.000000,4.000000,4.000000,4.000000,83.333336
1614304423.957216,8.000000,0.000000,-2.741484,-7.781181,-19.661312,-17.266251,-15.863259,-14.796520,2.614261,-19.050625,-37.780342,-44.119396,-30.918112,-11.687469,-31.359753,-29.776793,-32.641819,-30.059772,-21.740171,-5.122044,1.066454,-23.873571,-28.601000,-19.110323,-19.794201,4.996798,-1.412195,1.749035,2.921313,-7.168343,-6.165126,8.438075,-14.978964,1.927091,0.000000,198.000000,4.000000,,,,0.000000,4.000000,4.000000,4.000000,4.000000,4.000000,4.000000,4.000000,4.000000,2.000000,4.000000,4.000000,4.000000,4.000000,4.000000,4.000000,4.000000,4.000000,4.000000,4.000000,4.000000,4.000000,4.000000,4.000000,4.000000,4.000000,4.000000,4.000000,4.000000,4.000000,4.000000,4.000000,4.000000,83.333336
1614304423.964865,9.000000,0.000000,-2.738743,-7.773400,-25.795498,-17.248985,-18.411499,-14.268903,2.098827,-20.057215,-34.665638,-48.690662,-32.938477,-23.983473,-47.738651,-56.413685,-64.916870,-62.337402,-30.949200,-37.424614,-29.703844,-47.952263,-60.880093,-41.655315,-29.005177,-20.136404,-15.769757,2.772927,-5.286736,-7.673995,1.020526,-0.288312,-12.912704,2.437984,0.000000,201.000000,4.000000,,,,0.000000,4.000000,4.000000,4.000000,4.000000,4.000000,4.000000,4.000000,4.000000,2.000000,4.000000,4.000000,4.000000,4.000000,4.000000,4.000000,4.000000,4.000000,4.000000,4.000000,4.000000,4.000000,4.000000,4.000000,4.000000,4.000000,4.000000,4.000000,4.000000,4.000000,4.000000,4.000000,4.000000,83.333336
1614304423.972614,10.000000,0.000000,-2.736004,-7.765626,-39.615856,-17.231735,-33.777702,-14.254634,3.122369,-21.062799,-31.554049,-53.770176,-31.879898,-23.959490,-53.331936,-76.357269,-87.416054,-93.044296,-32.969532,-55.848728,-57.366447,-58.673542,-84.921776,-48.793148,-27.950531,-33.449600,-33.702705,-10.050359,-11.435296,-7.666321,1.019506,-22.852125,-11.361329,-10.897787,0.000000,195.000000,4.000000,,,,0.000000,4.000000,4.000000,4.000000,4.000000,4.000000,4.000000,4.000000,4.000000,2.000000,4.000000,4.000000,4.000000,4.000000,4.000000,4.000000,4.000000,4.000000,4.000000,4.000000,4.000000,4.000000,4.000000,4.000000,4.000000,4.000000,4.000000,4.000000,4.000000,4.000000,4.000000,4.000000,4.000000,83.333336
1614304423.980264,11.000000,0.000000,-2.733268,-8.783502,-49.319828,-17.214504,-49.641361,-13.727559,1.067964,-26.682762,-37.676342,-63.459995,-33.899300,-23.422709,-55.842709,-83.973221,-89.379921,-108.848686,-37.551949,-68.613396,-71.668053,-56.563587,-93.554802,-45.154610,-26.384119,-43.672562,-49.566441,-36.194153,-11.936681,-7.658655,-7.699462,-36.162605,-15.452532,-30.374069,0.000000,197.000000,4.000000,,,,0.000000,4.000000,4.000000,4.000000,4.000000,4.000000,4.000000,4.000000,4.000000,2.000000,4.000000,4.000000,4.000000,4.000000,4.000000,4.000000,4.000000,4.000000,4.000000,4.000000,4.000000,4.000000,4.000000,4.000000,4.000000,4.000000,4.000000,4.000000,4.000000,4.000000,4.000000,4.000000,4.000000,83.333336
1614304423.988112,12.000000,0.000000,-2.730535,-10.826000,-52.347431,-17.197289,-52.668644,-14.739472,-5.086950,-26.656078,-40.202766,-57.242691,-25.660273,-20.322363,-38.863789,-66.453346,-66.726440,-91.303940,-30.847731,-67.519135,-60.314335,-42.660870,-83.717659,-26.135098,-19.178247,-44.654530,-51.568153,-35.645142,-11.411923,-8.163816,-13.332788,-37.152084,-24.155027,-33.933437,0.000000,197.000000,4.000000,,,,0.000000,4.000000,4.000000,4.000000,4.000000,4.000000,4.000000,4.000000,4.000000,2.000000,4.000000,4.000000,4.000000,4.000000,4.000000,4.000000,4.000000,4.000000,4.000000,4.000000,4.000000,4.000000,4.000000,4.000000,4.000000,4.000000,4.000000,4.000000,4.000000,4.000000,4.000000,4.000000,4.000000,83.333336
1614304423.995862,13.000000,0.000000,-2.727804,-11.840816,-51.782265,-17.692913,-46.974949,-14.724732,-3.543401,-15.860192,-34.521538,-39.236729,-2.557688,-8.507170,-7.542873,-35.617664,-33.839199,-58.392128,-14.919446,-43.349056,-37.177097,-21.079746,-58.505733,-2.006397,-9.928300,-23.584234,-34.080688,-13.045392,-9.349230,-7.130012,-12.806635,-32.499550,-27.207796,-25.694376,0.000000,195.000000,4.000000,,,,0.000000,4.000000,4.000000,4.000000,4.000000,4.000000,4.000000,4.000000,4.000000,2.000000,4.000000,4.000000,4.000000,4.000000,4.000000,4.000000,4.000000,4.000000,4.000000,4.000000,4.000000,4.000000,4.000000,4.000000,4.000000,4.000000,4.000000,4.000000,4.000000,4.000000,4.000000,4.000000,4.000000,83.333336
1614304424.003711,14.000000,0.000000,-2.725076,-10.803333,-46.089458,-16.136759,-40.261307,-6.504880,6.716552,1.591565,-24.743427,-25.864159,17.444870,4.834671,12.977490,-14.043586,-7.138693,-28.077324,0.480089,-13.562116,-16.114281,2.531078,-34.344666,10.303301,-3.764525,-3.047830,-13.020967,-4.314398,-3.186034,-2.507497,-12.281008,-18.620895,-23.078024,-17.463554,0.000000,192.000000,4.000000,,,,0.000000,4.000000,4.000000,4.000000,4.000000,4.000000,4.000000,4.000000,4.000000,2.000000,4.000000,4.000000,4.000000,4.000000,4.000000,4.000000,4.000000,4.000000,4.000000,4.000000,4.000000,4.000000,4.000000,4.000000,4.000000,4.000000,4.000000,4.000000,4.000000,4.000000,4.000000,4.000000,4.000000,83.333336
1614304424.011460,15.000000,0.000000,-2.209531,-8.228428,-36.299778,-13.556519,-35.605659,0.168292,10.299580,9.282282,-13.949452,-23.274193,19.478706,9.445221,20.144001,-4.285953,6.201778,-3.433862,8.684737,6.964267,6.465937,17.913162,-23.541090,14.908382,2.393085,6.185987,-2.751536,-7.387007,0.919716,0.571934,-13.294368,-6.807403,-19.978024,-10.266603,0.000000,187.000000,4.000000,,,,0.000000,4.000000,4.000000,4.000000,4.000000,4.000000,4.000000,4.000000,4.000000,2.000000,4.000000,4.000000,4.000000,4.000000,4.000000,4.000000,4.000000,4.000000,4.000000,4.000000,4.000000,4.000000,4.000000,4.000000,4.000000,4.000000,4.000000,4.000000,4.000000,4.000000,4.000000,4.000000,4.000000,83.333336
1614304424.019309,16.000000,0.000000,-3.232962,-7.194558,-30.622452,-12.517322,-30.954670,-3.421620,3.109793,-3.034693,-11.884221,-24.276560,15.356664,6.871673,17.046934,0.333718,9.785320,11.441367,8.163232,15.675251,21.331266,19.433710,-25.056011,15.406295,3.416333,14.897750,-4.287246,-4.302697,-0.106845,-0.454279,-12.768253,-7.826236,-20.470865,-5.640952,0.000000,200.000000,4.000000,,,,0.000000,4.000000,4.000000,4.000000,4.000000,4.000000,4.000000,4.000000,4.000000,2.000000,4.000000,4.000000,4.000000,4.000000,4.000000,4.000000,4.000000,4.000000,4.000000,4.000000,4.000000,4.000000,4.000000,4.000000,4.000000,4.000000,4.000000,4.000000,4.000000,4.000000,4.000000,4.000000,4.000000,83.333336
1614304424.027058,17.000000,0.000000,-5.281012,-7.700184,-31.617472,-13.017625,-23.744228,-7.520762,2.081042,-13.800889,-14.949260,-18.098436,16.366947,0.198135,5.747835,0.333384,-0.480875,8.353003,6.103786,15.146756,24.899677,17.362995,-25.543776,10.775504,0.848814,20.523878,-4.795779,-0.708650,0.918903,-0.453825,-12.755485,-6.279948,-19.937574,-4.609670,0.000000,215.000000,4.000000,,,,0.000000,4.000000,4.000000,4.000000,4.000000,4.000000,4.000000,4.000000,4.000000,2.000000,4.000000,4.000000,4.000000,4.000000,4.000000,4.000000,4.000000,4.000000,4.000000,4.000000,4.000000,4.000000,4.000000,4.000000,4.000000,4.000000,4.000000,4.000000,4.000000,4.000000,4.000000,4.000000,4.000000,83.333336
1614304424.034907,18.000000,0.000000,-6.814192,-7.692484,-32.611496,-13.517427,-19.105099,-6.487601,4.643064,-13.787088,-14.934311,-16.541878,10.196734,-10.058474,-10.668169,-8.897718,-19.967573,-9.604069,-1.081805,13.080327,22.310677,13.243068,-23.979769,2.046779,-0.690496,21.016174,-1.714060,-1.733583,0.405163,0.572270,-12.742729,2.957101,-19.917637,-6.143522,0.000000,205.000000,4.000000,,,,0.000000,4.000000,4.000000,4.000000,4.000000,4.000000,4.000000,4.000000,4.000000,2.000000,4.000000,4.000000,4.000000,4.000000,4.000000,4.000000,4.000000,4.000000,4.000000,4.000000,4.000000,4.000000,4.000000,4.000000,4.000000,4.000000,4.000000,4.000000,4.000000,4.000000,4.000000,4.000000,4.000000,83.333336
1614304424.042656,19.000000,0.000000,-8.345840,-7.171971,-30.527601,-12.478269,-19.085995,-6.481113,-4.079528,-21.465609,-19.021940,-30.371489,-13.403206,-21.843287,-34.760067,-31.965744,-43.024529,-39.338055,-23.132006,2.810836,5.365288,-7.282996,-34.212200,-14.878345,-10.946216,15.354133,-8.379013,-3.270311,-6.261909,-2.505226,-12.729987,4.492605,-18.872078,-7.163020,0.000000,203.000000,4.000000,,,,0.000000,4.000000,4.000000,4.000000,4.000000,4.000000,4.000000,4.000000,4.000000,2.000000,4.000000,4.000000,4.000000,4.000000,4.000000,4.000000,4.000000,4.000000,4.000000,4.000000,4.000000,4.000000,4.000000,4.000000,4.000000,4.000000,4.000000,4.000000,4.000000,4.000000,4.000000,4.000000,4.000000,83.333336
1614304424.050505,20.000000,0.000000,-10.388776,-7.677619,-33.061176,-14.004252,-23.169472,-6.474632,-14.844680,-36.828758,-28.233688,-41.623169,-38.518009,-28.488110,-62.930435,-61.677368,-73.237915,-71.606407,-40.544769,-27.448385,-26.434950,-37.019302,-54.690807,-31.786543,-26.319885,-4.148401,-24.268070,-5.318323,-13.947954,-7.118105,-12.204436,-3.717016,-16.801924,-4.078933,0.000000,200.000000,4.000000,,,,0.000000,4.000000,4.000000,4.000000,4.000000,4.000000,4.000000,4.000000,4.000000,2.000000,4.000000,4.000000,4.000000,4.000000,4.000000,4.000000,4.000000,4.000000,4.000000,4.000000,4.000000,4.000000,4.000000,4.000000,4.000000,4.000000,4.000000,4.000000,4.000000,4.000000,4.000000,4.000000,4.000000,83.333336
1614304424.058254,21.000000,0.000000,-10.378386,-7.669942,-45.335808,-21.169735,-31.351431,-8.006619,-16.881117,-43.971416,-33.846481,-47.222572,-51.300003,-30.510904,-76.200836,-79.564407,-96.241600,-93.073265,-39.991405,-53.061962,-47.434155,-50.315617,-67.456627,-34.831680,-26.293566,-24.144253,-32.448929,-6.338645,-15.472467,-8.136628,-13.217873,-14.995350,-15.759480,-9.715880,0.000000,202.000000,4.000000,,,,0.000000,4.000000,4.000000,4.000000,4.000000,4.000000,4.000000,4.000000,4.000000,2.000000,4.000000,4.000000,4.000000,4.000000,4.000000,4.000000,4.000000,4.000000,4.000000,4.000000,4.000000,4.000000,4.000000,4.000000,4.000000,4.000000,4.000000,4.000000,4.000000,4.000000,4.000000,4.000000,4.000000,83.333336
1614304424.066103,22.000000,0.000000,-10.368009,-7.662272,-57.085342,-25.763950,-35.935463,-12.613997,-16.864237,-42.388985,-35.863914,-55.893299,-51.248703,-28.429111,-67.406685,-76.920738,-89.991516,-88.877625,-33.797569,-49.419155,-47.899540,-43.085815,-62.773788,-25.053259,-13.959579,-29.248314,-29.339558,-6.332306,-14.431355,-7.615671,-12.691834,-19.595739,-17.795004,-28.680523,0.000000,194.000000,4.000000,,,,0.000000,4.000000,4.000000,4.000000,4.000000,4.000000,4.000000,4.000000,4.000000,2.000000,4.000000,4.000000,4.000000,4.000000,4.000000,4.000000,4.000000,4.000000,4.000000,4.000000,4.000000,4.000000,4.000000,4.000000,4.000000,4.000000,4.000000,4.000000,4.000000,4.000000,4.000000,4.000000,4.000000,83.333336
1614304424.073852,23.000000,0.000000,-8.819179,-7.654610,-51.387234,-22.661263,-34.873886,-14.139845,-12.744807,-27.987621,-34.802410,-49.683559,-33.761555,-14.041708,-42.723896,-55.818180,-62.209213,-66.224648,-20.943256,-37.062046,-38.108051,-25.094009,-48.864861,-12.207692,-4.714850,-27.167784,-27.258936,-6.325974,-12.878462,-7.608055,-10.115040,-18.550503,-19.828491,-27.626202,0.000000,189.000000,4.000000,,,,0.000000,4.000000,4.000000,4.000000,4.000000,4.000000,4.000000,4.000000,4.000000,2.000000,4.000000,4.000000,4.000000,4.000000,4.000000,4.000000,4.000000,4.000000,4.000000,4.000000,4.000000,4.000000,4.000000,4.000000,4.000000,4.000000,4.000000,4.000000,4.000000,4.000000,4.000000,4.000000,4.000000,83.333336
1614304424.081701,24.000000,0.000000,-4.707796,-7.646955,-40.566612,-20.587320,-33.813374,-11.048781,-1.450011,-4.369890,-23.998377,-27.069771,-4.497025,9.049257,-9.860659,-22.941849,-29.326490,-36.414833,-0.922314,-29.332676,-19.095585,-8.145839,-30.354458,1.650670,-1.120392,-19.448307,-27.231678,-6.319648,-10.814301,-7.600447,-10.104925,-21.096054,-19.808662,-7.085755,0.000000,190.000000,4.000000,,,,0.000000,4.000000,4.000000,4.000000,4.000000,4.000000,4.000000,4.000000,4.000000,2.000000,4.000000,4.000000,4.000000,4.000000,4.000000,4.000000,4.000000,4.000000,4.000000,4.000000,4.000000,4.000000,4.000000,4.000000,4.000000,4.000000,4.000000,4.000000,4.000000,4.000000,4.000000,4.000000,4.000000,83.333336
1614304424.089450,25.000000,0.000000,-2.138985,-7.639308,-43.090149,-22.105194,-29.164175,-10.524912,4.192464,6.403711,-15.769251,-16.786291,13.456190,20.322260,12.713305,4.773401,0.446425,-5.096365,6.770916,-9.303343,2.974792,5.195640,-9.811283,9.854147,-0.093630,-6.608346,-23.614702,-6.313329,-10.803487,-7.592847,-12.146102,-24.664701,-19.788853,-6.565849,0.000000,181.000000,4.000000,,,,0.000000,4.000000,4.000000,4.000000,4.000000,4.000000,4.000000,4.000000,4.000000,2.000000,4.000000,4.000000,4.000000,4.000000,4.000000,4.000000,4.000000,4.000000,4.000000,4.000000,4.000000,4.000000,4.000000,4.000000,4.000000,4.000000,4.000000,4.000000,4.000000,4.000000,4.000000,4.000000,4.000000,83.333336
1614304424.097299,26.000000,0.000000,-2.649667,-7.631669,-40.995777,-15.416422,-19.904242,-9.488747,3.162631,3.833205,-15.240661,-11.641300,19.083759,19.276297,18.854437,17.076321,17.881876,22.601038,7.276966,21.475191,15.792331,19.549419,4.557502,12.408396,0.419284,0.577749,-15.898780,-6.307015,-11.305504,-7.585254,-11.108315,-14.896447,-18.743423,-13.738770,0.000000,203.000000,4.000000,,,,0.000000,4.000000,4.000000,4.000000,4.000000,4.000000,4.000000,4.000000,4.000000,2.000000,4.000000,4.000000,4.000000,4.000000,4.000000,4.000000,4.000000,4.000000,4.000000,4.000000,4.000000,4.000000,4.000000,4.000000,4.000000,4.000000,4.000000,4.000000,4.000000,4.000000,4.000000,4.000000,4.000000,83.333336
1614304424.105048,27.000000,0.000000,-2.134197,-7.624037,-21.467602,-4.631775,-15.268952,-4.863873,5.723570,5.880654,-11.635676,5.293418,23.167240,20.795481,23.963789,26.290012,21.966558,39.501514,10.859432,40.428074,25.520128,33.376022,10.706791,19.575474,1.957326,5.192556,-2.549548,-4.762247,-8.730096,-7.064848,-8.533104,-0.522577,-16.160578,1.146764,0.000000,209.000000,4.000000,,,,0.000000,4.000000,4.000000,4.000000,4.000000,4.000000,4.000000,4.000000,4.000000,2.000000,4.000000,4.000000,4.000000,4.000000,4.000000,4.000000,4.000000,4.000000,4.000000,4.000000,4.000000,4.000000,4.000000,4.000000,4.000000,4.000000,4.000000,4.000000,4.000000,4.000000,4.000000,4.000000,4.000000,83.333336
1614304424.112897,28.000000,0.000000,-2.644883,-7.616413,-8.112802,-1.550220,-15.766504,-2.807727,3.153744,5.361952,-8.034298,10.929151,24.169714,18.210583,19.324440,29.853466,20.406130,32.795345,6.233188,37.310722,35.238197,32.829826,10.183264,17.504618,-1.634375,13.392491,1.555566,-2.193382,-7.695724,-7.570604,-8.524571,-2.573336,-15.631597,14.991771,0.000000,197.000000,4.000000,,,,0.000000,4.000000,4.000000,4.000000,4.000000,4.000000,4.000000,4.000000,4.000000,2.000000,4.000000,4.000000,4.000000,4.000000,4.000000,4.000000,4.000000,4.000000,4.000000,4.000000,4.000000,4.000000,4.000000,4.000000,4.000000,4.000000,4.000000,4.000000,4.000000,4.000000,4.000000,4.000000,4.000000,83.333336
1614304424.120646,29.000000,0.000000,-5.206341,-7.608797,-9.130330,-2.061490,-16.776379,-2.804919,-6.592999,-5.412640,-7.513443,3.225913,18.504519,6.910321,0.843577,18.541561,7.565211,9.685628,-3.003814,19.837517,30.587574,17.925201,-2.647432,-2.000067,-12.914792,12.866279,-8.702400,-3.216830,-12.303413,-9.614315,-9.028867,-11.288712,-16.128786,12.925497,0.000000,200.000000,4.000000,,,,0.000000,4.000000,4.000000,4.000000,4.000000,4.000000,4.000000,4.000000,4.000000,2.000000,4.000000,4.000000,4.000000,4.000000,4.000000,4.000000,4.000000,4.000000,4.000000,4.000000,4.000000,4.000000,4.000000,4.000000,4.000000,4.000000,4.000000,4.000000,4.000000,4.000000,4.000000,4.000000,4.000000,83.333336
1614304424.128495,30.000000,0.000000,-6.226775,-7.601188,-6.044276,1.530315,-15.733961,-2.802114,-9.663329,-11.048253,-6.993109,1.684226,9.768064,0.749565,-10.952139,2.625584,-16.544918,-7.759955,-7.616195,6.997166,9.531346,-0.554262,-31.362734,-19.433964,-20.081364,0.545720,-16.898825,-5.777715,-15.368033,-11.143163,-9.019838,-8.713321,-16.112656,12.912571,0.000000,217.000000,4.000000,,,,0.000000,4.000000,4.000000,4.000000,4.000000,4.000000,4.000000,4.000000,4.000000,2.000000,4.000000,4.000000,4.000000,4.000000,4.000000,4.000000,4.000000,4.000000,4.000000,4.000000,4.000000,4.000000,4.000000,4.000000,4.000000,4.000000,4.000000,4.000000,4.000000,4.000000,4.000000,4.000000,4.000000,83.333336
1614304424.136244,31.000000,0.000000,-6.220549,-7.080766,-7.063873,0.503143,-16.231049,-4.850595,-8.115204,-12.575666,-15.191244,-8.573869,-9.216063,-6.943493,-20.684776,-17.377041,-42.169399,-31.341940,-22.993195,-7.368806,-18.170492,-26.194733,-63.639065,-34.286327,-19.035643,-12.788159,-23.548594,-7.310399,-13.814203,-11.132019,-9.010818,-9.217427,-15.583723,8.284274,0.000000,189.000000,4.000000,,,,0.000000,4.000000,4.000000,4.000000,4.000000,4.000000,4.000000,4.000000,4.000000,2.000000,4.000000,4.000000,4.000000,4.000000,4.000000,4.000000,4.000000,4.000000,4.000000,4.000000,4.000000,4.000000,4.000000,4.000000,4.000000,4.000000,4.000000,4.000000,4.000000,4.000000,4.000000,4.000000,4.000000,83.333336
1614304424.144093,32.000000,0.000000,-8.265610,-7.586506,-22.441425,-8.215308,-19.291740,-9.973948,-8.619909,-28.973347,-30.560669,-32.155037,-39.463257,-24.372446,-50.920502,-49.667358,-74.434921,-63.618290,-50.149689,-39.669128,-50.460014,-58.476231,-88.190811,-52.713577,-22.606350,-27.134346,-44.550686,-16.021038,-16.877312,-11.120887,-9.001807,-21.003082,-15.568139,-10.698369,8064.000000,0.000000,4.000000,,,,0.000000,4.000000,4.000000,4.000000,4.000000,4.000000,4.000000,4.000000,4.000000,2.000000,4.000000,4.000000,4.000000,4.000000,4.000000,4.000000,4.000000,4.000000,4.000000,4.000000,4.000000,4.000000,4.000000,4.000000,4.000000,4.000000,4.000000,4.000000,4.000000,4.000000,4.000000,4.000000,4.000000,83.333336
1614304424.151842,33.000000,0.000000,-9.795806,-7.578919,-33.701035,-13.848119,-25.939116,-10.989616,-8.611290,-45.867451,-36.171131,-45.456215,-58.910973,-37.168587,-74.972145,-78.335640,-105.642540,-95.862366,-62.920052,-71.937149,-79.640327,-76.879295,-94.769287,-55.737785,-28.224770,-47.107212,-61.429211,-28.825529,-22.501461,-11.109766,-8.992805,-27.648745,-17.603853,-25.046644,8064.000000,0.000000,4.000000,,,,0.000000,4.000000,4.000000,4.000000,4.000000,4.000000,4.000000,4.000000,4.000000,2.000000,4.000000,4.000000,4.000000,4.000000,4.000000,4.000000,4.000000,4.000000,4.000000,4.000000,4.000000,4.000000,4.000000,4.000000,4.000000,4.000000,4.000000,4.000000,4.000000,4.000000,4.000000,4.000000,4.000000,83.333336
1614304424.159491,34.000000,0.000000,-10.298831,-7.058520,-32.641693,-13.321450,-27.451637,-10.465806,-8.602678,-37.616455,-34.083679,-45.923580,-45.518730,-30.977571,-65.153580,-75.693199,-98.870232,-85.510094,-50.549438,-64.172905,-78.535042,-62.443439,-79.289902,-37.220512,-22.555519,-55.265232,-54.701115,-26.232601,-17.350754,-9.047375,-8.983813,-26.595455,-19.637531,-25.534418,8064.000000,0.000000,4.000000,,,,0.000000,4.000000,4.000000,4.000000,4.000000,4.000000,4.000000,4.000000,4.000000,2.000000,4.000000,4.000000,4.000000,4.000000,4.000000,4.000000,4.000000,4.000000,4.000000,4.000000,4.000000,4.000000,4.000000,4.000000,4.000000,4.000000,4.000000,4.000000,4.000000,4.000000,4.000000,4.000000,4.000000,83.333336
1614304424.167340,35.000000,0.000000,-9.775711,-8.589923,-31.583410,-13.308128,-20.757519,-10.455340,-8.081255,-15.527556,-35.588058,-34.595608,-14.191158,-12.485056,-35.857662,-44.848274,-65.950844,-52.604069,-24.857864,-31.288221,-45.635994,-29.560484,-47.928558,-15.132009,-11.763732,-36.235607,-37.723339,-11.847394,-8.102634,-6.987045,-8.974829,-26.056040,-19.617893,-21.919142,8064.000000,0.000000,4.000000,,,,0.000000,4.000000,4.000000,4.000000,4.000000,4.000000,4.000000,4.000000,4.000000,2.000000,4.000000,4.000000,4.000000,4.000000,4.000000,4.000000,4.000000,4.000000,4.000000,4.000000,4.000000,4.000000,4.000000,4.000000,4.000000,4.000000,4.000000,4.000000,4.000000,4.000000,4.000000,4.000000,4.000000,83.333336
1614304424.175089,36.000000,0.000000,-7.714653,-10.632615,-33.090286,-13.807641,-14.070095,-10.957705,-6.534712,-3.204337,-29.398623,-9.432805,9.925597,6.501788,-3.001290,-11.982915,-33.064381,-19.730951,-3.294544,1.563579,-12.769846,0.725488,-15.060118,6.934406,-5.598123,-7.994244,-21.275358,-5.168880,-6.043250,-7.492878,-8.965855,-21.414598,-19.598276,-21.897223,8064.000000,0.000000,4.000000,,,,0.000000,4.000000,4.000000,4.000000,4.000000,4.000000,4.000000,4.000000,4.000000,2.000000,4.000000,4.000000,4.000000,4.000000,4.000000,4.000000,4.000000,4.000000,4.000000,4.000000,4.000000,4.000000,4.000000,4.000000,4.000000,4.000000,4.000000,4.000000,4.000000,4.000000,4.000000,4.000000,4.000000,83.333336
1614304424.182938,37.000000,0.000000,-6.168478,-11.134803,-32.544376,-13.793834,-12.517563,-10.433927,-4.476896,0.388611,-16.548712,7.499704,25.300287,15.726055,22.642736,20.849581,-5.339010,11.570831,4.401058,29.767143,12.883949,19.186300,8.031866,23.337729,-3.541242,4.834263,-7.407929,-6.189353,-7.062847,-7.485385,-8.956888,-15.752159,-19.578678,-22.900965,8064.000000,0.000000,4.000000,,,,0.000000,4.000000,4.000000,4.000000,4.000000,4.000000,4.000000,4.000000,4.000000,2.000000,4.000000,4.000000,4.000000,4.000000,4.000000,4.000000,4.000000,4.000000,4.000000,4.000000,4.000000,4.000000,4.000000,4.000000,4.000000,4.000000,4.000000,4.000000,4.000000,4.000000,4.000000,4.000000,4.000000,83.333336
1614304424.190687,38.000000,0.000000,-6.162309,-11.123669,-31.999012,-13.267220,-13.017866,-10.423493,-4.472419,1.926684,-16.019342,0.825538,31.941652,15.710329,24.671375,29.546680,6.974021,19.764389,2.858195,48.198914,32.358246,29.423525,15.203321,24.852852,-3.024881,9.444814,-2.272316,-6.183163,-5.004502,-7.477901,-8.947931,-18.300508,-20.071920,-19.801142,8064.000000,0.000000,4.000000,,,,0.000000,4.000000,4.000000,4.000000,4.000000,4.000000,4.000000,4.000000,4.000000,2.000000,4.000000,4.000000,4.000000,4.000000,4.000000,4.000000,4.000000,4.000000,4.000000,4.000000,4.000000,4.000000,4.000000,4.000000,4.000000,4.000000,4.000000,4.000000,4.000000,4.000000,4.000000,4.000000,4.000000,83.333336
1614304424.198536,39.000000,0.000000,-6.156147,-11.112545,-31.454193,-12.741132,-11.466387,-10.413070,-4.467947,1.411937,-21.644348,-8.406056,24.217403,16.207439,19.005680,25.927389,7.479868,18.718983,3.880978,53.278923,43.607937,32.471024,18.777861,24.315178,-2.509035,15.589215,-0.731582,-3.612877,-2.435395,-7.470422,-8.938984,-21.871952,-19.026207,-14.140315,8064.000000,0.000000,4.000000,,,,0.000000,4.000000,4.000000,4.000000,4.000000,4.000000,4.000000,4.000000,4.000000,2.000000,4.000000,4.000000,4.000000,4.000000,4.000000,4.000000,4.000000,4.000000,4.000000,4.000000,4.000000,4.000000,4.000000,4.000000,4.000000,4.000000,4.000000,4.000000,4.000000,4.000000,4.000000,4.000000,4.000000,83.333336
1614304424.206286,40.000000,0.000000,-6.149991,-11.101432,-31.422739,-13.241211,-11.454920,-9.889836,-4.463479,1.410525,-22.648346,-7.884830,14.449596,13.114309,16.422571,22.311720,-0.732740,12.546418,5.415559,46.046154,31.256638,21.156502,16.707802,24.290863,-2.506526,18.137728,-1.756492,-4.634905,-1.407319,-7.462952,-8.930044,-21.850080,-19.007181,-13.613354,8064.000000,0.000000,4.000000,,,,0.000000,4.000000,4.000000,4.000000,4.000000,4.000000,4.000000,4.000000,4.000000,2.000000,4.000000,4.000000,4.000000,4.000000,4.000000,4.000000,4.000000,4.000000,4.000000,4.000000,4.000000,4.000000,4.000000,4.000000,4.000000,4.000000,4.000000,4.000000,4.000000,4.000000,4.000000,4.000000,4.000000,83.333336
1614304424.214135,41.000000,0.000000,-6.143840,-11.090330,-31.904137,-13.227969,-12.469107,-10.392767,-4.459015,2.434755,-23.651339,-7.876945,6.742839,1.819143,-3.593852,4.340689,-22.270470,-7.978949,-3.307806,24.461647,0.456151,-8.608244,-9.462752,5.292213,-7.119404,18.119591,-16.113710,-7.707193,-7.046937,-7.455489,-8.921115,-23.366692,-20.013815,-13.086920,8064.000000,0.000000,4.000000,,,,0.000000,4.000000,4.000000,4.000000,4.000000,4.000000,4.000000,4.000000,4.000000,2.000000,4.000000,4.000000,4.000000,4.000000,4.000000,4.000000,4.000000,4.000000,4.000000,4.000000,4.000000,4.000000,4.000000,4.000000,4.000000,4.000000,4.000000,4.000000,4.000000,4.000000,4.000000,4.000000,4.000000,83.333336
1614304424.221884,42.000000,0.000000,-6.137697,-11.079240,-30.846592,-12.701921,-10.918176,-10.382374,-3.941735,-5.259987,-26.704611,-18.638300,-12.238262,-9.977548,-34.359489,-26.945704,-54.555889,-40.278664,-23.817318,-6.844865,-31.851997,-40.907330,-41.760983,-24.456669,-15.830234,7.845061,-34.559135,-8.212307,-15.757839,-7.448033,-8.912193,-25.394608,-16.916878,-5.894346,8064.000000,0.000000,4.000000,,,,0.000000,4.000000,4.000000,4.000000,4.000000,4.000000,4.000000,4.000000,4.000000,2.000000,4.000000,4.000000,4.000000,4.000000,4.000000,4.000000,4.000000,4.000000,4.000000,4.000000,4.000000,4.000000,4.000000,4.000000,4.000000,4.000000,4.000000,4.000000,4.000000,4.000000,4.000000,4.000000,4.000000,83.333336
1614304424.229733,43.000000,0.000000,-6.131559,-11.068161,-31.841385,-14.227680,-14.497001,-9.859171,-4.963435,-20.639343,-26.165085,-42.209404,-35.302948,-15.095776,-51.761028,-58.713627,-84.757744,-72.546074,-40.203758,-39.145714,-62.589378,-62.917702,-74.026917,-47.509136,-22.481070,-19.855093,-45.806625,-11.281017,-18.819004,-7.440586,-8.903281,-26.907675,-11.771755,-3.837170,8064.000000,0.000000,4.000000,,,,0.000000,4.000000,4.000000,4.000000,4.000000,4.000000,4.000000,4.000000,4.000000,2.000000,4.000000,4.000000,4.000000,4.000000,4.000000,4.000000,4.000000,4.000000,4.000000,4.000000,4.000000,4.000000,4.000000,4.000000,4.000000,4.000000,4.000000,4.000000,4.000000,4.000000,4.000000,4.000000,4.000000,83.333336
1614304424.237482,44.000000,0.000000,-6.125427,-11.057093,-37.450569,-16.264734,-28.841478,-11.387774,-7.522574,-28.823832,-28.703022,-63.192837,-45.011234,-15.593500,-62.478497,-89.424149,-111.852478,-102.217117,-46.317398,-69.362976,-92.270378,-72.598373,-103.183655,-65.410347,-26.048332,-43.424980,-61.145435,-25.115891,-17.774544,-7.433145,-8.894378,-30.470510,-13.298446,-13.064101,7936.000000,0.000000,4.000000,,,,0.000000,4.000000,4.000000,4.000000,4.000000,4.000000,4.000000,4.000000,4.000000,2.000000,4.000000,4.000000,4.000000,4.000000,4.000000,4.000000,4.000000,4.000000,4.000000,4.000000,4.000000,4.000000,4.000000,4.000000,4.000000,4.000000,4.000000,4.000000,4.000000,4.000000,4.000000,4.000000,4.000000,83.333336
1614304424.245331,45.000000,0.000000,-6.119302,-11.046036,-42.541325,-17.274111,-41.120331,-15.478950,-8.540692,-28.795008,-35.853806,-65.180923,-47.017506,-15.577907,-68.057045,-106.770622,-120.971390,-113.909775,-47.809544,-83.652588,-105.511436,-75.089882,-121.542007,-71.498779,-26.535105,-54.663609,-75.443268,-36.885647,-17.756769,-7.425712,-8.885484,-33.516964,-20.977455,-18.179243,7936.000000,0.000000,4.000000,,,,0.000000,4.000000,4.000000,4.000000,4.000000,4.000000,4.000000,4.000000,4.000000,2.000000,4.000000,4.000000,4.000000,4.000000,4.000000,4.000000,4.000000,4.000000,4.000000,4.000000,4.000000,4.000000,4.000000,4.000000,4.000000,4.000000,4.000000,4.000000,4.000000,4.000000,4.000000,4.000000,4.000000,83.333336
1614304424.253080,46.000000,0.000000,-6.113183,-11.034989,-43.524426,-16.744017,-43.130489,-18.540394,-8.019331,-29.791853,-37.869236,-56.910618,-43.380745,-14.536688,-53.630013,-91.792053,-100.337601,-105.077919,-40.069427,-73.312523,-92.072594,-63.732738,-109.625595,-54.504204,-22.918825,-61.275612,-73.316536,-35.823120,-18.764654,-7.418286,-8.876598,-34.509087,-24.033400,-16.622602,8064.000000,0.000000,4.000000,,,,0.000000,4.000000,4.000000,4.000000,4.000000,4.000000,4.000000,4.000000,4.000000,2.000000,4.000000,4.000000,4.000000,4.000000,4.000000,4.000000,4.000000,4.000000,4.000000,4.000000,4.000000,4.000000,4.000000,4.000000,4.000000,4.000000,4.000000,4.000000,4.000000,4.000000,4.000000,4.000000,4.000000,83.333336
1614304424.260929,47.000000,0.000000,-6.107069,-11.023954,-44.506542,-16.727272,-43.087360,-18.009033,-8.524132,-30.787703,-34.754444,-54.289604,-30.516850,-9.393946,-29.986639,-62.469494,-70.493675,-79.331810,-26.183203,-53.239212,-63.775394,-41.617722,-80.798019,-35.475342,-18.793343,-54.547668,-66.063736,-34.248837,-17.720247,-7.410868,-8.867722,-33.448936,-22.983727,-18.144442,8064.000000,0.000000,4.000000,,,,0.000000,4.000000,4.000000,4.000000,4.000000,4.000000,4.000000,4.000000,4.000000,2.000000,4.000000,4.000000,4.000000,4.000000,4.000000,4.000000,4.000000,4.000000,4.000000,4.000000,4.000000,4.000000,4.000000,4.000000,4.000000,4.000000,4.000000,4.000000,4.000000,4.000000,4.000000,4.000000,4.000000,83.333336
1614304424.268678,48.000000,0.000000,-6.100962,-11.012931,-36.256905,-16.710545,-38.428890,-14.914101,-8.515608,-28.192812,-33.694046,-51.671211,-17.153000,-4.256347,-15.597677,-42.407024,-56.064205,-50.021709,-18.977533,-32.673153,-36.532131,-29.781235,-55.589020,-25.183455,-17.748909,-37.057224,-55.228439,-32.163303,-17.702528,-7.403457,-8.858853,-27.261641,-23.473562,-17.613476,8064.000000,0.000000,4.000000,,,,0.000000,4.000000,4.000000,4.000000,4.000000,4.000000,4.000000,4.000000,4.000000,2.000000,4.000000,4.000000,4.000000,4.000000,4.000000,4.000000,4.000000,4.000000,4.000000,4.000000,4.000000,4.000000,4.000000,4.000000,4.000000,4.000000,4.000000,4.000000,4.000000,4.000000,4.000000,4.000000,4.000000,83.333336
1614304424.276527,49.000000,0.000000,-6.094862,-11.001918,-23.912956,-16.693834,-29.159691,-13.360725,-7.994272,-24.062056,-32.121891,-40.337490,-12.007642,-3.226449,-8.915413,-26.467180,-48.315834,-32.535793,-16.907274,-11.102019,-13.418676,-23.084785,-27.328302,-10.799297,-18.243980,-25.738113,-30.045008,-16.746525,-18.197645,-7.396053,-8.337174,-22.618996,-21.911627,-11.442017,8064.000000,0.000000,4.000000,,,,0.000000,4.000000,4.000000,4.000000,4.000000,4.000000,4.000000,4.000000,4.000000,2.000000,4.000000,4.000000,4.000000,4.000000,4.000000,4.000000,4.000000,4.000000,4.000000,4.000000,4.000000,4.000000,4.000000,4.000000,4.000000,4.000000,4.000000,4.000000,4.000000,4.000000,4.000000,4.000000,4.000000,83.333336
1614304424.284276,50.000000,0.000000,-6.088767,-11.503736,-26.965967,-16.677141,-25.027967,-14.373006,-8.499098,-20.961071,-27.987206,-28.502279,-11.482814,-3.223223,-10.444960,-15.158662,-42.626492,-29.426332,-15.351905,-0.834507,1.466537,-9.215548,-2.685589,-1.044909,-17.712915,-11.866222,-10.527782,0.706118,-16.128166,-7.388658,-8.841658,-21.057915,-19.325613,-9.379292,8064.000000,0.000000,4.000000,,,,0.000000,4.000000,4.000000,4.000000,4.000000,4.000000,4.000000,4.000000,4.000000,2.000000,4.000000,4.000000,4.000000,4.000000,4.000000,4.000000,4.000000,4.000000,4.000000,4.000000,4.000000,4.000000,4.000000,4.000000,4.000000,4.000000,4.000000,4.000000,4.000000,4.000000,4.000000,4.000000,4.000000,83.333336
1614304424.292125,51.000000,0.000000,-6.082678,-8.415310,-28.990282,-16.147644,-27.054220,-13.845812,-7.977778,-16.324724,-24.882296,-25.396854,-10.958510,-3.220000,-11.460155,-14.630682,-41.558224,-28.884087,-15.336553,1.730430,4.541994,-0.488383,1.419661,-1.556684,-17.695204,6.094362,-8.465973,3.269515,-12.009474,-7.381269,-8.832816,-13.344549,-16.229364,-9.369913,8064.000000,0.000000,4.000000,,,,0.000000,4.000000,4.000000,4.000000,4.000000,4.000000,4.000000,4.000000,4.000000,2.000000,4.000000,4.000000,4.000000,4.000000,4.000000,4.000000,4.000000,4.000000,4.000000,4.000000,4.000000,4.000000,4.000000,4.000000,4.000000,4.000000,4.000000,4.000000,4.000000,4.000000,4.000000,4.000000,4.000000,83.333336
1614304424.299974,52.000000,0.000000,-5.563775,-4.304330,-15.627959,-13.567393,-26.001526,-8.190941,-1.815955,-10.154553,-22.806131,-26.397099,-10.434731,-3.729600,-8.884593,-13.590410,-39.978203,-26.291100,-14.808395,10.959469,5.050272,-1.000715,-5.248425,-1.042307,-18.190329,10.703652,-7.944686,1.727784,-8.920542,-6.861067,-5.747060,-6.151717,-10.572109,1.408688,8064.000000,0.000000,4.000000,,,,0.000000,4.000000,4.000000,4.000000,4.000000,4.000000,4.000000,4.000000,4.000000,2.000000,4.000000,4.000000,4.000000,4.000000,4.000000,4.000000,4.000000,4.000000,4.000000,4.000000,4.000000,4.000000,4.000000,4.000000,4.000000,4.000000,4.000000,4.000000,4.000000,4.000000,4.000000,4.000000,4.000000,83.333336
1614304424.307723,53.000000,0.000000,-5.558211,-2.761564,-16.125153,-12.015365,-24.437063,-5.618647,2.288425,-9.118758,-21.757685,-26.370701,-12.988400,-2.187409,-15.542375,-18.192205,-44.553612,-35.495579,-14.793588,8.897227,1.968299,-2.025356,-18.576511,-8.733572,-18.172138,7.103205,-13.577767,3.777338,-9.937262,-7.367026,-4.715672,-7.684027,-7.997435,10.638048,8064.000000,0.000000,4.000000,,,,0.000000,4.000000,4.000000,4.000000,4.000000,4.000000,4.000000,4.000000,4.000000,2.000000,4.000000,4.000000,4.000000,4.000000,4.000000,4.000000,4.000000,4.000000,4.000000,4.000000,4.000000,4.000000,4.000000,4.000000,4.000000,4.000000,4.000000,4.000000,4.000000,4.000000,4.000000,4.000000,4.000000,83.333336
1614304424.315472,54.000000,0.000000,-6.578294,-3.784444,-36.621849,-13.028990,-29.540831,-8.177131,0.234855,-14.237844,-22.761568,-25.831509,-17.590796,-4.749324,-30.398626,-39.199654,-65.534698,-62.639568,-23.496742,-17.265516,-22.136234,-16.382305,-47.788704,-31.288940,-18.153965,-0.596206,-29.461626,-2.893106,-13.517068,-7.872480,-8.813520,-11.266087,-12.604822,1.396641,8064.000000,0.000000,4.000000,,,,0.000000,4.000000,4.000000,4.000000,4.000000,4.000000,4.000000,4.000000,4.000000,2.000000,4.000000,4.000000,4.000000,4.000000,4.000000,4.000000,4.000000,4.000000,4.000000,4.000000,4.000000,4.000000,4.000000,4.000000,4.000000,4.000000,4.000000,4.000000,4.000000,4.000000,4.000000,4.000000,4.000000,83.333336
1614304424.323321,55.000000,0.000000,-6.058895,-3.267839,-45.815994,-12.503140,-34.639496,-9.707416,-0.791021,-17.813351,-21.200344,-29.908241,-19.624487,-12.436882,-34.983612,-56.596352,-80.853775,-84.628212,-31.165554,-39.812351,-53.396149,-40.981308,-73.381943,-43.052525,-18.135811,-18.544327,-38.150112,-15.197905,-12.990730,-5.813325,-12.394450,-10.742001,-16.694782,-11.938088,8064.000000,0.000000,4.000000,,,,0.000000,4.000000,4.000000,4.000000,4.000000,4.000000,4.000000,4.000000,4.000000,2.000000,4.000000,4.000000,4.000000,4.000000,4.000000,4.000000,4.000000,4.000000,4.000000,4.000000,4.000000,4.000000,4.000000,4.000000,4.000000,4.000000,4.000000,4.000000,4.000000,4.000000,4.000000,4.000000,4.000000,83.333336
1614304424.331070,56.000000,0.000000,-4.514374,-3.264571,-42.180435,-12.490637,-34.604855,-12.261810,-0.277409,-17.795536,-24.256067,-39.109104,-19.604862,-14.988548,-31.871706,-56.026936,-80.260101,-87.107689,-30.108747,-47.464848,-70.265831,-52.222378,-87.667534,-39.419727,-18.117676,-30.320656,-40.163246,-17.746809,-10.926457,-3.756230,-12.894876,-12.782540,-14.626804,-13.977433,8064.000000,0.000000,4.000000,,,,0.000000,4.000000,4.000000,4.000000,4.000000,4.000000,4.000000,4.000000,4.000000,2.000000,4.000000,4.000000,4.000000,4.000000,4.000000,4.000000,4.000000,4.000000,4.000000,4.000000,4.000000,4.000000,4.000000,4.000000,4.000000,4.000000,4.000000,4.000000,4.000000,4.000000,4.000000,4.000000,4.000000,83.333336
1614304424.338919,57.000000,0.000000,-10.663706,-7.876691,-43.163895,-18.119173,-38.672813,-18.403395,-3.866876,-18.803383,-33.975399,-46.249481,-22.662180,-15.486381,-34.403938,-56.483727,-84.795227,-88.559036,-35.719666,-57.160973,-81.990433,-56.272720,-105.015762,-46.559795,-18.099558,-29.777514,-49.866673,-18.754704,-15.530916,-6.829397,-15.446084,-14.821040,-16.663460,-12.937815,8064.000000,0.000000,4.000000,,,,0.000000,4.000000,4.000000,4.000000,4.000000,4.000000,4.000000,4.000000,4.000000,2.000000,4.000000,4.000000,4.000000,4.000000,4.000000,4.000000,4.000000,4.000000,4.000000,4.000000,4.000000,4.000000,4.000000,4.000000,4.000000,4.000000,4.000000,4.000000,4.000000,4.000000,4.000000,4.000000,4.000000,83.333336
1614304424.346668,58.000000,0.000000,-20.396631,-11.971378,-48.248936,-24.767719,-51.967476,-21.974735,-7.965573,-22.887144,-38.556808,-47.741692,-27.254904,-22.137560,-37.959278,-61.042629,-88.812996,-88.983299,-46.453175,-61.719196,-86.011009,-62.370293,-108.500488,-53.179901,-18.594278,-35.388763,-53.406548,-22.325693,-22.694872,-10.412311,-16.969099,-15.319039,-23.313463,-14.976158,7936.000000,0.000000,4.000000,,,,0.000000,4.000000,4.000000,4.000000,4.000000,4.000000,4.000000,4.000000,4.000000,2.000000,4.000000,4.000000,4.000000,4.000000,4.000000,4.000000,4.000000,4.000000,4.000000,4.000000,4.000000,4.000000,4.000000,4.000000,4.000000,4.000000,4.000000,4.000000,4.000000,4.000000,4.000000,4.000000,4.000000,83.333336
1614304424.354517,59.000000,0.000000,-17.299313,-10.420945,-46.662228,-23.717312,-53.453968,-21.952761,-8.470428,-21.838615,-33.390049,-40.514465,-24.150724,-22.115423,-32.793114,-54.827740,-71.801109,-71.971245,-40.252876,-54.990810,-65.412178,-54.102795,-83.776604,-38.767750,-18.062864,-40.481579,-44.122372,-14.098239,-20.108074,-11.427540,-10.285464,-15.303720,-21.238867,-12.909901,8064.000000,0.000000,4.000000,,,,0.000000,4.000000,4.000000,4.000000,4.000000,4.000000,4.000000,4.000000,4.000000,2.000000,4.000000,4.000000,4.000000,4.000000,4.000000,4.000000,4.000000,4.000000,4.000000,4.000000,4.000000,4.000000,4.000000,4.000000,4.000000,4.000000,4.000000,4.000000,4.000000,4.000000,4.000000,4.000000,4.000000,83.333336
1614304424.362266,60.000000,0.000000,-9.589705,-7.846422,-32.769409,-18.565388,-34.426155,-18.853884,-7.949137,-17.201391,-30.279734,-26.627796,-11.306062,-13.888179,-24.042370,-37.849834,-55.319050,-53.437733,-28.417751,-44.679409,-41.757023,-31.484589,-54.462059,-23.857185,-18.044802,-32.748791,-36.385941,-0.750807,-12.908480,-11.416112,-4.634153,-12.211493,-11.474039,-5.717504,8064.000000,0.000000,4.000000,,,,0.000000,4.000000,4.000000,4.000000,4.000000,4.000000,4.000000,4.000000,4.000000,2.000000,4.000000,4.000000,4.000000,4.000000,4.000000,4.000000,4.000000,4.000000,4.000000,4.000000,4.000000,4.000000,4.000000,4.000000,4.000000,4.000000,4.000000,4.000000,4.000000,4.000000,4.000000,4.000000,4.000000,83.333336
1614304424.369915,61.000000,0.000000,-9.580115,-6.812934,-17.864845,-16.495541,-16.955833,-12.681185,-7.941188,-14.620088,-28.710993,-17.370399,1.012937,-11.310188,-21.454226,-18.324806,-52.699627,-44.666344,-26.850872,-23.096270,-25.305008,-11.965924,-28.253752,-18.192303,-20.078039,-22.459631,-30.195709,1.301226,-10.331469,-10.891875,-4.629519,-6.045436,-6.847180,-1.609222,8064.000000,0.000000,4.000000,,,,0.000000,4.000000,4.000000,4.000000,4.000000,4.000000,4.000000,4.000000,4.000000,2.000000,4.000000,4.000000,4.000000,4.000000,4.000000,4.000000,4.000000,4.000000,4.000000,4.000000,4.000000,4.000000,4.000000,4.000000,4.000000,4.000000,4.000000,4.000000,4.000000,4.000000,4.000000,4.000000,4.000000,83.333336
1614304424.377664,62.000000,0.000000,-9.057715,-5.267660,-14.770058,-14.940584,-14.887595,-10.104401,-7.933247,-12.041366,-22.015615,-16.327387,4.088847,-8.734776,-21.432772,-4.460328,-40.339237,-25.134499,-22.208635,9.747340,1.899784,2.917837,-0.020369,-1.251033,-16.468218,-10.642299,-16.832180,5.402488,-10.321137,-8.316881,-5.650530,-2.962467,-8.378795,-2.120433,8064.000000,0.000000,4.000000,,,,0.000000,4.000000,4.000000,4.000000,4.000000,4.000000,4.000000,4.000000,4.000000,2.000000,4.000000,4.000000,4.000000,4.000000,4.000000,4.000000,4.000000,4.000000,4.000000,4.000000,4.000000,4.000000,4.000000,4.000000,4.000000,4.000000,4.000000,4.000000,4.000000,4.000000,4.000000,4.000000,4.000000,83.333336
1614304424.385314,63.000000,0.000000,-2.894811,-3.211110,-18.345032,-12.874361,-15.898348,-9.581476,-7.925313,-5.875478,-17.891035,-15.798240,2.546297,2.556010,-15.770313,-0.866124,-25.427101,-6.647826,-7.827453,26.660669,20.359423,13.171329,8.184779,14.134833,-6.708159,4.240139,-5.533298,15.653496,-7.746713,-7.282923,-4.619239,-3.985146,-8.370416,-2.631133,8064.000000,0.000000,4.000000,,,,0.000000,4.000000,4.000000,4.000000,4.000000,4.000000,4.000000,4.000000,4.000000,2.000000,4.000000,4.000000,4.000000,4.000000,4.000000,4.000000,4.000000,4.000000,4.000000,4.000000,4.000000,4.000000,4.000000,4.000000,4.000000,4.000000,4.000000,4.000000,4.000000,4.000000,4.000000,4.000000,4.000000,83.333336
1614304424.393063,64.000000,0.000000,-0.840634,-3.207899,-20.377968,-12.348666,-14.856809,-9.059073,-7.917388,-2.279859,-18.385965,-15.269621,3.569391,9.732942,-12.677620,-3.429360,-32.068340,-13.820665,-2.178600,20.992983,9.057012,10.081235,-3.618277,8.479672,-2.598887,7.825642,-6.040585,12.560920,-5.687685,-6.762820,-5.127440,-4.493981,-7.336404,-2.115681,0.000000,193.000000,4.000000,,,,0.000000,4.000000,4.000000,4.000000,4.000000,4.000000,4.000000,4.000000,4.000000,2.000000,4.000000,4.000000,4.000000,4.000000,4.000000,4.000000,4.000000,4.000000,4.000000,4.000000,4.000000,4.000000,4.000000,4.000000,4.000000,4.000000,4.000000,4.000000,4.000000,4.000000,4.000000,4.000000,4.000000,83.333336
1614304424.400712,65.000000,0.000000,-2.378255,-3.717512,-22.921694,-12.849138,-14.841952,-14.178220,-7.909471,-2.277579,-18.880400,-15.767172,4.078642,8.184747,-14.203403,-4.451572,-38.702938,-22.011972,-4.227703,16.356606,-1.208456,5.455769,-6.691582,5.394270,-2.083467,1.663970,-7.060185,4.343230,-6.194818,-4.704775,-4.609492,-2.951025,-7.841888,-2.113566,0.000000,204.000000,4.000000,,,,0.000000,4.000000,4.000000,4.000000,4.000000,4.000000,4.000000,4.000000,4.000000,2.000000,4.000000,4.000000,4.000000,4.000000,4.000000,4.000000,4.000000,4.000000,4.000000,4.000000,4.000000,4.000000,4.000000,4.000000,4.000000,4.000000,4.000000,4.000000,4.000000,4.000000,4.000000,4.000000,4.000000,83.333336
1614304424.408461,66.000000,0.000000,-1.863057,-3.713794,-23.924412,-12.836289,-15.339931,-20.317888,-7.901561,-2.788122,-18.348700,-14.725763,3.561743,8.689383,-8.548175,-3.421479,-28.407827,-13.784833,-3.710655,14.801787,-2.232888,7.501595,-7.197711,8.978619,4.072462,0.636665,-5.001843,9.979913,-6.701443,-2.648788,-2.040780,-0.896792,-8.346867,-2.111452,0.000000,197.000000,4.000000,,,,0.000000,4.000000,4.000000,4.000000,4.000000,4.000000,4.000000,4.000000,4.000000,2.000000,4.000000,4.000000,4.000000,4.000000,4.000000,4.000000,4.000000,4.000000,4.000000,4.000000,4.000000,4.000000,4.000000,4.000000,4.000000,4.000000,4.000000,4.000000,4.000000,4.000000,4.000000,4.000000,4.000000,83.333336
