title:32, start timestamp:1614304577.196600, stop timestamp:1614304622.799040, headset type:EPOCFLEX, headset serial:F00001ED, headset firmware:f12, subject name:s09, channels:75, sampling rate:128, samples:5886      , version:2.0
Timestamp,EEG.Counter,EEG.Interpolated,EEG.Cz,EEG.Fz,EEG.Fp1,EEG.AF3,EEG.F7,EEG.F3,EEG.FC1,EEG.C3,EEG.FC5,EEG.T7,EEG.CP5,EEG.CP1,EEG.P3,EEG.P7,EEG.PO3,EEG.O1,EEG.Pz,EEG.Oz,EEG.O2,EEG.PO4,EEG.P8,EEG.P4,EEG.CP2,EEG.CP6,EEG.T8,EEG.FC6,EEG.C4,EEG.FC2,EEG.F4,EEG.F8,EEG.AF4,EEG.Fp2,EEG.HighBitFlex,EEG.RawCq,EEG.Battery,MarkerIndex,MarkerType,MarkerValueInt,EEG.MarkerHardware,CQ.Cz,CQ.Fz,CQ.Fp1,CQ.AF3,CQ.F7,CQ.F3,CQ.FC1,CQ.C3,CQ.FC5,CQ.T7,CQ.CP5,CQ.CP1,CQ.P3,CQ.P7,CQ.PO3,CQ.O1,CQ.Pz,CQ.Oz,CQ.O2,CQ.PO4,CQ.P8,CQ.P4,CQ.CP2,CQ.CP6,CQ.T8,CQ.FC6,CQ.C4,CQ.FC2,CQ.F4,CQ.F8,CQ.AF4,CQ.Fp2,CQ.Overall
1614304577.196600,66.000000,0.000000,-3.008725,4.887277,-4.798934,-1.303356,-10.526916,-6.901484,7.185143,-1.413551,10.458149,-1.507309,5.817638,0.120045,6.291176,9.522072,10.631662,13.760917,-7.919470,12.482776,24.272961,17.712734,35.162476,4.247014,-9.494834,15.948037,28.331799,9.083213,2.386365,2.790122,-1.813233,10.466507,10.657419,6.027907,0.000000,196.000000,4.000000,,,,0.000000,4.000000,4.000000,4.000000,4.000000,4.000000,4.000000,4.000000,4.000000,4.000000,4.000000,4.000000,4.000000,4.000000,4.000000,4.000000,4.000000,4.000000,4.000000,4.000000,4.000000,4.000000,4.000000,4.000000,4.000000,4.000000,4.000000,4.000000,4.000000,4.000000,4.000000,4.000000,4.000000,100.000000
1614304577.204449,67.000000,0.000000,-3.005716,9.497774,-3.255674,10.492819,-10.003569,-6.894582,7.177958,-0.899317,9.934871,-1.505802,5.299000,1.145566,4.746423,10.025370,11.133851,13.234335,-6.373089,21.188242,26.812790,16.156561,26.409365,3.729947,-9.485339,15.419269,12.406032,9.586950,3.922440,3.300152,0.239863,9.943220,11.159582,1.406495,0.000000,175.000000,4.000000,,,,0.000000,4.000000,4.000000,4.000000,4.000000,4.000000,4.000000,4.000000,4.000000,4.000000,4.000000,4.000000,4.000000,4.000000,4.000000,4.000000,4.000000,4.000000,4.000000,4.000000,4.000000,4.000000,4.000000,4.000000,4.000000,4.000000,4.000000,4.000000,4.000000,4.000000,4.000000,4.000000,4.000000,100.000000
1614304577.212198,68.000000,0.000000,-3.002710,12.565200,-3.765239,17.661814,-9.993565,-6.887687,7.170781,0.127223,9.924935,-0.991476,5.293702,0.118779,2.177574,9.502524,6.507333,3.477511,-6.879536,16.038849,27.811619,11.012199,13.562442,3.726217,-8.963034,10.788465,2.650036,11.115825,2.892877,3.809672,2.803725,11.471738,12.174064,-4.235938,0.000000,199.000000,4.000000,,,,0.000000,4.000000,4.000000,4.000000,4.000000,4.000000,4.000000,4.000000,4.000000,4.000000,4.000000,4.000000,4.000000,4.000000,4.000000,4.000000,4.000000,4.000000,4.000000,4.000000,4.000000,4.000000,4.000000,4.000000,4.000000,4.000000,4.000000,4.000000,4.000000,4.000000,4.000000,4.000000,4.000000,100.000000
1614304577.219847,69.000000,0.000000,-2.999707,12.039814,-2.735833,11.490306,-10.496391,-6.880800,7.163610,-3.975468,10.940652,-0.477664,2.724305,-2.445442,0.124115,2.313534,0.859800,-1.141351,-7.385478,4.227938,17.014576,5.872982,-5.938300,0.645567,-7.928429,3.085369,-0.942358,8.027786,-2.238221,0.216119,0.749640,5.306420,8.059325,-10.898368,0.000000,179.000000,4.000000,,,,0.000000,4.000000,4.000000,4.000000,4.000000,4.000000,4.000000,4.000000,4.000000,4.000000,4.000000,4.000000,4.000000,4.000000,4.000000,4.000000,4.000000,4.000000,4.000000,4.000000,4.000000,4.000000,4.000000,4.000000,4.000000,4.000000,4.000000,4.000000,4.000000,4.000000,4.000000,4.000000,4.000000,100.000000
1614304577.227596,70.000000,0.000000,-3.509528,11.514954,-5.297199,4.812149,-9.460255,-6.873919,7.156446,-11.150980,10.416890,-1.502827,-2.406624,-3.468638,-0.388830,-6.406728,-0.679521,-3.191492,-6.865272,-0.391675,-2.489618,-0.799558,-23.368259,-6.021745,-6.382040,0.518181,-5.556800,4.942835,-4.287265,-4.399482,-4.379315,-3.929656,2.923061,-6.784906,0.000000,198.000000,4.000000,,,,0.000000,4.000000,4.000000,4.000000,4.000000,4.000000,4.000000,4.000000,4.000000,4.000000,4.000000,4.000000,4.000000,4.000000,4.000000,4.000000,4.000000,4.000000,4.000000,4.000000,4.000000,4.000000,4.000000,4.000000,4.000000,4.000000,4.000000,4.000000,4.000000,4.000000,4.000000,4.000000,4.000000,100.000000
1614304577.235245,71.000000,0.000000,-2.993198,7.400874,-7.343184,5.320157,-9.450794,-6.867045,7.149290,-12.678290,9.380833,-1.501324,-5.481141,-2.952349,0.124379,-15.118270,-2.730124,-11.393429,-6.345585,-13.724616,-19.923025,-15.670553,-39.755146,-18.836235,-9.452580,-7.174645,-5.038423,3.399431,-4.795798,-4.907903,-5.913397,-5.464188,4.458600,9.119315,0.000000,202.000000,4.000000,,,,0.000000,4.000000,4.000000,4.000000,4.000000,4.000000,4.000000,4.000000,4.000000,4.000000,4.000000,4.000000,4.000000,4.000000,4.000000,4.000000,4.000000,4.000000,4.000000,4.000000,4.000000,4.000000,4.000000,4.000000,4.000000,4.000000,4.000000,4.000000,4.000000,4.000000,4.000000,4.000000,4.000000,100.000000
1614304577.242994,72.000000,0.000000,-2.477385,0.726807,-6.310200,4.802016,-16.620831,-6.347357,7.142140,-11.639971,11.422734,0.551459,-5.988480,-2.949396,0.124255,-24.846741,-9.906880,-25.741009,-8.390522,-36.787815,-36.313358,-34.116421,-64.843597,-32.150734,-14.571333,-22.039265,-15.289795,-3.783456,-15.560233,-4.902995,-4.881843,-5.971544,2.915679,18.340965,0.000000,209.000000,4.000000,,,,0.000000,4.000000,4.000000,4.000000,4.000000,4.000000,4.000000,4.000000,4.000000,4.000000,4.000000,4.000000,4.000000,4.000000,4.000000,4.000000,4.000000,4.000000,4.000000,4.000000,4.000000,4.000000,4.000000,4.000000,4.000000,4.000000,4.000000,4.000000,4.000000,4.000000,4.000000,4.000000,4.000000,100.000000
1614304577.250643,73.000000,0.000000,-5.039010,-3.376484,-13.483377,-0.843811,-24.809338,-7.879472,7.134998,-11.628331,8.847209,-5.090118,-5.469671,-3.459267,0.124131,-32.514202,-15.537999,-38.022961,-10.946234,-48.545898,-56.277046,-45.877178,-83.240295,-39.810890,-16.608044,-31.247995,-37.325787,-17.113007,-26.313904,-7.975015,-6.928243,-13.657880,-9.394929,3.963650,0.000000,221.000000,4.000000,,,,0.000000,4.000000,4.000000,4.000000,4.000000,4.000000,4.000000,4.000000,4.000000,4.000000,4.000000,4.000000,4.000000,4.000000,4.000000,4.000000,4.000000,4.000000,4.000000,4.000000,4.000000,4.000000,4.000000,4.000000,4.000000,4.000000,4.000000,4.000000,4.000000,4.000000,4.000000,4.000000,4.000000,100.000000
1614304577.258392,74.000000,0.000000,-6.059612,-3.885928,-23.213484,-5.971173,-25.810169,-9.922874,7.127863,-12.129523,-2.443690,-17.392721,-5.977022,-2.942988,0.124007,-34.020149,-15.009641,-33.369553,-10.422467,-43.369148,-57.759232,-42.754375,-71.875000,-36.694157,-17.104256,-38.909054,-39.339745,-21.711277,-19.108103,-8.479860,-9.998238,-17.746786,-16.052200,-19.117237,0.000000,193.000000,4.000000,,,,0.000000,4.000000,4.000000,4.000000,4.000000,4.000000,4.000000,4.000000,4.000000,4.000000,4.000000,4.000000,4.000000,4.000000,4.000000,4.000000,4.000000,4.000000,4.000000,4.000000,4.000000,4.000000,4.000000,4.000000,4.000000,4.000000,4.000000,4.000000,4.000000,4.000000,4.000000,4.000000,4.000000,100.000000
1614304577.266042,75.000000,0.000000,-4.002270,-2.856401,-21.138988,-6.990842,-24.245897,-10.938592,7.120735,-11.604573,-9.620733,-20.452251,-4.432583,-2.940045,1.662344,-26.293821,-9.353606,-16.925926,-7.335122,-31.530907,-32.573265,-30.403929,-40.521076,-21.785667,-16.061510,-40.408607,-24.428608,-20.151104,-6.268482,-7.958560,-9.475419,-16.190578,-11.933584,-20.123760,0.000000,234.000000,4.000000,,,,0.000000,4.000000,4.000000,4.000000,4.000000,4.000000,4.000000,4.000000,4.000000,4.000000,4.000000,4.000000,4.000000,4.000000,4.000000,4.000000,4.000000,4.000000,4.000000,4.000000,4.000000,4.000000,4.000000,4.000000,4.000000,4.000000,4.000000,4.000000,4.000000,4.000000,4.000000,4.000000,4.000000,100.000000
1614304577.273791,76.000000,0.000000,-3.998268,-1.315083,-18.553747,-5.958210,-25.247293,-10.927653,7.113615,-11.080148,-7.559831,-18.380516,-5.966612,-2.424284,1.660682,-17.549580,-5.754508,-10.242334,-5.789325,-25.858351,-14.079154,-23.194038,-19.967733,-9.969009,-15.532629,-22.932301,-21.327257,-21.669415,-5.236572,-7.950602,-8.953123,-15.661567,-11.408830,-14.975431,0.000000,171.000000,4.000000,,,,0.000000,4.000000,4.000000,4.000000,4.000000,4.000000,4.000000,4.000000,4.000000,4.000000,4.000000,4.000000,4.000000,4.000000,4.000000,4.000000,4.000000,4.000000,4.000000,4.000000,4.000000,4.000000,4.000000,4.000000,4.000000,4.000000,4.000000,4.000000,4.000000,4.000000,4.000000,4.000000,4.000000,100.000000
1614304577.281440,77.000000,0.000000,-6.558372,1.250334,-26.740320,-6.465073,-25.734867,-10.403906,7.106501,-11.581888,-4.475348,-21.439058,-9.037569,-2.934680,-4.494825,-16.506390,-7.800036,-11.770554,-6.296356,-24.806850,-16.116358,-22.145203,-16.870842,-10.984681,-18.081200,-6.499113,-16.690544,-19.083643,-9.333899,-8.455471,-10.482632,-16.158726,-11.397421,-27.268148,0.000000,215.000000,4.000000,,,,0.000000,4.000000,4.000000,4.000000,4.000000,4.000000,4.000000,4.000000,4.000000,4.000000,4.000000,4.000000,4.000000,4.000000,4.000000,4.000000,4.000000,4.000000,4.000000,4.000000,4.000000,4.000000,4.000000,4.000000,4.000000,4.000000,4.000000,4.000000,4.000000,4.000000,4.000000,4.000000,4.000000,100.000000
1614304577.289189,78.000000,0.000000,-7.064634,3.813187,-25.687939,-6.458608,-24.170670,-7.829399,7.099394,-11.570307,-4.983693,-17.827877,-5.951608,-2.418925,-6.541612,-15.464241,-7.279416,-4.579296,-6.802880,-7.346147,-5.843830,-11.866648,-11.212946,-10.973697,-11.909271,-9.569537,1.787684,-6.244047,-8.298925,-7.934196,-5.856764,-12.040003,-3.693716,-25.702419,0.000000,218.000000,4.000000,,,,0.000000,4.000000,4.000000,4.000000,4.000000,4.000000,4.000000,4.000000,4.000000,4.000000,4.000000,4.000000,4.000000,4.000000,4.000000,4.000000,4.000000,4.000000,4.000000,4.000000,4.000000,4.000000,4.000000,4.000000,4.000000,4.000000,4.000000,4.000000,4.000000,4.000000,4.000000,4.000000,4.000000,100.000000
1614304577.296838,79.000000,0.000000,-6.031929,4.835014,-10.790457,-5.939329,-21.582397,-5.770288,7.092295,-11.045916,-4.978709,-5.502356,-5.945656,-1.903686,-7.047891,-9.294930,-5.220854,-5.087537,-5.770437,10.097097,14.674834,-0.572730,-2.483784,-5.834518,0.923151,-9.047147,10.503845,2.480146,-7.264985,-7.926261,3.379862,-6.386937,3.489465,-0.035691,0.000000,201.000000,4.000000,,,,0.000000,4.000000,4.000000,4.000000,4.000000,4.000000,4.000000,4.000000,4.000000,4.000000,4.000000,4.000000,4.000000,4.000000,4.000000,4.000000,4.000000,4.000000,4.000000,4.000000,4.000000,4.000000,4.000000,4.000000,4.000000,4.000000,4.000000,4.000000,4.000000,4.000000,4.000000,4.000000,4.000000,100.000000
1614304577.304587,80.000000,0.000000,-7.051538,4.830179,-5.651461,-5.933389,-20.535173,-7.302979,7.085203,-12.060511,-4.460910,-14.214803,-17.734583,-7.029987,-22.425459,-15.952303,-19.574608,-24.056808,-6.790307,-3.246333,5.942211,-10.828568,-10.173608,-13.520991,-2.154696,-0.832971,5.877956,2.477666,-8.796182,-7.918335,6.966225,-4.329268,3.998796,2.015627,0.000000,201.000000,4.000000,,,,0.000000,4.000000,4.000000,4.000000,4.000000,4.000000,4.000000,4.000000,4.000000,4.000000,4.000000,4.000000,4.000000,4.000000,4.000000,4.000000,4.000000,4.000000,4.000000,4.000000,4.000000,4.000000,4.000000,4.000000,4.000000,4.000000,4.000000,4.000000,4.000000,4.000000,4.000000,4.000000,4.000000,100.000000
1614304577.312236,81.000000,0.000000,-7.557307,4.312529,-7.697092,-5.927456,-21.027458,-6.270035,7.078117,-14.612553,-4.456449,-33.174946,-27.460438,-16.253727,-37.787647,-29.782505,-40.067852,-38.904545,-13.963004,-24.268728,-22.268860,-33.894661,-30.676254,-24.789522,-14.460233,-4.934702,4.333617,1.962368,-8.787385,-6.371955,5.420797,-4.837759,5.533259,-8.755620,0.000000,212.000000,4.000000,,,,0.000000,4.000000,4.000000,4.000000,4.000000,4.000000,4.000000,4.000000,4.000000,4.000000,4.000000,4.000000,4.000000,4.000000,4.000000,4.000000,4.000000,4.000000,4.000000,4.000000,4.000000,4.000000,4.000000,4.000000,4.000000,4.000000,4.000000,4.000000,4.000000,4.000000,4.000000,4.000000,4.000000,100.000000
1614304577.320085,82.000000,0.000000,-6.524108,4.308216,-4.612472,-4.383067,-21.006432,-3.186842,7.071039,-15.623581,-4.451993,-25.449465,-28.971439,-18.288755,-31.596014,-29.752722,-38.489323,-39.378464,-21.128529,-25.270100,-33.528641,-42.578716,-47.568657,-26.303194,-17.522696,-12.622075,5.867745,2.986047,-8.265778,-4.314301,5.928197,-4.832922,10.143110,13.304418,0.000000,195.000000,4.000000,,,,0.000000,4.000000,4.000000,4.000000,4.000000,4.000000,4.000000,4.000000,4.000000,4.000000,4.000000,4.000000,4.000000,4.000000,4.000000,4.000000,4.000000,4.000000,4.000000,4.000000,4.000000,4.000000,4.000000,4.000000,4.000000,4.000000,4.000000,4.000000,4.000000,4.000000,4.000000,4.000000,4.000000,100.000000
1614304577.327834,83.000000,0.000000,-6.517584,4.303908,-6.146321,-2.327402,-22.011066,-5.234937,7.063968,-15.095138,-5.473182,-5.424015,-27.404005,-18.270466,-20.282368,-22.030661,-23.579041,-33.698059,-24.184322,-27.296112,-30.931011,-42.536137,-58.290318,-30.892275,-18.530815,-11.583813,4.323416,1.444599,-9.283153,-3.797166,4.383808,-5.340909,11.158608,35.342396,0.000000,204.000000,4.000000,,,,0.000000,4.000000,4.000000,4.000000,4.000000,4.000000,4.000000,4.000000,4.000000,4.000000,4.000000,4.000000,4.000000,4.000000,4.000000,4.000000,4.000000,4.000000,4.000000,4.000000,4.000000,4.000000,4.000000,4.000000,4.000000,4.000000,4.000000,4.000000,4.000000,4.000000,4.000000,4.000000,4.000000,100.000000
1614304577.335683,84.000000,0.000000,-8.562348,3.786783,-14.345303,-2.325074,-23.527515,-9.845087,7.056904,-16.618504,-5.467709,-4.392950,-18.145832,-18.765017,-17.697983,-14.829144,-12.786230,-21.869488,-21.596035,-32.909843,-32.951363,-44.032063,-60.796131,-34.963947,-20.563566,-15.161972,3.806272,0.930334,-8.248229,-4.306190,1.815321,-5.335568,10.121808,25.050642,0.000000,207.000000,4.000000,,,,0.000000,4.000000,4.000000,4.000000,4.000000,4.000000,4.000000,4.000000,4.000000,4.000000,4.000000,4.000000,4.000000,4.000000,4.000000,4.000000,4.000000,4.000000,4.000000,4.000000,4.000000,4.000000,4.000000,4.000000,4.000000,4.000000,4.000000,4.000000,4.000000,4.000000,4.000000,4.000000,4.000000,100.000000
1614304577.343432,85.000000,0.000000,-2.912761,4.808638,-15.869419,-2.322749,-25.042450,-10.860883,6.537027,-15.063424,-4.436600,-6.952659,-2.743072,-12.079584,-5.372592,-5.583545,-0.465752,-9.027106,-7.215466,-24.671804,-33.431232,-35.270081,-45.863537,-18.005905,-12.850695,-20.787836,4.828106,6.570429,-0.547673,-4.814704,1.300685,-4.304592,10.624507,13.743541,0.000000,188.000000,4.000000,,,,0.000000,4.000000,4.000000,4.000000,4.000000,4.000000,4.000000,4.000000,4.000000,4.000000,4.000000,4.000000,4.000000,4.000000,4.000000,4.000000,4.000000,4.000000,4.000000,4.000000,4.000000,4.000000,4.000000,4.000000,4.000000,4.000000,4.000000,4.000000,4.000000,4.000000,4.000000,4.000000,4.000000,100.000000
1614304577.351281,86.000000,0.000000,6.833742,4.291008,-15.853549,-2.833247,-27.068689,-10.850021,6.530490,-8.894514,-5.970624,-0.791860,3.413518,-4.375197,8.478934,-1.475397,9.791124,-3.377054,9.714827,-12.339439,-25.705492,-16.773273,-24.279213,-1.577644,-6.171177,-9.997817,5.336099,9.127961,3.042619,-4.297069,1.812205,-6.864390,10.613882,2.447746,0.000000,193.000000,4.000000,,,,0.000000,4.000000,4.000000,4.000000,4.000000,4.000000,4.000000,4.000000,4.000000,4.000000,4.000000,4.000000,4.000000,4.000000,4.000000,4.000000,4.000000,4.000000,4.000000,4.000000,4.000000,4.000000,4.000000,4.000000,4.000000,4.000000,4.000000,4.000000,4.000000,4.000000,4.000000,4.000000,4.000000,100.000000
1614304577.359031,87.000000,0.000000,6.314087,3.773897,-15.837696,-2.317593,-20.887775,-10.839171,7.036780,-8.372799,-4.939013,2.798675,1.871643,-2.832360,8.470455,-1.473922,11.832615,1.241708,11.243573,-4.121972,-10.295172,-5.474449,-5.793396,-0.037604,-4.626544,2.832694,9.946148,7.580372,1.501114,-4.292772,0.784752,-4.293423,9.577627,-15.503420,0.000000,190.000000,4.000000,,,,0.000000,4.000000,4.000000,4.000000,4.000000,4.000000,4.000000,4.000000,4.000000,4.000000,4.000000,4.000000,4.000000,4.000000,4.000000,4.000000,4.000000,4.000000,4.000000,4.000000,4.000000,4.000000,4.000000,4.000000,4.000000,4.000000,4.000000,4.000000,4.000000,4.000000,4.000000,4.000000,4.000000,100.000000
1614304577.366880,88.000000,0.000000,2.205209,8.385508,-7.103909,-2.315276,-7.533554,-8.777050,6.004102,-8.364427,7.886439,3.821517,4.946694,0.760216,10.513267,6.732680,21.051552,12.522517,13.283612,12.805227,15.868970,12.992564,18.827782,12.782946,6.660134,3.342681,20.192612,15.265100,7.653460,-4.801300,2.322429,11.608307,13.157794,-4.205865,0.000000,199.000000,4.000000,,,,0.000000,4.000000,4.000000,4.000000,4.000000,4.000000,4.000000,4.000000,4.000000,4.000000,4.000000,4.000000,4.000000,4.000000,4.000000,4.000000,4.000000,4.000000,4.000000,4.000000,4.000000,4.000000,4.000000,4.000000,4.000000,4.000000,4.000000,4.000000,4.000000,4.000000,4.000000,4.000000,4.000000,100.000000
1614304577.374629,89.000000,0.000000,5.792747,15.556609,2.133964,-3.338602,-2.397815,-7.742632,7.023739,2.925989,20.186245,8.945901,10.069953,9.990225,20.246344,15.443896,33.338192,25.843328,26.090841,30.228319,47.135151,44.261623,47.014084,34.821445,21.012447,7.954723,28.377546,28.583168,19.953499,-2.232396,6.935491,25.442852,19.298483,28.618855,0.000000,196.000000,4.000000,,,,0.000000,4.000000,4.000000,4.000000,4.000000,4.000000,4.000000,4.000000,4.000000,4.000000,4.000000,4.000000,4.000000,4.000000,4.000000,4.000000,4.000000,4.000000,4.000000,4.000000,4.000000,4.000000,4.000000,4.000000,4.000000,4.000000,4.000000,4.000000,4.000000,4.000000,4.000000,4.000000,4.000000,100.000000
1614304577.382478,90.000000,0.000000,9.376698,12.976951,4.183112,-1.283981,-2.395417,-6.196428,13.683382,14.717936,22.217340,15.090801,10.059882,13.569978,24.328661,16.966913,34.843315,29.920050,31.705776,32.762192,65.036736,53.960953,60.300404,38.889187,22.529898,25.895487,27.323528,32.144329,22.497648,2.385221,9.492658,24.904589,22.356106,43.462029,0.000000,182.000000,4.000000,,,,0.000000,4.000000,4.000000,4.000000,4.000000,4.000000,4.000000,4.000000,4.000000,4.000000,4.000000,4.000000,4.000000,4.000000,4.000000,4.000000,4.000000,4.000000,4.000000,4.000000,4.000000,4.000000,4.000000,4.000000,4.000000,4.000000,4.000000,4.000000,4.000000,4.000000,4.000000,4.000000,4.000000,100.000000
1614304577.390227,91.000000,0.000000,7.828860,4.758845,8.794313,5.896790,5.812107,0.476435,18.797903,15.216038,20.143841,23.280838,9.024181,12.017946,23.278692,19.001228,31.731550,28.351667,28.084328,31.703791,61.381954,38.522373,49.470871,32.183632,15.840700,35.100361,26.270563,31.599363,19.911047,3.408477,8.970345,23.854044,21.308109,42.905746,0.000000,199.000000,4.000000,,,,0.000000,4.000000,4.000000,4.000000,4.000000,4.000000,4.000000,4.000000,4.000000,4.000000,4.000000,4.000000,4.000000,4.000000,4.000000,4.000000,4.000000,4.000000,4.000000,4.000000,4.000000,4.000000,4.000000,4.000000,4.000000,4.000000,4.000000,4.000000,4.000000,4.000000,4.000000,4.000000,4.000000,100.000000
1614304577.398076,92.000000,0.000000,7.821032,4.241266,15.452186,9.993458,9.396038,5.604164,18.266285,14.175180,21.662159,27.360123,9.527978,12.518749,20.178490,21.546329,25.033152,27.810495,27.543423,33.210548,47.474419,29.765903,31.472681,25.997602,12.747936,24.808849,30.346857,30.542122,18.865496,2.892248,8.961374,26.907112,21.799622,40.298740,0.000000,198.000000,4.000000,,,,0.000000,4.000000,4.000000,4.000000,4.000000,4.000000,4.000000,4.000000,4.000000,4.000000,4.000000,4.000000,4.000000,4.000000,4.000000,4.000000,4.000000,4.000000,4.000000,4.000000,4.000000,4.000000,4.000000,4.000000,4.000000,4.000000,4.000000,4.000000,4.000000,4.000000,4.000000,4.000000,4.000000,100.000000
1614304577.405825,93.000000,0.000000,7.813210,4.749845,15.436733,9.470644,2.207155,5.085739,17.735199,14.161006,22.153316,21.691736,9.518450,11.480589,13.491645,19.473501,8.597862,23.680120,20.336391,28.049131,35.632072,23.069471,25.287363,14.176733,10.683907,14.527631,24.162664,23.332092,13.718425,2.889356,9.465234,20.726358,22.290642,25.899466,0.000000,179.000000,4.000000,,,,0.000000,4.000000,4.000000,4.000000,4.000000,4.000000,4.000000,4.000000,4.000000,4.000000,4.000000,4.000000,4.000000,4.000000,4.000000,4.000000,4.000000,4.000000,4.000000,4.000000,4.000000,4.000000,4.000000,4.000000,4.000000,4.000000,4.000000,4.000000,4.000000,4.000000,4.000000,4.000000,4.000000,100.000000
1614304577.413674,94.000000,0.000000,4.728474,2.693813,15.421297,7.922711,4.256229,4.567832,18.230284,11.069921,21.105522,16.029018,8.996111,12.494750,10.401230,23.556593,1.922597,18.015415,8.008363,16.739033,19.186184,5.097683,20.133871,4.418966,6.570659,14.513103,6.702604,13.565171,6.525219,3.399287,8.942947,13.013325,21.755531,10.488951,0.000000,205.000000,4.000000,,,,0.000000,4.000000,4.000000,4.000000,4.000000,4.000000,4.000000,4.000000,4.000000,4.000000,4.000000,4.000000,4.000000,4.000000,4.000000,4.000000,4.000000,4.000000,4.000000,4.000000,4.000000,4.000000,4.000000,4.000000,4.000000,4.000000,4.000000,4.000000,4.000000,4.000000,4.000000,4.000000,4.000000,100.000000
1614304577.421423,95.000000,0.000000,4.210925,9.357786,16.431517,9.966071,13.482742,4.563265,18.212053,11.058851,21.084417,17.551451,10.525577,12.482255,11.929290,28.661242,4.997598,15.433297,3.384970,0.312036,-5.448387,-10.804851,-4.501648,-0.200837,-1.128220,10.396026,-0.483585,12.013144,4.980232,2.883067,8.934005,13.513132,21.733776,6.375898,0.000000,193.000000,4.000000,,,,0.000000,4.000000,4.000000,4.000000,4.000000,4.000000,4.000000,4.000000,4.000000,4.000000,4.000000,4.000000,4.000000,4.000000,4.000000,4.000000,4.000000,4.000000,4.000000,4.000000,4.000000,4.000000,4.000000,4.000000,4.000000,4.000000,4.000000,4.000000,4.000000,4.000000,4.000000,4.000000,4.000000,100.000000
1614304577.429272,96.000000,0.000000,4.206714,18.579197,6.671495,9.956104,5.776952,5.071522,17.681021,10.022152,21.576153,17.021080,7.950948,1.700542,4.737874,15.299247,-5.776630,1.571710,-2.772261,-21.739557,-30.058323,-25.153019,-36.292019,-10.457047,-5.742476,-6.024627,-0.483102,12.513952,6.000893,2.880184,8.925071,9.397055,22.224863,9.446445,8064.000000,0.000000,4.000000,,,,0.000000,4.000000,4.000000,4.000000,4.000000,4.000000,4.000000,4.000000,4.000000,4.000000,4.000000,4.000000,4.000000,4.000000,4.000000,4.000000,4.000000,4.000000,4.000000,4.000000,4.000000,4.000000,4.000000,4.000000,4.000000,4.000000,4.000000,4.000000,4.000000,4.000000,4.000000,4.000000,4.000000,100.000000
1614304577.437021,97.000000,0.000000,1.638405,13.945233,-6.668509,0.715379,-13.203184,3.527989,16.637699,0.781360,15.913551,7.773289,1.789151,-10.096030,-6.548915,-6.254514,-23.206751,-23.045246,-14.564361,-40.179356,-49.002625,-43.589405,-54.204445,-22.241461,-7.275195,-19.864756,-11.764670,8.398874,3.430789,2.877304,8.916145,-2.407214,17.587254,12.513922,8064.000000,0.000000,4.000000,,,,0.000000,4.000000,4.000000,4.000000,4.000000,4.000000,4.000000,4.000000,4.000000,4.000000,4.000000,4.000000,4.000000,4.000000,4.000000,4.000000,4.000000,4.000000,4.000000,4.000000,4.000000,4.000000,4.000000,4.000000,4.000000,4.000000,4.000000,4.000000,4.000000,4.000000,4.000000,4.000000,4.000000,100.000000
1614304577.444670,98.000000,0.000000,0.098305,4.187699,-14.354149,-12.105849,-23.959211,-5.193488,15.082600,-5.373267,5.128407,-6.080638,-1.289561,-9.573113,-8.593649,-13.427747,-19.080980,-29.176046,-14.036976,-41.677639,-56.133110,-46.622738,-58.765625,-24.783323,-9.319202,-21.896173,-25.086239,2.236629,1.376077,2.874427,6.855947,-6.507371,7.313256,3.783459,8064.000000,0.000000,4.000000,,,,0.000000,4.000000,4.000000,4.000000,4.000000,4.000000,4.000000,4.000000,4.000000,4.000000,4.000000,4.000000,4.000000,4.000000,4.000000,4.000000,4.000000,4.000000,4.000000,4.000000,4.000000,4.000000,4.000000,4.000000,4.000000,4.000000,4.000000,4.000000,4.000000,4.000000,4.000000,4.000000,4.000000,100.000000
1614304577.452419,99.000000,0.000000,0.611027,3.157870,-24.083384,-15.170666,-28.550636,-12.880602,11.990594,-4.855073,-2.056208,-14.279686,-3.339553,-5.973797,-8.585055,-9.311755,-8.292668,-18.890461,-7.869093,-30.353910,-44.282104,-33.755604,-51.014549,-20.143154,-9.309883,-18.797354,-20.445768,0.183110,2.400342,2.871552,5.310630,-6.500864,-0.386365,-13.656221,8064.000000,0.000000,4.000000,,,,0.000000,4.000000,4.000000,4.000000,4.000000,4.000000,4.000000,4.000000,4.000000,4.000000,4.000000,4.000000,4.000000,4.000000,4.000000,4.000000,4.000000,4.000000,4.000000,4.000000,4.000000,4.000000,4.000000,4.000000,4.000000,4.000000,4.000000,4.000000,4.000000,4.000000,4.000000,4.000000,4.000000,100.000000
1614304577.460068,100.000000,0.000000,0.610416,5.205994,-34.315712,-13.104214,-32.624649,-14.406183,7.876040,-7.927141,-6.156716,-12.726944,-13.592624,-8.019105,-8.063649,-10.328084,-8.284376,-16.820288,-7.861224,-16.477402,-19.622437,-19.875694,-30.963537,-7.815319,-3.146727,-21.342659,-9.143270,2.234209,2.397941,2.868681,4.792499,-5.981542,-1.924440,-15.693848,8064.000000,0.000000,4.000000,,,,0.000000,4.000000,4.000000,4.000000,4.000000,4.000000,4.000000,4.000000,4.000000,4.000000,4.000000,4.000000,4.000000,4.000000,4.000000,4.000000,4.000000,4.000000,4.000000,4.000000,4.000000,4.000000,4.000000,4.000000,4.000000,4.000000,4.000000,4.000000,4.000000,4.000000,4.000000,4.000000,4.000000,100.000000
1614304577.467817,101.000000,0.000000,0.609806,3.662327,-35.307037,-13.603930,-34.130486,-14.391777,5.816881,-12.534599,-9.740303,-13.739859,-17.681595,-6.985445,-0.363278,-12.369039,-5.711989,-12.700904,-1.699517,-5.178874,5.012570,-3.445562,-5.291547,12.192496,4.035907,-18.757214,-7.082845,3.770437,2.395543,2.865812,5.300527,6.844952,-0.384054,-10.549949,8064.000000,0.000000,4.000000,,,,0.000000,4.000000,4.000000,4.000000,4.000000,4.000000,4.000000,4.000000,4.000000,4.000000,4.000000,4.000000,4.000000,4.000000,4.000000,4.000000,4.000000,4.000000,4.000000,4.000000,4.000000,4.000000,4.000000,4.000000,4.000000,4.000000,4.000000,4.000000,4.000000,4.000000,4.000000,4.000000,4.000000,100.000000
1614304577.475467,102.000000,0.000000,0.609196,3.145844,-27.579422,-15.128787,-30.506613,-14.377385,6.323885,-12.522064,-8.192101,-14.238939,-5.869042,0.713848,6.303752,-1.587439,8.139876,5.260515,10.097054,5.595536,23.469097,13.993781,16.765026,25.513638,6.595974,3.312825,-4.511660,4.792307,2.393148,2.862946,5.295227,20.684261,1.667612,-9.513758,8064.000000,0.000000,4.000000,,,,0.000000,4.000000,4.000000,4.000000,4.000000,4.000000,4.000000,4.000000,4.000000,4.000000,4.000000,4.000000,4.000000,4.000000,4.000000,4.000000,4.000000,4.000000,4.000000,4.000000,4.000000,4.000000,4.000000,4.000000,4.000000,4.000000,4.000000,4.000000,4.000000,4.000000,4.000000,4.000000,4.000000,100.000000
1614304577.483216,103.000000,0.000000,0.608587,3.655519,-10.628765,-12.549556,-19.706875,-9.747622,6.830381,-9.432619,-3.568525,2.698377,5.418878,5.841339,8.861550,14.824406,13.259942,15.511664,13.676702,17.384813,34.727680,23.210556,29.568773,28.052225,6.589378,24.847975,8.826185,7.864438,2.390755,2.860083,5.289931,17.586653,2.691585,10.495756,8064.000000,0.000000,4.000000,,,,0.000000,4.000000,4.000000,4.000000,4.000000,4.000000,4.000000,4.000000,4.000000,4.000000,4.000000,4.000000,4.000000,4.000000,4.000000,4.000000,4.000000,4.000000,4.000000,4.000000,4.000000,4.000000,4.000000,4.000000,4.000000,4.000000,4.000000,4.000000,4.000000,4.000000,4.000000,4.000000,4.000000,100.000000
1614304577.490865,104.000000,0.000000,0.607978,4.164683,5.792120,-8.434443,-7.379477,-5.635311,8.874833,-3.782161,-1.000853,20.644396,6.439100,4.809857,15.006536,22.501888,10.682579,14.470511,11.098922,21.982813,34.180130,23.700167,30.052027,26.485712,6.069968,24.310305,19.073769,11.446317,2.388364,2.857223,5.284641,11.928041,3.201714,34.075005,8064.000000,0.000000,4.000000,,,,0.000000,4.000000,4.000000,4.000000,4.000000,4.000000,4.000000,4.000000,4.000000,4.000000,4.000000,4.000000,4.000000,4.000000,4.000000,4.000000,4.000000,4.000000,4.000000,4.000000,4.000000,4.000000,4.000000,4.000000,4.000000,4.000000,4.000000,4.000000,4.000000,4.000000,4.000000,4.000000,4.000000,100.000000
1614304577.498614,105.000000,0.000000,0.607370,4.160519,4.760686,-6.374726,-4.807994,-7.168138,10.404420,2.375468,2.077070,17.546829,7.971123,4.292226,19.094093,20.428104,12.723179,15.994503,11.087823,12.730061,17.735693,13.420056,18.227102,20.305380,5.551077,19.157789,16.490593,12.973332,2.385976,2.854366,5.279356,13.454575,3.198512,24.810160,8064.000000,0.000000,4.000000,,,,0.000000,4.000000,4.000000,4.000000,4.000000,4.000000,4.000000,4.000000,4.000000,4.000000,4.000000,4.000000,4.000000,4.000000,4.000000,4.000000,4.000000,4.000000,4.000000,4.000000,4.000000,4.000000,4.000000,4.000000,4.000000,4.000000,4.000000,4.000000,4.000000,4.000000,4.000000,4.000000,4.000000,100.000000
1614304577.506263,106.000000,0.000000,0.606763,5.181999,-1.397920,-3.291428,-5.828827,-7.160969,10.394015,1.347451,4.126276,9.324154,10.527254,5.313575,12.921152,19.382036,8.607892,10.337482,6.974171,-3.692926,-8.948709,-10.183107,-1.791125,3.874819,2.468603,16.574530,10.833076,13.986000,2.896410,2.851512,5.786898,14.466762,3.708134,5.298170,8064.000000,0.000000,4.000000,,,,0.000000,4.000000,4.000000,4.000000,4.000000,4.000000,4.000000,4.000000,4.000000,4.000000,4.000000,4.000000,4.000000,4.000000,4.000000,4.000000,4.000000,4.000000,4.000000,4.000000,4.000000,4.000000,4.000000,4.000000,4.000000,4.000000,4.000000,4.000000,4.000000,4.000000,4.000000,4.000000,4.000000,100.000000
1614304577.514012,107.000000,0.000000,0.606156,9.792202,-0.370881,3.378530,-2.746076,-2.538424,10.383621,0.833283,2.070867,10.340470,10.003906,3.256980,7.780026,22.439577,-6.272511,-7.108752,-3.802034,-17.535387,-30.478222,-33.249847,-23.840616,-16.641876,-3.687711,3.737442,6.719679,11.407911,0.842232,2.848660,5.781111,13.939474,4.217247,0.677487,8064.000000,0.000000,4.000000,,,,0.000000,4.000000,4.000000,4.000000,4.000000,4.000000,4.000000,4.000000,4.000000,4.000000,4.000000,4.000000,4.000000,4.000000,4.000000,4.000000,4.000000,4.000000,4.000000,4.000000,4.000000,4.000000,4.000000,4.000000,4.000000,4.000000,4.000000,4.000000,4.000000,4.000000,4.000000,4.000000,4.000000,100.000000
1614304577.521661,108.000000,0.000000,0.605550,15.423435,0.142310,8.503357,-2.230509,1.053858,10.373238,5.447834,8.735463,10.330131,9.481082,0.689620,5.208144,17.288933,-16.522650,-17.358053,-15.080283,-29.825544,-44.293896,-43.473007,-40.739853,-32.009850,-9.325049,-10.112449,1.584755,3.704196,-1.209893,2.845812,5.262509,14.951176,5.751491,1.702451,8064.000000,0.000000,4.000000,,,,0.000000,4.000000,4.000000,4.000000,4.000000,4.000000,4.000000,4.000000,4.000000,4.000000,4.000000,4.000000,4.000000,4.000000,4.000000,4.000000,4.000000,4.000000,4.000000,4.000000,4.000000,4.000000,4.000000,4.000000,4.000000,4.000000,4.000000,4.000000,4.000000,4.000000,4.000000,4.000000,4.000000,100.000000
1614304577.529410,109.000000,0.000000,0.604944,14.382371,1.167809,10.033315,-2.228278,1.052804,10.362864,5.955207,24.111343,10.319800,8.958780,0.176110,0.074730,1.887028,-17.018948,-17.853516,-15.578023,-36.975204,-48.864986,-39.326969,-47.878601,-33.516300,-10.854186,-15.230541,-2.519394,0.623568,-1.721503,2.842966,6.282888,17.500326,7.797021,13.495621,8064.000000,0.000000,4.000000,,,,0.000000,4.000000,4.000000,4.000000,4.000000,4.000000,4.000000,4.000000,4.000000,4.000000,4.000000,4.000000,4.000000,4.000000,4.000000,4.000000,4.000000,4.000000,4.000000,4.000000,4.000000,4.000000,4.000000,4.000000,4.000000,4.000000,4.000000,4.000000,4.000000,4.000000,4.000000,4.000000,4.000000,100.000000
1614304577.537060,110.000000,0.000000,0.604339,5.650040,-0.884641,6.946359,-1.200409,0.538931,10.352502,2.872329,19.471848,8.258199,7.924181,0.688754,-0.438165,-7.858449,-12.899364,-16.810022,-5.818855,-26.681820,-31.893045,-23.390207,-38.599953,-18.610991,-5.715127,-17.266594,-4.568157,2.161407,-1.206961,3.352943,4.738143,14.918724,6.763584,25.276997,8064.000000,0.000000,4.000000,,,,0.000000,4.000000,4.000000,4.000000,4.000000,4.000000,4.000000,4.000000,4.000000,4.000000,4.000000,4.000000,4.000000,4.000000,4.000000,4.000000,4.000000,4.000000,4.000000,4.000000,4.000000,4.000000,4.000000,4.000000,4.000000,4.000000,4.000000,4.000000,4.000000,4.000000,4.000000,4.000000,4.000000,100.000000
1614304577.544909,111.000000,0.000000,0.603735,-3.073559,-18.832474,-3.829819,-10.429978,1.051213,8.803688,2.869456,-4.137369,-2.519291,5.864974,0.688066,3.152017,-6.824950,-5.194157,-10.126545,2.904912,-8.706421,-8.271409,-10.546305,-21.125454,-2.182123,1.470076,-11.608301,-6.102050,-3.994601,-0.692934,3.349590,-3.471723,0.544831,0.602974,10.379925,8064.000000,0.000000,4.000000,,,,0.000000,4.000000,4.000000,4.000000,4.000000,4.000000,4.000000,4.000000,4.000000,4.000000,4.000000,4.000000,4.000000,4.000000,4.000000,4.000000,4.000000,4.000000,4.000000,4.000000,4.000000,4.000000,4.000000,4.000000,4.000000,4.000000,4.000000,4.000000,4.000000,4.000000,4.000000,4.000000,4.000000,100.000000
1614304577.552658,112.000000,0.000000,0.603131,-3.070485,-32.146976,-11.518296,-23.752882,1.050162,6.743602,1.840946,-14.389642,-12.260361,-1.833198,0.687378,1.610403,-6.818125,-3.137681,-5.501034,4.440469,-5.620791,-4.160573,-7.458835,-17.514585,2.435443,3.519888,-0.827462,-7.121589,-13.221375,-0.692241,1.294959,-10.134918,-12.276227,-5.038655,-11.168917,8064.000000,0.000000,4.000000,,,,0.000000,4.000000,4.000000,4.000000,4.000000,4.000000,4.000000,4.000000,4.000000,4.000000,4.000000,4.000000,4.000000,4.000000,4.000000,4.000000,4.000000,4.000000,4.000000,4.000000,4.000000,4.000000,4.000000,4.000000,4.000000,4.000000,4.000000,4.000000,4.000000,4.000000,4.000000,4.000000,4.000000,100.000000
1614304577.560507,113.000000,0.000000,0.602528,1.035149,-19.807137,-8.942676,-20.652205,0.536291,6.224038,-0.724998,-7.195765,-11.222460,-6.446750,1.199511,3.147254,-1.170281,-4.673004,-2.931430,4.436028,-5.102350,-1.592311,0.753752,-11.856045,6.535572,1.465086,-1.852275,-4.037545,-10.131231,-1.717190,-1.270439,-9.611962,-4.571643,-4.520796,-15.260312,8064.000000,0.000000,4.000000,,,,0.000000,4.000000,4.000000,4.000000,4.000000,4.000000,4.000000,4.000000,4.000000,4.000000,4.000000,4.000000,4.000000,4.000000,4.000000,4.000000,4.000000,4.000000,4.000000,4.000000,4.000000,4.000000,4.000000,4.000000,4.000000,4.000000,4.000000,4.000000,4.000000,4.000000,4.000000,4.000000,4.000000,100.000000
1614304577.568256,114.000000,0.000000,0.601926,6.162319,-7.479637,-3.805528,-7.811040,0.535755,6.730634,-1.237093,-1.034723,-9.159955,-0.799277,1.711132,8.272312,18.830889,11.229105,16.558681,4.431592,16.441214,25.588770,20.752998,16.873760,19.349548,3.002082,-3.388885,3.145980,-0.377510,0.848630,-0.756348,-7.038248,10.304724,-1.952172,-13.193769,8064.000000,0.000000,4.000000,,,,0.000000,4.000000,4.000000,4.000000,4.000000,4.000000,4.000000,4.000000,4.000000,4.000000,4.000000,4.000000,4.000000,4.000000,4.000000,4.000000,4.000000,4.000000,4.000000,4.000000,4.000000,4.000000,4.000000,4.000000,4.000000,4.000000,4.000000,4.000000,4.000000,4.000000,4.000000,4.000000,4.000000,100.000000
1614304577.576105,115.000000,0.000000,0.601324,11.797182,-6.959336,-2.776081,-4.726306,1.048039,8.775186,-0.723036,2.556056,-9.150795,5.355368,4.786344,12.879425,33.683853,31.217876,37.567764,4.939981,33.860672,45.563179,30.475834,37.882526,23.945583,4.024721,11.486300,9.296680,2.699790,3.411884,-0.755592,-5.492748,13.884163,-0.411759,1.691219,8064.000000,0.000000,4.000000,,,,0.000000,4.000000,4.000000,4.000000,4.000000,4.000000,4.000000,4.000000,4.000000,4.000000,4.000000,4.000000,4.000000,4.000000,4.000000,4.000000,4.000000,4.000000,4.000000,4.000000,4.000000,4.000000,4.000000,4.000000,4.000000,4.000000,4.000000,4.000000,4.000000,4.000000,4.000000,4.000000,4.000000,100.000000
1614304577.583854,116.000000,0.000000,0.600722,10.759745,-3.875454,-2.773305,-10.362606,-1.004291,10.304873,-0.722313,6.143243,-6.064722,5.350013,5.807199,12.866545,28.009144,22.468708,28.299427,4.935041,18.442194,30.645823,11.983821,25.536953,8.024202,-3.671611,18.654301,8.774563,1.158629,-3.258195,-2.806118,-5.487256,12.331817,-0.411347,21.176706,8064.000000,0.000000,4.000000,,,,0.000000,4.000000,4.000000,4.000000,4.000000,4.000000,4.000000,4.000000,4.000000,4.000000,4.000000,4.000000,4.000000,4.000000,4.000000,4.000000,4.000000,4.000000,4.000000,4.000000,4.000000,4.000000,4.000000,4.000000,4.000000,4.000000,4.000000,4.000000,4.000000,4.000000,4.000000,4.000000,4.000000,100.000000
1614304577.591703,117.000000,0.000000,0.600122,-1.045887,-6.435681,-2.257711,-13.941987,-5.105851,10.294567,-0.721590,6.649920,-5.545836,4.831842,-1.378096,2.084448,11.570878,-2.169144,0.578819,-0.710919,-3.114709,3.435689,-17.258932,6.537056,-10.958180,-14.949991,2.225389,2.611942,1.670291,-11.972885,-4.854594,-7.533050,11.293844,-2.462218,16.027325,8064.000000,0.000000,4.000000,,,,0.000000,4.000000,4.000000,4.000000,4.000000,4.000000,4.000000,4.000000,4.000000,4.000000,4.000000,4.000000,4.000000,4.000000,4.000000,4.000000,4.000000,4.000000,4.000000,4.000000,4.000000,4.000000,4.000000,4.000000,4.000000,4.000000,4.000000,4.000000,4.000000,4.000000,4.000000,4.000000,4.000000,100.000000
1614304577.599452,118.000000,0.000000,0.599522,-8.224329,-12.583092,-1.742633,-11.876762,-7.152027,10.284273,-1.233689,6.130450,-5.027470,5.852651,-9.581846,-14.840714,0.277256,-11.910565,-17.370478,-8.915337,-11.829543,-12.978003,-30.575006,-5.264353,-15.562607,-18.011965,-15.212733,-1.493234,2.181441,-12.986553,-4.849740,-8.038338,7.692807,-3.998217,3.190785,8064.000000,0.000000,4.000000,,,,0.000000,4.000000,4.000000,4.000000,4.000000,4.000000,4.000000,4.000000,4.000000,4.000000,4.000000,4.000000,4.000000,4.000000,4.000000,4.000000,4.000000,4.000000,4.000000,4.000000,4.000000,4.000000,4.000000,4.000000,4.000000,4.000000,4.000000,4.000000,4.000000,4.000000,4.000000,4.000000,4.000000,100.000000
1614304577.607301,119.000000,0.000000,0.598922,-3.600720,-4.878201,-2.253711,-7.249501,-6.632054,10.786809,-0.719635,6.637140,0.618583,5.333978,-11.623547,-20.466898,-3.312765,-16.001219,-27.096697,-10.957704,-24.125406,-24.759897,-30.544432,-21.156525,-17.598326,-15.942670,-17.248802,-2.517381,1.666439,-11.947926,-4.332069,-6.491838,5.633832,-3.994219,-1.427790,8064.000000,0.000000,4.000000,,,,0.000000,4.000000,4.000000,4.000000,4.000000,4.000000,4.000000,4.000000,4.000000,4.000000,4.000000,4.000000,4.000000,4.000000,4.000000,4.000000,4.000000,4.000000,4.000000,4.000000,4.000000,4.000000,4.000000,4.000000,4.000000,4.000000,4.000000,4.000000,4.000000,4.000000,4.000000,4.000000,4.000000,100.000000
1614304577.615050,120.000000,0.000000,0.598323,1.018266,4.357447,-2.251457,-6.216610,-6.625422,9.237560,-0.718915,6.117682,4.207708,4.815824,-10.073462,-19.420790,-3.822273,-23.164705,-31.172165,-11.972386,-34.357693,-35.504368,-33.077991,-32.417419,-21.683292,-16.952368,-13.641810,-9.694351,1.664773,-12.961618,-4.327737,-4.946885,4.602557,-3.990224,-17.836618,8064.000000,0.000000,4.000000,,,,0.000000,4.000000,4.000000,4.000000,4.000000,4.000000,4.000000,4.000000,4.000000,4.000000,4.000000,4.000000,4.000000,4.000000,4.000000,4.000000,4.000000,4.000000,4.000000,4.000000,4.000000,4.000000,4.000000,4.000000,4.000000,4.000000,4.000000,4.000000,4.000000,4.000000,4.000000,4.000000,4.000000,100.000000
1614304577.622899,121.000000,0.000000,0.597725,-0.521214,1.276166,-2.249206,-6.723215,-7.131617,7.177041,-1.231017,6.111565,2.665039,5.323828,-10.063388,-19.914190,-3.305630,-19.551796,-26.525608,-11.447594,-27.143847,-36.494503,-29.967989,-35.461926,-14.994942,-16.422596,-18.243553,-18.402605,1.663108,-11.923017,-4.836230,-5.967578,2.033852,-3.986234,-28.075191,8064.000000,0.000000,4.000000,,,,0.000000,4.000000,4.000000,4.000000,4.000000,4.000000,4.000000,4.000000,4.000000,4.000000,4.000000,4.000000,4.000000,4.000000,4.000000,4.000000,4.000000,4.000000,4.000000,4.000000,4.000000,4.000000,4.000000,4.000000,4.000000,4.000000,4.000000,4.000000,4.000000,4.000000,4.000000,4.000000,4.000000,100.000000
1614304577.630648,122.000000,0.000000,0.597127,-0.520693,-1.802033,-2.759777,-6.203671,-7.124485,6.144223,0.308676,5.592633,1.123912,4.805684,-9.027683,-7.073763,-4.327965,-7.224552,-15.729852,-2.205377,-14.809010,-21.073395,-10.963662,-31.836720,1.430309,-13.329249,-23.866335,-15.820101,1.661445,-12.936734,-4.318573,-5.448791,1.006177,-4.495069,-5.483015,8064.000000,0.000000,4.000000,,,,0.000000,4.000000,4.000000,4.000000,4.000000,4.000000,4.000000,4.000000,4.000000,4.000000,4.000000,4.000000,4.000000,4.000000,4.000000,4.000000,4.000000,4.000000,4.000000,4.000000,4.000000,4.000000,4.000000,4.000000,4.000000,4.000000,4.000000,4.000000,4.000000,4.000000,4.000000,4.000000,4.000000,100.000000
1614304577.638497,123.000000,0.000000,0.596530,0.505469,-0.774590,-2.757017,-6.710288,-7.117361,6.650899,4.410931,5.587040,2.148430,4.800879,-3.377630,13.958952,-4.323637,5.090365,0.696135,6.514777,-4.024970,0.998961,8.021661,-17.958729,11.172469,-9.213356,-19.739904,-4.009408,1.146963,-11.898156,-2.775793,-5.443342,1.005171,-4.490573,19.137854,8064.000000,0.000000,4.000000,,,,0.000000,4.000000,4.000000,4.000000,4.000000,4.000000,4.000000,4.000000,4.000000,4.000000,4.000000,4.000000,4.000000,4.000000,4.000000,4.000000,4.000000,4.000000,4.000000,4.000000,4.000000,4.000000,4.000000,4.000000,4.000000,4.000000,4.000000,4.000000,4.000000,4.000000,4.000000,4.000000,4.000000,100.000000
1614304577.646246,124.000000,0.000000,0.595933,-2.571960,-0.260995,-2.241440,-5.165116,-6.597423,6.644248,6.970623,6.094274,7.274486,9.411462,5.343696,20.611660,9.014020,21.495531,19.156977,10.610826,12.389311,15.869757,14.680305,0.520769,14.751040,-3.050297,-9.976575,3.174088,1.145816,0.421434,-0.721735,-6.463540,1.004166,-4.486083,20.657177,8064.000000,0.000000,4.000000,,,,0.000000,4.000000,4.000000,4.000000,4.000000,4.000000,4.000000,4.000000,4.000000,4.000000,4.000000,4.000000,4.000000,4.000000,4.000000,4.000000,4.000000,4.000000,4.000000,4.000000,4.000000,4.000000,4.000000,4.000000,4.000000,4.000000,4.000000,4.000000,4.000000,4.000000,4.000000,4.000000,4.000000,100.000000
1614304577.654095,125.000000,0.000000,0.595338,-3.082208,3.841830,-2.752019,2.532357,-7.616467,6.124784,6.450831,5.575359,16.497980,15.555897,9.440917,19.052586,25.928083,30.704805,30.419872,16.754061,24.684614,24.571836,20.306650,9.751018,18.838854,2.080958,-2.274291,4.709375,3.708773,8.626141,-0.721013,-3.892973,4.080084,-4.481597,14.995494,8064.000000,0.000000,4.000000,,,,0.000000,4.000000,4.000000,4.000000,4.000000,4.000000,4.000000,4.000000,4.000000,4.000000,4.000000,4.000000,4.000000,4.000000,4.000000,4.000000,4.000000,4.000000,4.000000,4.000000,4.000000,4.000000,4.000000,4.000000,4.000000,4.000000,4.000000,4.000000,4.000000,4.000000,4.000000,4.000000,4.000000,100.000000
1614304577.661844,126.000000,0.000000,0.594742,4.613182,6.402091,-2.749267,8.683671,-5.557569,6.631479,6.444381,6.082604,21.096869,18.104443,8.405835,21.084816,30.004719,28.622818,31.415092,18.275768,25.172750,30.188290,24.388908,15.895112,19.845655,2.078877,7.984394,5.217486,5.243526,2.463669,-0.720292,0.726304,7.152927,-3.964295,14.467678,8064.000000,0.000000,4.000000,,,,0.000000,4.000000,4.000000,4.000000,4.000000,4.000000,4.000000,4.000000,4.000000,4.000000,4.000000,4.000000,4.000000,4.000000,4.000000,4.000000,4.000000,4.000000,4.000000,4.000000,4.000000,4.000000,4.000000,4.000000,4.000000,4.000000,4.000000,4.000000,4.000000,4.000000,4.000000,4.000000,4.000000,100.000000
1614304577.669493,127.000000,0.000000,0.594147,12.813697,7.421330,2.894508,9.187808,0.089015,6.624848,7.463577,10.691906,21.588591,17.060698,8.910250,18.499628,27.410612,27.055733,29.845217,8.513904,25.147577,31.696564,21.800417,21.007421,18.287348,-1.000124,15.668716,6.237910,5.751102,-1.641359,-0.719572,2.264040,10.222697,1.680695,13.940390,8064.000000,0.000000,4.000000,,,,0.000000,4.000000,4.000000,4.000000,4.000000,4.000000,4.000000,4.000000,4.000000,4.000000,4.000000,4.000000,4.000000,4.000000,4.000000,4.000000,4.000000,4.000000,4.000000,4.000000,4.000000,4.000000,4.000000,4.000000,4.000000,4.000000,4.000000,4.000000,4.000000,4.000000,4.000000,4.000000,4.000000,100.000000
1614304577.677242,0.000000,0.000000,0.593553,16.390627,14.080575,8.532640,8.152979,4.191490,6.618223,6.430473,15.809419,23.618284,15.505176,8.901340,15.404205,27.383202,25.490215,29.815371,2.864364,24.096788,28.587944,19.727335,22.012056,18.269060,-1.511945,14.627407,7.770134,9.847916,1.950026,-1.231673,2.261775,18.417603,11.422605,12.900808,0.000000,222.000000,4.000000,,,,0.000000,4.000000,4.000000,4.000000,4.000000,4.000000,4.000000,4.000000,4.000000,4.000000,4.000000,4.000000,4.000000,4.000000,4.000000,4.000000,4.000000,4.000000,4.000000,4.000000,4.000000,4.000000,4.000000,4.000000,4.000000,4.000000,4.000000,4.000000,4.000000,4.000000,4.000000,4.000000,4.000000,100.000000
1614304577.684892,1.000000,0.000000,0.592960,15.348595,20.733162,9.036927,8.657646,4.700119,6.611605,5.911222,18.357712,23.594667,17.540953,4.277053,14.363160,26.842997,16.746777,27.734274,4.399961,16.893206,21.892689,15.605043,22.502865,17.737970,-0.997612,16.151241,11.352107,16.504734,3.486537,0.308020,4.823617,24.553032,18.077848,11.862267,0.000000,198.000000,4.000000,,,,0.000000,4.000000,4.000000,4.000000,4.000000,4.000000,4.000000,4.000000,4.000000,4.000000,4.000000,4.000000,4.000000,4.000000,4.000000,4.000000,4.000000,4.000000,4.000000,4.000000,4.000000,4.000000,4.000000,4.000000,4.000000,4.000000,4.000000,4.000000,4.000000,4.000000,4.000000,4.000000,4.000000,100.000000
1614304577.692641,2.000000,0.000000,0.592367,10.205041,22.250889,8.515070,9.161809,5.208240,6.604993,7.443772,17.313713,22.545431,13.933668,1.195853,0.502643,22.200769,0.832594,14.373206,0.292997,5.594260,8.024642,-2.359280,9.659848,7.976643,-3.047897,16.135090,13.904858,18.026691,3.483051,2.871815,6.357254,21.451555,19.085411,12.363225,0.000000,197.000000,4.000000,,,,0.000000,4.000000,4.000000,4.000000,4.000000,4.000000,4.000000,4.000000,4.000000,4.000000,4.000000,4.000000,4.000000,4.000000,4.000000,4.000000,4.000000,4.000000,4.000000,4.000000,4.000000,4.000000,4.000000,4.000000,4.000000,4.000000,4.000000,4.000000,4.000000,4.000000,4.000000,4.000000,4.000000,100.000000
1614304577.700290,3.000000,0.000000,0.078954,4.553811,21.715818,9.019375,6.075724,1.100467,5.059927,4.872226,11.655375,17.394680,-7.105906,-3.420727,-25.138885,0.640107,-25.322084,-16.410398,-14.066270,-14.411334,-19.675690,-23.895382,-20.606222,-11.005692,-7.147413,3.298442,8.762748,9.803536,-1.135817,3.381763,5.325256,16.814720,18.040686,12.863682,0.000000,194.000000,4.000000,,,,0.000000,4.000000,4.000000,4.000000,4.000000,4.000000,4.000000,4.000000,4.000000,4.000000,4.000000,4.000000,4.000000,4.000000,4.000000,4.000000,4.000000,4.000000,4.000000,4.000000,4.000000,4.000000,4.000000,4.000000,4.000000,4.000000,4.000000,4.000000,4.000000,4.000000,4.000000,4.000000,4.000000,100.000000
1614304577.708039,4.000000,0.000000,0.591695,3.523616,18.617180,9.010356,1.454264,-6.592941,2.490764,-5.901877,6.002693,3.018311,-26.073160,-12.135256,-37.421440,-26.027199,-41.707020,-42.035015,-25.847076,-35.422565,-43.758579,-34.127895,-40.072796,-22.276737,-10.730009,-9.525370,-5.092169,1.075784,-9.339809,2.352741,5.832751,14.746623,18.022644,7.722613,0.000000,187.000000,4.000000,,,,0.000000,4.000000,4.000000,4.000000,4.000000,4.000000,4.000000,4.000000,4.000000,4.000000,4.000000,4.000000,4.000000,4.000000,4.000000,4.000000,4.000000,4.000000,4.000000,4.000000,4.000000,4.000000,4.000000,4.000000,4.000000,4.000000,4.000000,4.000000,4.000000,4.000000,4.000000,4.000000,4.000000,100.000000
1614304577.715688,5.000000,0.000000,1.103924,4.032913,15.008819,9.001346,-0.085652,-6.073528,2.488273,-9.485719,4.971049,-6.215477,-15.277856,-6.482094,-20.460939,-22.924250,-26.280697,-36.351952,-19.154562,-33.335857,-39.099434,-29.991205,-41.058365,-15.587794,-8.155176,-12.079947,-14.317846,-2.002215,-8.304829,3.376029,4.288457,11.142133,19.543083,1.048224,0.000000,183.000000,4.000000,,,,0.000000,4.000000,4.000000,4.000000,4.000000,4.000000,4.000000,4.000000,4.000000,4.000000,4.000000,4.000000,4.000000,4.000000,4.000000,4.000000,4.000000,4.000000,4.000000,4.000000,4.000000,4.000000,4.000000,4.000000,4.000000,4.000000,4.000000,4.000000,4.000000,4.000000,4.000000,4.000000,4.000000,100.000000
1614304577.723437,6.000000,0.000000,0.077179,3.516059,12.942528,7.453882,0.427254,-2.990531,5.049888,-0.245464,5.991719,-0.055415,5.763063,14.550029,7.764649,4.278162,2.463533,-10.161755,0.351772,-19.456369,-19.060335,-14.063778,-37.940380,-7.879899,0.058107,-12.580687,-14.303528,-3.538674,-4.706780,3.372653,-2.895319,3.951503,15.420977,1.047176,0.000000,198.000000,4.000000,,,,0.000000,4.000000,4.000000,4.000000,4.000000,4.000000,4.000000,4.000000,4.000000,4.000000,4.000000,4.000000,4.000000,4.000000,4.000000,4.000000,4.000000,4.000000,4.000000,4.000000,4.000000,4.000000,4.000000,4.000000,4.000000,4.000000,4.000000,4.000000,4.000000,4.000000,4.000000,4.000000,4.000000,100.000000
1614304577.731086,7.000000,0.000000,1.615564,3.512543,10.365482,4.882326,-0.598814,-6.577284,6.583299,7.447089,4.447266,6.098487,9.859864,24.791889,25.192781,17.094397,19.384146,13.438150,13.684753,-13.283067,-10.323327,4.411824,-26.620390,-5.820737,6.211895,-11.029645,-13.776404,-6.099238,-6.240535,2.343639,-9.559090,-7.334500,2.072222,6.174334,0.000000,224.000000,4.000000,,,,0.000000,4.000000,4.000000,4.000000,4.000000,4.000000,4.000000,4.000000,4.000000,4.000000,4.000000,4.000000,4.000000,4.000000,4.000000,4.000000,4.000000,4.000000,4.000000,4.000000,4.000000,4.000000,4.000000,4.000000,4.000000,4.000000,4.000000,4.000000,4.000000,4.000000,4.000000,4.000000,4.000000,100.000000
1614304577.738835,8.000000,0.000000,7.254974,4.021851,9.842297,4.364623,-3.162318,-6.570707,6.576716,6.414001,4.955639,5.066747,7.798722,23.228636,27.218870,15.538841,29.621172,26.245226,19.312094,-0.962091,-1.595055,14.151002,-3.004026,4.954314,6.205683,-6.403231,-14.275448,-6.605959,-0.080448,3.879757,-10.062351,-12.968191,-6.134979,7.706621,0.000000,221.000000,4.000000,,,,0.000000,4.000000,4.000000,4.000000,4.000000,4.000000,4.000000,4.000000,4.000000,4.000000,4.000000,4.000000,4.000000,4.000000,4.000000,4.000000,4.000000,4.000000,4.000000,4.000000,4.000000,4.000000,4.000000,4.000000,4.000000,4.000000,4.000000,4.000000,4.000000,4.000000,4.000000,4.000000,4.000000,100.000000
1614304577.746485,9.000000,0.000000,7.247719,4.017829,13.935019,4.360259,-4.184796,1.640992,6.570139,5.894767,5.976325,4.548860,10.355026,24.231049,27.704473,17.061764,31.130013,30.834364,23.395346,19.038870,18.919361,19.265057,13.409235,18.282694,6.199477,-4.858366,-10.671430,-5.573712,5.047837,5.927159,-9.026649,-10.391120,-4.590382,8.211735,0.000000,193.000000,4.000000,,,,0.000000,4.000000,4.000000,4.000000,4.000000,4.000000,4.000000,4.000000,4.000000,4.000000,4.000000,4.000000,4.000000,4.000000,4.000000,4.000000,4.000000,4.000000,4.000000,4.000000,4.000000,4.000000,4.000000,4.000000,4.000000,4.000000,4.000000,4.000000,4.000000,4.000000,4.000000,4.000000,4.000000,100.000000
1614304577.754234,10.000000,0.000000,-1.477478,4.013812,16.485186,4.355898,0.947594,4.716274,6.563569,6.914513,4.431887,5.569952,9.319030,16.514509,27.676767,17.044703,20.842472,30.803530,17.218105,27.737780,31.720955,18.220150,15.447107,14.674667,5.680457,-3.315046,-4.506912,-6.080959,-4.700800,2.844309,-10.043262,-10.380729,-5.611433,8.203523,0.000000,196.000000,4.000000,,,,0.000000,4.000000,4.000000,4.000000,4.000000,4.000000,4.000000,4.000000,4.000000,4.000000,4.000000,4.000000,4.000000,4.000000,4.000000,4.000000,4.000000,4.000000,4.000000,4.000000,4.000000,4.000000,4.000000,4.000000,4.000000,4.000000,4.000000,4.000000,4.000000,4.000000,4.000000,4.000000,4.000000,100.000000
1614304577.761883,11.000000,0.000000,-7.629846,5.035439,20.571264,6.915645,12.741518,4.711558,6.557005,6.907598,6.991558,6.077203,5.207147,1.626200,18.931143,18.053299,16.719067,31.798368,3.867554,24.120298,28.099489,11.535263,14.406019,3.890762,1.059392,-0.747628,-1.425482,-5.562058,-10.849945,-1.261099,-9.520399,-7.293425,-4.067360,7.682499,0.000000,201.000000,4.000000,,,,0.000000,4.000000,4.000000,4.000000,4.000000,4.000000,4.000000,4.000000,4.000000,4.000000,4.000000,4.000000,4.000000,4.000000,4.000000,4.000000,4.000000,4.000000,4.000000,4.000000,4.000000,4.000000,4.000000,4.000000,4.000000,4.000000,4.000000,4.000000,4.000000,4.000000,4.000000,4.000000,4.000000,100.000000
1614304577.769632,12.000000,0.000000,-6.596575,7.081685,31.319925,14.601037,21.446724,13.424795,6.550448,6.387870,16.215336,8.122408,5.714760,-4.529273,1.989135,20.086527,11.061321,20.484518,-5.879904,11.788486,21.404724,8.446805,14.904434,2.348409,-2.018590,-3.823804,-1.424056,-2.992393,-3.146788,-1.259838,-5.921135,5.021561,10.295682,14.341483,0.000000,182.000000,4.000000,,,,0.000000,4.000000,4.000000,4.000000,4.000000,4.000000,4.000000,4.000000,4.000000,4.000000,4.000000,4.000000,4.000000,4.000000,4.000000,4.000000,4.000000,4.000000,4.000000,4.000000,4.000000,4.000000,4.000000,4.000000,4.000000,4.000000,4.000000,4.000000,4.000000,4.000000,4.000000,4.000000,4.000000,100.000000
1614304577.777281,13.000000,0.000000,-6.589979,7.587424,36.929630,19.201820,23.476561,20.078037,6.543898,6.381482,21.840145,9.652747,1.606481,-10.165769,-18.012854,8.271568,-14.077945,-7.741095,-17.156075,-5.659199,13.691011,3.822973,14.376709,4.397343,-2.016572,-6.896903,-1.935453,-1.450939,0.958923,-0.745758,-2.325470,9.119103,20.028976,28.173296,0.000000,197.000000,4.000000,,,,0.000000,4.000000,4.000000,4.000000,4.000000,4.000000,4.000000,4.000000,4.000000,4.000000,4.000000,4.000000,4.000000,4.000000,4.000000,4.000000,4.000000,4.000000,4.000000,4.000000,4.000000,4.000000,4.000000,4.000000,4.000000,4.000000,4.000000,4.000000,4.000000,4.000000,4.000000,4.000000,4.000000,100.000000
1614304577.785130,14.000000,0.000000,-8.121850,7.579836,35.354240,19.695438,22.940264,16.981035,6.024534,6.375101,20.279844,9.130274,-10.702817,-18.873552,-33.379456,-13.787985,-38.679253,-30.810276,-25.856867,-12.833028,1.369628,-11.052645,5.131563,1.316023,-4.065837,-1.248980,-1.933517,-1.449488,-2.118959,-0.745012,-1.297503,0.904856,15.906383,35.324608,0.000000,190.000000,4.000000,,,,0.000000,4.000000,4.000000,4.000000,4.000000,4.000000,4.000000,4.000000,4.000000,4.000000,4.000000,4.000000,4.000000,4.000000,4.000000,4.000000,4.000000,4.000000,4.000000,4.000000,4.000000,4.000000,4.000000,4.000000,4.000000,4.000000,4.000000,4.000000,4.000000,4.000000,4.000000,4.000000,4.000000,100.000000
1614304577.792879,15.000000,0.000000,-5.549626,6.033795,37.882988,19.162924,22.917322,14.399952,7.044150,6.368726,19.746744,9.121143,-14.794679,-18.854679,-38.987103,-23.517786,-44.281597,-41.035877,-23.779728,-18.461220,-14.016357,-21.810822,-16.924850,-3.300678,-5.600233,-0.734911,-0.905943,-1.960859,-1.604020,1.819836,-1.809026,-1.660151,14.352015,34.263645,0.000000,190.000000,4.000000,,,,0.000000,4.000000,4.000000,4.000000,4.000000,4.000000,4.000000,4.000000,4.000000,4.000000,4.000000,4.000000,4.000000,4.000000,4.000000,4.000000,4.000000,4.000000,4.000000,4.000000,4.000000,4.000000,4.000000,4.000000,4.000000,4.000000,4.000000,4.000000,4.000000,4.000000,4.000000,4.000000,4.000000,100.000000
1614304577.800728,16.000000,0.000000,-0.415871,3.463659,42.973309,19.656580,22.894405,15.411193,9.088388,6.362357,20.752638,9.112022,-8.626038,-9.092234,-30.742989,-21.955807,-42.698856,-45.097404,-20.166206,-33.827374,-26.822853,-20.250549,-33.831001,-6.887121,-5.594633,-8.939304,-4.494780,-1.446078,-0.576774,3.356477,-1.807217,-2.171312,15.876124,28.075533,0.000000,179.000000,4.000000,,,,0.000000,4.000000,4.000000,4.000000,4.000000,4.000000,4.000000,4.000000,4.000000,4.000000,4.000000,4.000000,4.000000,4.000000,4.000000,4.000000,4.000000,4.000000,4.000000,4.000000,4.000000,4.000000,4.000000,4.000000,4.000000,4.000000,4.000000,4.000000,4.000000,4.000000,4.000000,4.000000,4.000000,100.000000
1614304577.808477,17.000000,0.000000,1.635827,4.485836,41.904694,19.124104,22.871511,15.395782,10.617762,6.355995,20.219065,9.102910,-0.412284,1.173268,-11.737885,-18.856928,-28.810001,-32.744614,-15.017834,-37.896111,-32.437057,-20.230299,-36.874096,-8.418695,-5.076218,-12.520108,-15.772337,-4.008735,-1.089018,2.840300,-1.292590,-9.861448,6.629479,13.175663,0.000000,185.000000,4.000000,,,,0.000000,4.000000,4.000000,4.000000,4.000000,4.000000,4.000000,4.000000,4.000000,4.000000,4.000000,4.000000,4.000000,4.000000,4.000000,4.000000,4.000000,4.000000,4.000000,4.000000,4.000000,4.000000,4.000000,4.000000,4.000000,4.000000,4.000000,4.000000,4.000000,4.000000,4.000000,4.000000,4.000000,100.000000
1614304577.816326,18.000000,0.000000,0.608550,8.583915,37.247406,19.104980,19.771717,14.867566,10.094323,6.349638,20.198845,9.093807,8.818898,10.402864,7.761032,-9.607303,-1.088884,-6.558024,-4.746406,-24.012060,-32.917439,-20.210070,-37.350040,-8.923098,-5.071141,-12.507588,-21.397591,-9.132931,-1.087929,2.837460,-1.804118,-13.441330,-4.659202,-6.324692,0.000000,141.000000,4.000000,,,,0.000000,4.000000,4.000000,4.000000,4.000000,4.000000,4.000000,4.000000,4.000000,4.000000,4.000000,4.000000,4.000000,4.000000,4.000000,4.000000,4.000000,4.000000,4.000000,4.000000,4.000000,4.000000,4.000000,4.000000,4.000000,4.000000,4.000000,4.000000,2.000000,4.000000,4.000000,4.000000,4.000000,83.333336
1614304577.824075,19.000000,0.000000,0.607941,12.165074,33.107594,19.085875,15.649381,14.852698,10.084229,6.343289,20.178646,9.084713,16.502386,15.520667,19.548141,6.812561,19.425024,13.448534,1.412187,-13.218818,-23.140932,-7.369346,-32.184486,-7.888533,-5.066070,-15.572004,-21.376192,-13.739182,-1.086841,2.834623,-1.802314,-14.453530,-5.680183,-12.985034,0.000000,224.000000,4.000000,,,,0.000000,4.000000,4.000000,4.000000,4.000000,4.000000,4.000000,4.000000,4.000000,4.000000,4.000000,4.000000,4.000000,4.000000,4.000000,4.000000,4.000000,4.000000,4.000000,4.000000,4.000000,4.000000,4.000000,4.000000,4.000000,4.000000,4.000000,4.000000,2.000000,4.000000,4.000000,4.000000,4.000000,83.333336
1614304577.831924,20.000000,0.000000,1.120154,11.640089,31.536026,19.066790,14.095270,13.812204,10.074144,6.336946,19.645647,9.075628,17.511526,16.017967,24.656799,19.113441,26.585087,24.204315,2.436415,-1.410728,1.497593,10.073920,-10.613840,-0.188337,-5.061004,-20.684637,-20.841995,-16.802366,-1.085754,2.831788,-1.800511,-17.003180,-4.648862,-1.177177,0.000000,207.000000,4.000000,,,,0.000000,4.000000,4.000000,4.000000,4.000000,4.000000,4.000000,4.000000,4.000000,4.000000,4.000000,4.000000,4.000000,4.000000,4.000000,4.000000,4.000000,4.000000,4.000000,4.000000,4.000000,4.000000,4.000000,4.000000,4.000000,4.000000,4.000000,4.000000,2.000000,4.000000,4.000000,4.000000,4.000000,83.333336
1614304577.839673,21.000000,0.000000,0.606213,6.500243,29.966028,19.047722,14.593995,11.234290,10.064071,6.330609,20.138823,9.066553,16.468372,17.027590,24.119322,21.658430,34.763630,33.410881,3.972440,19.616323,25.085838,17.756155,16.576262,6.991339,-5.055943,-19.638311,-12.616026,-13.708641,-1.084669,2.828956,-1.798711,-10.832330,-3.618572,12.670155,0.000000,176.000000,4.000000,,,,0.000000,4.000000,4.000000,4.000000,4.000000,4.000000,4.000000,4.000000,4.000000,4.000000,4.000000,4.000000,4.000000,4.000000,4.000000,4.000000,4.000000,4.000000,4.000000,4.000000,4.000000,4.000000,4.000000,4.000000,4.000000,4.000000,4.000000,4.000000,2.000000,4.000000,4.000000,4.000000,4.000000,83.333336
1614304577.847522,22.000000,0.000000,0.605607,0.852717,31.987343,19.028675,15.605042,10.710235,10.054007,6.324278,20.631504,9.570307,17.477545,14.446460,17.941357,19.585489,34.216045,36.454391,3.455647,33.442863,34.291523,19.276859,32.969940,7.497168,-5.050887,-7.310981,7.396591,-1.387240,-1.083584,2.826127,-1.796912,0.460554,2.026072,16.247227,0.000000,192.000000,4.000000,,,,0.000000,4.000000,4.000000,4.000000,4.000000,4.000000,4.000000,4.000000,4.000000,4.000000,4.000000,4.000000,4.000000,4.000000,4.000000,4.000000,4.000000,4.000000,4.000000,4.000000,4.000000,4.000000,4.000000,4.000000,4.000000,4.000000,4.000000,4.000000,2.000000,4.000000,4.000000,4.000000,4.000000,83.333336
1614304577.855271,23.000000,0.000000,0.605001,-0.173776,39.134842,19.522467,18.153540,11.725165,10.043952,6.317954,18.046770,9.560737,16.947247,7.765347,11.769569,21.617186,16.233112,30.264093,1.400910,33.409420,34.257229,18.744762,31.398510,8.002491,-5.045836,5.516843,18.158424,4.767993,-1.082500,2.823301,-1.795115,3.537016,7.152251,15.205339,0.000000,190.000000,4.000000,,,,0.000000,4.000000,4.000000,4.000000,4.000000,4.000000,4.000000,4.000000,4.000000,4.000000,4.000000,4.000000,4.000000,4.000000,4.000000,4.000000,4.000000,4.000000,4.000000,4.000000,4.000000,4.000000,4.000000,4.000000,4.000000,4.000000,4.000000,4.000000,2.000000,4.000000,4.000000,4.000000,4.000000,83.333336
1614304577.863120,24.000000,0.000000,0.604396,-0.173602,42.685452,18.990124,18.648207,11.200620,10.033908,6.311636,12.900518,9.038356,10.776454,3.655017,8.168056,21.082748,-0.193378,11.772290,0.373868,24.658060,24.479383,8.469607,19.059420,5.943207,-5.040791,8.075429,11.986420,-4.980364,-0.568597,2.820478,-1.793320,2.507838,7.145099,17.241417,0.000000,192.000000,4.000000,,,,0.000000,4.000000,4.000000,4.000000,4.000000,4.000000,4.000000,4.000000,4.000000,4.000000,4.000000,4.000000,4.000000,4.000000,4.000000,4.000000,4.000000,4.000000,4.000000,4.000000,4.000000,4.000000,4.000000,4.000000,4.000000,4.000000,4.000000,4.000000,2.000000,4.000000,4.000000,4.000000,4.000000,83.333336
1614304577.870869,25.000000,0.000000,0.603792,-0.173429,38.540203,18.971132,19.142380,10.163778,10.023874,6.305325,12.374797,9.542137,5.124652,2.625721,-0.045240,8.753973,-1.731646,-11.829226,-7.831634,3.094941,0.865161,-8.974760,2.630103,-6.883249,-4.522929,8.067353,2.230844,-12.154871,-1.080849,2.817657,-1.791527,1.992510,6.625133,18.249815,0.000000,163.000000,4.000000,,,,0.000000,4.000000,4.000000,4.000000,4.000000,4.000000,4.000000,4.000000,4.000000,4.000000,4.000000,4.000000,4.000000,4.000000,4.000000,4.000000,4.000000,4.000000,4.000000,4.000000,4.000000,4.000000,4.000000,4.000000,4.000000,4.000000,4.000000,4.000000,2.000000,4.000000,4.000000,4.000000,4.000000,83.333336
1614304577.878619,26.000000,0.000000,0.603188,2.390847,36.450382,19.464983,20.661697,12.204897,10.013850,6.811840,13.900884,9.532596,2.555425,-0.453828,-9.788785,-4.588114,-0.191452,-26.689192,-18.593033,-21.010717,-20.674166,-20.760656,-19.936630,-20.722521,-6.056868,6.008004,-2.386771,-7.014511,-3.131051,2.814840,-1.789735,-2.112047,7.644149,15.667463,0.000000,174.000000,4.000000,,,,0.000000,4.000000,4.000000,4.000000,4.000000,4.000000,4.000000,4.000000,4.000000,4.000000,4.000000,4.000000,4.000000,4.000000,4.000000,4.000000,4.000000,4.000000,4.000000,4.000000,4.000000,4.000000,4.000000,4.000000,4.000000,4.000000,4.000000,4.000000,2.000000,4.000000,4.000000,4.000000,4.000000,83.333336
1614304577.886368,27.000000,0.000000,0.602585,3.926918,31.285725,16.881414,10.897447,10.654230,10.003837,5.266566,10.297239,3.882037,-2.062515,-4.043118,-12.343099,-8.173269,-1.729723,-29.226604,-18.574440,-30.220476,-27.320158,-24.329639,-41.967976,-24.291540,-8.614913,-10.408260,-7.512590,-8.033138,-5.179202,2.812025,-1.787945,-4.674037,5.585223,16.677437,0.000000,200.000000,4.000000,,,,0.000000,4.000000,4.000000,4.000000,4.000000,4.000000,4.000000,4.000000,4.000000,4.000000,4.000000,4.000000,4.000000,4.000000,4.000000,4.000000,4.000000,4.000000,4.000000,4.000000,4.000000,4.000000,4.000000,4.000000,4.000000,4.000000,4.000000,4.000000,2.000000,4.000000,4.000000,4.000000,4.000000,83.333336
1614304577.894217,28.000000,0.000000,0.601982,3.410170,16.895464,12.249148,-7.574989,1.412807,9.993833,2.697197,3.620275,-5.865435,-6.675838,-3.526254,-11.817935,-13.806122,-1.215172,-27.146095,-11.889199,-29.164616,-30.882582,-24.305309,-49.105495,-22.215967,-8.093478,-24.244005,-14.171744,-18.794336,-4.661202,2.809213,-1.786157,-5.695004,3.015535,14.096657,0.000000,206.000000,4.000000,,,,0.000000,4.000000,4.000000,4.000000,4.000000,4.000000,4.000000,4.000000,4.000000,4.000000,4.000000,4.000000,4.000000,4.000000,4.000000,4.000000,4.000000,4.000000,4.000000,4.000000,4.000000,4.000000,4.000000,4.000000,4.000000,4.000000,4.000000,4.000000,2.000000,4.000000,4.000000,4.000000,4.000000,83.333336
1614304577.901966,29.000000,0.000000,0.601380,5.970863,11.237544,10.698438,-12.182799,-4.229632,9.983839,2.181679,1.052553,-9.962133,-6.669162,-3.009907,-11.806117,-22.510263,-0.701137,-28.657412,-7.261925,-30.673912,-32.902981,-23.768185,-44.441006,-17.578367,-5.521282,-20.117197,-18.260136,-21.852465,-4.656540,2.293583,-1.784371,-9.279053,2.499699,-1.814876,0.000000,205.000000,4.000000,,,,0.000000,4.000000,4.000000,4.000000,4.000000,4.000000,4.000000,4.000000,4.000000,4.000000,4.000000,4.000000,4.000000,4.000000,4.000000,4.000000,4.000000,4.000000,4.000000,4.000000,4.000000,4.000000,4.000000,4.000000,4.000000,4.000000,4.000000,4.000000,2.000000,4.000000,4.000000,4.000000,4.000000,83.333336
1614304577.909615,30.000000,0.000000,0.600779,10.580276,18.405794,11.713381,-3.965488,-0.122838,9.973855,2.692318,2.077141,-8.926530,-6.149672,-3.519718,-11.281490,-21.974934,-0.187615,-29.141575,-3.664920,-30.130417,-26.203411,-20.667494,-40.293999,-8.842840,-4.490119,-15.994516,-18.241877,-19.266510,-4.651884,3.316931,-1.782587,-12.346697,3.010020,-22.325882,0.000000,204.000000,4.000000,,,,0.000000,4.000000,4.000000,4.000000,4.000000,4.000000,4.000000,4.000000,4.000000,4.000000,4.000000,4.000000,4.000000,4.000000,4.000000,4.000000,4.000000,4.000000,4.000000,4.000000,4.000000,4.000000,4.000000,4.000000,4.000000,4.000000,4.000000,4.000000,2.000000,4.000000,4.000000,4.000000,4.000000,83.333336
1614304577.917364,31.000000,0.000000,0.600178,11.595337,17.874567,11.701668,-3.961522,4.492670,9.963881,2.689626,2.075064,-11.481706,-6.143522,-3.516198,-9.218927,-16.311934,3.402316,-14.753459,-3.148434,-16.766954,-16.433619,-7.313492,-26.920372,-1.141689,-4.998450,-18.029804,-16.685173,-20.785704,-4.647232,5.364895,-1.780804,-13.359991,3.007010,-27.431761,0.000000,202.000000,4.000000,,,,0.000000,4.000000,4.000000,4.000000,4.000000,4.000000,4.000000,4.000000,4.000000,4.000000,4.000000,4.000000,4.000000,4.000000,4.000000,4.000000,4.000000,4.000000,4.000000,4.000000,4.000000,4.000000,4.000000,4.000000,4.000000,4.000000,4.000000,4.000000,2.000000,4.000000,4.000000,4.000000,4.000000,83.333336
1614304577.925013,32.000000,0.000000,0.599578,11.583742,9.651565,11.177145,-8.572946,3.462536,9.953918,2.686936,1.560168,-13.521506,-6.137379,-3.512682,-4.081503,-12.705877,7.501478,4.748474,-3.658107,0.685711,-8.724877,11.668180,-6.893452,0.910734,-4.993452,-9.806646,-13.591564,-18.200815,-4.642585,6.897992,-1.266203,-15.910734,3.004003,-13.045355,8064.000000,0.000000,4.000000,,,,0.000000,4.000000,4.000000,4.000000,4.000000,4.000000,4.000000,4.000000,4.000000,4.000000,4.000000,4.000000,4.000000,4.000000,4.000000,4.000000,4.000000,4.000000,4.000000,4.000000,4.000000,4.000000,4.000000,4.000000,4.000000,4.000000,4.000000,4.000000,2.000000,4.000000,4.000000,4.000000,4.000000,83.333336
1614304577.932762,33.000000,0.000000,0.598978,11.572158,8.103451,11.678788,-1.897706,3.459073,9.943963,2.684249,1.558608,-6.328498,-6.644062,-2.996349,2.076425,-6.539325,6.981156,8.333469,-0.577525,7.864512,6.155643,19.861641,2.344211,-0.628638,-4.988458,3.023673,-7.936947,-8.951846,-4.637942,6.378273,-1.777757,-16.407644,3.000999,10.044614,8064.000000,0.000000,4.000000,,,,0.000000,4.000000,4.000000,4.000000,4.000000,4.000000,4.000000,4.000000,4.000000,4.000000,4.000000,4.000000,4.000000,4.000000,4.000000,4.000000,4.000000,4.000000,4.000000,4.000000,4.000000,4.000000,4.000000,4.000000,4.000000,4.000000,4.000000,4.000000,2.000000,4.000000,4.000000,4.000000,4.000000,83.333336
1614304577.940411,34.000000,0.000000,0.598379,8.996484,12.710732,11.667109,7.847782,4.481255,9.934019,2.681565,1.557050,1.882959,-4.586136,-2.993352,4.638451,1.159522,6.974175,7.299495,3.525616,12.984853,26.662308,18.816137,4.393149,0.397632,-4.983469,4.559111,0.788938,-3.301868,-4.633305,6.371895,-1.775980,-13.314313,2.997998,23.367903,8064.000000,0.000000,4.000000,,,,0.000000,4.000000,4.000000,4.000000,4.000000,4.000000,4.000000,4.000000,4.000000,4.000000,4.000000,4.000000,4.000000,4.000000,4.000000,4.000000,4.000000,4.000000,4.000000,4.000000,4.000000,4.000000,4.000000,4.000000,4.000000,4.000000,4.000000,4.000000,2.000000,4.000000,4.000000,4.000000,4.000000,83.333336
1614304577.948160,35.000000,0.000000,0.597781,4.372102,15.262124,11.655442,9.378395,3.963953,9.924086,2.678884,2.068313,2.906717,0.033835,-3.503180,4.120992,4.748106,7.992842,11.907580,7.624655,20.664175,34.327953,19.310143,10.542603,0.397234,-4.978486,4.041731,5.916355,-5.349849,-4.628671,6.878344,-1.261383,-11.762537,2.995000,12.575304,8064.000000,0.000000,4.000000,,,,0.000000,4.000000,4.000000,4.000000,4.000000,4.000000,4.000000,4.000000,4.000000,4.000000,4.000000,4.000000,4.000000,4.000000,4.000000,4.000000,4.000000,4.000000,4.000000,4.000000,4.000000,4.000000,4.000000,4.000000,4.000000,4.000000,4.000000,4.000000,2.000000,4.000000,4.000000,4.000000,4.000000,83.333336
1614304577.955810,36.000000,0.000000,0.597183,3.342089,16.272503,11.643787,7.317735,3.959990,9.914162,2.676205,1.040604,1.365349,2.597904,-2.474036,3.604050,5.256178,4.395105,7.280288,10.693954,15.002486,25.062855,15.701088,7.455136,-3.705727,-4.973508,7.627433,1.807874,-10.472704,-4.624043,4.820184,-3.824224,-12.263595,2.992005,-6.411630,8064.000000,0.000000,4.000000,,,,0.000000,4.000000,4.000000,4.000000,4.000000,4.000000,4.000000,4.000000,4.000000,4.000000,4.000000,4.000000,4.000000,4.000000,4.000000,4.000000,4.000000,4.000000,4.000000,4.000000,4.000000,4.000000,4.000000,4.000000,4.000000,4.000000,4.000000,4.000000,2.000000,4.000000,4.000000,4.000000,4.000000,83.333336
1614304577.963559,37.000000,0.000000,0.596586,4.364388,16.769051,10.093682,8.336059,3.956029,9.904247,2.673528,2.065204,2.389624,1.569665,0.092541,4.113267,5.250922,-0.224674,-5.547505,11.708900,-0.909953,9.653177,6.967438,-8.962575,-7.804585,-4.968534,3.517242,-6.399062,-14.564795,-4.619418,2.764081,-8.435784,-12.251331,2.989013,-12.559065,8064.000000,0.000000,4.000000,,,,0.000000,4.000000,4.000000,4.000000,4.000000,4.000000,4.000000,4.000000,4.000000,4.000000,4.000000,4.000000,4.000000,4.000000,4.000000,4.000000,4.000000,4.000000,4.000000,4.000000,4.000000,4.000000,4.000000,4.000000,4.000000,4.000000,4.000000,4.000000,2.000000,4.000000,4.000000,4.000000,4.000000,83.333336
1614304577.971208,38.000000,0.000000,0.595990,3.334383,16.752281,8.032306,8.327723,3.952074,9.894343,2.670855,8.216985,2.387235,1.568095,1.118090,3.596333,5.245671,-0.737270,-9.644522,11.697191,-5.524427,-3.176989,0.806625,-17.671562,-8.822422,-4.963566,-5.717044,-9.469586,-16.601513,-4.614799,2.248497,-9.452990,-11.726259,2.986024,-13.572146,8064.000000,0.000000,4.000000,,,,0.000000,4.000000,4.000000,4.000000,4.000000,4.000000,4.000000,4.000000,4.000000,4.000000,4.000000,4.000000,4.000000,4.000000,4.000000,4.000000,4.000000,4.000000,4.000000,4.000000,4.000000,4.000000,4.000000,4.000000,4.000000,4.000000,4.000000,4.000000,2.000000,4.000000,4.000000,4.000000,4.000000,83.333336
1614304577.978957,39.000000,0.000000,0.595394,3.843869,16.222710,7.511453,7.806574,3.948121,9.884449,2.668184,13.336973,1.872027,2.079348,0.604151,3.592737,4.727605,-0.736533,-8.096416,11.685494,-11.159928,-13.943043,-5.348028,-16.115429,-8.300779,-4.958602,-9.301071,-9.972937,-16.584911,-5.123004,2.759069,-8.930717,-12.227354,2.983038,-12.020113,8192.000000,0.000000,4.000000,,,,0.000000,4.000000,4.000000,4.000000,4.000000,4.000000,4.000000,4.000000,4.000000,4.000000,4.000000,4.000000,4.000000,4.000000,4.000000,4.000000,4.000000,4.000000,4.000000,4.000000,4.000000,4.000000,4.000000,4.000000,4.000000,4.000000,4.000000,4.000000,2.000000,4.000000,4.000000,4.000000,4.000000,83.333336
1614304577.986606,40.000000,0.000000,0.594798,4.352846,15.693666,8.016763,7.798767,3.944173,9.874564,2.665516,12.810816,1.357334,1.564448,0.603547,3.589144,4.722877,-0.735797,-9.113960,10.135347,-28.584665,-22.134228,-11.496526,-22.765980,-8.292479,-4.953643,-8.778950,-9.962964,-16.055506,-4.605061,2.243489,-8.921785,-13.240767,3.492875,0.299599,8064.000000,0.000000,4.000000,,,,0.000000,4.000000,4.000000,4.000000,4.000000,4.000000,4.000000,4.000000,4.000000,4.000000,4.000000,4.000000,4.000000,4.000000,4.000000,4.000000,4.000000,4.000000,4.000000,4.000000,4.000000,4.000000,4.000000,4.000000,4.000000,4.000000,4.000000,4.000000,2.000000,4.000000,4.000000,4.000000,4.000000,83.333336
1614304577.994355,41.000000,0.000000,0.594203,-0.779712,17.216434,7.495925,7.278148,3.940229,9.864690,2.662850,13.823646,2.381618,1.562883,0.602943,3.585555,4.205334,-0.222240,-9.104847,6.535468,-31.633005,-26.214657,-13.536311,-34.025265,-8.284185,-4.948690,-7.231709,-9.953001,-17.577911,-4.600456,2.754066,-8.912864,-15.278809,2.463741,4.401864,8064.000000,0.000000,4.000000,,,,0.000000,4.000000,4.000000,4.000000,4.000000,4.000000,4.000000,4.000000,4.000000,4.000000,4.000000,4.000000,4.000000,4.000000,4.000000,4.000000,4.000000,4.000000,4.000000,4.000000,4.000000,4.000000,4.000000,4.000000,4.000000,4.000000,4.000000,4.000000,2.000000,4.000000,4.000000,4.000000,4.000000,83.333336
1614304578.002004,42.000000,0.000000,0.593609,-3.855856,15.660756,8.001249,7.783690,3.936289,8.316363,2.660187,11.758540,1.353596,1.561320,0.602340,3.581969,4.201128,-1.247659,-7.557280,3.964830,-17.242397,-20.034597,-13.009954,-27.324574,-8.788722,-5.456562,-9.275760,-10.455869,-20.637257,-5.621497,2.751312,-9.416772,-17.827633,-0.102825,-16.628180,8064.000000,0.000000,4.000000,,,,0.000000,4.000000,4.000000,4.000000,4.000000,4.000000,4.000000,4.000000,4.000000,4.000000,4.000000,4.000000,4.000000,4.000000,4.000000,4.000000,4.000000,4.000000,4.000000,4.000000,4.000000,4.000000,4.000000,4.000000,4.000000,4.000000,4.000000,4.000000,2.000000,4.000000,4.000000,4.000000,4.000000,83.333336
1614304578.009754,43.000000,0.000000,0.080195,1.789026,13.080993,7.480428,7.775907,3.932353,6.256765,2.144707,3.541654,-2.237502,1.559759,0.601738,3.065567,3.684107,-0.220770,-6.011261,3.448045,-5.430283,1.011079,-5.304637,-4.733146,-5.190190,-5.963926,-15.420330,-9.932592,-16.514055,-4.077414,2.235740,-8.894534,-14.732882,-1.128363,-28.919243,8064.000000,0.000000,4.000000,,,,0.000000,4.000000,4.000000,4.000000,4.000000,4.000000,4.000000,4.000000,4.000000,4.000000,4.000000,4.000000,4.000000,4.000000,4.000000,4.000000,4.000000,4.000000,4.000000,4.000000,4.000000,4.000000,4.000000,4.000000,4.000000,4.000000,4.000000,4.000000,2.000000,4.000000,4.000000,4.000000,4.000000,83.333336
1614304578.017403,44.000000,0.000000,0.592935,7.428262,18.196117,7.985768,7.255310,3.928420,5.737688,2.655383,4.050932,-0.183982,3.096661,0.601136,4.088142,4.706064,6.446117,-0.877045,3.444597,7.908481,19.471607,10.085283,9.630562,3.020129,-2.881039,-10.789525,-4.281634,-8.292413,0.542048,3.259146,-6.834358,-5.487380,-1.640055,-16.582632,8064.000000,0.000000,4.000000,,,,0.000000,4.000000,4.000000,4.000000,4.000000,4.000000,4.000000,4.000000,4.000000,4.000000,4.000000,4.000000,4.000000,4.000000,4.000000,4.000000,4.000000,4.000000,4.000000,4.000000,4.000000,4.000000,4.000000,4.000000,4.000000,4.000000,4.000000,4.000000,2.000000,4.000000,4.000000,4.000000,4.000000,83.333336
1614304578.025252,45.000000,0.000000,2.643625,7.933655,26.895870,10.029064,7.760875,3.924492,6.244771,2.652727,13.790471,6.995689,5.144846,0.600535,6.648157,7.265460,11.567876,4.764858,3.953973,20.208265,21.503416,19.305967,10.646572,6.606852,-0.826876,5.631521,3.414955,-4.694377,3.618429,5.307168,-4.776241,2.210416,-0.612774,-0.155793,8064.000000,0.000000,4.000000,,,,0.000000,4.000000,4.000000,4.000000,4.000000,4.000000,4.000000,4.000000,4.000000,4.000000,4.000000,4.000000,4.000000,4.000000,4.000000,4.000000,4.000000,4.000000,4.000000,4.000000,4.000000,4.000000,4.000000,4.000000,4.000000,4.000000,4.000000,4.000000,2.000000,4.000000,4.000000,4.000000,4.000000,83.333336
1614304578.033001,46.000000,0.000000,4.179442,7.925721,28.920256,11.044676,10.830038,3.920567,6.238526,1.624433,17.366425,10.065617,5.652522,0.599935,7.667150,10.335118,10.530667,6.298554,3.437198,16.085493,21.994734,18.261021,9.097465,7.625886,-2.877331,11.779736,8.539745,-2.638401,2.589170,6.840323,-5.284286,3.233846,4.003223,16.254620,8064.000000,0.000000,4.000000,,,,0.000000,4.000000,4.000000,4.000000,4.000000,4.000000,4.000000,4.000000,4.000000,4.000000,4.000000,4.000000,4.000000,4.000000,4.000000,4.000000,4.000000,4.000000,4.000000,4.000000,4.000000,4.000000,4.000000,4.000000,4.000000,4.000000,4.000000,4.000000,2.000000,4.000000,4.000000,4.000000,4.000000,83.333336
1614304578.040850,47.000000,0.000000,4.175263,3.302411,27.352873,8.469529,11.332028,3.916647,5.719467,3.161271,15.810596,8.517089,4.621228,0.599335,7.146662,15.452988,11.032957,13.984564,3.433761,15.043766,30.690687,17.729939,12.165290,11.720824,-0.310351,10.742315,12.120950,4.030904,2.073760,6.320662,-5.279001,4.256253,7.076143,33.674263,8064.000000,0.000000,4.000000,,,,0.000000,4.000000,4.000000,4.000000,4.000000,4.000000,4.000000,4.000000,4.000000,4.000000,4.000000,4.000000,4.000000,4.000000,4.000000,4.000000,4.000000,4.000000,4.000000,4.000000,4.000000,4.000000,4.000000,4.000000,4.000000,4.000000,4.000000,4.000000,2.000000,4.000000,4.000000,4.000000,4.000000,83.333336
1614304578.048599,48.000000,0.000000,6.222370,-3.367558,27.325521,6.922598,11.320696,3.912730,6.226568,7.773494,16.820427,9.021393,5.642248,0.598735,7.139515,22.617022,15.124488,22.175707,8.558533,23.233850,32.711281,20.276312,17.794149,14.786027,9.433549,18.936701,12.621649,6.590976,5.661430,6.314342,-5.273722,6.816100,7.069067,31.589306,8064.000000,0.000000,4.000000,,,,0.000000,4.000000,4.000000,4.000000,4.000000,4.000000,4.000000,4.000000,4.000000,4.000000,4.000000,4.000000,4.000000,4.000000,4.000000,4.000000,4.000000,4.000000,4.000000,4.000000,4.000000,4.000000,4.000000,4.000000,4.000000,4.000000,4.000000,4.000000,2.000000,4.000000,4.000000,4.000000,4.000000,83.333336
1614304578.056448,49.000000,0.000000,8.267429,-2.851370,27.811016,7.941316,13.873478,3.908817,6.220341,10.329823,15.777966,9.525192,7.687888,0.598137,7.645196,23.620047,14.083723,13.948403,15.729461,16.031130,22.422157,16.666290,17.263535,14.771241,14.552320,27.122892,12.096207,5.558744,10.271153,6.820848,-5.268448,6.296463,7.061998,13.608999,8064.000000,0.000000,4.000000,,,,0.000000,4.000000,4.000000,4.000000,4.000000,4.000000,4.000000,4.000000,4.000000,4.000000,4.000000,4.000000,4.000000,4.000000,4.000000,4.000000,4.000000,4.000000,4.000000,4.000000,4.000000,4.000000,4.000000,4.000000,4.000000,4.000000,4.000000,4.000000,2.000000,4.000000,4.000000,4.000000,4.000000,83.333336
1614304578.064197,50.000000,0.000000,7.746342,0.228404,27.270384,8.446196,14.885245,3.904909,6.214121,9.806673,13.198085,9.002846,9.218661,0.597539,7.637551,17.955400,7.915793,-0.424519,13.662450,4.733047,12.143325,8.444496,7.502682,14.243649,13.512128,24.531668,13.622572,6.578826,10.260882,6.301206,-5.263180,5.777346,5.003654,-1.789225,8064.000000,0.000000,4.000000,,,,0.000000,4.000000,4.000000,4.000000,4.000000,4.000000,4.000000,4.000000,4.000000,4.000000,4.000000,4.000000,4.000000,4.000000,4.000000,4.000000,4.000000,4.000000,4.000000,4.000000,4.000000,4.000000,4.000000,4.000000,4.000000,4.000000,4.000000,4.000000,2.000000,4.000000,4.000000,4.000000,4.000000,83.333336
1614304578.072046,51.000000,0.000000,7.738595,0.228176,20.063627,6.386467,11.793437,3.901004,6.207907,9.796865,12.672067,9.506664,8.696622,0.596941,7.117093,15.886163,3.805313,-2.475377,5.956480,4.728314,2.387592,1.769385,-1.222769,9.614020,12.985795,15.789186,8.993565,0.418401,7.173698,3.730803,-5.257917,5.771569,-1.668017,-15.633590,8064.000000,0.000000,4.000000,,,,0.000000,4.000000,4.000000,4.000000,4.000000,4.000000,4.000000,4.000000,4.000000,4.000000,4.000000,4.000000,4.000000,4.000000,4.000000,4.000000,4.000000,4.000000,4.000000,4.000000,4.000000,4.000000,4.000000,4.000000,4.000000,4.000000,4.000000,4.000000,2.000000,4.000000,4.000000,4.000000,4.000000,83.333336
1614304578.079795,52.000000,0.000000,7.730856,-0.284873,9.787153,3.815978,10.756002,3.897103,6.201699,10.299890,11.120933,8.984337,9.200747,0.596344,7.622797,15.357456,1.750226,0.091201,4.412061,-6.045645,-9.922487,-3.873410,-2.760008,3.450561,11.434347,5.004167,-5.374403,-10.351248,6.140883,2.188610,-5.252659,5.765797,-5.768913,-20.233341,8064.000000,0.000000,4.000000,,,,0.000000,4.000000,4.000000,4.000000,4.000000,4.000000,4.000000,4.000000,4.000000,4.000000,4.000000,4.000000,4.000000,4.000000,4.000000,4.000000,4.000000,4.000000,4.000000,4.000000,4.000000,4.000000,4.000000,4.000000,4.000000,4.000000,4.000000,4.000000,2.000000,4.000000,4.000000,4.000000,4.000000,83.333336
1614304578.087644,53.000000,0.000000,7.723126,-0.284588,9.777366,5.863444,11.770887,3.893206,6.195497,9.776770,9.571350,8.975352,8.165904,0.595748,7.615174,9.701073,0.210014,-1.447352,4.407650,-20.911394,-14.015129,-8.997742,-2.244427,0.883007,5.781888,-1.667504,-9.471593,-4.699871,6.134743,2.699242,-5.247406,5.760031,-4.224682,-4.315672,8064.000000,0.000000,4.000000,,,,0.000000,4.000000,4.000000,4.000000,4.000000,4.000000,4.000000,4.000000,4.000000,4.000000,4.000000,4.000000,4.000000,4.000000,4.000000,4.000000,4.000000,4.000000,4.000000,4.000000,4.000000,4.000000,4.000000,4.000000,4.000000,4.000000,4.000000,4.000000,2.000000,4.000000,4.000000,4.000000,4.000000,83.333336
1614304578.095393,54.000000,0.000000,7.715403,0.228517,15.408614,8.934504,11.246296,3.889312,6.189301,9.766993,10.587420,9.479198,5.593636,-0.943310,4.017815,3.537526,-0.815837,-2.471545,-3.289066,-12.172534,-8.872909,-9.501564,-2.242183,-1.169158,1.673542,-1.153016,0.794289,11.715085,6.128608,2.696543,-5.242159,5.754271,-1.143534,12.611721,8064.000000,0.000000,4.000000,,,,0.000000,4.000000,4.000000,4.000000,4.000000,4.000000,4.000000,4.000000,4.000000,4.000000,4.000000,4.000000,4.000000,4.000000,4.000000,4.000000,4.000000,4.000000,4.000000,4.000000,4.000000,4.000000,4.000000,4.000000,4.000000,4.000000,4.000000,4.000000,2.000000,4.000000,4.000000,4.000000,4.000000,83.333336
1614304578.103242,55.000000,0.000000,7.707687,0.741109,14.880384,6.361467,10.722230,4.398243,6.183112,9.757225,9.038371,6.392795,4.562401,-2.480828,-2.140049,3.533988,-2.353483,-1.443433,-7.901162,2.198612,-4.248652,-8.979242,-2.239941,-1.680809,1.671868,-1.664684,5.921700,10.164908,5.609659,2.693846,-5.236917,5.748517,-0.629570,17.214493,8064.000000,0.000000,4.000000,,,,0.000000,4.000000,4.000000,4.000000,4.000000,4.000000,4.000000,4.000000,4.000000,4.000000,4.000000,4.000000,4.000000,4.000000,4.000000,4.000000,4.000000,4.000000,4.000000,4.000000,4.000000,4.000000,4.000000,4.000000,4.000000,4.000000,4.000000,4.000000,2.000000,4.000000,4.000000,4.000000,4.000000,83.333336
1614304578.110991,56.000000,0.000000,7.699979,-0.798094,12.301402,1.226900,11.737148,2.855384,6.176929,7.696186,5.439589,1.771018,5.070660,-4.016809,-4.189191,4.043275,-4.402411,-0.416348,-4.816337,0.657952,-2.193121,-8.457442,-2.750521,-1.166308,2.183017,-1.663019,1.813214,-6.255513,6.116869,2.691152,-5.231680,5.742768,-1.654582,16.171638,8064.000000,0.000000,4.000000,,,,0.000000,4.000000,4.000000,4.000000,4.000000,4.000000,4.000000,4.000000,4.000000,4.000000,4.000000,4.000000,4.000000,4.000000,4.000000,4.000000,4.000000,4.000000,4.000000,4.000000,4.000000,4.000000,4.000000,4.000000,4.000000,4.000000,4.000000,4.000000,2.000000,4.000000,4.000000,4.000000,4.000000,83.333336
1614304578.118840,57.000000,0.000000,7.692279,1.253986,12.289101,-0.312788,9.674129,0.288426,6.170752,5.637208,4.921329,1.769247,5.065589,-2.987151,-4.185002,4.039232,-4.398009,-2.980035,-4.298700,-3.958090,-1.165287,-3.320780,-0.183668,-2.190782,1.668013,3.466849,0.272939,-9.839001,5.597932,2.688461,-5.226448,5.737026,-0.114466,6.924697,8064.000000,0.000000,4.000000,,,,0.000000,4.000000,4.000000,4.000000,4.000000,4.000000,4.000000,4.000000,4.000000,4.000000,4.000000,4.000000,4.000000,4.000000,4.000000,4.000000,4.000000,4.000000,4.000000,4.000000,4.000000,4.000000,4.000000,4.000000,4.000000,4.000000,4.000000,4.000000,2.000000,4.000000,4.000000,4.000000,4.000000,83.333336
1614304578.126589,58.000000,0.000000,7.684587,11.509143,8.687068,0.713166,5.049070,-0.224683,6.164581,5.631571,4.916408,1.767478,4.547703,0.605580,-5.206458,4.035192,-4.906432,-6.053977,-2.755940,-3.441312,-1.676942,3.349208,5.970362,1.401152,3.204807,7.053126,1.811128,-2.649674,6.617975,2.685773,-5.221222,5.731288,5.013854,-1.800176,8064.000000,0.000000,4.000000,,,,0.000000,4.000000,4.000000,4.000000,4.000000,4.000000,4.000000,4.000000,4.000000,4.000000,4.000000,4.000000,4.000000,4.000000,4.000000,4.000000,4.000000,4.000000,4.000000,4.000000,4.000000,4.000000,4.000000,4.000000,4.000000,4.000000,4.000000,4.000000,2.000000,4.000000,4.000000,4.000000,4.000000,83.333336
1614304578.134438,59.000000,0.000000,7.676903,15.087378,5.088637,0.199632,2.992739,-0.224458,6.158417,6.138760,4.911491,-0.798393,5.055975,4.194718,-1.098687,1.979875,-3.875884,-0.919719,6.477585,0.151873,-0.649624,5.397141,10.066956,10.630520,5.765704,7.046072,1.809317,-1.108563,8.662640,2.683087,-5.216001,5.725557,5.521660,3.329829,8064.000000,0.000000,4.000000,,,,0.000000,4.000000,4.000000,4.000000,4.000000,4.000000,4.000000,4.000000,4.000000,4.000000,4.000000,4.000000,4.000000,4.000000,4.000000,4.000000,4.000000,4.000000,4.000000,4.000000,4.000000,4.000000,4.000000,4.000000,4.000000,4.000000,4.000000,4.000000,2.000000,4.000000,4.000000,4.000000,4.000000,83.333336
1614304578.142187,60.000000,0.000000,6.130764,4.815879,5.083549,0.199432,2.989747,-0.224234,6.152258,6.132621,5.932220,6.894713,4.538099,4.703344,5.056257,5.567639,1.769017,8.824791,15.189056,2.715824,2.427949,5.904564,10.056889,15.235274,6.272759,6.526206,1.294687,-2.645916,10.192438,2.680404,-5.210784,5.719832,2.952036,7.429063,8064.000000,0.000000,4.000000,,,,0.000000,4.000000,4.000000,4.000000,4.000000,4.000000,4.000000,4.000000,4.000000,4.000000,4.000000,4.000000,4.000000,4.000000,4.000000,4.000000,4.000000,4.000000,4.000000,4.000000,4.000000,4.000000,4.000000,4.000000,4.000000,4.000000,4.000000,4.000000,2.000000,4.000000,4.000000,4.000000,4.000000,83.333336
1614304578.149836,61.000000,0.000000,4.073351,-0.317142,4.565644,3.788976,3.499577,2.340093,6.146106,5.100847,1.823724,16.631409,5.046381,3.672999,8.128124,13.767200,6.895453,9.328787,16.199509,-3.440738,-0.138582,4.360198,9.534011,14.707218,6.779307,6.519680,0.780572,-2.130450,9.669425,2.677724,-5.205574,5.714112,2.436264,-1.296314,8064.000000,0.000000,4.000000,,,,0.000000,4.000000,4.000000,4.000000,4.000000,4.000000,4.000000,4.000000,4.000000,4.000000,4.000000,4.000000,4.000000,4.000000,4.000000,4.000000,4.000000,4.000000,4.000000,4.000000,4.000000,4.000000,4.000000,4.000000,4.000000,4.000000,4.000000,4.000000,2.000000,4.000000,4.000000,4.000000,4.000000,83.333336
1614304578.157585,62.000000,0.000000,3.556458,2.247278,5.073899,7.374931,2.983257,3.876214,6.139960,6.121387,-0.742202,8.922469,7.605438,5.720609,10.171278,15.291894,8.427020,5.729714,15.670488,-3.950118,-1.676905,1.791735,11.575759,14.692512,6.259707,8.051621,1.805432,-1.102678,10.172576,2.675046,-5.200368,5.708398,2.433827,-8.474505,8064.000000,0.000000,4.000000,,,,0.000000,4.000000,4.000000,4.000000,4.000000,4.000000,4.000000,4.000000,4.000000,4.000000,4.000000,4.000000,4.000000,4.000000,4.000000,4.000000,4.000000,4.000000,4.000000,4.000000,4.000000,4.000000,4.000000,4.000000,4.000000,4.000000,4.000000,4.000000,2.000000,4.000000,4.000000,4.000000,4.000000,83.333336
1614304578.165235,63.000000,0.000000,4.065722,4.296313,9.684210,8.393197,2.980274,3.872338,6.133820,8.679369,3.873925,2.246880,9.649115,7.766170,14.776491,19.379166,10.982696,15.467574,15.654818,11.438448,9.094003,8.456610,18.743670,14.677818,6.253448,11.120493,4.367730,-2.127217,10.162404,2.159550,-5.195168,5.702690,3.457035,-7.953210,8064.000000,0.000000,4.000000,,,,0.000000,4.000000,4.000000,4.000000,4.000000,4.000000,4.000000,4.000000,4.000000,4.000000,4.000000,4.000000,4.000000,4.000000,4.000000,4.000000,4.000000,4.000000,4.000000,4.000000,4.000000,4.000000,4.000000,4.000000,4.000000,4.000000,4.000000,4.000000,2.000000,4.000000,4.000000,4.000000,4.000000,83.333336
1614304578.172984,64.000000,0.000000,4.061656,7.881760,11.725808,10.948907,8.105499,6.432568,6.127687,9.183510,7.459795,16.090788,8.613824,7.245584,18.351460,34.744404,14.561456,31.349543,16.151983,24.760342,23.443884,22.807127,22.314671,15.175961,7.272835,10.083732,3.850541,-1.099448,8.100960,2.670211,-5.189972,6.209807,8.068962,-0.765770,0.000000,195.000000,4.000000,,,,0.000000,4.000000,4.000000,4.000000,4.000000,4.000000,4.000000,4.000000,4.000000,4.000000,4.000000,4.000000,4.000000,4.000000,4.000000,4.000000,4.000000,4.000000,4.000000,4.000000,4.000000,4.000000,4.000000,4.000000,4.000000,4.000000,4.000000,4.000000,2.000000,4.000000,4.000000,4.000000,4.000000,83.333336
1614304578.180633,65.000000,0.000000,4.057594,14.027724,13.252543,14.527701,18.353804,10.528700,6.121559,10.199967,10.529258,28.895210,9.118031,6.212697,19.871569,37.786579,16.598177,34.907936,15.623011,23.197121,24.446081,24.835602,10.497484,14.135144,3.675819,10.073647,1.795409,1.465754,7.067217,5.231644,-5.184783,4.665136,10.112175,14.106791,0.000000,194.000000,4.000000,,,,0.000000,4.000000,4.000000,4.000000,4.000000,4.000000,4.000000,4.000000,4.000000,4.000000,4.000000,4.000000,4.000000,4.000000,4.000000,4.000000,4.000000,4.000000,4.000000,4.000000,4.000000,4.000000,4.000000,4.000000,4.000000,4.000000,4.000000,4.000000,2.000000,4.000000,4.000000,4.000000,4.000000,83.333336
1614304578.188382,66.000000,0.000000,4.053536,15.552158,18.880316,16.051636,23.463655,11.543812,6.115437,13.266690,17.698215,27.840673,9.621734,1.591099,12.159389,21.338537,12.479014,27.180721,5.350977,13.943154,14.678044,10.964613,-10.538654,3.864599,-6.584268,12.114857,1.280793,2.489929,5.008868,6.764874,-5.179598,2.609189,11.127705,29.990120,0.000000,197.000000,4.000000,,,,0.000000,4.000000,4.000000,4.000000,4.000000,4.000000,4.000000,4.000000,4.000000,4.000000,4.000000,4.000000,4.000000,4.000000,4.000000,4.000000,4.000000,4.000000,4.000000,4.000000,4.000000,4.000000,4.000000,4.000000,4.000000,4.000000,4.000000,4.000000,2.000000,4.000000,4.000000,4.000000,4.000000,83.333336
1614304578.196031,67.000000,0.000000,4.049483,15.023786,23.476822,15.522763,22.927370,11.019448,6.109322,11.714962,19.218979,26.787191,5.509547,-9.692543,-3.750206,5.419764,-3.943721,10.743284,-11.064630,1.108698,1.842854,-3.918146,-28.989655,-11.523881,-17.859734,-2.256233,0.766691,2.487439,-1.662807,6.245288,-5.174418,2.093759,13.680679,37.139618,0.000000,174.000000,4.000000,,,,0.000000,4.000000,4.000000,4.000000,4.000000,4.000000,4.000000,4.000000,4.000000,4.000000,4.000000,4.000000,4.000000,4.000000,4.000000,4.000000,4.000000,4.000000,4.000000,4.000000,4.000000,4.000000,4.000000,4.000000,4.000000,4.000000,4.000000,4.000000,2.000000,4.000000,4.000000,4.000000,4.000000,83.333336
1614304578.203780,68.000000,0.000000,4.045434,14.495941,23.966166,14.994420,21.878803,11.008429,6.103212,6.575042,13.045914,24.709122,-2.188270,-18.400799,-18.105431,-10.483092,-22.401316,-12.344382,-19.771515,-12.225743,-10.466681,-16.221920,-40.755535,-19.717485,-24.508541,-23.279617,-2.823819,1.972131,-4.738068,6.239043,-5.169244,2.604486,14.179819,30.948631,0.000000,189.000000,4.000000,,,,0.000000,4.000000,4.000000,4.000000,4.000000,4.000000,4.000000,4.000000,4.000000,4.000000,4.000000,4.000000,4.000000,4.000000,4.000000,4.000000,4.000000,4.000000,4.000000,4.000000,4.000000,4.000000,4.000000,4.000000,4.000000,4.000000,4.000000,4.000000,2.000000,4.000000,4.000000,4.000000,4.000000,83.333336
1614304578.211429,69.000000,0.000000,4.041388,15.507087,30.608866,15.492246,22.369743,11.510241,6.097109,5.542826,12.007227,12.889542,-6.288646,-19.408039,-24.241171,-27.908506,-29.045582,-27.716654,-19.751743,-16.316082,-13.533137,-25.436468,-40.201962,-20.210588,-24.996853,-21.205055,-3.846636,1.970159,0.394875,6.232804,-3.112792,2.089061,15.191280,18.609991,0.000000,182.000000,4.000000,,,,0.000000,4.000000,4.000000,4.000000,4.000000,4.000000,4.000000,4.000000,4.000000,4.000000,4.000000,4.000000,4.000000,4.000000,4.000000,4.000000,4.000000,4.000000,4.000000,4.000000,4.000000,4.000000,4.000000,4.000000,4.000000,4.000000,4.000000,4.000000,2.000000,4.000000,4.000000,4.000000,4.000000,83.333336
1614304578.219178,70.000000,0.000000,4.037347,22.158247,36.732101,15.989574,23.373014,11.498731,6.091012,5.537283,13.020861,1.081780,-6.795177,-17.850170,-23.704109,-29.931881,-26.965254,-29.740219,-19.219170,-14.761305,-14.032425,-27.975134,-34.520733,-20.190378,-19.330832,-7.337697,-1.791507,2.993830,1.932942,6.226571,-0.545577,2.086972,18.765833,11.411893,0.000000,198.000000,4.000000,,,,0.000000,4.000000,4.000000,4.000000,4.000000,4.000000,4.000000,4.000000,4.000000,4.000000,4.000000,4.000000,4.000000,4.000000,4.000000,4.000000,4.000000,4.000000,4.000000,4.000000,4.000000,4.000000,4.000000,4.000000,4.000000,4.000000,4.000000,4.000000,2.000000,4.000000,4.000000,4.000000,4.000000,83.333336
1614304578.226828,71.000000,0.000000,4.033309,21.110447,23.874857,12.383841,19.247078,9.435949,6.084921,2.967643,10.956558,-3.534687,-6.275562,-13.216935,-21.116302,-23.748102,-28.476749,-30.223299,-17.661489,-17.310646,-22.736341,-29.998440,-34.486214,-20.683008,-13.670474,-4.253436,-4.353818,0.939554,-1.145914,6.220345,-1.570673,1.059244,9.003477,6.785097,0.000000,203.000000,4.000000,,,,0.000000,4.000000,4.000000,4.000000,4.000000,4.000000,4.000000,4.000000,4.000000,4.000000,4.000000,4.000000,4.000000,4.000000,4.000000,4.000000,4.000000,4.000000,4.000000,4.000000,4.000000,4.000000,4.000000,4.000000,4.000000,4.000000,4.000000,4.000000,2.000000,4.000000,4.000000,4.000000,4.000000,83.333336
1614304578.234577,72.000000,0.000000,4.029276,7.756003,3.338162,6.217611,7.432960,5.836770,5.566016,1.939035,8.381498,-2.505511,-7.807748,-5.511410,-15.966981,-24.237175,-27.935453,-27.116154,-12.002803,-19.344618,-23.739246,-25.353058,-27.272240,-16.559761,-11.092701,-5.787644,-5.887926,-7.266514,-1.657588,6.214124,-6.184486,-3.044379,-11.005527,0.111645,0.000000,183.000000,4.000000,,,,0.000000,4.000000,4.000000,4.000000,4.000000,4.000000,4.000000,4.000000,4.000000,4.000000,4.000000,4.000000,4.000000,4.000000,4.000000,4.000000,4.000000,4.000000,4.000000,4.000000,4.000000,4.000000,4.000000,4.000000,4.000000,4.000000,4.000000,4.000000,2.000000,4.000000,4.000000,4.000000,4.000000,83.333336
1614304578.242226,73.000000,0.000000,4.025247,-1.482522,0.257901,3.647291,1.784501,3.779651,5.560450,2.449916,8.373117,2.112379,-6.261478,0.647947,-1.592040,-12.418065,-9.445978,-9.140319,-0.195928,-9.581683,-4.228327,-3.276423,-6.219326,-3.722688,-5.440583,-5.781857,4.887193,-8.284888,-0.630290,6.207910,-9.255225,-8.169540,-17.148367,1.649995,0.000000,184.000000,4.000000,,,,0.000000,4.000000,4.000000,4.000000,4.000000,4.000000,4.000000,4.000000,4.000000,4.000000,4.000000,4.000000,4.000000,4.000000,4.000000,4.000000,4.000000,4.000000,4.000000,4.000000,4.000000,4.000000,4.000000,4.000000,4.000000,4.000000,4.000000,4.000000,2.000000,4.000000,4.000000,4.000000,4.000000,83.333336
1614304578.250075,74.000000,0.000000,4.021222,-1.481040,13.590977,3.643643,7.936563,3.263051,7.606171,2.447466,11.441668,5.187190,5.539655,6.288325,20.460835,11.696917,21.332699,17.022667,14.676063,14.017643,17.314362,17.752495,15.325356,10.640009,4.308447,-2.699152,16.677177,-2.122757,-1.142480,6.201702,-8.733150,-8.674191,-13.028655,12.930396,0.000000,196.000000,4.000000,,,,0.000000,4.000000,4.000000,4.000000,4.000000,4.000000,4.000000,4.000000,4.000000,4.000000,4.000000,4.000000,4.000000,4.000000,4.000000,4.000000,4.000000,4.000000,4.000000,4.000000,4.000000,4.000000,4.000000,4.000000,4.000000,4.000000,4.000000,4.000000,2.000000,4.000000,4.000000,4.000000,4.000000,83.333336
1614304578.257824,75.000000,0.000000,4.017200,-0.453918,22.295334,3.640000,13.569652,3.772608,9.649847,3.983480,12.968687,5.182003,18.354628,12.948703,33.260887,25.018553,41.824184,42.133850,23.892157,38.106190,31.143202,25.427050,33.771568,18.321676,7.893882,9.611239,17.686140,-3.146276,-1.141338,6.195500,-8.724417,-1.486030,-11.989985,17.020029,0.000000,203.000000,4.000000,,,,0.000000,4.000000,4.000000,4.000000,4.000000,4.000000,4.000000,4.000000,4.000000,4.000000,4.000000,4.000000,4.000000,4.000000,4.000000,4.000000,4.000000,4.000000,4.000000,4.000000,4.000000,4.000000,4.000000,4.000000,4.000000,4.000000,4.000000,4.000000,2.000000,4.000000,4.000000,4.000000,4.000000,83.333336
1614304578.265673,76.000000,0.000000,4.013183,4.674741,23.298679,6.713283,14.581723,5.820118,9.640197,6.543599,8.853154,5.176821,23.464478,18.063959,35.278908,34.224304,47.936207,61.066074,27.458008,50.888596,44.958214,35.658031,48.096771,22.405918,7.373168,24.986244,17.155634,-3.655950,-0.627376,6.189305,-8.715692,9.284687,-7.875431,14.951728,0.000000,200.000000,4.000000,,,,0.000000,4.000000,4.000000,4.000000,4.000000,4.000000,4.000000,4.000000,4.000000,4.000000,4.000000,4.000000,4.000000,4.000000,4.000000,4.000000,4.000000,4.000000,4.000000,4.000000,4.000000,4.000000,4.000000,4.000000,4.000000,4.000000,4.000000,4.000000,2.000000,4.000000,4.000000,4.000000,4.000000,83.333336
1614304578.273422,77.000000,0.000000,4.521990,10.311092,24.813843,10.809134,16.105602,7.865580,9.630557,7.562697,5.767378,7.222926,26.517937,15.994614,35.243629,41.882385,44.298527,57.928085,25.892088,50.837708,51.067101,44.853146,47.023033,23.921974,7.878615,29.576643,17.651299,1.988732,-0.626748,6.183115,-8.194156,11.326684,-1.713709,18.013699,0.000000,176.000000,4.000000,,,,0.000000,4.000000,4.000000,4.000000,4.000000,4.000000,4.000000,4.000000,4.000000,4.000000,4.000000,4.000000,4.000000,4.000000,4.000000,4.000000,4.000000,4.000000,4.000000,4.000000,4.000000,4.000000,4.000000,4.000000,4.000000,4.000000,4.000000,4.000000,2.000000,4.000000,4.000000,4.000000,4.000000,83.333336
1614304578.281271,78.000000,0.000000,4.004648,10.300781,22.737747,11.311145,15.063856,7.344893,10.133747,4.991032,5.761611,6.702883,21.363214,5.722209,25.977615,32.609737,26.818333,34.280415,16.122606,41.043278,39.221161,31.987778,30.052933,15.692924,5.306634,23.906040,9.428519,0.961102,-0.626122,6.176932,-9.211602,3.110229,0.339286,17.482864,0.000000,200.000000,4.000000,,,,0.000000,4.000000,4.000000,4.000000,4.000000,4.000000,4.000000,4.000000,4.000000,4.000000,4.000000,4.000000,4.000000,4.000000,4.000000,4.000000,4.000000,4.000000,4.000000,4.000000,4.000000,4.000000,4.000000,4.000000,4.000000,4.000000,4.000000,4.000000,2.000000,4.000000,4.000000,4.000000,4.000000,83.333336
1614304578.289020,79.000000,0.000000,4.000643,14.393044,18.612446,13.351116,11.971869,7.337549,10.123613,0.883476,5.243029,3.106436,6.470056,-6.078385,6.464459,15.654049,2.176129,11.682032,3.798791,21.002235,16.617838,5.801945,7.458778,1.318257,-1.878160,12.600082,1.213963,-1.091141,-2.163957,6.170755,-7.663929,-0.482624,3.928691,6.696151,0.000000,205.000000,4.000000,,,,0.000000,4.000000,4.000000,4.000000,4.000000,4.000000,4.000000,4.000000,4.000000,4.000000,4.000000,4.000000,4.000000,4.000000,4.000000,4.000000,4.000000,4.000000,4.000000,4.000000,4.000000,4.000000,4.000000,4.000000,4.000000,4.000000,4.000000,4.000000,2.000000,4.000000,4.000000,4.000000,4.000000,83.333336
1614304578.296869,80.000000,0.000000,4.509463,19.506857,18.593832,13.850585,12.472717,8.355852,9.600669,-0.143048,6.263426,3.103330,1.335381,-8.123589,-6.362518,1.279420,-19.364508,-9.868112,-5.435777,-9.275176,-8.526985,-19.844883,-21.266630,-16.118959,-11.619871,-0.233030,-5.453918,-0.064409,-4.725895,6.164585,-5.092163,-0.482142,4.950403,1.561250,0.000000,172.000000,4.000000,,,,0.000000,4.000000,4.000000,4.000000,4.000000,4.000000,4.000000,4.000000,4.000000,4.000000,4.000000,4.000000,4.000000,4.000000,4.000000,4.000000,4.000000,4.000000,4.000000,4.000000,4.000000,4.000000,4.000000,4.000000,4.000000,4.000000,4.000000,4.000000,2.000000,4.000000,4.000000,4.000000,4.000000,83.333336
1614304578.304618,81.000000,0.000000,2.453672,13.333504,9.857290,7.682889,8.870502,6.296214,10.103889,-2.707008,4.205881,1.048944,-0.204416,-5.038542,-15.586926,-18.209038,-37.806683,-38.063374,-16.199572,-36.958210,-38.774868,-45.978886,-53.553055,-39.179764,-23.915943,-17.155874,-23.397182,-13.397678,-10.362195,6.158420,-9.702456,-11.250891,-3.259676,-2.542876,0.000000,199.000000,4.000000,,,,0.000000,4.000000,4.000000,4.000000,4.000000,4.000000,4.000000,4.000000,4.000000,4.000000,4.000000,4.000000,4.000000,4.000000,4.000000,4.000000,4.000000,4.000000,4.000000,4.000000,4.000000,4.000000,4.000000,4.000000,4.000000,4.000000,4.000000,4.000000,2.000000,4.000000,4.000000,4.000000,4.000000,83.333336
1614304578.312467,82.000000,0.000000,-3.189808,6.140683,-11.178208,4.598283,-6.522985,2.187354,9.068144,-12.447890,-8.618837,-17.926464,-19.178572,-11.187350,-28.904671,-33.062626,-50.589390,-57.512489,-30.029526,-49.228943,-66.941223,-67.471367,-81.704628,-60.166225,-35.174080,-43.292564,-43.886604,-34.409920,-17.018499,6.152262,-18.410702,-27.649897,-8.897442,-24.591614,0.000000,174.000000,4.000000,,,,0.000000,4.000000,4.000000,4.000000,4.000000,4.000000,4.000000,4.000000,4.000000,4.000000,4.000000,4.000000,4.000000,4.000000,4.000000,4.000000,4.000000,4.000000,4.000000,4.000000,4.000000,4.000000,4.000000,4.000000,4.000000,4.000000,4.000000,4.000000,4.000000,4.000000,4.000000,4.000000,4.000000,100.000000
1614304578.320216,83.000000,0.000000,-6.776361,7.160183,-22.961903,2.029582,-19.336975,-1.404577,3.930871,-20.127750,-20.917912,-36.370075,-34.031189,-21.432573,-29.901407,-35.593666,-52.077259,-61.557541,-36.153343,-55.333561,-76.617867,-72.532104,-88.802414,-59.080418,-36.164547,-62.736450,-49.483746,-34.888332,-20.591225,6.146110,-20.443573,-32.237629,-8.375724,-39.951637,0.000000,179.000000,4.000000,,,,0.000000,4.000000,4.000000,4.000000,4.000000,4.000000,4.000000,4.000000,4.000000,4.000000,4.000000,4.000000,4.000000,4.000000,4.000000,4.000000,4.000000,4.000000,4.000000,4.000000,4.000000,4.000000,4.000000,4.000000,4.000000,4.000000,4.000000,4.000000,4.000000,4.000000,4.000000,4.000000,4.000000,100.000000
1614304578.328065,84.000000,0.000000,-7.282405,6.127382,-20.887657,-7.716037,-19.830458,-4.992916,-1.201265,-19.081982,-19.358532,-32.743961,-25.792028,-21.411140,-14.999712,-33.506790,-36.640568,-53.803673,-23.296677,-50.662842,-64.746384,-58.613415,-72.303352,-37.482876,-26.897612,-56.519867,-45.331696,-24.084213,-20.057814,6.139963,-19.910309,-31.692572,-7.854527,-22.475790,0.000000,217.000000,4.000000,,,,0.000000,4.000000,4.000000,4.000000,4.000000,4.000000,4.000000,4.000000,4.000000,4.000000,4.000000,4.000000,4.000000,4.000000,4.000000,4.000000,4.000000,4.000000,4.000000,4.000000,4.000000,4.000000,4.000000,4.000000,4.000000,4.000000,4.000000,4.000000,4.000000,4.000000,4.000000,4.000000,4.000000,100.000000
1614304578.335814,85.000000,0.000000,-6.762303,3.044332,-22.405231,-11.810885,-18.272165,-7.552026,-1.712885,-15.985976,-13.185327,-25.531731,-18.073929,-13.697421,-2.164199,-22.704050,-5.321876,-29.134487,-2.247739,-26.509615,-38.014969,-28.811211,-42.487461,-16.932571,-15.075843,-32.873604,-37.081238,-23.034487,-16.960833,6.133823,-19.890398,-31.660879,-8.359493,-2.453314,0.000000,203.000000,4.000000,,,,0.000000,4.000000,4.000000,4.000000,4.000000,4.000000,4.000000,4.000000,4.000000,4.000000,4.000000,4.000000,4.000000,4.000000,4.000000,4.000000,4.000000,4.000000,4.000000,4.000000,4.000000,4.000000,4.000000,4.000000,4.000000,4.000000,4.000000,4.000000,4.000000,4.000000,4.000000,4.000000,4.000000,100.000000
1614304578.343663,86.000000,0.000000,-7.268361,3.041287,-19.305904,-7.696511,-19.279535,-7.544474,-1.198351,-15.969991,-12.659321,-24.993378,-16.004572,-10.093981,4.504632,-6.783911,16.734728,-0.387403,5.959637,-3.406182,-5.669260,-0.064452,-10.137281,-10.248972,-10.958202,-10.276629,-23.710821,-24.037094,-15.918230,6.127689,-15.767944,-23.936911,-9.376775,-2.450860,0.000000,170.000000,4.000000,,,,0.000000,4.000000,4.000000,4.000000,4.000000,4.000000,4.000000,4.000000,4.000000,4.000000,4.000000,4.000000,4.000000,4.000000,4.000000,4.000000,4.000000,4.000000,4.000000,4.000000,4.000000,4.000000,4.000000,4.000000,4.000000,4.000000,4.000000,4.000000,4.000000,4.000000,4.000000,4.000000,4.000000,100.000000
1614304578.351412,87.000000,0.000000,-7.261093,0.474143,-3.901982,-8.714455,-16.183332,-8.049749,-1.709973,-16.979662,-15.210764,-14.711975,-4.193696,-10.596707,7.577050,-2.161742,19.794916,14.997600,3.389575,5.315173,16.900511,16.345869,16.026703,-10.751544,-13.511347,-3.599686,-12.405060,-21.448954,-16.415133,6.121562,-12.162433,-13.143744,-8.341757,-5.012512,0.000000,189.000000,4.000000,,,,0.000000,4.000000,4.000000,4.000000,4.000000,4.000000,4.000000,4.000000,4.000000,4.000000,4.000000,4.000000,4.000000,4.000000,4.000000,4.000000,4.000000,4.000000,4.000000,4.000000,4.000000,4.000000,4.000000,4.000000,4.000000,4.000000,4.000000,4.000000,4.000000,4.000000,4.000000,4.000000,4.000000,100.000000
1614304578.359062,88.000000,0.000000,-6.741011,0.986490,5.845510,-5.628818,-6.936379,-6.503238,-1.708263,-13.885758,-12.631451,0.174532,8.631011,-8.534828,8.595114,2.455804,20.287941,27.803114,5.437468,20.694473,31.755405,27.611574,30.369650,-9.715151,-7.343990,-4.108907,-6.238809,-17.837763,-12.296153,6.115440,-12.150270,-6.976754,-2.179569,-1.417756,0.000000,221.000000,4.000000,,,,0.000000,4.000000,4.000000,4.000000,4.000000,4.000000,4.000000,4.000000,4.000000,4.000000,4.000000,4.000000,4.000000,4.000000,4.000000,4.000000,4.000000,4.000000,4.000000,4.000000,4.000000,4.000000,4.000000,4.000000,4.000000,4.000000,4.000000,4.000000,4.000000,4.000000,4.000000,4.000000,4.000000,100.000000
1614304578.366811,89.000000,0.000000,-6.734270,10.216272,7.890946,10.274247,5.891070,-0.855709,-1.193735,-8.230847,-4.413692,4.276922,11.699303,-4.936550,9.612160,7.581553,21.293295,31.877876,9.021773,37.084034,41.980061,34.250629,32.903381,-8.679795,3.432585,4.613151,-1.104365,-11.153257,-5.617191,6.109325,-8.548376,-0.303110,2.437995,-0.390697,0.000000,178.000000,4.000000,,,,0.000000,4.000000,4.000000,4.000000,4.000000,4.000000,4.000000,4.000000,4.000000,4.000000,4.000000,4.000000,4.000000,4.000000,4.000000,4.000000,4.000000,4.000000,4.000000,4.000000,4.000000,4.000000,4.000000,4.000000,4.000000,4.000000,4.000000,4.000000,4.000000,4.000000,4.000000,4.000000,4.000000,100.000000
1614304578.374460,90.000000,0.000000,-6.727536,15.334262,14.549722,16.417820,13.064666,1.709249,-1.705361,-7.196975,-1.332355,2.221363,9.636322,-5.444434,7.038445,-8.323464,9.989950,10.307536,7.987111,26.790541,37.322697,22.421507,24.152531,-10.209577,-1.186232,11.788025,-0.590440,-5.501079,-4.073112,6.103216,-4.950084,3.799757,3.974019,-1.928768,0.000000,216.000000,4.000000,,,,0.000000,4.000000,4.000000,4.000000,4.000000,4.000000,4.000000,4.000000,4.000000,4.000000,4.000000,4.000000,4.000000,4.000000,4.000000,4.000000,4.000000,4.000000,4.000000,4.000000,4.000000,4.000000,4.000000,4.000000,4.000000,4.000000,4.000000,4.000000,4.000000,4.000000,4.000000,4.000000,4.000000,100.000000
1614304578.382209,91.000000,0.000000,-6.720808,14.293286,18.124916,11.786016,11.513140,0.681899,-1.703656,-9.241060,-1.331022,3.244782,2.447198,-6.977451,-0.148080,-24.725397,-4.379014,-10.728412,7.466303,9.327852,25.490501,6.501650,11.820685,-11.225008,-9.390174,0.494186,-1.102670,-3.444295,-3.556218,5.584292,-4.432314,4.308777,7.559788,6.278289,0.000000,177.000000,4.000000,,,,0.000000,4.000000,4.000000,4.000000,4.000000,4.000000,4.000000,4.000000,4.000000,4.000000,4.000000,4.000000,4.000000,4.000000,4.000000,4.000000,4.000000,4.000000,4.000000,4.000000,4.000000,4.000000,4.000000,4.000000,4.000000,4.000000,4.000000,4.000000,4.000000,4.000000,4.000000,4.000000,4.000000,100.000000
1614304578.389858,92.000000,0.000000,-5.175626,14.791814,17.081150,16.902435,13.040088,4.783781,2.400612,-1.539512,8.413898,4.267179,-1.144993,-3.893550,-0.147932,-14.444262,-3.348994,-9.179222,8.997298,6.754422,22.388088,3.931046,0.013993,-10.188142,-4.765399,-12.326821,5.565100,0.661713,1.062723,6.091528,-0.325317,6.355751,11.141972,23.707909,0.000000,205.000000,4.000000,,,,0.000000,4.000000,4.000000,4.000000,4.000000,4.000000,4.000000,4.000000,4.000000,4.000000,4.000000,4.000000,4.000000,4.000000,4.000000,4.000000,4.000000,4.000000,4.000000,4.000000,4.000000,4.000000,4.000000,4.000000,4.000000,4.000000,4.000000,4.000000,4.000000,4.000000,4.000000,4.000000,4.000000,100.000000
1614304578.397607,93.000000,0.000000,-3.119168,11.700098,18.602530,17.398354,16.103971,10.420023,5.987955,9.744079,16.610613,7.339834,4.497178,-2.351195,0.365036,-3.660587,-5.909748,-15.323889,4.372917,-5.560025,6.468264,-5.303655,-19.986021,-12.742057,-2.196531,-10.263212,2.482611,3.737974,4.138583,6.598257,2.239111,3.785292,11.130830,28.299585,0.000000,210.000000,4.000000,,,,0.000000,4.000000,4.000000,4.000000,4.000000,4.000000,4.000000,4.000000,4.000000,4.000000,4.000000,4.000000,4.000000,4.000000,4.000000,4.000000,4.000000,4.000000,4.000000,4.000000,4.000000,4.000000,4.000000,4.000000,4.000000,4.000000,4.000000,4.000000,4.000000,4.000000,4.000000,4.000000,4.000000,100.000000
1614304578.405256,94.000000,0.000000,-3.116049,1.944809,9.865979,-0.567762,4.292995,3.230115,6.494787,3.580489,8.901694,5.794033,0.390117,-7.989870,-16.045586,-13.400516,-30.006403,-38.898308,-4.862226,-34.785233,-25.845896,-32.990658,-49.196804,-20.421621,-12.963566,-6.150385,-14.955769,1.682954,2.595983,3.514736,-1.865693,-6.987723,10.606878,6.220003,0.000000,200.000000,4.000000,,,,0.000000,4.000000,4.000000,4.000000,4.000000,4.000000,4.000000,4.000000,4.000000,4.000000,4.000000,4.000000,4.000000,4.000000,4.000000,4.000000,4.000000,4.000000,4.000000,4.000000,4.000000,4.000000,4.000000,4.000000,4.000000,4.000000,4.000000,4.000000,4.000000,4.000000,4.000000,4.000000,4.000000,100.000000
1614304578.413005,95.000000,0.000000,-3.112933,-0.621239,-9.631066,-12.874887,-15.711298,-10.619268,5.975472,-10.782066,-1.876438,-4.468171,-13.456428,-14.135726,-25.773129,-23.130705,-42.796909,-48.090179,-8.447107,-49.622242,-49.409794,-54.496128,-70.173248,-28.606329,-17.565987,-11.785260,-21.094660,-0.370011,2.593387,2.998400,-5.966391,-13.134582,7.006528,-18.914421,0.000000,192.000000,4.000000,,,,0.000000,4.000000,4.000000,4.000000,4.000000,4.000000,4.000000,4.000000,4.000000,4.000000,4.000000,4.000000,4.000000,4.000000,4.000000,4.000000,4.000000,4.000000,4.000000,4.000000,4.000000,4.000000,4.000000,4.000000,4.000000,4.000000,4.000000,4.000000,4.000000,4.000000,4.000000,4.000000,4.000000,100.000000
1614304578.420655,96.000000,0.000000,-3.109820,5.020408,-18.852205,-10.810730,-23.387894,-15.736855,4.943856,-12.822566,-4.951485,-15.232934,-15.494253,-14.121591,-11.388382,-21.056292,-24.292574,-37.785679,-6.900198,-49.059799,-50.386024,-52.903172,-69.077431,-29.603363,-13.445856,-16.388861,-16.971001,-4.985025,3.103614,7.610786,-4.934783,-12.095806,2.896957,-27.613457,8064.000000,0.000000,4.000000,,,,0.000000,4.000000,4.000000,4.000000,4.000000,4.000000,4.000000,4.000000,4.000000,4.000000,4.000000,4.000000,4.000000,4.000000,4.000000,4.000000,4.000000,4.000000,4.000000,4.000000,4.000000,4.000000,4.000000,4.000000,4.000000,4.000000,4.000000,4.000000,4.000000,4.000000,4.000000,4.000000,4.000000,100.000000
1614304578.428404,97.000000,0.000000,-3.106710,7.579490,-18.320532,-9.774279,-21.826044,-14.182656,2.887630,-11.784102,-10.074739,-20.345905,-12.401835,-13.594648,0.417878,-12.830108,-6.319562,-19.799175,-6.893298,-44.395355,-41.104870,-34.388729,-45.931435,-20.855812,-12.406770,-15.346830,-19.518131,-12.159528,2.587690,8.628817,-4.417028,-12.083711,2.381240,-30.149946,8064.000000,0.000000,4.000000,,,,0.000000,4.000000,4.000000,4.000000,4.000000,4.000000,4.000000,4.000000,4.000000,4.000000,4.000000,4.000000,4.000000,4.000000,4.000000,4.000000,4.000000,4.000000,4.000000,4.000000,4.000000,4.000000,4.000000,4.000000,4.000000,4.000000,4.000000,4.000000,4.000000,4.000000,4.000000,4.000000,4.000000,100.000000
1614304578.436053,98.000000,0.000000,-3.103603,6.546270,-19.840673,-11.815786,-22.317039,-15.194115,1.859101,-15.874883,-12.628766,-21.864021,-13.415074,-13.068233,4.520024,-3.073688,1.891885,3.297547,-7.399225,-23.325319,-16.448381,-5.636393,-14.603451,-8.014442,-11.368722,-14.818663,-12.831947,-12.147368,2.585102,6.568906,-5.438252,-12.584447,2.891679,-25.504412,8064.000000,0.000000,4.000000,,,,0.000000,4.000000,4.000000,4.000000,4.000000,4.000000,4.000000,4.000000,4.000000,4.000000,4.000000,4.000000,4.000000,4.000000,4.000000,4.000000,4.000000,4.000000,4.000000,4.000000,4.000000,4.000000,4.000000,4.000000,4.000000,4.000000,4.000000,4.000000,4.000000,4.000000,4.000000,4.000000,4.000000,100.000000
1614304578.443802,99.000000,0.000000,-3.100500,6.539723,-22.384935,-11.291150,-22.294722,-14.153279,2.370062,-16.371828,-6.975111,-21.329338,-8.786275,-10.491062,13.746274,3.596053,17.787430,21.242968,-6.879005,2.851852,10.234735,15.394885,4.898332,-1.852582,-5.716328,-14.291023,3.078321,-8.545477,3.095337,9.126440,-4.919993,-12.059042,2.375967,-6.504548,8064.000000,0.000000,4.000000,,,,0.000000,4.000000,4.000000,4.000000,4.000000,4.000000,4.000000,4.000000,4.000000,4.000000,4.000000,4.000000,4.000000,4.000000,4.000000,4.000000,4.000000,4.000000,4.000000,4.000000,4.000000,4.000000,4.000000,4.000000,4.000000,4.000000,4.000000,4.000000,4.000000,4.000000,4.000000,4.000000,4.000000,100.000000
1614304578.451451,100.000000,0.000000,-2.584579,7.558825,-21.336908,-10.254218,-22.272427,-11.575024,2.367692,-12.765713,-6.968137,-20.282368,-6.726207,-9.967751,11.681246,2.053995,21.359385,23.785826,-6.872127,6.951564,14.839884,11.276926,8.995998,-3.902012,-4.172150,-9.661347,2.562422,-8.536932,3.092242,9.117313,-4.915073,-11.534163,2.373591,3.245547,8064.000000,0.000000,4.000000,,,,0.000000,4.000000,4.000000,4.000000,4.000000,4.000000,4.000000,4.000000,4.000000,4.000000,4.000000,4.000000,4.000000,4.000000,4.000000,4.000000,4.000000,4.000000,4.000000,4.000000,4.000000,4.000000,4.000000,4.000000,4.000000,4.000000,4.000000,4.000000,4.000000,4.000000,4.000000,4.000000,4.000000,100.000000
1614304578.459200,101.000000,0.000000,-3.607635,6.012805,-15.161726,-11.269605,-22.250154,-11.050628,2.365325,-11.727305,-12.089374,-20.774904,-15.437429,-10.470603,-1.150949,-5.127546,8.004693,17.608194,-6.865254,6.944613,13.799403,4.598982,7.448541,-2.872468,-4.167977,-4.010661,-5.132448,-8.528395,2.576329,1.928709,-4.910159,-11.522629,2.884038,-6.501288,8064.000000,0.000000,4.000000,,,,0.000000,4.000000,4.000000,4.000000,4.000000,4.000000,4.000000,4.000000,4.000000,4.000000,4.000000,4.000000,4.000000,4.000000,4.000000,4.000000,4.000000,4.000000,4.000000,4.000000,4.000000,4.000000,4.000000,4.000000,4.000000,4.000000,4.000000,4.000000,4.000000,4.000000,4.000000,4.000000,4.000000,100.000000
1614304578.466849,102.000000,0.000000,-3.091207,3.442689,-6.941436,-10.232694,-17.612520,-7.449834,2.362959,-10.177117,-11.564464,-19.728489,-14.909171,-4.819107,-1.149798,-12.301906,4.406944,8.359818,-6.858389,14.629975,21.477911,14.337973,9.492374,1.232968,0.964396,-3.493830,-5.127316,-8.007046,2.573753,-2.175784,-4.905248,-12.023927,2.881154,-12.648633,8064.000000,0.000000,4.000000,,,,0.000000,4.000000,4.000000,4.000000,4.000000,4.000000,4.000000,4.000000,4.000000,4.000000,4.000000,4.000000,4.000000,4.000000,4.000000,4.000000,4.000000,4.000000,4.000000,4.000000,4.000000,4.000000,4.000000,4.000000,4.000000,4.000000,4.000000,4.000000,4.000000,4.000000,4.000000,4.000000,4.000000,100.000000
1614304578.474598,103.000000,0.000000,-2.575295,5.490529,-3.857572,-6.119897,-10.928241,-3.339820,2.360596,-8.115658,-8.475976,-20.221581,-9.253237,1.339558,-1.661469,-16.904989,1.838435,-4.469056,-6.851531,5.897397,15.815408,11.246712,5.893138,-2.358009,4.040354,-2.977515,-12.301676,-9.537500,2.058359,-1.147967,-4.900343,-11.499083,2.878273,-13.661626,8064.000000,0.000000,4.000000,,,,0.000000,4.000000,4.000000,4.000000,4.000000,4.000000,4.000000,4.000000,4.000000,4.000000,4.000000,4.000000,4.000000,4.000000,4.000000,4.000000,4.000000,4.000000,4.000000,4.000000,4.000000,4.000000,4.000000,4.000000,4.000000,4.000000,4.000000,4.000000,4.000000,4.000000,4.000000,4.000000,4.000000,100.000000
1614304578.482248,104.000000,0.000000,-6.675284,9.587602,-5.392176,-3.036854,-9.378851,-4.874941,2.358236,-7.594722,-8.980321,-20.201359,-16.936291,1.338219,-11.916217,-20.477827,-17.137762,-19.849201,-8.383141,-17.698244,-10.354254,-16.969664,-15.651217,-13.124882,-2.630353,-2.974538,-25.109886,-12.092065,-4.097546,-1.146819,-4.895442,-12.513224,2.875395,-17.237707,8064.000000,0.000000,4.000000,,,,0.000000,4.000000,4.000000,4.000000,4.000000,4.000000,4.000000,4.000000,4.000000,4.000000,4.000000,4.000000,4.000000,4.000000,4.000000,4.000000,4.000000,4.000000,4.000000,4.000000,4.000000,4.000000,4.000000,4.000000,4.000000,4.000000,4.000000,4.000000,4.000000,4.000000,4.000000,4.000000,4.000000,100.000000
1614304578.490097,105.000000,0.000000,-11.283994,11.116476,-4.873963,-2.520997,-10.395114,-5.895708,2.355878,-8.099948,-7.432879,-14.540133,-20.509098,0.824060,-13.955584,-22.508631,-28.402676,-31.111404,-10.938860,-26.911316,-28.805437,-35.927052,-41.789410,-21.829704,-9.294389,-13.740794,-29.700161,-14.131255,-14.349858,-1.658493,-4.890547,-16.090454,2.872519,-2.348675,8064.000000,0.000000,4.000000,,,,0.000000,4.000000,4.000000,4.000000,4.000000,4.000000,4.000000,4.000000,4.000000,4.000000,4.000000,4.000000,4.000000,4.000000,4.000000,4.000000,4.000000,4.000000,4.000000,4.000000,4.000000,4.000000,4.000000,4.000000,4.000000,4.000000,4.000000,4.000000,4.000000,4.000000,4.000000,4.000000,4.000000,100.000000
1614304578.497846,106.000000,0.000000,-6.144505,10.592539,-4.869089,1.584088,-10.384718,-1.274427,2.353522,-8.091847,-5.374164,-6.833285,-10.232179,1.336056,-8.300602,-20.434841,-22.220427,-32.105934,-10.927921,-26.884403,-30.315094,-36.403946,-49.439930,-24.371979,-8.259454,-31.162951,-29.670462,-16.168406,-13.822688,-1.656834,-4.885657,-20.176928,2.869647,17.653673,8064.000000,0.000000,4.000000,,,,0.000000,4.000000,4.000000,4.000000,4.000000,4.000000,4.000000,4.000000,4.000000,4.000000,4.000000,4.000000,4.000000,4.000000,4.000000,4.000000,4.000000,4.000000,4.000000,4.000000,4.000000,4.000000,4.000000,4.000000,4.000000,4.000000,4.000000,4.000000,4.000000,4.000000,4.000000,4.000000,4.000000,100.000000
1614304578.505695,107.000000,0.000000,0.528307,11.094767,-4.864220,5.172248,-10.374333,1.803770,2.351168,-8.083755,-5.368790,-4.775169,-3.555280,1.334720,-6.753840,-14.260560,-18.608463,-28.484083,-9.378532,-29.421621,-30.797600,-33.803440,-46.313568,-21.270683,-4.661450,-35.747173,-24.512585,-16.152237,-4.065276,-1.142357,-4.880771,-19.643930,2.866777,11.994994,8064.000000,0.000000,4.000000,,,,0.000000,4.000000,4.000000,4.000000,4.000000,4.000000,4.000000,4.000000,4.000000,4.000000,4.000000,4.000000,4.000000,4.000000,4.000000,4.000000,4.000000,4.000000,4.000000,4.000000,4.000000,4.000000,4.000000,4.000000,4.000000,4.000000,4.000000,4.000000,4.000000,4.000000,4.000000,4.000000,4.000000,100.000000
1614304578.513444,108.000000,0.000000,1.553420,11.596493,-4.859355,4.654255,-10.363959,0.263505,2.348817,-8.075672,-5.363421,-5.283215,-3.551725,0.820565,-5.208624,-10.143735,-18.589855,-26.404318,-6.292231,-26.315277,-30.253981,-27.615789,-43.703152,-19.198130,-4.656789,-28.019117,-15.770124,-12.033522,-0.471467,-1.141215,-4.875890,-16.034544,2.863910,-3.401616,8064.000000,0.000000,4.000000,,,,0.000000,4.000000,4.000000,4.000000,4.000000,4.000000,4.000000,4.000000,4.000000,4.000000,4.000000,4.000000,4.000000,4.000000,4.000000,4.000000,4.000000,4.000000,4.000000,4.000000,4.000000,4.000000,4.000000,4.000000,4.000000,4.000000,4.000000,4.000000,4.000000,4.000000,4.000000,4.000000,4.000000,100.000000
