title:4, start timestamp:1614302030.750204, stop timestamp:1614302076.422093, headset type:EPOCFLEX, headset serial:F00001ED, headset firmware:f12, subject name:s09, channels:75, sampling rate:128, samples:5895      , version:2.0
Timestamp,EEG.Counter,EEG.Interpolated,EEG.Cz,EEG.Fz,EEG.Fp1,EEG.AF3,EEG.F7,EEG.F3,EEG.FC1,EEG.C3,EEG.FC5,EEG.T7,EEG.CP5,EEG.CP1,EEG.P3,EEG.P7,EEG.PO3,EEG.O1,EEG.Pz,EEG.Oz,EEG.O2,EEG.PO4,EEG.P8,EEG.P4,EEG.CP2,EEG.CP6,EEG.T8,EEG.FC6,EEG.C4,EEG.FC2,EEG.F4,EEG.F8,EEG.AF4,EEG.Fp2,EEG.HighBitFlex,EEG.RawCq,EEG.Battery,MarkerIndex,MarkerType,MarkerValueInt,EEG.MarkerHardware,CQ.Cz,CQ.Fz,CQ.Fp1,CQ.AF3,CQ.F7,CQ.F3,CQ.FC1,CQ.C3,CQ.FC5,CQ.T7,CQ.CP5,CQ.CP1,CQ.P3,CQ.P7,CQ.PO3,CQ.O1,CQ.Pz,CQ.Oz,CQ.O2,CQ.PO4,CQ.P8,CQ.P4,CQ.CP2,CQ.CP6,CQ.T8,CQ.FC6,CQ.C4,CQ.FC2,CQ.F4,CQ.F8,CQ.AF4,CQ.Fp2,CQ.Overall
1614302030.750204,27.000000,0.000000,3.417733,1.608706,-11.450150,14.601510,-6.887306,0.701491,-8.425040,0.685995,-13.404937,-10.353480,-3.611251,0.193284,-12.041801,-16.516928,-1.646172,-40.119869,-3.379619,-12.553938,-39.757874,-13.800554,-29.452566,-19.331741,-2.795160,-35.112675,-21.686153,-17.320509,-11.932693,-12.588694,-8.826342,-4.453656,-11.171191,3.804772,0.000000,198.000000,4.000000,,,,0.000000,4.000000,4.000000,4.000000,4.000000,4.000000,2.000000,4.000000,4.000000,4.000000,4.000000,4.000000,4.000000,4.000000,4.000000,4.000000,4.000000,4.000000,4.000000,4.000000,4.000000,4.000000,4.000000,4.000000,4.000000,4.000000,4.000000,4.000000,4.000000,4.000000,4.000000,4.000000,4.000000,83.333336
1614302030.758053,28.000000,0.000000,5.465597,1.607097,-7.848957,19.202293,-2.265034,1.726431,-3.288410,9.403258,-8.776147,-10.343126,-0.530716,8.398219,-11.516939,-6.244000,-0.106064,-38.028469,5.341709,-15.618307,-40.743755,-13.786754,-29.935934,-18.286768,-1.253903,-31.487818,-23.202929,-17.303188,-9.356658,-12.063285,-8.304695,-5.474844,-0.903610,6.365070,0.000000,212.000000,4.000000,,,,0.000000,4.000000,4.000000,4.000000,4.000000,4.000000,2.000000,4.000000,4.000000,4.000000,4.000000,4.000000,4.000000,4.000000,4.000000,4.000000,4.000000,4.000000,4.000000,4.000000,4.000000,4.000000,4.000000,4.000000,4.000000,4.000000,4.000000,4.000000,4.000000,4.000000,4.000000,4.000000,4.000000,83.333336
1614302030.765802,29.000000,0.000000,6.998593,1.605490,-8.353929,27.901039,-3.288410,4.288807,-2.772301,9.393855,-10.818653,-11.358424,-4.632750,7.364180,-12.018243,-8.801859,-0.618779,-38.503262,2.772265,-24.320637,-45.318398,-17.875530,-31.444460,-17.242840,-2.278290,-26.840946,-24.718187,-17.798706,-9.860122,-12.051222,-5.219467,-5.469368,0.122934,5.845884,0.000000,200.000000,4.000000,,,,0.000000,4.000000,4.000000,4.000000,4.000000,4.000000,2.000000,4.000000,4.000000,4.000000,4.000000,4.000000,4.000000,4.000000,4.000000,4.000000,4.000000,4.000000,4.000000,4.000000,4.000000,4.000000,4.000000,4.000000,4.000000,4.000000,4.000000,4.000000,4.000000,4.000000,4.000000,4.000000,4.000000,83.333336
1614302030.773652,30.000000,0.000000,6.478774,1.603885,-8.858396,30.950062,-4.310762,4.797339,-2.769529,5.794717,-10.295013,-9.808604,-8.730681,6.843995,-12.006225,-12.895620,-0.105339,-35.387833,-2.871533,-24.809137,-47.324360,-20.421759,-26.797630,-16.199957,-1.763191,-26.301285,-16.488340,-15.729625,-10.875903,-12.551991,-5.727068,-4.438258,-6.031034,4.814398,0.000000,204.000000,4.000000,,,,0.000000,4.000000,4.000000,4.000000,4.000000,4.000000,2.000000,4.000000,4.000000,4.000000,4.000000,4.000000,4.000000,4.000000,4.000000,4.000000,4.000000,4.000000,4.000000,4.000000,4.000000,4.000000,4.000000,4.000000,4.000000,4.000000,4.000000,4.000000,4.000000,4.000000,4.000000,4.000000,4.000000,83.333336
1614302030.781401,31.000000,0.000000,6.472295,1.602281,-8.849537,29.893471,-2.255170,4.792542,0.310164,5.788923,-7.207796,-5.183412,-4.106566,8.375612,-11.481398,-6.728879,-0.105234,-25.608856,-2.355841,-21.707405,-40.097549,-11.683388,-15.488782,-11.568372,1.315495,-21.659599,-5.702621,-9.047229,-7.275283,-9.462516,-2.644418,-4.946640,-2.948081,7.886506,0.000000,192.000000,4.000000,,,,0.000000,4.000000,4.000000,4.000000,4.000000,4.000000,2.000000,4.000000,4.000000,4.000000,4.000000,4.000000,4.000000,4.000000,4.000000,4.000000,4.000000,4.000000,4.000000,4.000000,4.000000,4.000000,4.000000,4.000000,4.000000,4.000000,4.000000,4.000000,4.000000,4.000000,4.000000,4.000000,4.000000,83.333336
1614302030.789050,32.000000,0.000000,6.978643,1.600678,-8.327867,31.402039,-1.227274,5.300570,-0.202967,6.295954,-6.174947,-2.101305,-0.512716,5.290314,-11.469916,-1.593945,-0.617949,-17.890940,-2.353485,-16.044672,-25.698479,-3.466576,-7.780985,-8.479880,1.827000,-11.894349,2.508209,0.192588,1.962761,-4.837668,9.665918,-2.377591,4.747175,15.570928,8064.000000,0.000000,4.000000,,,,0.000000,4.000000,4.000000,4.000000,4.000000,4.000000,2.000000,4.000000,4.000000,4.000000,4.000000,4.000000,4.000000,4.000000,4.000000,4.000000,4.000000,4.000000,4.000000,4.000000,4.000000,4.000000,4.000000,4.000000,4.000000,4.000000,4.000000,4.000000,4.000000,4.000000,4.000000,4.000000,4.000000,83.333336
1614302030.796800,33.000000,0.000000,5.946023,1.599078,-8.832359,30.344995,-1.738867,3.756807,-4.818149,5.776838,-6.681592,-3.124845,-1.025023,3.746562,-11.458447,-1.079530,0.921130,-14.283305,-2.351132,-2.695294,-8.749702,-0.386186,-2.645000,-8.471400,1.312352,-1.113224,8.146727,7.371882,8.114645,-2.781549,18.887022,10.958119,6.280890,20.683561,8064.000000,0.000000,4.000000,,,,0.000000,4.000000,4.000000,4.000000,4.000000,4.000000,2.000000,4.000000,4.000000,4.000000,4.000000,4.000000,4.000000,4.000000,4.000000,4.000000,4.000000,4.000000,4.000000,4.000000,4.000000,4.000000,4.000000,4.000000,4.000000,4.000000,4.000000,4.000000,4.000000,4.000000,4.000000,4.000000,4.000000,83.333336
1614302030.804449,34.000000,0.000000,6.965719,1.597479,-9.336348,27.237726,-1.737128,1.188948,-4.813330,5.771061,-6.674911,-3.121720,-1.023998,8.871020,-11.446988,0.972831,3.484312,-8.627996,2.779425,12.692017,3.053919,8.844969,9.152517,-3.334724,5.413604,4.528914,9.677042,9.928613,8.619350,-3.804408,18.355314,27.357418,4.736147,20.662878,8064.000000,0.000000,4.000000,,,,0.000000,4.000000,4.000000,4.000000,4.000000,4.000000,2.000000,4.000000,4.000000,4.000000,4.000000,4.000000,4.000000,4.000000,4.000000,4.000000,4.000000,4.000000,4.000000,4.000000,4.000000,4.000000,4.000000,4.000000,4.000000,4.000000,4.000000,4.000000,4.000000,4.000000,4.000000,4.000000,4.000000,83.333336
1614302030.812198,35.000000,0.000000,9.522856,1.595881,-7.275729,31.825874,-2.248211,2.213400,-2.244414,5.765290,-6.155416,-2.092957,-2.048615,12.451893,-11.435541,-1.079424,3.993648,-6.568087,9.443312,16.269068,0.999583,13.964329,12.733109,1.796816,9.510755,4.011565,9.667365,8.380222,8.610731,-6.364707,17.311317,29.894163,5.244232,21.155035,8064.000000,0.000000,4.000000,,,,0.000000,4.000000,4.000000,4.000000,4.000000,4.000000,2.000000,4.000000,4.000000,4.000000,4.000000,4.000000,4.000000,4.000000,4.000000,4.000000,4.000000,4.000000,4.000000,4.000000,4.000000,4.000000,4.000000,4.000000,4.000000,4.000000,4.000000,4.000000,4.000000,4.000000,4.000000,4.000000,4.000000,83.333336
1614302030.819848,36.000000,0.000000,6.949230,1.594285,-1.114607,39.486355,-0.707502,4.775289,-2.754991,6.272345,-6.149260,-3.629326,-4.097849,10.900980,-11.424106,-9.283473,3.476834,-16.817928,9.946689,5.483568,-11.309109,4.719595,-2.664240,-3.333186,10.014064,2.469092,7.606415,5.807740,8.602120,-4.819880,18.832468,19.095037,5.751808,22.159521,8192.000000,0.000000,4.000000,,,,0.000000,4.000000,4.000000,4.000000,4.000000,4.000000,2.000000,4.000000,4.000000,4.000000,4.000000,4.000000,4.000000,4.000000,4.000000,4.000000,4.000000,4.000000,4.000000,4.000000,4.000000,4.000000,4.000000,4.000000,4.000000,4.000000,4.000000,4.000000,4.000000,4.000000,4.000000,4.000000,4.000000,83.333336
1614302030.827597,37.000000,0.000000,2.839717,1.592691,2.476251,43.549435,-1.219615,4.770514,-3.265056,5.753252,-6.655931,-7.215440,-4.606572,7.300335,-11.412682,-13.376753,3.473357,-27.057522,6.859819,-3.239864,-18.990108,-2.464611,-16.507730,-8.970879,9.491230,0.928161,-0.093499,4.776291,8.593518,-8.404804,17.275173,9.332354,7.797338,20.086081,8064.000000,0.000000,4.000000,,,,0.000000,4.000000,4.000000,4.000000,4.000000,4.000000,2.000000,4.000000,4.000000,4.000000,4.000000,4.000000,4.000000,4.000000,4.000000,4.000000,4.000000,4.000000,4.000000,4.000000,4.000000,4.000000,4.000000,4.000000,4.000000,4.000000,4.000000,4.000000,4.000000,4.000000,4.000000,4.000000,4.000000,83.333336
1614302030.835247,38.000000,0.000000,2.324057,1.591098,2.473775,41.967422,-6.346600,4.252923,-2.236150,5.747499,-6.649275,-6.695404,-4.601965,7.293035,-11.401269,-12.850556,3.469884,-29.081745,4.288857,-3.749445,-21.022400,-2.462147,-15.978401,-8.961907,9.481738,-2.149690,-2.657508,5.284335,8.584925,-33.524605,17.770720,10.861483,9.328002,25.194199,8064.000000,0.000000,4.000000,,,,0.000000,4.000000,4.000000,4.000000,4.000000,4.000000,2.000000,4.000000,4.000000,4.000000,4.000000,4.000000,4.000000,4.000000,4.000000,4.000000,4.000000,4.000000,4.000000,4.000000,4.000000,4.000000,4.000000,4.000000,4.000000,4.000000,4.000000,4.000000,4.000000,4.000000,4.000000,4.000000,4.000000,83.333336
1614302030.842996,39.000000,0.000000,3.347373,1.589507,5.035403,33.720325,-3.263330,4.761490,-4.285196,6.767393,-6.129806,-5.663068,-4.084542,9.337024,-11.389868,-12.324884,3.466414,-28.027023,2.746107,-3.745695,-18.950096,-2.972505,-12.885500,-7.927305,9.472257,-4.198822,0.934893,4.766231,7.550699,-50.926975,18.265770,13.927545,8.805854,29.784389,8192.000000,0.000000,4.000000,,,,0.000000,4.000000,4.000000,4.000000,4.000000,4.000000,2.000000,4.000000,4.000000,4.000000,4.000000,4.000000,4.000000,4.000000,4.000000,4.000000,4.000000,4.000000,4.000000,4.000000,4.000000,4.000000,4.000000,4.000000,4.000000,4.000000,4.000000,4.000000,4.000000,4.000000,4.000000,4.000000,4.000000,83.333336
1614302030.850645,40.000000,0.000000,2.831206,1.075097,-1.123478,24.455837,2.380959,4.756729,-6.332193,3.683702,-8.174958,-14.375353,-4.080458,4.199481,-11.378478,-12.312560,3.462947,-27.486176,-1.872024,-5.280411,-19.956785,-5.533635,-13.385435,-7.919377,8.437143,-4.194623,-2.142965,2.710182,5.491866,-22.158102,10.555196,10.323874,9.309869,17.446913,8064.000000,0.000000,4.000000,,,,0.000000,4.000000,4.000000,4.000000,4.000000,4.000000,2.000000,4.000000,4.000000,4.000000,4.000000,4.000000,4.000000,4.000000,4.000000,4.000000,4.000000,4.000000,4.000000,4.000000,4.000000,4.000000,4.000000,4.000000,4.000000,4.000000,4.000000,4.000000,4.000000,4.000000,4.000000,4.000000,4.000000,83.333336
1614302030.858395,41.000000,0.000000,2.828374,1.586843,-19.583893,21.867279,-8.903474,5.264793,-6.838681,-0.935366,-10.218065,-22.053286,-8.178942,-9.138051,-11.367100,-17.941273,3.459484,-34.125355,-8.536819,-11.428977,-31.731701,-11.169127,-13.884870,-9.449920,3.300501,-5.216070,-5.217745,1.681831,3.947913,9.146108,1.826692,4.672523,8.274918,-0.519252,8064.000000,0.000000,4.000000,,,,0.000000,4.000000,4.000000,4.000000,4.000000,4.000000,2.000000,4.000000,4.000000,4.000000,4.000000,4.000000,4.000000,4.000000,4.000000,4.000000,4.000000,4.000000,4.000000,4.000000,4.000000,4.000000,4.000000,4.000000,4.000000,4.000000,4.000000,4.000000,4.000000,4.000000,4.000000,4.000000,4.000000,83.333336
1614302030.866044,42.000000,0.000000,2.825546,4.149358,-25.205336,24.409513,-17.612518,5.259528,-6.319022,-1.960072,-9.695026,-13.313284,-11.247685,-16.308401,-11.355732,-23.564358,3.456025,-44.347641,-11.092384,-24.238060,-46.058945,-16.798983,-13.870985,-15.081495,-3.369466,-6.749315,2.992601,1.167329,4.969606,-6.247653,2.850506,8.257595,6.215361,-2.057194,8064.000000,0.000000,4.000000,,,,0.000000,4.000000,4.000000,4.000000,4.000000,4.000000,2.000000,4.000000,4.000000,4.000000,4.000000,4.000000,4.000000,4.000000,4.000000,4.000000,4.000000,4.000000,4.000000,4.000000,4.000000,4.000000,4.000000,4.000000,4.000000,4.000000,4.000000,4.000000,4.000000,4.000000,4.000000,4.000000,4.000000,83.333336
1614302030.873793,43.000000,0.000000,2.822721,5.683671,-16.462181,23.359465,-11.441060,4.741448,-6.312703,-0.932471,-9.685331,-5.094842,-10.723618,-14.753631,-11.344377,-22.515152,3.452569,-47.893036,-9.542830,-31.393311,-44.987244,-17.295006,-11.805832,-19.168978,-6.443019,-7.768207,10.681916,1.678982,5.477457,-22.138842,6.437399,15.428824,5.183504,3.073068,8064.000000,0.000000,4.000000,,,,0.000000,4.000000,4.000000,4.000000,4.000000,4.000000,2.000000,4.000000,4.000000,4.000000,4.000000,4.000000,4.000000,4.000000,4.000000,4.000000,4.000000,4.000000,4.000000,4.000000,4.000000,4.000000,4.000000,4.000000,4.000000,4.000000,4.000000,4.000000,4.000000,4.000000,4.000000,4.000000,4.000000,83.333336
1614302030.881443,44.000000,0.000000,2.819898,5.165166,-19.522642,16.156616,-13.993722,5.249527,-6.306390,-2.982821,-10.701287,-13.807696,-15.328279,-14.738876,-11.333033,-21.466995,3.449116,-46.819504,-10.046108,-27.259352,-38.275589,-17.277710,-15.383770,-23.765194,-5.410935,-7.247618,6.055850,2.190123,1.882236,-5.706447,6.430962,17.464678,5.178321,2.557174,8064.000000,0.000000,4.000000,,,,0.000000,4.000000,4.000000,4.000000,4.000000,4.000000,2.000000,4.000000,4.000000,4.000000,4.000000,4.000000,4.000000,4.000000,4.000000,4.000000,4.000000,4.000000,4.000000,4.000000,4.000000,4.000000,4.000000,4.000000,4.000000,4.000000,4.000000,4.000000,4.000000,4.000000,4.000000,4.000000,4.000000,83.333336
1614302030.889192,45.000000,0.000000,3.329898,5.160001,-30.272350,8.960974,-21.159216,4.731457,-6.300084,-5.031120,-9.152124,-17.896452,-18.902695,-15.236959,-11.321699,-22.983990,3.445667,-46.772682,-10.036062,-28.770555,-41.827057,-21.362997,-31.778643,-31.433737,-5.405525,-6.727550,-2.668155,-0.888990,-1.709390,-1.598176,6.424531,16.421572,5.685963,0.503335,8064.000000,0.000000,4.000000,,,,0.000000,4.000000,4.000000,4.000000,4.000000,4.000000,2.000000,4.000000,4.000000,4.000000,4.000000,4.000000,4.000000,4.000000,4.000000,4.000000,4.000000,4.000000,4.000000,4.000000,4.000000,4.000000,4.000000,4.000000,4.000000,4.000000,4.000000,4.000000,4.000000,4.000000,4.000000,4.000000,4.000000,83.333336
1614302030.896842,46.000000,0.000000,1.275286,5.154841,-30.754898,7.926372,-19.599594,1.136982,-5.780963,-5.538909,-11.194254,-14.288813,-15.806868,-14.196080,-10.797557,-23.473827,3.442221,-46.725910,-9.000385,-35.408451,-46.913437,-24.418556,-43.541737,-34.992046,-5.912940,-8.259284,-9.332153,-7.041947,-3.246142,-17.494013,6.418107,16.917971,4.141815,-5.138194,8064.000000,0.000000,4.000000,,,,0.000000,4.000000,4.000000,4.000000,4.000000,4.000000,2.000000,4.000000,4.000000,4.000000,4.000000,4.000000,4.000000,4.000000,4.000000,4.000000,4.000000,4.000000,4.000000,4.000000,4.000000,4.000000,4.000000,4.000000,4.000000,4.000000,4.000000,4.000000,4.000000,4.000000,4.000000,4.000000,4.000000,83.333336
1614302030.904591,47.000000,0.000000,-0.777271,5.149686,-33.288246,8.431266,-32.400509,-3.992360,-7.826464,-5.020550,-20.413830,-26.069395,-20.406446,-15.207525,-11.812401,-28.065739,3.438779,-47.704826,-10.017026,-37.937145,-46.353703,-24.394138,-43.498196,-34.957054,-5.907027,-16.456154,-13.425385,-10.111828,-5.806999,-16.963699,6.411688,17.413874,-1.503352,-13.338183,8064.000000,0.000000,4.000000,,,,0.000000,4.000000,4.000000,4.000000,4.000000,4.000000,2.000000,4.000000,4.000000,4.000000,4.000000,4.000000,4.000000,4.000000,4.000000,4.000000,4.000000,4.000000,4.000000,4.000000,4.000000,4.000000,4.000000,4.000000,4.000000,4.000000,4.000000,4.000000,4.000000,4.000000,4.000000,4.000000,4.000000,83.333336
1614302030.912240,48.000000,0.000000,-1.289314,5.657357,-46.075470,8.422834,-45.701439,-6.039650,-9.869920,-5.015529,-25.521620,-35.786915,-26.027065,-13.141036,-11.287767,-31.114595,3.435340,-45.605839,-9.494188,-38.924850,-46.820168,-24.369743,-49.095722,-35.947739,-5.901120,-25.670465,-14.950421,-11.640178,-10.416576,-10.792890,7.430918,16.883638,-5.604413,-16.401768,8064.000000,0.000000,4.000000,,,,0.000000,4.000000,4.000000,4.000000,4.000000,4.000000,2.000000,4.000000,4.000000,4.000000,4.000000,4.000000,4.000000,4.000000,4.000000,4.000000,4.000000,4.000000,4.000000,4.000000,4.000000,4.000000,4.000000,4.000000,4.000000,4.000000,4.000000,4.000000,4.000000,4.000000,4.000000,4.000000,4.000000,83.333336
1614302030.920090,49.000000,0.000000,-0.775204,4.113238,-50.131958,10.978514,-31.809586,-6.546431,-9.860050,-5.523334,-22.419176,-22.417795,-15.744628,-7.999690,-6.661095,-22.365532,3.431905,-36.329464,-5.382130,-32.732079,-46.773350,-24.345375,-50.072266,-31.296406,-4.869577,-29.747360,-14.935472,-13.679820,-10.918981,-16.935942,3.833743,16.866755,-6.111629,-17.411007,8064.000000,0.000000,4.000000,,,,0.000000,4.000000,4.000000,4.000000,4.000000,4.000000,2.000000,4.000000,4.000000,4.000000,4.000000,4.000000,4.000000,4.000000,4.000000,4.000000,4.000000,4.000000,4.000000,4.000000,4.000000,4.000000,4.000000,4.000000,4.000000,4.000000,4.000000,4.000000,4.000000,4.000000,4.000000,4.000000,4.000000,83.333336
1614302030.927839,50.000000,0.000000,-0.774429,2.057843,-37.261314,13.018818,-20.495724,-6.027064,-10.363010,-5.004990,-18.294193,-9.062044,-7.010934,-7.478869,-3.064690,-12.599577,3.428473,-30.652109,-7.940850,-19.366013,-42.111191,-24.833849,-31.560656,-23.059980,-6.403170,-30.230433,-14.407715,-13.153319,-9.882421,-19.483109,-0.785475,16.849888,-6.105517,-14.316673,8064.000000,0.000000,4.000000,,,,0.000000,4.000000,4.000000,4.000000,4.000000,4.000000,2.000000,4.000000,4.000000,4.000000,4.000000,4.000000,4.000000,4.000000,4.000000,4.000000,4.000000,4.000000,4.000000,4.000000,4.000000,4.000000,4.000000,4.000000,4.000000,4.000000,4.000000,4.000000,4.000000,4.000000,4.000000,4.000000,4.000000,83.333336
1614302030.935688,51.000000,0.000000,-0.773655,1.030144,-23.890718,11.980158,-20.988049,-6.533857,-9.327006,-4.999985,-17.763077,-9.565803,-10.593667,-10.548314,-5.112908,-11.561336,3.425045,-32.159916,-16.650858,-11.654339,-35.915234,-23.783375,-16.144480,-23.549742,-9.473689,-25.584818,-11.316384,-11.088884,-10.385359,-15.873882,0.753772,16.833038,-4.560950,3.133540,8064.000000,0.000000,4.000000,,,,0.000000,4.000000,4.000000,4.000000,4.000000,4.000000,2.000000,4.000000,4.000000,4.000000,4.000000,4.000000,4.000000,4.000000,4.000000,4.000000,4.000000,4.000000,4.000000,4.000000,4.000000,4.000000,4.000000,4.000000,4.000000,4.000000,4.000000,4.000000,4.000000,4.000000,4.000000,4.000000,4.000000,83.333336
1614302030.943437,52.000000,0.000000,-0.772881,1.541934,-21.302727,13.506639,-9.685010,-6.014503,-7.266397,-4.994985,-14.668391,-6.479314,-9.044612,-11.050586,-7.159077,-12.062595,3.934440,-29.050835,-16.634207,-6.001659,-21.520344,-17.092924,-5.359105,-19.936447,-6.387292,-15.302823,-5.151222,-9.026513,-10.887794,-14.832368,5.881223,17.329025,0.058995,18.002201,8064.000000,0.000000,4.000000,,,,0.000000,4.000000,4.000000,4.000000,4.000000,4.000000,2.000000,4.000000,4.000000,4.000000,4.000000,4.000000,4.000000,4.000000,4.000000,4.000000,4.000000,4.000000,4.000000,4.000000,4.000000,4.000000,4.000000,4.000000,4.000000,4.000000,4.000000,4.000000,4.000000,4.000000,4.000000,4.000000,4.000000,83.333336
1614302030.951287,53.000000,0.000000,-0.772108,1.540393,-22.819885,16.570055,-5.572761,-2.931565,-7.259131,-4.989990,-11.063979,-6.472835,-3.907362,-10.526714,-5.100636,-13.076174,5.468967,-17.739733,-7.899624,8.363317,6.193484,-6.306601,18.748819,-3.506255,0.798582,-10.159315,6.135981,-4.914922,-8.312803,-13.791894,6.900983,17.311697,2.623039,12.855994,8064.000000,0.000000,4.000000,,,,0.000000,4.000000,4.000000,4.000000,4.000000,4.000000,2.000000,4.000000,4.000000,4.000000,4.000000,4.000000,4.000000,4.000000,4.000000,4.000000,4.000000,4.000000,4.000000,4.000000,4.000000,4.000000,4.000000,4.000000,4.000000,4.000000,4.000000,4.000000,4.000000,4.000000,4.000000,4.000000,4.000000,83.333336
1614302030.959036,54.000000,0.000000,-0.771336,1.538852,-20.745783,16.553486,-13.772316,-1.902993,-9.815974,-3.446539,-9.514454,-9.030464,-3.903455,-10.516188,-3.557074,-8.960533,7.514781,-9.004045,-4.814802,20.149826,23.110367,2.930475,27.960838,5.215200,2.849065,-10.661976,18.437536,-1.833084,-3.176285,-11.726820,5.868441,16.268744,2.107595,7.202113,8064.000000,0.000000,4.000000,,,,0.000000,4.000000,4.000000,4.000000,4.000000,4.000000,2.000000,4.000000,4.000000,4.000000,4.000000,4.000000,4.000000,4.000000,4.000000,4.000000,4.000000,4.000000,4.000000,4.000000,4.000000,4.000000,4.000000,4.000000,4.000000,4.000000,4.000000,4.000000,4.000000,4.000000,4.000000,4.000000,4.000000,83.333336
1614302030.966885,55.000000,0.000000,-0.770565,1.537313,-21.750679,16.024111,-9.143159,-1.901090,-10.318979,-1.391810,-9.504939,1.747797,-1.335449,-10.505672,-4.066337,0.792017,6.994445,-8.482220,-6.348448,20.129677,12.830847,9.081391,11.522622,0.081780,1.820575,-11.164135,19.957561,-1.831251,0.416635,-11.202272,6.375393,17.278116,0.054206,6.682090,8064.000000,0.000000,4.000000,,,,0.000000,4.000000,4.000000,4.000000,4.000000,4.000000,2.000000,4.000000,4.000000,4.000000,4.000000,4.000000,4.000000,4.000000,4.000000,4.000000,4.000000,4.000000,4.000000,4.000000,4.000000,4.000000,4.000000,4.000000,4.000000,4.000000,4.000000,4.000000,4.000000,4.000000,4.000000,4.000000,4.000000,83.333336
1614302030.974634,56.000000,0.000000,-0.769794,1.535776,-28.908415,17.033728,-6.569913,-1.899189,-9.283019,-1.390418,-10.008255,6.361434,-1.846934,-12.033628,-4.575091,-0.747236,1.859246,-14.627584,-5.829279,14.981341,-1.028138,5.995387,2.280330,-4.533687,1.818755,-10.127330,11.732475,-1.829420,0.929038,-11.703891,6.881838,17.773659,-1.997131,1.034382,8064.000000,0.000000,4.000000,,,,0.000000,4.000000,4.000000,4.000000,4.000000,4.000000,2.000000,4.000000,4.000000,4.000000,4.000000,4.000000,4.000000,4.000000,4.000000,4.000000,4.000000,4.000000,4.000000,4.000000,4.000000,4.000000,4.000000,4.000000,4.000000,4.000000,4.000000,4.000000,4.000000,4.000000,4.000000,4.000000,4.000000,83.333336
1614302030.982484,57.000000,0.000000,-0.769024,1.534240,-34.007713,15.478233,-22.460779,-3.435751,-9.786556,-1.389028,-9.998247,-9.542363,-9.024574,-9.457492,-4.057695,-15.618284,-3.783639,-22.305264,-5.310630,4.197129,-11.283520,-4.267019,-6.952720,-6.067615,1.816936,-11.142843,4.541255,-2.853232,0.928109,-11.692187,6.362136,11.602039,-1.482313,-3.582036,8064.000000,0.000000,4.000000,,,,0.000000,4.000000,4.000000,4.000000,4.000000,4.000000,2.000000,4.000000,4.000000,4.000000,4.000000,4.000000,4.000000,4.000000,4.000000,4.000000,4.000000,4.000000,4.000000,4.000000,4.000000,4.000000,4.000000,4.000000,4.000000,4.000000,4.000000,4.000000,4.000000,4.000000,4.000000,4.000000,4.000000,83.333336
1614302030.990233,58.000000,0.000000,-0.768255,2.045527,-33.460884,10.847370,-32.694729,-5.483597,-9.776770,-1.387639,-9.988249,-18.250771,-10.554011,-0.217265,-4.053638,-22.269333,-4.292676,-25.872702,-5.818140,-4.012196,-26.144032,-9.390957,-31.561152,-11.189753,2.327940,-11.644521,-0.078670,-5.927301,1.440002,-11.680495,5.842953,5.436591,-3.019292,-6.142557,8064.000000,0.000000,4.000000,,,,0.000000,4.000000,4.000000,4.000000,4.000000,4.000000,2.000000,4.000000,4.000000,4.000000,4.000000,4.000000,4.000000,4.000000,4.000000,4.000000,4.000000,4.000000,4.000000,4.000000,4.000000,4.000000,4.000000,4.000000,4.000000,4.000000,4.000000,4.000000,4.000000,4.000000,4.000000,4.000000,4.000000,83.333336
1614302030.998082,59.000000,0.000000,-0.254667,0.505019,-32.914600,7.759600,-30.097931,-7.016575,-9.766993,-1.386251,-9.978260,-11.053032,-4.389611,5.423978,-4.049584,-17.631678,-1.724281,-23.282726,-3.761039,-5.033825,-33.297375,-9.381566,-42.298820,-13.742665,0.787150,-11.120056,-3.155515,-6.947015,0.925741,-11.668815,6.862751,4.405513,-6.606017,-13.315902,8064.000000,0.000000,4.000000,,,,0.000000,4.000000,4.000000,4.000000,4.000000,4.000000,2.000000,4.000000,4.000000,4.000000,4.000000,4.000000,4.000000,4.000000,4.000000,4.000000,4.000000,4.000000,4.000000,4.000000,4.000000,4.000000,4.000000,4.000000,4.000000,4.000000,4.000000,4.000000,4.000000,4.000000,4.000000,4.000000,4.000000,83.333336
1614302031.005832,60.000000,0.000000,-2.305694,-1.546768,-33.394508,8.777481,-29.555014,-10.599302,-9.757226,-1.384865,-9.968282,-10.529159,-4.898042,4.392913,-4.045535,-16.588406,-1.209736,-19.669701,-1.705996,-6.054432,-27.623051,-10.910646,-33.538574,-11.677640,-2.290560,-12.134577,-3.665180,-5.914427,0.411995,-11.657146,4.804606,5.426749,-9.676333,-19.969252,8064.000000,0.000000,4.000000,,,,0.000000,4.000000,4.000000,4.000000,4.000000,4.000000,2.000000,4.000000,4.000000,4.000000,4.000000,4.000000,4.000000,4.000000,4.000000,4.000000,4.000000,4.000000,4.000000,4.000000,4.000000,4.000000,4.000000,4.000000,4.000000,4.000000,4.000000,4.000000,4.000000,4.000000,4.000000,4.000000,4.000000,83.333336
1614302031.013681,61.000000,0.000000,-3.841850,-2.570862,-32.848293,8.768703,-31.063919,-13.665626,-9.747469,-1.383480,-10.471134,-15.134014,-7.457246,3.875700,-0.451746,-16.058996,0.842756,-14.521826,-2.217111,-4.509916,-24.518505,-7.309992,-26.838369,-8.589040,-1.262629,-11.096801,-4.174335,-5.395692,4.001327,-11.645489,2.235699,5.934143,-10.179478,-19.949284,8064.000000,0.000000,4.000000,,,,0.000000,4.000000,4.000000,4.000000,4.000000,4.000000,2.000000,4.000000,4.000000,4.000000,4.000000,4.000000,4.000000,4.000000,4.000000,4.000000,4.000000,4.000000,4.000000,4.000000,4.000000,4.000000,4.000000,4.000000,4.000000,4.000000,4.000000,4.000000,4.000000,4.000000,4.000000,4.000000,4.000000,83.333336
1614302031.021430,62.000000,0.000000,-1.786726,-2.055471,-32.302624,8.247114,-30.520035,-13.651960,-9.737721,-1.382097,-7.896561,-11.016315,-5.398507,4.897465,4.164091,-10.401913,5.457297,-12.968843,-2.214894,1.135619,-22.442705,-0.123195,-18.606401,-8.580450,3.866839,-6.470320,-0.580417,-6.928758,7.587069,-11.633843,4.797566,10.543593,-7.605196,-18.903692,8064.000000,0.000000,4.000000,,,,0.000000,4.000000,4.000000,4.000000,4.000000,4.000000,2.000000,4.000000,4.000000,4.000000,4.000000,4.000000,4.000000,4.000000,4.000000,4.000000,4.000000,4.000000,4.000000,4.000000,4.000000,4.000000,4.000000,4.000000,4.000000,4.000000,4.000000,4.000000,4.000000,4.000000,4.000000,4.000000,4.000000,83.333336
1614302031.029179,63.000000,0.000000,-1.784939,-2.053415,-32.783142,8.751688,-29.463875,-13.125488,-9.727983,-0.867894,-3.273279,-5.364274,-3.854647,4.379747,3.647106,-5.776126,8.015943,-14.494335,-2.212679,1.647304,-15.240775,1.928210,-3.203180,-8.571870,6.427075,-1.335644,7.112471,-0.767983,8.605123,-9.570928,10.946614,20.276640,-2.469385,-13.243764,8064.000000,0.000000,4.000000,,,,0.000000,4.000000,4.000000,4.000000,4.000000,4.000000,2.000000,4.000000,4.000000,4.000000,4.000000,4.000000,4.000000,4.000000,4.000000,4.000000,4.000000,4.000000,4.000000,4.000000,4.000000,4.000000,4.000000,4.000000,4.000000,4.000000,4.000000,4.000000,4.000000,4.000000,4.000000,4.000000,4.000000,83.333336
1614302031.036929,64.000000,0.000000,-4.347257,-2.051362,-32.750359,8.230116,-29.947231,-13.112363,-9.718256,-1.892667,-2.244365,-5.871730,-3.337972,2.836906,-1.484746,-4.744709,6.982286,-9.351635,-2.210466,5.748221,-5.994765,3.464744,13.723100,-5.999196,5.395007,2.255435,12.746385,11.027657,9.109339,-7.510074,14.525412,27.948669,2.148469,-2.461289,0.000000,200.000000,4.000000,,,,0.000000,4.000000,4.000000,4.000000,4.000000,4.000000,2.000000,4.000000,4.000000,4.000000,4.000000,4.000000,4.000000,4.000000,4.000000,4.000000,4.000000,4.000000,4.000000,4.000000,4.000000,4.000000,4.000000,4.000000,4.000000,4.000000,4.000000,4.000000,4.000000,4.000000,4.000000,4.000000,4.000000,83.333336
1614302031.044578,65.000000,0.000000,-4.342909,-2.049310,-31.691967,5.657783,-29.917284,-13.099250,-9.708537,-0.865134,-1.729300,-5.865858,-4.873095,-0.755675,-4.047364,-4.227143,7.488124,-1.137156,-2.208256,21.639908,7.344563,9.102304,26.017069,-0.352171,5.389612,6.355744,13.246458,12.555091,7.048947,-8.528205,12.972425,25.869440,2.146320,-0.920366,0.000000,221.000000,4.000000,,,,0.000000,4.000000,4.000000,4.000000,4.000000,4.000000,2.000000,4.000000,4.000000,4.000000,4.000000,4.000000,4.000000,4.000000,4.000000,4.000000,4.000000,4.000000,4.000000,4.000000,4.000000,4.000000,4.000000,4.000000,4.000000,4.000000,4.000000,4.000000,4.000000,4.000000,4.000000,4.000000,4.000000,83.333336
1614302031.052327,66.000000,0.000000,-5.877028,-2.047261,-35.250019,4.626484,-28.861725,-13.086151,-9.698829,-0.351448,-2.240391,-4.321531,-10.509248,-3.319022,-3.017675,-6.274199,6.967815,-6.264224,-1.693227,23.156731,15.542347,9.093203,18.811565,-0.351819,6.409863,8.913490,9.643468,1.260484,0.375231,-11.083779,9.369709,17.125622,0.092892,-8.611753,0.000000,174.000000,4.000000,,,,0.000000,4.000000,4.000000,4.000000,4.000000,4.000000,2.000000,4.000000,4.000000,4.000000,4.000000,4.000000,4.000000,4.000000,4.000000,4.000000,4.000000,4.000000,4.000000,4.000000,4.000000,4.000000,4.000000,4.000000,4.000000,4.000000,4.000000,4.000000,4.000000,4.000000,4.000000,4.000000,4.000000,83.333336
1614302031.059977,67.000000,0.000000,-7.922433,-2.045214,-42.394257,5.134678,-29.858505,-13.073065,-9.176310,-4.966481,-7.879177,-8.419773,-15.626944,-3.315703,-5.065940,-11.396130,1.319822,-18.565651,-2.717175,7.748958,0.655010,6.007186,-5.822631,-5.992493,4.352171,6.340475,2.454338,-6.433084,-3.214888,-12.098337,6.796237,12.493112,-1.445663,-12.192885,0.000000,192.000000,4.000000,,,,0.000000,4.000000,4.000000,4.000000,2.000000,4.000000,2.000000,4.000000,4.000000,4.000000,4.000000,4.000000,4.000000,4.000000,4.000000,4.000000,4.000000,4.000000,4.000000,4.000000,4.000000,4.000000,4.000000,4.000000,4.000000,4.000000,4.000000,4.000000,4.000000,4.000000,4.000000,4.000000,4.000000,66.666664
1614302031.067726,68.000000,0.000000,-3.299126,-2.043169,-44.403145,5.129544,-33.418388,-13.059992,-10.192774,-8.551258,-13.512323,-14.052380,-16.124138,-3.312387,-4.035233,-12.923195,0.292861,-21.624008,-2.201637,5.177106,-17.294363,4.462717,-18.124500,-8.037782,1.783717,-0.845353,-2.676322,-6.426651,-2.698852,-10.547777,6.276619,12.480618,-1.957037,-11.155051,0.000000,149.000000,4.000000,,,,0.000000,4.000000,4.000000,4.000000,2.000000,4.000000,2.000000,4.000000,4.000000,4.000000,4.000000,4.000000,4.000000,4.000000,4.000000,4.000000,4.000000,4.000000,4.000000,4.000000,4.000000,4.000000,4.000000,4.000000,4.000000,4.000000,4.000000,4.000000,4.000000,4.000000,4.000000,4.000000,4.000000,66.666664
1614302031.075376,69.000000,0.000000,2.345199,-2.041125,-43.333099,5.124414,-32.872150,-13.046931,-9.156940,-3.927322,-14.011631,-13.012686,-16.108013,-3.821895,4.173931,-12.397451,4.907953,-21.089565,0.877488,6.197570,-19.841171,-3.234053,-20.157658,-9.568206,1.781933,-5.972713,-3.699286,-5.394583,-3.208974,-8.485947,5.757523,12.980958,-1.955080,-11.143896,0.000000,148.000000,4.000000,,,,0.000000,4.000000,4.000000,4.000000,2.000000,4.000000,2.000000,4.000000,4.000000,4.000000,4.000000,4.000000,4.000000,4.000000,4.000000,4.000000,4.000000,4.000000,4.000000,4.000000,4.000000,4.000000,4.000000,4.000000,4.000000,4.000000,4.000000,4.000000,4.000000,4.000000,4.000000,4.000000,4.000000,66.666664
1614302031.083125,70.000000,0.000000,3.881315,-2.039084,-43.802586,5.119289,-33.352100,-13.033885,-6.070860,-1.359292,-15.536081,-17.615057,-15.066264,-3.305253,3.144116,-15.974797,5.928686,-24.658218,0.876610,-8.167602,-30.077740,-14.000050,-33.983654,-17.763765,2.292971,-8.018023,-6.772511,-7.953291,-2.180124,-8.477461,5.751765,11.942336,-2.465946,-12.671214,0.000000,200.000000,4.000000,,,,0.000000,4.000000,4.000000,4.000000,2.000000,4.000000,2.000000,4.000000,4.000000,4.000000,4.000000,4.000000,4.000000,4.000000,4.000000,4.000000,4.000000,4.000000,4.000000,4.000000,4.000000,4.000000,4.000000,4.000000,4.000000,4.000000,4.000000,4.000000,4.000000,4.000000,4.000000,4.000000,4.000000,66.666664
1614302031.090774,71.000000,0.000000,3.364613,-2.037045,-44.271606,5.114170,-42.549515,-13.020851,-8.116072,-5.460497,-17.571827,-33.494877,-17.102480,-3.301947,-8.141080,-21.599848,-0.743909,-29.248945,-3.226830,-18.415844,-50.560482,-15.011691,-52.924030,-26.463951,-1.811886,-11.086927,-9.842661,-13.586364,-3.716405,-10.520266,6.258834,6.802188,-2.463480,-15.222646,0.000000,213.000000,4.000000,,,,0.000000,4.000000,4.000000,4.000000,2.000000,4.000000,2.000000,4.000000,4.000000,4.000000,4.000000,4.000000,4.000000,4.000000,4.000000,4.000000,4.000000,4.000000,4.000000,4.000000,4.000000,4.000000,4.000000,4.000000,4.000000,4.000000,4.000000,4.000000,4.000000,4.000000,4.000000,4.000000,4.000000,66.666664
1614302031.098524,72.000000,0.000000,-1.766957,-2.035008,-44.740154,5.109056,-47.122353,-13.520651,-12.723340,-9.557601,-18.579897,-38.589588,-20.675121,-5.862748,-13.261144,-26.193632,-5.871371,-30.758158,-6.813347,-17.371788,-57.176590,-14.483859,-53.896748,-29.001589,-8.476741,-15.691225,-10.858459,-13.572778,-10.892176,-12.561028,5.226934,4.231284,-2.461016,-15.720243,0.000000,198.000000,4.000000,,,,0.000000,4.000000,4.000000,4.000000,2.000000,4.000000,2.000000,4.000000,4.000000,4.000000,4.000000,4.000000,4.000000,4.000000,4.000000,4.000000,4.000000,4.000000,4.000000,4.000000,4.000000,4.000000,4.000000,4.000000,4.000000,4.000000,4.000000,4.000000,4.000000,4.000000,4.000000,4.000000,4.000000,66.666664
1614302031.106173,73.000000,0.000000,-8.431856,-2.545794,-43.156952,5.103947,-39.382923,-13.507130,-13.736258,-9.548043,-18.048496,-24.192024,-12.449318,-7.395347,-9.145319,-23.090515,-0.737294,-23.547913,-6.806534,-16.841595,-46.863003,-14.982195,-35.381313,-24.357203,-10.519546,-17.213995,-12.386063,-8.431000,-13.445386,-14.599749,6.247348,10.893719,-2.458555,-16.217344,0.000000,200.000000,4.000000,,,,0.000000,4.000000,4.000000,4.000000,2.000000,4.000000,2.000000,4.000000,4.000000,4.000000,4.000000,4.000000,4.000000,4.000000,4.000000,4.000000,4.000000,4.000000,4.000000,4.000000,4.000000,4.000000,4.000000,4.000000,4.000000,4.000000,4.000000,4.000000,4.000000,4.000000,4.000000,4.000000,4.000000,66.666664
1614302031.113922,74.000000,0.000000,-8.423425,-2.030427,-39.524052,5.098843,-33.189693,-12.467981,-12.696880,-2.359008,-11.876601,-6.219115,3.460568,-6.875131,0.607416,-2.554605,12.083956,-1.985903,-4.235625,-3.491420,-23.226397,-4.197982,-5.602341,-12.025153,-7.432103,-14.632679,-5.194189,-6.884107,-7.790915,-15.097969,10.856485,19.600775,-1.430456,-16.713947,0.000000,195.000000,4.000000,,,,0.000000,4.000000,4.000000,4.000000,2.000000,4.000000,2.000000,4.000000,4.000000,4.000000,4.000000,4.000000,4.000000,4.000000,4.000000,4.000000,4.000000,4.000000,4.000000,4.000000,4.000000,4.000000,4.000000,4.000000,4.000000,4.000000,4.000000,4.000000,4.000000,4.000000,4.000000,4.000000,4.000000,66.666664
1614302031.121572,75.000000,0.000000,-4.825257,-1.515576,-34.356323,5.093744,-26.489836,-13.481154,-13.197004,5.848479,-3.659597,5.581976,8.585312,-7.381076,13.427321,23.088976,20.277000,21.093006,-2.692928,26.255661,9.617343,15.293395,27.223774,4.909948,-2.296466,-4.361636,17.375107,-2.774659,-5.219022,-13.031590,13.922552,24.196558,1.135077,-4.389541,0.000000,187.000000,4.000000,,,,0.000000,4.000000,4.000000,4.000000,2.000000,4.000000,2.000000,4.000000,4.000000,4.000000,4.000000,4.000000,4.000000,4.000000,4.000000,4.000000,4.000000,4.000000,4.000000,4.000000,4.000000,4.000000,4.000000,4.000000,4.000000,4.000000,4.000000,4.000000,4.000000,4.000000,4.000000,4.000000,4.000000,66.666664
1614302031.129321,76.000000,0.000000,-4.820432,-3.565343,-25.091196,5.088651,-14.155654,-12.954853,-13.183807,3.791349,-2.630296,11.217420,6.525445,-6.860875,18.542099,33.322296,21.282364,29.789862,-2.690235,44.690945,31.146187,27.585794,50.273476,14.135808,1.295574,13.591444,35.306450,10.561449,-7.265085,-14.044199,13.908629,31.351849,5.236506,13.563567,0.000000,194.000000,4.000000,,,,0.000000,4.000000,4.000000,4.000000,2.000000,4.000000,2.000000,4.000000,4.000000,4.000000,4.000000,4.000000,4.000000,4.000000,4.000000,4.000000,4.000000,4.000000,4.000000,4.000000,4.000000,4.000000,4.000000,4.000000,4.000000,4.000000,4.000000,4.000000,4.000000,4.000000,4.000000,4.000000,4.000000,66.666664
1614302031.136971,77.000000,0.000000,-3.277150,-0.484854,-10.707131,5.083562,-7.987652,-6.788052,-13.170624,-1.340648,-0.576384,13.770305,8.057381,-3.777091,15.446634,31.750513,22.286722,27.708790,-0.636262,45.671894,35.217606,31.660772,55.864227,15.147313,1.807099,26.911186,34.758324,20.294477,-5.206538,-16.081436,17.997284,37.987164,8.821013,19.191029,0.000000,196.000000,4.000000,,,,0.000000,4.000000,4.000000,4.000000,2.000000,4.000000,2.000000,4.000000,4.000000,4.000000,4.000000,4.000000,4.000000,4.000000,4.000000,4.000000,4.000000,4.000000,4.000000,4.000000,4.000000,4.000000,4.000000,4.000000,4.000000,4.000000,4.000000,4.000000,4.000000,4.000000,4.000000,4.000000,4.000000,66.666664
1614302031.144820,78.000000,0.000000,1.854332,8.746400,-1.978476,5.078478,-10.030947,-1.140238,-13.157453,1.224795,4.039577,15.807817,4.459580,-3.260493,14.405547,26.077736,22.264437,27.681082,4.492579,43.574940,37.233669,32.141933,52.218616,14.619345,1.805292,30.986839,30.108181,22.325464,-2.124408,-14.014073,23.620314,40.000458,9.837833,20.197479,0.000000,201.000000,4.000000,,,,0.000000,4.000000,4.000000,4.000000,2.000000,4.000000,2.000000,4.000000,4.000000,4.000000,4.000000,4.000000,4.000000,4.000000,4.000000,4.000000,4.000000,4.000000,4.000000,4.000000,4.000000,4.000000,4.000000,4.000000,4.000000,4.000000,4.000000,4.000000,4.000000,4.000000,4.000000,4.000000,4.000000,66.666664
1614302031.152569,79.000000,0.000000,3.903760,11.814576,-8.130343,6.099041,-10.020915,-1.139098,-13.144296,3.274853,3.009897,3.997137,-3.750008,-3.257233,14.391141,17.846531,21.729351,30.217503,6.026548,45.069828,35.657974,31.084148,41.397167,15.117546,2.316307,30.955853,33.154995,18.713396,-2.122284,-20.153906,24.109514,40.473278,9.315175,19.151640,0.000000,216.000000,4.000000,,,,0.000000,4.000000,4.000000,4.000000,2.000000,4.000000,2.000000,4.000000,4.000000,4.000000,4.000000,4.000000,4.000000,4.000000,4.000000,4.000000,4.000000,4.000000,4.000000,4.000000,4.000000,4.000000,4.000000,4.000000,4.000000,4.000000,4.000000,4.000000,4.000000,4.000000,4.000000,4.000000,4.000000,66.666664
1614302031.160418,80.000000,0.000000,2.874215,9.238659,-20.942726,5.067301,-10.523715,-2.163600,-13.131151,2.245937,1.468425,-16.006861,-3.233437,0.848589,14.376750,12.187658,22.220442,23.520618,4.994880,41.435013,21.776163,25.412039,16.740387,11.512685,1.801170,23.232588,29.019276,6.386991,-2.632982,-44.749134,21.008480,32.740498,8.280219,2.209412,0.000000,198.000000,4.000000,,,,0.000000,4.000000,4.000000,4.000000,2.000000,4.000000,2.000000,4.000000,4.000000,4.000000,4.000000,4.000000,4.000000,4.000000,4.000000,4.000000,4.000000,4.000000,4.000000,4.000000,4.000000,4.000000,4.000000,4.000000,4.000000,4.000000,4.000000,4.000000,4.000000,4.000000,4.000000,4.000000,4.000000,66.666664
1614302031.168168,81.000000,0.000000,2.871341,9.229421,-29.639732,3.523772,-18.205500,-0.622975,-13.118020,4.807794,1.979777,-13.426751,0.359540,4.950304,14.875194,4.995984,18.608479,6.061201,5.502706,20.367937,-1.322536,9.489191,-9.943020,2.270403,1.799369,5.260638,6.426155,-5.414268,-2.630349,-67.268486,13.807985,14.759039,4.682195,-16.254335,0.000000,197.000000,4.000000,,,,0.000000,4.000000,4.000000,4.000000,2.000000,4.000000,2.000000,4.000000,4.000000,4.000000,4.000000,4.000000,4.000000,4.000000,4.000000,4.000000,4.000000,4.000000,4.000000,4.000000,4.000000,4.000000,4.000000,4.000000,4.000000,4.000000,4.000000,4.000000,4.000000,4.000000,4.000000,4.000000,4.000000,66.666664
1614302031.176017,82.000000,0.000000,3.381290,5.117627,-40.892143,2.494607,-31.520626,-2.673634,-13.104902,4.802986,-3.150408,-3.156914,-2.717743,3.919713,8.706472,-6.803884,10.897562,-8.816655,4.984383,-4.267815,-22.859674,-11.545938,-25.830513,-8.501098,1.797570,-12.180520,-16.144375,-6.947316,-2.114898,-51.816605,6.101870,-1.153156,-4.040436,-23.930389,0.000000,211.000000,4.000000,,,,0.000000,4.000000,4.000000,4.000000,2.000000,4.000000,2.000000,4.000000,4.000000,4.000000,4.000000,4.000000,4.000000,4.000000,4.000000,4.000000,4.000000,4.000000,4.000000,4.000000,4.000000,4.000000,4.000000,4.000000,4.000000,4.000000,4.000000,4.000000,4.000000,4.000000,4.000000,4.000000,4.000000,66.666664
1614302031.183766,83.000000,0.000000,2.865088,-2.066978,-60.851250,-2.123272,-43.283978,-10.363268,-13.091797,-2.381305,-12.890847,-20.589655,-7.843230,0.838870,-0.020183,-13.976567,6.271280,-14.961685,0.364014,-8.878932,-32.580406,-21.790804,-35.548271,-16.184904,-0.255510,-16.783724,-20.743614,-9.504471,-3.138424,-18.944277,0.967562,-10.382772,-9.677422,-36.726971,0.000000,201.000000,4.000000,,,,0.000000,4.000000,4.000000,4.000000,2.000000,4.000000,2.000000,4.000000,4.000000,4.000000,4.000000,4.000000,4.000000,4.000000,4.000000,4.000000,4.000000,4.000000,4.000000,4.000000,4.000000,4.000000,4.000000,4.000000,4.000000,4.000000,4.000000,4.000000,4.000000,4.000000,4.000000,4.000000,4.000000,66.666664
1614302031.191615,84.000000,0.000000,2.349403,-3.090552,-74.636551,-10.326277,-45.291977,-18.558033,-13.591526,-5.968667,-14.929238,-35.440861,-8.348207,0.325211,-2.071445,-13.449770,6.265009,-19.049288,-2.713273,-11.946977,-33.060646,-22.281834,-40.128109,-17.194361,-2.306536,-16.766941,-17.645948,-15.135992,-3.648106,-8.668921,-0.571867,-13.449312,-10.693385,-49.510757,0.000000,221.000000,4.000000,,,,0.000000,4.000000,4.000000,4.000000,2.000000,4.000000,2.000000,4.000000,4.000000,4.000000,4.000000,4.000000,4.000000,4.000000,4.000000,4.000000,4.000000,4.000000,4.000000,4.000000,4.000000,4.000000,4.000000,4.000000,4.000000,4.000000,4.000000,4.000000,4.000000,4.000000,4.000000,4.000000,4.000000,66.666664
1614302031.199365,85.000000,0.000000,2.859874,-1.549000,-73.023453,-13.392874,-42.169762,-20.077936,-12.552293,-4.937057,-12.863027,-19.507982,-7.314219,0.837706,-0.018091,-12.923500,6.771564,-21.594341,-2.197740,-25.268362,-36.104507,-22.259550,-38.036697,-16.151525,-1.791409,-16.750174,-20.192404,-13.582395,-0.054715,-32.249996,-1.084115,-11.384581,-8.631410,-49.461246,0.000000,200.000000,4.000000,,,,0.000000,4.000000,4.000000,4.000000,2.000000,4.000000,2.000000,4.000000,4.000000,4.000000,4.000000,4.000000,4.000000,4.000000,4.000000,4.000000,4.000000,4.000000,4.000000,4.000000,4.000000,4.000000,4.000000,4.000000,4.000000,4.000000,4.000000,4.000000,4.000000,4.000000,4.000000,4.000000,4.000000,66.666664
1614302031.207214,86.000000,0.000000,3.882655,-2.573092,-71.924789,-10.302558,-40.589130,-16.980936,-9.975638,-4.419300,-13.875805,-4.103859,-7.819725,0.836868,-0.530893,-13.936217,6.764792,-21.059925,-1.169901,-21.140530,-34.529942,-17.109087,-29.793533,-16.135374,-2.302438,-15.707783,-16.069649,-11.517530,1.483802,-31.704926,-2.108672,-10.860375,-9.648419,-49.924606,0.000000,184.000000,4.000000,,,,0.000000,4.000000,4.000000,4.000000,2.000000,4.000000,2.000000,4.000000,4.000000,4.000000,4.000000,4.000000,4.000000,4.000000,4.000000,4.000000,4.000000,4.000000,4.000000,4.000000,4.000000,4.000000,4.000000,4.000000,4.000000,4.000000,4.000000,4.000000,4.000000,4.000000,4.000000,4.000000,4.000000,66.666664
1614302031.214963,87.000000,0.000000,1.827490,-2.570519,-74.416969,-8.753794,-40.548542,-16.451134,-8.940022,-4.927701,-14.374749,-5.125397,-7.811905,0.323211,-0.530363,-9.819717,6.245207,-20.526045,-2.194372,-4.709133,-17.059515,-4.784285,-9.250919,-11.503854,-1.274495,-11.589511,3.946422,-10.480371,0.456677,-10.647579,-1.593743,-6.746952,-10.664412,-44.233654,0.000000,206.000000,4.000000,,,,0.000000,4.000000,4.000000,4.000000,2.000000,4.000000,2.000000,4.000000,4.000000,4.000000,4.000000,4.000000,4.000000,4.000000,4.000000,4.000000,4.000000,4.000000,4.000000,4.000000,4.000000,4.000000,4.000000,4.000000,4.000000,4.000000,4.000000,4.000000,4.000000,4.000000,4.000000,4.000000,4.000000,66.666664
1614302031.222812,88.000000,0.000000,2.851304,-2.055128,-66.650246,-9.770681,-39.995171,-17.460323,-9.443902,-5.435594,-11.283452,-6.145912,-7.804093,0.322888,-1.042653,-3.143231,7.264603,-16.915775,-2.704998,1.449422,-0.119378,4.451269,21.527563,0.302522,3.342164,-2.347152,24.455296,7.478827,8.148528,-12.175394,6.612979,14.285437,-6.551183,-21.112499,0.000000,214.000000,4.000000,,,,0.000000,4.000000,4.000000,4.000000,2.000000,4.000000,2.000000,4.000000,4.000000,4.000000,4.000000,4.000000,4.000000,4.000000,4.000000,4.000000,4.000000,4.000000,4.000000,4.000000,4.000000,4.000000,4.000000,4.000000,4.000000,4.000000,4.000000,4.000000,4.000000,4.000000,4.000000,4.000000,4.000000,66.666664
1614302031.230562,89.000000,0.000000,9.515119,-2.053072,-52.224621,-9.248090,-38.929535,-14.365940,-8.921638,-4.404517,-9.220886,-7.678228,-7.283468,1.348206,0.496852,-0.063165,10.334262,-10.745014,-0.138191,10.678741,9.111510,9.575023,38.429111,9.532989,6.415745,14.065452,31.097507,27.471348,15.832687,-19.342705,14.298674,32.732689,2.173317,-5.193951,0.000000,190.000000,4.000000,,,,0.000000,4.000000,4.000000,4.000000,2.000000,4.000000,2.000000,4.000000,4.000000,4.000000,4.000000,4.000000,4.000000,4.000000,4.000000,4.000000,4.000000,4.000000,4.000000,4.000000,4.000000,4.000000,4.000000,4.000000,4.000000,4.000000,4.000000,4.000000,4.000000,4.000000,4.000000,4.000000,4.000000,66.666664
1614302031.238411,90.000000,0.000000,6.428681,-2.051019,-49.095470,-8.726021,-38.377785,-12.813113,-8.912716,-3.887292,-9.211665,-11.260293,-6.763364,-1.217245,-0.016466,0.449719,7.759825,-16.888115,-4.753437,17.847549,9.615219,8.026986,21.467606,5.933712,3.845227,25.333437,22.861282,18.725927,6.586085,-11.118235,6.592067,23.469187,1.658323,-12.881064,0.000000,196.000000,4.000000,,,,0.000000,4.000000,4.000000,4.000000,2.000000,4.000000,2.000000,4.000000,4.000000,4.000000,4.000000,4.000000,4.000000,4.000000,4.000000,4.000000,4.000000,4.000000,4.000000,4.000000,4.000000,4.000000,4.000000,4.000000,4.000000,4.000000,4.000000,4.000000,4.000000,4.000000,4.000000,4.000000,4.000000,66.666664
1614302031.246160,91.000000,0.000000,-5.885440,-2.048969,-52.636120,-9.230116,-39.877869,-17.415684,-11.467906,-7.473148,-9.715274,-12.274674,-9.320704,-8.908336,-10.272860,-4.678936,-0.965884,-34.307125,-18.594837,-0.119015,-3.727729,-4.288733,-7.784631,-10.995298,1.277279,15.051694,7.966625,-2.831259,-8.292295,-13.671219,-4.696576,9.086744,-6.548463,-22.611773,0.000000,199.000000,4.000000,,,,0.000000,4.000000,4.000000,4.000000,2.000000,4.000000,2.000000,4.000000,4.000000,4.000000,4.000000,4.000000,4.000000,4.000000,4.000000,4.000000,4.000000,4.000000,4.000000,4.000000,4.000000,4.000000,4.000000,4.000000,4.000000,4.000000,4.000000,4.000000,4.000000,4.000000,4.000000,4.000000,4.000000,66.666664
1614302031.254010,92.000000,0.000000,-7.930837,-2.046920,-51.557842,-9.220885,-39.325172,-20.475191,-12.994900,-12.081059,-9.192739,-19.441887,-11.362665,-11.463530,-18.980536,-18.007589,-5.580302,-44.016407,-25.242908,-19.093256,-16.544514,-15.053676,-17.007616,-25.856098,2.301643,-3.424896,-1.784931,-6.930993,-11.360927,-22.888317,-5.717521,10.616119,-4.490633,-20.025059,0.000000,199.000000,4.000000,,,,0.000000,4.000000,4.000000,4.000000,2.000000,4.000000,2.000000,4.000000,4.000000,4.000000,4.000000,4.000000,4.000000,4.000000,4.000000,4.000000,4.000000,4.000000,4.000000,4.000000,4.000000,4.000000,4.000000,4.000000,4.000000,4.000000,4.000000,4.000000,4.000000,4.000000,4.000000,4.000000,4.000000,66.666664
1614302031.261759,93.000000,0.000000,-3.307521,-2.044873,-54.070389,-6.647562,-38.260204,-17.377794,-12.981905,-12.068978,-9.183545,-26.601933,-10.838482,-9.400784,-16.910273,-27.733171,-4.036261,-42.946751,-21.115103,-19.586983,-21.143354,-17.602724,-20.580351,-27.368704,2.299341,-11.113779,-3.834428,-5.385600,-9.298284,-19.275684,-3.660521,8.041400,-1.409219,-20.005033,0.000000,201.000000,4.000000,,,,0.000000,4.000000,4.000000,4.000000,2.000000,4.000000,2.000000,4.000000,4.000000,4.000000,4.000000,4.000000,4.000000,4.000000,4.000000,4.000000,4.000000,4.000000,4.000000,4.000000,4.000000,4.000000,4.000000,4.000000,4.000000,4.000000,4.000000,4.000000,4.000000,4.000000,4.000000,4.000000,4.000000,66.666664
1614302031.269408,94.000000,0.000000,-6.893958,-2.042828,-63.759907,-5.102453,-47.452713,-15.821955,-12.968923,-13.595371,-12.251286,-29.139433,-13.904567,-11.442665,-15.867722,-29.756721,-4.032224,-42.903801,-19.555525,-19.567396,-34.968365,-23.738968,-42.611053,-27.854155,-3.343984,-11.102666,-9.984440,-14.610984,-10.314627,-21.307692,-5.195322,-8.376898,-13.715503,-30.754259,0.000000,211.000000,4.000000,,,,0.000000,4.000000,4.000000,4.000000,2.000000,4.000000,2.000000,4.000000,4.000000,4.000000,4.000000,4.000000,4.000000,4.000000,4.000000,4.000000,4.000000,4.000000,4.000000,4.000000,4.000000,4.000000,4.000000,4.000000,4.000000,4.000000,4.000000,4.000000,4.000000,4.000000,4.000000,4.000000,4.000000,66.666664
1614302031.277158,95.000000,0.000000,-9.451166,-2.040785,-67.798714,-7.148633,-57.661671,-16.318953,-12.955954,-18.197161,-16.854418,-36.289780,-23.634251,-17.072248,-19.441597,-31.778246,-5.566654,-44.399361,-22.100073,-24.163212,-48.266731,-29.869076,-56.414597,-32.441685,-10.007306,-17.245409,-17.153942,-22.801500,-11.329953,-30.004332,-5.190127,-18.624931,-23.958197,-43.031197,0.000000,198.000000,4.000000,,,,0.000000,4.000000,4.000000,4.000000,2.000000,4.000000,2.000000,4.000000,4.000000,4.000000,4.000000,4.000000,4.000000,4.000000,4.000000,4.000000,4.000000,4.000000,4.000000,4.000000,4.000000,4.000000,4.000000,4.000000,4.000000,4.000000,4.000000,4.000000,4.000000,4.000000,4.000000,4.000000,4.000000,66.666664
1614302031.284807,96.000000,0.000000,-4.313509,-2.038744,-68.756554,-9.192766,-56.065548,-16.302633,-12.942998,-16.640501,-17.350384,-38.817593,-26.687540,-17.567997,-15.832413,-31.233648,-3.509805,-40.765217,-19.513870,-24.139050,-37.962051,-23.685360,-44.050488,-24.204117,-9.484479,-27.484573,-18.162430,-21.240238,-10.805802,-24.333302,-4.672116,-16.555023,-15.729111,-45.039448,8064.000000,0.000000,4.000000,,,,0.000000,4.000000,4.000000,4.000000,2.000000,4.000000,2.000000,4.000000,4.000000,4.000000,4.000000,4.000000,4.000000,4.000000,4.000000,4.000000,4.000000,4.000000,4.000000,4.000000,4.000000,4.000000,4.000000,4.000000,4.000000,4.000000,4.000000,4.000000,4.000000,4.000000,4.000000,4.000000,4.000000,66.666664
1614302031.292556,97.000000,0.000000,0.306188,-1.523885,-73.816002,-9.183573,-50.881279,-16.286331,-12.417234,-12.008476,-14.256111,-25.445442,-19.994186,-14.473506,-8.637093,-27.099850,-0.942193,-33.032146,-14.366151,-23.602089,-27.154860,-13.918085,-32.724388,-6.231194,-6.398071,-25.405807,-18.144268,-17.629253,-5.153971,-14.565379,-4.667444,-12.435905,-7.508254,-42.943127,8064.000000,0.000000,4.000000,,,,0.000000,4.000000,4.000000,4.000000,2.000000,4.000000,2.000000,4.000000,4.000000,4.000000,4.000000,4.000000,4.000000,4.000000,4.000000,4.000000,4.000000,4.000000,4.000000,4.000000,4.000000,4.000000,4.000000,4.000000,4.000000,4.000000,4.000000,4.000000,4.000000,4.000000,4.000000,4.000000,4.000000,66.666664
1614302031.300206,98.000000,0.000000,-0.206938,-1.009540,-75.793465,-8.661570,-49.291935,-15.244404,-12.404817,-11.483647,-13.216214,-15.163587,-14.845987,-13.433391,-6.064353,-22.970186,-0.941250,-21.717062,-10.762041,-18.450283,-27.127705,-12.878526,-27.050638,1.467345,-5.878852,-10.508607,-16.587662,-17.611624,1.005029,-15.576455,-4.149956,-10.372187,-8.526386,-44.951466,8064.000000,0.000000,4.000000,,,,0.000000,4.000000,4.000000,4.000000,2.000000,4.000000,2.000000,4.000000,4.000000,4.000000,4.000000,4.000000,4.000000,4.000000,4.000000,4.000000,4.000000,4.000000,4.000000,4.000000,4.000000,4.000000,4.000000,4.000000,4.000000,4.000000,4.000000,4.000000,4.000000,4.000000,4.000000,4.000000,4.000000,66.666664
1614302031.307955,99.000000,0.000000,-1.232372,-2.034172,-70.076653,-9.165729,-45.652901,-12.665057,-13.418054,-12.497805,-13.202998,-18.738167,-14.831141,-14.445599,-2.981366,-14.742087,1.110973,-11.951755,-9.212817,-3.047217,-13.767244,-8.250262,-5.997946,-1.098225,-4.847332,-3.318611,-5.801843,-15.029910,1.516845,-16.073698,-4.658627,-9.336174,-9.543501,-43.880875,8064.000000,0.000000,4.000000,,,,0.000000,4.000000,4.000000,4.000000,2.000000,4.000000,2.000000,4.000000,4.000000,4.000000,4.000000,4.000000,4.000000,4.000000,4.000000,4.000000,4.000000,4.000000,4.000000,4.000000,4.000000,4.000000,4.000000,4.000000,4.000000,4.000000,4.000000,4.000000,4.000000,4.000000,4.000000,4.000000,4.000000,66.666664
1614302031.315604,100.000000,0.000000,-0.205499,-2.032138,-64.365547,-9.156563,-42.017502,-12.139571,-12.891814,-11.459666,-13.189795,-20.770710,-14.816310,-13.918332,-0.927102,-3.958115,8.289350,-6.298777,-9.203605,16.443010,10.349088,6.116962,22.213181,-0.584306,-0.227101,-1.776831,9.075754,-8.348214,1.002507,-16.570446,-4.653968,-7.275556,-7.995496,-36.144684,8064.000000,0.000000,4.000000,,,,0.000000,4.000000,4.000000,4.000000,2.000000,4.000000,2.000000,4.000000,4.000000,4.000000,4.000000,4.000000,4.000000,4.000000,4.000000,4.000000,4.000000,4.000000,4.000000,4.000000,4.000000,4.000000,4.000000,4.000000,4.000000,4.000000,4.000000,4.000000,4.000000,4.000000,4.000000,4.000000,4.000000,66.666664
1614302031.323354,101.000000,0.000000,0.307527,-0.491644,-62.762718,-9.147406,-42.488304,-12.640252,-12.366102,-11.448207,-13.176605,-18.698658,-14.288673,-13.904414,1.125107,1.174048,11.357983,-3.728376,-9.194401,28.221439,26.236174,14.315973,33.473019,5.570124,2.850049,12.071100,12.143601,-4.237301,2.027146,-23.220543,-4.136494,-4.704177,-7.987500,-31.493155,8064.000000,0.000000,4.000000,,,,0.000000,4.000000,4.000000,4.000000,2.000000,4.000000,2.000000,4.000000,4.000000,4.000000,4.000000,4.000000,4.000000,4.000000,4.000000,4.000000,4.000000,4.000000,4.000000,4.000000,4.000000,4.000000,4.000000,4.000000,4.000000,4.000000,4.000000,4.000000,4.000000,4.000000,4.000000,4.000000,4.000000,66.666664
1614302031.331003,102.000000,0.000000,-3.282524,-5.619358,-63.725597,-9.138258,-40.394535,-12.627612,-16.456301,-11.949579,-13.163428,-20.731241,-16.838488,-13.890510,-0.927300,-3.955331,7.756881,-8.340032,-8.672386,20.500910,23.645836,9.173452,24.208776,7.103016,0.795917,19.751337,1.875047,-6.797167,-1.564625,-27.812706,-5.670818,-4.186653,-9.005154,-31.974483,8064.000000,0.000000,4.000000,,,,0.000000,4.000000,4.000000,4.000000,2.000000,4.000000,2.000000,4.000000,4.000000,4.000000,4.000000,4.000000,4.000000,4.000000,4.000000,4.000000,4.000000,4.000000,4.000000,4.000000,4.000000,4.000000,4.000000,4.000000,4.000000,4.000000,4.000000,4.000000,4.000000,4.000000,4.000000,4.000000,4.000000,66.666664
1614302031.338753,103.000000,0.000000,-7.894626,-15.357327,-62.636230,-9.129120,-36.251575,-12.102164,-20.029587,-11.937630,-13.663085,-24.300253,-18.360109,-14.389440,-11.182783,-12.669324,3.133740,-21.152205,-10.202175,-0.545233,7.211933,4.548894,6.235849,1.967708,-1.768981,3.834149,-8.383238,-12.944216,-6.691266,-26.759253,-7.716430,-7.259389,-13.098713,-32.455330,8064.000000,0.000000,4.000000,,,,0.000000,4.000000,4.000000,4.000000,2.000000,4.000000,2.000000,4.000000,4.000000,4.000000,4.000000,4.000000,4.000000,4.000000,4.000000,4.000000,4.000000,4.000000,4.000000,4.000000,4.000000,4.000000,4.000000,4.000000,4.000000,4.000000,4.000000,4.000000,4.000000,4.000000,4.000000,4.000000,4.000000,66.666664
1614302031.346402,104.000000,0.000000,-6.861091,-15.854791,-61.547955,-8.607170,-34.676865,-12.602882,-16.932634,-12.438512,-13.136601,-24.788773,-19.367392,-14.375051,-13.222882,-16.759218,1.079324,-25.746437,-8.653512,-7.724174,1.050875,6.595627,-6.078079,-2.136824,-1.767212,-8.990197,-10.938957,-18.059477,-6.684574,-26.732492,-8.221534,-8.790591,-16.162537,-31.910053,8064.000000,0.000000,4.000000,,,,0.000000,4.000000,4.000000,4.000000,2.000000,4.000000,2.000000,4.000000,4.000000,4.000000,4.000000,4.000000,4.000000,4.000000,4.000000,4.000000,4.000000,4.000000,4.000000,4.000000,4.000000,4.000000,4.000000,4.000000,4.000000,4.000000,4.000000,4.000000,4.000000,4.000000,4.000000,4.000000,4.000000,66.666664
1614302031.354251,105.000000,0.000000,-3.777306,-9.685090,-64.050507,-9.111383,-35.667828,-12.590280,-12.300318,-11.913253,-13.636286,-23.738344,-19.348022,-13.847855,0.123674,-15.203999,6.206450,-16.489922,-1.978191,4.078422,7.716491,8.127493,-7.610462,-1.621867,-2.278265,-7.442746,-9.902377,-21.118340,-6.677889,-27.218580,-8.726132,-9.294621,-16.659195,-32.390965,8064.000000,0.000000,4.000000,,,,0.000000,4.000000,4.000000,4.000000,2.000000,4.000000,2.000000,4.000000,4.000000,4.000000,4.000000,4.000000,4.000000,4.000000,4.000000,4.000000,4.000000,4.000000,4.000000,4.000000,4.000000,4.000000,4.000000,4.000000,4.000000,4.000000,4.000000,4.000000,4.000000,4.000000,4.000000,4.000000,4.000000,66.666664
1614302031.362001,106.000000,0.000000,-5.824811,-9.675406,-63.986458,-9.615093,-36.657799,-13.090509,-13.826479,-11.901340,-13.109829,-24.227427,-13.174829,-12.808366,7.303037,-14.163153,15.431012,-9.806765,1.613530,9.715368,5.144672,3.503981,-7.602852,-2.133066,-1.763167,-8.460944,-11.943757,-21.610043,-7.184032,-27.191362,-9.230227,-10.310967,-17.155355,-33.384212,8064.000000,0.000000,4.000000,,,,0.000000,4.000000,4.000000,4.000000,2.000000,4.000000,2.000000,4.000000,4.000000,4.000000,4.000000,4.000000,4.000000,4.000000,4.000000,4.000000,4.000000,4.000000,4.000000,4.000000,4.000000,4.000000,4.000000,4.000000,4.000000,4.000000,4.000000,4.000000,4.000000,4.000000,4.000000,4.000000,4.000000,66.666664
1614302031.369850,107.000000,0.000000,-4.280525,-10.178550,-55.204521,-9.092657,-36.108322,-12.564599,-12.787011,-12.915079,-6.942873,-24.203199,-5.469347,-8.692993,7.808555,-12.097708,17.979685,-9.796958,2.124737,5.603089,-1.014319,0.423554,-9.133711,-1.105291,0.289879,-13.067868,-10.906173,-20.562792,-5.638387,-26.651350,-8.195356,-7.736554,-16.112560,-32.325188,8064.000000,0.000000,4.000000,,,,0.000000,4.000000,4.000000,4.000000,2.000000,4.000000,2.000000,4.000000,4.000000,4.000000,4.000000,4.000000,4.000000,4.000000,4.000000,4.000000,4.000000,4.000000,4.000000,4.000000,4.000000,4.000000,4.000000,4.000000,4.000000,4.000000,4.000000,4.000000,4.000000,4.000000,4.000000,4.000000,4.000000,66.666664
1614302031.377599,108.000000,0.000000,1.364781,-9.142731,-54.123676,-9.083565,-32.995293,-12.552034,-9.184481,-8.286779,-0.269263,-18.537970,-2.386954,-0.991993,16.005875,-2.854841,17.961704,-3.633315,6.737997,5.597486,1.037977,1.448772,-7.586115,3.511198,2.340871,-11.516338,-5.254241,-15.926844,-4.094287,-27.137520,-8.699981,-4.651895,-13.532345,-32.292862,8064.000000,0.000000,4.000000,,,,0.000000,4.000000,4.000000,4.000000,2.000000,4.000000,2.000000,4.000000,4.000000,4.000000,4.000000,4.000000,4.000000,4.000000,4.000000,4.000000,4.000000,4.000000,4.000000,4.000000,4.000000,4.000000,4.000000,4.000000,4.000000,4.000000,4.000000,4.000000,4.000000,4.000000,4.000000,4.000000,4.000000,66.666664
1614302031.385448,109.000000,0.000000,2.389058,-10.159229,-63.300323,-12.664225,-33.987938,-13.565123,-9.688117,1.977917,1.782288,-9.288662,1.205176,3.624384,22.143715,5.865963,22.046307,7.139549,9.808182,7.643171,-0.501522,0.934502,-7.578529,8.635892,3.876991,-9.453540,-0.633602,-10.782712,-1.013269,-27.110382,-9.716922,-2.083140,-14.031633,-34.311852,8064.000000,0.000000,4.000000,,,,0.000000,4.000000,4.000000,4.000000,2.000000,4.000000,2.000000,4.000000,4.000000,4.000000,4.000000,4.000000,4.000000,4.000000,4.000000,4.000000,4.000000,4.000000,4.000000,4.000000,4.000000,4.000000,4.000000,4.000000,4.000000,4.000000,4.000000,4.000000,4.000000,4.000000,4.000000,4.000000,4.000000,66.666664
1614302031.393198,110.000000,0.000000,4.950771,-5.020864,-58.621639,-13.164381,-30.877026,-11.500276,-8.139967,7.616965,1.267685,-2.612707,6.332176,4.646400,18.019007,6.885737,25.614004,10.209332,9.285554,6.609887,0.011800,1.959209,-8.083771,18.370846,7.975678,-6.879984,7.059340,-3.592442,7.705693,-22.467888,-0.476436,7.149713,-9.915037,-26.585232,8064.000000,0.000000,4.000000,,,,0.000000,4.000000,4.000000,4.000000,2.000000,4.000000,2.000000,4.000000,4.000000,4.000000,4.000000,4.000000,4.000000,4.000000,4.000000,4.000000,4.000000,4.000000,4.000000,4.000000,4.000000,4.000000,4.000000,4.000000,4.000000,4.000000,4.000000,4.000000,4.000000,4.000000,4.000000,4.000000,4.000000,66.666664
1614302031.401047,111.000000,0.000000,14.176590,7.291849,-41.127117,-5.971729,-11.871790,-5.334929,1.098942,6.583707,1.266417,-1.584453,7.864305,8.744318,16.975348,5.853211,25.588390,9.686303,10.814730,8.141738,10.268198,7.598275,-0.383380,28.096066,12.583087,5.947409,17.308691,9.231663,16.928757,-16.291573,11.831733,18.937435,0.864109,-11.174032,8064.000000,0.000000,4.000000,,,,0.000000,4.000000,4.000000,4.000000,2.000000,4.000000,2.000000,4.000000,4.000000,4.000000,4.000000,4.000000,4.000000,4.000000,4.000000,4.000000,4.000000,4.000000,4.000000,4.000000,4.000000,4.000000,4.000000,4.000000,4.000000,4.000000,4.000000,4.000000,4.000000,4.000000,4.000000,4.000000,4.000000,66.666664
1614302031.408796,112.000000,0.000000,19.290619,13.951223,-34.932144,-0.837553,4.037518,-1.227030,6.738869,6.064303,2.803612,-1.582869,6.830800,11.299677,18.496834,6.360178,24.024340,7.112514,13.368017,11.210520,10.257930,9.129139,10.386234,26.529507,13.596146,20.813257,19.342665,17.940380,20.501572,-14.736820,14.896824,22.508242,7.017090,-4.496192,8064.000000,0.000000,4.000000,,,,0.000000,4.000000,4.000000,4.000000,2.000000,4.000000,2.000000,4.000000,4.000000,4.000000,4.000000,4.000000,4.000000,4.000000,4.000000,4.000000,4.000000,4.000000,4.000000,4.000000,4.000000,4.000000,4.000000,4.000000,4.000000,4.000000,4.000000,4.000000,4.000000,4.000000,4.000000,4.000000,4.000000,66.666664
1614302031.416645,113.000000,0.000000,15.681584,12.911632,-37.461315,-1.349536,0.956557,-1.225803,5.706489,6.571059,4.339271,-2.094106,7.336790,7.185812,15.401413,6.353818,18.359291,-0.074086,11.816188,8.122386,-1.034379,3.478984,12.427131,18.297850,11.018447,22.330904,16.246399,16.896799,19.455429,-15.747725,13.343466,22.485733,6.497253,-6.542977,8064.000000,0.000000,4.000000,,,,0.000000,4.000000,4.000000,4.000000,2.000000,4.000000,2.000000,4.000000,4.000000,4.000000,4.000000,4.000000,4.000000,4.000000,4.000000,4.000000,4.000000,4.000000,4.000000,4.000000,4.000000,4.000000,4.000000,4.000000,4.000000,4.000000,4.000000,4.000000,4.000000,4.000000,4.000000,4.000000,4.000000,66.666664
1614302031.424395,114.000000,0.000000,13.101800,12.385899,-36.911034,-1.861006,-3.146963,-1.737398,5.187962,6.564488,5.873393,-1.579192,7.329453,4.614524,13.334729,5.834644,16.802469,-1.612473,9.240269,6.575802,-1.033345,0.398582,11.389062,16.741091,8.956146,17.693190,18.794254,16.367081,16.871870,-15.219156,13.842943,25.027349,8.542038,-6.536434,8064.000000,0.000000,4.000000,,,,0.000000,4.000000,4.000000,4.000000,2.000000,4.000000,2.000000,4.000000,4.000000,4.000000,4.000000,4.000000,4.000000,4.000000,4.000000,4.000000,4.000000,4.000000,4.000000,4.000000,4.000000,4.000000,4.000000,4.000000,4.000000,4.000000,4.000000,4.000000,4.000000,4.000000,4.000000,4.000000,4.000000,66.666664
1614302031.432244,115.000000,0.000000,14.114339,13.911975,-35.335663,-0.833504,-1.092534,-1.222840,6.208415,6.045103,7.918801,0.473669,7.322124,4.609910,13.321395,6.341630,18.836948,0.953242,8.205388,10.158970,6.147176,1.936645,12.403315,16.211529,8.947190,18.701138,19.801102,17.376356,15.316537,-15.203937,14.341920,24.489502,10.584778,-5.504257,8064.000000,0.000000,4.000000,,,,0.000000,4.000000,4.000000,4.000000,2.000000,4.000000,2.000000,4.000000,4.000000,4.000000,4.000000,4.000000,4.000000,4.000000,4.000000,4.000000,4.000000,4.000000,4.000000,4.000000,4.000000,4.000000,4.000000,4.000000,4.000000,4.000000,4.000000,4.000000,4.000000,4.000000,4.000000,4.000000,4.000000,66.666664
1614302031.439993,116.000000,0.000000,13.587404,12.359601,-36.325966,-1.345492,-3.655544,-1.734438,5.689386,5.526237,8.936523,2.524478,6.801981,2.041197,13.820894,5.309647,11.638625,-4.175917,8.710003,6.046247,4.602567,1.421888,6.749885,13.118394,8.938243,18.682436,19.268480,15.820518,15.814041,-15.701553,13.301937,23.439371,9.035731,-6.011573,8064.000000,0.000000,4.000000,,,,0.000000,4.000000,4.000000,4.000000,2.000000,4.000000,2.000000,4.000000,4.000000,4.000000,4.000000,4.000000,4.000000,4.000000,4.000000,4.000000,4.000000,4.000000,4.000000,4.000000,4.000000,4.000000,4.000000,4.000000,4.000000,4.000000,4.000000,4.000000,4.000000,4.000000,4.000000,4.000000,4.000000,66.666664
1614302031.447842,117.000000,0.000000,13.060996,12.347241,-36.802464,-1.856966,-5.703171,-1.732703,5.170876,8.084813,8.414766,4.573236,6.795179,6.654541,15.858356,5.817158,8.037243,-4.684561,8.701293,-3.190569,1.008221,1.420466,-2.487634,12.079635,8.929304,13.535548,20.274853,13.240595,13.746944,-15.685852,13.288635,24.954393,9.539516,-7.544023,8064.000000,0.000000,4.000000,,,,0.000000,4.000000,4.000000,4.000000,2.000000,4.000000,2.000000,4.000000,4.000000,4.000000,4.000000,4.000000,4.000000,4.000000,4.000000,4.000000,4.000000,4.000000,4.000000,4.000000,4.000000,4.000000,4.000000,4.000000,4.000000,4.000000,4.000000,4.000000,4.000000,4.000000,4.000000,4.000000,4.000000,66.666664
1614302031.455592,118.000000,0.000000,13.560756,12.847714,-38.304119,-1.342289,-6.723109,-1.730971,5.165705,10.128011,8.919172,6.619944,7.301204,14.340194,17.893780,6.836982,19.311256,6.602175,9.205412,-1.648917,2.032854,4.495968,-4.536428,13.093196,8.920375,9.932269,12.049449,11.176072,9.117813,-15.670166,13.275347,21.339695,10.042797,-11.126223,8064.000000,0.000000,4.000000,,,,0.000000,4.000000,4.000000,4.000000,2.000000,4.000000,2.000000,4.000000,4.000000,4.000000,4.000000,4.000000,4.000000,4.000000,4.000000,4.000000,4.000000,4.000000,4.000000,4.000000,4.000000,4.000000,4.000000,4.000000,4.000000,4.000000,4.000000,4.000000,4.000000,4.000000,4.000000,4.000000,4.000000,66.666664
1614302031.463441,119.000000,0.000000,13.547195,9.757944,-43.394020,-2.366588,-15.947155,-1.729240,5.160540,8.579421,8.910254,4.562042,5.242621,9.710469,17.363064,3.240401,23.907330,8.134034,9.196207,3.480937,2.543641,6.029934,-2.993430,13.592923,8.911455,9.409516,-1.295934,7.575152,7.057414,-15.654496,13.262072,13.113227,7.468652,-17.268942,8064.000000,0.000000,4.000000,,,,0.000000,4.000000,4.000000,4.000000,2.000000,4.000000,2.000000,4.000000,4.000000,4.000000,4.000000,4.000000,4.000000,4.000000,4.000000,4.000000,4.000000,4.000000,4.000000,4.000000,4.000000,4.000000,4.000000,4.000000,4.000000,4.000000,4.000000,4.000000,4.000000,4.000000,4.000000,4.000000,4.000000,66.666664
1614302031.471190,120.000000,0.000000,13.533648,5.132802,-51.042934,-4.928324,-25.674797,-1.727510,5.668200,6.006739,7.875702,-2.622007,3.186096,5.598195,17.858522,-0.865403,18.242397,-2.130510,8.161369,2.964636,2.028277,4.485442,-4.016078,13.066510,8.902543,7.348825,-4.884381,4.490654,8.075997,-15.126021,13.248810,7.971909,5.922722,-23.405519,8064.000000,0.000000,4.000000,,,,0.000000,4.000000,4.000000,4.000000,2.000000,4.000000,2.000000,4.000000,4.000000,4.000000,4.000000,4.000000,4.000000,4.000000,4.000000,4.000000,4.000000,4.000000,4.000000,4.000000,4.000000,4.000000,4.000000,4.000000,4.000000,4.000000,4.000000,4.000000,4.000000,4.000000,4.000000,4.000000,4.000000,66.666664
1614302031.479039,121.000000,0.000000,13.520114,4.614848,-55.094456,-5.436216,-26.161943,-1.725783,4.636890,6.513553,8.893467,-6.209129,3.182910,13.797725,17.840664,0.161103,19.249796,-0.077098,9.691669,3.474492,2.026249,5.506598,-4.012062,12.540623,9.406462,6.315835,-2.828215,4.486163,8.067921,-13.572433,13.748382,8.476757,5.403978,-25.433395,8064.000000,0.000000,4.000000,,,,0.000000,4.000000,4.000000,4.000000,2.000000,4.000000,2.000000,4.000000,4.000000,4.000000,4.000000,4.000000,4.000000,4.000000,4.000000,4.000000,4.000000,4.000000,4.000000,4.000000,4.000000,4.000000,4.000000,4.000000,4.000000,4.000000,4.000000,4.000000,4.000000,4.000000,4.000000,4.000000,4.000000,66.666664
1614302031.486789,122.000000,0.000000,14.019415,5.123054,-56.065002,-4.917959,-25.110140,-1.724057,2.068151,5.994219,8.371754,-5.690099,3.692548,10.707004,13.207438,1.699403,16.666443,6.589646,9.169157,2.445376,0.485761,4.988271,-3.495229,13.553723,7.345773,6.822340,-3.851028,4.994498,7.547033,-14.071682,11.683351,8.981101,1.296010,-25.407963,8064.000000,0.000000,4.000000,,,,0.000000,4.000000,4.000000,4.000000,2.000000,4.000000,2.000000,4.000000,4.000000,4.000000,4.000000,4.000000,4.000000,4.000000,4.000000,4.000000,4.000000,4.000000,4.000000,4.000000,4.000000,4.000000,4.000000,4.000000,4.000000,4.000000,4.000000,4.000000,4.000000,4.000000,4.000000,4.000000,4.000000,66.666664
1614302031.494438,123.000000,0.000000,12.466933,5.117931,-56.521759,-5.938682,-22.520927,-1.722333,1.040442,3.424122,3.235176,-7.222870,1.124753,-5.713960,6.014744,-1.379219,4.854905,-1.109251,0.954860,-6.787838,-3.617289,-5.785948,-5.030196,12.001708,3.748683,6.815517,-3.847177,4.476683,8.052306,-16.621712,9.620385,8.459300,-2.807850,-25.382555,8064.000000,0.000000,4.000000,,,,0.000000,4.000000,4.000000,4.000000,2.000000,4.000000,2.000000,4.000000,4.000000,4.000000,4.000000,4.000000,4.000000,4.000000,4.000000,4.000000,4.000000,4.000000,4.000000,4.000000,4.000000,4.000000,4.000000,4.000000,4.000000,4.000000,4.000000,4.000000,4.000000,4.000000,4.000000,4.000000,4.000000,66.666664
1614302031.502188,124.000000,0.000000,10.403185,4.599992,-45.183186,-2.343000,-13.780457,-1.720611,1.552222,2.395057,0.667839,-8.241288,-0.927654,-12.374912,2.418985,-1.890660,0.747486,-12.390193,-6.738402,-10.370794,-6.690595,-15.523752,-7.589268,4.810219,1.693653,6.808702,-3.330509,4.985026,8.044254,-15.066629,9.610765,8.963661,0.271881,-24.331532,8064.000000,0.000000,4.000000,,,,0.000000,4.000000,4.000000,4.000000,2.000000,4.000000,2.000000,4.000000,4.000000,4.000000,4.000000,4.000000,4.000000,4.000000,4.000000,4.000000,4.000000,4.000000,4.000000,4.000000,4.000000,4.000000,4.000000,4.000000,4.000000,4.000000,4.000000,4.000000,4.000000,4.000000,4.000000,4.000000,4.000000,66.666664
1614302031.509837,125.000000,0.000000,9.367141,5.108213,-27.702105,6.377292,-8.638473,-1.718890,1.550669,1.879841,5.282556,-6.181765,-0.926726,-10.311255,2.416566,1.188153,2.285200,-14.941906,-6.731664,-5.232218,-5.145442,-7.815920,-6.556038,1.728486,1.179139,6.801893,-3.327178,4.980042,8.036209,-18.128485,8.575513,8.954698,2.835712,-21.743097,8064.000000,0.000000,4.000000,,,,0.000000,4.000000,4.000000,4.000000,2.000000,4.000000,2.000000,4.000000,4.000000,4.000000,4.000000,4.000000,4.000000,4.000000,4.000000,4.000000,4.000000,4.000000,4.000000,4.000000,4.000000,4.000000,4.000000,4.000000,4.000000,4.000000,4.000000,4.000000,4.000000,4.000000,4.000000,4.000000,4.000000,66.666664
1614302031.517586,126.000000,0.000000,9.870594,5.615925,-25.110300,4.832453,-9.655475,-1.717171,1.549119,-0.686141,8.867017,-6.175583,-0.412979,-10.813765,3.439791,2.725427,2.282915,-12.875682,-5.699291,-4.201345,1.013549,4.499588,-2.446918,7.367783,1.690780,6.795091,1.804354,4.975061,8.028173,-42.212921,6.002835,8.945743,-0.244047,-20.695713,8064.000000,0.000000,4.000000,,,,0.000000,4.000000,4.000000,4.000000,2.000000,4.000000,2.000000,4.000000,4.000000,4.000000,4.000000,4.000000,4.000000,4.000000,4.000000,4.000000,4.000000,4.000000,4.000000,4.000000,4.000000,4.000000,4.000000,4.000000,4.000000,4.000000,4.000000,4.000000,4.000000,4.000000,4.000000,4.000000,4.000000,66.666664
1614302031.525236,127.000000,0.000000,9.860723,4.071848,-33.290318,-7.480072,-9.645820,-1.715454,1.547570,-1.711096,8.345329,-5.656588,-0.412566,-11.315771,0.359428,2.209881,2.280632,-13.375627,-6.206413,-8.299707,5.627920,6.033550,-0.393189,7.873236,1.176269,6.788296,7.956396,4.970086,8.020145,-67.811737,5.484012,11.500899,-2.295085,-20.162197,8064.000000,0.000000,4.000000,,,,0.000000,4.000000,4.000000,4.000000,2.000000,4.000000,2.000000,4.000000,4.000000,4.000000,4.000000,4.000000,4.000000,4.000000,4.000000,4.000000,4.000000,4.000000,4.000000,4.000000,4.000000,4.000000,4.000000,4.000000,4.000000,4.000000,4.000000,4.000000,4.000000,4.000000,4.000000,4.000000,4.000000,66.666664
1614302031.532985,0.000000,0.000000,8.312401,2.016494,-35.821129,-13.626438,-10.661815,-1.713739,1.546022,-1.196564,7.824163,-4.625290,-0.412153,-11.304456,-4.769136,2.207671,0.739890,-15.413533,-6.713027,-9.317049,5.622293,3.976234,0.120025,5.814081,1.175092,6.781508,7.948439,5.477937,8.012125,-52.872128,5.991348,12.002219,-1.779969,-21.167675,0.000000,209.000000,4.000000,,,,0.000000,4.000000,4.000000,4.000000,2.000000,4.000000,2.000000,4.000000,4.000000,4.000000,4.000000,4.000000,4.000000,4.000000,4.000000,4.000000,4.000000,4.000000,4.000000,4.000000,4.000000,4.000000,4.000000,4.000000,4.000000,4.000000,4.000000,4.000000,4.000000,4.000000,4.000000,4.000000,4.000000,66.666664
1614302031.540634,1.000000,0.000000,6.252807,0.988836,-41.939156,-12.587171,-15.266538,-1.712025,1.544476,-1.195368,8.841980,-13.338614,-0.411741,-10.267510,-4.251547,2.205463,3.816073,-12.321197,-6.706314,-8.282091,4.591029,4.997899,2.171187,9.910830,1.173917,6.261906,7.427670,3.421177,7.491292,-19.998743,5.985357,7.887652,-3.316651,-28.325994,0.000000,202.000000,4.000000,,,,0.000000,4.000000,4.000000,4.000000,2.000000,4.000000,2.000000,4.000000,4.000000,4.000000,4.000000,4.000000,4.000000,4.000000,4.000000,4.000000,4.000000,4.000000,4.000000,4.000000,4.000000,4.000000,4.000000,4.000000,4.000000,4.000000,4.000000,4.000000,4.000000,4.000000,4.000000,4.000000,4.000000,66.666664
1614302031.548384,2.000000,0.000000,5.733733,1.500668,-53.692089,-12.061763,-17.815372,-1.710313,2.055752,-1.706993,8.320317,-22.043222,-0.411330,-4.616217,1.393730,2.203258,15.094308,-4.616568,-1.571402,-7.760988,6.124899,6.018542,4.220298,11.952202,1.685564,6.768465,8.958704,1.879294,8.509442,-11.773616,5.979372,4.802842,-5.364616,-35.477158,0.000000,208.000000,4.000000,,,,0.000000,4.000000,4.000000,4.000000,2.000000,4.000000,2.000000,4.000000,4.000000,4.000000,4.000000,4.000000,4.000000,4.000000,4.000000,4.000000,4.000000,4.000000,4.000000,4.000000,4.000000,4.000000,4.000000,4.000000,4.000000,4.000000,4.000000,4.000000,4.000000,4.000000,4.000000,4.000000,4.000000,66.666664
1614302031.556033,3.000000,0.000000,6.240820,1.499167,-54.151218,-13.588162,-17.797558,-1.708603,0.515235,-1.192465,8.311997,-11.764770,-0.410918,0.516604,3.443619,4.252337,20.207418,-2.047848,1.507092,-8.266047,4.580313,4.986882,3.190437,6.299224,1.171058,6.761696,5.360002,0.338953,7.475292,-38.428509,5.973392,4.798039,-5.872072,-35.954498,0.000000,187.000000,4.000000,,,,0.000000,4.000000,4.000000,4.000000,2.000000,4.000000,2.000000,4.000000,4.000000,4.000000,4.000000,4.000000,4.000000,4.000000,4.000000,4.000000,4.000000,4.000000,4.000000,4.000000,4.000000,4.000000,4.000000,4.000000,4.000000,4.000000,4.000000,4.000000,4.000000,4.000000,4.000000,4.000000,4.000000,66.666664
1614302031.563783,4.000000,0.000000,6.234579,1.497668,-47.943218,-13.061754,-17.266939,-1.706894,-1.536563,-1.191273,8.303685,1.580328,-0.410507,1.028908,2.414534,5.273726,18.648750,-2.045800,0.479944,-4.155218,5.088553,4.469075,2.674426,4.754463,1.169887,6.242114,-0.286384,-3.251129,3.878073,-39.928543,5.967419,4.793241,-5.866200,-34.892902,0.000000,129.000000,4.000000,,,,0.000000,4.000000,4.000000,4.000000,2.000000,4.000000,2.000000,4.000000,4.000000,4.000000,4.000000,4.000000,4.000000,4.000000,4.000000,4.000000,4.000000,4.000000,4.000000,4.000000,4.000000,4.000000,4.000000,4.000000,4.000000,4.000000,4.000000,4.000000,4.000000,4.000000,4.000000,4.000000,4.000000,66.666664
1614302031.571432,5.000000,0.000000,6.228344,1.496170,-49.946556,-12.023051,-17.249672,-1.705187,-2.560667,-1.190082,8.295382,0.040286,-0.410097,0.515059,2.924940,5.781272,20.681383,5.135733,6.120490,9.182271,15.339875,7.028708,8.825598,8.339453,4.758461,7.261513,6.380569,-2.222237,4.387015,-18.350151,5.961452,5.301268,-3.809052,-36.909294,0.000000,190.000000,4.000000,,,,0.000000,4.000000,4.000000,4.000000,2.000000,4.000000,4.000000,4.000000,4.000000,4.000000,4.000000,4.000000,4.000000,4.000000,4.000000,4.000000,4.000000,4.000000,4.000000,4.000000,4.000000,4.000000,4.000000,4.000000,4.000000,4.000000,4.000000,4.000000,4.000000,4.000000,4.000000,4.000000,4.000000,83.333336
1614302031.579181,6.000000,0.000000,6.222116,1.494674,-51.435074,-13.036669,-18.258064,-1.703482,-2.045286,-1.188891,7.774266,-2.011036,-0.409687,1.027364,3.434835,5.262671,19.635061,12.822905,14.832318,20.967960,26.606586,11.124244,16.509079,9.869575,8.343446,11.356815,18.169060,4.959472,10.023654,-23.972826,5.955490,6.834428,1.322962,-35.846745,0.000000,230.000000,4.000000,,,,0.000000,4.000000,4.000000,4.000000,2.000000,4.000000,4.000000,4.000000,4.000000,4.000000,4.000000,4.000000,4.000000,4.000000,4.000000,4.000000,4.000000,4.000000,4.000000,4.000000,4.000000,4.000000,4.000000,4.000000,4.000000,4.000000,4.000000,4.000000,4.000000,4.000000,4.000000,4.000000,4.000000,83.333336
1614302031.586831,7.000000,0.000000,6.215894,1.493180,-47.793896,-12.510812,-16.701345,-1.701778,-2.043241,-1.187703,8.279312,4.144821,-0.409277,1.026337,2.918580,5.257408,13.461579,13.322902,13.279024,20.434172,28.631262,12.651581,18.031033,8.834064,9.360744,14.422381,19.176533,8.544256,11.552092,-40.359112,5.949534,10.417337,2.347280,-32.221153,0.000000,198.000000,4.000000,,,,0.000000,4.000000,4.000000,4.000000,2.000000,4.000000,4.000000,4.000000,4.000000,4.000000,4.000000,4.000000,4.000000,4.000000,4.000000,4.000000,4.000000,4.000000,4.000000,4.000000,4.000000,4.000000,4.000000,4.000000,4.000000,4.000000,4.000000,4.000000,4.000000,4.000000,4.000000,4.000000,4.000000,83.333336
1614302031.594680,8.000000,0.000000,6.722499,1.491686,-48.771740,-8.395737,-12.069259,-1.700077,-2.041197,-1.186515,7.758212,6.704779,-0.921688,0.512490,2.402841,9.354714,16.525042,12.283938,8.137540,17.336815,26.038528,12.126109,18.525822,8.312409,9.351382,13.895139,20.182997,5.458789,8.463616,-31.087982,5.943585,14.509484,-0.731990,-33.727394,0.000000,198.000000,4.000000,,,,0.000000,4.000000,4.000000,4.000000,2.000000,4.000000,4.000000,4.000000,4.000000,4.000000,4.000000,4.000000,4.000000,4.000000,4.000000,4.000000,4.000000,4.000000,4.000000,4.000000,4.000000,4.000000,4.000000,4.000000,4.000000,4.000000,4.000000,4.000000,4.000000,4.000000,4.000000,4.000000,4.000000,83.333336
1614302031.602429,9.000000,0.000000,4.664494,1.490195,-48.722969,-4.797598,-9.493087,-1.698377,-2.039156,-1.698149,7.750454,5.159613,-0.920767,0.511978,4.964540,16.012026,19.585440,12.271654,8.642223,18.345119,27.550951,12.113983,24.148321,11.381020,8.829210,13.368423,26.316660,4.427689,7.429512,-24.390228,5.937641,17.059078,-1.756899,-34.719307,0.000000,222.000000,4.000000,,,,0.000000,4.000000,4.000000,4.000000,2.000000,4.000000,4.000000,4.000000,4.000000,4.000000,4.000000,4.000000,4.000000,4.000000,4.000000,4.000000,4.000000,4.000000,4.000000,4.000000,4.000000,4.000000,4.000000,4.000000,4.000000,4.000000,4.000000,4.000000,4.000000,4.000000,4.000000,4.000000,4.000000,83.333336
1614302031.610278,10.000000,0.000000,2.608548,1.488705,-38.930656,-4.792800,-9.483594,-1.696678,-2.037117,-1.183630,9.793985,5.154453,-0.407025,0.511466,5.985217,17.534475,11.360725,8.669639,9.146401,16.788313,29.061861,11.076228,27.713917,15.985023,6.769099,14.380695,25.264702,5.961723,8.447723,-34.109428,5.931704,16.016376,-1.242322,-28.017921,0.000000,196.000000,4.000000,,,,0.000000,4.000000,4.000000,4.000000,2.000000,4.000000,4.000000,4.000000,4.000000,4.000000,4.000000,4.000000,4.000000,4.000000,4.000000,4.000000,4.000000,4.000000,4.000000,4.000000,4.000000,4.000000,4.000000,4.000000,4.000000,4.000000,4.000000,4.000000,4.000000,4.000000,4.000000,4.000000,4.000000,83.333336
1614302031.618028,11.000000,0.000000,2.093119,1.487216,-34.276340,-5.813648,-9.474111,-1.694981,-2.035080,-1.182447,11.835473,6.174940,-0.919439,1.023775,2.902309,17.004120,5.708339,6.096867,6.060332,14.720242,24.930235,8.501049,25.122101,16.994680,4.711048,14.366315,18.059950,4.930120,7.926455,-32.536858,5.925772,16.000360,-1.753900,-21.323236,0.000000,174.000000,4.000000,,,,0.000000,4.000000,4.000000,4.000000,2.000000,4.000000,4.000000,4.000000,4.000000,4.000000,4.000000,4.000000,4.000000,4.000000,4.000000,4.000000,4.000000,4.000000,4.000000,4.000000,4.000000,4.000000,4.000000,4.000000,4.000000,4.000000,4.000000,4.000000,4.000000,4.000000,4.000000,4.000000,4.000000,83.333336
1614302031.625877,12.000000,0.000000,2.603846,1.998549,-36.293346,-4.782194,-10.490277,-1.693287,-2.033045,-1.694085,11.823638,5.655944,-0.405699,0.509930,2.386586,16.474297,7.753913,4.552308,4.515810,13.679880,19.777100,9.005368,25.609798,16.977684,5.219158,13.326307,13.939326,4.925190,8.431349,-24.812012,5.919846,17.010002,-1.752146,-18.737810,0.000000,193.000000,4.000000,,,,0.000000,4.000000,4.000000,4.000000,2.000000,4.000000,4.000000,4.000000,4.000000,4.000000,4.000000,4.000000,4.000000,4.000000,4.000000,4.000000,4.000000,4.000000,4.000000,4.000000,4.000000,4.000000,4.000000,4.000000,4.000000,4.000000,4.000000,4.000000,4.000000,4.000000,4.000000,4.000000,4.000000,83.333336
1614302031.633626,13.000000,0.000000,2.601242,0.458089,-34.205772,-4.777411,-8.428505,-1.691593,-2.031012,-0.153929,11.811814,6.675929,4.722912,-0.003400,8.025225,16.970642,10.823082,4.034935,4.511294,10.589277,23.859888,10.022004,30.199574,19.524809,5.213938,14.851442,15.463849,4.920265,7.397277,-29.915405,5.913926,14.428889,-1.237573,-19.744713,0.000000,219.000000,4.000000,,,,0.000000,4.000000,4.000000,4.000000,2.000000,4.000000,4.000000,4.000000,4.000000,4.000000,4.000000,4.000000,4.000000,4.000000,4.000000,4.000000,4.000000,4.000000,4.000000,4.000000,4.000000,4.000000,4.000000,4.000000,4.000000,4.000000,4.000000,4.000000,4.000000,4.000000,4.000000,4.000000,4.000000,83.333336
1614302031.641475,14.000000,0.000000,2.598641,-1.593651,-40.325413,-5.798275,-3.291871,-1.689902,-2.028981,2.410327,12.312823,10.258997,10.359215,3.586347,13.145405,17.466492,17.991747,9.671926,5.019603,10.578689,28.964233,12.063264,25.553989,21.043747,4.695904,17.400694,15.961205,0.299960,4.825777,-37.064976,5.908012,9.799076,-4.826079,-32.545483,0.000000,201.000000,4.000000,,,,0.000000,4.000000,4.000000,4.000000,2.000000,4.000000,4.000000,4.000000,4.000000,4.000000,4.000000,4.000000,4.000000,4.000000,4.000000,4.000000,4.000000,4.000000,4.000000,4.000000,4.000000,4.000000,4.000000,4.000000,4.000000,4.000000,4.000000,4.000000,4.000000,4.000000,4.000000,4.000000,4.000000,83.333336
1614302031.649225,15.000000,0.000000,2.596042,-2.617698,-62.849190,-5.279656,-7.391143,-1.688212,-2.026952,1.895097,8.710767,7.684635,9.836035,4.608402,14.670721,13.859282,24.640421,15.816100,5.527404,11.080930,21.755781,13.589663,10.656640,17.432959,5.204029,14.306370,10.304218,-5.341365,4.820951,-35.489449,5.902104,8.250815,-10.462278,-48.923191,0.000000,192.000000,4.000000,,,,0.000000,4.000000,4.000000,4.000000,2.000000,4.000000,4.000000,4.000000,4.000000,4.000000,4.000000,4.000000,4.000000,4.000000,4.000000,4.000000,4.000000,4.000000,4.000000,4.000000,4.000000,4.000000,4.000000,4.000000,4.000000,4.000000,4.000000,4.000000,4.000000,4.000000,4.000000,4.000000,4.000000,83.333336
1614302031.657074,16.000000,0.000000,2.593446,-2.102260,-70.478645,-2.710274,-15.588881,-1.686524,-2.024925,-0.670901,4.086671,-5.656383,6.236455,-4.114156,13.630409,4.614654,22.051678,11.697721,1.419313,-0.725022,13.528897,7.422227,1.928035,11.261680,5.198824,8.138218,4.140068,-6.874485,3.277669,-34.428318,5.896202,9.268206,-13.015919,-45.284527,0.000000,201.000000,4.000000,,,,0.000000,4.000000,4.000000,4.000000,2.000000,4.000000,4.000000,4.000000,4.000000,4.000000,4.000000,4.000000,4.000000,4.000000,4.000000,4.000000,4.000000,4.000000,4.000000,4.000000,4.000000,4.000000,4.000000,4.000000,4.000000,4.000000,4.000000,4.000000,4.000000,4.000000,4.000000,4.000000,4.000000,83.333336
1614302031.664823,17.000000,0.000000,2.590853,-2.100158,-56.562016,-1.169102,-15.573292,-1.684837,-2.022900,-1.183051,4.082584,-14.881495,3.666116,-10.776708,9.001394,1.020295,16.388601,4.506536,-2.684671,-7.390964,10.951265,-1.303144,2.951748,6.635034,3.142344,4.027515,3.623107,-5.841970,-0.828173,-35.932354,5.890306,7.720476,-12.490083,-34.982830,0.000000,197.000000,4.000000,,,,0.000000,4.000000,4.000000,4.000000,2.000000,4.000000,4.000000,4.000000,4.000000,4.000000,4.000000,4.000000,4.000000,4.000000,4.000000,4.000000,4.000000,4.000000,4.000000,4.000000,4.000000,4.000000,4.000000,4.000000,4.000000,4.000000,4.000000,4.000000,4.000000,4.000000,4.000000,4.000000,4.000000,83.333336
1614302031.672673,18.000000,0.000000,2.588262,-2.098058,-50.864429,-1.680754,-12.480795,-1.683152,-2.020877,-1.181868,7.155425,-9.225589,3.662450,-6.150547,6.428290,4.096198,17.397854,5.014849,-0.117883,4.411299,11.965956,-0.276200,2.948796,5.089937,1.600740,-1.104717,4.645125,-5.836128,-3.904268,-35.383598,5.884416,4.635832,-12.477592,-40.076054,0.000000,197.000000,4.000000,,,,0.000000,4.000000,4.000000,4.000000,2.000000,4.000000,4.000000,4.000000,4.000000,4.000000,4.000000,4.000000,4.000000,4.000000,4.000000,4.000000,4.000000,4.000000,4.000000,4.000000,4.000000,4.000000,4.000000,4.000000,4.000000,4.000000,4.000000,4.000000,4.000000,4.000000,4.000000,4.000000,4.000000,83.333336
1614302031.680422,19.000000,0.000000,2.585674,-2.095960,-60.557152,-1.679073,-14.006776,-1.681469,-1.506036,-1.180686,8.173911,-2.549696,3.658788,-2.041832,6.934683,6.143384,18.918917,6.548296,5.010439,7.996631,14.005272,5.365102,2.433027,5.084847,1.086319,-5.206177,2.076378,-6.343112,-2.874722,-35.348217,5.878531,4.631196,-12.977936,-50.292389,0.000000,192.000000,4.000000,,,,0.000000,4.000000,4.000000,4.000000,2.000000,4.000000,4.000000,4.000000,4.000000,4.000000,4.000000,4.000000,4.000000,4.000000,4.000000,4.000000,4.000000,4.000000,4.000000,4.000000,4.000000,4.000000,4.000000,4.000000,4.000000,4.000000,4.000000,4.000000,4.000000,4.000000,4.000000,4.000000,4.000000,83.333336
1614302031.688271,20.000000,0.000000,2.583088,-2.093864,-61.522236,-1.164573,-14.505589,-1.679788,-3.042991,-1.179505,8.165737,-3.059967,0.578206,-3.578252,4.363646,4.085958,13.258972,-1.150560,5.518250,-4.831879,6.298959,5.359737,2.430594,5.079762,1.598053,-5.200971,-0.489801,-5.823949,-2.871848,-35.312866,6.385473,6.165027,-12.452137,-50.242096,0.000000,205.000000,4.000000,,,,0.000000,4.000000,4.000000,4.000000,2.000000,4.000000,4.000000,4.000000,4.000000,4.000000,4.000000,4.000000,4.000000,4.000000,4.000000,4.000000,4.000000,4.000000,4.000000,4.000000,4.000000,4.000000,4.000000,4.000000,4.000000,4.000000,4.000000,4.000000,4.000000,4.000000,4.000000,4.000000,4.000000,83.333336
1614302031.696020,21.000000,0.000000,2.580505,-2.091770,-57.870972,-1.676229,-12.439802,-1.678108,-5.091230,-3.229608,6.619110,-2.544086,-3.524936,-3.574674,-1.281744,-0.533512,3.502124,-13.457102,4.487090,-11.493713,-8.579135,3.815916,2.428163,5.074683,1.596455,-4.170129,0.536330,-5.818125,-3.381797,-35.277554,5.866267,1.543477,-12.439685,-48.140572,0.000000,188.000000,4.000000,,,,0.000000,4.000000,4.000000,4.000000,2.000000,4.000000,4.000000,4.000000,4.000000,4.000000,4.000000,4.000000,4.000000,4.000000,4.000000,4.000000,4.000000,4.000000,4.000000,4.000000,4.000000,4.000000,4.000000,4.000000,4.000000,4.000000,4.000000,4.000000,4.000000,4.000000,4.000000,4.000000,4.000000,83.333336
1614302031.703770,22.000000,0.000000,2.577924,-2.089678,-60.890022,-1.674553,-14.991465,-1.676430,-6.111780,-4.764840,5.074029,-2.541542,-4.547052,-3.058278,-1.793283,-2.071440,0.421698,-19.084671,4.995424,-7.892476,-7.032094,4.324920,7.041120,7.633710,1.594858,-4.678779,-0.489848,-7.350769,-2.865594,-35.242279,3.809119,-5.637554,-12.940065,-49.118073,0.000000,195.000000,4.000000,,,,0.000000,4.000000,4.000000,4.000000,2.000000,4.000000,4.000000,4.000000,4.000000,4.000000,4.000000,4.000000,4.000000,4.000000,4.000000,4.000000,4.000000,4.000000,4.000000,4.000000,4.000000,4.000000,4.000000,4.000000,4.000000,4.000000,4.000000,4.000000,4.000000,4.000000,4.000000,4.000000,4.000000,83.333336
1614302031.711519,23.000000,0.000000,2.575346,-2.087589,-55.700928,-1.672879,-16.514935,-1.674753,-6.105668,-5.272895,4.043314,-2.026180,-4.029685,-3.055220,-1.278669,1.007555,2.472559,-17.014303,4.990428,-7.371763,8.359553,5.346236,13.187924,9.677359,1.593263,-4.674100,0.536283,-9.907520,-2.862729,-35.207035,2.266848,-6.657557,-11.901484,-50.607414,0.000000,217.000000,4.000000,,,,0.000000,4.000000,4.000000,4.000000,2.000000,4.000000,4.000000,4.000000,4.000000,4.000000,4.000000,4.000000,4.000000,4.000000,4.000000,4.000000,4.000000,4.000000,4.000000,4.000000,4.000000,4.000000,4.000000,4.000000,4.000000,4.000000,4.000000,4.000000,4.000000,4.000000,4.000000,4.000000,4.000000,83.333336
1614302031.719168,24.000000,0.000000,2.572771,-2.085501,-39.747791,-1.671206,-10.857394,-1.673078,-5.073921,-5.780443,4.552091,5.155333,-4.025655,-1.513703,-2.303031,1.006547,0.418804,-18.535751,4.985438,-10.441315,13.479399,4.828069,14.200377,9.154860,1.591670,-4.156606,6.176773,-8.871972,-2.859866,-35.171829,1.751761,-2.035515,-9.838301,-48.505524,0.000000,190.000000,4.000000,,,,0.000000,4.000000,4.000000,4.000000,2.000000,4.000000,4.000000,4.000000,4.000000,4.000000,4.000000,4.000000,4.000000,4.000000,4.000000,4.000000,4.000000,4.000000,4.000000,4.000000,4.000000,4.000000,4.000000,4.000000,4.000000,4.000000,4.000000,4.000000,4.000000,4.000000,4.000000,4.000000,4.000000,83.333336
1614302031.726918,25.000000,0.000000,2.057378,-2.083416,-33.041378,-1.669534,-5.205511,-1.671405,-3.017565,-3.210560,4.547539,12.842485,-4.534450,0.539092,2.314656,0.492720,4.008129,-16.465933,4.467632,-8.379591,12.440278,3.284780,14.698997,9.145706,1.590078,-2.101167,11.811622,-6.298997,-2.857006,-35.136658,2.262830,0.530623,-8.290001,-43.841637,0.000000,192.000000,4.000000,,,,0.000000,4.000000,4.000000,4.000000,2.000000,4.000000,4.000000,4.000000,4.000000,4.000000,4.000000,4.000000,4.000000,4.000000,4.000000,4.000000,4.000000,4.000000,4.000000,4.000000,4.000000,4.000000,4.000000,4.000000,4.000000,4.000000,4.000000,4.000000,4.000000,4.000000,4.000000,4.000000,4.000000,83.333336
1614302031.734567,26.000000,0.000000,2.568141,-2.081332,-35.059616,-1.667865,-5.713126,-1.669734,-1.476086,3.459317,4.542991,11.291182,-4.017095,0.538553,11.030291,12.287099,19.901556,3.037712,4.975985,6.500584,18.068863,8.922521,17.248402,12.213484,1.075668,-0.560604,11.799809,-5.267057,-3.366970,-35.101521,2.260567,-2.034010,-8.281712,-41.233692,0.000000,217.000000,4.000000,,,,0.000000,4.000000,4.000000,4.000000,2.000000,4.000000,4.000000,4.000000,4.000000,4.000000,4.000000,4.000000,4.000000,4.000000,4.000000,4.000000,4.000000,4.000000,4.000000,4.000000,4.000000,4.000000,4.000000,4.000000,4.000000,4.000000,4.000000,4.000000,4.000000,4.000000,4.000000,4.000000,4.000000,83.333336
1614302031.742317,27.000000,0.000000,5.129675,-2.079251,-33.486095,-0.640556,-6.220233,-1.668064,-1.987431,7.045602,4.538448,9.228608,-4.013078,0.538015,15.121824,27.146606,31.163706,23.034676,7.535111,22.391520,22.153358,20.195650,15.179871,13.226911,1.074592,0.465597,10.762369,-5.774611,-2.850782,-35.066418,2.258306,-2.544797,-8.786250,-41.192459,0.000000,200.000000,4.000000,,,,0.000000,4.000000,4.000000,4.000000,2.000000,4.000000,4.000000,4.000000,4.000000,4.000000,4.000000,4.000000,4.000000,4.000000,4.000000,4.000000,4.000000,4.000000,4.000000,4.000000,4.000000,4.000000,4.000000,4.000000,4.000000,4.000000,4.000000,4.000000,4.000000,4.000000,4.000000,4.000000,4.000000,83.333336
1614302031.749966,28.000000,0.000000,6.663007,-2.077171,-34.478252,0.898546,-5.701193,-1.666396,-1.985443,6.012915,4.533910,11.783483,-4.009065,0.537477,16.132343,28.657921,29.081261,25.062922,8.553217,20.830666,19.054283,21.201096,10.549307,12.700864,1.586338,2.516414,11.777247,-5.768836,-2.847931,-35.031353,2.256048,0.534671,-8.777464,-37.561520,0.000000,198.000000,4.000000,,,,0.000000,4.000000,4.000000,4.000000,2.000000,4.000000,4.000000,4.000000,4.000000,4.000000,4.000000,4.000000,4.000000,4.000000,4.000000,4.000000,4.000000,4.000000,4.000000,4.000000,4.000000,4.000000,4.000000,4.000000,4.000000,4.000000,4.000000,4.000000,4.000000,4.000000,4.000000,4.000000,4.000000,83.333336
1614302031.757715,29.000000,0.000000,6.143524,-2.075094,-33.930954,2.948930,-5.695492,-1.664730,-1.983458,6.006902,4.529376,12.797339,-4.005056,0.536939,16.629032,27.090803,28.026539,23.499397,8.544664,16.194450,15.445484,15.026048,9.000296,11.662521,1.071931,3.539538,11.252649,-5.763067,-4.383545,-34.996319,2.253792,2.585418,-6.204584,-31.370113,0.000000,200.000000,4.000000,,,,0.000000,4.000000,4.000000,4.000000,2.000000,4.000000,4.000000,4.000000,4.000000,4.000000,4.000000,4.000000,4.000000,4.000000,4.000000,4.000000,4.000000,4.000000,4.000000,4.000000,4.000000,4.000000,4.000000,4.000000,4.000000,4.000000,4.000000,4.000000,4.000000,4.000000,4.000000,4.000000,4.000000,83.333336
1614302031.765365,30.000000,0.000000,6.137380,-2.073019,-30.820099,1.920340,-5.689796,-1.663065,-1.981474,6.513716,4.524847,13.297363,-4.513871,0.023582,18.150864,30.653456,28.511332,29.116924,8.536119,24.383385,14.917218,15.523842,10.016936,12.676500,1.070859,2.510358,10.215756,-6.270124,-0.789418,-34.961323,2.251538,1.557192,-4.659918,-31.851564,0.000000,206.000000,4.000000,,,,0.000000,4.000000,4.000000,4.000000,2.000000,4.000000,4.000000,4.000000,4.000000,4.000000,4.000000,4.000000,4.000000,4.000000,4.000000,4.000000,4.000000,4.000000,4.000000,4.000000,4.000000,4.000000,4.000000,4.000000,4.000000,4.000000,4.000000,4.000000,4.000000,4.000000,4.000000,4.000000,4.000000,83.333336
1614302031.773114,31.000000,0.000000,6.131243,-2.070946,-43.096970,-4.748247,-7.222568,-1.661402,-1.979493,5.994381,5.033142,10.207143,-3.996537,0.536379,17.107073,22.930494,18.739231,20.882679,8.014763,22.820539,14.389481,13.457036,10.519740,12.663824,6.710814,2.507848,10.718361,-6.263855,6.390859,-35.439182,2.249287,-0.495647,-6.706540,-37.973560,0.000000,195.000000,4.000000,,,,0.000000,4.000000,4.000000,4.000000,2.000000,4.000000,4.000000,4.000000,4.000000,4.000000,4.000000,4.000000,4.000000,4.000000,4.000000,4.000000,4.000000,4.000000,4.000000,4.000000,4.000000,4.000000,4.000000,4.000000,4.000000,4.000000,4.000000,4.000000,4.000000,4.000000,4.000000,4.000000,4.000000,83.333336
1614302031.780763,32.000000,0.000000,6.125112,-2.581696,-66.643616,-12.435807,-11.830730,-1.659741,-1.977513,5.988387,3.489648,3.017448,-3.992540,0.023022,9.910478,4.446025,8.464082,-1.702307,8.006748,4.336180,9.246886,8.315374,7.945117,10.599877,12.345129,2.505340,11.733283,-5.744770,8.948570,-34.890923,2.247037,-2.033613,-9.263936,-42.038151,8064.000000,0.000000,4.000000,,,,0.000000,4.000000,4.000000,4.000000,2.000000,4.000000,4.000000,4.000000,4.000000,4.000000,4.000000,4.000000,4.000000,4.000000,4.000000,4.000000,4.000000,4.000000,4.000000,4.000000,4.000000,4.000000,4.000000,4.000000,4.000000,4.000000,4.000000,4.000000,4.000000,4.000000,4.000000,4.000000,4.000000,83.333336
1614302031.788513,33.000000,0.000000,6.118987,-2.066293,-73.756462,-12.936192,-14.383001,-1.658081,-1.975536,5.982399,0.922055,0.450328,-5.527009,0.022999,5.798004,-3.250729,8.455618,-12.982656,10.562844,-5.411746,7.186357,12.922443,5.373070,14.691842,12.332784,1.990014,9.670268,-6.251846,8.426802,-34.343212,2.244790,-2.031579,-9.254672,-41.483292,8064.000000,0.000000,4.000000,,,,0.000000,4.000000,4.000000,4.000000,2.000000,4.000000,4.000000,4.000000,4.000000,4.000000,4.000000,4.000000,4.000000,4.000000,4.000000,4.000000,4.000000,4.000000,4.000000,4.000000,4.000000,4.000000,4.000000,4.000000,4.000000,4.000000,4.000000,4.000000,4.000000,4.000000,4.000000,4.000000,4.000000,83.333336
1614302031.796162,34.000000,0.000000,6.112867,-0.012945,-72.144241,-8.307871,-13.342978,-1.656423,-1.973560,5.976417,0.408313,3.526801,-2.444559,3.612720,13.484513,3.932009,7.934341,-7.328647,12.090742,3.311615,17.948402,22.140289,16.136929,28.010483,12.320451,5.064947,11.711880,-5.219953,10.982477,-36.360149,1.729725,-2.542368,-8.219776,-42.467449,8064.000000,0.000000,4.000000,,,,0.000000,4.000000,4.000000,4.000000,2.000000,4.000000,4.000000,4.000000,4.000000,4.000000,4.000000,4.000000,4.000000,4.000000,4.000000,4.000000,4.000000,4.000000,4.000000,4.000000,4.000000,4.000000,4.000000,4.000000,4.000000,4.000000,4.000000,4.000000,4.000000,4.000000,4.000000,4.000000,4.000000,83.333336
1614302031.803911,35.000000,0.000000,5.593934,2.038350,-73.610558,-5.735460,-13.842455,-1.654766,-1.971587,5.970440,0.920725,3.010453,5.250193,7.711671,21.163336,12.133205,9.464869,0.370989,11.053011,11.513432,32.289429,23.656610,30.992586,36.187603,15.385054,13.265010,21.443758,1.964754,12.509956,-32.221226,1.727995,-2.539826,-9.237198,-40.886520,8064.000000,0.000000,4.000000,,,,0.000000,4.000000,4.000000,4.000000,2.000000,4.000000,4.000000,4.000000,4.000000,4.000000,4.000000,4.000000,4.000000,4.000000,4.000000,4.000000,4.000000,4.000000,4.000000,4.000000,4.000000,4.000000,4.000000,4.000000,4.000000,4.000000,4.000000,4.000000,4.000000,4.000000,4.000000,4.000000,4.000000,83.333336
1614302031.811561,36.000000,0.000000,6.613981,1.523491,-57.639515,-5.216904,-13.828613,-1.653112,-1.969615,5.964469,0.919804,0.956161,7.809045,8.216780,20.629353,16.736456,21.250277,6.524464,13.093240,13.553200,37.898163,22.094494,33.525696,34.612953,16.395309,20.944054,26.550520,8.629457,11.471806,-22.958237,5.316011,1.565278,-8.715139,-33.153324,8064.000000,0.000000,4.000000,,,,0.000000,4.000000,4.000000,4.000000,2.000000,4.000000,4.000000,4.000000,4.000000,4.000000,4.000000,4.000000,4.000000,4.000000,4.000000,4.000000,4.000000,4.000000,4.000000,4.000000,4.000000,4.000000,4.000000,4.000000,4.000000,4.000000,4.000000,4.000000,4.000000,4.000000,4.000000,4.000000,4.000000,83.333336
1614302031.819410,37.000000,0.000000,9.684290,1.521968,-33.992130,-5.211688,-11.763502,-1.651459,-1.967646,5.958505,2.457346,4.032128,6.775595,7.695742,20.095903,19.283823,31.485435,8.569221,18.208351,17.642210,37.860264,23.098040,33.492168,34.578339,15.866094,25.025673,20.882942,7.595186,11.973154,-19.858355,6.849156,4.640635,-5.116681,-26.966326,8064.000000,0.000000,4.000000,,,,0.000000,4.000000,4.000000,4.000000,2.000000,4.000000,4.000000,4.000000,4.000000,4.000000,4.000000,4.000000,4.000000,4.000000,4.000000,4.000000,4.000000,4.000000,4.000000,4.000000,4.000000,4.000000,4.000000,4.000000,4.000000,4.000000,4.000000,4.000000,4.000000,4.000000,4.000000,4.000000,4.000000,83.333336
1614302031.827159,38.000000,0.000000,8.648965,1.520446,-33.445316,-5.206476,-9.700457,-2.162627,-1.965678,5.952547,4.506171,4.540916,9.332922,7.688046,21.101448,20.290180,31.966770,7.535012,19.728605,23.778416,38.848045,23.587763,37.048420,35.056580,15.850227,26.026289,17.272316,5.023488,10.422719,-22.402599,4.278205,5.661636,-1.009000,-24.375257,8064.000000,0.000000,4.000000,,,,0.000000,4.000000,4.000000,4.000000,2.000000,4.000000,4.000000,4.000000,4.000000,4.000000,4.000000,4.000000,4.000000,4.000000,4.000000,4.000000,4.000000,4.000000,4.000000,4.000000,4.000000,4.000000,4.000000,4.000000,4.000000,4.000000,4.000000,4.000000,4.000000,4.000000,4.000000,4.000000,4.000000,83.333336
1614302031.835009,39.000000,0.000000,6.589034,1.518925,-35.975975,-4.688449,-5.075372,-1.647644,-1.963712,5.946594,5.014485,5.562016,11.374871,8.193179,21.080347,20.782711,30.909163,14.706964,19.196056,25.293098,38.809196,23.051353,36.498554,32.970242,15.834377,24.461800,21.357609,6.044106,7.335373,-22.893017,9.402132,10.271359,-0.495171,-22.299599,8064.000000,0.000000,4.000000,,,,0.000000,4.000000,4.000000,4.000000,2.000000,4.000000,4.000000,4.000000,4.000000,4.000000,4.000000,4.000000,4.000000,4.000000,4.000000,4.000000,4.000000,4.000000,4.000000,4.000000,4.000000,4.000000,4.000000,4.000000,4.000000,4.000000,4.000000,4.000000,4.000000,4.000000,4.000000,4.000000,4.000000,83.333336
1614302031.842758,40.000000,0.000000,6.069624,1.517406,-29.273333,-2.119658,1.596370,1.430926,-1.961749,5.940648,5.009470,12.735942,10.850676,7.672165,21.059265,23.838850,32.416714,29.051231,19.689680,25.780626,37.231926,21.489841,31.846670,30.885990,16.331364,25.975800,23.387533,9.114985,8.866500,-23.382944,14.008114,14.876472,-1.007496,-22.277300,8064.000000,0.000000,4.000000,,,,0.000000,4.000000,4.000000,4.000000,2.000000,4.000000,4.000000,4.000000,4.000000,4.000000,4.000000,4.000000,4.000000,4.000000,4.000000,4.000000,4.000000,4.000000,4.000000,4.000000,4.000000,4.000000,4.000000,4.000000,4.000000,4.000000,4.000000,4.000000,4.000000,4.000000,4.000000,4.000000,4.000000,83.333336
1614302031.850607,41.000000,0.000000,4.525093,1.515889,-40.526112,-1.091897,0.056313,2.455137,-1.959787,5.934707,4.491641,14.774487,10.327004,7.664493,20.525387,24.840652,31.358658,32.099102,18.131529,25.754845,32.066490,19.929890,23.096874,26.239719,15.289392,25.949823,19.774401,9.105869,7.319171,-23.872383,3.737696,9.220571,-3.057771,-22.255022,8064.000000,0.000000,4.000000,,,,0.000000,4.000000,4.000000,4.000000,2.000000,4.000000,4.000000,4.000000,4.000000,4.000000,4.000000,4.000000,4.000000,4.000000,4.000000,4.000000,4.000000,4.000000,4.000000,4.000000,4.000000,4.000000,4.000000,4.000000,4.000000,4.000000,4.000000,4.000000,4.000000,4.000000,4.000000,4.000000,4.000000,83.333336
1614302031.858357,42.000000,0.000000,2.469286,1.514373,-56.895840,-2.116446,-7.636052,1.939861,-1.957827,5.928772,4.999969,8.093046,10.316678,7.656829,20.504860,22.764530,31.327299,23.861876,15.549294,23.677809,23.316475,16.320215,5.125059,18.521172,13.222820,14.641823,15.139242,8.071122,0.645186,-25.386971,-4.983991,2.031862,-5.105995,-21.207127,8192.000000,0.000000,4.000000,,,,0.000000,4.000000,4.000000,4.000000,2.000000,4.000000,4.000000,4.000000,4.000000,4.000000,4.000000,4.000000,4.000000,4.000000,4.000000,4.000000,4.000000,4.000000,4.000000,4.000000,4.000000,4.000000,4.000000,4.000000,4.000000,4.000000,4.000000,4.000000,4.000000,4.000000,4.000000,4.000000,4.000000,83.333336
1614302031.866206,43.000000,0.000000,5.030920,1.512859,-49.146637,-1.088689,-8.654057,2.963562,-1.955869,5.922843,4.994969,4.495210,10.819181,7.649172,20.997177,24.793047,30.783152,15.632886,15.533746,20.577208,15.088031,10.150050,-9.239040,14.912908,11.671136,0.268207,11.534360,8.575871,3.208643,-40.746201,0.662019,2.029831,-4.588068,-28.365406,8192.000000,0.000000,4.000000,,,,0.000000,4.000000,4.000000,4.000000,2.000000,4.000000,4.000000,4.000000,4.000000,4.000000,4.000000,4.000000,4.000000,4.000000,4.000000,4.000000,4.000000,4.000000,4.000000,4.000000,4.000000,4.000000,4.000000,4.000000,4.000000,4.000000,4.000000,4.000000,4.000000,4.000000,4.000000,4.000000,4.000000,83.333336
1614302031.873955,44.000000,0.000000,5.538709,-0.539936,-50.123131,-2.626061,-10.183864,0.909316,-1.953913,5.916921,1.400231,1.926612,9.269901,7.641523,18.412077,22.716972,21.521599,7.412125,15.518212,13.889963,9.944737,6.550156,-10.255443,15.410815,12.172285,-2.808984,7.933082,9.592937,11.410563,-65.320839,0.148536,-1.561943,-5.096301,-41.670376,8064.000000,0.000000,4.000000,,,,0.000000,4.000000,4.000000,4.000000,2.000000,4.000000,4.000000,4.000000,4.000000,4.000000,4.000000,4.000000,4.000000,4.000000,4.000000,4.000000,4.000000,4.000000,4.000000,4.000000,4.000000,4.000000,4.000000,4.000000,4.000000,4.000000,4.000000,4.000000,4.000000,4.000000,4.000000,4.000000,4.000000,83.333336
1614302031.881804,45.000000,0.000000,2.456247,-2.077858,-75.714035,-9.290102,-23.507013,-8.322362,-1.951959,5.911004,-4.755015,-3.716340,6.696528,7.633881,12.752639,7.822461,10.730846,-3.364518,13.451411,-2.534183,4.293767,6.030786,-9.732367,15.395405,12.160112,1.809209,4.848226,7.532062,6.270947,-66.793976,-9.082381,-8.739868,-10.219410,-46.756908,8064.000000,0.000000,4.000000,,,,0.000000,4.000000,4.000000,4.000000,2.000000,4.000000,4.000000,4.000000,4.000000,4.000000,4.000000,4.000000,4.000000,4.000000,4.000000,4.000000,4.000000,4.000000,4.000000,4.000000,4.000000,4.000000,4.000000,4.000000,4.000000,4.000000,4.000000,4.000000,4.000000,4.000000,4.000000,4.000000,4.000000,83.333336
1614302031.889554,46.000000,0.000000,2.966611,-2.075780,-80.766525,-7.742351,-33.227097,-13.955066,-1.950007,5.905093,-6.801542,-6.789547,6.177011,7.626247,9.150143,-3.467413,7.643193,-6.950897,11.386678,-12.788059,1.725371,3.460652,-8.696993,14.867188,12.147952,2.320221,3.304916,2.909145,0.623650,-34.419491,-6.509196,-11.295231,-13.286114,-44.658871,8064.000000,0.000000,4.000000,,,,0.000000,4.000000,4.000000,4.000000,2.000000,4.000000,4.000000,4.000000,4.000000,4.000000,4.000000,4.000000,4.000000,4.000000,4.000000,4.000000,4.000000,4.000000,4.000000,4.000000,4.000000,4.000000,4.000000,4.000000,4.000000,4.000000,4.000000,4.000000,4.000000,4.000000,4.000000,4.000000,4.000000,83.333336
1614302031.897403,47.000000,0.000000,6.040568,-2.073704,-60.685760,2.521802,-28.065664,-11.377007,-1.948058,5.899188,-6.281920,-7.295578,6.683655,7.618621,9.140992,-3.463946,9.174011,-7.969587,10.862471,-11.749630,9.928774,3.970012,4.132217,17.416424,12.135804,0.779439,3.301611,0.854954,8.315334,-13.359432,-1.374482,-9.232654,-12.247187,-41.537289,8064.000000,0.000000,4.000000,,,,0.000000,4.000000,4.000000,4.000000,2.000000,4.000000,4.000000,4.000000,4.000000,4.000000,4.000000,4.000000,4.000000,4.000000,4.000000,4.000000,4.000000,4.000000,4.000000,4.000000,4.000000,4.000000,4.000000,4.000000,4.000000,4.000000,4.000000,4.000000,4.000000,4.000000,4.000000,4.000000,4.000000,83.333336
1614302031.905152,48.000000,0.000000,6.547348,-2.071631,-53.445587,7.134665,-23.935034,-8.801528,-1.946109,5.893288,-6.275639,-5.237000,6.164151,7.611002,8.619031,-3.973302,8.652017,-8.987259,11.364429,-6.609675,21.713717,10.632709,22.589622,19.450289,12.123669,3.855582,3.298309,1.366920,11.383943,-29.756329,-5.988492,-8.710600,-11.722118,-38.931648,8064.000000,0.000000,4.000000,,,,0.000000,4.000000,4.000000,4.000000,2.000000,4.000000,4.000000,4.000000,4.000000,4.000000,4.000000,4.000000,4.000000,4.000000,4.000000,4.000000,4.000000,4.000000,4.000000,4.000000,4.000000,4.000000,4.000000,4.000000,4.000000,4.000000,4.000000,4.000000,4.000000,4.000000,4.000000,4.000000,4.000000,83.333336
1614302031.913001,49.000000,0.000000,5.515160,-2.069559,-57.494705,5.589069,-24.936741,-9.305548,-1.944163,5.374575,-7.295004,1.947724,6.670807,7.603392,10.661695,0.133235,8.130544,2.816600,13.917167,7.243088,27.333029,17.288742,32.310623,19.430840,12.111545,11.544035,3.295011,1.365553,4.705892,-42.034264,-9.572248,-11.778812,-14.787319,-36.841434,8064.000000,0.000000,4.000000,,,,0.000000,4.000000,4.000000,4.000000,2.000000,4.000000,4.000000,4.000000,4.000000,4.000000,4.000000,4.000000,4.000000,4.000000,4.000000,4.000000,4.000000,4.000000,4.000000,4.000000,4.000000,4.000000,4.000000,4.000000,4.000000,4.000000,4.000000,4.000000,4.000000,4.000000,4.000000,4.000000,4.000000,83.333336
1614302031.920751,50.000000,0.000000,6.022465,-2.067489,-50.770542,5.583480,-18.245136,-9.296242,-2.455040,5.882020,-7.287709,6.048340,9.741059,7.595788,15.266418,17.569000,9.148054,20.762501,14.928891,28.261486,30.895439,19.322737,32.278313,19.411407,12.099434,14.609414,3.291716,0.851367,2.649904,-28.146076,-9.049854,-13.305495,-16.310993,-38.343056,8064.000000,0.000000,4.000000,,,,0.000000,4.000000,4.000000,4.000000,2.000000,4.000000,4.000000,4.000000,4.000000,4.000000,4.000000,4.000000,4.000000,4.000000,4.000000,4.000000,4.000000,4.000000,4.000000,4.000000,4.000000,4.000000,4.000000,4.000000,4.000000,4.000000,4.000000,4.000000,4.000000,4.000000,4.000000,4.000000,4.000000,83.333336
1614302031.928600,51.000000,0.000000,6.016442,-2.065422,-40.463364,6.603537,-8.996122,-8.774125,-1.939764,5.876138,-6.254780,3.478189,10.756959,8.101013,17.302433,31.397585,9.138906,24.844303,15.426783,37.976814,34.454288,18.790592,33.271675,19.391996,10.036052,12.543522,4.314065,0.850515,4.698536,-21.451263,-8.015163,-7.138344,-15.781862,-37.279072,8064.000000,0.000000,4.000000,,,,0.000000,4.000000,4.000000,4.000000,2.000000,4.000000,4.000000,4.000000,4.000000,4.000000,4.000000,4.000000,4.000000,4.000000,4.000000,4.000000,4.000000,4.000000,4.000000,4.000000,4.000000,4.000000,4.000000,4.000000,4.000000,4.000000,4.000000,4.000000,4.000000,4.000000,4.000000,4.000000,4.000000,83.333336
1614302031.936349,52.000000,0.000000,6.010426,-2.063357,-39.397259,6.084113,-7.448665,-8.765351,-1.937824,5.870262,-6.248526,3.474711,10.233382,7.580091,18.310772,32.904648,9.642588,24.306639,17.975458,36.913197,35.445473,19.797443,33.238403,19.372604,9.000375,14.069440,4.309752,1.875306,4.181017,-27.583658,-4.417405,1.586743,-15.766080,-31.600765,8064.000000,0.000000,4.000000,,,,0.000000,4.000000,4.000000,4.000000,2.000000,4.000000,4.000000,4.000000,4.000000,4.000000,4.000000,4.000000,4.000000,4.000000,4.000000,4.000000,4.000000,4.000000,4.000000,4.000000,4.000000,4.000000,4.000000,4.000000,4.000000,4.000000,4.000000,4.000000,4.000000,4.000000,4.000000,4.000000,4.000000,83.333336
1614302031.944198,53.000000,0.000000,6.004416,-2.061293,-44.998886,5.565208,-10.518139,-8.756585,-2.448707,8.428494,-7.780738,7.573801,11.248790,7.572511,21.369383,31.333282,9.120125,28.384895,18.470303,36.363464,33.871567,19.264826,25.000036,19.353231,7.965734,14.568192,3.279800,2.386251,3.664015,-21.915051,-1.336064,2.610797,-16.263134,-28.492243,8064.000000,0.000000,4.000000,,,,0.000000,4.000000,4.000000,4.000000,2.000000,4.000000,4.000000,4.000000,4.000000,4.000000,4.000000,4.000000,4.000000,4.000000,4.000000,4.000000,4.000000,4.000000,4.000000,4.000000,4.000000,4.000000,4.000000,4.000000,4.000000,4.000000,4.000000,4.000000,4.000000,4.000000,4.000000,4.000000,4.000000,83.333336
1614302031.951948,54.000000,0.000000,5.998411,-2.059232,-48.030811,5.559643,-8.969159,-9.260650,1.143485,12.522630,-1.106291,9.617509,13.801643,10.129042,26.476219,31.814770,9.623825,26.305229,15.887731,36.839920,32.812054,16.681458,16.769909,19.333879,8.470589,7.374136,8.917546,0.845403,4.173172,-15.226468,-1.334728,1.069725,-13.169949,-31.027853,8064.000000,0.000000,4.000000,,,,0.000000,4.000000,4.000000,4.000000,2.000000,4.000000,4.000000,4.000000,4.000000,4.000000,4.000000,4.000000,4.000000,4.000000,4.000000,4.000000,4.000000,4.000000,4.000000,4.000000,4.000000,4.000000,4.000000,4.000000,4.000000,4.000000,4.000000,4.000000,4.000000,4.000000,4.000000,4.000000,4.000000,83.333336
1614302031.959597,55.000000,0.000000,5.992413,-2.057173,-44.393036,6.066904,1.296220,-6.687286,5.244906,14.048569,10.689687,9.095071,14.813482,11.657373,24.398460,31.270134,9.614202,20.125078,15.871843,35.264618,31.240780,15.639135,18.804420,19.314545,11.026220,8.905223,18.652218,2.895840,4.168999,-19.826626,0.717888,3.119937,-8.541394,-24.842979,8064.000000,0.000000,4.000000,,,,0.000000,4.000000,4.000000,4.000000,2.000000,4.000000,4.000000,4.000000,4.000000,4.000000,4.000000,4.000000,4.000000,4.000000,4.000000,4.000000,4.000000,4.000000,4.000000,4.000000,4.000000,4.000000,4.000000,4.000000,4.000000,4.000000,4.000000,4.000000,4.000000,4.000000,4.000000,4.000000,4.000000,83.333336
1614302031.967346,56.000000,0.000000,5.986420,-2.055115,-40.246078,5.035196,5.397488,-2.578035,4.214020,11.470418,12.217459,6.009053,12.747387,8.055973,12.579191,22.008095,4.989202,11.387004,13.291868,22.921661,26.594156,13.059394,19.811258,19.295231,11.528014,19.152729,15.043822,5.969867,4.164830,-23.396544,3.281273,5.680920,-8.020032,-15.074546,8064.000000,0.000000,4.000000,,,,0.000000,4.000000,4.000000,4.000000,2.000000,4.000000,4.000000,4.000000,4.000000,4.000000,4.000000,4.000000,4.000000,4.000000,4.000000,4.000000,4.000000,4.000000,4.000000,4.000000,4.000000,4.000000,4.000000,4.000000,4.000000,4.000000,4.000000,4.000000,4.000000,4.000000,4.000000,4.000000,4.000000,83.333336
1614302031.974996,57.000000,0.000000,5.980434,-2.053060,-41.231472,2.466058,-2.813038,-1.036995,1.645703,6.843563,5.538575,-1.176443,9.144897,3.432532,2.310201,0.960446,-0.656812,-8.111563,4.560628,-0.691004,18.362432,8.430949,9.535036,17.224653,5.362640,19.646397,2.721087,-0.702769,4.160665,-24.398788,0.713889,5.162419,-8.524833,-22.751780,8064.000000,0.000000,4.000000,,,,0.000000,4.000000,4.000000,4.000000,2.000000,4.000000,4.000000,4.000000,4.000000,4.000000,4.000000,4.000000,4.000000,4.000000,4.000000,4.000000,4.000000,4.000000,4.000000,4.000000,4.000000,4.000000,4.000000,4.000000,4.000000,4.000000,4.000000,4.000000,4.000000,4.000000,4.000000,4.000000,4.000000,83.333336
1614302031.982745,58.000000,0.000000,6.487274,-1.538187,-44.267166,-0.100510,-6.399968,-1.035958,2.156878,5.298258,4.507395,-1.175267,7.084469,3.941920,1.282250,-13.399489,-2.194617,-28.103451,-0.059317,-14.023646,12.190225,7.909698,2.346014,15.668967,0.741893,11.421621,-0.871378,-12.496939,4.156504,-25.912849,-0.825286,2.593154,-8.003488,-38.626465,8064.000000,0.000000,4.000000,,,,0.000000,4.000000,4.000000,4.000000,2.000000,4.000000,4.000000,4.000000,4.000000,4.000000,4.000000,4.000000,4.000000,4.000000,4.000000,4.000000,4.000000,4.000000,4.000000,4.000000,4.000000,4.000000,4.000000,4.000000,4.000000,4.000000,4.000000,4.000000,4.000000,4.000000,4.000000,4.000000,4.000000,83.333336
1614302031.990395,59.000000,0.000000,4.942325,-2.049469,-44.222897,-1.638871,0.273098,-1.547743,1.129080,5.805780,5.015708,7.543857,5.538923,4.450799,2.306609,-14.411731,-3.218063,-35.767654,-0.059258,-14.009623,9.613932,9.440249,3.369309,15.140478,0.741151,9.358918,0.155134,-14.535724,4.152348,-24.861296,-0.824461,1.564919,-7.995484,-41.151939,8064.000000,0.000000,4.000000,,,,0.000000,4.000000,4.000000,4.000000,2.000000,4.000000,4.000000,4.000000,4.000000,4.000000,4.000000,4.000000,4.000000,4.000000,4.000000,4.000000,4.000000,4.000000,4.000000,4.000000,4.000000,4.000000,4.000000,4.000000,4.000000,4.000000,4.000000,4.000000,4.000000,4.000000,4.000000,4.000000,4.000000,83.333336
1614302031.998144,60.000000,0.000000,2.373280,-2.047420,-44.178677,-1.637232,1.298466,-1.033375,-1.948972,5.799974,1.420949,7.023492,2.969282,3.420707,1.278661,-15.422960,-0.137922,-31.116503,0.966442,-15.021254,12.681241,10.456450,7.468503,15.125338,0.227590,9.349559,-1.383482,-9.905803,4.148195,-24.323614,-1.849277,1.050534,-8.500309,-36.495403,8064.000000,0.000000,4.000000,,,,0.000000,4.000000,4.000000,4.000000,2.000000,4.000000,4.000000,4.000000,4.000000,4.000000,4.000000,4.000000,4.000000,4.000000,4.000000,4.000000,4.000000,4.000000,4.000000,4.000000,4.000000,4.000000,4.000000,4.000000,4.000000,4.000000,4.000000,4.000000,4.000000,4.000000,4.000000,4.000000,4.000000,83.333336
1614302032.005793,61.000000,0.000000,2.370907,-1.019731,-44.647316,-0.609954,-2.805396,-1.032341,-2.459843,5.281354,0.393887,-3.752762,2.453492,3.930107,1.790203,-12.330614,12.169908,-7.495643,5.068040,-2.698540,21.386509,18.138302,16.691805,19.212776,2.791465,11.391492,5.284568,-9.383077,4.144047,-26.350573,-0.821787,1.562304,-7.978988,-36.971729,8064.000000,0.000000,4.000000,,,,0.000000,4.000000,4.000000,4.000000,2.000000,4.000000,4.000000,4.000000,4.000000,4.000000,4.000000,4.000000,4.000000,4.000000,4.000000,4.000000,4.000000,4.000000,4.000000,4.000000,4.000000,4.000000,4.000000,4.000000,4.000000,4.000000,4.000000,4.000000,4.000000,4.000000,4.000000,4.000000,4.000000,83.333336
1614302032.013543,62.000000,0.000000,3.394177,-2.557173,-44.089848,-3.173447,-2.802591,-3.082591,-2.457384,6.301713,0.906314,-6.825932,3.476679,4.438997,3.326874,-1.036232,22.414148,17.640057,9.165536,20.381081,28.544609,23.761189,25.905882,23.808949,8.429699,21.123690,16.048513,-9.886515,5.165544,-26.324223,-0.820965,2.586383,-7.971009,-37.447578,8064.000000,0.000000,4.000000,,,,0.000000,4.000000,4.000000,4.000000,2.000000,4.000000,4.000000,4.000000,4.000000,4.000000,4.000000,4.000000,4.000000,4.000000,4.000000,4.000000,4.000000,4.000000,4.000000,4.000000,4.000000,4.000000,4.000000,4.000000,4.000000,4.000000,4.000000,4.000000,4.000000,4.000000,4.000000,4.000000,4.000000,83.333336
1614302032.021192,63.000000,0.000000,0.313860,-7.170001,-45.071400,-7.785658,-1.774147,-7.182072,-5.019029,5.269771,-1.145875,-2.716542,1.421921,0.844815,2.297907,1.016086,21.366093,14.032674,6.079447,21.386341,26.464783,12.455377,24.341515,21.733856,7.908449,24.692310,12.442722,-8.850986,3.109097,-29.887642,-9.025272,-1.518768,-10.014320,-37.410130,8064.000000,0.000000,4.000000,,,,0.000000,4.000000,4.000000,4.000000,2.000000,4.000000,4.000000,4.000000,4.000000,4.000000,4.000000,4.000000,4.000000,4.000000,4.000000,4.000000,4.000000,4.000000,4.000000,4.000000,4.000000,4.000000,4.000000,4.000000,4.000000,4.000000,4.000000,4.000000,4.000000,4.000000,4.000000,4.000000,4.000000,83.333336
1614302032.028941,64.000000,0.000000,-0.712095,-9.726933,-49.128895,-9.316334,-3.823655,-9.226172,-6.552471,2.700398,-3.196011,-2.713825,-0.630783,-3.771415,3.321250,-0.523391,19.293446,7.351974,4.022086,15.723929,25.925497,6.289075,22.778711,20.173662,6.362079,19.026592,8.840535,-9.867777,0.541885,-33.447498,-15.682914,-6.132634,-12.055588,-39.424000,0.000000,211.000000,4.000000,,,,0.000000,4.000000,4.000000,4.000000,2.000000,4.000000,4.000000,4.000000,4.000000,4.000000,4.000000,4.000000,4.000000,4.000000,4.000000,4.000000,4.000000,4.000000,4.000000,4.000000,4.000000,4.000000,4.000000,4.000000,4.000000,4.000000,4.000000,4.000000,4.000000,4.000000,4.000000,4.000000,4.000000,83.333336
1614302032.036591,65.000000,0.000000,1.852720,-9.204386,-52.156689,-8.794197,-5.871114,-8.704125,-3.981816,4.236159,-3.192815,0.365811,2.446770,-3.254823,9.984595,10.759183,23.376715,22.216417,6.582166,32.118462,30.002136,15.000735,22.755932,20.153488,8.406999,17.469103,19.600925,-7.806627,3.105445,-29.824306,-11.564667,0.027345,-12.556353,-40.923038,0.000000,193.000000,4.000000,,,,0.000000,4.000000,4.000000,4.000000,2.000000,4.000000,4.000000,4.000000,4.000000,4.000000,4.000000,4.000000,4.000000,4.000000,4.000000,4.000000,4.000000,4.000000,4.000000,4.000000,4.000000,4.000000,4.000000,4.000000,4.000000,4.000000,4.000000,4.000000,4.000000,4.000000,4.000000,4.000000,4.000000,83.333336
1614302032.044440,66.000000,0.000000,-0.200415,-9.195181,-50.566071,-8.785402,-5.865242,-8.695421,-1.926552,5.770385,-2.676801,4.980830,7.059709,-3.251568,8.948970,12.799706,17.199493,18.604458,0.421738,33.111984,20.228544,7.293427,7.861382,8.851283,5.834489,18.477276,20.094145,-5.747538,4.127981,-26.717560,-7.450538,6.693985,-11.518155,-39.856476,0.000000,199.000000,4.000000,,,,0.000000,4.000000,4.000000,4.000000,2.000000,4.000000,4.000000,4.000000,4.000000,4.000000,4.000000,4.000000,4.000000,4.000000,4.000000,4.000000,4.000000,4.000000,4.000000,4.000000,4.000000,4.000000,4.000000,4.000000,4.000000,4.000000,4.000000,4.000000,4.000000,4.000000,4.000000,4.000000,4.000000,83.333336
1614302032.052189,67.000000,0.000000,-5.328420,-9.698807,-50.515503,-9.289437,-5.346557,-9.199547,-1.924626,1.149230,-2.674125,1.386106,3.975726,-5.812419,-4.906133,-4.648991,-4.356168,-11.670557,-13.424837,4.873744,-2.355788,-13.739508,-11.120838,-8.593466,-1.863653,12.817773,2.638154,-10.869996,-2.029993,-31.306227,-8.981549,-1.517838,-11.506638,-39.816616,0.000000,199.000000,4.000000,,,,0.000000,4.000000,4.000000,4.000000,2.000000,4.000000,4.000000,4.000000,4.000000,4.000000,4.000000,4.000000,4.000000,4.000000,4.000000,4.000000,4.000000,4.000000,4.000000,4.000000,4.000000,4.000000,4.000000,4.000000,4.000000,4.000000,4.000000,4.000000,4.000000,4.000000,4.000000,4.000000,4.000000,83.333336
1614302032.060039,68.000000,0.000000,-5.323092,-9.176288,-55.080372,-8.767328,-6.366851,-8.677526,-1.922701,-2.441663,-3.184271,-5.794767,-0.643635,-7.857889,-14.131996,-15.413573,-18.197966,-25.505041,-19.565258,-10.002925,-16.199585,-19.879614,-18.802025,-12.687436,-3.400251,7.676750,-9.159356,-17.012972,-7.668989,-34.351845,-8.972568,-14.849653,-12.007951,-43.366547,0.000000,128.000000,4.000000,,,,0.000000,4.000000,4.000000,4.000000,2.000000,4.000000,4.000000,4.000000,4.000000,4.000000,4.000000,4.000000,4.000000,4.000000,4.000000,4.000000,4.000000,4.000000,4.000000,4.000000,4.000000,4.000000,4.000000,4.000000,4.000000,4.000000,4.000000,4.000000,4.000000,4.000000,4.000000,4.000000,4.000000,83.333336
1614302032.067788,69.000000,0.000000,-4.292127,-9.167111,-55.538113,-8.758560,-5.847664,-8.668849,-1.920779,-1.413580,-2.155446,-6.814614,-1.668632,-6.824390,-12.066583,-14.885339,-17.154127,-34.197483,-18.007233,-14.608306,-16.183386,-20.885376,-24.937069,-9.085006,-1.858389,1.002406,-12.739941,-16.995958,-7.148499,-34.317490,-7.937954,-17.398907,-11.995943,-47.938564,0.000000,204.000000,4.000000,,,,0.000000,4.000000,4.000000,4.000000,2.000000,4.000000,4.000000,4.000000,4.000000,4.000000,4.000000,4.000000,4.000000,4.000000,4.000000,4.000000,4.000000,4.000000,4.000000,4.000000,4.000000,4.000000,4.000000,4.000000,4.000000,4.000000,4.000000,4.000000,4.000000,4.000000,4.000000,4.000000,4.000000,83.333336
