title:22, start timestamp:1614044873.243894, stop timestamp:1614044919.116934, headset type:EPOCFLEX, headset serial:F00001ED, headset firmware:f12, subject name:s06, channels:75, sampling rate:128, samples:5921      , version:2.0
Timestamp,EEG.Counter,EEG.Interpolated,EEG.Cz,EEG.Fz,EEG.Fp1,EEG.AF3,EEG.F7,EEG.F3,EEG.FC1,EEG.C3,EEG.FC5,EEG.T7,EEG.CP5,EEG.CP1,EEG.P3,EEG.P7,EEG.PO3,EEG.O1,EEG.Pz,EEG.Oz,EEG.O2,EEG.PO4,EEG.P8,EEG.P4,EEG.CP2,EEG.CP6,EEG.T8,EEG.FC6,EEG.C4,EEG.FC2,EEG.F4,EEG.F8,EEG.AF4,EEG.Fp2,EEG.HighBitFlex,EEG.RawCq,EEG.Battery,MarkerIndex,MarkerType,MarkerValueInt,EEG.MarkerHardware,CQ.Cz,CQ.Fz,CQ.Fp1,CQ.AF3,CQ.F7,CQ.F3,CQ.FC1,CQ.C3,CQ.FC5,CQ.T7,CQ.CP5,CQ.CP1,CQ.P3,CQ.P7,CQ.PO3,CQ.O1,CQ.Pz,CQ.Oz,CQ.O2,CQ.PO4,CQ.P8,CQ.P4,CQ.CP2,CQ.CP6,CQ.T8,CQ.FC6,CQ.C4,CQ.FC2,CQ.F4,CQ.F8,CQ.AF4,CQ.Fp2,CQ.Overall
1614044873.243894,80.000000,0.000000,15.480825,2.142489,48.756916,286.739502,49.985519,122.863853,33.319675,8.720456,95.012016,7.688213,17.590080,9.108432,22.890099,13.578534,20.427446,53.540833,28.451824,51.322472,145.655151,3.963607,29.258955,37.579533,23.215473,43.760307,19.308779,10.660342,6.089276,1.221601,12.877224,90.084251,42.675270,-16.907251,0.000000,187.000000,4.000000,,,,0.000000,4.000000,4.000000,4.000000,4.000000,4.000000,4.000000,4.000000,4.000000,4.000000,4.000000,4.000000,4.000000,4.000000,4.000000,4.000000,4.000000,4.000000,4.000000,4.000000,4.000000,4.000000,4.000000,4.000000,4.000000,4.000000,4.000000,4.000000,4.000000,4.000000,4.000000,2.000000,4.000000,83.333336
1614044873.251544,81.000000,0.000000,22.644833,2.140347,50.246620,292.093811,49.422710,122.740990,33.286354,9.224557,96.455467,3.065140,16.546848,27.560862,23.892851,15.103417,20.919840,58.615498,33.551579,52.809608,155.765900,3.959643,28.204054,40.618877,27.294823,44.742191,32.109982,15.265066,18.390879,7.887046,21.582296,101.789040,46.222340,-16.890345,0.000000,179.000000,4.000000,,,,0.000000,4.000000,4.000000,4.000000,4.000000,4.000000,4.000000,4.000000,4.000000,4.000000,4.000000,4.000000,4.000000,4.000000,4.000000,4.000000,4.000000,4.000000,4.000000,4.000000,4.000000,4.000000,4.000000,4.000000,4.000000,4.000000,4.000000,4.000000,4.000000,4.000000,4.000000,2.000000,4.000000,83.333336
1614044873.259293,82.000000,0.000000,24.673470,2.138206,51.734837,296.929901,50.398930,121.079788,32.740250,9.215332,98.923119,-3.604591,21.145687,33.687149,22.330496,10.472930,11.155330,59.582523,31.466743,53.782440,158.174240,-2.710983,25.098927,37.501335,28.805988,46.748730,37.206078,18.839544,10.167360,9.930441,24.637636,106.302635,50.278679,-16.873453,0.000000,205.000000,4.000000,,,,0.000000,4.000000,4.000000,4.000000,4.000000,4.000000,4.000000,4.000000,4.000000,4.000000,4.000000,4.000000,4.000000,4.000000,4.000000,4.000000,4.000000,4.000000,4.000000,4.000000,4.000000,4.000000,4.000000,4.000000,4.000000,4.000000,4.000000,4.000000,4.000000,4.000000,4.000000,2.000000,4.000000,83.333336
1614044873.266942,83.000000,0.000000,24.648796,2.136068,52.708744,296.120148,49.322891,118.907425,33.220329,9.206117,99.337013,-20.524063,15.996336,12.114999,11.026114,-3.383697,0.887764,30.292171,19.640406,30.651735,136.477600,-24.759554,6.099469,13.874089,21.084875,37.471210,21.271437,18.820705,-1.637679,8.894870,23.074537,104.657867,50.228401,-16.856581,0.000000,172.000000,4.000000,,,,0.000000,4.000000,4.000000,4.000000,4.000000,4.000000,4.000000,4.000000,4.000000,4.000000,4.000000,4.000000,4.000000,4.000000,4.000000,4.000000,4.000000,4.000000,4.000000,4.000000,4.000000,4.000000,4.000000,4.000000,4.000000,4.000000,4.000000,4.000000,4.000000,4.000000,4.000000,4.000000,4.000000,100.000000
1614044873.274692,84.000000,0.000000,23.598507,2.133932,55.220135,298.388153,46.196644,118.275703,33.187107,9.196911,99.237679,-10.759950,1.108544,-1.230449,0.758678,-9.021339,0.374056,9.236238,13.466919,17.800571,137.879593,-37.042488,-4.163041,0.526882,16.961227,17.433741,15.096318,14.699321,6.056267,8.885975,23.051462,105.066032,49.665352,-16.839724,0.000000,156.000000,4.000000,,,,0.000000,4.000000,4.000000,4.000000,4.000000,4.000000,4.000000,4.000000,4.000000,4.000000,4.000000,4.000000,4.000000,4.000000,4.000000,4.000000,4.000000,4.000000,4.000000,4.000000,4.000000,4.000000,4.000000,4.000000,4.000000,4.000000,4.000000,4.000000,4.000000,4.000000,4.000000,4.000000,4.000000,100.000000
1614044873.282341,85.000000,0.000000,15.369780,2.131798,52.087994,302.705139,42.560703,117.131783,33.153923,9.187714,97.599976,13.353374,-2.482308,3.898986,1.783560,3.295374,2.937785,24.098797,10.376529,23.423796,132.100693,-52.390060,-16.979391,-10.242875,12.841702,9.211178,13.542761,1.351288,7.075851,9.389910,23.541231,102.396866,49.615688,-16.310062,0.000000,216.000000,4.000000,,,,0.000000,4.000000,4.000000,4.000000,4.000000,4.000000,4.000000,4.000000,4.000000,4.000000,4.000000,4.000000,4.000000,4.000000,4.000000,4.000000,4.000000,4.000000,4.000000,4.000000,4.000000,4.000000,4.000000,4.000000,4.000000,4.000000,4.000000,4.000000,4.000000,4.000000,4.000000,4.000000,4.000000,100.000000
1614044873.290090,86.000000,0.000000,5.098000,2.129666,44.856419,302.402435,37.902760,114.963371,33.120770,9.178526,95.451096,0.519508,3.161200,6.459190,4.858699,0.727977,-0.142076,23.049057,0.109742,11.605500,99.660896,-80.029976,-41.064976,-30.745453,0.521167,6.637865,1.734346,-6.342371,-11.392763,8.867699,24.030512,97.166260,49.566071,-17.832214,0.000000,212.000000,4.000000,,,,0.000000,4.000000,4.000000,4.000000,4.000000,4.000000,4.000000,4.000000,4.000000,4.000000,4.000000,4.000000,4.000000,4.000000,4.000000,4.000000,4.000000,4.000000,4.000000,4.000000,4.000000,4.000000,4.000000,4.000000,4.000000,4.000000,4.000000,4.000000,4.000000,4.000000,4.000000,4.000000,4.000000,100.000000
1614044873.297739,87.000000,0.000000,4.580081,2.127537,43.785919,301.074402,32.736652,113.309944,33.087646,9.169348,95.355644,-22.557934,0.593937,4.401449,4.853841,-22.862495,-0.141934,-3.127839,-5.018572,-0.200977,94.945847,-79.437126,-45.126472,-27.124964,-1.017815,-6.189286,-2.882773,-2.233465,-16.509575,8.858831,21.442377,96.043457,49.516506,-19.352844,0.000000,177.000000,4.000000,,,,0.000000,4.000000,4.000000,4.000000,4.000000,4.000000,4.000000,4.000000,4.000000,4.000000,4.000000,4.000000,4.000000,4.000000,4.000000,4.000000,4.000000,4.000000,4.000000,4.000000,4.000000,4.000000,4.000000,4.000000,4.000000,4.000000,4.000000,4.000000,4.000000,4.000000,4.000000,4.000000,4.000000,100.000000
1614044873.305488,88.000000,0.000000,8.165244,2.125409,42.716492,301.286133,29.114170,113.709457,33.054558,9.160178,92.183365,-24.073837,-7.098965,2.345765,2.284884,-24.890915,3.447951,-2.611891,1.140292,7.491532,113.312439,-60.383331,-34.312119,-6.585019,10.265254,-7.721559,-5.956813,-7.359437,-6.749476,8.849973,16.805552,96.973053,49.466988,-20.359133,0.000000,203.000000,4.000000,,,,0.000000,4.000000,4.000000,4.000000,4.000000,4.000000,4.000000,4.000000,4.000000,4.000000,4.000000,4.000000,4.000000,4.000000,4.000000,4.000000,4.000000,4.000000,4.000000,4.000000,4.000000,4.000000,4.000000,4.000000,4.000000,4.000000,4.000000,4.000000,4.000000,4.000000,4.000000,4.000000,4.000000,100.000000
1614044873.313137,89.000000,0.000000,7.131438,2.123284,37.032753,299.959198,25.495314,113.595749,33.021503,9.151018,87.475800,-35.844635,-11.194430,4.907522,-3.358426,-15.122434,-3.222163,8.672772,3.190434,-2.259549,83.968361,-60.322948,-33.764984,-5.039972,11.280629,1.516932,-22.361113,-16.070026,-4.691444,8.841123,15.250284,96.363258,46.853420,-20.851593,0.000000,214.000000,4.000000,,,,0.000000,4.000000,4.000000,4.000000,4.000000,4.000000,4.000000,4.000000,4.000000,4.000000,4.000000,4.000000,4.000000,4.000000,4.000000,4.000000,4.000000,4.000000,4.000000,4.000000,4.000000,4.000000,4.000000,4.000000,4.000000,4.000000,4.000000,4.000000,4.000000,4.000000,4.000000,4.000000,4.000000,100.000000
1614044873.320886,90.000000,0.000000,5.073025,2.121160,35.970078,300.172058,22.905716,113.482147,32.988483,9.141867,86.875504,-44.526741,-12.721698,15.671845,-6.431991,-29.979107,-18.090736,0.971792,2.674423,-14.052162,76.704903,-51.031857,-19.885065,0.093273,9.218067,-1.048687,-23.877213,-6.310366,-5.199574,8.832281,15.747854,96.266891,45.268105,-19.292280,0.000000,201.000000,4.000000,,,,0.000000,4.000000,4.000000,4.000000,4.000000,4.000000,4.000000,4.000000,4.000000,4.000000,4.000000,4.000000,4.000000,4.000000,4.000000,4.000000,4.000000,4.000000,4.000000,4.000000,4.000000,4.000000,4.000000,4.000000,4.000000,4.000000,4.000000,4.000000,4.000000,4.000000,4.000000,4.000000,4.000000,100.000000
1614044873.328536,91.000000,0.000000,5.067952,2.631860,37.472569,302.948822,23.395630,113.368668,32.955494,9.132725,86.788628,-24.482214,-11.683334,13.604891,-5.912738,-35.077332,-16.021362,10.714410,5.748672,8.013172,109.448708,-24.826977,7.827127,19.067539,16.901155,2.542105,-5.391798,7.029278,0.446652,8.823449,14.193645,96.683449,45.735657,-21.324270,0.000000,201.000000,4.000000,,,,0.000000,4.000000,4.000000,4.000000,4.000000,4.000000,4.000000,4.000000,4.000000,4.000000,4.000000,4.000000,4.000000,4.000000,4.000000,4.000000,4.000000,4.000000,4.000000,4.000000,4.000000,4.000000,4.000000,4.000000,4.000000,4.000000,4.000000,4.000000,4.000000,4.000000,4.000000,4.000000,4.000000,100.000000
1614044873.336285,92.000000,0.000000,5.575704,0.577946,34.870995,302.645874,23.372234,113.768120,32.922539,9.123592,86.701836,-14.714142,-10.133190,-3.844611,-7.445287,-10.939691,2.969017,35.319080,7.281384,30.056442,115.493111,-21.725227,12.434685,21.099752,19.961178,24.078024,1.280261,6.509428,2.497487,8.814626,11.615349,95.561127,44.151459,-29.508074,0.000000,179.000000,4.000000,,,,0.000000,4.000000,4.000000,4.000000,4.000000,4.000000,4.000000,4.000000,4.000000,4.000000,4.000000,4.000000,4.000000,4.000000,4.000000,4.000000,4.000000,4.000000,4.000000,4.000000,4.000000,4.000000,4.000000,4.000000,4.000000,4.000000,4.000000,4.000000,4.000000,4.000000,4.000000,4.000000,4.000000,100.000000
1614044873.343934,93.000000,0.000000,6.082949,-1.473914,32.272022,303.368866,24.887323,113.654350,32.889618,9.627289,91.230522,-23.417376,-8.071774,1.800259,-5.899380,-1.697982,4.504509,34.258121,7.274103,33.616127,112.300690,-29.395809,3.704301,15.437628,16.351473,30.207792,-5.900506,4.964457,1.982169,8.805811,11.603733,92.901459,41.543205,-34.606770,0.000000,187.000000,4.000000,,,,0.000000,4.000000,4.000000,4.000000,4.000000,4.000000,4.000000,4.000000,4.000000,4.000000,4.000000,4.000000,4.000000,4.000000,4.000000,4.000000,4.000000,4.000000,4.000000,4.000000,4.000000,4.000000,4.000000,4.000000,4.000000,4.000000,4.000000,4.000000,4.000000,4.000000,4.000000,4.000000,4.000000,100.000000
1614044873.351683,94.000000,0.000000,8.640968,-1.985261,34.291031,308.706512,29.477821,113.027878,32.856728,8.592021,95.241852,-11.599087,-8.576523,21.798458,-5.893481,-14.516797,-14.474354,17.300785,8.292470,28.967127,129.624283,-29.879234,2.674956,12.345267,17.360764,15.818610,-6.407427,5.985134,2.493007,8.797006,12.104950,92.295738,40.988842,-30.982420,0.000000,220.000000,4.000000,,,,0.000000,4.000000,4.000000,4.000000,4.000000,4.000000,4.000000,4.000000,4.000000,4.000000,4.000000,4.000000,4.000000,4.000000,4.000000,4.000000,4.000000,4.000000,4.000000,4.000000,4.000000,4.000000,4.000000,4.000000,4.000000,4.000000,4.000000,4.000000,4.000000,4.000000,4.000000,4.000000,4.000000,100.000000
1614044873.359332,95.000000,0.000000,9.145148,-1.470455,36.308022,313.013214,30.986805,113.427673,32.823872,4.480865,92.582512,1.233025,-10.619228,14.597173,-17.682459,-24.758690,-33.947060,-0.665233,4.181613,8.425340,110.007484,-44.721149,-6.045668,-4.077334,13.240838,9.136126,-5.888199,-0.174698,0.439232,8.788208,12.092845,92.203445,40.435032,-28.387335,0.000000,211.000000,4.000000,,,,0.000000,4.000000,4.000000,4.000000,4.000000,4.000000,4.000000,4.000000,4.000000,4.000000,4.000000,4.000000,4.000000,4.000000,4.000000,4.000000,4.000000,4.000000,4.000000,4.000000,4.000000,4.000000,4.000000,4.000000,4.000000,4.000000,4.000000,4.000000,4.000000,4.000000,4.000000,4.000000,4.000000,100.000000
1614044873.367181,96.000000,0.000000,9.136003,-1.468985,34.733253,312.700195,30.955818,112.801422,32.791046,1.912281,90.438644,-19.281029,-11.634251,-5.930244,-23.818623,-33.964703,-41.092598,-20.664568,-4.027696,-6.967700,92.461578,-61.086685,-19.372955,-14.842488,8.612213,10.665451,-5.882310,-6.328369,-4.176591,8.779420,11.567932,92.111237,41.933060,-27.846128,8064.000000,0.000000,4.000000,,,,0.000000,4.000000,4.000000,4.000000,4.000000,4.000000,4.000000,4.000000,4.000000,4.000000,4.000000,4.000000,4.000000,4.000000,4.000000,4.000000,4.000000,4.000000,4.000000,4.000000,4.000000,4.000000,4.000000,4.000000,4.000000,4.000000,4.000000,4.000000,4.000000,4.000000,4.000000,4.000000,4.000000,100.000000
1614044873.374931,97.000000,0.000000,9.639688,-1.467516,32.134415,312.900299,31.437683,110.637337,33.271076,2.423190,92.912308,-37.723286,-12.135437,-8.488417,-15.076856,-32.392273,-31.307917,-13.977237,-4.536489,3.808498,123.651169,-56.410213,-24.994608,-7.648158,14.244626,9.629144,-6.902069,-4.783579,-2.121133,8.770640,12.069184,92.019127,40.865486,-27.305462,8064.000000,0.000000,4.000000,,,,0.000000,4.000000,4.000000,4.000000,4.000000,4.000000,4.000000,4.000000,4.000000,4.000000,4.000000,4.000000,4.000000,4.000000,4.000000,4.000000,4.000000,4.000000,4.000000,4.000000,4.000000,4.000000,4.000000,4.000000,4.000000,4.000000,4.000000,4.000000,4.000000,4.000000,4.000000,4.000000,4.000000,100.000000
1614044873.382780,98.000000,0.000000,6.553125,-1.466048,33.127922,310.536133,30.380604,109.501060,32.724983,2.420766,94.870682,-22.300947,-12.636122,-3.864544,-9.933574,-18.513729,-19.994558,12.703407,-5.044773,0.214946,115.835213,-64.046112,-39.328587,-17.896921,11.153459,9.619515,-20.228500,-1.189052,-1.093371,6.710588,12.057116,91.927109,39.798977,-29.329437,8192.000000,0.000000,4.000000,,,,0.000000,4.000000,4.000000,4.000000,4.000000,4.000000,4.000000,4.000000,4.000000,4.000000,4.000000,4.000000,4.000000,4.000000,4.000000,4.000000,4.000000,4.000000,4.000000,4.000000,4.000000,4.000000,4.000000,4.000000,4.000000,4.000000,4.000000,4.000000,4.000000,4.000000,4.000000,4.000000,4.000000,100.000000
1614044873.390529,99.000000,0.000000,1.931187,-1.464582,42.325565,313.815338,33.427147,108.878738,32.692261,1.905525,93.750168,7.464943,-9.033742,-0.783756,-7.872358,-14.905471,-17.923281,15.767627,-13.757677,-16.195526,83.411682,-91.161552,-60.827721,-37.366203,-6.293592,1.917588,-28.413401,-2.726324,-11.861508,5.165416,11.019417,91.835182,47.451488,-23.659082,8192.000000,0.000000,4.000000,,,,0.000000,4.000000,4.000000,4.000000,4.000000,4.000000,4.000000,4.000000,4.000000,4.000000,4.000000,4.000000,4.000000,4.000000,4.000000,4.000000,4.000000,4.000000,4.000000,4.000000,4.000000,4.000000,4.000000,4.000000,4.000000,4.000000,4.000000,4.000000,4.000000,4.000000,4.000000,4.000000,4.000000,100.000000
1614044873.398378,100.000000,0.000000,0.903615,-1.463117,54.078110,328.886139,43.137310,109.795502,33.172386,2.929260,93.143593,16.688248,1.231702,-3.859895,3.417566,-6.685438,-6.623306,18.315962,-11.692637,7.410414,86.918015,-87.993469,-51.023304,-23.482683,-8.338581,-12.956124,-8.897807,-3.749239,-15.439390,5.160250,11.008397,94.820267,60.737370,-7.737988,8576.000000,0.000000,4.000000,,,,0.000000,4.000000,4.000000,4.000000,4.000000,4.000000,4.000000,4.000000,4.000000,4.000000,4.000000,4.000000,4.000000,4.000000,4.000000,4.000000,4.000000,4.000000,4.000000,4.000000,4.000000,4.000000,4.000000,4.000000,4.000000,4.000000,4.000000,4.000000,4.000000,4.000000,4.000000,4.000000,4.000000,100.000000
1614044873.406128,101.000000,0.000000,2.441173,-1.461654,60.177879,337.275208,47.196735,109.172882,30.575113,-0.663412,94.076096,-0.764338,5.845855,-13.086804,11.106456,17.423813,10.819215,44.451492,5.242132,40.223515,119.651611,-55.084961,-18.151768,9.361313,12.182578,-5.763681,18.803398,5.998100,4.576049,5.155090,14.074312,98.315193,63.240734,0.474878,8320.000000,0.000000,4.000000,,,,0.000000,4.000000,4.000000,4.000000,4.000000,4.000000,4.000000,4.000000,4.000000,4.000000,4.000000,4.000000,4.000000,4.000000,4.000000,4.000000,4.000000,4.000000,4.000000,4.000000,4.000000,4.000000,4.000000,4.000000,4.000000,4.000000,4.000000,4.000000,4.000000,4.000000,4.000000,4.000000,4.000000,100.000000
1614044873.413977,102.000000,0.000000,4.490014,-1.973013,58.066418,329.758423,42.021336,104.961151,23.877871,-8.867877,93.982018,-18.712292,0.198983,-7.432693,5.454324,15.355106,3.116087,50.048065,15.493300,41.721752,152.352478,-25.286287,14.686897,28.839130,29.093473,23.472851,25.964083,18.812614,22.520191,5.149935,15.598700,99.242516,59.587749,-5.166622,8192.000000,0.000000,4.000000,,,,0.000000,4.000000,4.000000,4.000000,4.000000,4.000000,4.000000,4.000000,4.000000,4.000000,4.000000,4.000000,4.000000,4.000000,4.000000,4.000000,4.000000,4.000000,4.000000,4.000000,4.000000,4.000000,4.000000,4.000000,4.000000,4.000000,4.000000,4.000000,4.000000,4.000000,4.000000,4.000000,4.000000,100.000000
1614044873.421726,103.000000,0.000000,5.511165,-1.458220,54.418610,323.787659,37.876747,99.215164,20.264250,-13.474394,92.349571,-21.257681,-4.929421,8.984997,0.833485,-13.378198,-13.297285,32.049301,14.452166,22.192852,135.277039,-21.671257,16.210672,29.323112,30.602840,41.398098,22.348373,21.357904,19.933569,5.144785,15.070280,99.656097,59.528160,-9.776840,8320.000000,0.000000,4.000000,,,,0.000000,4.000000,4.000000,4.000000,4.000000,4.000000,4.000000,4.000000,4.000000,4.000000,4.000000,4.000000,4.000000,4.000000,4.000000,4.000000,4.000000,4.000000,4.000000,4.000000,4.000000,4.000000,4.000000,4.000000,4.000000,4.000000,4.000000,4.000000,4.000000,4.000000,4.000000,4.000000,4.000000,100.000000
1614044873.429575,104.000000,0.000000,5.505653,0.594521,55.902653,325.515137,38.351692,97.064667,21.782446,-12.435278,90.205940,-19.185143,-4.924491,0.770884,1.345472,-19.518665,-11.232706,30.478788,13.924893,13.452711,102.834076,-23.700869,7.989333,24.165585,28.008135,39.818237,24.377308,21.849367,14.785430,5.139640,22.234697,102.120544,60.494274,-8.741423,8064.000000,0.000000,4.000000,,,,0.000000,4.000000,4.000000,4.000000,4.000000,4.000000,4.000000,4.000000,4.000000,4.000000,4.000000,4.000000,4.000000,4.000000,4.000000,4.000000,4.000000,4.000000,4.000000,4.000000,4.000000,4.000000,4.000000,4.000000,4.000000,4.000000,4.000000,4.000000,4.000000,4.000000,4.000000,4.000000,4.000000,100.000000
1614044873.437325,105.000000,0.000000,5.500148,2.645208,55.333927,324.676819,38.826160,97.993240,23.811947,-12.422843,89.090096,-20.191599,-4.406746,-16.665785,1.344126,-16.935045,-10.708652,28.909849,15.449430,16.003361,106.833801,-17.010500,9.519805,25.167059,28.492949,39.778419,26.404213,25.417261,17.847567,5.134501,30.930410,103.044067,64.023521,-8.219860,8064.000000,0.000000,4.000000,,,,0.000000,4.000000,4.000000,4.000000,4.000000,4.000000,4.000000,4.000000,4.000000,4.000000,4.000000,4.000000,4.000000,4.000000,4.000000,4.000000,4.000000,4.000000,4.000000,4.000000,4.000000,4.000000,4.000000,4.000000,4.000000,4.000000,4.000000,4.000000,4.000000,4.000000,4.000000,4.000000,4.000000,100.000000
1614044873.445174,106.000000,0.000000,5.494648,2.129742,45.022182,323.839325,38.274513,98.920891,25.326595,-12.923241,89.513824,-20.684227,-4.402340,-6.905529,1.342782,-27.174520,-21.467175,15.034785,15.946801,28.807871,139.547485,-16.993490,5.920542,22.577789,28.464455,42.302742,19.711142,18.725178,16.804079,5.129366,27.822557,102.941017,67.036423,-10.775743,8064.000000,0.000000,4.000000,,,,0.000000,4.000000,4.000000,4.000000,4.000000,4.000000,4.000000,4.000000,4.000000,4.000000,4.000000,4.000000,4.000000,4.000000,4.000000,4.000000,4.000000,4.000000,4.000000,4.000000,4.000000,4.000000,4.000000,4.000000,4.000000,4.000000,4.000000,4.000000,4.000000,4.000000,4.000000,4.000000,4.000000,100.000000
1614044873.452923,107.000000,0.000000,5.489153,2.127613,35.233570,324.028290,35.159317,96.257866,25.814091,-11.884677,90.962776,-20.663542,-5.936399,6.434710,1.341439,-17.916576,-22.984169,11.942827,12.341110,27.753422,124.536140,-36.463676,-10.495635,6.657776,23.307785,32.516850,9.947841,6.398760,9.094967,5.124237,20.102427,101.299614,59.789902,-12.816249,8064.000000,0.000000,4.000000,,,,0.000000,4.000000,4.000000,4.000000,4.000000,4.000000,4.000000,4.000000,4.000000,4.000000,4.000000,4.000000,4.000000,4.000000,4.000000,4.000000,4.000000,4.000000,4.000000,4.000000,4.000000,4.000000,4.000000,4.000000,4.000000,4.000000,4.000000,4.000000,4.000000,4.000000,4.000000,4.000000,4.000000,100.000000
1614044873.460773,108.000000,0.000000,5.483664,2.125485,35.198338,321.652985,32.047234,89.494942,25.275455,-12.385612,88.820526,-13.976213,-9.007385,-2.802494,0.827277,3.126982,-19.884262,4.751397,3.610821,1.059001,92.103912,-54.375931,-22.280010,-7.707856,19.694735,12.997154,8.912252,4.853899,0.367923,5.119112,18.543863,96.582932,51.012161,-13.316254,8064.000000,0.000000,4.000000,,,,0.000000,4.000000,4.000000,4.000000,4.000000,4.000000,4.000000,4.000000,4.000000,4.000000,4.000000,4.000000,4.000000,4.000000,4.000000,4.000000,4.000000,4.000000,4.000000,4.000000,4.000000,4.000000,4.000000,4.000000,4.000000,4.000000,4.000000,4.000000,4.000000,4.000000,4.000000,4.000000,4.000000,100.000000
1614044873.468522,109.000000,0.000000,4.965360,2.123359,36.188782,319.280060,31.502367,86.841339,25.250179,-15.962971,83.603500,-8.834031,-8.998378,-11.517640,1.339271,-3.542812,-20.890018,-7.048226,-0.495354,-10.736929,100.216934,-57.911297,-22.257730,-10.777071,18.649399,4.266208,6.852058,4.849046,-0.145265,5.113994,19.550961,89.306862,50.961147,-13.302938,8064.000000,0.000000,4.000000,,,,0.000000,4.000000,4.000000,4.000000,4.000000,4.000000,4.000000,4.000000,4.000000,4.000000,4.000000,4.000000,4.000000,4.000000,4.000000,4.000000,4.000000,4.000000,4.000000,4.000000,4.000000,4.000000,4.000000,4.000000,4.000000,4.000000,4.000000,4.000000,4.000000,4.000000,4.000000,4.000000,4.000000,100.000000
1614044873.476371,110.000000,0.000000,5.473215,2.121236,35.639771,319.986420,26.342659,87.267319,26.763391,-15.947007,83.007080,-20.107248,-7.450918,-10.480482,0.312290,-17.898243,-18.817846,5.779335,-1.007679,2.094321,116.014153,-71.186722,-30.953423,-18.971422,10.425620,6.826045,-7.000948,-3.360932,2.418983,5.108880,19.018589,85.114990,51.935829,-13.289635,8064.000000,0.000000,4.000000,,,,0.000000,4.000000,4.000000,4.000000,4.000000,4.000000,4.000000,4.000000,4.000000,4.000000,4.000000,4.000000,4.000000,4.000000,4.000000,4.000000,4.000000,4.000000,4.000000,4.000000,4.000000,4.000000,4.000000,4.000000,4.000000,4.000000,4.000000,4.000000,4.000000,4.000000,4.000000,4.000000,4.000000,100.000000
1614044873.484120,111.000000,0.000000,4.954921,2.119115,36.116951,317.102325,17.085546,81.539032,23.146885,-15.931061,79.334328,-38.035858,-14.622954,-9.444361,-6.867509,-16.854704,-24.440054,9.876120,-8.698979,-6.112902,88.718651,-98.807838,-58.614777,-34.337067,-0.866857,-1.898730,-20.327280,-6.947314,-4.762923,5.103771,17.973930,84.004234,50.858253,-12.763524,8064.000000,0.000000,4.000000,,,,0.000000,4.000000,4.000000,4.000000,4.000000,4.000000,4.000000,4.000000,4.000000,4.000000,4.000000,4.000000,4.000000,4.000000,4.000000,4.000000,4.000000,4.000000,4.000000,4.000000,4.000000,4.000000,4.000000,4.000000,4.000000,4.000000,4.000000,4.000000,4.000000,4.000000,4.000000,4.000000,4.000000,100.000000
1614044873.491770,112.000000,0.000000,1.873043,2.116996,32.491093,307.041626,14.504359,75.303642,12.354506,-20.017693,62.844738,-45.177311,-27.941666,-10.973377,-16.604231,-21.966055,-36.210487,-14.749141,-17.921049,-31.234995,58.886345,-118.196213,-83.171547,-45.584782,-5.481374,-23.435293,-23.896696,-6.427547,-17.578672,4.585846,14.366212,81.356133,50.807392,-13.263581,8064.000000,0.000000,4.000000,,,,0.000000,4.000000,4.000000,4.000000,4.000000,4.000000,4.000000,4.000000,4.000000,4.000000,4.000000,4.000000,4.000000,4.000000,4.000000,4.000000,4.000000,4.000000,4.000000,4.000000,4.000000,4.000000,4.000000,4.000000,4.000000,4.000000,4.000000,4.000000,4.000000,4.000000,4.000000,4.000000,4.000000,100.000000
1614044873.499519,113.000000,0.000000,1.358350,2.114879,28.868856,302.632019,16.541138,74.715523,6.701127,-22.561779,54.576763,-36.927006,-26.888083,-17.116251,-18.638908,-28.097935,-30.533249,-18.324135,-21.492872,-25.562735,67.545410,-113.462631,-76.421707,-44.000732,-2.398970,-34.693909,-18.744595,-6.421119,-14.996992,5.094081,11.787744,80.249130,51.269405,-12.737497,8064.000000,0.000000,4.000000,,,,0.000000,4.000000,4.000000,4.000000,4.000000,4.000000,4.000000,4.000000,4.000000,4.000000,4.000000,4.000000,4.000000,4.000000,4.000000,4.000000,4.000000,4.000000,4.000000,4.000000,4.000000,4.000000,4.000000,4.000000,4.000000,4.000000,4.000000,4.000000,4.000000,4.000000,4.000000,4.000000,4.000000,100.000000
1614044873.507169,114.000000,0.000000,5.972376,2.625584,29.352810,305.406311,16.011776,76.179268,10.284169,-18.436653,64.778595,-16.377256,-11.989399,-16.586313,-11.953604,-14.223683,-14.092461,4.258291,-17.368814,7.283342,100.298378,-82.579941,-43.524773,-20.366989,11.449583,-24.915625,-0.777132,3.328892,1.428261,7.653090,11.775955,83.245804,51.730957,-8.622195,8064.000000,0.000000,4.000000,,,,0.000000,4.000000,4.000000,4.000000,4.000000,4.000000,4.000000,4.000000,4.000000,4.000000,4.000000,4.000000,4.000000,4.000000,4.000000,4.000000,4.000000,4.000000,4.000000,4.000000,4.000000,4.000000,4.000000,4.000000,4.000000,4.000000,4.000000,4.000000,4.000000,4.000000,4.000000,4.000000,4.000000,100.000000
1614044873.514918,115.000000,0.000000,10.068968,1.084497,27.272175,300.998352,15.482943,75.077446,10.786705,-15.341292,71.893303,-0.976265,-3.259461,1.891811,-6.813445,2.713618,-11.001445,11.433520,-7.607856,28.301699,133.018585,-49.676846,-10.660736,7.345685,25.797108,-0.788146,25.890312,17.171717,10.144782,9.183898,11.764179,83.675377,51.679226,-5.536650,8064.000000,0.000000,4.000000,,,,0.000000,4.000000,4.000000,4.000000,4.000000,4.000000,4.000000,4.000000,4.000000,4.000000,4.000000,4.000000,4.000000,4.000000,4.000000,4.000000,4.000000,4.000000,4.000000,4.000000,4.000000,4.000000,4.000000,4.000000,4.000000,4.000000,4.000000,4.000000,4.000000,4.000000,4.000000,4.000000,4.000000,100.000000
1614044873.522567,116.000000,0.000000,8.520437,-0.967869,25.193621,291.466583,16.493101,75.515190,9.237457,-16.351593,70.282951,2.101635,-5.307484,7.018125,-6.293811,1.172443,-13.554545,17.063112,0.092059,29.811859,125.706085,-32.704090,8.837105,16.569109,25.258490,26.904951,43.300320,20.744289,8.596175,8.661894,11.752416,84.104523,51.114727,-5.018293,8192.000000,0.000000,4.000000,,,,0.000000,4.000000,4.000000,4.000000,4.000000,4.000000,4.000000,4.000000,4.000000,4.000000,4.000000,4.000000,4.000000,4.000000,4.000000,4.000000,4.000000,4.000000,4.000000,4.000000,4.000000,4.000000,4.000000,4.000000,4.000000,4.000000,4.000000,4.000000,4.000000,4.000000,4.000000,4.000000,4.000000,100.000000
1614044873.530316,117.000000,0.000000,5.947814,-1.992542,26.706888,289.123840,17.502249,76.465317,10.253860,-16.335241,72.263954,4.663636,-4.789356,-19.142740,-6.800337,-8.572320,-12.002530,27.815279,0.604788,27.217945,105.580376,-32.671387,11.905190,16.552540,19.079386,43.801121,40.180096,17.646622,8.587580,9.166052,11.740663,88.122986,51.576435,-5.013275,8064.000000,0.000000,4.000000,,,,0.000000,4.000000,4.000000,4.000000,4.000000,4.000000,4.000000,4.000000,4.000000,4.000000,4.000000,4.000000,4.000000,4.000000,4.000000,4.000000,4.000000,4.000000,4.000000,4.000000,4.000000,4.000000,4.000000,4.000000,4.000000,4.000000,4.000000,4.000000,4.000000,4.000000,4.000000,4.000000,4.000000,100.000000
1614044873.537965,118.000000,0.000000,4.916225,-1.477729,20.526335,286.783417,15.433465,74.850388,10.243607,-15.806085,75.781433,-2.007695,-3.758925,-30.918468,-7.819178,-14.204773,-13.016169,19.069515,-0.421458,24.626625,123.423515,-31.100254,0.611234,12.946243,20.085947,40.167576,18.601454,13.013590,10.117454,8.131245,9.677640,81.881020,51.012035,-7.572364,8192.000000,0.000000,4.000000,,,,0.000000,4.000000,4.000000,4.000000,4.000000,4.000000,4.000000,4.000000,4.000000,4.000000,4.000000,4.000000,4.000000,4.000000,4.000000,4.000000,4.000000,4.000000,4.000000,4.000000,4.000000,4.000000,4.000000,4.000000,4.000000,4.000000,4.000000,4.000000,4.000000,4.000000,4.000000,4.000000,4.000000,100.000000
1614044873.545714,119.000000,0.000000,4.911309,-1.989072,6.659655,277.265869,12.853929,72.724251,10.233363,-16.303099,74.680008,-13.800559,-7.857730,-10.887550,-9.862641,-12.652106,-16.080074,5.717113,0.091784,19.986612,135.607788,-32.094795,-10.671429,3.189707,18.527399,28.845358,-2.955610,3.769808,8.056054,5.559011,5.565399,65.388878,48.396923,-14.744279,8064.000000,0.000000,4.000000,,,,0.000000,4.000000,4.000000,4.000000,4.000000,4.000000,4.000000,4.000000,4.000000,4.000000,4.000000,4.000000,4.000000,4.000000,4.000000,4.000000,4.000000,4.000000,4.000000,4.000000,4.000000,4.000000,4.000000,4.000000,4.000000,4.000000,4.000000,4.000000,4.000000,4.000000,4.000000,4.000000,4.000000,100.000000
1614044873.553364,120.000000,0.000000,5.419218,-1.987083,3.576072,273.911682,14.379537,73.164352,13.812873,-12.697053,75.630966,-0.966245,-5.285770,3.995132,-9.852778,-10.075352,-14.525534,11.352422,0.604512,17.915344,107.779869,-39.242188,-15.276142,-2.967329,15.944770,18.047283,-3.978295,-2.387809,5.483895,4.527811,4.021371,60.195286,47.835705,-16.267996,8064.000000,0.000000,4.000000,,,,0.000000,4.000000,4.000000,4.000000,4.000000,4.000000,4.000000,4.000000,4.000000,4.000000,4.000000,4.000000,4.000000,4.000000,4.000000,4.000000,4.000000,4.000000,4.000000,4.000000,4.000000,4.000000,4.000000,4.000000,4.000000,4.000000,4.000000,4.000000,4.000000,4.000000,4.000000,4.000000,4.000000,100.000000
1614044873.561113,121.000000,0.000000,5.413799,-0.959455,4.085316,271.073669,11.288234,70.527084,17.388803,-7.556150,75.042519,15.444977,3.437464,1.427034,-3.689080,-9.552456,-9.895623,22.110300,1.116728,19.435890,94.851578,-49.459354,-21.414711,-5.015644,16.441645,8.285645,1.153888,-2.898241,5.478411,5.036104,4.017350,64.750473,47.787868,-13.174805,8064.000000,0.000000,4.000000,,,,0.000000,4.000000,4.000000,4.000000,4.000000,4.000000,4.000000,4.000000,4.000000,4.000000,4.000000,4.000000,4.000000,4.000000,4.000000,4.000000,4.000000,4.000000,4.000000,4.000000,4.000000,4.000000,4.000000,4.000000,4.000000,4.000000,4.000000,4.000000,4.000000,4.000000,4.000000,4.000000,4.000000,100.000000
1614044873.568762,122.000000,0.000000,4.382744,-1.984136,-2.072615,255.417969,-0.517926,60.712967,17.884235,-8.574236,65.736710,1.583378,5.998129,-5.753880,6.058199,-3.389057,-7.834445,24.139471,-4.012593,17.365173,106.038773,-63.768871,-28.572784,-10.138833,10.784178,2.123514,-0.898547,-2.382522,4.960112,5.031068,3.500512,64.685722,46.201618,-13.674451,8192.000000,0.000000,4.000000,,,,0.000000,4.000000,4.000000,4.000000,4.000000,4.000000,4.000000,4.000000,4.000000,4.000000,4.000000,4.000000,4.000000,4.000000,4.000000,4.000000,4.000000,4.000000,4.000000,4.000000,4.000000,4.000000,4.000000,4.000000,4.000000,4.000000,4.000000,4.000000,4.000000,4.000000,4.000000,4.000000,4.000000,100.000000
1614044873.576511,123.000000,0.000000,8.480926,-1.469332,-2.070543,246.444611,-5.132793,57.062511,18.379171,-8.565661,59.004303,-5.084872,9.069055,-6.773767,14.770090,12.511767,-9.877893,18.474306,-8.111145,15.296526,100.804527,-72.423050,-29.569853,-12.179976,4.619548,1.095749,3.717736,6.337809,4.955152,5.026037,9.138038,68.210785,51.796444,-10.071033,8064.000000,0.000000,4.000000,,,,0.000000,4.000000,4.000000,4.000000,4.000000,4.000000,4.000000,4.000000,4.000000,4.000000,4.000000,4.000000,4.000000,4.000000,4.000000,4.000000,4.000000,4.000000,4.000000,4.000000,4.000000,4.000000,4.000000,4.000000,4.000000,4.000000,4.000000,4.000000,4.000000,4.000000,4.000000,4.000000,4.000000,100.000000
1614044873.584160,124.000000,0.000000,15.651932,4.173163,0.495631,249.275085,-5.127660,59.056728,21.437716,0.160853,60.996582,15.433034,19.829216,9.130443,18.345064,17.627460,-7.816733,18.455832,-0.923547,15.281229,96.088341,-71.837807,-35.181309,-14.731899,9.230313,-0.443808,11.919147,14.536599,5.463017,5.021011,18.872490,72.757957,60.975414,-1.855834,8064.000000,0.000000,4.000000,,,,0.000000,4.000000,4.000000,4.000000,4.000000,4.000000,4.000000,4.000000,4.000000,4.000000,4.000000,4.000000,4.000000,4.000000,4.000000,4.000000,4.000000,4.000000,4.000000,4.000000,4.000000,4.000000,4.000000,4.000000,4.000000,4.000000,4.000000,4.000000,4.000000,4.000000,4.000000,4.000000,4.000000,100.000000
1614044873.592009,125.000000,0.000000,13.584998,5.194631,-13.863839,237.230942,-15.378942,49.254082,22.441919,3.237615,55.807377,14.904780,19.296566,18.864902,12.172873,-1.364526,-7.296096,15.873274,-2.461085,5.522358,93.940971,-86.124947,-52.069202,-29.588963,7.682621,-1.981826,4.214920,8.368217,1.354990,5.015990,19.879257,63.967247,55.273415,-4.930901,8064.000000,0.000000,4.000000,,,,0.000000,4.000000,4.000000,4.000000,4.000000,4.000000,4.000000,4.000000,4.000000,4.000000,4.000000,4.000000,4.000000,4.000000,4.000000,4.000000,4.000000,4.000000,4.000000,4.000000,4.000000,4.000000,4.000000,4.000000,4.000000,4.000000,4.000000,4.000000,4.000000,4.000000,4.000000,4.000000,4.000000,100.000000
1614044873.599759,126.000000,0.000000,5.879105,-0.451589,-32.311516,217.506531,-28.184076,35.871494,19.855375,-9.586135,41.392597,-7.674227,6.456757,-4.230886,-4.249557,-24.952904,-24.724697,-6.193882,-20.920162,-9.867780,65.129082,-110.141380,-64.837646,-39.302963,-3.094292,-6.595229,-10.661091,1.180361,-5.313031,5.010973,14.218352,53.646870,41.371986,-15.182380,8064.000000,0.000000,4.000000,,,,0.000000,4.000000,4.000000,4.000000,4.000000,4.000000,4.000000,4.000000,4.000000,4.000000,4.000000,4.000000,4.000000,4.000000,4.000000,4.000000,4.000000,4.000000,4.000000,4.000000,4.000000,4.000000,4.000000,4.000000,4.000000,4.000000,4.000000,4.000000,4.000000,4.000000,4.000000,4.000000,4.000000,100.000000
1614044873.607608,127.000000,0.000000,4.334764,-1.476779,-32.792023,213.699280,-27.643072,34.809982,17.784237,-20.345779,36.735821,-7.153732,0.809274,-20.636911,-17.065821,-28.517694,-41.110229,-20.546661,-27.053087,-12.422014,56.858826,-104.390213,-55.029221,-23.366224,0.498545,-14.280941,-10.650430,2.204822,-8.384642,5.005963,11.640032,53.593224,38.253693,-17.731300,8064.000000,0.000000,4.000000,,,,0.000000,4.000000,4.000000,4.000000,4.000000,4.000000,4.000000,4.000000,4.000000,4.000000,4.000000,4.000000,4.000000,4.000000,4.000000,4.000000,4.000000,4.000000,4.000000,4.000000,4.000000,4.000000,4.000000,4.000000,4.000000,4.000000,4.000000,4.000000,4.000000,4.000000,4.000000,4.000000,4.000000,100.000000
1614044873.615357,0.000000,0.000000,5.868891,-1.475302,-31.733589,209.383011,-26.076967,34.775173,17.766453,-19.812613,38.237545,1.571370,3.372568,-3.180377,-18.074396,-26.950716,-31.838350,-0.013295,-11.641419,-2.153182,89.622475,-71.465317,-22.153679,0.246886,14.344201,-8.112814,1.667913,-0.874306,-3.760872,5.000957,10.089931,54.052452,40.779541,-15.662287,0.000000,174.000000,4.000000,,,,0.000000,4.000000,4.000000,4.000000,4.000000,4.000000,4.000000,4.000000,4.000000,4.000000,4.000000,4.000000,4.000000,4.000000,4.000000,4.000000,4.000000,4.000000,4.000000,4.000000,4.000000,4.000000,4.000000,4.000000,4.000000,4.000000,4.000000,4.000000,4.000000,4.000000,4.000000,4.000000,4.000000,100.000000
1614044873.623206,1.000000,0.000000,5.350202,-6.602032,-41.445446,193.789017,-30.666275,23.458347,17.748686,-18.767160,37.173668,-6.635330,-0.220548,6.566393,-18.056322,-39.744278,-16.934717,13.320052,-2.399009,8.618202,116.712341,-45.752823,2.483860,8.964588,16.893959,18.049145,10.897015,-5.488817,3.422376,4.995956,8.028559,49.895836,39.713120,-17.697906,0.000000,192.000000,4.000000,,,,0.000000,4.000000,4.000000,4.000000,4.000000,4.000000,4.000000,4.000000,4.000000,4.000000,4.000000,4.000000,4.000000,4.000000,4.000000,4.000000,4.000000,4.000000,4.000000,4.000000,4.000000,4.000000,4.000000,4.000000,4.000000,4.000000,4.000000,4.000000,4.000000,4.000000,4.000000,4.000000,4.000000,100.000000
1614044873.630956,2.000000,0.000000,4.832031,-7.621071,-47.557846,186.928558,-33.712532,16.255402,17.730938,-20.286854,34.572392,-12.269720,-10.476738,-3.183763,-18.551085,-42.268635,-15.379320,11.255449,-3.935071,19.378815,97.621269,-41.604504,-7.262214,8.442802,15.851424,37.005455,12.424580,-3.432046,5.470236,4.990960,7.507709,49.845940,38.647766,-16.654568,0.000000,179.000000,4.000000,,,,0.000000,4.000000,4.000000,4.000000,4.000000,4.000000,4.000000,4.000000,4.000000,4.000000,4.000000,4.000000,4.000000,4.000000,4.000000,4.000000,4.000000,4.000000,4.000000,4.000000,4.000000,4.000000,4.000000,4.000000,4.000000,4.000000,4.000000,4.000000,4.000000,4.000000,4.000000,4.000000,4.000000,100.000000
1614044873.638805,3.000000,0.000000,5.340020,-2.485245,-45.459007,188.792923,-35.730103,18.803249,17.713207,-19.753746,31.460896,-8.154886,-17.645748,-6.257503,-12.891509,-21.200727,-15.876761,26.115990,-2.905495,16.282513,81.626213,-42.075722,-22.639566,7.921539,18.399675,32.865887,11.899334,-1.377331,4.951945,5.498789,8.013022,51.847374,39.634762,-13.048170,0.000000,166.000000,4.000000,,,,0.000000,4.000000,4.000000,4.000000,4.000000,4.000000,4.000000,4.000000,4.000000,4.000000,4.000000,4.000000,4.000000,4.000000,4.000000,4.000000,4.000000,4.000000,4.000000,4.000000,4.000000,4.000000,4.000000,4.000000,4.000000,4.000000,4.000000,4.000000,4.000000,4.000000,4.000000,4.000000,4.000000,100.000000
1614044873.646554,4.000000,0.000000,5.847500,-0.431477,-46.439190,183.475922,-39.796936,14.681881,17.695494,-19.733994,23.224306,-11.736475,-14.551180,-3.174322,-7.750412,-7.333372,-16.373705,26.089872,0.174333,-4.759411,82.570229,-42.033646,-17.488722,9.452080,20.432558,24.115070,12.913075,-2.401595,8.536736,4.980470,8.005009,48.718605,39.595123,-13.547942,0.000000,201.000000,4.000000,,,,0.000000,4.000000,4.000000,4.000000,4.000000,4.000000,4.000000,4.000000,4.000000,4.000000,4.000000,4.000000,4.000000,4.000000,4.000000,4.000000,4.000000,4.000000,4.000000,4.000000,4.000000,4.000000,4.000000,4.000000,4.000000,4.000000,4.000000,4.000000,4.000000,4.000000,4.000000,4.000000,4.000000,100.000000
1614044873.654403,5.000000,0.000000,8.918575,-1.969507,-49.982494,174.574493,-41.808422,6.974892,17.677799,-18.175798,19.098518,-14.288841,-6.844321,1.957057,-6.717021,-9.890141,-16.357332,5.038142,1.712620,-2.190549,93.256889,-39.940331,-14.907130,9.442628,20.412125,26.142237,12.387342,0.677729,9.041020,4.975490,7.997004,46.618603,39.555531,-10.457471,0.000000,200.000000,4.000000,,,,0.000000,4.000000,4.000000,4.000000,4.000000,4.000000,4.000000,4.000000,4.000000,4.000000,4.000000,4.000000,4.000000,4.000000,4.000000,4.000000,4.000000,4.000000,4.000000,4.000000,4.000000,4.000000,4.000000,4.000000,4.000000,4.000000,4.000000,4.000000,4.000000,4.000000,4.000000,4.000000,4.000000,100.000000
1614044873.662153,6.000000,0.000000,9.935298,-1.454717,-48.906872,164.143509,-40.228149,6.455096,18.172941,-16.106340,21.643522,2.135705,-4.786194,5.544844,-2.607739,-7.316149,-6.084564,15.802335,-1.366015,30.632154,103.420044,-46.567055,-28.225557,-1.336046,14.237866,26.628916,10.323673,5.292436,1.339672,5.483335,8.501827,48.110447,39.515976,-1.216244,0.000000,164.000000,4.000000,,,,0.000000,4.000000,4.000000,4.000000,4.000000,4.000000,4.000000,4.000000,4.000000,4.000000,4.000000,4.000000,4.000000,4.000000,4.000000,4.000000,4.000000,4.000000,4.000000,4.000000,4.000000,4.000000,4.000000,4.000000,4.000000,4.000000,4.000000,4.000000,4.000000,4.000000,4.000000,4.000000,4.000000,100.000000
1614044873.670002,7.000000,0.000000,5.822799,-0.940442,-49.883606,150.133209,-41.726383,5.935821,16.103485,-15.577413,18.032135,13.928440,-5.294229,-4.717111,0.984612,-1.154987,-7.616941,28.607046,-9.569777,28.037420,82.290985,-73.699974,-46.146049,-21.334709,1.403116,9.679210,7.749247,3.748682,-3.277053,3.426569,6.954864,44.472591,39.989281,1.349074,0.000000,213.000000,4.000000,,,,0.000000,4.000000,4.000000,4.000000,4.000000,4.000000,4.000000,4.000000,4.000000,4.000000,4.000000,4.000000,4.000000,4.000000,4.000000,4.000000,4.000000,4.000000,4.000000,4.000000,4.000000,4.000000,4.000000,4.000000,4.000000,4.000000,4.000000,4.000000,4.000000,4.000000,4.000000,4.000000,4.000000,100.000000
1614044873.677751,8.000000,0.000000,1.714412,-1.452322,-61.628593,136.649750,-46.300041,-0.223961,11.984818,-15.561835,6.732051,2.119640,-4.263294,-11.891881,-2.093296,-8.333319,-28.122145,2.937413,-16.226873,-4.298310,58.618946,-98.754478,-58.920418,-32.595425,-5.264954,-13.920213,1.074831,1.693652,-2.760955,-0.679421,4.896627,34.684532,39.949291,-7.370223,0.000000,201.000000,4.000000,,,,0.000000,4.000000,4.000000,4.000000,4.000000,4.000000,4.000000,4.000000,4.000000,4.000000,4.000000,4.000000,4.000000,4.000000,4.000000,4.000000,4.000000,4.000000,4.000000,4.000000,4.000000,4.000000,4.000000,4.000000,4.000000,4.000000,4.000000,4.000000,4.000000,4.000000,4.000000,4.000000,4.000000,100.000000
1614044873.685601,9.000000,0.000000,1.199877,-1.450870,-75.925941,123.179764,-50.869125,-4.839122,9.921552,-15.546273,0.571473,-5.061966,-5.797492,0.427703,-1.578382,-17.555754,-26.555561,1.908834,-15.185006,5.449578,78.047508,-94.553162,-61.425598,-29.485909,-2.182766,-21.598600,-4.054449,5.794522,-2.245373,-2.730024,3.866090,30.547281,38.883701,-14.029520,0.000000,203.000000,4.000000,,,,0.000000,4.000000,4.000000,4.000000,4.000000,4.000000,4.000000,4.000000,4.000000,4.000000,4.000000,4.000000,4.000000,4.000000,4.000000,4.000000,4.000000,4.000000,4.000000,4.000000,4.000000,4.000000,4.000000,4.000000,4.000000,4.000000,4.000000,4.000000,4.000000,4.000000,4.000000,4.000000,4.000000,100.000000
1614044873.693350,10.000000,0.000000,1.711497,-1.449419,-78.926933,113.825813,-51.331078,-4.321462,10.424451,-16.556368,2.622183,7.250788,-3.740412,3.504198,3.038581,-13.435635,-2.426441,29.086412,-12.605719,27.495411,85.661766,-85.227844,-55.210327,-27.917961,-0.129301,-10.294950,2.103451,9.378471,-3.268769,-2.214473,4.375044,32.568016,40.383278,-10.425747,0.000000,205.000000,4.000000,,,,0.000000,4.000000,4.000000,4.000000,4.000000,4.000000,4.000000,4.000000,4.000000,4.000000,4.000000,4.000000,4.000000,4.000000,4.000000,4.000000,4.000000,4.000000,4.000000,4.000000,4.000000,4.000000,4.000000,4.000000,4.000000,4.000000,4.000000,4.000000,4.000000,4.000000,4.000000,4.000000,4.000000,100.000000
1614044873.701099,11.000000,0.000000,1.709786,-1.960790,-73.206985,113.711990,-47.690002,-2.265859,10.414026,-12.950068,3.132382,16.474306,5.494097,-5.730075,4.574004,1.962416,1.165729,18.288095,-12.080293,1.314069,57.370979,-85.655434,-50.539730,-25.325939,-0.129171,-3.105168,9.793655,8.856272,-3.265501,-2.212259,4.370669,32.022629,42.394176,-3.235834,0.000000,181.000000,4.000000,,,,0.000000,4.000000,4.000000,4.000000,4.000000,4.000000,4.000000,4.000000,4.000000,4.000000,4.000000,4.000000,4.000000,4.000000,4.000000,4.000000,4.000000,4.000000,4.000000,4.000000,4.000000,4.000000,4.000000,4.000000,4.000000,4.000000,4.000000,4.000000,4.000000,4.000000,4.000000,4.000000,4.000000,100.000000
1614044873.708849,12.000000,0.000000,1.195256,-1.958829,-74.672234,103.854683,-49.693596,-4.827695,9.890792,-5.757631,1.077967,16.457832,11.129629,4.019245,9.184814,11.704043,-4.989283,3.398012,-5.914366,-4.328271,71.159760,-68.646698,-34.078934,-8.890358,5.511983,-3.614884,11.835144,8.334596,0.327509,-2.722867,4.366298,31.477785,41.838963,-1.181316,0.000000,207.000000,4.000000,,,,0.000000,4.000000,4.000000,4.000000,4.000000,4.000000,4.000000,4.000000,4.000000,4.000000,4.000000,4.000000,4.000000,4.000000,4.000000,4.000000,4.000000,4.000000,4.000000,4.000000,4.000000,4.000000,4.000000,4.000000,4.000000,4.000000,4.000000,4.000000,4.000000,4.000000,4.000000,4.000000,4.000000,100.000000
1614044873.716498,13.000000,0.000000,1.706881,-1.444050,-88.956543,78.109802,-58.874672,-14.053637,10.393722,-3.700591,3.640992,10.287528,9.580038,20.938303,18.919220,1.948750,5.272117,24.933077,3.835138,28.496571,103.909111,-35.757542,-2.762805,12.144174,13.198779,9.209244,19.002796,8.839081,6.993848,-2.207324,4.361932,32.984768,39.233021,-3.744237,0.000000,194.000000,4.000000,,,,0.000000,4.000000,4.000000,4.000000,4.000000,4.000000,4.000000,4.000000,4.000000,4.000000,4.000000,4.000000,4.000000,4.000000,4.000000,4.000000,4.000000,4.000000,4.000000,4.000000,4.000000,4.000000,4.000000,4.000000,4.000000,4.000000,4.000000,4.000000,4.000000,4.000000,4.000000,4.000000,4.000000,100.000000
1614044873.724247,14.000000,0.000000,3.756456,-2.468247,-99.123993,62.134258,-62.405540,-20.706249,10.383327,-4.722532,1.073248,2.072112,9.570457,17.840441,18.900301,-12.412173,8.856588,34.651733,8.446688,45.903973,125.343666,-18.798706,15.701496,20.337158,16.262503,33.815418,29.753023,11.907166,9.038136,-2.717937,4.357570,31.413322,39.193787,-5.791775,0.000000,180.000000,4.000000,,,,0.000000,4.000000,4.000000,4.000000,4.000000,4.000000,4.000000,4.000000,4.000000,4.000000,4.000000,4.000000,4.000000,4.000000,4.000000,4.000000,4.000000,4.000000,4.000000,4.000000,4.000000,4.000000,4.000000,4.000000,4.000000,4.000000,4.000000,4.000000,4.000000,4.000000,4.000000,4.000000,4.000000,100.000000
1614044873.731897,15.000000,0.000000,5.803982,-0.927317,-97.999229,56.431099,-60.804672,-22.224005,10.372944,-4.717809,-12.773979,7.198245,10.073708,9.104652,10.163451,-7.271556,0.129783,24.360670,7.412600,20.729862,110.346527,-19.805550,12.096051,17.752718,15.220600,45.576477,30.748913,18.561924,8.516277,-1.689578,4.353212,26.253704,39.667412,-4.760342,0.000000,204.000000,4.000000,,,,0.000000,4.000000,4.000000,4.000000,4.000000,4.000000,4.000000,4.000000,4.000000,4.000000,4.000000,4.000000,4.000000,4.000000,4.000000,4.000000,4.000000,4.000000,4.000000,4.000000,4.000000,4.000000,4.000000,4.000000,4.000000,4.000000,4.000000,4.000000,4.000000,4.000000,4.000000,4.000000,4.000000,100.000000
1614044873.739646,16.000000,0.000000,5.285357,4.714636,-99.439690,42.528515,-61.256687,-24.765884,10.362572,-4.200271,-23.530436,23.088482,9.550814,4.992983,7.076365,6.069049,-1.921629,28.438873,5.353905,8.401440,82.031052,-28.503693,5.930109,16.709324,15.205379,40.915516,27.641239,23.158747,10.046223,0.363393,4.348859,24.176168,39.627747,-2.704300,0.000000,196.000000,4.000000,,,,0.000000,4.000000,4.000000,4.000000,4.000000,4.000000,4.000000,4.000000,4.000000,4.000000,4.000000,4.000000,4.000000,4.000000,4.000000,4.000000,4.000000,4.000000,4.000000,4.000000,4.000000,4.000000,4.000000,4.000000,4.000000,4.000000,4.000000,4.000000,4.000000,4.000000,4.000000,4.000000,4.000000,100.000000
1614044873.747295,17.000000,0.000000,5.280072,9.325306,-102.929993,28.639832,-61.195431,-26.792400,10.865029,-5.221712,-22.994085,24.603855,10.054083,5.500811,7.582109,9.652723,-2.945349,33.025822,3.297269,9.418679,64.000305,-35.141853,2.847256,14.128512,15.702994,36.772034,27.100779,23.648409,12.087459,1.901492,4.344511,28.254557,40.100941,-1.675954,0.000000,200.000000,4.000000,,,,0.000000,4.000000,4.000000,4.000000,4.000000,4.000000,4.000000,4.000000,4.000000,4.000000,4.000000,4.000000,4.000000,4.000000,4.000000,4.000000,4.000000,4.000000,4.000000,4.000000,4.000000,4.000000,4.000000,4.000000,4.000000,4.000000,4.000000,4.000000,4.000000,4.000000,4.000000,4.000000,4.000000,100.000000
1614044873.755044,18.000000,0.000000,5.274792,9.828801,-100.262962,18.867603,-60.621418,-30.868172,10.854164,-4.703670,-23.483912,23.040791,11.582491,9.597874,7.061706,6.566148,-2.429583,38.633820,5.345254,22.742594,94.192711,-27.414406,3.357229,15.652845,15.174471,35.196800,30.150600,24.137581,12.588191,1.386770,4.852986,21.559635,38.522377,-1.161458,0.000000,200.000000,4.000000,,,,0.000000,4.000000,4.000000,4.000000,4.000000,4.000000,4.000000,4.000000,4.000000,4.000000,4.000000,4.000000,4.000000,4.000000,4.000000,4.000000,4.000000,4.000000,4.000000,4.000000,4.000000,4.000000,4.000000,4.000000,4.000000,4.000000,4.000000,4.000000,4.000000,4.000000,4.000000,4.000000,4.000000,100.000000
1614044873.762693,19.000000,0.000000,5.269517,9.818973,-107.855003,2.438479,-68.253105,-39.555252,10.330489,-3.160504,-28.075811,33.786980,13.109369,2.921609,7.567465,7.585223,8.854898,56.543903,9.955294,45.796776,126.919037,-17.643402,0.789769,18.201296,15.159296,35.161606,31.146091,18.985239,12.062783,1.385383,3.309672,-1.026027,36.945393,-2.698758,0.000000,209.000000,4.000000,,,,0.000000,4.000000,4.000000,4.000000,4.000000,4.000000,4.000000,4.000000,4.000000,4.000000,4.000000,4.000000,4.000000,4.000000,4.000000,4.000000,4.000000,4.000000,4.000000,4.000000,4.000000,4.000000,4.000000,4.000000,4.000000,4.000000,4.000000,4.000000,4.000000,4.000000,4.000000,4.000000,4.000000,100.000000
1614044873.770443,20.000000,0.000000,5.264247,9.809154,-128.259979,-19.102421,-77.415619,-45.669544,11.345800,-1.618882,-30.099018,34.266014,12.583440,-11.440287,6.534256,9.628920,9.358864,52.384796,8.919697,32.417645,94.484421,-38.138580,-23.826405,2.285658,14.631316,34.100803,14.191868,9.222664,9.999438,1.896818,1.255080,-17.948078,35.882805,-6.798623,0.000000,183.000000,4.000000,,,,0.000000,4.000000,4.000000,4.000000,4.000000,4.000000,4.000000,4.000000,4.000000,4.000000,4.000000,4.000000,4.000000,4.000000,4.000000,4.000000,4.000000,4.000000,4.000000,4.000000,4.000000,4.000000,4.000000,4.000000,4.000000,4.000000,4.000000,4.000000,4.000000,4.000000,4.000000,4.000000,4.000000,100.000000
1614044873.778092,21.000000,0.000000,4.746163,9.799344,-137.875305,-32.416653,-79.389488,-50.239258,10.308813,0.434019,-31.094561,24.488157,11.032394,-7.326282,7.553363,8.080829,-4.496649,26.691385,4.808213,0.077534,62.082245,-70.408134,-50.469246,-18.742270,14.616685,18.169266,-6.847965,7.162159,8.450977,1.382101,0.228184,-18.955770,32.257179,-9.355927,0.000000,197.000000,4.000000,,,,0.000000,4.000000,4.000000,4.000000,4.000000,4.000000,4.000000,4.000000,4.000000,4.000000,4.000000,4.000000,4.000000,4.000000,4.000000,4.000000,4.000000,4.000000,4.000000,4.000000,4.000000,4.000000,4.000000,4.000000,4.000000,4.000000,4.000000,4.000000,4.000000,4.000000,4.000000,4.000000,4.000000,100.000000
1614044873.785841,22.000000,0.000000,5.254237,9.789545,-137.737427,-43.666286,-78.284454,-57.881325,3.631838,4.536149,-35.166031,28.053413,18.200850,10.629762,19.853502,10.636850,4.225797,34.869823,11.982892,9.821047,80.994522,-66.747978,-42.726467,-12.569680,15.627709,-1.848904,4.440934,12.796022,8.442526,1.380719,0.740776,-17.911175,28.122358,-9.346571,0.000000,196.000000,4.000000,,,,0.000000,4.000000,4.000000,4.000000,4.000000,4.000000,4.000000,4.000000,4.000000,4.000000,4.000000,4.000000,4.000000,4.000000,4.000000,4.000000,4.000000,4.000000,4.000000,4.000000,4.000000,4.000000,4.000000,4.000000,4.000000,4.000000,4.000000,4.000000,4.000000,4.000000,4.000000,4.000000,4.000000,100.000000
1614044873.793490,23.000000,0.000000,9.864367,6.702832,-136.061234,-59.520058,-78.206169,-62.438831,-0.474358,7.095715,-39.746246,34.692028,31.003162,14.208876,34.192623,28.574932,31.401058,62.014439,25.817062,42.631737,113.734039,-37.963284,-21.145281,4.878787,15.612082,3.281150,33.667263,16.372971,8.434084,1.892158,0.740036,-18.406084,27.581415,-8.824404,0.000000,192.000000,4.000000,,,,0.000000,4.000000,4.000000,4.000000,4.000000,4.000000,4.000000,4.000000,4.000000,4.000000,4.000000,4.000000,4.000000,4.000000,4.000000,4.000000,4.000000,4.000000,4.000000,4.000000,4.000000,4.000000,4.000000,4.000000,4.000000,4.000000,4.000000,4.000000,4.000000,4.000000,4.000000,4.000000,4.000000,100.000000
1614044873.801239,24.000000,0.000000,12.931426,0.029463,-133.873886,-75.357971,-77.102325,-65.966133,0.551757,6.575799,-46.885990,34.657333,36.100365,7.015180,37.748173,45.469433,37.523502,56.824219,30.406631,42.589108,111.056206,-28.694551,-17.021572,6.925190,14.058008,24.816330,41.325905,14.818135,8.425650,0.351805,0.739296,-17.874857,28.579475,-9.328401,0.000000,203.000000,4.000000,,,,0.000000,4.000000,4.000000,4.000000,4.000000,4.000000,4.000000,4.000000,4.000000,4.000000,4.000000,4.000000,4.000000,4.000000,4.000000,4.000000,4.000000,4.000000,4.000000,4.000000,4.000000,4.000000,4.000000,4.000000,4.000000,4.000000,4.000000,4.000000,4.000000,4.000000,4.000000,4.000000,4.000000,100.000000
1614044873.808888,25.000000,0.000000,12.405674,-5.098772,-144.509247,-95.282616,-83.179070,-77.182220,-3.038538,6.056403,-54.018589,36.673958,36.064262,8.546626,37.197605,41.834221,29.280851,45.998165,27.299301,32.290108,101.201561,-29.178677,-7.773780,9.482368,16.095232,34.022282,39.746117,13.777677,10.468506,-1.699829,-0.287085,-22.985188,28.038074,-9.319072,0.000000,199.000000,4.000000,,,,0.000000,4.000000,4.000000,4.000000,4.000000,4.000000,4.000000,4.000000,4.000000,4.000000,4.000000,4.000000,4.000000,4.000000,4.000000,4.000000,4.000000,4.000000,4.000000,4.000000,4.000000,4.000000,4.000000,4.000000,4.000000,4.000000,4.000000,4.000000,4.000000,4.000000,4.000000,4.000000,4.000000,100.000000
1614044873.816637,26.000000,0.000000,12.906089,-5.606493,-167.954468,-121.341179,-96.942039,-91.976830,-7.138064,6.563167,-60.631237,32.534721,33.976917,19.307310,38.698868,32.561619,32.328495,63.388065,29.323284,49.693714,122.638817,-12.226421,15.823737,23.831860,21.720163,38.603645,49.449959,18.379284,13.022140,-2.723770,1.251664,-31.167330,28.010036,-8.796932,0.000000,192.000000,4.000000,,,,0.000000,4.000000,4.000000,4.000000,4.000000,4.000000,4.000000,4.000000,4.000000,4.000000,4.000000,4.000000,4.000000,4.000000,4.000000,4.000000,4.000000,4.000000,4.000000,4.000000,4.000000,4.000000,4.000000,4.000000,4.000000,4.000000,4.000000,4.000000,4.000000,4.000000,4.000000,4.000000,4.000000,100.000000
1614044873.824287,27.000000,0.000000,11.354721,-5.088067,-174.966003,-139.681381,-107.614334,-102.654083,-7.130926,7.069424,-69.801376,18.656033,26.250633,18.262362,32.506325,30.990595,29.219242,68.965698,27.755499,58.361969,142.003357,-4.009067,25.551502,26.884951,16.570238,49.334274,52.477432,23.489109,11.470656,-2.208226,3.814515,-36.777187,28.494848,-8.788136,0.000000,203.000000,4.000000,,,,0.000000,4.000000,4.000000,4.000000,4.000000,4.000000,4.000000,4.000000,4.000000,4.000000,4.000000,4.000000,4.000000,4.000000,4.000000,4.000000,4.000000,4.000000,4.000000,4.000000,4.000000,4.000000,4.000000,4.000000,4.000000,4.000000,4.000000,4.000000,4.000000,4.000000,4.000000,4.000000,4.000000,100.000000
1614044873.832136,28.000000,0.000000,7.240803,-5.082979,-176.329498,-151.336563,-116.224663,-112.295021,-12.252000,3.472611,-78.962341,11.457890,19.044895,-4.320003,20.166126,21.216013,5.087459,42.742889,16.958513,26.508736,111.604942,-25.543520,17.833643,15.576015,4.758795,48.259296,42.168545,22.439980,7.869442,-2.206018,4.323521,-41.868618,28.979174,-8.266527,0.000000,181.000000,4.000000,,,,0.000000,4.000000,4.000000,4.000000,4.000000,4.000000,4.000000,4.000000,4.000000,4.000000,4.000000,4.000000,4.000000,4.000000,4.000000,4.000000,4.000000,4.000000,4.000000,4.000000,4.000000,4.000000,4.000000,4.000000,4.000000,4.000000,4.000000,4.000000,4.000000,4.000000,4.000000,4.000000,4.000000,100.000000
1614044873.839885,29.000000,0.000000,4.669459,-6.103537,-197.691635,-172.210876,-124.826385,-125.516060,-23.008978,-2.684708,-89.139793,9.907970,13.897644,-18.161837,14.504934,14.528131,-12.353526,29.879635,9.762067,0.841202,81.749748,-33.723103,19.867092,16.073259,6.805319,39.493092,35.459709,23.443180,12.989778,-2.716632,4.832018,-46.954952,28.437374,-8.771081,0.000000,174.000000,4.000000,,,,0.000000,4.000000,4.000000,4.000000,4.000000,4.000000,4.000000,4.000000,4.000000,4.000000,4.000000,4.000000,4.000000,4.000000,4.000000,4.000000,4.000000,4.000000,4.000000,4.000000,4.000000,4.000000,4.000000,4.000000,4.000000,4.000000,4.000000,4.000000,4.000000,4.000000,4.000000,4.000000,4.000000,100.000000
1614044873.847734,30.000000,0.000000,5.177610,-4.558971,-213.391373,-193.064301,-127.265663,-137.698242,-27.088533,-5.246126,-98.794243,13.487806,7.729901,-7.887265,14.490429,25.282833,-2.597583,42.157448,18.983074,21.866001,114.488518,-6.509894,31.642097,35.031544,21.670309,44.581802,39.013992,34.188969,25.797300,-1.688275,8.929749,-45.882359,28.408936,-8.762310,0.000000,200.000000,4.000000,,,,0.000000,4.000000,4.000000,4.000000,4.000000,4.000000,4.000000,4.000000,4.000000,4.000000,4.000000,4.000000,4.000000,4.000000,4.000000,4.000000,4.000000,4.000000,4.000000,4.000000,4.000000,4.000000,4.000000,4.000000,4.000000,4.000000,4.000000,4.000000,4.000000,4.000000,4.000000,4.000000,4.000000,100.000000
1614044873.855484,31.000000,0.000000,5.172433,-1.477489,-209.075424,-207.743027,-131.240967,-141.663101,-25.522984,-5.240880,-100.233910,22.192266,14.901658,-1.725531,14.475939,25.770370,14.328092,51.346058,30.246141,46.972340,147.194534,7.855590,28.020712,39.611897,27.289663,59.921837,43.077545,39.795803,26.284325,0.877516,12.510564,-44.298012,29.406168,-7.215086,0.000000,197.000000,4.000000,,,,0.000000,4.000000,4.000000,4.000000,4.000000,4.000000,4.000000,4.000000,4.000000,4.000000,4.000000,4.000000,4.000000,4.000000,4.000000,4.000000,4.000000,4.000000,4.000000,4.000000,4.000000,4.000000,4.000000,4.000000,4.000000,4.000000,4.000000,4.000000,4.000000,4.000000,4.000000,4.000000,4.000000,100.000000
1614044873.863333,32.000000,0.000000,5.167260,-1.988832,-219.635574,-233.689133,-143.930237,-148.188110,-23.959000,-5.235639,-104.236237,12.426485,24.117525,-10.441754,14.974283,3.180498,10.724020,46.166508,20.472307,32.053574,117.303757,-17.793291,0.300383,15.469722,20.595707,61.913197,33.290874,32.063702,11.386245,-0.149002,11.985232,-57.074226,28.351122,-10.797614,8064.000000,0.000000,4.000000,,,,0.000000,4.000000,4.000000,4.000000,4.000000,4.000000,4.000000,4.000000,4.000000,4.000000,4.000000,4.000000,4.000000,4.000000,4.000000,4.000000,4.000000,4.000000,4.000000,4.000000,4.000000,4.000000,4.000000,4.000000,4.000000,4.000000,4.000000,4.000000,4.000000,4.000000,4.000000,4.000000,4.000000,100.000000
1614044873.871082,33.000000,0.000000,3.623631,-4.550946,-245.056976,-259.609283,-159.683746,-163.937347,-27.011963,-5.230403,-124.132004,-7.073121,6.657511,-15.046698,13.420847,-10.156015,-7.235422,27.658802,0.451834,4.842032,85.904396,-50.083191,-30.469149,-9.673953,14.934086,39.799999,10.693482,25.364971,2.656910,-2.200135,7.870683,-78.042793,20.117641,-22.068869,8064.000000,0.000000,4.000000,,,,0.000000,4.000000,4.000000,4.000000,4.000000,4.000000,4.000000,4.000000,4.000000,4.000000,4.000000,4.000000,4.000000,4.000000,4.000000,4.000000,4.000000,4.000000,4.000000,4.000000,4.000000,4.000000,4.000000,4.000000,4.000000,4.000000,4.000000,4.000000,4.000000,4.000000,4.000000,4.000000,4.000000,100.000000
1614044873.878931,34.000000,0.000000,1.568726,-5.572036,-255.581146,-268.580444,-174.395859,-173.517014,-35.190079,-5.225173,-139.905304,-7.578868,-12.323506,-12.980369,7.253580,-6.556116,-17.997417,3.528580,-7.240925,-1.829476,83.767212,-66.443367,-46.336117,-14.279664,14.919151,8.478149,-3.163365,26.365246,5.218355,-2.710756,3.247428,-86.682701,13.943678,-28.200645,8064.000000,0.000000,4.000000,,,,0.000000,4.000000,4.000000,4.000000,4.000000,4.000000,4.000000,4.000000,4.000000,4.000000,4.000000,4.000000,4.000000,4.000000,4.000000,4.000000,4.000000,4.000000,4.000000,4.000000,4.000000,4.000000,4.000000,4.000000,4.000000,4.000000,4.000000,4.000000,4.000000,4.000000,4.000000,4.000000,4.000000,100.000000
1614044873.886681,35.000000,0.000000,1.054337,-4.540823,-254.812744,-281.132385,-182.426590,-172.317841,-40.283096,-5.219947,-139.765396,-6.032828,-6.157336,-11.941747,3.656583,-8.088021,-15.928138,-4.167257,-3.643941,-8.494313,65.221909,-72.017944,-50.905163,-14.778205,15.417053,-4.863663,-0.596099,26.338881,4.700316,-1.682404,1.192899,-84.031914,13.929734,-26.633984,7808.000000,0.000000,4.000000,,,,0.000000,4.000000,4.000000,4.000000,4.000000,4.000000,4.000000,4.000000,4.000000,4.000000,4.000000,4.000000,4.000000,4.000000,4.000000,4.000000,4.000000,4.000000,4.000000,4.000000,4.000000,4.000000,4.000000,4.000000,4.000000,4.000000,4.000000,4.000000,4.000000,4.000000,4.000000,4.000000,4.000000,100.000000
1614044873.894530,36.000000,0.000000,1.566103,-5.049103,-257.634857,-306.492279,-181.218521,-178.299377,-39.217171,-2.650625,-138.087173,-15.257565,-2.048615,-13.468266,2.627285,-18.849163,-15.912210,-5.701551,-5.178759,-30.024281,39.515659,-78.612595,-53.418362,-18.353170,14.375995,1.295047,-2.133964,19.133055,-2.996691,-2.193542,-0.859576,-89.588905,10.326061,-28.658630,7424.000000,0.000000,4.000000,,,,0.000000,4.000000,4.000000,4.000000,4.000000,4.000000,4.000000,4.000000,4.000000,4.000000,4.000000,4.000000,4.000000,4.000000,4.000000,4.000000,4.000000,4.000000,4.000000,4.000000,4.000000,4.000000,4.000000,4.000000,4.000000,4.000000,4.000000,4.000000,4.000000,4.000000,4.000000,4.000000,4.000000,100.000000
1614044873.902279,37.000000,0.000000,1.051716,-5.044054,-265.069519,-330.801178,-181.550125,-190.941589,-40.716415,-1.109513,-142.051651,-16.780769,-10.251695,-13.967619,4.163120,-28.573904,-18.973221,-7.747131,-7.224862,-33.071178,52.809479,-73.918594,-48.236736,-12.180971,13.848799,1.806573,-6.747215,13.472897,-2.480874,-2.191349,-6.499743,-105.909576,3.136248,-33.245358,7680.000000,0.000000,4.000000,,,,0.000000,4.000000,4.000000,4.000000,4.000000,4.000000,4.000000,4.000000,4.000000,4.000000,4.000000,4.000000,4.000000,4.000000,4.000000,4.000000,4.000000,4.000000,4.000000,4.000000,4.000000,4.000000,4.000000,4.000000,4.000000,4.000000,4.000000,4.000000,4.000000,4.000000,4.000000,4.000000,4.000000,100.000000
1614044873.910128,38.000000,0.000000,1.563485,-5.039010,-275.573700,-352.008820,-189.060883,-201.007065,-43.239799,-1.108403,-146.012161,-14.712706,-7.164520,-8.825446,12.876905,-20.853024,-7.159376,16.363180,0.474671,-0.217595,85.577179,-46.152370,-22.547476,5.779928,14.860591,3.343228,7.618507,18.587629,7.778017,-2.189157,-11.108627,-115.034439,2.107471,-35.263393,7808.000000,0.000000,4.000000,,,,0.000000,4.000000,4.000000,4.000000,4.000000,4.000000,4.000000,4.000000,4.000000,4.000000,4.000000,4.000000,4.000000,4.000000,4.000000,4.000000,4.000000,4.000000,4.000000,4.000000,4.000000,4.000000,4.000000,4.000000,4.000000,4.000000,4.000000,4.000000,4.000000,4.000000,4.000000,4.000000,4.000000,100.000000
1614044873.917878,39.000000,0.000000,1.561921,-5.033971,-280.426331,-365.502960,-191.435913,-209.011185,-42.683743,2.995269,-149.455902,-9.569788,4.637516,-1.637134,22.607618,4.296035,14.386245,48.654510,11.243426,32.603134,107.542885,-20.465193,9.269944,16.543379,15.358551,24.365526,31.713453,27.799810,13.924085,-2.186968,-9.559057,-113.380943,3.131004,-32.151207,7552.000000,0.000000,4.000000,,,,0.000000,4.000000,4.000000,4.000000,4.000000,4.000000,4.000000,4.000000,4.000000,4.000000,4.000000,4.000000,4.000000,4.000000,4.000000,4.000000,4.000000,4.000000,4.000000,4.000000,4.000000,4.000000,4.000000,4.000000,4.000000,4.000000,4.000000,4.000000,4.000000,4.000000,4.000000,4.000000,4.000000,100.000000
1614044873.925727,40.000000,0.000000,1.047539,-5.028937,-276.556152,-368.727203,-186.629105,-216.494476,-43.666698,7.094838,-158.537216,9.926962,7.196982,-5.225240,23.097832,18.650713,15.397500,44.503292,14.309107,24.365404,103.845596,-16.854984,22.081186,17.039656,14.317551,46.392441,38.348404,30.336113,11.858879,-1.671961,-9.549499,-111.729095,3.640693,-23.913927,8064.000000,0.000000,4.000000,,,,0.000000,4.000000,4.000000,4.000000,4.000000,4.000000,4.000000,4.000000,4.000000,4.000000,4.000000,4.000000,4.000000,4.000000,4.000000,4.000000,4.000000,4.000000,4.000000,4.000000,4.000000,4.000000,4.000000,4.000000,4.000000,4.000000,4.000000,4.000000,4.000000,4.000000,4.000000,4.000000,4.000000,100.000000
1614044873.933476,41.000000,0.000000,2.072132,-5.023908,-286.023193,-379.640533,-188.493744,-224.483109,-47.725594,3.498000,-174.788925,18.634983,5.138503,-12.399502,19.997810,17.606422,1.535949,34.202377,14.294797,23.315397,112.459702,-9.658642,23.597567,25.227745,14.816054,51.987076,33.181850,29.280136,13.898302,-2.183109,-10.565590,-113.668648,5.688335,-20.813091,8064.000000,0.000000,4.000000,,,,0.000000,4.000000,4.000000,4.000000,4.000000,4.000000,4.000000,4.000000,4.000000,4.000000,4.000000,4.000000,4.000000,4.000000,4.000000,4.000000,4.000000,4.000000,4.000000,4.000000,4.000000,4.000000,4.000000,4.000000,4.000000,4.000000,4.000000,4.000000,4.000000,4.000000,4.000000,4.000000,4.000000,100.000000
1614044873.941325,42.000000,0.000000,4.634163,-5.018884,-305.737152,-407.978851,-199.587311,-234.002213,-51.780434,-2.146524,-185.896194,5.795835,5.646185,-7.258897,18.952171,17.588816,-1.029690,42.886124,17.357426,48.933109,139.526733,2.658709,21.522688,38.023029,20.442265,54.499191,34.687130,30.276497,21.576712,-1.668106,-9.016562,-117.144722,5.169826,-30.535868,8192.000000,0.000000,4.000000,,,,0.000000,4.000000,4.000000,4.000000,4.000000,4.000000,4.000000,4.000000,4.000000,4.000000,4.000000,4.000000,4.000000,4.000000,4.000000,4.000000,4.000000,4.000000,4.000000,4.000000,4.000000,4.000000,4.000000,4.000000,4.000000,4.000000,4.000000,4.000000,4.000000,4.000000,4.000000,4.000000,4.000000,100.000000
1614044873.949075,43.000000,0.000000,5.655170,-5.013865,-311.072449,-435.776001,-205.541565,-245.050262,-56.344036,-0.605916,-185.710297,4.251578,6.153359,3.004772,18.933220,11.930201,-2.054301,34.638107,18.365709,36.576481,120.925667,-11.190104,3.039627,28.241417,20.934643,57.521614,31.062700,29.220579,16.426929,-1.666438,-11.058828,-123.694244,-0.476369,-41.274563,8064.000000,0.000000,4.000000,,,,0.000000,4.000000,4.000000,4.000000,4.000000,4.000000,4.000000,4.000000,4.000000,4.000000,4.000000,4.000000,4.000000,4.000000,4.000000,4.000000,4.000000,4.000000,4.000000,4.000000,4.000000,4.000000,4.000000,4.000000,4.000000,4.000000,4.000000,4.000000,4.000000,4.000000,4.000000,4.000000,4.000000,100.000000
1614044873.956724,44.000000,0.000000,5.136694,-5.008851,-310.248566,-454.827393,-202.771927,-254.548798,-59.877438,2.471613,-193.216888,8.349891,5.634385,0.950485,18.401464,-5.517627,-13.847118,13.577829,14.757600,4.232213,88.497047,-40.922504,-23.630079,7.187535,12.708579,47.720505,16.672665,26.627256,-2.563856,-4.741694,-22.842642,-132.801315,-6.116919,-40.720467,8064.000000,0.000000,4.000000,,,,0.000000,4.000000,4.000000,4.000000,4.000000,4.000000,4.000000,4.000000,4.000000,4.000000,4.000000,4.000000,4.000000,4.000000,4.000000,4.000000,4.000000,4.000000,4.000000,4.000000,4.000000,4.000000,4.000000,4.000000,4.000000,4.000000,4.000000,4.000000,4.000000,4.000000,4.000000,4.000000,4.000000,100.000000
1614044873.964474,45.000000,0.000000,5.131557,-5.003842,-322.246002,-474.885406,-203.594788,-266.089142,-63.920124,2.469141,-216.100601,1.674874,5.628751,-15.460722,18.383064,-11.665956,-21.012758,7.923226,13.204381,-12.695096,72.511116,-50.625172,-34.888500,2.564962,7.054845,31.775347,8.450863,25.062168,-12.304882,-8.839517,-32.563389,-142.924927,-11.751827,-41.192566,8064.000000,0.000000,4.000000,,,,0.000000,4.000000,4.000000,4.000000,4.000000,4.000000,4.000000,4.000000,4.000000,4.000000,4.000000,4.000000,4.000000,4.000000,4.000000,4.000000,4.000000,4.000000,4.000000,4.000000,4.000000,4.000000,4.000000,4.000000,4.000000,4.000000,4.000000,4.000000,4.000000,4.000000,4.000000,4.000000,4.000000,100.000000
1614044873.972123,46.000000,0.000000,4.100785,-4.486018,-336.795532,-494.923340,-212.621964,-276.079437,-71.548515,1.953852,-231.781937,7.827045,5.623122,-21.599108,18.364681,-11.141469,-20.478926,3.299918,14.729638,-4.990093,105.259117,-47.497623,-31.263868,2.562397,7.047790,23.025623,8.955233,25.037106,-7.164372,-9.856318,-32.018005,-150.474319,-14.816998,-45.766758,8064.000000,0.000000,4.000000,,,,0.000000,4.000000,4.000000,4.000000,4.000000,4.000000,4.000000,4.000000,4.000000,4.000000,4.000000,4.000000,4.000000,4.000000,4.000000,4.000000,4.000000,4.000000,4.000000,4.000000,4.000000,4.000000,4.000000,4.000000,4.000000,4.000000,4.000000,4.000000,4.000000,4.000000,4.000000,4.000000,4.000000,100.000000
1614044873.979872,47.000000,0.000000,1.532581,-4.481532,-336.971558,-515.454041,-217.537552,-278.367462,-74.041069,2.464719,-236.165543,24.742294,5.104678,-8.756995,18.346315,-15.745712,-20.971268,3.296618,12.150805,-3.959462,106.692314,-52.578331,-32.258247,-12.311960,2.938178,21.976955,10.997560,26.037708,-6.644387,-9.333641,-27.883423,-150.323837,-12.238079,-40.079967,8064.000000,0.000000,4.000000,,,,0.000000,4.000000,4.000000,4.000000,4.000000,4.000000,4.000000,4.000000,4.000000,4.000000,4.000000,4.000000,4.000000,4.000000,4.000000,4.000000,4.000000,4.000000,4.000000,4.000000,4.000000,4.000000,4.000000,4.000000,4.000000,4.000000,4.000000,4.000000,4.000000,4.000000,4.000000,4.000000,4.000000,100.000000
1614044873.987521,48.000000,0.000000,1.018228,-4.989871,-336.121765,-538.015503,-216.294373,-280.653198,-74.479843,2.462254,-246.698608,18.050886,5.099574,-1.568751,17.815149,-3.422274,-13.770808,22.267681,5.984809,8.865010,87.611267,-58.679596,-35.302910,-22.043238,-0.654504,21.954979,14.063485,26.011671,-14.842871,-9.324307,-27.855539,-151.199158,-10.174559,-29.783478,8064.000000,0.000000,4.000000,,,,0.000000,4.000000,4.000000,4.000000,4.000000,4.000000,4.000000,4.000000,4.000000,4.000000,4.000000,4.000000,4.000000,4.000000,4.000000,4.000000,4.000000,4.000000,4.000000,4.000000,4.000000,4.000000,4.000000,4.000000,4.000000,4.000000,4.000000,4.000000,4.000000,4.000000,4.000000,4.000000,4.000000,100.000000
1614044873.995271,49.000000,0.000000,1.530031,-4.472061,-351.683105,-564.144165,-219.667816,-295.757172,-81.072029,2.459792,-267.990356,7.776425,9.197039,-14.900516,18.310154,19.145250,2.140398,40.706951,2.389080,36.035633,108.036476,-54.005531,-24.498377,-16.892990,-0.653849,16.804819,13.536601,23.934378,-12.263926,-9.314983,-29.366144,-159.253082,-10.677205,-31.804976,8064.000000,0.000000,4.000000,,,,0.000000,4.000000,4.000000,4.000000,4.000000,4.000000,4.000000,4.000000,4.000000,4.000000,4.000000,4.000000,4.000000,4.000000,4.000000,4.000000,4.000000,4.000000,4.000000,4.000000,4.000000,4.000000,4.000000,4.000000,4.000000,4.000000,4.000000,4.000000,4.000000,4.000000,4.000000,4.000000,4.000000,100.000000
1614044874.002920,50.000000,0.000000,1.528501,-3.954768,-366.716034,-590.759521,-226.114822,-323.666534,-87.144806,2.457332,-292.850586,21.101982,13.290405,-22.577923,18.291845,22.715849,4.189540,44.255989,2.386691,45.743187,139.723312,-44.720757,-3.448238,-15.337635,-0.140375,19.864937,13.523065,30.064289,4.158595,-8.792848,-25.747034,-165.247681,-9.128066,-35.875736,8064.000000,0.000000,4.000000,,,,0.000000,4.000000,4.000000,4.000000,4.000000,4.000000,4.000000,4.000000,4.000000,4.000000,4.000000,4.000000,4.000000,4.000000,4.000000,4.000000,4.000000,4.000000,4.000000,4.000000,4.000000,4.000000,4.000000,4.000000,4.000000,4.000000,4.000000,4.000000,4.000000,4.000000,4.000000,4.000000,4.000000,100.000000
1614044874.010669,51.000000,0.000000,1.526972,-8.053377,-366.862122,-610.168762,-233.581009,-351.548004,-89.108940,1.429233,-324.865417,33.388573,12.251473,-8.709191,17.760733,12.949544,-10.173624,34.468143,1.871484,29.800007,129.839996,-40.573475,4.247518,-15.835117,0.372586,32.152763,28.381336,40.803455,14.410847,-9.296875,-18.028980,-163.031143,-12.195861,-34.301399,8192.000000,0.000000,4.000000,,,,0.000000,4.000000,4.000000,4.000000,4.000000,4.000000,4.000000,4.000000,4.000000,4.000000,4.000000,4.000000,4.000000,4.000000,4.000000,4.000000,4.000000,4.000000,4.000000,4.000000,4.000000,4.000000,4.000000,4.000000,4.000000,4.000000,4.000000,4.000000,4.000000,4.000000,4.000000,4.000000,4.000000,100.000000
1614044874.018318,52.000000,0.000000,1.525445,-12.147888,-375.213226,-628.020142,-248.732040,-379.914398,-93.122398,3.479086,-356.848236,27.714159,13.777684,3.094390,18.255793,9.859671,-10.676271,26.228546,3.920895,22.077900,108.684517,-32.327770,1.679168,2.129436,6.013239,37.248817,37.070904,38.198551,12.857974,-9.287579,-16.472490,-171.586060,-21.414434,-44.010685,8064.000000,0.000000,4.000000,,,,0.000000,4.000000,4.000000,4.000000,4.000000,4.000000,4.000000,4.000000,4.000000,4.000000,4.000000,4.000000,4.000000,4.000000,4.000000,4.000000,4.000000,4.000000,4.000000,4.000000,4.000000,4.000000,4.000000,4.000000,4.000000,4.000000,4.000000,4.000000,4.000000,4.000000,4.000000,4.000000,4.000000,100.000000
1614044874.026067,53.000000,0.000000,1.523920,-12.135740,-400.991852,-656.110046,-261.303833,-407.739624,-97.131844,8.090992,-388.799103,22.558239,18.892111,2.065654,20.288818,9.849812,6.257482,38.510010,15.199025,45.645565,132.165573,-9.731341,13.985181,26.742691,14.725175,41.314133,25.238960,29.955223,11.306654,-8.765471,-21.071402,-196.542679,-27.546865,-61.915394,8064.000000,0.000000,4.000000,,,,0.000000,4.000000,4.000000,4.000000,4.000000,4.000000,4.000000,4.000000,4.000000,4.000000,4.000000,4.000000,4.000000,4.000000,4.000000,4.000000,4.000000,4.000000,4.000000,4.000000,4.000000,4.000000,4.000000,4.000000,4.000000,4.000000,4.000000,4.000000,4.000000,4.000000,4.000000,4.000000,4.000000,100.000000
1614044874.033716,54.000000,0.000000,1.522396,-14.687707,-413.924194,-685.197510,-267.196381,-420.665222,-99.598808,10.134183,-420.717987,23.048502,16.821938,1.037948,21.806992,9.327141,4.199943,47.189449,24.927416,58.933254,158.700073,2.073261,22.176325,31.331333,19.838655,54.606152,18.547056,30.950909,13.859450,-8.756705,-22.588793,-211.730759,-37.775730,-66.981682,7680.000000,0.000000,4.000000,,,,0.000000,4.000000,4.000000,4.000000,4.000000,4.000000,4.000000,4.000000,4.000000,4.000000,4.000000,4.000000,4.000000,4.000000,4.000000,4.000000,4.000000,4.000000,4.000000,4.000000,4.000000,4.000000,4.000000,4.000000,4.000000,4.000000,4.000000,4.000000,4.000000,4.000000,4.000000,4.000000,4.000000,100.000000
1614044874.041465,55.000000,0.000000,1.520873,-19.288404,-415.048737,-705.025146,-276.159943,-422.295837,-105.653061,9.098408,-440.810089,23.025452,9.625628,4.626653,21.785185,5.215250,-20.932463,24.578157,23.876848,30.156372,126.233688,-17.928812,1.128507,20.017950,16.741894,53.525906,18.528509,24.766111,11.281488,-11.312051,-28.720049,-214.595947,-52.096928,-66.914703,7936.000000,0.000000,4.000000,,,,0.000000,4.000000,4.000000,4.000000,4.000000,4.000000,4.000000,4.000000,4.000000,4.000000,4.000000,4.000000,4.000000,4.000000,4.000000,4.000000,4.000000,4.000000,4.000000,4.000000,4.000000,4.000000,4.000000,4.000000,4.000000,4.000000,4.000000,4.000000,4.000000,4.000000,4.000000,4.000000,4.000000,100.000000
1614044874.049115,56.000000,0.000000,1.519352,-20.294756,-433.095215,-729.448303,-286.140198,-439.309418,-111.188431,9.602130,-448.061584,16.335760,8.077541,7.698949,21.763399,-6.584837,-32.706402,5.579219,18.211945,9.613395,93.799759,-36.372421,-20.411083,12.818445,15.186689,35.010841,-2.002841,7.305449,4.090720,-12.839200,-39.973381,-230.791611,-57.685856,-74.540092,8064.000000,0.000000,4.000000,,,,0.000000,4.000000,4.000000,4.000000,4.000000,4.000000,4.000000,4.000000,4.000000,4.000000,4.000000,4.000000,4.000000,4.000000,4.000000,4.000000,4.000000,4.000000,4.000000,4.000000,4.000000,4.000000,4.000000,4.000000,4.000000,4.000000,4.000000,4.000000,4.000000,4.000000,4.000000,4.000000,4.000000,100.000000
1614044874.056864,57.000000,0.000000,1.517833,-19.248821,-454.713409,-758.975281,-296.623291,-469.126526,-115.692627,9.079707,-475.305817,5.037374,8.582284,3.075866,21.228815,-11.706457,-25.494207,7.624922,16.142450,21.398653,110.116219,-35.310410,-28.595800,5.113319,16.709965,26.770700,-23.539299,-1.932626,-3.092858,-12.826361,-43.523151,-256.714661,-61.730736,-80.619400,8064.000000,0.000000,4.000000,,,,0.000000,4.000000,4.000000,4.000000,4.000000,4.000000,4.000000,4.000000,4.000000,4.000000,4.000000,4.000000,4.000000,4.000000,4.000000,4.000000,4.000000,4.000000,4.000000,4.000000,4.000000,4.000000,4.000000,4.000000,4.000000,4.000000,4.000000,4.000000,4.000000,4.000000,4.000000,4.000000,4.000000,100.000000
1614044874.064513,58.000000,0.000000,1.516315,-19.229572,-462.976654,-778.729126,-310.685638,-483.016388,-126.858986,8.044987,-496.881805,-3.685613,8.573702,-5.132338,19.669125,-6.053725,-22.904612,5.053195,18.177591,20.351614,119.749687,-46.044327,-40.874897,-9.763590,10.026587,18.025982,-24.541401,-1.930694,-4.115407,-15.377637,-41.941166,-264.150269,-73.976700,-80.538780,8192.000000,0.000000,4.000000,,,,0.000000,4.000000,4.000000,4.000000,4.000000,4.000000,4.000000,4.000000,4.000000,4.000000,4.000000,4.000000,4.000000,4.000000,4.000000,4.000000,4.000000,4.000000,4.000000,4.000000,4.000000,4.000000,4.000000,4.000000,4.000000,4.000000,4.000000,4.000000,4.000000,4.000000,4.000000,4.000000,4.000000,100.000000
1614044874.072362,59.000000,0.000000,1.514799,-19.210342,-468.667511,-796.411926,-319.092896,-485.610291,-134.424438,14.703608,-495.359283,-5.220388,16.770256,2.052281,23.239199,-1.945108,-23.907349,6.586603,16.620951,4.946646,95.014557,-67.536743,-53.654533,-23.599979,-2.291131,-2.504865,-23.491219,-3.980045,-2.572829,-16.900721,-42.412045,-258.245087,-79.543747,-83.022346,8064.000000,0.000000,4.000000,,,,0.000000,4.000000,4.000000,4.000000,4.000000,4.000000,4.000000,4.000000,4.000000,4.000000,4.000000,4.000000,4.000000,4.000000,4.000000,4.000000,4.000000,4.000000,4.000000,4.000000,4.000000,4.000000,4.000000,4.000000,4.000000,4.000000,4.000000,4.000000,4.000000,4.000000,4.000000,4.000000,4.000000,100.000000
1614044874.080111,60.000000,0.000000,1.513284,-19.191132,-473.327057,-820.743713,-318.773804,-499.996460,-132.751541,21.868391,-502.556244,2.477139,24.958614,16.922024,25.267242,-1.943162,-24.396261,8.118478,3.783818,-0.186506,89.278511,-76.187157,-56.164982,-34.858433,-5.365763,-13.784411,-25.519009,-8.078629,-8.211283,-16.371000,-41.856812,-259.012482,-76.387276,-85.503426,8064.000000,0.000000,4.000000,,,,0.000000,4.000000,4.000000,4.000000,4.000000,4.000000,4.000000,4.000000,4.000000,4.000000,4.000000,4.000000,4.000000,4.000000,4.000000,4.000000,4.000000,4.000000,4.000000,4.000000,4.000000,4.000000,4.000000,4.000000,4.000000,4.000000,4.000000,4.000000,4.000000,4.000000,4.000000,4.000000,4.000000,100.000000
1614044874.087961,61.000000,0.000000,0.998950,-18.659121,-475.930634,-832.743530,-321.531952,-521.547729,-132.618790,19.282421,-521.540833,15.807996,23.395193,10.238436,23.190693,-2.454040,-23.346224,-0.607589,-6.989197,1.352142,97.907181,-76.623795,-53.544716,-40.977417,-4.847577,-13.770627,-14.211439,-9.609012,-15.895379,-17.893091,-41.302135,-264.907318,-80.926277,-86.443565,8064.000000,0.000000,4.000000,,,,0.000000,4.000000,4.000000,4.000000,4.000000,4.000000,4.000000,4.000000,4.000000,4.000000,4.000000,4.000000,4.000000,4.000000,4.000000,4.000000,4.000000,4.000000,4.000000,4.000000,4.000000,4.000000,4.000000,4.000000,4.000000,4.000000,4.000000,4.000000,4.000000,4.000000,4.000000,4.000000,4.000000,100.000000
1614044874.095710,62.000000,0.000000,2.023592,-16.589180,-483.659851,-836.526123,-323.261719,-537.949280,-138.127197,21.827240,-525.634705,24.510136,24.397440,-3.105136,34.449554,8.830465,-14.604929,14.777634,2.761382,15.196944,108.578506,-64.239471,-32.978352,-26.577467,-3.817088,-9.654292,6.828413,1.169828,-6.648714,-14.285454,-42.799294,-265.668060,-85.973557,-85.844299,8064.000000,0.000000,4.000000,,,,0.000000,4.000000,4.000000,4.000000,4.000000,4.000000,4.000000,4.000000,4.000000,4.000000,4.000000,4.000000,4.000000,4.000000,4.000000,4.000000,4.000000,4.000000,4.000000,4.000000,4.000000,4.000000,4.000000,4.000000,4.000000,4.000000,4.000000,4.000000,4.000000,4.000000,4.000000,4.000000,4.000000,100.000000
1614044874.103559,63.000000,0.000000,4.072851,-15.034128,-492.406952,-853.638367,-325.502533,-551.770325,-149.271133,34.113106,-530.750061,22.947165,28.988426,13.821046,55.953564,28.308815,-0.744170,47.583370,18.143236,36.720207,141.290436,-31.354723,-0.124859,5.243982,5.417498,11.381003,23.744661,23.219940,14.896396,-2.989117,-37.628292,-262.325470,-86.913223,-84.219994,8064.000000,0.000000,4.000000,,,,0.000000,4.000000,4.000000,4.000000,4.000000,4.000000,4.000000,4.000000,4.000000,4.000000,4.000000,4.000000,4.000000,4.000000,4.000000,4.000000,4.000000,4.000000,4.000000,4.000000,4.000000,4.000000,4.000000,4.000000,4.000000,4.000000,4.000000,4.000000,4.000000,4.000000,4.000000,4.000000,4.000000,100.000000
1614044874.111308,64.000000,0.000000,5.607240,-16.044735,-504.222229,-880.476990,-343.638580,-572.244202,-169.634674,32.027710,-552.783447,16.770370,22.292772,35.345688,52.820690,27.254866,-0.230605,46.510143,21.714836,33.093746,148.841461,-7.733624,11.157317,23.187456,14.642850,40.087570,27.310661,29.350567,27.702013,4.193359,-30.411175,-271.806732,-100.159645,-88.751160,0.000000,197.000000,4.000000,,,,0.000000,4.000000,4.000000,4.000000,4.000000,4.000000,4.000000,4.000000,4.000000,4.000000,4.000000,4.000000,4.000000,4.000000,4.000000,4.000000,4.000000,4.000000,4.000000,4.000000,4.000000,4.000000,4.000000,4.000000,4.000000,4.000000,4.000000,4.000000,4.000000,4.000000,4.000000,4.000000,4.000000,100.000000
1614044874.119158,65.000000,0.000000,5.088812,-21.156897,-527.307739,-905.750366,-367.397491,-597.825806,-188.952225,17.123888,-572.230652,6.497191,7.911505,23.515469,31.229406,-0.464698,-8.948323,23.899532,20.154659,19.727318,117.923386,-11.828455,4.992314,22.138628,15.653848,50.816715,16.514120,18.039164,26.648670,1.112243,-33.457687,-293.073364,-127.751793,-101.995743,0.000000,191.000000,4.000000,,,,0.000000,4.000000,4.000000,4.000000,4.000000,4.000000,4.000000,4.000000,4.000000,4.000000,4.000000,4.000000,4.000000,4.000000,4.000000,4.000000,4.000000,4.000000,4.000000,4.000000,4.000000,4.000000,4.000000,4.000000,4.000000,4.000000,4.000000,4.000000,4.000000,4.000000,4.000000,4.000000,4.000000,100.000000
1614044874.126907,66.000000,0.000000,5.083723,-27.289585,-548.318909,-928.434387,-375.748047,-618.253601,-199.019684,11.465738,-584.478943,-1.201614,3.801029,2.466312,24.018690,-14.310387,-10.477837,23.362812,22.698608,27.912718,124.472130,-8.226883,8.064244,26.219053,20.253578,48.201794,9.830938,15.457023,26.622021,-1.965793,-40.090897,-302.523895,-156.341995,-107.534767,0.000000,208.000000,4.000000,,,,0.000000,4.000000,4.000000,4.000000,4.000000,4.000000,4.000000,4.000000,4.000000,4.000000,4.000000,4.000000,4.000000,4.000000,4.000000,4.000000,4.000000,4.000000,4.000000,4.000000,4.000000,4.000000,4.000000,4.000000,4.000000,4.000000,4.000000,4.000000,4.000000,4.000000,4.000000,4.000000,4.000000,100.000000
1614044874.134756,67.000000,0.000000,5.078640,-30.339218,-552.898804,-943.403381,-371.269745,-628.404602,-210.615540,11.967093,-598.253418,-1.200413,6.361331,1.438205,25.533133,-5.065308,-12.518641,29.493296,22.163088,36.602757,149.988678,2.037755,10.620283,35.423603,27.412813,50.204876,9.308287,16.980026,30.185143,-0.425365,-41.589268,-304.272644,-183.877960,-103.837494,0.000000,182.000000,4.000000,,,,0.000000,4.000000,4.000000,4.000000,4.000000,4.000000,4.000000,4.000000,4.000000,4.000000,4.000000,4.000000,4.000000,4.000000,4.000000,4.000000,4.000000,4.000000,4.000000,4.000000,4.000000,4.000000,4.000000,4.000000,4.000000,4.000000,4.000000,4.000000,4.000000,4.000000,4.000000,4.000000,4.000000,100.000000
1614044874.142505,68.000000,0.000000,5.073561,-29.796059,-549.781799,-952.716370,-372.436951,-639.571045,-228.866455,6.826921,-607.398804,-7.865879,1.739585,10.667536,22.943497,-3.008960,-24.300995,28.438162,20.602465,29.899485,129.838699,-8.733514,2.917355,33.336899,26.359758,52.205952,1.093850,9.783560,24.513931,-1.450581,-43.598961,-319.865814,-205.232544,-106.297752,0.000000,200.000000,4.000000,,,,0.000000,4.000000,4.000000,4.000000,4.000000,4.000000,4.000000,4.000000,4.000000,4.000000,4.000000,4.000000,4.000000,4.000000,4.000000,4.000000,4.000000,4.000000,4.000000,4.000000,4.000000,4.000000,4.000000,4.000000,4.000000,4.000000,4.000000,4.000000,4.000000,4.000000,4.000000,4.000000,4.000000,100.000000
1614044874.150355,69.000000,0.000000,5.068487,-29.766262,-551.283325,-967.661072,-384.885010,-656.367371,-246.073486,4.255991,-616.022156,-23.242628,-4.928822,13.733791,20.869270,-10.698258,-32.481823,23.281517,23.145964,27.818304,118.939629,-20.519651,-4.777870,22.021509,22.743654,42.922977,-4.548269,7.209674,10.643264,-6.577335,-48.683567,-336.469025,-208.104233,-111.319664,0.000000,208.000000,4.000000,,,,0.000000,4.000000,4.000000,4.000000,4.000000,4.000000,4.000000,4.000000,4.000000,4.000000,4.000000,4.000000,4.000000,4.000000,4.000000,4.000000,4.000000,4.000000,4.000000,4.000000,4.000000,4.000000,4.000000,4.000000,4.000000,4.000000,4.000000,4.000000,4.000000,4.000000,4.000000,4.000000,4.000000,100.000000
1614044874.158104,70.000000,0.000000,5.063419,-30.249317,-554.321777,-985.154968,-398.346283,-667.505859,-262.237671,4.251736,-629.252258,-30.398872,-6.462354,2.950827,15.720197,-10.687560,-29.885237,13.001826,17.481792,28.303307,137.795044,-25.627338,-15.029503,8.153335,20.669630,29.546721,-3.518080,7.202464,6.017236,-9.647681,-49.147701,-339.722290,-207.383301,-111.208344,0.000000,188.000000,4.000000,,,,0.000000,4.000000,4.000000,4.000000,4.000000,4.000000,4.000000,4.000000,4.000000,4.000000,4.000000,4.000000,4.000000,4.000000,4.000000,4.000000,4.000000,4.000000,4.000000,4.000000,4.000000,4.000000,4.000000,4.000000,4.000000,4.000000,4.000000,4.000000,4.000000,4.000000,4.000000,4.000000,4.000000,100.000000
1614044874.165953,71.000000,0.000000,5.058355,-29.706247,-555.818726,-994.426208,-400.512024,-672.992188,-278.385681,2.196202,-633.238403,-26.265909,-5.430251,-9.872637,7.499349,-11.702514,-31.393814,6.322157,-0.484407,10.326284,108.939301,-55.858120,-42.706779,-17.495844,11.931011,25.414610,-22.488920,-5.112431,8.575321,-8.612392,-48.072914,-346.049255,-219.483612,-110.071495,0.000000,208.000000,4.000000,,,,0.000000,4.000000,4.000000,4.000000,4.000000,4.000000,4.000000,4.000000,4.000000,4.000000,4.000000,4.000000,4.000000,4.000000,4.000000,4.000000,4.000000,4.000000,4.000000,4.000000,4.000000,4.000000,4.000000,4.000000,4.000000,4.000000,4.000000,4.000000,4.000000,4.000000,4.000000,4.000000,4.000000,100.000000
1614044874.173703,72.000000,0.000000,5.053297,-29.676540,-556.801331,-999.585632,-397.547424,-684.626892,-295.030365,1.168365,-632.605164,-23.675541,-5.424820,-7.811482,5.440567,-16.819017,-40.593189,-1.889293,-13.304436,-21.991734,76.522667,-88.109955,-74.971764,-49.786041,-3.465535,14.107144,-45.543354,-19.979113,0.874438,-9.629421,-49.050484,-359.549347,-231.059006,-109.961426,0.000000,196.000000,4.000000,,,,0.000000,4.000000,4.000000,4.000000,4.000000,4.000000,4.000000,4.000000,4.000000,4.000000,4.000000,4.000000,4.000000,4.000000,4.000000,4.000000,4.000000,4.000000,4.000000,4.000000,4.000000,4.000000,4.000000,4.000000,4.000000,4.000000,4.000000,4.000000,4.000000,4.000000,4.000000,4.000000,4.000000,100.000000
1614044874.181552,73.000000,0.000000,5.048244,-29.646864,-561.885559,-1007.816833,-401.252441,-694.711487,-313.709717,1.680017,-647.357178,-25.190327,-5.932216,1.427099,5.435126,-12.699634,-40.552597,-12.143814,-15.342413,-32.226151,85.676918,-92.637230,-80.537819,-57.428562,-15.256942,-15.137733,-35.754223,-17.907852,-12.459769,-15.260818,-47.975792,-364.830811,-230.827942,-108.312996,0.000000,194.000000,4.000000,,,,0.000000,4.000000,4.000000,4.000000,4.000000,4.000000,4.000000,4.000000,4.000000,4.000000,4.000000,4.000000,4.000000,4.000000,4.000000,4.000000,4.000000,4.000000,4.000000,4.000000,4.000000,4.000000,4.000000,4.000000,4.000000,4.000000,4.000000,4.000000,4.000000,4.000000,4.000000,4.000000,4.000000,100.000000
1614044874.189301,74.000000,0.000000,5.043195,-29.617218,-566.964722,-1017.065430,-404.953766,-695.555237,-323.139587,2.191157,-659.530334,-25.165136,-5.926284,0.400030,6.455332,-2.943344,-28.717171,5.817048,-11.737328,-5.527259,118.411751,-61.262543,-52.252155,-34.807034,-15.241685,-25.379005,-14.180006,-6.095072,-11.934489,-17.296839,-45.363712,-361.389069,-228.545837,-106.153404,0.000000,201.000000,4.000000,,,,0.000000,4.000000,4.000000,4.000000,4.000000,4.000000,4.000000,4.000000,4.000000,4.000000,4.000000,4.000000,4.000000,4.000000,4.000000,4.000000,4.000000,4.000000,4.000000,4.000000,4.000000,4.000000,4.000000,4.000000,4.000000,4.000000,4.000000,4.000000,4.000000,4.000000,4.000000,4.000000,4.000000,100.000000
1614044874.196950,75.000000,0.000000,5.038152,-29.587601,-568.449036,-1026.817627,-404.548798,-696.911011,-323.329254,2.188966,-658.357971,-19.498947,-5.407537,-4.215754,15.166826,-1.914760,-20.996145,31.452257,-2.494821,13.452626,121.883087,-41.714100,-28.610159,-6.567096,-7.021315,1.313041,-8.524800,-2.499234,3.462061,-16.253901,-43.779888,-360.514862,-229.855743,-105.534431,0.000000,193.000000,4.000000,,,,0.000000,4.000000,4.000000,4.000000,4.000000,4.000000,4.000000,4.000000,4.000000,4.000000,4.000000,4.000000,4.000000,4.000000,4.000000,4.000000,4.000000,4.000000,4.000000,4.000000,4.000000,4.000000,4.000000,4.000000,4.000000,4.000000,4.000000,4.000000,4.000000,4.000000,4.000000,4.000000,4.000000,100.000000
1614044874.204700,76.000000,0.000000,5.033114,-29.558012,-571.983154,-1046.303589,-408.246826,-703.906372,-333.775177,1.161136,-668.468872,-15.376884,-5.402130,1.429487,21.818325,-2.938486,-22.000792,20.138752,5.199982,3.695584,115.607353,-32.954437,-22.940523,14.465112,1.703655,25.414291,-4.413712,-4.548017,15.253470,-16.237646,-43.736107,-366.821014,-234.241272,-105.941719,0.000000,199.000000,4.000000,,,,0.000000,4.000000,4.000000,4.000000,4.000000,4.000000,4.000000,4.000000,4.000000,4.000000,4.000000,4.000000,4.000000,4.000000,4.000000,4.000000,4.000000,4.000000,4.000000,4.000000,4.000000,4.000000,4.000000,4.000000,4.000000,4.000000,4.000000,4.000000,4.000000,4.000000,4.000000,4.000000,4.000000,100.000000
1614044874.212349,77.000000,0.000000,5.028081,-29.528454,-579.616272,-1068.847046,-414.505219,-712.946045,-354.467041,3.211257,-690.877319,-19.976891,-6.422369,9.633186,21.283688,-0.884265,-22.491611,12.426307,8.271705,12.922658,140.619949,-6.254815,-1.891941,27.783979,10.932721,32.568363,3.795830,-1.466545,15.238217,-16.734230,-44.718010,-373.633667,-244.263443,-106.348595,0.000000,199.000000,4.000000,,,,0.000000,4.000000,4.000000,4.000000,4.000000,4.000000,4.000000,4.000000,4.000000,4.000000,4.000000,4.000000,4.000000,4.000000,4.000000,4.000000,4.000000,4.000000,4.000000,4.000000,4.000000,4.000000,4.000000,4.000000,4.000000,4.000000,4.000000,4.000000,4.000000,4.000000,4.000000,4.000000,4.000000,100.000000
1614044874.220099,78.000000,0.000000,5.023053,-29.498926,-580.575134,-1079.060303,-414.603546,-724.028015,-364.881805,10.387533,-703.519775,-23.033836,-1.287741,8.597912,24.852146,0.142260,-16.828093,39.080547,17.494202,45.730247,173.299850,23.495029,30.930464,32.371582,21.178198,48.946053,6.868958,4.688767,15.735799,-16.204676,-43.647652,-373.772858,-250.173035,-103.678146,0.000000,180.000000,4.000000,,,,0.000000,4.000000,4.000000,4.000000,4.000000,4.000000,4.000000,4.000000,4.000000,4.000000,4.000000,4.000000,4.000000,4.000000,4.000000,4.000000,4.000000,4.000000,4.000000,4.000000,4.000000,4.000000,4.000000,4.000000,4.000000,4.000000,4.000000,4.000000,4.000000,4.000000,4.000000,4.000000,4.000000,100.000000
1614044874.227748,79.000000,0.000000,5.018030,-29.469427,-577.430481,-1083.109375,-412.650482,-729.457825,-365.029724,13.966889,-715.636780,-18.395418,7.431495,1.409827,29.955500,4.757502,-13.734343,48.785057,27.220299,52.351185,177.229111,28.086920,33.463634,32.339211,27.823687,71.974030,10.964653,5.196899,22.386730,-16.188471,-40.527081,-376.476013,-248.384399,-98.959084,0.000000,205.000000,4.000000,,,,0.000000,4.000000,4.000000,4.000000,4.000000,4.000000,4.000000,4.000000,4.000000,4.000000,4.000000,4.000000,4.000000,4.000000,4.000000,4.000000,4.000000,4.000000,4.000000,4.000000,4.000000,4.000000,4.000000,4.000000,4.000000,4.000000,4.000000,4.000000,4.000000,4.000000,4.000000,4.000000,4.000000,100.000000
1614044874.235497,80.000000,0.000000,5.013012,-29.439959,-580.955627,-1091.257080,-415.827576,-730.779663,-368.254456,12.927281,-737.485229,-17.864202,6.911243,1.408417,27.361443,7.829668,-20.387274,30.274733,24.628975,30.247551,150.385208,18.828064,8.301968,26.665844,26.770222,73.440514,15.569073,4.678882,24.415625,-15.659461,-42.025017,-387.894409,-254.802673,-97.321663,0.000000,177.000000,4.000000,,,,0.000000,4.000000,4.000000,4.000000,4.000000,4.000000,4.000000,4.000000,4.000000,4.000000,4.000000,4.000000,4.000000,4.000000,4.000000,4.000000,4.000000,4.000000,4.000000,4.000000,4.000000,4.000000,4.000000,4.000000,4.000000,4.000000,4.000000,4.000000,4.000000,4.000000,4.000000,4.000000,4.000000,100.000000
1614044874.243146,81.000000,0.000000,5.007998,-29.410519,-586.528503,-1102.473511,-420.539948,-739.279602,-376.091339,12.914353,-757.773376,-21.948902,2.288947,5.509573,24.257156,0.129530,-29.597656,25.116253,15.886397,23.550636,133.311752,18.296415,-4.014027,17.921230,22.128067,55.931179,13.502222,5.187023,18.750185,-16.156622,-47.111198,-395.198822,-266.855560,-98.249977,0.000000,193.000000,4.000000,,,,0.000000,4.000000,4.000000,4.000000,4.000000,4.000000,4.000000,4.000000,4.000000,4.000000,4.000000,4.000000,4.000000,4.000000,4.000000,4.000000,4.000000,4.000000,4.000000,4.000000,4.000000,4.000000,4.000000,4.000000,4.000000,4.000000,4.000000,4.000000,4.000000,4.000000,4.000000,4.000000,4.000000,100.000000
1614044874.250895,82.000000,0.000000,5.002991,-29.381107,-587.480408,-1115.729980,-421.145050,-751.360840,-383.407532,13.414260,-779.579712,-12.696184,3.825120,3.452781,24.745720,-5.511625,-31.106520,30.732162,13.306409,30.193752,138.819473,21.355042,-5.548475,15.852026,19.541836,42.541916,10.411797,1.079272,13.090408,-16.653286,-48.602547,-394.803619,-267.614349,-98.151733,0.000000,195.000000,4.000000,,,,0.000000,4.000000,4.000000,4.000000,4.000000,4.000000,4.000000,4.000000,4.000000,4.000000,4.000000,4.000000,4.000000,4.000000,4.000000,4.000000,4.000000,4.000000,4.000000,4.000000,4.000000,4.000000,4.000000,4.000000,4.000000,4.000000,4.000000,4.000000,4.000000,4.000000,4.000000,4.000000,4.000000,100.000000
1614044874.258544,83.000000,0.000000,4.997988,-29.351727,-588.431396,-1128.460449,-421.749542,-756.250549,-387.639526,12.888025,-811.107849,0.649845,5.872577,-1.166057,24.720974,0.647733,-29.024132,23.521942,13.805923,22.471252,133.552444,5.436250,-17.850618,5.579764,16.445372,41.986553,5.786000,-6.101294,9.487575,-15.610991,-47.528305,-396.972931,-265.295441,-97.540756,0.000000,200.000000,4.000000,,,,0.000000,4.000000,4.000000,4.000000,4.000000,4.000000,4.000000,4.000000,4.000000,4.000000,4.000000,4.000000,4.000000,4.000000,4.000000,4.000000,4.000000,4.000000,4.000000,4.000000,4.000000,4.000000,4.000000,4.000000,4.000000,4.000000,4.000000,4.000000,4.000000,4.000000,4.000000,4.000000,4.000000,100.000000
1614044874.266293,84.000000,0.000000,4.992990,-29.322374,-593.996826,-1136.562744,-425.430359,-753.442993,-394.944183,12.362317,-841.578796,1.162016,5.353884,-3.216172,24.183434,4.749650,-31.046391,12.729190,10.715194,0.910319,106.752220,-26.876879,-33.217384,-23.656586,8.223798,35.790718,-9.091580,-8.146475,6.913984,-15.595381,-47.993595,-401.704163,-275.286560,-97.956039,0.000000,177.000000,4.000000,,,,0.000000,4.000000,4.000000,4.000000,4.000000,4.000000,4.000000,4.000000,4.000000,4.000000,4.000000,4.000000,4.000000,4.000000,4.000000,4.000000,4.000000,4.000000,4.000000,4.000000,4.000000,4.000000,4.000000,4.000000,4.000000,4.000000,4.000000,4.000000,4.000000,4.000000,4.000000,4.000000,4.000000,100.000000
1614044874.273943,85.000000,0.000000,4.987997,-29.293053,-597.505371,-1142.605591,-429.107513,-756.279297,-408.908203,12.862775,-867.916687,-2.428890,4.835710,-2.700136,24.159250,4.232079,-29.989702,13.229281,5.576273,-4.218797,103.055725,-45.311539,-36.773911,-35.940620,1.548908,10.626724,-18.313259,-6.087047,7.419891,-18.656708,-47.945602,-401.302460,-285.267700,-97.858086,0.000000,199.000000,4.000000,,,,0.000000,4.000000,4.000000,4.000000,4.000000,4.000000,4.000000,4.000000,4.000000,4.000000,4.000000,4.000000,4.000000,4.000000,4.000000,4.000000,4.000000,4.000000,4.000000,4.000000,4.000000,4.000000,4.000000,4.000000,4.000000,4.000000,4.000000,4.000000,4.000000,4.000000,4.000000,4.000000,4.000000,100.000000
1614044874.281692,86.000000,0.000000,4.983009,-28.750938,-597.420715,-1149.155396,-429.191223,-769.882019,-418.242889,12.337091,-897.817993,-0.888000,3.805233,-1.671795,24.135090,10.381693,-19.703302,27.062206,4.545056,18.349525,135.773178,-37.061100,-31.608931,-21.032885,2.573000,-5.281339,-1.884689,-7.106600,6.899650,-18.638052,-47.384834,-399.875519,-284.469604,-97.760223,0.000000,198.000000,4.000000,,,,0.000000,4.000000,4.000000,4.000000,4.000000,4.000000,4.000000,4.000000,4.000000,4.000000,4.000000,4.000000,4.000000,4.000000,4.000000,4.000000,4.000000,4.000000,4.000000,4.000000,4.000000,4.000000,4.000000,4.000000,4.000000,4.000000,4.000000,4.000000,4.000000,4.000000,4.000000,4.000000,4.000000,100.000000
1614044874.289341,87.000000,0.000000,4.978026,-28.722187,-598.874573,-1150.057495,-428.249207,-779.368530,-418.850311,12.324755,-923.074036,-1.912753,7.391171,-2.695764,25.136597,15.499516,-11.478471,40.368477,6.078972,36.792713,147.945099,-33.434296,-30.551680,-12.293903,5.134529,11.647019,20.681299,-7.612314,6.379930,-14.004029,-47.850273,-399.988464,-282.646667,-97.662460,0.000000,196.000000,4.000000,,,,0.000000,4.000000,4.000000,4.000000,4.000000,4.000000,4.000000,4.000000,4.000000,4.000000,4.000000,4.000000,4.000000,4.000000,4.000000,4.000000,4.000000,4.000000,4.000000,4.000000,4.000000,4.000000,4.000000,4.000000,4.000000,4.000000,4.000000,4.000000,4.000000,4.000000,4.000000,4.000000,4.000000,100.000000
1614044874.297090,88.000000,0.000000,4.973048,-28.693466,-598.788513,-1148.907471,-427.820953,-777.050720,-418.431458,14.363711,-938.561218,0.140442,16.614550,-3.205889,27.675562,16.509659,-9.928531,43.917850,6.585714,32.653358,118.566391,-38.529068,-31.033949,-9.717507,10.257600,30.096910,22.199080,-3.502138,14.578678,-11.425922,-44.725498,-399.075653,-282.876862,-97.564804,0.000000,222.000000,4.000000,,,,0.000000,4.000000,4.000000,4.000000,4.000000,4.000000,4.000000,4.000000,4.000000,4.000000,4.000000,4.000000,4.000000,4.000000,4.000000,4.000000,4.000000,4.000000,4.000000,4.000000,4.000000,4.000000,4.000000,4.000000,4.000000,4.000000,4.000000,4.000000,4.000000,4.000000,4.000000,4.000000,4.000000,100.000000
1614044874.304739,89.000000,0.000000,4.968075,-28.664772,-595.625610,-1152.373901,-426.880310,-776.786438,-421.089935,16.913450,-956.596985,10.396712,21.726139,6.540907,29.186348,22.646996,-9.918602,47.463676,5.553487,27.492498,114.858078,-20.028999,-13.054197,12.343493,17.939650,31.092455,21.151239,0.091108,24.820511,-12.440138,-40.578209,-397.650940,-283.106781,-97.467239,0.000000,203.000000,4.000000,,,,0.000000,4.000000,4.000000,4.000000,4.000000,4.000000,4.000000,4.000000,4.000000,4.000000,4.000000,4.000000,4.000000,4.000000,4.000000,4.000000,4.000000,4.000000,4.000000,4.000000,4.000000,4.000000,4.000000,4.000000,4.000000,4.000000,4.000000,4.000000,4.000000,4.000000,4.000000,4.000000,4.000000,100.000000
1614044874.312488,90.000000,0.000000,4.963107,-28.636106,-601.183838,-1161.477905,-427.991882,-785.240417,-421.181671,16.383717,-987.435303,10.899136,19.653131,16.790777,28.644342,28.265373,-9.908684,43.313648,6.060754,26.952185,147.563736,12.298722,19.266550,35.408073,22.537094,41.317772,33.950600,1.629478,27.359793,-12.427697,-39.511990,-397.766083,-281.798035,-97.369766,0.000000,167.000000,4.000000,,,,0.000000,4.000000,4.000000,4.000000,4.000000,4.000000,4.000000,4.000000,4.000000,4.000000,4.000000,4.000000,4.000000,4.000000,4.000000,4.000000,4.000000,4.000000,4.000000,4.000000,4.000000,4.000000,4.000000,4.000000,4.000000,4.000000,4.000000,4.000000,4.000000,4.000000,4.000000,4.000000,4.000000,100.000000
1614044874.320137,91.000000,0.000000,4.958143,-29.120291,-614.941650,-1174.162598,-432.692108,-790.609070,-419.222015,16.880154,-1013.627319,-6.547661,19.633478,8.568857,28.102877,27.211468,-10.924417,33.013927,13.747002,27.950874,162.287964,25.106937,32.067795,39.988049,26.104301,64.353378,36.480751,2.653490,26.819613,-11.902450,-38.446835,-397.368317,-280.490601,-97.272400,0.000000,182.000000,4.000000,,,,0.000000,4.000000,4.000000,4.000000,4.000000,4.000000,4.000000,4.000000,4.000000,4.000000,4.000000,4.000000,4.000000,4.000000,4.000000,4.000000,4.000000,4.000000,4.000000,4.000000,4.000000,4.000000,4.000000,4.000000,4.000000,4.000000,4.000000,4.000000,4.000000,4.000000,4.000000,4.000000,4.000000,100.000000
1614044874.327987,92.000000,0.000000,5.978827,-31.142454,-621.506165,-1181.193604,-432.772247,-787.254333,-419.828430,17.376093,-1021.844482,-18.335985,21.665127,-7.337147,29.613235,26.671434,-7.836569,47.852707,19.887100,41.256256,154.946182,23.543367,24.856241,38.409599,28.129478,74.545433,22.085297,0.599554,24.228689,-11.377727,-40.972492,-394.919678,-284.312683,-96.662308,0.000000,198.000000,4.000000,,,,0.000000,4.000000,4.000000,4.000000,4.000000,4.000000,4.000000,4.000000,4.000000,4.000000,4.000000,4.000000,4.000000,4.000000,4.000000,4.000000,4.000000,4.000000,4.000000,4.000000,4.000000,2.000000,4.000000,4.000000,4.000000,4.000000,4.000000,4.000000,4.000000,4.000000,4.000000,4.000000,4.000000,83.333336
1614044874.335736,93.000000,0.000000,4.947206,-34.701054,-621.397522,-1180.525146,-430.800995,-785.954285,-425.562469,12.743333,-1031.078979,-10.625341,17.540897,-9.381092,25.481058,27.670404,-16.546680,63.189468,10.123624,44.291924,152.227142,15.314696,21.241640,32.730164,21.434683,69.855507,17.447826,-8.118994,14.973692,-11.879169,-50.162289,-398.114502,-291.207855,-96.565643,0.000000,147.000000,4.000000,,,,0.000000,4.000000,4.000000,4.000000,4.000000,4.000000,4.000000,4.000000,4.000000,4.000000,4.000000,4.000000,4.000000,4.000000,4.000000,4.000000,4.000000,4.000000,4.000000,4.000000,4.000000,2.000000,4.000000,4.000000,4.000000,4.000000,4.000000,4.000000,4.000000,4.000000,4.000000,4.000000,4.000000,83.333336
1614044874.343585,94.000000,0.000000,2.378157,-40.820198,-626.417114,-1185.498535,-435.498413,-797.476013,-433.854858,4.525462,-1047.996704,-1.383947,8.292587,-2.705045,12.635064,21.488888,-43.709621,31.331408,-4.758295,17.068144,139.254395,-5.213439,11.476810,14.748715,13.720941,61.580521,18.456020,-13.751901,8.804872,-14.431393,-55.753151,-410.536896,-292.967926,-96.981895,0.000000,207.000000,4.000000,,,,0.000000,4.000000,4.000000,4.000000,4.000000,4.000000,4.000000,4.000000,4.000000,4.000000,4.000000,4.000000,4.000000,4.000000,4.000000,4.000000,4.000000,4.000000,4.000000,4.000000,4.000000,2.000000,4.000000,4.000000,4.000000,4.000000,4.000000,4.000000,4.000000,4.000000,4.000000,4.000000,4.000000,83.333336
1614044874.351334,95.000000,0.000000,2.375779,-42.317841,-626.816345,-1189.954102,-438.139832,-807.447754,-435.472290,0.931193,-1052.589722,-1.382563,3.668911,-2.702340,2.366019,12.236629,-59.050526,2.069308,-6.291998,4.743384,122.704887,-26.746687,-16.226974,-9.881418,14.732861,48.185608,4.591411,-13.738149,12.898631,-14.929782,-53.646118,-419.869965,-290.623688,-96.372093,0.000000,177.000000,4.000000,,,,0.000000,4.000000,4.000000,4.000000,4.000000,4.000000,4.000000,4.000000,4.000000,4.000000,4.000000,4.000000,4.000000,4.000000,4.000000,4.000000,4.000000,4.000000,4.000000,4.000000,4.000000,2.000000,4.000000,4.000000,4.000000,4.000000,4.000000,4.000000,4.000000,4.000000,4.000000,4.000000,4.000000,83.333336
1614044874.359184,96.000000,0.000000,-0.703520,-41.249882,-623.625427,-1187.738403,-434.624756,-805.614685,-434.523987,2.468723,-1045.896118,-4.970924,6.742165,-9.366303,1.338012,5.044906,-52.324810,13.349290,-2.183142,15.507872,125.659111,-42.617374,-41.338955,-29.871536,7.025820,30.701525,-8.233694,-22.955179,9.295989,-17.478954,-55.643753,-426.629578,-292.897156,-96.275726,8064.000000,0.000000,4.000000,,,,0.000000,4.000000,4.000000,4.000000,4.000000,4.000000,4.000000,4.000000,4.000000,4.000000,4.000000,4.000000,4.000000,4.000000,4.000000,4.000000,4.000000,4.000000,4.000000,4.000000,4.000000,2.000000,4.000000,4.000000,4.000000,4.000000,4.000000,4.000000,4.000000,4.000000,4.000000,4.000000,4.000000,83.333336
1614044874.366933,97.000000,0.000000,-8.907945,-51.465042,-635.822327,-1195.781494,-443.420898,-809.424438,-442.807404,0.414972,-1059.209106,-8.042876,4.171320,-14.997963,2.875135,-1.626805,-56.887871,7.182095,-13.975831,-1.430713,118.353958,-65.138863,-56.169411,-43.687820,-15.545308,13.234925,-9.763922,-41.393764,-7.636384,-25.153784,-63.793236,-437.997803,-297.732452,-100.794830,8064.000000,0.000000,4.000000,,,,0.000000,4.000000,4.000000,4.000000,4.000000,4.000000,4.000000,4.000000,4.000000,4.000000,4.000000,4.000000,4.000000,4.000000,4.000000,4.000000,4.000000,4.000000,4.000000,4.000000,4.000000,2.000000,4.000000,4.000000,4.000000,4.000000,4.000000,4.000000,4.000000,4.000000,4.000000,4.000000,4.000000,83.333336
1614044874.374782,98.000000,0.000000,-14.540063,-67.311012,-654.160828,-1214.585693,-459.900574,-821.948364,-454.672302,-6.252110,-1080.714111,-15.727140,-10.191826,-17.547068,1.846619,-6.240563,-70.677139,-21.030216,-31.397753,-30.660051,90.543297,-83.535263,-67.908112,-49.285156,-26.298994,-6.265489,-9.241337,-41.865189,-15.833876,-30.256834,-67.319191,-447.816223,-298.460358,-106.847885,7168.000000,0.000000,4.000000,,,,0.000000,4.000000,4.000000,4.000000,4.000000,4.000000,4.000000,4.000000,4.000000,4.000000,4.000000,4.000000,4.000000,4.000000,4.000000,4.000000,4.000000,4.000000,4.000000,4.000000,4.000000,2.000000,4.000000,4.000000,4.000000,4.000000,4.000000,4.000000,4.000000,4.000000,4.000000,4.000000,4.000000,83.333336
1614044874.382531,99.000000,0.000000,-13.499882,-68.269341,-657.609253,-1220.550659,-464.056061,-826.254578,-457.807373,-12.399704,-1084.761597,-29.044746,-20.950865,-15.991059,1.331952,-7.259964,-58.298767,-13.316878,-27.263790,-19.860161,88.914291,-73.708138,-58.609436,-36.928181,-12.426540,-12.925890,-2.565429,-19.259222,-4.535991,-28.175295,-62.636482,-445.829956,-297.136261,-108.279495,5632.000000,0.000000,4.000000,,,,0.000000,4.000000,4.000000,4.000000,4.000000,4.000000,4.000000,4.000000,4.000000,4.000000,4.000000,4.000000,4.000000,4.000000,4.000000,4.000000,4.000000,4.000000,4.000000,4.000000,4.000000,2.000000,4.000000,4.000000,4.000000,4.000000,4.000000,4.000000,4.000000,4.000000,4.000000,4.000000,4.000000,83.333336
1614044874.390381,100.000000,0.000000,-12.973561,-66.662613,-655.926025,-1216.765991,-464.104828,-827.479614,-453.759827,-12.900125,-1088.804932,-36.708012,-20.929914,-13.923786,3.894723,-6.739883,-34.650723,13.363106,-6.723706,9.390469,111.389481,-40.813915,-28.807236,-5.609200,7.585886,10.163959,10.257649,-8.470732,6.750597,-26.095839,-58.984104,-441.281555,-296.839142,-106.632759,5504.000000,0.000000,4.000000,,,,0.000000,4.000000,4.000000,4.000000,4.000000,4.000000,4.000000,4.000000,4.000000,4.000000,4.000000,4.000000,4.000000,4.000000,4.000000,4.000000,4.000000,4.000000,4.000000,4.000000,4.000000,2.000000,4.000000,4.000000,4.000000,4.000000,4.000000,4.000000,4.000000,4.000000,4.000000,4.000000,4.000000,83.333336
1614044874.398130,101.000000,0.000000,-13.473408,-83.519028,-660.398254,-1219.651733,-468.768921,-836.908569,-455.357330,-11.861583,-1105.664917,-34.620018,-19.370522,-13.397041,8.506212,-5.707502,-29.487867,15.913845,1.488146,10.919539,113.329376,-11.029511,-7.239966,20.037436,17.834711,41.948666,10.247392,-19.744312,7.769487,-26.582563,-59.437939,-442.378723,-297.055115,-107.038948,6400.000000,0.000000,4.000000,,,,0.000000,4.000000,4.000000,4.000000,4.000000,4.000000,4.000000,4.000000,4.000000,4.000000,4.000000,4.000000,4.000000,4.000000,4.000000,4.000000,4.000000,4.000000,4.000000,4.000000,4.000000,2.000000,4.000000,4.000000,4.000000,4.000000,4.000000,4.000000,4.000000,4.000000,4.000000,4.000000,4.000000,83.333336
1614044874.405979,102.000000,0.000000,-12.947114,-98.307304,-661.789185,-1219.457764,-464.197571,-836.584473,-467.722504,-15.439466,-1112.251587,-35.098221,-22.428076,-12.358004,11.574630,-4.676154,-38.176331,1.026136,-2.615906,-9.604200,110.651947,2.314852,0.459581,25.145603,19.868158,53.188770,8.185862,-28.442516,8.274538,-26.043159,-60.916965,-445.526093,-296.245239,-107.957550,7168.000000,0.000000,4.000000,,,,0.000000,4.000000,4.000000,4.000000,4.000000,4.000000,4.000000,4.000000,4.000000,4.000000,4.000000,4.000000,4.000000,4.000000,4.000000,4.000000,4.000000,4.000000,4.000000,4.000000,4.000000,2.000000,4.000000,4.000000,4.000000,4.000000,4.000000,4.000000,4.000000,4.000000,4.000000,4.000000,4.000000,83.333336
1614044874.413729,103.000000,0.000000,-12.934167,-94.106430,-657.537659,-1211.571655,-453.989807,-827.542786,-480.588104,-19.526590,-1107.036743,-43.268250,-23.944109,-9.268723,10.537414,-10.312503,-43.779179,-2.564633,-2.613291,-11.645879,126.438728,5.389460,4.048865,24.094816,19.335468,52.109940,20.998188,-26.875612,10.317546,-26.017117,-60.856049,-445.593384,-295.949005,-106.311127,6784.000000,0.000000,4.000000,,,,0.000000,4.000000,4.000000,4.000000,4.000000,4.000000,4.000000,4.000000,4.000000,4.000000,4.000000,4.000000,4.000000,4.000000,4.000000,4.000000,4.000000,4.000000,4.000000,4.000000,4.000000,2.000000,4.000000,4.000000,4.000000,4.000000,4.000000,4.000000,4.000000,4.000000,4.000000,4.000000,4.000000,83.333336
1614044874.421578,104.000000,0.000000,-12.408412,-90.935402,-655.341614,-1207.283081,-451.997345,-829.792114,-483.697266,-20.019884,-1112.596313,-45.789085,-23.407345,-7.720993,10.526876,-13.379114,-39.632835,17.950752,-3.123498,15.032434,128.363571,5.384070,-0.057748,24.583542,19.828955,53.596291,20.977190,-25.310276,6.204664,-25.991100,-59.769550,-445.147797,-295.653046,-104.153534,8064.000000,0.000000,4.000000,,,,0.000000,4.000000,4.000000,4.000000,4.000000,4.000000,4.000000,4.000000,4.000000,4.000000,4.000000,4.000000,4.000000,4.000000,4.000000,4.000000,4.000000,4.000000,4.000000,4.000000,4.000000,2.000000,4.000000,4.000000,4.000000,4.000000,4.000000,4.000000,4.000000,4.000000,4.000000,4.000000,4.000000,83.333336
1614044874.429327,105.000000,0.000000,-12.396004,-97.511131,-655.711914,-1207.101440,-452.570984,-835.629028,-481.675110,-19.487043,-1119.688843,-40.102268,-22.871117,-10.277374,10.003529,-9.775991,-37.541920,35.881519,-6.710118,24.248171,114.901871,-1.287980,-6.724357,17.379471,18.783484,42.260643,-2.633530,-29.387529,4.659997,-25.452288,-59.709782,-444.702667,-295.357391,-104.049385,8064.000000,0.000000,4.000000,,,,0.000000,4.000000,4.000000,4.000000,4.000000,4.000000,4.000000,4.000000,4.000000,4.000000,4.000000,4.000000,4.000000,4.000000,4.000000,4.000000,4.000000,4.000000,4.000000,4.000000,4.000000,2.000000,4.000000,4.000000,4.000000,4.000000,4.000000,4.000000,4.000000,4.000000,4.000000,4.000000,4.000000,83.333336
1614044874.436976,106.000000,0.000000,-14.434890,-99.464905,-656.594666,-1203.330322,-453.144043,-832.229309,-481.706238,-19.980377,-1118.569214,-37.498066,-22.848246,-9.754276,2.301218,-16.945702,-61.094120,11.230253,-9.780331,-5.519667,121.966461,-14.620026,-10.820196,-1.099447,4.918547,12.474793,-13.912948,-41.665836,5.680979,-30.042221,-63.752636,-444.770782,-296.087677,-106.509438,8064.000000,0.000000,4.000000,,,,0.000000,4.000000,4.000000,4.000000,4.000000,4.000000,4.000000,4.000000,4.000000,4.000000,4.000000,4.000000,4.000000,4.000000,4.000000,4.000000,4.000000,4.000000,4.000000,4.000000,4.000000,2.000000,4.000000,4.000000,4.000000,4.000000,4.000000,4.000000,4.000000,4.000000,4.000000,4.000000,4.000000,83.333336
1614044874.444726,107.000000,0.000000,-16.471737,-99.878258,-657.476563,-1194.947510,-451.665283,-829.345764,-481.737366,-19.447577,-1124.117310,-38.999027,-24.363857,-7.693240,-11.034417,-40.518501,-92.315079,-21.088671,-20.026960,-28.591070,120.306030,-36.143867,-27.219633,-28.790655,-18.163296,-14.717169,-9.796471,-53.931862,-7.658036,-37.704487,-71.381187,-453.043945,-295.278778,-107.428566,7936.000000,0.000000,4.000000,,,,0.000000,4.000000,4.000000,4.000000,4.000000,4.000000,4.000000,4.000000,4.000000,4.000000,4.000000,4.000000,4.000000,4.000000,4.000000,4.000000,4.000000,4.000000,4.000000,4.000000,4.000000,2.000000,4.000000,4.000000,4.000000,4.000000,4.000000,4.000000,4.000000,4.000000,4.000000,4.000000,4.000000,83.333336
1614044874.452375,108.000000,0.000000,-16.455265,-107.470688,-657.331909,-1191.701172,-444.034119,-828.516418,-480.229980,-19.428129,-1138.890625,-37.421566,-27.416418,-18.454777,-19.228510,-53.811314,-92.222763,-14.400914,-37.955650,-27.024017,87.878036,-64.825668,-55.910362,-55.428532,-30.965645,-25.984503,-25.171289,-56.954853,-30.214479,-41.256523,-76.438011,-470.026794,-294.470673,-105.782677,8064.000000,0.000000,4.000000,,,,0.000000,4.000000,4.000000,4.000000,4.000000,4.000000,4.000000,4.000000,4.000000,4.000000,4.000000,4.000000,4.000000,4.000000,4.000000,4.000000,4.000000,4.000000,4.000000,4.000000,4.000000,2.000000,4.000000,4.000000,4.000000,4.000000,4.000000,4.000000,4.000000,4.000000,4.000000,4.000000,4.000000,83.333336
1614044874.460124,109.000000,0.000000,-16.951632,-114.542702,-657.187378,-1193.073608,-441.025970,-823.585327,-479.749756,-19.408701,-1154.161987,-37.896965,-27.389002,-32.282475,-20.234922,-43.501095,-77.258743,-3.617283,-46.635643,-28.535456,77.020927,-82.196747,-71.239067,-63.065411,-31.960320,-35.702106,-47.710220,-57.410717,-31.722727,-40.702450,-77.387215,-478.787537,-295.714661,-106.189713,8064.000000,0.000000,4.000000,,,,0.000000,4.000000,4.000000,4.000000,4.000000,4.000000,4.000000,4.000000,4.000000,4.000000,4.000000,4.000000,4.000000,4.000000,4.000000,4.000000,4.000000,4.000000,4.000000,4.000000,4.000000,2.000000,4.000000,4.000000,4.000000,4.000000,4.000000,4.000000,4.000000,4.000000,4.000000,4.000000,4.000000,83.333336
1614044874.467773,110.000000,0.000000,-16.421858,-113.402519,-654.478882,-1185.213867,-440.072144,-820.197632,-478.757172,-17.850830,-1167.879639,-38.884712,-26.848791,-21.993784,-16.624945,-25.508875,-75.643028,-12.331614,-45.563370,-30.558203,92.841339,-79.037621,-69.629364,-55.310036,-28.851437,-46.435638,-39.970203,-56.840488,-17.844851,-41.174564,-77.822647,-472.154907,-293.880493,-107.109161,8064.000000,0.000000,4.000000,,,,0.000000,4.000000,4.000000,4.000000,4.000000,4.000000,4.000000,4.000000,4.000000,4.000000,4.000000,4.000000,4.000000,4.000000,4.000000,4.000000,4.000000,4.000000,4.000000,4.000000,4.000000,2.000000,4.000000,4.000000,4.000000,4.000000,4.000000,4.000000,4.000000,4.000000,4.000000,4.000000,4.000000,83.333336
1614044874.475522,111.000000,0.000000,-11.790052,-112.776299,-647.157776,-1169.156860,-427.324371,-814.762085,-478.791229,-15.781697,-1173.378418,-31.153519,-28.360405,2.130774,-9.941653,-19.329519,-74.028923,-14.883385,-44.492165,-21.809694,83.004906,-76.907303,-66.995636,-53.203445,-19.078995,-42.799458,-17.878950,-48.578518,-12.698801,-40.620571,-76.719185,-462.964813,-285.894287,-101.873848,8064.000000,0.000000,4.000000,,,,0.000000,4.000000,4.000000,4.000000,4.000000,4.000000,4.000000,4.000000,4.000000,4.000000,4.000000,4.000000,4.000000,4.000000,4.000000,4.000000,4.000000,4.000000,4.000000,4.000000,4.000000,2.000000,4.000000,4.000000,4.000000,4.000000,4.000000,4.000000,4.000000,4.000000,4.000000,4.000000,4.000000,83.333336
1614044874.483172,112.000000,0.000000,-8.701339,-113.176346,-642.408020,-1162.346680,-417.666290,-805.742188,-478.312439,-15.253095,-1169.640869,-22.917236,-24.742300,7.256849,-1.726583,-23.925575,-66.262581,-10.765938,-42.396389,-15.634039,77.793701,-75.804756,-63.851715,-51.098961,-10.341968,-25.320761,-10.681584,-40.324810,-15.250204,-38.015846,-72.539902,-460.450562,-278.941742,-94.592491,8064.000000,0.000000,4.000000,,,,0.000000,4.000000,4.000000,4.000000,4.000000,4.000000,4.000000,4.000000,4.000000,4.000000,4.000000,4.000000,4.000000,4.000000,4.000000,4.000000,4.000000,4.000000,4.000000,4.000000,4.000000,2.000000,4.000000,4.000000,4.000000,4.000000,4.000000,4.000000,4.000000,4.000000,4.000000,4.000000,4.000000,83.333336
1614044874.490921,113.000000,0.000000,-8.692637,-112.550346,-643.304077,-1161.184326,-416.735779,-802.372314,-475.782867,-16.776304,-1167.958496,-26.996883,-15.486789,-7.622203,-0.186395,-20.824726,-62.093758,-7.165428,-38.764248,-20.233789,97.203087,-67.011002,-61.223763,-42.842731,-11.357266,-14.013389,-11.183723,-42.335770,-13.696493,-33.875267,-78.621208,-458.964478,-278.662781,-97.061996,8064.000000,0.000000,4.000000,,,,0.000000,4.000000,4.000000,4.000000,4.000000,4.000000,4.000000,4.000000,4.000000,4.000000,4.000000,4.000000,4.000000,4.000000,4.000000,4.000000,4.000000,4.000000,4.000000,4.000000,4.000000,2.000000,4.000000,4.000000,4.000000,4.000000,4.000000,4.000000,4.000000,4.000000,4.000000,4.000000,4.000000,83.333336
1614044874.498570,114.000000,0.000000,-9.196766,-114.489075,-641.635132,-1151.817993,-402.985718,-802.082764,-473.768616,-14.708245,-1164.739258,-30.046810,-11.368738,-14.794068,-1.211850,-7.470568,-53.826534,6.175071,-36.161385,-27.905865,85.823830,-64.379890,-63.213818,-39.722965,-10.320269,-15.025017,-10.146899,-47.934460,-13.169975,-32.815750,-101.106689,-461.069611,-278.896942,-101.580322,8064.000000,0.000000,4.000000,,,,0.000000,4.000000,4.000000,4.000000,4.000000,4.000000,4.000000,4.000000,4.000000,4.000000,4.000000,4.000000,4.000000,4.000000,4.000000,4.000000,4.000000,4.000000,4.000000,4.000000,4.000000,2.000000,4.000000,4.000000,4.000000,4.000000,4.000000,4.000000,4.000000,4.000000,4.000000,4.000000,4.000000,83.333336
1614044874.506319,115.000000,0.000000,-8.674748,-118.477150,-643.044800,-1143.486694,-390.275055,-798.716614,-472.782013,-9.565331,-1155.369385,-24.375738,-11.870190,-1.958761,10.584234,-0.283610,-45.567581,18.989408,-27.920094,-18.134369,79.071342,-61.238586,-54.945477,-35.580681,-2.104820,-20.651016,-11.162393,-48.912167,-12.643985,-32.782936,-117.928658,-466.249573,-278.105225,-101.478745,7936.000000,0.000000,4.000000,,,,0.000000,4.000000,4.000000,4.000000,4.000000,4.000000,4.000000,4.000000,4.000000,4.000000,4.000000,4.000000,4.000000,4.000000,4.000000,4.000000,4.000000,4.000000,4.000000,4.000000,4.000000,2.000000,4.000000,4.000000,4.000000,4.000000,4.000000,4.000000,4.000000,4.000000,4.000000,4.000000,4.000000,83.333336
1614044874.513968,116.000000,0.000000,-8.666074,-122.974060,-650.606873,-1145.420166,-402.192474,-798.943542,-472.822052,-7.504484,-1152.162720,-25.889824,-9.807037,8.812428,21.855701,-1.308967,-43.470730,22.047342,-15.584481,9.063253,111.812782,-36.049141,-32.839249,-22.211765,1.999849,-21.143187,-2.946102,-47.837612,-10.580059,-32.750153,-114.733810,-462.706390,-278.339935,-105.992645,7552.000000,0.000000,4.000000,,,,0.000000,4.000000,4.000000,4.000000,4.000000,4.000000,4.000000,4.000000,4.000000,4.000000,4.000000,4.000000,4.000000,4.000000,4.000000,4.000000,4.000000,4.000000,4.000000,4.000000,4.000000,2.000000,4.000000,4.000000,4.000000,4.000000,4.000000,4.000000,4.000000,4.000000,4.000000,4.000000,4.000000,83.333336
1614044874.521717,117.000000,0.000000,-9.170228,-126.440826,-650.981934,-1140.172119,-407.944122,-800.195862,-472.349243,-8.522621,-1148.959229,-34.069061,-7.233128,-4.529717,12.090256,-1.307659,-42.914440,22.538115,-13.517614,10.592651,123.495842,-19.602837,-18.447435,-15.010066,0.459388,-10.865633,11.928638,-48.302593,-9.543839,-32.717403,-106.413948,-451.474457,-275.497498,-111.527679,7808.000000,0.000000,4.000000,,,,0.000000,4.000000,4.000000,4.000000,4.000000,4.000000,4.000000,4.000000,4.000000,4.000000,4.000000,4.000000,4.000000,4.000000,4.000000,4.000000,4.000000,4.000000,4.000000,4.000000,4.000000,2.000000,4.000000,4.000000,4.000000,4.000000,4.000000,4.000000,4.000000,4.000000,4.000000,4.000000,4.000000,83.333336
1614044874.529366,118.000000,0.000000,-9.161057,-127.340027,-644.689880,-1124.160156,-393.690002,-793.754639,-469.825623,-8.514098,-1132.938477,-31.470890,-7.225894,-22.473906,-1.767989,-1.306351,-50.051014,16.874552,-19.145123,-17.110249,91.064651,-31.378105,-20.993092,-16.533518,0.971749,1.452925,9.352608,-48.767113,-9.021474,-32.684685,-106.307533,-448.971710,-268.555328,-109.877693,7168.000000,0.000000,4.000000,,,,0.000000,4.000000,4.000000,4.000000,4.000000,4.000000,4.000000,4.000000,4.000000,4.000000,4.000000,4.000000,4.000000,4.000000,4.000000,4.000000,4.000000,4.000000,4.000000,4.000000,4.000000,2.000000,4.000000,4.000000,4.000000,4.000000,4.000000,4.000000,4.000000,4.000000,4.000000,4.000000,4.000000,83.333336
