title:25, start timestamp:1614045104.240392, stop timestamp:1614045150.277880, headset type:EPOCFLEX, headset serial:F00001ED, headset firmware:f12, subject name:s06, channels:75, sampling rate:128, samples:5942      , version:2.0
Timestamp,EEG.Counter,EEG.Interpolated,EEG.Cz,EEG.Fz,EEG.Fp1,EEG.AF3,EEG.F7,EEG.F3,EEG.FC1,EEG.C3,EEG.FC5,EEG.T7,EEG.CP5,EEG.CP1,EEG.P3,EEG.P7,EEG.PO3,EEG.O1,EEG.Pz,EEG.Oz,EEG.O2,EEG.PO4,EEG.P8,EEG.P4,EEG.CP2,EEG.CP6,EEG.T8,EEG.FC6,EEG.C4,EEG.FC2,EEG.F4,EEG.F8,EEG.AF4,EEG.Fp2,EEG.HighBitFlex,EEG.RawCq,EEG.Battery,MarkerIndex,MarkerType,MarkerValueInt,EEG.MarkerHardware,CQ.Cz,CQ.Fz,CQ.Fp1,CQ.AF3,CQ.F7,CQ.F3,CQ.FC1,CQ.C3,CQ.FC5,CQ.T7,CQ.CP5,CQ.CP1,CQ.P3,CQ.P7,CQ.PO3,CQ.O1,CQ.Pz,CQ.Oz,CQ.O2,CQ.PO4,CQ.P8,CQ.P4,CQ.CP2,CQ.CP6,CQ.T8,CQ.FC6,CQ.C4,CQ.FC2,CQ.F4,CQ.F8,CQ.AF4,CQ.Fp2,CQ.Overall
1614045104.240392,66.000000,0.000000,-4.879779,-2.689308,-92.397186,-3.957171,-18.098690,9.144775,-4.232766,2.999166,0.440565,2.749162,-5.181211,-3.894644,6.378650,-7.265087,-24.260950,8.449962,-1.515159,-5.789145,-98.004395,-74.472954,-40.905941,-9.217978,-12.001147,-9.393994,-15.360806,-21.450663,-12.748769,-12.021585,0.721015,2.246320,-0.666014,18.363213,0.000000,212.000000,4.000000,,,,0.000000,4.000000,4.000000,4.000000,4.000000,4.000000,4.000000,4.000000,4.000000,4.000000,4.000000,4.000000,4.000000,4.000000,4.000000,4.000000,4.000000,4.000000,4.000000,4.000000,4.000000,4.000000,4.000000,4.000000,4.000000,4.000000,4.000000,4.000000,4.000000,4.000000,4.000000,4.000000,4.000000,100.000000
1614045104.248241,67.000000,0.000000,1.791768,-2.686618,-89.740685,-3.440393,-23.721617,8.622810,-4.228533,4.534629,3.004227,3.772054,-0.560646,20.724634,27.397913,5.562691,1.404337,41.262024,16.435074,17.293568,-65.085876,-41.577969,-14.198368,19.509190,6.985213,-18.102549,3.116094,-7.070238,-5.556533,-7.907000,0.207473,2.756894,-0.665348,18.344849,0.000000,175.000000,4.000000,,,,0.000000,4.000000,4.000000,4.000000,4.000000,4.000000,4.000000,4.000000,4.000000,4.000000,4.000000,4.000000,4.000000,4.000000,4.000000,4.000000,4.000000,4.000000,4.000000,4.000000,4.000000,4.000000,4.000000,4.000000,4.000000,4.000000,4.000000,4.000000,4.000000,4.000000,4.000000,4.000000,4.000000,100.000000
1614045104.255990,68.000000,0.000000,6.918181,-2.683932,-81.445816,-2.924132,-19.595331,9.127007,-4.737125,4.017273,4.026864,5.306744,4.055300,5.832116,35.575642,21.454565,28.582420,74.041275,35.905819,43.430119,-35.790024,-10.254340,15.046599,45.130707,17.747458,2.941194,17.984772,13.962473,2.141332,-4.822169,2.771369,2.241316,-0.151862,19.352144,0.000000,173.000000,4.000000,,,,0.000000,4.000000,4.000000,4.000000,4.000000,4.000000,4.000000,4.000000,4.000000,4.000000,4.000000,4.000000,4.000000,4.000000,4.000000,4.000000,4.000000,4.000000,4.000000,4.000000,4.000000,4.000000,4.000000,4.000000,4.000000,4.000000,4.000000,4.000000,4.000000,4.000000,4.000000,4.000000,4.000000,100.000000
1614045104.263839,69.000000,0.000000,3.321519,-3.194068,-80.851547,-3.434028,-18.037273,8.605061,-4.732388,1.449154,0.945914,-2.390871,1.487142,-11.096793,17.078527,15.279263,20.348709,41.659542,25.613503,40.822586,-31.651670,-4.090240,26.313604,50.726601,13.114326,30.117741,18.992430,15.999793,5.216114,-4.304527,6.358341,6.341639,-0.664531,19.332792,0.000000,199.000000,4.000000,,,,0.000000,4.000000,4.000000,4.000000,4.000000,4.000000,4.000000,4.000000,4.000000,4.000000,4.000000,4.000000,4.000000,4.000000,4.000000,4.000000,4.000000,4.000000,4.000000,4.000000,4.000000,4.000000,4.000000,4.000000,4.000000,4.000000,4.000000,4.000000,4.000000,4.000000,4.000000,4.000000,4.000000,100.000000
1614045104.271588,70.000000,0.000000,2.292557,-3.190874,-81.796341,-2.404953,-16.993595,8.083634,1.426191,3.498987,2.996250,-3.414121,-0.565627,3.786098,17.061449,10.648600,9.559130,27.771729,14.305838,42.833046,-26.491814,-4.086149,26.800112,51.188694,11.562751,36.754288,19.999077,14.958152,6.749359,-2.248940,9.428905,16.078888,-1.176687,18.800640,0.000000,185.000000,4.000000,,,,0.000000,4.000000,4.000000,4.000000,4.000000,4.000000,4.000000,4.000000,4.000000,4.000000,4.000000,4.000000,4.000000,4.000000,4.000000,4.000000,4.000000,4.000000,4.000000,4.000000,4.000000,4.000000,4.000000,4.000000,4.000000,4.000000,4.000000,4.000000,4.000000,4.000000,4.000000,4.000000,4.000000,100.000000
1614045104.279437,71.000000,0.000000,5.880008,-2.674863,-80.176079,0.161554,-14.925321,9.101192,7.065790,5.546770,8.121459,10.948268,1.999041,18.141287,37.557209,23.458464,19.805981,60.564468,23.522301,53.046623,-34.157627,-10.235909,19.593824,48.060581,13.602469,35.691895,18.440617,14.430373,4.691328,-0.195409,9.419477,18.626911,-0.662690,19.294659,0.000000,183.000000,4.000000,,,,0.000000,4.000000,4.000000,4.000000,4.000000,4.000000,4.000000,4.000000,4.000000,4.000000,4.000000,4.000000,4.000000,4.000000,4.000000,4.000000,4.000000,4.000000,4.000000,4.000000,4.000000,4.000000,4.000000,4.000000,4.000000,4.000000,4.000000,4.000000,4.000000,4.000000,4.000000,4.000000,4.000000,100.000000
1614045104.287186,72.000000,0.000000,6.386949,-3.697829,-81.121544,1.187034,-16.448856,9.092091,6.545904,5.028402,9.138979,19.655268,5.073965,9.405196,37.006832,31.127314,25.427200,62.042366,25.037241,40.685886,-62.328598,-25.097469,4.189615,29.550983,11.024765,30.527996,7.140125,3.133892,-1.980031,-0.195214,7.871595,13.480079,0.363614,19.275364,0.000000,203.000000,4.000000,,,,0.000000,4.000000,4.000000,4.000000,4.000000,4.000000,4.000000,4.000000,4.000000,4.000000,4.000000,4.000000,4.000000,4.000000,4.000000,4.000000,4.000000,4.000000,4.000000,4.000000,4.000000,4.000000,4.000000,4.000000,4.000000,4.000000,4.000000,4.000000,4.000000,4.000000,4.000000,4.000000,4.000000,100.000000
1614045104.295035,73.000000,0.000000,5.867741,-2.668490,-77.963501,1.185847,-16.945229,8.570178,10.641922,6.561836,8.617020,17.071510,4.043250,3.754766,29.277517,29.557724,21.812031,43.518787,13.217331,29.363148,-61.753448,-36.354424,-5.045344,11.572715,8.449637,16.138494,-0.046502,-4.048729,-5.054974,-0.707839,5.812442,10.389675,-1.175211,19.256090,0.000000,197.000000,4.000000,,,,0.000000,4.000000,4.000000,4.000000,4.000000,4.000000,4.000000,4.000000,4.000000,4.000000,4.000000,4.000000,4.000000,4.000000,4.000000,4.000000,4.000000,4.000000,4.000000,4.000000,4.000000,4.000000,4.000000,4.000000,4.000000,4.000000,4.000000,4.000000,4.000000,4.000000,4.000000,4.000000,4.000000,100.000000
1614045104.302784,74.000000,0.000000,5.861873,5.026486,-69.680412,3.235943,-14.877001,12.151352,17.297947,8.606556,8.608402,17.054438,5.064847,9.392036,34.376446,36.707653,17.687654,49.629112,10.640011,34.974812,-43.230160,-48.112938,-6.065940,10.022681,7.928367,7.404408,3.030467,1.596345,-3.511457,-0.707131,6.319450,9.866466,0.877246,20.775295,0.000000,183.000000,4.000000,,,,0.000000,4.000000,4.000000,4.000000,4.000000,4.000000,4.000000,4.000000,4.000000,4.000000,4.000000,4.000000,4.000000,4.000000,4.000000,4.000000,4.000000,4.000000,4.000000,4.000000,4.000000,4.000000,4.000000,4.000000,4.000000,4.000000,4.000000,4.000000,4.000000,4.000000,4.000000,4.000000,4.000000,100.000000
1614045104.310633,75.000000,0.000000,5.856011,11.688127,-65.508163,7.848092,-13.836483,19.831509,19.331930,9.110769,8.599793,22.165588,9.675167,8.357003,29.213863,41.286331,4.849453,50.092304,6.526807,32.888554,-55.494621,-67.039185,-11.188079,10.012658,7.407619,7.397003,4.565898,4.671671,-3.507946,-0.706424,10.415694,11.907881,11.645599,26.395546,0.000000,201.000000,4.000000,,,,0.000000,4.000000,4.000000,4.000000,4.000000,4.000000,4.000000,4.000000,4.000000,4.000000,4.000000,4.000000,4.000000,4.000000,4.000000,4.000000,4.000000,4.000000,4.000000,4.000000,4.000000,4.000000,4.000000,4.000000,4.000000,4.000000,4.000000,4.000000,4.000000,4.000000,4.000000,4.000000,4.000000,100.000000
1614045104.318383,76.000000,0.000000,5.850155,12.189259,-63.391373,9.378705,-13.309826,19.811676,18.286959,9.614479,9.104014,19.579321,2.998826,1.681980,17.389776,23.296326,-5.924627,38.247341,-4.761771,26.188997,-76.464767,-79.792656,-20.920481,1.284697,4.836108,3.799862,3.535691,2.615718,-5.555720,-0.705718,12.456561,16.511358,19.326262,28.420431,0.000000,204.000000,4.000000,,,,0.000000,4.000000,4.000000,4.000000,4.000000,4.000000,4.000000,4.000000,4.000000,4.000000,4.000000,4.000000,4.000000,4.000000,4.000000,4.000000,4.000000,4.000000,4.000000,4.000000,4.000000,4.000000,4.000000,4.000000,4.000000,4.000000,4.000000,4.000000,4.000000,4.000000,4.000000,4.000000,4.000000,100.000000
1614045104.326232,77.000000,0.000000,5.844305,11.664248,-66.917725,2.189839,-17.911901,11.073916,17.243031,6.015121,4.992346,2.636665,-17.516994,1.680298,15.321105,-0.829534,-5.918702,27.952682,-6.808291,16.419220,-78.952408,-78.687225,-26.540586,-0.255050,3.805631,-2.870604,5.583438,3.125923,-2.473241,-0.705012,12.444104,17.007668,15.204371,21.212524,0.000000,182.000000,4.000000,,,,0.000000,4.000000,4.000000,4.000000,4.000000,4.000000,4.000000,4.000000,4.000000,4.000000,4.000000,4.000000,4.000000,4.000000,4.000000,4.000000,4.000000,4.000000,4.000000,4.000000,4.000000,4.000000,4.000000,4.000000,4.000000,4.000000,4.000000,4.000000,4.000000,4.000000,4.000000,4.000000,4.000000,100.000000
1614045104.333981,78.000000,0.000000,5.838461,12.678226,-89.414909,-7.555941,-30.714502,4.908996,13.636044,-1.170381,-4.756236,-18.391613,-33.396912,-0.372665,13.254502,-12.110756,-10.015347,6.899089,-4.750201,-5.135661,-78.360634,-63.736744,-18.821737,16.668282,5.853107,-4.919015,3.013752,4.148438,6.247181,-0.704307,12.431661,14.426557,10.060962,10.934901,0.000000,189.000000,4.000000,,,,0.000000,4.000000,4.000000,4.000000,4.000000,4.000000,4.000000,4.000000,4.000000,4.000000,4.000000,4.000000,4.000000,4.000000,4.000000,4.000000,4.000000,4.000000,4.000000,4.000000,4.000000,4.000000,4.000000,4.000000,4.000000,4.000000,4.000000,4.000000,4.000000,4.000000,4.000000,4.000000,4.000000,100.000000
1614045104.341630,79.000000,0.000000,5.832623,11.127086,-108.812675,-13.189410,-40.427376,5.416907,9.007023,-3.220493,-10.905326,-28.116812,-34.901978,-3.449215,9.138683,-12.611465,-5.389947,-1.825758,-2.694169,-0.002321,-61.872013,-37.006340,4.786828,40.241356,7.898536,4.316673,-0.066185,4.144289,11.369139,-0.703603,12.419229,13.899309,11.589362,8.359864,0.000000,204.000000,4.000000,,,,0.000000,4.000000,4.000000,4.000000,4.000000,4.000000,4.000000,4.000000,4.000000,4.000000,4.000000,4.000000,4.000000,4.000000,4.000000,4.000000,4.000000,4.000000,4.000000,4.000000,4.000000,4.000000,4.000000,4.000000,4.000000,4.000000,4.000000,4.000000,4.000000,4.000000,4.000000,4.000000,4.000000,100.000000
1614045104.349379,80.000000,0.000000,5.826790,8.551856,-103.062836,-13.689041,-40.899769,5.411490,6.946733,-2.191631,-10.381599,-26.550232,-31.277332,4.246542,10.668006,-10.034752,16.666725,20.227350,9.616218,31.279734,-35.143475,-12.866770,27.346144,53.021629,8.403459,24.825176,9.677471,6.704247,11.870590,-0.702899,12.406810,14.911052,10.552133,7.838684,0.000000,163.000000,4.000000,,,,0.000000,4.000000,4.000000,4.000000,4.000000,4.000000,4.000000,4.000000,4.000000,4.000000,4.000000,4.000000,4.000000,4.000000,4.000000,4.000000,4.000000,4.000000,4.000000,4.000000,4.000000,4.000000,4.000000,4.000000,4.000000,4.000000,4.000000,4.000000,4.000000,4.000000,4.000000,4.000000,4.000000,100.000000
1614045104.357028,81.000000,0.000000,5.820963,8.030484,-93.216187,-14.188173,-39.833229,4.893259,6.426966,-2.189440,-9.858397,-23.959579,-28.169132,4.242295,12.195800,-5.922153,22.291084,29.437891,20.888653,31.248453,-38.185257,-4.135954,33.472645,55.532711,9.420696,39.672146,16.334459,8.236005,13.910002,-0.702196,12.907223,13.870500,5.413375,3.728281,0.000000,203.000000,4.000000,,,,0.000000,4.000000,4.000000,4.000000,4.000000,4.000000,4.000000,4.000000,4.000000,4.000000,4.000000,4.000000,4.000000,4.000000,4.000000,4.000000,4.000000,4.000000,4.000000,4.000000,4.000000,4.000000,4.000000,4.000000,4.000000,4.000000,4.000000,4.000000,4.000000,4.000000,4.000000,4.000000,4.000000,100.000000
1614045104.364777,82.000000,0.000000,6.327962,6.996812,-94.661430,-14.173985,-40.306217,4.888365,6.420539,-2.700070,-10.361360,-25.474081,-25.576860,-11.659383,10.645143,-3.864949,8.935459,20.690504,16.765200,18.909513,-52.506046,-1.567716,27.285324,50.348972,8.898455,39.632473,5.548895,7.202128,15.947373,-0.701494,11.868675,7.702783,2.331038,0.647629,0.000000,199.000000,4.000000,,,,0.000000,4.000000,4.000000,4.000000,4.000000,4.000000,4.000000,4.000000,4.000000,4.000000,4.000000,4.000000,4.000000,4.000000,4.000000,4.000000,4.000000,4.000000,4.000000,4.000000,4.000000,4.000000,4.000000,4.000000,4.000000,4.000000,4.000000,4.000000,4.000000,4.000000,4.000000,4.000000,4.000000,100.000000
1614045104.372426,83.000000,0.000000,4.783173,4.938533,-95.592407,-14.159811,-40.265911,4.883477,6.414119,-2.184550,-11.376639,-27.499889,-25.551283,-9.596441,9.608856,-3.861084,5.336780,28.874943,12.133050,31.711117,-51.940720,-9.258455,17.514450,36.965290,2.222890,34.464638,-3.687423,4.630823,12.341682,-1.213613,8.779883,-1.022869,3.354348,0.646982,0.000000,200.000000,4.000000,,,,0.000000,4.000000,4.000000,4.000000,4.000000,4.000000,4.000000,4.000000,4.000000,4.000000,4.000000,4.000000,4.000000,4.000000,4.000000,4.000000,4.000000,4.000000,4.000000,4.000000,4.000000,4.000000,4.000000,4.000000,4.000000,4.000000,4.000000,4.000000,4.000000,4.000000,4.000000,4.000000,4.000000,100.000000
1614045104.380175,84.000000,0.000000,2.214287,3.907954,-93.958359,-13.632831,-39.712826,5.904234,6.407705,-2.182365,-13.416545,-26.446749,-25.525732,10.925976,8.060786,-4.370043,5.844264,34.487095,10.069635,26.551199,-65.734932,-34.377403,2.112320,24.107811,-2.394718,25.712223,-2.658095,1.549269,5.149854,-0.699579,8.258283,-4.611589,3.350994,1.671976,0.000000,203.000000,4.000000,,,,0.000000,4.000000,4.000000,4.000000,4.000000,4.000000,4.000000,4.000000,4.000000,4.000000,4.000000,4.000000,4.000000,4.000000,4.000000,4.000000,4.000000,4.000000,4.000000,4.000000,4.000000,4.000000,4.000000,4.000000,4.000000,4.000000,4.000000,4.000000,4.000000,4.000000,4.000000,4.000000,4.000000,100.000000
1614045104.387825,85.000000,0.000000,1.699252,4.416866,-92.838760,-13.619198,-39.160290,5.385509,6.914118,-1.667362,-13.403129,-24.881840,-24.474566,-0.367002,7.539905,-2.314391,-0.828247,22.144915,-0.196845,0.370802,-89.771759,-56.907127,-17.889791,12.801653,-2.905144,12.865998,-7.270822,-2.042024,0.529319,-0.186059,10.301307,-4.606978,3.347643,2.183124,0.000000,171.000000,4.000000,,,,0.000000,4.000000,4.000000,4.000000,4.000000,4.000000,4.000000,4.000000,4.000000,4.000000,4.000000,4.000000,4.000000,4.000000,4.000000,4.000000,4.000000,4.000000,4.000000,4.000000,4.000000,4.000000,4.000000,4.000000,4.000000,4.000000,4.000000,4.000000,4.000000,4.000000,4.000000,4.000000,4.000000,100.000000
1614045104.395574,86.000000,0.000000,2.210374,4.412450,-92.233101,-13.605578,-39.121132,0.764740,6.907204,-2.691336,-12.876904,-27.421061,-24.962912,-29.084583,2.404160,-4.363358,-11.083829,14.430461,-11.478699,-1.680851,-83.528145,-63.004066,-28.128313,-1.057303,-7.517623,1.571081,-19.058422,-6.655366,-2.548133,-2.237155,6.701262,-6.140832,3.857116,0.129659,0.000000,190.000000,4.000000,,,,0.000000,4.000000,4.000000,4.000000,4.000000,4.000000,4.000000,4.000000,4.000000,4.000000,4.000000,4.000000,4.000000,4.000000,4.000000,4.000000,4.000000,4.000000,4.000000,4.000000,4.000000,4.000000,4.000000,4.000000,4.000000,4.000000,4.000000,4.000000,4.000000,4.000000,4.000000,4.000000,4.000000,100.000000
1614045104.403223,87.000000,0.000000,1.695343,3.895217,-94.704964,-13.079152,-39.594830,-1.800128,6.900296,-5.252748,-12.864028,-33.547485,-25.450768,-17.773447,-14.008501,-17.179508,-30.047104,2.621159,-18.133886,-3.217631,-72.162560,-69.094910,-27.587364,-9.261374,-14.176772,-7.661260,-23.141928,-10.751275,-4.084046,-4.286200,-1.510568,-9.211615,3.340438,-5.511496,0.000000,216.000000,4.000000,,,,0.000000,4.000000,4.000000,4.000000,4.000000,4.000000,4.000000,4.000000,4.000000,4.000000,4.000000,4.000000,4.000000,4.000000,4.000000,4.000000,4.000000,4.000000,4.000000,4.000000,4.000000,4.000000,4.000000,4.000000,4.000000,4.000000,4.000000,4.000000,4.000000,4.000000,4.000000,4.000000,4.000000,100.000000
1614045104.410972,88.000000,0.000000,2.206468,4.404142,-92.046158,-13.578894,-39.042416,3.329878,6.893396,-6.273136,-13.876804,-34.026760,-25.425318,3.269967,-20.661160,-27.418739,-46.427315,-13.278898,-21.192677,-21.675953,-88.500656,-76.718124,-33.200802,-8.739292,-14.675416,-14.320265,-20.041862,-11.766165,-4.592783,-2.743452,-3.560339,-8.176763,3.337098,-7.044446,0.000000,202.000000,4.000000,,,,0.000000,4.000000,4.000000,4.000000,4.000000,4.000000,4.000000,4.000000,4.000000,4.000000,4.000000,4.000000,4.000000,4.000000,4.000000,4.000000,4.000000,4.000000,4.000000,4.000000,4.000000,4.000000,4.000000,4.000000,4.000000,4.000000,4.000000,4.000000,4.000000,4.000000,4.000000,4.000000,4.000000,100.000000
1614045104.418621,89.000000,0.000000,4.768364,4.912559,-82.723343,-13.052494,-39.003372,6.403471,6.886503,-6.266862,-12.324467,-28.864527,-24.887072,-14.682021,-9.871267,-25.852858,-38.688580,-6.086132,-18.094561,-16.013250,-104.822411,-78.179863,-47.526577,-7.704911,-13.635099,-14.305944,-24.124386,-12.780040,-5.613831,-0.176606,1.571426,-6.630124,4.359402,-4.986120,0.000000,198.000000,4.000000,,,,0.000000,4.000000,4.000000,4.000000,4.000000,4.000000,4.000000,4.000000,4.000000,4.000000,4.000000,4.000000,4.000000,4.000000,4.000000,4.000000,4.000000,4.000000,4.000000,4.000000,4.000000,4.000000,4.000000,4.000000,4.000000,4.000000,4.000000,4.000000,4.000000,4.000000,4.000000,4.000000,4.000000,100.000000
1614045104.426370,90.000000,0.000000,5.789237,2.856364,-87.256004,-12.526621,-42.041290,2.294503,6.879616,-5.747775,-13.337783,-33.963867,-28.451929,-28.000673,-5.246011,-33.006493,-27.367838,-3.515943,-12.435440,-8.817750,-102.153488,-77.076042,-57.735458,-7.184386,-14.647105,-18.394203,-39.484875,-17.382645,-7.659499,-1.714891,-1.507068,-12.264520,0.765299,-12.160621,0.000000,213.000000,4.000000,,,,0.000000,4.000000,4.000000,4.000000,4.000000,4.000000,4.000000,4.000000,4.000000,4.000000,4.000000,4.000000,4.000000,4.000000,4.000000,4.000000,4.000000,4.000000,4.000000,4.000000,4.000000,4.000000,4.000000,4.000000,4.000000,4.000000,4.000000,4.000000,4.000000,4.000000,4.000000,4.000000,4.000000,100.000000
1614045104.434019,91.000000,0.000000,5.783448,0.802225,-108.707214,-16.616659,-46.101814,-2.323176,6.872736,-5.742027,-19.991112,-42.135033,-34.577324,-2.331646,-6.266407,-47.332462,-34.519958,-31.717556,-11.397364,-33.937138,-101.538513,-75.973328,-51.523876,-8.715663,-12.581177,-29.145039,-42.522316,-19.416544,-8.677481,-4.277278,-10.736330,-19.944563,-5.902133,-20.353588,0.000000,202.000000,4.000000,,,,0.000000,4.000000,4.000000,4.000000,4.000000,4.000000,4.000000,4.000000,4.000000,4.000000,4.000000,4.000000,4.000000,4.000000,4.000000,4.000000,4.000000,4.000000,4.000000,4.000000,4.000000,4.000000,4.000000,4.000000,4.000000,4.000000,4.000000,4.000000,4.000000,4.000000,4.000000,4.000000,4.000000,100.000000
1614045104.441868,92.000000,0.000000,5.777664,0.288603,-115.777992,-20.702606,-47.594173,-2.320853,6.865864,-6.249106,-24.586506,-35.939053,-31.978643,15.106583,7.073193,-36.003078,-31.408516,-34.249939,-4.719300,-39.031406,-106.052361,-69.230690,-29.421072,-2.040281,-8.978851,-23.987690,-25.043894,-12.730460,-3.027778,-4.785822,-8.674312,-15.309234,-8.460334,-18.794773,0.000000,193.000000,4.000000,,,,0.000000,4.000000,4.000000,4.000000,4.000000,4.000000,4.000000,4.000000,4.000000,4.000000,4.000000,4.000000,4.000000,4.000000,4.000000,4.000000,4.000000,4.000000,4.000000,4.000000,4.000000,4.000000,4.000000,4.000000,4.000000,4.000000,4.000000,4.000000,4.000000,4.000000,4.000000,4.000000,4.000000,100.000000
1614045104.449617,93.000000,0.000000,5.771886,0.801134,-102.841698,-18.630621,-46.520939,-1.805711,6.858998,-5.730036,-21.484995,-26.672342,-19.638971,2.783784,23.476376,-6.736305,-1.633517,-1.395178,6.054650,-6.171861,-96.202721,-53.264019,-2.724984,23.602785,-1.790385,-2.425240,-5.018851,-2.974140,4.667558,-3.755395,0.052311,-4.524693,-7.426232,-11.083671,0.000000,176.000000,4.000000,,,,0.000000,4.000000,4.000000,4.000000,4.000000,4.000000,4.000000,4.000000,4.000000,4.000000,4.000000,4.000000,4.000000,4.000000,4.000000,4.000000,4.000000,4.000000,4.000000,4.000000,4.000000,4.000000,4.000000,4.000000,4.000000,4.000000,4.000000,4.000000,4.000000,4.000000,4.000000,4.000000,4.000000,100.000000
1614045104.457466,94.000000,0.000000,6.791756,0.800333,-92.995270,-17.586349,-46.987240,-2.316726,6.852139,-1.621742,-19.925049,-26.132851,-12.952666,-3.372846,27.042645,5.065303,21.445040,31.426729,9.638339,26.654823,-64.824463,-28.595371,14.713638,46.656105,7.954995,16.551544,7.293860,3.182680,7.739813,-1.700357,2.103541,-4.520169,-7.418806,-5.431561,0.000000,198.000000,4.000000,,,,0.000000,4.000000,4.000000,4.000000,4.000000,4.000000,4.000000,4.000000,4.000000,4.000000,4.000000,4.000000,4.000000,4.000000,4.000000,4.000000,4.000000,4.000000,4.000000,4.000000,4.000000,4.000000,4.000000,4.000000,4.000000,4.000000,4.000000,4.000000,4.000000,4.000000,4.000000,4.000000,4.000000,100.000000
1614045104.465215,95.000000,0.000000,8.836246,0.286712,-93.927917,-17.568764,-48.478714,-3.340050,6.332466,1.969623,-20.930765,-20.465693,-14.990995,3.810014,26.502781,3.521777,22.449236,36.523510,12.192803,41.499962,-31.939127,-7.028315,24.955336,50.199192,14.100885,28.842686,17.030157,7.794882,9.783356,-0.673016,0.562976,-3.490008,-8.437028,-0.810745,0.000000,194.000000,4.000000,,,,0.000000,4.000000,4.000000,4.000000,4.000000,4.000000,4.000000,4.000000,4.000000,4.000000,4.000000,4.000000,4.000000,4.000000,4.000000,4.000000,4.000000,4.000000,4.000000,4.000000,4.000000,4.000000,4.000000,4.000000,4.000000,4.000000,4.000000,4.000000,4.000000,4.000000,4.000000,4.000000,4.000000,100.000000
1614045104.473064,96.000000,0.000000,9.340230,0.799246,-94.859627,-9.858887,-42.789207,-0.772608,6.326134,1.454833,-16.294449,-7.624713,-12.924723,6.370307,29.040380,8.133639,21.401146,27.256216,16.795996,42.484104,-22.163597,-3.431543,31.084225,50.661816,13.061144,39.583073,21.115690,12.402472,11.312034,-0.672343,3.639336,7.795534,-7.915771,1.754168,8064.000000,0.000000,4.000000,,,,0.000000,4.000000,4.000000,4.000000,4.000000,4.000000,4.000000,4.000000,4.000000,4.000000,4.000000,4.000000,4.000000,4.000000,4.000000,4.000000,4.000000,4.000000,4.000000,4.000000,4.000000,4.000000,4.000000,4.000000,4.000000,4.000000,4.000000,4.000000,4.000000,4.000000,4.000000,4.000000,4.000000,100.000000
1614045104.480814,97.000000,0.000000,9.843710,0.798447,-90.149384,-2.156720,-29.413086,2.305088,6.832628,1.453378,-10.124310,-1.976063,-6.245131,4.312654,29.011339,13.253711,21.892565,15.946908,13.702276,25.005724,-34.449127,-19.325546,24.899296,47.021408,8.945518,44.671696,18.530472,11.877249,5.659696,-0.671671,5.686978,10.351841,-7.395034,1.752414,8064.000000,0.000000,4.000000,,,,0.000000,4.000000,4.000000,4.000000,4.000000,4.000000,4.000000,4.000000,4.000000,4.000000,4.000000,4.000000,4.000000,4.000000,4.000000,4.000000,4.000000,4.000000,4.000000,4.000000,4.000000,4.000000,4.000000,4.000000,4.000000,4.000000,4.000000,4.000000,4.000000,4.000000,4.000000,4.000000,4.000000,100.000000
1614045104.488663,98.000000,0.000000,9.321046,0.797649,-82.879745,-2.667384,-23.742647,0.764321,5.287334,1.451925,-10.114185,-4.538189,-6.751706,4.308342,23.854124,11.701996,6.486057,11.828397,5.483446,15.749949,-40.568523,-38.793400,9.489780,26.974388,5.859650,42.062920,13.383737,6.224346,-0.499810,-0.670999,6.194112,3.674822,-8.413280,0.725020,8064.000000,0.000000,4.000000,,,,0.000000,4.000000,4.000000,4.000000,4.000000,4.000000,4.000000,4.000000,4.000000,4.000000,4.000000,4.000000,4.000000,4.000000,4.000000,4.000000,4.000000,4.000000,4.000000,4.000000,4.000000,4.000000,4.000000,4.000000,4.000000,4.000000,4.000000,4.000000,4.000000,4.000000,4.000000,4.000000,4.000000,100.000000
1614045104.496412,99.000000,0.000000,5.209161,0.284030,-81.771225,-0.613435,-25.257366,1.789198,2.205124,0.937652,-9.078429,-4.533651,-11.360339,5.329674,16.650782,11.177473,-13.520430,18.483236,0.349757,29.067532,-45.656158,-49.011017,-0.263299,14.126901,4.315329,31.251627,8.242147,5.192481,2.577613,-0.670328,9.264841,5.722429,-6.866405,4.314039,8064.000000,0.000000,4.000000,,,,0.000000,4.000000,4.000000,4.000000,4.000000,4.000000,4.000000,4.000000,4.000000,4.000000,4.000000,4.000000,4.000000,4.000000,4.000000,4.000000,4.000000,4.000000,4.000000,4.000000,4.000000,4.000000,4.000000,4.000000,4.000000,4.000000,4.000000,4.000000,4.000000,4.000000,4.000000,4.000000,4.000000,100.000000
1614045104.504261,100.000000,0.000000,3.152670,1.822208,-81.176636,7.079486,-16.001339,11.530998,4.254200,5.552099,0.161418,-0.426553,-9.810517,4.298704,11.505926,10.653475,-18.635115,19.490393,-1.189054,31.089746,-60.995121,-49.987648,-1.288677,21.805080,4.823834,19.938324,8.233905,9.802672,7.190420,-0.669658,13.870960,12.896194,2.371230,12.514853,8064.000000,0.000000,4.000000,,,,0.000000,4.000000,4.000000,4.000000,4.000000,4.000000,4.000000,4.000000,4.000000,4.000000,4.000000,4.000000,4.000000,4.000000,4.000000,4.000000,4.000000,4.000000,4.000000,4.000000,4.000000,4.000000,4.000000,4.000000,4.000000,4.000000,4.000000,4.000000,4.000000,4.000000,4.000000,4.000000,4.000000,100.000000
1614045104.512010,101.000000,0.000000,7.252081,4.384488,-70.839050,9.123689,-0.600723,20.237415,9.378151,11.187572,8.366385,2.650796,-5.185322,4.294405,10.981600,5.514616,-18.103659,4.086287,-0.675045,13.109939,-70.164894,-53.014584,-6.928414,22.808916,4.306190,18.379925,11.302594,9.792870,6.670409,-0.668988,15.908372,15.447401,10.061167,19.681826,8064.000000,0.000000,4.000000,,,,0.000000,4.000000,4.000000,4.000000,4.000000,4.000000,4.000000,4.000000,4.000000,4.000000,4.000000,4.000000,4.000000,4.000000,4.000000,4.000000,4.000000,4.000000,4.000000,4.000000,4.000000,4.000000,4.000000,4.000000,4.000000,4.000000,4.000000,4.000000,4.000000,4.000000,4.000000,4.000000,4.000000,100.000000
1614045104.519859,102.000000,0.000000,10.321753,4.380104,-62.563080,8.088924,0.425519,20.730000,10.907235,12.714847,9.383659,2.648145,-6.205778,5.828572,11.483438,-1.157565,-24.752222,-19.507542,-0.161549,-8.441633,-76.248573,-65.269264,-26.921486,10.991237,4.814704,17.848724,7.188728,4.654872,6.663739,-0.668319,15.379642,13.893492,11.076746,20.687784,8064.000000,0.000000,4.000000,,,,0.000000,4.000000,4.000000,4.000000,4.000000,4.000000,4.000000,4.000000,4.000000,4.000000,4.000000,4.000000,4.000000,4.000000,4.000000,4.000000,4.000000,4.000000,4.000000,4.000000,4.000000,4.000000,4.000000,4.000000,4.000000,4.000000,4.000000,4.000000,4.000000,4.000000,4.000000,4.000000,4.000000,100.000000
1614045104.527608,103.000000,0.000000,8.772969,3.862903,-64.551796,8.593656,-6.241573,19.683628,9.870687,11.676491,8.348635,1.107036,-11.327777,3.258641,11.471955,-10.899997,-33.445419,-39.488033,-1.187029,-34.074219,-102.326172,-82.127068,-49.458668,3.287937,4.809889,6.548824,-9.741538,1.060474,7.169896,-0.667651,12.800160,7.725752,10.552849,17.077353,8064.000000,0.000000,4.000000,,,,0.000000,4.000000,4.000000,4.000000,4.000000,4.000000,4.000000,4.000000,4.000000,4.000000,4.000000,4.000000,4.000000,4.000000,4.000000,4.000000,4.000000,4.000000,4.000000,4.000000,4.000000,4.000000,4.000000,4.000000,4.000000,4.000000,4.000000,4.000000,4.000000,4.000000,4.000000,4.000000,4.000000,100.000000
1614045104.535457,104.000000,0.000000,8.764196,4.884681,-68.589813,7.559421,-6.748152,19.151125,10.373636,12.177635,7.314645,-1.458174,-12.342091,-0.334361,11.460484,-21.658327,-31.873510,-45.602394,-0.160200,-44.809372,-118.634102,-86.660324,-51.973309,1.746188,4.805079,-8.329520,-22.039488,-0.991869,7.162725,-0.666983,11.761720,2.077001,11.055117,11.932071,8064.000000,0.000000,4.000000,,,,0.000000,4.000000,4.000000,4.000000,4.000000,4.000000,4.000000,4.000000,4.000000,4.000000,4.000000,4.000000,4.000000,4.000000,4.000000,4.000000,4.000000,4.000000,4.000000,4.000000,4.000000,4.000000,4.000000,4.000000,4.000000,4.000000,4.000000,4.000000,4.000000,4.000000,4.000000,4.000000,4.000000,100.000000
1614045104.543206,105.000000,0.000000,9.781073,3.854156,-71.598145,4.987759,-5.715763,16.567871,10.876083,12.165458,5.256048,-2.482357,-6.175902,8.383922,19.141331,-16.508465,-11.841638,-27.608072,13.173293,-16.046616,-85.694954,-61.958282,-27.818773,14.564955,7.364377,-8.321190,-10.222577,1.573225,8.181204,-0.666316,12.262778,4.126205,11.044062,8.330395,8064.000000,0.000000,4.000000,,,,0.000000,4.000000,4.000000,4.000000,4.000000,4.000000,4.000000,4.000000,4.000000,4.000000,4.000000,4.000000,4.000000,4.000000,4.000000,4.000000,4.000000,4.000000,4.000000,4.000000,4.000000,4.000000,4.000000,4.000000,4.000000,4.000000,4.000000,4.000000,4.000000,4.000000,4.000000,4.000000,4.000000,100.000000
1614045104.550855,106.000000,0.000000,9.258471,4.363122,-68.449623,6.008412,-6.735688,15.012841,10.352386,12.153292,4.737972,4.699613,5.112325,19.144770,37.583729,11.713173,19.965076,5.240048,27.519094,16.789944,-52.788746,-29.075809,5.029559,42.242699,11.459577,12.712772,13.890209,7.725498,12.788407,-1.178470,12.250516,8.737464,10.520197,7.809244,8064.000000,0.000000,4.000000,,,,0.000000,4.000000,4.000000,4.000000,4.000000,4.000000,4.000000,4.000000,4.000000,4.000000,4.000000,4.000000,4.000000,4.000000,4.000000,4.000000,4.000000,4.000000,4.000000,4.000000,4.000000,4.000000,4.000000,4.000000,4.000000,4.000000,4.000000,4.000000,4.000000,4.000000,4.000000,4.000000,4.000000,100.000000
1614045104.558604,107.000000,0.000000,9.249213,8.974143,-57.611942,10.104968,-5.190491,16.023470,10.342034,14.705241,4.733234,17.002605,12.799520,15.023060,54.982040,38.368126,41.996391,38.055321,29.030037,45.491104,-38.889805,-8.021093,25.537350,56.046608,13.499399,35.264160,27.209652,11.307516,16.365362,-1.177292,11.725445,11.805650,10.509677,7.801435,8192.000000,0.000000,4.000000,,,,0.000000,4.000000,4.000000,4.000000,4.000000,4.000000,4.000000,4.000000,4.000000,4.000000,4.000000,4.000000,4.000000,4.000000,4.000000,4.000000,4.000000,4.000000,4.000000,4.000000,4.000000,4.000000,4.000000,4.000000,4.000000,4.000000,4.000000,4.000000,4.000000,4.000000,4.000000,4.000000,4.000000,100.000000
1614045104.566253,108.000000,0.000000,9.239964,12.042092,-50.887665,12.146145,-3.134018,16.007446,10.331693,16.228998,4.728500,22.626629,11.248260,7.315729,58.516804,45.509247,45.544140,38.530087,22.847160,43.907150,-54.748352,-13.654098,30.127197,45.221333,9.383335,43.946846,26.669622,10.783388,12.246433,-0.663294,12.226540,17.947691,10.499167,10.357737,8192.000000,0.000000,4.000000,,,,0.000000,4.000000,4.000000,4.000000,4.000000,4.000000,4.000000,4.000000,4.000000,4.000000,4.000000,4.000000,4.000000,4.000000,4.000000,4.000000,4.000000,4.000000,4.000000,4.000000,4.000000,4.000000,4.000000,4.000000,4.000000,4.000000,4.000000,4.000000,4.000000,4.000000,4.000000,4.000000,4.000000,100.000000
1614045104.574002,109.000000,0.000000,8.717903,11.517230,-52.375237,11.108358,-2.618064,14.965797,9.808540,15.699948,4.723772,20.552719,10.724191,8.846875,52.817261,42.899632,41.908852,19.517197,21.798672,35.658115,-49.052578,-19.281469,28.558609,35.945339,4.245747,41.851616,26.642952,10.772605,5.567520,-1.175451,12.214313,21.519485,10.488668,14.449943,8192.000000,0.000000,4.000000,,,,0.000000,4.000000,4.000000,4.000000,4.000000,4.000000,4.000000,4.000000,4.000000,4.000000,4.000000,4.000000,4.000000,4.000000,4.000000,4.000000,4.000000,4.000000,4.000000,4.000000,4.000000,4.000000,4.000000,4.000000,4.000000,4.000000,4.000000,4.000000,4.000000,4.000000,4.000000,4.000000,4.000000,100.000000
1614045104.581651,110.000000,0.000000,9.734826,11.505713,-52.322865,11.610070,-3.128266,16.489292,9.798732,15.684248,4.719049,21.044989,12.764749,8.325208,50.713161,44.908016,39.815662,26.164347,23.315334,41.263481,-25.413780,-16.698086,30.068512,37.960678,8.344066,38.220024,29.180412,11.274653,11.202978,-0.661455,12.202099,19.959505,10.478179,15.973954,8064.000000,0.000000,4.000000,,,,0.000000,4.000000,4.000000,4.000000,4.000000,4.000000,4.000000,4.000000,4.000000,4.000000,4.000000,4.000000,4.000000,4.000000,4.000000,4.000000,4.000000,4.000000,4.000000,4.000000,4.000000,4.000000,4.000000,4.000000,4.000000,4.000000,4.000000,4.000000,4.000000,4.000000,4.000000,4.000000,4.000000,100.000000
1614045104.589401,111.000000,0.000000,11.776374,11.494206,-50.732079,14.162562,-2.612318,21.088188,10.301753,15.668564,4.714329,24.613686,8.136599,3.188677,46.047062,44.863106,30.545076,34.343311,22.266378,42.247860,-28.978111,-27.450619,29.012802,38.435535,12.951106,35.104877,25.048668,10.750558,20.422544,3.954591,12.189897,18.401085,10.467701,15.445160,8064.000000,0.000000,4.000000,,,,0.000000,4.000000,4.000000,4.000000,4.000000,4.000000,4.000000,4.000000,4.000000,4.000000,4.000000,4.000000,4.000000,4.000000,4.000000,4.000000,4.000000,4.000000,4.000000,4.000000,4.000000,4.000000,4.000000,4.000000,4.000000,4.000000,4.000000,4.000000,4.000000,4.000000,4.000000,4.000000,4.000000,100.000000
1614045104.597050,112.000000,0.000000,13.303059,11.482713,-54.783909,14.661221,-2.609705,23.631203,9.778631,15.652895,4.709615,23.050611,-1.615127,4.723950,30.616402,30.972090,10.514532,8.667942,17.115908,18.615868,-61.256824,-48.448807,14.624814,34.294537,7.809950,33.531311,15.280029,10.739807,14.761096,7.027559,12.177707,14.792939,10.457233,15.429714,8064.000000,0.000000,4.000000,,,,0.000000,4.000000,4.000000,4.000000,4.000000,4.000000,4.000000,4.000000,4.000000,4.000000,4.000000,4.000000,4.000000,4.000000,4.000000,4.000000,4.000000,4.000000,4.000000,4.000000,4.000000,4.000000,4.000000,4.000000,4.000000,4.000000,4.000000,4.000000,4.000000,4.000000,4.000000,4.000000,4.000000,100.000000
1614045104.604799,113.000000,0.000000,12.776935,11.471230,-59.857330,12.082457,-4.658378,23.094751,9.768852,15.124422,4.192085,16.360893,-6.228897,9.334611,15.713989,10.428298,-7.957521,-18.520214,11.457766,-3.966850,-79.144287,-60.195232,-5.389811,28.619217,1.648294,28.369576,8.085262,10.216247,6.028387,7.020532,12.165529,7.598659,10.446776,15.414285,8064.000000,0.000000,4.000000,,,,0.000000,4.000000,4.000000,4.000000,4.000000,4.000000,4.000000,4.000000,4.000000,4.000000,4.000000,4.000000,4.000000,4.000000,4.000000,4.000000,4.000000,4.000000,4.000000,4.000000,4.000000,4.000000,4.000000,4.000000,4.000000,4.000000,4.000000,4.000000,4.000000,4.000000,4.000000,4.000000,4.000000,100.000000
1614045104.612448,114.000000,0.000000,12.764158,10.946939,-60.823116,11.044733,-7.217822,22.558836,13.348827,15.109298,4.187893,11.216328,-3.145745,2.145789,13.134173,3.238383,-11.539308,-19.014513,9.907846,-4.475704,-77.013863,-58.596573,-12.563908,27.564957,3.185107,18.084797,6.025895,10.206031,11.150563,6.500690,12.153363,5.539779,9.923509,14.886050,8064.000000,0.000000,4.000000,,,,0.000000,4.000000,4.000000,4.000000,4.000000,4.000000,4.000000,4.000000,4.000000,4.000000,4.000000,4.000000,4.000000,4.000000,4.000000,4.000000,4.000000,4.000000,4.000000,4.000000,4.000000,4.000000,4.000000,4.000000,4.000000,4.000000,4.000000,4.000000,4.000000,4.000000,4.000000,4.000000,4.000000,100.000000
1614045104.620197,115.000000,0.000000,12.751394,11.448812,-60.249474,11.033689,-7.723424,23.049097,17.438042,15.607009,4.696526,13.256393,-0.578497,-8.625587,15.685142,5.799247,-9.989306,-26.687807,10.410759,-8.573792,-88.731720,-56.999516,-9.987241,29.588675,5.746025,12.425686,7.045510,10.708645,18.831720,7.007010,12.141211,9.123982,9.913586,14.871164,8064.000000,0.000000,4.000000,,,,0.000000,4.000000,4.000000,4.000000,4.000000,4.000000,4.000000,4.000000,4.000000,4.000000,4.000000,4.000000,4.000000,4.000000,4.000000,4.000000,4.000000,4.000000,4.000000,4.000000,4.000000,4.000000,4.000000,4.000000,4.000000,4.000000,4.000000,4.000000,4.000000,4.000000,4.000000,4.000000,4.000000,100.000000
1614045104.627846,116.000000,0.000000,12.738643,14.001466,-59.676403,10.509834,-7.202880,22.513227,17.933424,15.078581,4.179008,12.730317,-3.142021,0.613807,13.618175,-4.462963,-20.748549,-58.968811,9.887527,-30.616501,-109.668625,-60.019440,-12.028536,27.507803,4.201817,14.464542,7.551285,10.185116,17.787247,6.487183,12.129069,9.627679,10.416492,15.369113,8064.000000,0.000000,4.000000,,,,0.000000,4.000000,4.000000,4.000000,4.000000,4.000000,4.000000,4.000000,4.000000,4.000000,4.000000,4.000000,4.000000,4.000000,4.000000,4.000000,4.000000,4.000000,4.000000,4.000000,4.000000,4.000000,4.000000,4.000000,4.000000,4.000000,4.000000,4.000000,4.000000,4.000000,4.000000,4.000000,4.000000,100.000000
1614045104.635595,117.000000,0.000000,12.725904,15.013105,-60.642368,12.037786,-7.708498,23.003534,16.889851,14.550682,4.174829,4.512458,-5.190161,16.510630,15.655838,-16.766191,-24.317543,-70.191895,11.928923,-37.252552,-110.071777,-52.779934,-6.888302,29.018757,4.197615,14.450078,6.518093,10.174931,17.769461,6.480696,12.116940,8.592410,9.380435,17.405025,8064.000000,0.000000,4.000000,,,,0.000000,4.000000,4.000000,4.000000,4.000000,4.000000,4.000000,4.000000,4.000000,4.000000,4.000000,4.000000,4.000000,4.000000,4.000000,4.000000,4.000000,4.000000,4.000000,4.000000,4.000000,4.000000,4.000000,4.000000,4.000000,4.000000,4.000000,4.000000,4.000000,4.000000,4.000000,4.000000,4.000000,100.000000
1614045104.643245,118.000000,0.000000,12.713178,14.998092,-56.479160,11.000107,-4.623867,25.031813,17.385780,18.638695,8.273218,2.456664,1.994517,11.365913,34.101723,-1.364810,5.963185,-37.301189,17.558020,-7.984529,-83.807861,-27.598949,17.221149,45.912815,7.270340,13.409986,11.126959,15.292961,20.828613,6.474215,12.104823,14.737664,10.909516,24.054287,8064.000000,0.000000,4.000000,,,,0.000000,4.000000,4.000000,4.000000,4.000000,4.000000,4.000000,4.000000,4.000000,4.000000,4.000000,4.000000,4.000000,4.000000,4.000000,4.000000,4.000000,4.000000,4.000000,4.000000,4.000000,4.000000,4.000000,4.000000,4.000000,4.000000,4.000000,4.000000,4.000000,4.000000,4.000000,4.000000,4.000000,100.000000
1614045104.650994,119.000000,0.000000,12.700465,17.034376,-43.089348,9.963466,5.124347,25.519602,17.368395,25.286724,11.341868,13.736259,15.325855,4.175060,55.606079,30.944246,38.777733,-4.443375,21.643024,24.843969,-50.903542,-2.443144,41.819313,62.789978,8.801532,28.781193,30.090191,21.431515,21.833426,6.467741,12.092718,27.030619,17.565273,33.773823,8192.000000,0.000000,4.000000,,,,0.000000,4.000000,4.000000,4.000000,4.000000,4.000000,4.000000,4.000000,4.000000,4.000000,4.000000,4.000000,4.000000,4.000000,4.000000,4.000000,4.000000,4.000000,4.000000,4.000000,4.000000,4.000000,4.000000,4.000000,4.000000,4.000000,4.000000,4.000000,4.000000,4.000000,4.000000,4.000000,4.000000,100.000000
1614045104.658643,120.000000,0.000000,12.687764,19.068624,-27.148823,19.184273,14.349992,28.571005,17.351027,27.312719,12.356168,25.004574,22.490017,17.504219,60.678680,47.323559,36.687675,9.407222,21.621382,37.126816,-26.750072,3.200324,49.469803,62.727188,8.279910,53.367794,45.444717,21.922903,21.298773,6.461273,12.080626,36.747177,22.163092,38.355434,8192.000000,0.000000,4.000000,,,,0.000000,4.000000,4.000000,4.000000,4.000000,4.000000,4.000000,4.000000,4.000000,4.000000,4.000000,4.000000,4.000000,4.000000,4.000000,4.000000,4.000000,4.000000,4.000000,4.000000,4.000000,4.000000,4.000000,4.000000,4.000000,4.000000,4.000000,4.000000,4.000000,4.000000,4.000000,4.000000,4.000000,100.000000
1614045104.666392,121.000000,0.000000,12.675076,18.536734,-23.531929,29.934319,16.386925,34.183460,17.333675,26.259766,13.882273,30.620594,21.954706,23.640560,56.515438,47.276234,25.881756,9.397815,21.599760,41.705074,-30.313066,-1.418261,44.292126,59.074718,8.271629,58.955452,37.194145,20.875340,21.277473,6.454812,12.068544,35.171970,21.628109,36.778618,8064.000000,0.000000,4.000000,,,,0.000000,4.000000,4.000000,4.000000,4.000000,4.000000,4.000000,4.000000,4.000000,4.000000,4.000000,4.000000,4.000000,4.000000,4.000000,4.000000,4.000000,4.000000,4.000000,4.000000,4.000000,4.000000,4.000000,4.000000,4.000000,4.000000,4.000000,4.000000,4.000000,4.000000,4.000000,4.000000,4.000000,100.000000
1614045104.674041,122.000000,0.000000,12.662401,18.518198,-30.687885,24.263359,14.832075,32.610817,17.316341,26.746326,14.894032,35.718178,22.445572,5.668202,57.997383,48.254601,37.137924,21.696110,22.603802,48.842857,-36.436600,-1.929663,36.555527,60.041286,9.289000,48.127266,22.797976,21.367285,21.256197,6.448357,12.056477,32.059875,21.093660,37.767479,8192.000000,0.000000,4.000000,,,,0.000000,4.000000,4.000000,4.000000,4.000000,4.000000,4.000000,4.000000,4.000000,4.000000,4.000000,4.000000,4.000000,4.000000,4.000000,4.000000,4.000000,4.000000,4.000000,4.000000,4.000000,4.000000,4.000000,4.000000,4.000000,4.000000,4.000000,4.000000,4.000000,4.000000,4.000000,4.000000,4.000000,100.000000
1614045104.681890,123.000000,0.000000,12.649739,18.499680,-33.734119,14.495505,15.842884,26.424358,17.299026,25.693939,12.315035,34.656818,23.961588,1.559970,56.913746,48.719166,42.741814,18.597490,22.068378,40.076065,-34.861702,-4.491836,32.929230,55.878681,8.766890,43.976574,22.775177,21.858738,21.747761,6.441909,12.044419,33.566277,22.098207,37.729713,8192.000000,0.000000,4.000000,,,,0.000000,4.000000,4.000000,4.000000,4.000000,4.000000,4.000000,4.000000,4.000000,4.000000,4.000000,4.000000,4.000000,4.000000,4.000000,4.000000,4.000000,4.000000,4.000000,4.000000,4.000000,4.000000,4.000000,4.000000,4.000000,4.000000,4.000000,4.000000,4.000000,4.000000,4.000000,4.000000,4.000000,100.000000
1614045104.689639,124.000000,0.000000,12.637090,18.481180,-31.649103,14.993831,15.827042,25.885113,17.281727,23.616962,11.277079,31.032419,20.347883,22.071230,51.215805,39.439678,24.237534,-6.549313,18.456566,23.112911,-48.160172,-14.230933,29.819376,50.694595,7.732481,46.496700,22.239582,21.324059,21.213192,6.435467,12.032375,27.891684,20.537647,28.974033,8192.000000,0.000000,4.000000,,,,0.000000,4.000000,4.000000,4.000000,4.000000,4.000000,4.000000,4.000000,4.000000,4.000000,4.000000,4.000000,4.000000,4.000000,4.000000,4.000000,4.000000,4.000000,4.000000,4.000000,4.000000,4.000000,4.000000,4.000000,4.000000,4.000000,4.000000,4.000000,4.000000,4.000000,4.000000,4.000000,4.000000,100.000000
1614045104.697488,125.000000,0.000000,12.624453,18.462698,-38.796944,14.466016,10.683009,26.884869,17.777266,22.054884,11.778623,28.950106,11.609587,21.023518,48.087666,26.579725,11.905603,-17.311995,16.899647,21.038517,-63.496628,-19.857729,18.507505,50.643902,11.827313,44.398922,11.960932,21.302734,21.191978,6.429031,11.507523,15.043279,16.414547,21.765572,8192.000000,0.000000,4.000000,,,,0.000000,4.000000,4.000000,4.000000,4.000000,4.000000,4.000000,4.000000,4.000000,4.000000,4.000000,4.000000,4.000000,4.000000,4.000000,4.000000,4.000000,4.000000,4.000000,4.000000,4.000000,4.000000,4.000000,4.000000,4.000000,4.000000,4.000000,4.000000,4.000000,4.000000,4.000000,4.000000,4.000000,100.000000
1614045104.705237,126.000000,0.000000,13.124648,17.931416,-59.783787,8.297704,3.492839,22.242599,16.221027,18.443085,11.766844,16.100641,1.341566,-4.125710,36.757526,15.783915,12.919339,-21.910067,19.446850,13.837992,-65.484413,-22.914793,6.181305,47.516335,12.328306,44.354523,5.795125,21.281431,21.683607,6.422602,11.496015,11.438492,13.321209,21.230986,8064.000000,0.000000,4.000000,,,,0.000000,4.000000,4.000000,4.000000,4.000000,4.000000,4.000000,4.000000,4.000000,4.000000,4.000000,4.000000,4.000000,4.000000,4.000000,4.000000,4.000000,4.000000,4.000000,4.000000,4.000000,4.000000,4.000000,4.000000,4.000000,4.000000,4.000000,4.000000,4.000000,4.000000,4.000000,4.000000,4.000000,100.000000
1614045104.713086,127.000000,0.000000,11.573062,18.426304,-68.441948,6.238124,-0.100397,18.117794,14.153523,14.322079,11.242256,-3.915459,-7.377724,-5.147226,15.182308,0.383515,-3.503837,-49.067642,14.299198,-12.329693,-77.213799,-42.379059,-3.055645,36.186768,2.572388,42.258888,6.814970,21.260151,19.610641,6.929000,11.997339,13.478335,13.820708,20.184114,8192.000000,0.000000,4.000000,,,,0.000000,4.000000,4.000000,4.000000,4.000000,4.000000,4.000000,4.000000,4.000000,4.000000,4.000000,4.000000,4.000000,4.000000,4.000000,4.000000,4.000000,4.000000,4.000000,4.000000,4.000000,4.000000,4.000000,4.000000,4.000000,4.000000,4.000000,4.000000,4.000000,4.000000,4.000000,4.000000,4.000000,100.000000
1614045104.720835,0.000000,0.000000,9.510207,18.407879,-56.578636,7.257527,-0.100297,18.612495,13.113729,14.820577,11.743834,-11.603851,-14.549833,10.242537,-2.268771,-18.591227,-34.782383,-77.736526,0.438745,-31.804543,-106.880180,-69.003349,-21.001308,24.355707,-7.686594,25.806372,3.218412,21.238890,15.488467,5.383610,9.934060,11.413575,12.781246,17.599827,0.000000,199.000000,4.000000,,,,0.000000,4.000000,4.000000,4.000000,4.000000,4.000000,4.000000,4.000000,4.000000,4.000000,4.000000,4.000000,4.000000,4.000000,4.000000,4.000000,4.000000,4.000000,4.000000,4.000000,4.000000,4.000000,4.000000,4.000000,4.000000,4.000000,4.000000,4.000000,4.000000,4.000000,4.000000,4.000000,4.000000,100.000000
1614045104.728684,1.000000,0.000000,8.475056,15.825368,-51.906673,7.763090,-0.100197,19.106705,13.613436,14.805757,11.732091,-10.053785,-17.612207,-1.562578,-7.394708,-28.316225,-49.106575,-84.838272,-4.689898,-39.977867,-124.209190,-78.677933,-34.313641,19.203148,-7.166087,5.780566,-4.477115,21.217651,12.396055,3.326944,7.360023,9.350880,8.665901,17.582228,0.000000,193.000000,4.000000,,,,0.000000,4.000000,4.000000,4.000000,4.000000,4.000000,4.000000,4.000000,4.000000,4.000000,4.000000,4.000000,4.000000,4.000000,4.000000,4.000000,4.000000,4.000000,4.000000,4.000000,4.000000,4.000000,4.000000,4.000000,4.000000,4.000000,4.000000,4.000000,4.000000,4.000000,4.000000,4.000000,4.000000,100.000000
1614045104.736433,2.000000,0.000000,8.466580,15.296721,-59.034256,9.806609,-0.100096,18.574778,13.599822,14.790951,11.720359,-9.018091,-14.517672,-15.407168,1.330636,-25.210987,-31.108751,-78.599594,3.007099,-36.860966,-107.674728,-65.265923,-23.510096,22.260866,-3.569177,0.133760,-2.934176,20.683613,13.409301,2.297976,10.429586,11.392811,12.246979,18.077467,0.000000,174.000000,4.000000,,,,0.000000,4.000000,4.000000,4.000000,4.000000,4.000000,4.000000,4.000000,4.000000,4.000000,4.000000,4.000000,4.000000,4.000000,4.000000,4.000000,4.000000,4.000000,4.000000,4.000000,4.000000,4.000000,4.000000,4.000000,4.000000,4.000000,4.000000,4.000000,4.000000,4.000000,4.000000,4.000000,4.000000,100.000000
1614045104.744282,3.000000,0.000000,9.483755,17.332706,-57.436760,11.848084,-0.099996,18.556202,13.586223,18.878723,11.708638,-1.829586,-5.785205,9.736444,25.431870,-11.339622,1.742870,-49.803043,7.619477,-9.644617,-79.874748,-40.072449,-5.537867,31.982195,1.049776,8.851575,7.325169,21.175751,17.498455,2.808499,17.598644,13.945520,19.927040,18.572208,0.000000,150.000000,4.000000,,,,0.000000,4.000000,4.000000,4.000000,4.000000,4.000000,4.000000,4.000000,4.000000,2.000000,4.000000,4.000000,4.000000,4.000000,4.000000,4.000000,4.000000,4.000000,4.000000,4.000000,4.000000,4.000000,4.000000,4.000000,4.000000,4.000000,4.000000,4.000000,4.000000,4.000000,4.000000,4.000000,4.000000,83.333336
1614045104.752031,4.000000,0.000000,11.525554,19.366657,-50.199837,11.323416,0.412924,18.537645,13.572637,22.962408,11.696930,7.403013,3.964170,33.316452,48.483360,10.210179,24.818050,-16.932728,5.560575,22.672720,-69.025642,-22.083660,5.749722,41.693802,8.741035,22.688877,12.446049,21.667395,21.070700,2.805690,20.145147,17.008499,17.343010,21.117739,0.000000,188.000000,4.000000,,,,0.000000,4.000000,4.000000,4.000000,4.000000,4.000000,4.000000,4.000000,4.000000,2.000000,4.000000,4.000000,4.000000,4.000000,4.000000,4.000000,4.000000,4.000000,4.000000,4.000000,4.000000,4.000000,4.000000,4.000000,4.000000,4.000000,4.000000,4.000000,4.000000,4.000000,4.000000,4.000000,4.000000,83.333336
1614045104.759880,5.000000,0.000000,11.514028,18.321650,-51.175278,11.312093,0.412511,19.031929,13.559064,22.426626,11.685233,9.959713,10.114052,18.411339,54.075901,29.174328,32.998360,2.571385,6.067835,34.444920,-65.879692,-17.959011,20.102947,46.267494,12.834857,33.435417,10.895141,20.620087,21.562450,2.802884,19.612183,20.581234,14.248743,22.635084,0.000000,199.000000,4.000000,,,,0.000000,4.000000,4.000000,4.000000,4.000000,4.000000,4.000000,4.000000,4.000000,2.000000,4.000000,4.000000,4.000000,4.000000,4.000000,4.000000,4.000000,4.000000,4.000000,4.000000,4.000000,4.000000,4.000000,4.000000,4.000000,4.000000,4.000000,4.000000,4.000000,4.000000,4.000000,4.000000,4.000000,83.333336
1614045104.767629,6.000000,0.000000,8.938412,18.303328,-51.124100,11.300780,0.412099,21.577000,13.545505,21.891378,11.673548,11.488214,11.129579,3.521133,51.970543,33.760540,37.067924,-8.200417,7.600229,33.897652,-55.557404,-16.915411,32.903355,47.759689,10.257920,36.991726,11.397066,21.112288,21.028067,2.800081,19.592569,21.073473,19.875521,22.099628,0.000000,189.000000,4.000000,,,,0.000000,4.000000,4.000000,4.000000,4.000000,4.000000,4.000000,4.000000,4.000000,2.000000,4.000000,4.000000,4.000000,4.000000,4.000000,4.000000,4.000000,4.000000,4.000000,4.000000,4.000000,4.000000,4.000000,4.000000,4.000000,4.000000,4.000000,4.000000,4.000000,4.000000,4.000000,4.000000,4.000000,83.333336
1614045104.775478,7.000000,0.000000,8.416653,19.310665,-44.919132,11.289479,-0.101134,22.581064,13.531960,22.382307,11.661874,13.528008,11.118449,13.774022,52.944214,31.675495,34.466755,-19.474268,6.054167,27.197088,-56.014664,-17.924137,30.306351,46.686287,7.683559,37.980377,14.975413,24.168098,21.007040,2.797281,19.572977,21.052399,21.394106,22.590349,0.000000,202.000000,4.000000,,,,0.000000,4.000000,4.000000,4.000000,4.000000,4.000000,4.000000,4.000000,4.000000,2.000000,4.000000,4.000000,4.000000,4.000000,4.000000,4.000000,4.000000,4.000000,4.000000,4.000000,4.000000,4.000000,4.000000,4.000000,4.000000,4.000000,4.000000,4.000000,4.000000,4.000000,4.000000,4.000000,4.000000,83.333336
1614045104.783227,8.000000,0.000000,9.433877,17.752893,-46.412674,11.791011,0.411788,22.558483,11.979966,22.359926,11.650212,13.514481,11.107331,21.965376,52.891270,32.669460,24.688700,-19.454794,7.073754,22.554508,-63.650959,-17.906214,23.609377,48.690884,9.214337,37.429577,15.986078,22.092648,21.498852,2.794484,20.066225,21.031347,17.782969,22.567759,0.000000,201.000000,4.000000,,,,0.000000,4.000000,4.000000,4.000000,4.000000,4.000000,4.000000,4.000000,4.000000,2.000000,4.000000,4.000000,4.000000,4.000000,4.000000,4.000000,4.000000,4.000000,4.000000,4.000000,4.000000,4.000000,4.000000,4.000000,4.000000,4.000000,4.000000,4.000000,4.000000,4.000000,4.000000,4.000000,4.000000,83.333336
1614045104.791076,9.000000,0.000000,8.911622,13.119755,-55.597031,9.727938,0.924197,22.535923,10.429524,22.337566,9.587280,12.988146,11.096224,18.353668,49.761456,31.611151,20.048626,-13.281492,16.810270,32.275543,-46.664230,-11.221641,28.713974,54.283218,11.769226,36.879326,15.457272,14.891068,20.964533,2.791690,17.994877,17.933392,17.252365,17.929806,0.000000,206.000000,4.000000,,,,0.000000,4.000000,4.000000,4.000000,4.000000,4.000000,4.000000,4.000000,4.000000,2.000000,4.000000,4.000000,4.000000,4.000000,4.000000,4.000000,4.000000,4.000000,4.000000,4.000000,4.000000,4.000000,4.000000,4.000000,4.000000,4.000000,4.000000,4.000000,4.000000,4.000000,4.000000,4.000000,4.000000,83.333336
1614045104.798826,10.000000,0.000000,8.389891,10.029713,-59.643997,7.666927,-0.615189,22.513388,9.393454,22.315228,7.526411,13.487978,10.572307,17.822493,44.583488,25.938515,19.002935,-16.857954,24.998589,30.191984,-37.899616,-16.851444,26.633978,51.152012,12.270277,38.893726,13.903353,12.824894,18.379467,2.788898,11.823036,13.812895,13.132548,14.322132,0.000000,188.000000,4.000000,,,,0.000000,4.000000,4.000000,4.000000,4.000000,4.000000,4.000000,4.000000,4.000000,2.000000,4.000000,4.000000,4.000000,4.000000,4.000000,4.000000,4.000000,4.000000,4.000000,4.000000,4.000000,4.000000,4.000000,4.000000,4.000000,4.000000,4.000000,4.000000,4.000000,4.000000,4.000000,4.000000,4.000000,83.333336
1614045104.806475,11.000000,0.000000,8.894320,11.045323,-57.533070,9.710543,1.436708,22.490875,9.384060,22.292913,8.031705,12.961669,10.561734,19.855953,39.923523,23.861294,10.265985,-33.764175,24.460768,2.982306,-70.169411,-42.988438,1.991959,38.793167,11.745186,33.726627,9.274065,14.350531,16.822626,2.786109,7.708649,11.234980,5.939929,14.307811,0.000000,192.000000,4.000000,,,,0.000000,4.000000,4.000000,4.000000,4.000000,4.000000,4.000000,4.000000,4.000000,2.000000,4.000000,4.000000,4.000000,4.000000,4.000000,4.000000,4.000000,4.000000,4.000000,4.000000,4.000000,4.000000,4.000000,4.000000,4.000000,4.000000,4.000000,4.000000,4.000000,4.000000,4.000000,4.000000,4.000000,83.333336
1614045104.814224,12.000000,0.000000,8.885427,11.034279,-57.988358,11.752114,9.640400,22.468384,12.964419,22.783440,8.536493,13.461528,10.551173,18.810455,40.396420,23.837433,4.614693,-45.012459,21.872206,-5.225805,-93.688988,-58.842888,-20.574137,30.549246,12.246262,18.821108,3.623765,10.233617,17.318623,2.783323,7.700940,9.685283,5.421169,14.806323,0.000000,192.000000,4.000000,,,,0.000000,4.000000,4.000000,4.000000,4.000000,4.000000,4.000000,4.000000,4.000000,2.000000,4.000000,4.000000,4.000000,4.000000,4.000000,4.000000,4.000000,4.000000,4.000000,4.000000,4.000000,4.000000,4.000000,4.000000,4.000000,4.000000,4.000000,4.000000,4.000000,4.000000,4.000000,4.000000,4.000000,83.333336
1614045104.821873,13.000000,0.000000,6.825259,8.971962,-58.956009,11.227542,11.169221,22.445915,16.541199,21.222195,7.502316,13.960887,10.540622,17.766005,37.791920,20.223852,2.558796,-44.454628,19.286230,4.523011,-86.415810,-57.245583,-22.092024,24.877670,10.182734,11.622799,-0.995243,5.607998,16.788485,3.293360,8.206059,9.162777,6.441389,14.278696,0.000000,180.000000,4.000000,,,,0.000000,4.000000,4.000000,4.000000,4.000000,4.000000,4.000000,4.000000,4.000000,2.000000,4.000000,4.000000,4.000000,4.000000,4.000000,4.000000,4.000000,4.000000,4.000000,4.000000,4.000000,4.000000,4.000000,4.000000,4.000000,4.000000,4.000000,4.000000,4.000000,4.000000,4.000000,4.000000,4.000000,83.333336
1614045104.829622,14.000000,0.000000,4.767152,6.911708,-57.871414,10.703493,5.517026,22.423470,11.909273,19.149691,8.520454,9.331542,10.017261,19.286699,30.061821,15.075422,-1.033507,-44.410172,12.087458,-4.712281,-100.175545,-65.906288,-23.095572,16.134846,5.557166,14.688100,-1.507068,5.602390,14.207593,1.238785,7.685033,9.153614,4.383665,14.264418,0.000000,181.000000,4.000000,,,,0.000000,4.000000,4.000000,4.000000,4.000000,4.000000,4.000000,4.000000,4.000000,2.000000,4.000000,4.000000,4.000000,4.000000,4.000000,4.000000,4.000000,4.000000,4.000000,4.000000,4.000000,4.000000,4.000000,4.000000,4.000000,4.000000,4.000000,4.000000,4.000000,4.000000,4.000000,4.000000,4.000000,83.333336
1614045104.837271,15.000000,0.000000,4.762384,6.904797,-57.813541,11.205610,3.460227,22.401045,5.743518,18.617722,7.999114,5.732467,10.520063,18.241772,27.980476,15.573168,5.634193,-42.314480,8.998446,-10.348595,-114.947166,-70.968582,-23.585297,15.093069,4.013147,8.006745,4.648285,6.622429,12.654923,-1.326557,7.677348,9.657281,8.481846,16.814255,0.000000,204.000000,4.000000,,,,0.000000,4.000000,4.000000,4.000000,4.000000,4.000000,4.000000,4.000000,4.000000,2.000000,4.000000,4.000000,4.000000,4.000000,4.000000,4.000000,4.000000,4.000000,4.000000,4.000000,4.000000,4.000000,4.000000,4.000000,4.000000,4.000000,4.000000,4.000000,4.000000,4.000000,4.000000,4.000000,4.000000,83.333336
1614045104.845020,16.000000,0.000000,5.270443,7.410712,-57.755730,11.194405,4.482408,21.865824,5.737774,15.009359,3.375730,5.726734,10.509543,13.095325,31.542240,17.096056,17.936253,-31.502935,14.117653,6.584831,-86.114273,-46.795052,-0.997609,26.360027,4.009134,5.947456,9.259022,6.102986,13.667910,-1.325230,7.669671,9.134804,16.165670,18.335903,0.000000,153.000000,4.000000,,,,0.000000,4.000000,4.000000,4.000000,4.000000,4.000000,4.000000,4.000000,4.000000,2.000000,4.000000,4.000000,4.000000,4.000000,4.000000,4.000000,4.000000,4.000000,4.000000,4.000000,4.000000,4.000000,4.000000,4.000000,4.000000,4.000000,4.000000,4.000000,4.000000,4.000000,4.000000,4.000000,4.000000,83.333336
1614045104.852670,17.000000,0.000000,4.239531,7.403301,-57.697971,11.183210,2.426643,22.356779,6.757678,10.891787,0.808252,3.669725,8.447752,16.671974,32.023518,14.514857,18.943956,-27.368868,16.154818,14.783374,-60.387131,-20.594410,25.670055,40.179821,2.979484,26.454329,11.813865,5.584063,13.654242,-0.811084,8.687642,9.638489,16.149506,18.317568,0.000000,203.000000,4.000000,,,,0.000000,4.000000,4.000000,4.000000,4.000000,4.000000,4.000000,4.000000,4.000000,2.000000,4.000000,4.000000,4.000000,4.000000,4.000000,4.000000,4.000000,4.000000,4.000000,4.000000,4.000000,4.000000,4.000000,4.000000,4.000000,4.000000,4.000000,4.000000,4.000000,4.000000,4.000000,4.000000,4.000000,83.333336
1614045104.860419,18.000000,0.000000,5.260933,7.395898,-57.640274,11.172028,1.911396,22.847242,5.212458,12.932177,1.833085,-0.436509,7.413663,31.014277,35.581238,13.987522,21.489115,-27.854321,17.164305,16.819874,-60.839561,-10.830226,32.823872,53.472973,8.617530,42.838131,22.058462,8.655401,12.614946,-1.323094,10.730236,10.141671,14.082074,18.299250,0.000000,199.000000,4.000000,,,,0.000000,4.000000,4.000000,4.000000,4.000000,4.000000,4.000000,4.000000,4.000000,2.000000,4.000000,4.000000,4.000000,4.000000,4.000000,4.000000,4.000000,4.000000,4.000000,4.000000,4.000000,4.000000,4.000000,4.000000,4.000000,4.000000,4.000000,4.000000,4.000000,4.000000,4.000000,4.000000,4.000000,83.333336
1614045104.868068,19.000000,0.000000,10.383877,7.388502,-57.069813,11.673676,3.960767,21.285934,6.745708,17.021809,-0.732851,-1.461713,8.944712,30.983261,45.802067,22.178663,40.954807,-15.518774,29.454832,39.879974,-43.342827,7.642142,42.534637,64.188736,19.890965,46.897858,33.831276,14.287771,16.704895,0.216691,12.770788,10.131530,16.632095,18.793770,0.000000,194.000000,4.000000,,,,0.000000,4.000000,4.000000,4.000000,4.000000,4.000000,4.000000,4.000000,4.000000,2.000000,4.000000,4.000000,4.000000,4.000000,4.000000,4.000000,4.000000,4.000000,4.000000,4.000000,4.000000,4.000000,4.000000,4.000000,4.000000,4.000000,4.000000,4.000000,4.000000,4.000000,4.000000,4.000000,4.000000,83.333336
1614045104.875817,20.000000,0.000000,12.937595,7.381114,-57.525566,11.662002,4.469626,23.315929,10.841526,19.056068,2.857625,-1.460251,11.499869,20.183048,52.422932,32.412895,53.734364,5.522386,43.271530,61.378559,-15.094355,32.249886,58.389538,71.304031,24.486458,61.722755,36.361546,15.299125,24.380499,3.293397,12.245197,9.608578,19.179565,18.774977,0.000000,179.000000,4.000000,,,,0.000000,4.000000,4.000000,4.000000,4.000000,4.000000,4.000000,4.000000,4.000000,2.000000,4.000000,4.000000,4.000000,4.000000,4.000000,4.000000,4.000000,4.000000,4.000000,4.000000,4.000000,4.000000,4.000000,4.000000,4.000000,4.000000,4.000000,4.000000,4.000000,4.000000,4.000000,4.000000,4.000000,83.333336
1614045104.883466,21.000000,0.000000,12.924658,7.373733,-57.468040,10.624699,5.490798,28.420818,13.394787,19.037012,14.136819,0.079670,12.001190,27.342352,52.370510,31.354839,42.398579,4.491223,41.689796,54.137691,-16.617722,26.576609,54.228584,71.745544,23.436331,74.481544,34.786724,13.745364,23.843298,3.290104,11.720131,10.111790,17.621923,18.756203,0.000000,195.000000,4.000000,,,,0.000000,4.000000,4.000000,4.000000,4.000000,4.000000,4.000000,4.000000,4.000000,2.000000,4.000000,4.000000,4.000000,4.000000,4.000000,4.000000,4.000000,4.000000,4.000000,4.000000,4.000000,4.000000,4.000000,4.000000,4.000000,4.000000,4.000000,4.000000,4.000000,4.000000,4.000000,4.000000,4.000000,83.333336
1614045104.891315,22.000000,0.000000,12.398912,7.366359,-56.897751,12.152535,1.382743,27.366756,13.894213,16.966694,11.045759,-0.946050,4.809701,30.904753,43.600189,16.964512,17.227974,-25.256859,32.930161,22.801502,-39.678028,-3.193557,38.276920,62.443031,22.900074,66.714752,28.085270,15.782901,20.742531,2.773993,12.734052,9.076036,17.604301,18.737446,0.000000,184.000000,4.000000,,,,0.000000,4.000000,4.000000,4.000000,4.000000,4.000000,4.000000,4.000000,4.000000,2.000000,4.000000,4.000000,4.000000,4.000000,4.000000,4.000000,4.000000,4.000000,4.000000,4.000000,4.000000,4.000000,4.000000,4.000000,4.000000,4.000000,4.000000,4.000000,4.000000,4.000000,4.000000,4.000000,4.000000,83.333336
1614045104.899064,23.000000,0.000000,11.360873,7.871813,-58.892136,11.627563,-8.362229,19.647083,13.367497,15.411265,-3.837081,-16.329720,-5.964339,4.720002,25.095051,-0.488351,-7.917459,-54.462372,24.692101,-7.990529,-68.356300,-31.908312,20.802746,44.944691,17.748968,57.417271,8.570004,13.203015,22.773071,3.796860,11.182857,4.451576,17.073877,15.128964,0.000000,209.000000,4.000000,,,,0.000000,4.000000,4.000000,4.000000,4.000000,4.000000,4.000000,4.000000,4.000000,2.000000,4.000000,4.000000,4.000000,4.000000,4.000000,4.000000,4.000000,4.000000,4.000000,4.000000,4.000000,4.000000,4.000000,4.000000,4.000000,4.000000,4.000000,4.000000,4.000000,4.000000,4.000000,4.000000,4.000000,83.333336
1614045104.906913,24.000000,0.000000,8.785410,5.812659,-64.474266,3.410807,-13.994893,15.012052,12.328489,15.908674,-8.448629,-30.159544,-10.573759,-7.592410,12.249443,-10.231452,-19.704412,-64.664322,8.769973,-22.854334,-98.031532,-61.107174,-8.961646,24.899748,6.961988,44.539341,-12.977027,-3.220444,13.006708,2.254602,1.940904,-1.706722,10.390137,6.395887,0.000000,196.000000,4.000000,,,,0.000000,4.000000,4.000000,4.000000,4.000000,4.000000,4.000000,4.000000,4.000000,2.000000,4.000000,4.000000,4.000000,4.000000,4.000000,4.000000,4.000000,4.000000,4.000000,4.000000,4.000000,4.000000,4.000000,4.000000,4.000000,4.000000,4.000000,4.000000,4.000000,4.000000,4.000000,4.000000,4.000000,83.333336
1614045104.914662,25.000000,0.000000,6.725342,3.755564,-68.512360,-4.284912,-16.545000,12.945757,9.752058,11.277381,-5.363257,-30.129385,-11.588826,16.004927,9.673091,-18.426350,-23.274452,-71.779144,-7.136233,-32.062248,-117.933502,-90.276833,-37.670631,6.926129,-3.301384,16.289673,-26.297382,-18.089018,-8.544761,-2.363037,-8.317447,-5.294759,-2.440766,-1.302817,0.000000,197.000000,4.000000,,,,0.000000,4.000000,4.000000,4.000000,4.000000,4.000000,4.000000,4.000000,4.000000,2.000000,4.000000,4.000000,4.000000,4.000000,4.000000,4.000000,4.000000,4.000000,4.000000,4.000000,4.000000,4.000000,4.000000,4.000000,4.000000,4.000000,4.000000,4.000000,4.000000,4.000000,4.000000,4.000000,4.000000,83.333336
1614045104.922511,26.000000,0.000000,4.667335,4.777450,-68.443848,-4.280627,-21.143841,10.368709,9.229486,4.086617,-6.383535,-33.688999,-17.218264,17.014563,0.945469,-30.202795,-31.456306,-88.117615,-9.180379,-49.978905,-129.097610,-106.083992,-49.940655,-11.029514,-8.939109,-6.803539,-32.424931,-20.635033,-13.151600,-5.950418,-9.847590,-5.802284,-10.643454,-3.865616,0.000000,213.000000,4.000000,,,,0.000000,4.000000,4.000000,4.000000,4.000000,4.000000,4.000000,4.000000,4.000000,2.000000,4.000000,4.000000,4.000000,4.000000,4.000000,4.000000,4.000000,4.000000,4.000000,4.000000,4.000000,4.000000,4.000000,4.000000,4.000000,4.000000,4.000000,4.000000,4.000000,4.000000,4.000000,4.000000,4.000000,83.333336
1614045104.930260,27.000000,0.000000,4.662667,7.336775,-67.862579,-2.737885,-20.097055,10.871161,9.733077,2.544069,-7.402792,-37.757874,-19.252327,-13.771684,-9.824707,-36.326439,-37.065876,-103.926933,-10.709660,-64.800720,-139.737747,-111.618935,-57.583023,-21.274895,-10.468631,-13.976223,-34.956608,-20.101576,-2.882038,-4.406006,-7.786461,-5.283662,-4.478964,-3.861751,0.000000,195.000000,4.000000,,,,0.000000,4.000000,4.000000,4.000000,4.000000,4.000000,4.000000,4.000000,4.000000,2.000000,4.000000,4.000000,4.000000,4.000000,4.000000,4.000000,4.000000,4.000000,4.000000,4.000000,4.000000,4.000000,4.000000,4.000000,4.000000,4.000000,4.000000,4.000000,4.000000,4.000000,4.000000,4.000000,4.000000,83.333336
1614045104.938109,28.000000,0.000000,5.170825,7.329438,-69.846001,-3.760787,-14.435933,10.860290,9.723344,4.079986,-6.882569,-25.412424,-19.233074,-14.270732,-9.814882,-35.777290,-37.028809,-110.489677,-16.852797,-65.248741,-144.726212,-109.456032,-58.551079,-15.099774,-10.970983,-21.654554,-35.947292,-20.081474,-1.853515,-4.401600,-6.753034,-6.816840,2.192182,-3.857889,0.000000,192.000000,4.000000,,,,0.000000,4.000000,4.000000,4.000000,4.000000,4.000000,4.000000,4.000000,4.000000,2.000000,4.000000,4.000000,4.000000,4.000000,4.000000,4.000000,4.000000,4.000000,4.000000,4.000000,4.000000,4.000000,4.000000,4.000000,4.000000,4.000000,4.000000,4.000000,4.000000,4.000000,4.000000,4.000000,4.000000,83.333336
1614045104.945858,29.000000,0.000000,4.140013,6.809288,-71.827438,-3.757027,-14.934318,8.285327,7.662338,3.563086,-6.875687,-20.771626,-26.906149,13.435846,-8.266606,-36.767155,-36.991779,-95.507393,-13.246200,-47.747593,-130.735336,-91.910683,-38.492527,7.479428,-11.985653,-25.735464,-30.270321,-17.497292,-0.826021,-5.935660,-7.259101,-8.861304,-1.912575,-3.854031,0.000000,205.000000,4.000000,,,,0.000000,4.000000,4.000000,4.000000,4.000000,4.000000,4.000000,4.000000,4.000000,2.000000,4.000000,4.000000,4.000000,4.000000,4.000000,4.000000,4.000000,4.000000,4.000000,4.000000,4.000000,4.000000,4.000000,4.000000,4.000000,4.000000,4.000000,4.000000,4.000000,4.000000,4.000000,4.000000,4.000000,83.333336
1614045104.953707,30.000000,0.000000,5.161514,7.315300,-71.242790,-3.240449,-17.996305,8.277041,5.603394,3.046702,-6.355990,-33.058548,-28.930525,11.371128,-3.642955,-31.089361,-24.647097,-65.668297,-6.566287,-16.417795,-97.784088,-59.511078,-5.633523,39.266819,-7.871103,-13.914857,-15.368256,-15.428512,13.020959,-1.827160,-8.277483,-7.313982,-3.449124,-3.337357,0.000000,180.000000,4.000000,,,,0.000000,4.000000,4.000000,4.000000,4.000000,4.000000,4.000000,4.000000,4.000000,2.000000,4.000000,4.000000,4.000000,4.000000,4.000000,4.000000,4.000000,4.000000,4.000000,4.000000,4.000000,4.000000,4.000000,4.000000,4.000000,4.000000,4.000000,4.000000,4.000000,4.000000,4.000000,4.000000,4.000000,83.333336
1614045104.961456,31.000000,0.000000,9.771737,7.307984,-68.607445,-3.237209,-17.978310,13.396970,7.136252,3.556476,-6.862455,-27.897284,-15.568261,-2.486397,15.847868,-13.109554,3.582679,-53.807755,-3.995618,2.060161,-66.917076,-26.631054,26.166983,66.919861,3.931640,9.688802,4.134292,-6.695134,22.238707,4.841334,-1.602539,0.385640,7.836377,-3.334019,0.000000,196.000000,4.000000,,,,0.000000,4.000000,4.000000,4.000000,4.000000,4.000000,4.000000,4.000000,4.000000,2.000000,4.000000,4.000000,4.000000,4.000000,4.000000,4.000000,4.000000,4.000000,4.000000,4.000000,4.000000,4.000000,4.000000,4.000000,4.000000,4.000000,4.000000,4.000000,4.000000,4.000000,4.000000,4.000000,4.000000,83.333336
1614045104.969305,32.000000,0.000000,12.838889,7.300676,-67.513199,-3.233972,-17.447512,15.947675,11.231680,7.655483,-6.855593,-8.382207,-3.757822,15.464808,35.832020,2.800991,24.091917,-49.651382,5.751967,11.801691,-58.132210,0.062243,44.602352,78.134995,11.107196,37.884239,23.104517,10.234638,21.703648,7.400595,13.783679,11.154485,17.572130,-3.843506,8064.000000,0.000000,4.000000,,,,0.000000,4.000000,4.000000,4.000000,4.000000,4.000000,4.000000,4.000000,4.000000,2.000000,4.000000,4.000000,4.000000,4.000000,4.000000,4.000000,4.000000,4.000000,4.000000,4.000000,4.000000,4.000000,4.000000,4.000000,4.000000,4.000000,4.000000,4.000000,4.000000,4.000000,4.000000,4.000000,4.000000,83.333336
1614045104.977054,33.000000,0.000000,12.313230,7.293375,-67.445679,-3.230738,-17.430063,14.393266,13.271730,12.776033,-3.258993,-2.219978,2.399782,39.551907,43.488495,8.952036,28.170389,-19.345322,20.105190,36.405273,-51.920231,12.369873,47.121853,78.056854,11.608909,63.487381,34.876286,19.967993,21.169125,6.367553,24.026306,16.784355,18.067379,-3.326842,8064.000000,0.000000,4.000000,,,,0.000000,4.000000,4.000000,4.000000,4.000000,4.000000,4.000000,4.000000,4.000000,2.000000,4.000000,4.000000,4.000000,4.000000,4.000000,4.000000,4.000000,4.000000,4.000000,4.000000,4.000000,4.000000,4.000000,4.000000,4.000000,4.000000,4.000000,4.000000,4.000000,4.000000,4.000000,4.000000,4.000000,83.333336
1614045104.984903,34.000000,0.000000,12.300916,7.286082,-67.378235,-3.227507,-17.925453,14.891693,13.258458,15.840180,1.872471,-2.730579,12.140972,30.794407,44.470650,15.096931,29.680679,0.161204,23.162008,47.138100,-35.458054,13.383144,47.587551,78.491623,17.238325,72.141846,35.354229,18.409563,21.147955,6.874006,21.950996,16.254751,17.536491,-3.323515,8064.000000,0.000000,4.000000,,,,0.000000,4.000000,4.000000,4.000000,4.000000,4.000000,4.000000,4.000000,4.000000,2.000000,4.000000,4.000000,4.000000,4.000000,4.000000,4.000000,4.000000,4.000000,4.000000,4.000000,4.000000,4.000000,4.000000,4.000000,4.000000,4.000000,4.000000,4.000000,4.000000,4.000000,4.000000,4.000000,4.000000,83.333336
1614045104.992652,35.000000,0.000000,12.801435,6.765975,-67.310860,-3.224279,-17.394709,15.389622,13.245200,17.362801,4.434701,1.887537,16.744217,13.840535,42.887714,21.748501,30.163820,-21.377419,21.600384,31.706347,-32.345673,7.728736,48.052784,76.361847,25.939035,68.992783,32.754772,18.391153,22.665268,6.867132,18.852123,14.187215,17.006134,-4.858653,8064.000000,0.000000,4.000000,,,,0.000000,4.000000,4.000000,4.000000,4.000000,4.000000,4.000000,4.000000,4.000000,2.000000,4.000000,4.000000,4.000000,4.000000,4.000000,4.000000,4.000000,4.000000,4.000000,4.000000,4.000000,4.000000,4.000000,4.000000,4.000000,4.000000,4.000000,4.000000,4.000000,4.000000,4.000000,4.000000,4.000000,83.333336
1614045105.000501,36.000000,0.000000,12.275814,8.297671,-67.243546,-3.221055,-14.813210,14.348591,13.231955,18.883900,4.943087,4.449751,15.701831,24.083105,38.229443,23.778034,19.364426,-36.740658,23.117245,20.392588,-54.364609,-14.843096,31.594477,61.413692,27.964378,69.949425,31.183556,19.398403,27.257988,6.347445,19.858912,16.224310,14.425025,1.300052,8064.000000,0.000000,4.000000,,,,0.000000,4.000000,4.000000,4.000000,4.000000,4.000000,4.000000,4.000000,4.000000,2.000000,4.000000,4.000000,4.000000,4.000000,4.000000,4.000000,4.000000,4.000000,4.000000,4.000000,4.000000,4.000000,4.000000,4.000000,4.000000,4.000000,4.000000,4.000000,4.000000,4.000000,4.000000,4.000000,4.000000,83.333336
1614045105.008251,37.000000,0.000000,12.263538,10.853476,-67.176308,-3.217834,-11.208653,15.359883,13.218722,18.865017,7.502246,3.932481,15.686129,36.366714,31.524548,17.600409,-4.757504,-37.729557,19.504385,5.500401,-86.617935,-47.135944,4.383395,40.326637,23.833851,63.725632,21.408781,16.302082,26.205090,7.366738,19.839052,18.772188,13.897779,12.580803,8064.000000,0.000000,4.000000,,,,0.000000,4.000000,4.000000,4.000000,4.000000,4.000000,4.000000,4.000000,4.000000,2.000000,4.000000,4.000000,4.000000,4.000000,4.000000,4.000000,4.000000,4.000000,4.000000,4.000000,4.000000,4.000000,4.000000,4.000000,4.000000,4.000000,4.000000,4.000000,4.000000,4.000000,4.000000,4.000000,4.000000,83.333336
1614045105.016100,38.000000,0.000000,12.251274,11.355443,-67.109131,-2.701796,-9.146163,18.421446,13.205504,18.333330,9.033205,-0.174015,9.003777,15.304707,16.621227,1.685373,-27.829670,-57.691830,10.254110,-19.633305,-112.172348,-69.140091,-15.108169,21.824772,14.579247,38.533699,6.002758,11.670396,20.025038,4.795269,18.280752,14.650851,11.832600,14.106684,8064.000000,0.000000,4.000000,,,,0.000000,4.000000,4.000000,4.000000,4.000000,4.000000,4.000000,4.000000,4.000000,2.000000,4.000000,4.000000,4.000000,4.000000,4.000000,4.000000,4.000000,4.000000,4.000000,4.000000,4.000000,4.000000,4.000000,4.000000,4.000000,4.000000,4.000000,4.000000,4.000000,4.000000,4.000000,4.000000,4.000000,83.333336
1614045105.023849,39.000000,0.000000,12.239023,10.831267,-66.529198,-3.211914,-9.649837,18.403025,13.192299,18.314997,8.511352,-8.378969,-3.825740,-5.736239,2.245632,-14.726569,-33.442863,-76.095673,0.500267,-28.844440,-113.085815,-80.865822,-34.580238,5.392690,2.256976,14.392603,-6.310937,5.504879,15.389628,-1.876193,15.698369,7.456713,4.641280,7.938731,8064.000000,0.000000,4.000000,,,,0.000000,4.000000,4.000000,4.000000,4.000000,4.000000,4.000000,4.000000,4.000000,2.000000,4.000000,4.000000,4.000000,4.000000,4.000000,4.000000,4.000000,4.000000,4.000000,4.000000,4.000000,4.000000,4.000000,4.000000,4.000000,4.000000,4.000000,4.000000,4.000000,4.000000,4.000000,4.000000,4.000000,83.333336
1614045105.031498,40.000000,0.000000,12.739605,10.820436,-66.462669,-2.695882,-10.153008,18.897442,13.179107,18.809504,8.502840,-12.985975,-8.950120,12.731035,3.781848,-21.891329,-31.358141,-78.583679,-7.705362,-40.610470,-119.639397,-105.400345,-61.212326,-13.587062,-6.463230,2.070518,-12.458473,-1.167292,10.246034,-5.464060,11.580107,4.885154,1.046895,6.905151,8064.000000,0.000000,4.000000,,,,0.000000,4.000000,4.000000,4.000000,4.000000,4.000000,4.000000,4.000000,4.000000,2.000000,4.000000,4.000000,4.000000,4.000000,4.000000,4.000000,4.000000,4.000000,4.000000,4.000000,4.000000,4.000000,4.000000,4.000000,4.000000,4.000000,4.000000,4.000000,4.000000,4.000000,4.000000,4.000000,4.000000,83.333336
1614045105.039247,41.000000,0.000000,11.188403,10.809615,-68.447487,-2.693186,-9.117214,19.391365,13.678748,16.739412,6.955876,-11.947348,-7.915529,26.564457,6.342169,-20.843798,-34.916527,-92.351250,-12.825862,-65.698059,-149.776169,-127.859047,-78.074188,-29.470911,-10.559331,-13.316168,-15.522938,-4.755869,6.133223,-4.432955,7.978783,5.905910,2.584309,8.436707,8064.000000,0.000000,4.000000,,,,0.000000,4.000000,4.000000,4.000000,4.000000,4.000000,4.000000,4.000000,4.000000,2.000000,4.000000,4.000000,4.000000,4.000000,4.000000,4.000000,4.000000,4.000000,4.000000,4.000000,4.000000,4.000000,4.000000,4.000000,4.000000,4.000000,4.000000,4.000000,4.000000,4.000000,4.000000,4.000000,4.000000,83.333336
1614045105.046896,42.000000,0.000000,9.125933,10.798806,-68.891861,-5.767416,-11.159379,13.218128,12.126607,14.671390,2.846356,-11.935401,-8.933254,2.435329,1.207622,-19.797312,-27.189301,-99.438385,-12.813036,-58.965698,-154.754593,-118.500412,-68.765350,-22.774773,-12.600054,-28.174646,-17.558697,-5.776754,4.588628,-4.941343,7.457983,5.900004,2.581725,7.402630,7936.000000,0.000000,4.000000,,,,0.000000,4.000000,4.000000,4.000000,4.000000,4.000000,4.000000,4.000000,4.000000,2.000000,4.000000,4.000000,4.000000,4.000000,4.000000,4.000000,4.000000,4.000000,4.000000,4.000000,4.000000,4.000000,4.000000,4.000000,4.000000,4.000000,4.000000,4.000000,4.000000,4.000000,4.000000,4.000000,4.000000,83.333336
1614045105.054645,43.000000,0.000000,8.091166,10.788007,-71.387070,-10.377033,-18.840527,4.486961,9.550378,14.143898,0.279407,-12.436286,-11.488423,-5.772234,9.411542,-22.854439,-5.110830,-73.697922,-8.184838,-26.086220,-122.292145,-85.561401,-39.978634,6.478771,-8.997710,-19.428524,-10.874471,-4.745336,4.584040,-4.423581,7.450526,4.868463,1.553502,6.882407,8064.000000,0.000000,4.000000,,,,0.000000,4.000000,4.000000,4.000000,4.000000,4.000000,4.000000,4.000000,4.000000,2.000000,4.000000,4.000000,4.000000,4.000000,4.000000,4.000000,4.000000,4.000000,4.000000,4.000000,4.000000,4.000000,4.000000,4.000000,4.000000,4.000000,4.000000,4.000000,4.000000,4.000000,4.000000,4.000000,4.000000,83.333336
1614045105.062294,44.000000,0.000000,8.595896,10.777219,-79.520813,-10.879477,-22.924252,2.431192,9.028008,15.155396,0.279128,-12.423849,-12.502576,17.310461,27.863668,-17.190557,6.689153,-49.008842,1.566937,-11.188338,-101.144211,-56.757893,-8.656603,30.062037,0.754878,8.283213,9.649224,-0.125206,11.758943,-1.855055,7.443075,5.889235,2.064769,7.388345,8192.000000,0.000000,4.000000,,,,0.000000,4.000000,4.000000,4.000000,4.000000,4.000000,4.000000,4.000000,4.000000,2.000000,4.000000,4.000000,4.000000,4.000000,4.000000,4.000000,4.000000,4.000000,4.000000,4.000000,4.000000,4.000000,4.000000,4.000000,4.000000,4.000000,4.000000,4.000000,4.000000,4.000000,4.000000,4.000000,4.000000,83.333336
1614045105.070043,45.000000,0.000000,8.587299,10.766441,-81.492577,-10.355777,-17.260302,3.967223,9.531800,14.627419,0.791669,-11.898605,-8.900330,21.908535,36.040936,5.903556,8.220925,-41.780346,12.334600,-2.459201,-86.684097,-42.342159,9.813592,39.262745,7.933610,30.326212,23.998549,6.028765,23.542055,-0.314738,7.948452,7.934628,2.575525,6.868136,8064.000000,0.000000,4.000000,,,,0.000000,4.000000,4.000000,4.000000,4.000000,4.000000,4.000000,4.000000,4.000000,2.000000,4.000000,4.000000,4.000000,4.000000,4.000000,4.000000,4.000000,4.000000,4.000000,4.000000,4.000000,4.000000,4.000000,4.000000,4.000000,4.000000,4.000000,4.000000,4.000000,4.000000,4.000000,4.000000,4.000000,83.333336
1614045105.077693,46.000000,0.000000,8.578712,10.755675,-72.693130,-10.345421,-13.140476,3.450435,9.522268,14.099972,1.303698,-10.861066,-1.711942,3.937909,34.466431,22.307909,16.930653,-26.353949,16.424829,16.004797,-56.853821,-31.017767,14.419163,46.402969,9.976958,36.962551,19.871986,7.561198,23.005693,-0.827244,6.914863,9.977976,2.060129,7.374088,8064.000000,0.000000,4.000000,,,,0.000000,4.000000,4.000000,4.000000,4.000000,4.000000,4.000000,4.000000,4.000000,2.000000,4.000000,4.000000,4.000000,4.000000,4.000000,4.000000,4.000000,4.000000,4.000000,4.000000,4.000000,4.000000,4.000000,4.000000,4.000000,4.000000,4.000000,4.000000,4.000000,4.000000,4.000000,4.000000,4.000000,83.333336
1614045105.085442,47.000000,0.000000,8.570133,10.232100,-70.569160,-10.847896,-16.717079,2.934164,8.999926,15.111512,0.276753,-12.388666,0.341052,-2.219875,30.329401,16.131754,18.452183,-14.019903,14.869944,27.270844,-48.079018,-19.191877,14.917564,51.997589,12.018264,37.951229,15.749550,6.527996,17.341661,-0.826417,8.446410,9.967998,2.570889,7.366714,8064.000000,0.000000,4.000000,,,,0.000000,4.000000,4.000000,4.000000,4.000000,4.000000,4.000000,4.000000,4.000000,2.000000,4.000000,4.000000,4.000000,4.000000,4.000000,4.000000,4.000000,4.000000,4.000000,4.000000,4.000000,4.000000,4.000000,4.000000,4.000000,4.000000,4.000000,4.000000,4.000000,4.000000,4.000000,4.000000,4.000000,83.333336
1614045105.093091,48.000000,0.000000,8.561563,10.734688,-75.626793,-11.349869,-16.187542,2.931230,8.990926,14.070760,0.789297,-11.863457,-0.172110,1.372088,25.170866,13.551520,2.536295,-21.185369,14.342253,24.166649,-63.928375,-17.634224,13.877006,52.971233,13.031886,38.426102,19.323544,7.034288,23.990986,-0.825590,13.566169,8.932388,5.645242,6.333707,8192.000000,0.000000,4.000000,,,,0.000000,4.000000,4.000000,4.000000,4.000000,4.000000,4.000000,4.000000,4.000000,2.000000,4.000000,4.000000,4.000000,4.000000,4.000000,4.000000,4.000000,4.000000,4.000000,4.000000,4.000000,4.000000,4.000000,4.000000,4.000000,4.000000,4.000000,4.000000,4.000000,4.000000,4.000000,4.000000,4.000000,83.333336
1614045105.100840,49.000000,0.000000,8.553001,10.723953,-68.884499,-9.800057,-7.966226,3.953940,9.494755,8.928484,4.378251,-7.749029,1.366524,-0.167745,22.581593,21.743097,-9.261112,-32.959057,16.379192,10.809149,-70.531113,-27.360178,11.811847,48.302879,13.018854,37.362034,20.329863,7.540074,29.095201,-0.824765,15.091063,9.949098,9.229340,8.378655,8064.000000,0.000000,4.000000,,,,0.000000,4.000000,4.000000,4.000000,4.000000,4.000000,4.000000,4.000000,4.000000,2.000000,4.000000,4.000000,4.000000,4.000000,4.000000,4.000000,4.000000,4.000000,4.000000,4.000000,4.000000,4.000000,4.000000,4.000000,4.000000,4.000000,4.000000,4.000000,4.000000,4.000000,4.000000,4.000000,4.000000,83.333336
1614045105.108489,50.000000,0.000000,9.057269,10.200408,-58.559204,-6.713334,-4.881337,4.975627,9.485260,4.304171,2.322591,-10.305383,-5.301509,-4.782962,9.738499,9.926482,-15.405698,-39.079945,10.721788,-6.124737,-76.614433,-45.281536,1.543625,32.869961,10.441733,37.837490,15.181327,3.942791,19.322515,-0.823940,11.999050,12.503251,10.245751,15.036943,8064.000000,0.000000,4.000000,,,,0.000000,4.000000,4.000000,4.000000,4.000000,4.000000,4.000000,4.000000,4.000000,2.000000,4.000000,4.000000,4.000000,4.000000,4.000000,4.000000,4.000000,4.000000,4.000000,4.000000,4.000000,4.000000,4.000000,4.000000,4.000000,4.000000,4.000000,4.000000,4.000000,4.000000,4.000000,4.000000,4.000000,83.333336
1614045105.116338,51.000000,0.000000,6.996930,10.703029,-61.577568,-7.732262,-8.979020,2.406549,8.450134,3.274226,-5.884860,-21.064308,-21.706465,-4.778179,-11.809702,-16.237291,-28.723625,-55.963940,-6.724831,-15.349381,-91.409607,-73.441383,-22.047663,10.785808,-1.363581,28.568884,0.807171,-1.189357,6.995501,-1.335937,10.961410,9.926645,9.722686,18.611650,8064.000000,0.000000,4.000000,,,,0.000000,4.000000,4.000000,4.000000,4.000000,4.000000,4.000000,4.000000,4.000000,2.000000,4.000000,4.000000,4.000000,4.000000,4.000000,4.000000,4.000000,4.000000,4.000000,4.000000,4.000000,4.000000,4.000000,4.000000,4.000000,4.000000,4.000000,4.000000,4.000000,4.000000,4.000000,4.000000,4.000000,83.333336
1614045105.124087,52.000000,0.000000,4.938651,12.743608,-65.105736,-2.596324,-10.508502,7.532347,11.005786,2.758131,-6.904616,-22.068886,-25.274502,-0.158017,-9.233789,-26.477463,-37.925671,-86.164391,-21.077080,-33.795570,-111.318199,-101.060249,-50.230743,-7.173696,-14.182730,3.924931,-16.116713,-1.188168,4.424403,-0.821780,11.463269,3.250052,9.712963,17.567396,8064.000000,0.000000,4.000000,,,,0.000000,4.000000,4.000000,4.000000,4.000000,4.000000,4.000000,4.000000,4.000000,2.000000,4.000000,4.000000,4.000000,4.000000,4.000000,4.000000,4.000000,4.000000,4.000000,4.000000,4.000000,4.000000,4.000000,4.000000,4.000000,4.000000,4.000000,4.000000,4.000000,4.000000,4.000000,4.000000,4.000000,83.333336
1614045105.131936,53.000000,0.000000,4.420892,14.269325,-58.373962,7.662682,-9.472353,20.858149,16.122986,5.319475,-0.743865,-12.303226,-13.967175,3.431885,10.262624,-24.912525,-29.682617,-111.719246,-19.004721,-63.505363,-139.924835,-114.292526,-62.488205,-18.448574,-19.296753,-19.155916,-24.305725,-0.674159,2.881517,-0.820958,11.451805,2.733981,9.703250,18.062651,8064.000000,0.000000,4.000000,,,,0.000000,4.000000,4.000000,4.000000,4.000000,4.000000,4.000000,4.000000,4.000000,2.000000,4.000000,4.000000,4.000000,4.000000,4.000000,4.000000,4.000000,4.000000,4.000000,4.000000,4.000000,4.000000,4.000000,4.000000,4.000000,4.000000,4.000000,4.000000,4.000000,4.000000,4.000000,4.000000,4.000000,83.333336
1614045105.139685,54.000000,0.000000,4.416471,13.742235,-53.700203,4.578096,-9.975701,18.786009,15.594042,7.878259,0.795340,-12.290923,-6.773721,2.915633,17.944670,-21.810690,-5.550370,-101.351120,-11.293409,-59.339294,-142.861832,-112.126945,-50.118023,-14.327561,-20.815918,-26.829069,-20.178854,-2.724767,-1.223928,-2.358599,10.927533,6.833811,9.693546,18.044588,8064.000000,0.000000,4.000000,,,,0.000000,4.000000,4.000000,4.000000,4.000000,4.000000,4.000000,4.000000,4.000000,2.000000,4.000000,4.000000,4.000000,4.000000,4.000000,4.000000,4.000000,4.000000,4.000000,4.000000,4.000000,4.000000,4.000000,4.000000,4.000000,4.000000,4.000000,4.000000,4.000000,4.000000,4.000000,4.000000,4.000000,83.333336
1614045105.147534,55.000000,0.000000,3.899234,13.728494,-56.210606,-8.759815,-10.991366,3.382607,10.963063,3.767816,-0.231096,-16.381197,-7.792589,5.476820,25.106211,-7.942725,21.634666,-68.429253,-7.692372,-26.459444,-109.898453,-90.989182,-20.324316,7.225228,-11.051512,-20.135572,-6.312522,2.406163,3.392680,0.720683,10.403785,10.416721,9.171033,16.488081,8064.000000,0.000000,4.000000,,,,0.000000,4.000000,4.000000,4.000000,4.000000,4.000000,4.000000,4.000000,4.000000,2.000000,4.000000,4.000000,4.000000,4.000000,4.000000,4.000000,4.000000,4.000000,4.000000,4.000000,4.000000,4.000000,4.000000,4.000000,4.000000,4.000000,4.000000,4.000000,4.000000,4.000000,4.000000,4.000000,4.000000,83.333336
1614045105.155283,56.000000,0.000000,6.459437,14.227586,-55.641575,-12.340798,-9.954734,-1.236161,8.900819,0.687125,1.307596,-9.185328,-8.810437,9.573907,41.491360,7.962654,33.407906,-35.540314,-4.094936,6.387529,-76.968040,-60.641781,7.388316,29.782104,9.985181,3.474306,12.668150,12.147346,20.312365,8.412270,11.419023,13.996048,9.674682,21.599798,8192.000000,0.000000,4.000000,,,,0.000000,4.000000,4.000000,4.000000,4.000000,4.000000,4.000000,4.000000,4.000000,2.000000,4.000000,4.000000,4.000000,4.000000,4.000000,4.000000,4.000000,4.000000,4.000000,4.000000,4.000000,4.000000,4.000000,4.000000,4.000000,4.000000,4.000000,4.000000,4.000000,4.000000,4.000000,4.000000,4.000000,83.333336
1614045105.163132,57.000000,0.000000,10.555542,13.187716,-55.073112,-9.764356,-9.944779,2.867640,9.404738,6.327464,0.793468,0.054627,-5.211883,9.564333,46.065254,11.544436,32.348854,-35.504772,7.704031,10.483706,-80.480820,-38.529858,17.124517,45.136940,22.795710,29.624678,23.424711,14.699302,28.497181,10.455139,13.458885,17.058975,9.665008,27.732044,8064.000000,0.000000,4.000000,,,,0.000000,4.000000,4.000000,4.000000,4.000000,4.000000,4.000000,4.000000,4.000000,2.000000,4.000000,4.000000,4.000000,4.000000,4.000000,4.000000,4.000000,4.000000,4.000000,4.000000,4.000000,4.000000,4.000000,4.000000,4.000000,4.000000,4.000000,4.000000,4.000000,4.000000,4.000000,4.000000,4.000000,83.333336
1614045105.170881,58.000000,0.000000,12.083448,14.200171,-57.069321,-11.293053,-11.473296,3.377593,9.395333,11.449342,0.279854,-0.458248,4.536919,17.247076,43.967907,14.096993,34.367790,-44.700035,28.209146,8.934760,-75.784950,-20.029789,16.081751,57.399494,23.798553,40.364285,21.350006,13.658961,26.417400,9.931864,14.471067,17.041916,8.629702,28.217133,8192.000000,0.000000,4.000000,,,,0.000000,4.000000,4.000000,4.000000,4.000000,4.000000,4.000000,4.000000,4.000000,2.000000,4.000000,4.000000,4.000000,4.000000,4.000000,4.000000,4.000000,4.000000,4.000000,4.000000,4.000000,4.000000,4.000000,4.000000,4.000000,4.000000,4.000000,4.000000,4.000000,4.000000,4.000000,4.000000,4.000000,83.333336
1614045105.178730,59.000000,0.000000,14.635468,18.801355,-50.345585,-8.717657,-7.872079,8.502420,10.924399,12.463533,6.946241,-1.483431,13.763151,27.486240,44.949581,18.698280,32.282139,-40.552773,44.591194,14.054030,-60.324554,-1.035400,18.629772,65.547226,31.979883,43.913662,20.815834,16.722225,34.596111,17.101419,17.020699,16.512053,11.697994,31.265839,8192.000000,0.000000,4.000000,,,,0.000000,4.000000,4.000000,4.000000,4.000000,4.000000,4.000000,4.000000,4.000000,2.000000,4.000000,4.000000,4.000000,4.000000,4.000000,4.000000,4.000000,4.000000,4.000000,4.000000,4.000000,4.000000,4.000000,4.000000,4.000000,4.000000,4.000000,4.000000,4.000000,4.000000,4.000000,4.000000,4.000000,83.333336
1614045105.186479,60.000000,0.000000,18.723396,21.859476,-34.397804,0.521830,2.392203,17.724688,12.964757,14.502352,13.093141,2.107796,15.287849,18.740805,35.673862,17.141121,14.813959,-45.127605,43.520962,11.475874,-75.136024,-1.034364,18.611143,67.532959,39.640213,51.049236,23.359121,18.756784,42.766644,22.212523,21.619062,17.008362,18.352962,40.465343,8192.000000,0.000000,4.000000,,,,0.000000,4.000000,4.000000,4.000000,4.000000,4.000000,4.000000,4.000000,4.000000,2.000000,4.000000,4.000000,4.000000,4.000000,4.000000,4.000000,4.000000,4.000000,4.000000,4.000000,4.000000,4.000000,4.000000,4.000000,4.000000,4.000000,4.000000,4.000000,4.000000,4.000000,4.000000,4.000000,4.000000,83.333336
1614045105.194328,61.000000,0.000000,20.243134,21.837616,-26.671099,6.675154,7.518016,18.732603,12.951793,15.000669,8.977484,3.644150,14.246921,10.516935,18.715111,13.534236,-0.585470,-60.979912,35.272312,2.746449,-96.086525,-15.905125,11.413044,61.311577,38.062111,54.587933,19.746019,17.712387,30.416185,19.113388,22.623085,16.478533,21.411533,45.040260,8192.000000,0.000000,4.000000,,,,0.000000,4.000000,4.000000,4.000000,4.000000,4.000000,4.000000,4.000000,4.000000,2.000000,4.000000,4.000000,4.000000,4.000000,4.000000,4.000000,4.000000,4.000000,4.000000,4.000000,4.000000,4.000000,4.000000,4.000000,4.000000,4.000000,4.000000,4.000000,4.000000,4.000000,4.000000,4.000000,4.000000,83.333336
1614045105.202077,62.000000,0.000000,19.710070,21.302959,-31.259813,3.591556,3.407934,14.098486,12.938841,14.472849,3.327481,2.102044,15.258314,23.326931,14.593832,13.007881,1.979218,-62.970215,34.724220,1.718062,-77.016083,-20.504604,7.299067,47.404114,34.947124,49.917957,17.674992,17.694675,20.129358,18.068632,22.087641,16.462055,19.851660,42.943939,8192.000000,0.000000,4.000000,,,,0.000000,4.000000,4.000000,4.000000,4.000000,4.000000,4.000000,4.000000,4.000000,2.000000,4.000000,4.000000,4.000000,4.000000,4.000000,4.000000,4.000000,4.000000,4.000000,4.000000,4.000000,4.000000,4.000000,4.000000,4.000000,4.000000,4.000000,4.000000,4.000000,4.000000,4.000000,4.000000,4.000000,83.333336
1614045105.209926,63.000000,0.000000,19.177540,21.794476,-27.125990,3.587965,7.507090,18.699772,12.925901,17.022478,7.426717,3.638403,14.730236,23.303604,18.681803,12.994874,-1.612505,-64.958527,25.971546,-0.334938,-56.426247,-31.253330,-0.400540,31.972094,23.630127,40.124451,10.477829,17.676981,19.596409,18.050564,23.091194,16.445593,20.857450,41.875355,8192.000000,0.000000,4.000000,,,,0.000000,4.000000,4.000000,4.000000,4.000000,4.000000,4.000000,4.000000,4.000000,2.000000,4.000000,4.000000,4.000000,4.000000,4.000000,4.000000,4.000000,4.000000,4.000000,4.000000,4.000000,4.000000,4.000000,4.000000,4.000000,4.000000,4.000000,4.000000,4.000000,4.000000,4.000000,4.000000,4.000000,83.333336
1614045105.217675,64.000000,0.000000,13.004516,21.772682,-11.714248,13.840787,17.755993,29.963123,12.912976,16.492636,15.624419,6.198867,14.202685,0.716198,13.534915,12.469058,-27.251919,-90.534592,-4.823655,-26.488449,-88.677513,-63.529770,-29.118088,12.452942,-0.496068,21.109968,-14.660854,12.018278,9.320402,11.365847,19.991180,16.429148,20.323772,43.371941,0.000000,198.000000,4.000000,,,,0.000000,4.000000,4.000000,4.000000,4.000000,4.000000,4.000000,4.000000,4.000000,2.000000,4.000000,4.000000,4.000000,4.000000,4.000000,4.000000,4.000000,4.000000,4.000000,4.000000,4.000000,4.000000,4.000000,4.000000,4.000000,4.000000,4.000000,4.000000,4.000000,4.000000,4.000000,4.000000,4.000000,83.333336
1614045105.225524,65.000000,0.000000,3.760742,20.725267,-17.856380,14.852587,7.481827,27.369059,13.412884,14.937681,16.634436,6.705489,14.188482,-1.848620,8.393175,12.456589,-41.070820,-105.315857,-25.844473,-53.641449,-120.896530,-91.671371,-53.191532,-5.508229,-16.393007,-5.064988,-30.543629,4.313952,-2.996611,6.226276,15.355804,16.412718,13.123960,41.790108,0.000000,191.000000,4.000000,,,,0.000000,4.000000,4.000000,4.000000,4.000000,4.000000,4.000000,4.000000,4.000000,2.000000,4.000000,4.000000,4.000000,4.000000,4.000000,4.000000,4.000000,4.000000,4.000000,4.000000,4.000000,4.000000,4.000000,4.000000,4.000000,4.000000,4.000000,4.000000,4.000000,4.000000,4.000000,4.000000,4.000000,83.333336
1614045105.233274,66.000000,0.000000,0.167238,18.653261,-42.453907,-3.110984,-16.115398,13.495535,11.348188,14.922744,9.438313,6.185963,13.148653,14.563484,16.589911,12.956953,-19.491287,-83.672073,-20.690422,-38.716011,-104.365372,-74.656616,-39.292187,1.163946,-15.863794,-20.444538,-16.666931,1.745535,-1.967973,5.194409,13.801988,16.396305,10.033914,36.620113,0.000000,195.000000,4.000000,,,,0.000000,4.000000,4.000000,4.000000,4.000000,4.000000,4.000000,4.000000,4.000000,2.000000,4.000000,4.000000,4.000000,4.000000,4.000000,4.000000,4.000000,4.000000,4.000000,4.000000,4.000000,4.000000,4.000000,4.000000,4.000000,4.000000,4.000000,4.000000,4.000000,4.000000,4.000000,4.000000,4.000000,83.333336
1614045105.240923,67.000000,0.000000,0.679891,17.096146,-46.001198,-11.825821,-20.201847,6.302552,8.772738,13.369359,3.787850,6.179777,11.084222,14.036100,27.855371,11.918355,7.707691,-59.485840,-14.003066,-7.395245,-71.440498,-54.069141,-17.201614,19.624321,-15.335110,-11.706145,-6.906675,2.256610,0.598097,-0.964632,14.813827,16.379910,15.152085,34.532211,0.000000,172.000000,4.000000,,,,0.000000,4.000000,4.000000,4.000000,4.000000,4.000000,4.000000,4.000000,4.000000,4.000000,4.000000,4.000000,4.000000,4.000000,4.000000,4.000000,4.000000,4.000000,4.000000,4.000000,4.000000,4.000000,4.000000,4.000000,4.000000,4.000000,4.000000,4.000000,4.000000,4.000000,4.000000,4.000000,4.000000,100.000000
1614045105.248672,68.000000,0.000000,0.679211,18.104691,-29.544941,2.032158,-8.899593,9.373173,8.763965,11.304708,4.296883,6.173597,9.534677,2.227193,29.365978,12.932077,15.905111,-58.400715,-11.937780,-9.951952,-77.010078,-59.656097,-15.133131,18.066235,-14.806954,0.613253,-8.438231,2.254354,4.700063,-6.091872,14.286192,16.363529,17.701035,47.831013,0.000000,189.000000,4.000000,,,,0.000000,4.000000,4.000000,4.000000,4.000000,4.000000,4.000000,4.000000,4.000000,4.000000,4.000000,4.000000,4.000000,4.000000,4.000000,4.000000,4.000000,4.000000,4.000000,4.000000,4.000000,4.000000,4.000000,4.000000,4.000000,4.000000,4.000000,4.000000,4.000000,4.000000,4.000000,4.000000,4.000000,100.000000
1614045105.256321,69.000000,0.000000,0.678532,17.573765,-24.900011,10.235254,-5.813771,10.902262,9.268022,11.293403,4.805406,5.654603,10.550782,6.840350,27.798151,17.534531,17.940489,-57.829494,7.561337,-18.147127,-90.779228,-52.929775,-5.887228,18.560989,-2.997276,4.715204,5.929183,2.764920,14.438953,-3.008857,14.271906,16.347166,16.144873,60.603691,0.000000,200.000000,4.000000,,,,0.000000,4.000000,4.000000,4.000000,4.000000,4.000000,4.000000,4.000000,4.000000,4.000000,4.000000,4.000000,4.000000,4.000000,4.000000,4.000000,4.000000,4.000000,4.000000,4.000000,4.000000,4.000000,4.000000,4.000000,4.000000,4.000000,4.000000,4.000000,4.000000,4.000000,4.000000,4.000000,4.000000,100.000000
1614045105.264070,70.000000,0.000000,1.190674,13.453628,-32.054596,2.532712,-7.346419,8.327256,7.720292,7.179545,2.236498,5.136128,10.540232,18.628382,29.821634,19.568277,22.537933,-47.515251,31.656340,0.845378,-63.508957,-20.056334,17.195581,44.696274,10.851875,17.531002,20.795048,2.249334,17.501438,-1.467387,14.770454,16.330818,16.641548,48.235397,0.000000,184.000000,4.000000,,,,0.000000,4.000000,4.000000,4.000000,4.000000,4.000000,4.000000,4.000000,4.000000,4.000000,4.000000,4.000000,4.000000,4.000000,4.000000,4.000000,4.000000,4.000000,4.000000,4.000000,4.000000,4.000000,4.000000,4.000000,4.000000,4.000000,4.000000,4.000000,4.000000,4.000000,4.000000,4.000000,4.000000,100.000000
1614045105.271719,71.000000,0.000000,1.189483,8.311969,-42.278954,-5.162129,-7.851893,4.729186,5.148469,0.505699,0.182980,3.079710,6.427127,11.943087,27.227711,17.497427,23.028215,-42.852352,32.650326,6.485559,-57.804424,2.015005,23.332233,65.677216,15.456409,37.000648,15.646048,2.759906,19.535217,-0.953099,13.217222,17.340128,14.060804,26.135880,0.000000,199.000000,4.000000,,,,0.000000,4.000000,4.000000,4.000000,4.000000,4.000000,4.000000,4.000000,4.000000,4.000000,4.000000,4.000000,4.000000,4.000000,4.000000,4.000000,4.000000,4.000000,4.000000,4.000000,4.000000,4.000000,4.000000,4.000000,4.000000,4.000000,4.000000,4.000000,4.000000,4.000000,4.000000,4.000000,4.000000,100.000000
1614045105.279468,72.000000,0.000000,1.188294,3.688272,-52.493084,-6.695428,-9.382503,3.698815,5.143321,-1.546088,0.182797,0.512528,3.856598,-3.453472,20.533815,15.941468,20.953905,-46.912064,24.412546,-5.828619,-79.797905,0.987349,18.693516,65.098724,14.415311,42.604675,10.502197,11.475095,27.207991,3.663239,11.152723,16.297148,6.354436,18.930256,0.000000,201.000000,4.000000,,,,0.000000,4.000000,4.000000,4.000000,4.000000,4.000000,4.000000,4.000000,4.000000,4.000000,4.000000,4.000000,4.000000,4.000000,4.000000,4.000000,4.000000,4.000000,4.000000,4.000000,4.000000,4.000000,4.000000,4.000000,4.000000,4.000000,4.000000,4.000000,4.000000,4.000000,4.000000,4.000000,4.000000,100.000000
1614045105.287118,73.000000,0.000000,1.187106,3.171764,-55.004696,-6.688733,-7.321838,3.695117,5.650998,-0.006081,0.695434,4.614579,6.929664,1.678187,18.462000,16.951168,21.958591,-43.275410,27.977877,11.100286,-57.153999,0.473541,21.751745,62.982342,16.452177,38.972328,20.748104,17.617466,25.129499,6.736498,10.628750,16.280849,4.809620,21.475430,0.000000,213.000000,4.000000,,,,0.000000,4.000000,4.000000,4.000000,4.000000,4.000000,4.000000,4.000000,4.000000,4.000000,4.000000,4.000000,4.000000,4.000000,4.000000,4.000000,4.000000,4.000000,4.000000,4.000000,4.000000,4.000000,4.000000,4.000000,4.000000,4.000000,4.000000,4.000000,4.000000,4.000000,4.000000,4.000000,4.000000,100.000000
1614045105.294867,74.000000,0.000000,1.185918,7.271156,-49.308662,-4.630762,-2.699132,3.691422,5.132526,-0.006075,0.694739,14.353555,11.538119,11.420098,16.905077,17.447037,16.295609,-37.591106,20.770411,27.499443,-30.430180,-5.167958,12.499225,51.124485,15.410085,40.984638,23.804279,14.010104,13.822319,6.729762,11.130941,17.803030,10.445836,24.530876,0.000000,196.000000,4.000000,,,,0.000000,4.000000,4.000000,4.000000,4.000000,4.000000,4.000000,4.000000,4.000000,4.000000,4.000000,4.000000,4.000000,4.000000,4.000000,4.000000,4.000000,4.000000,4.000000,4.000000,4.000000,4.000000,4.000000,4.000000,4.000000,4.000000,4.000000,4.000000,4.000000,4.000000,4.000000,4.000000,4.000000,100.000000
1614045105.302516,75.000000,0.000000,1.184733,10.853628,-47.208073,-3.600490,-2.183612,3.174910,4.614573,-1.031710,0.694044,16.903303,11.013761,-4.488758,8.683043,12.301385,-2.695047,-53.450954,-4.378564,-3.810109,-62.707443,-35.932022,-15.718403,18.765669,-3.579685,32.225704,6.344578,11.431992,7.141830,6.723032,11.119811,12.144202,13.512313,27.070448,0.000000,193.000000,4.000000,,,,0.000000,4.000000,4.000000,4.000000,4.000000,4.000000,4.000000,4.000000,4.000000,4.000000,4.000000,4.000000,4.000000,4.000000,4.000000,4.000000,4.000000,4.000000,4.000000,4.000000,4.000000,4.000000,4.000000,4.000000,4.000000,4.000000,4.000000,4.000000,4.000000,4.000000,4.000000,4.000000,4.000000,100.000000
1614045105.310265,76.000000,0.000000,0.670727,10.329954,-47.160866,-3.084069,-2.694249,3.684555,6.661241,-0.005037,0.693350,13.809477,6.387362,-13.202218,0.982052,4.596776,-19.615429,-85.192375,-17.194698,-36.113991,-94.952431,-68.203781,-34.164223,-5.355660,-22.037643,5.013990,-13.661766,4.753893,0.980842,1.075284,8.031768,1.362827,10.934698,25.504915,0.000000,220.000000,4.000000,,,,0.000000,4.000000,4.000000,4.000000,4.000000,4.000000,4.000000,4.000000,4.000000,4.000000,4.000000,4.000000,4.000000,4.000000,4.000000,4.000000,4.000000,4.000000,4.000000,4.000000,4.000000,4.000000,4.000000,4.000000,4.000000,4.000000,4.000000,4.000000,4.000000,4.000000,4.000000,4.000000,4.000000,100.000000
1614045105.317914,77.000000,0.000000,1.182877,9.806804,-45.575241,-2.055344,-1.665914,3.680871,9.218682,4.610353,1.205477,13.795668,3.304052,13.477651,3.032352,1.002436,-20.621454,-94.850769,-11.023658,-33.513775,-78.960037,-70.699677,-34.130058,0.803541,-15.348939,-18.067947,-20.827591,-9.097014,-1.071420,-4.566817,3.408351,-3.253920,8.872481,21.889668,0.000000,199.000000,4.000000,,,,0.000000,4.000000,4.000000,4.000000,4.000000,4.000000,4.000000,4.000000,4.000000,4.000000,4.000000,4.000000,4.000000,4.000000,4.000000,4.000000,4.000000,4.000000,4.000000,4.000000,4.000000,4.000000,4.000000,4.000000,4.000000,4.000000,4.000000,4.000000,4.000000,4.000000,4.000000,4.000000,4.000000,100.000000
1614045105.325663,78.000000,0.000000,3.745797,10.822638,-51.170692,-4.617392,-4.228350,4.190010,8.696643,7.682665,-0.334190,12.243410,2.787927,25.771866,8.670345,2.539895,-13.421346,-75.781563,-8.448531,-24.249491,-62.983643,-54.731544,-31.019007,18.751455,1.589487,-15.485776,-21.832405,-10.626379,7.647600,-0.972507,3.404943,-1.712205,9.376430,19.303675,0.000000,201.000000,4.000000,,,,0.000000,4.000000,4.000000,4.000000,4.000000,4.000000,4.000000,4.000000,4.000000,4.000000,4.000000,4.000000,4.000000,4.000000,4.000000,4.000000,4.000000,4.000000,4.000000,4.000000,4.000000,4.000000,4.000000,4.000000,4.000000,4.000000,4.000000,4.000000,4.000000,4.000000,4.000000,4.000000,4.000000,100.000000
1614045105.333312,79.000000,0.000000,4.767692,10.298995,-59.324650,-9.228159,-8.326686,3.673000,9.200767,7.162162,-2.385138,6.590141,3.810780,2.669171,11.738598,3.050176,-8.792540,-65.449371,-10.491364,-24.225243,-73.177071,-48.010147,-30.475166,25.912191,4.664820,3.504068,-18.220829,3.230401,16.357901,3.131030,6.991282,-1.710493,9.879873,13.130526,0.000000,208.000000,4.000000,,,,0.000000,4.000000,4.000000,4.000000,4.000000,4.000000,4.000000,4.000000,4.000000,4.000000,4.000000,4.000000,4.000000,4.000000,4.000000,4.000000,4.000000,4.000000,4.000000,4.000000,4.000000,4.000000,4.000000,4.000000,4.000000,4.000000,4.000000,4.000000,4.000000,4.000000,4.000000,4.000000,4.000000,100.000000
1614045105.341061,80.000000,0.000000,4.762924,10.288695,-60.290966,-10.244572,-8.831180,3.669327,15.345412,7.155000,-2.895573,6.070731,3.294149,-1.436062,13.778142,1.508664,-9.296568,-82.819817,-8.429591,-32.406143,-79.770561,-48.987778,-29.931871,24.860638,2.608873,15.808256,-9.484660,8.868196,16.341543,2.615078,8.009932,-1.708782,9.357173,10.553292,0.000000,164.000000,4.000000,,,,0.000000,4.000000,4.000000,4.000000,4.000000,4.000000,4.000000,4.000000,4.000000,4.000000,4.000000,4.000000,4.000000,4.000000,4.000000,4.000000,4.000000,4.000000,4.000000,4.000000,4.000000,4.000000,4.000000,4.000000,4.000000,4.000000,4.000000,4.000000,4.000000,4.000000,4.000000,4.000000,4.000000,100.000000
1614045105.348711,81.000000,0.000000,4.758162,10.278407,-65.358879,-9.721506,-10.873631,4.178478,16.355707,10.224769,-2.892678,6.064660,2.778034,26.257681,13.251543,0.994335,-13.902656,-95.557510,-9.446803,-40.578865,-79.177971,-48.425968,-28.876297,25.348598,4.144726,16.818089,-2.808508,5.269585,16.325201,3.638104,6.976281,-2.219894,9.347816,9.517098,0.000000,204.000000,4.000000,,,,0.000000,4.000000,4.000000,4.000000,4.000000,4.000000,4.000000,4.000000,4.000000,4.000000,4.000000,4.000000,4.000000,4.000000,4.000000,4.000000,4.000000,4.000000,4.000000,4.000000,4.000000,4.000000,4.000000,4.000000,4.000000,4.000000,4.000000,4.000000,4.000000,4.000000,4.000000,4.000000,4.000000,100.000000
1614045105.356460,82.000000,0.000000,4.753403,10.268128,-78.626854,-11.250246,-20.606346,2.635838,11.211147,10.727364,-2.889785,0.930390,2.775256,28.795527,14.263932,3.044622,-10.811831,-79.564514,-7.386074,-31.820339,-76.021866,-47.351902,-25.257677,28.912992,7.730325,16.288450,-2.805700,6.802776,19.385799,6.711389,7.482125,-1.192033,8.825647,0.789632,0.000000,217.000000,4.000000,,,,0.000000,4.000000,4.000000,4.000000,4.000000,4.000000,4.000000,4.000000,4.000000,4.000000,4.000000,4.000000,4.000000,4.000000,4.000000,4.000000,4.000000,4.000000,4.000000,4.000000,4.000000,4.000000,4.000000,4.000000,4.000000,4.000000,4.000000,4.000000,4.000000,4.000000,4.000000,4.000000,4.000000,100.000000
1614045105.364109,83.000000,0.000000,5.261470,10.257860,-82.650795,-14.315919,-25.201124,-3.007824,10.687116,10.716637,-2.374074,-0.609002,3.798122,2.612885,17.326591,-3.625089,-0.031787,-67.690079,8.518748,-24.609032,-70.817642,-46.278908,-24.206779,30.935362,12.850800,18.323444,-5.879817,7.821615,20.904875,6.704678,8.500283,-0.165200,9.842463,-5.365004,0.000000,182.000000,4.000000,,,,0.000000,4.000000,4.000000,4.000000,4.000000,4.000000,4.000000,4.000000,4.000000,4.000000,4.000000,4.000000,4.000000,4.000000,4.000000,4.000000,4.000000,4.000000,4.000000,4.000000,4.000000,4.000000,4.000000,4.000000,4.000000,4.000000,4.000000,4.000000,4.000000,4.000000,4.000000,4.000000,4.000000,100.000000
1614045105.371858,84.000000,0.000000,7.820312,10.247602,-86.157883,-18.404167,-23.637463,-7.620201,12.727710,11.218740,-4.935803,-2.659675,1.743042,3.635913,16.796444,-20.544540,2.019526,-84.032646,22.356382,-42.020321,-82.028877,-47.771091,-26.233854,29.365965,18.478975,18.305120,-10.489322,0.121485,20.371149,6.185153,1.312296,-7.857343,8.806980,-5.359639,0.000000,183.000000,4.000000,,,,0.000000,4.000000,4.000000,4.000000,4.000000,4.000000,4.000000,4.000000,4.000000,4.000000,4.000000,4.000000,4.000000,4.000000,4.000000,4.000000,4.000000,4.000000,4.000000,4.000000,4.000000,4.000000,4.000000,4.000000,4.000000,4.000000,4.000000,4.000000,4.000000,4.000000,4.000000,4.000000,4.000000,100.000000
1614045105.379507,85.000000,0.000000,8.838132,10.237355,-99.405060,-23.513968,-30.280491,-8.125401,8.612418,8.130599,-10.059072,-11.887784,-1.335624,25.683559,14.728366,-23.088099,-7.213263,-90.102463,22.334026,-49.670609,-102.972488,-48.236141,-19.540955,29.849421,18.973316,17.261175,-15.607038,-8.596585,19.837957,6.178967,-8.432606,-20.669998,1.618685,-10.482484,0.000000,198.000000,4.000000,,,,0.000000,4.000000,4.000000,4.000000,4.000000,4.000000,4.000000,4.000000,4.000000,4.000000,4.000000,4.000000,4.000000,4.000000,4.000000,4.000000,4.000000,4.000000,4.000000,4.000000,4.000000,4.000000,4.000000,4.000000,4.000000,4.000000,4.000000,4.000000,4.000000,4.000000,4.000000,4.000000,4.000000,100.000000
1614045105.387356,86.000000,0.000000,8.316474,10.227118,-93.664627,-24.516096,-30.250212,-7.604455,4.501242,8.122468,-10.561833,-12.901538,4.306737,17.452747,17.790560,-1.526549,-2.590665,-70.525177,20.260410,-30.646578,-91.587463,-34.854572,-1.572695,39.050339,18.954342,16.731092,-12.514507,-8.587988,20.330940,6.172788,-5.860071,-23.213430,-1.972677,-9.446361,0.000000,190.000000,4.000000,,,,0.000000,4.000000,4.000000,4.000000,4.000000,4.000000,4.000000,4.000000,4.000000,4.000000,4.000000,4.000000,4.000000,4.000000,4.000000,4.000000,4.000000,4.000000,4.000000,4.000000,4.000000,4.000000,4.000000,4.000000,4.000000,4.000000,4.000000,4.000000,4.000000,4.000000,4.000000,4.000000,4.000000,100.000000
1614045105.395105,87.000000,0.000000,8.820977,10.216890,-69.981224,-22.440298,-12.784063,-7.084030,5.009561,12.729731,-6.961528,-2.632226,12.507559,-5.641629,22.900974,14.372414,12.796541,-67.890549,22.804253,-17.795418,-59.188183,-20.973564,7.146826,41.575394,19.448210,17.740004,-4.296865,-4.989656,20.310610,6.679436,2.863738,-19.087652,2.644681,4.409240,0.000000,194.000000,4.000000,,,,0.000000,4.000000,4.000000,4.000000,4.000000,4.000000,4.000000,4.000000,4.000000,4.000000,4.000000,4.000000,4.000000,4.000000,4.000000,4.000000,4.000000,4.000000,4.000000,4.000000,4.000000,4.000000,4.000000,4.000000,4.000000,4.000000,4.000000,4.000000,4.000000,4.000000,4.000000,4.000000,4.000000,100.000000
1614045105.402954,88.000000,0.000000,8.299336,10.206674,-64.783035,-20.366575,-6.104613,-7.589767,5.517372,12.717000,-5.928926,-0.065491,8.905308,3.594782,21.339613,13.845221,10.732463,-77.566254,21.242987,-19.828905,-56.052071,-27.106436,-0.039808,29.226124,13.274915,16.183802,-6.856671,-4.471847,17.726196,5.134295,3.886515,-20.094206,6.744600,12.097138,0.000000,193.000000,4.000000,,,,0.000000,4.000000,4.000000,4.000000,4.000000,4.000000,4.000000,4.000000,4.000000,4.000000,4.000000,4.000000,4.000000,4.000000,4.000000,4.000000,4.000000,4.000000,4.000000,4.000000,4.000000,4.000000,4.000000,4.000000,4.000000,4.000000,4.000000,4.000000,4.000000,4.000000,4.000000,4.000000,4.000000,100.000000
1614045105.410703,89.000000,0.000000,5.726934,10.196467,-66.769531,-18.294926,-15.329277,-7.582177,4.999034,7.063258,-6.948638,-1.603887,1.204094,20.001444,18.241350,14.857017,-4.662885,-59.539967,15.580718,-15.193691,-73.944740,-36.822918,-4.142332,20.478949,4.543691,10.013771,-14.029302,-4.980195,13.605906,3.077879,0.292885,-20.586933,5.712214,10.033759,0.000000,201.000000,4.000000,,,,0.000000,4.000000,4.000000,4.000000,4.000000,4.000000,4.000000,4.000000,4.000000,4.000000,4.000000,4.000000,4.000000,4.000000,4.000000,4.000000,4.000000,4.000000,4.000000,4.000000,4.000000,4.000000,4.000000,4.000000,4.000000,4.000000,4.000000,4.000000,4.000000,4.000000,4.000000,4.000000,4.000000,100.000000
1614045105.418552,90.000000,0.000000,4.182745,10.186271,-55.933533,-17.250990,-15.313948,-1.420748,4.994035,6.543374,-5.916048,0.961819,-0.335571,4.084006,18.735929,10.226774,-7.735145,-36.916325,12.488214,-7.486190,-71.819511,-36.786095,-1.574087,25.073854,3.000686,3.849912,-13.502452,-4.462394,12.053839,2.049160,-0.220228,-16.463781,5.193682,10.536546,0.000000,210.000000,4.000000,,,,0.000000,4.000000,4.000000,4.000000,4.000000,4.000000,4.000000,4.000000,4.000000,4.000000,4.000000,4.000000,4.000000,4.000000,4.000000,4.000000,4.000000,4.000000,4.000000,4.000000,4.000000,4.000000,4.000000,4.000000,4.000000,4.000000,4.000000,4.000000,4.000000,4.000000,4.000000,4.000000,4.000000,100.000000
1614045105.426301,91.000000,0.000000,4.691383,10.176085,-56.903240,-16.720919,-14.272993,4.221698,5.501862,6.536831,-6.422953,-7.244271,-4.950620,-15.920077,12.050527,-13.373196,-3.112025,-57.905048,12.475726,-17.735115,-67.132309,-48.031361,-15.418667,22.997499,4.023326,4.358882,-18.617153,-4.457932,12.041785,2.559931,0.805633,-16.447317,6.726949,10.526009,0.000000,184.000000,4.000000,,,,0.000000,4.000000,4.000000,4.000000,4.000000,4.000000,4.000000,4.000000,4.000000,4.000000,4.000000,4.000000,4.000000,4.000000,4.000000,4.000000,4.000000,4.000000,4.000000,4.000000,4.000000,4.000000,4.000000,4.000000,4.000000,4.000000,4.000000,4.000000,4.000000,4.000000,4.000000,4.000000,4.000000,100.000000
1614045105.434150,92.000000,0.000000,4.686692,10.165908,-70.179672,-17.729839,-26.566412,0.114912,5.496360,1.914909,-10.519094,-24.160103,-17.766182,1.531740,-3.346139,-36.436745,-13.365324,-90.154839,8.360686,-43.358406,-89.116455,-65.419228,-33.864788,16.307835,2.993662,5.380164,-28.342127,-4.453474,9.465640,2.557371,0.292007,-20.020615,4.668941,6.925739,0.000000,183.000000,4.000000,,,,0.000000,4.000000,4.000000,4.000000,4.000000,4.000000,4.000000,4.000000,4.000000,4.000000,4.000000,4.000000,4.000000,4.000000,4.000000,4.000000,4.000000,4.000000,4.000000,4.000000,4.000000,4.000000,4.000000,4.000000,4.000000,4.000000,4.000000,4.000000,4.000000,4.000000,4.000000,4.000000,4.000000,100.000000
1614045105.441899,93.000000,0.000000,4.682005,10.155743,-71.647957,-17.199289,-33.719334,-3.474946,4.978043,-1.676749,-14.098318,-28.751328,-25.440723,23.581490,-10.522281,-44.605438,-26.172472,-106.987755,9.377967,-58.699661,-103.899132,-55.610218,-25.625793,29.112040,4.016309,0.246579,-23.185579,-4.449021,7.917713,2.554814,0.291715,-17.949312,2.612989,5.893173,0.000000,178.000000,4.000000,,,,0.000000,4.000000,4.000000,4.000000,4.000000,4.000000,4.000000,4.000000,4.000000,4.000000,4.000000,4.000000,4.000000,4.000000,4.000000,4.000000,4.000000,4.000000,4.000000,4.000000,4.000000,4.000000,4.000000,4.000000,4.000000,4.000000,4.000000,4.000000,4.000000,4.000000,4.000000,4.000000,4.000000,100.000000
1614045105.449748,94.000000,0.000000,4.677323,10.145587,-67.473740,-15.130807,-29.070229,1.656734,4.973065,-1.675073,-14.084220,-24.620012,-20.799898,10.224575,0.257473,-43.535191,-12.300145,-85.342308,22.701921,-39.666603,-81.231133,-24.272556,0.040858,52.672672,7.602036,1.784794,-10.854702,-4.444571,9.961078,2.552259,0.291423,-12.290337,2.097556,6.400100,0.000000,180.000000,4.000000,,,,0.000000,4.000000,4.000000,4.000000,4.000000,4.000000,4.000000,4.000000,4.000000,4.000000,4.000000,4.000000,4.000000,4.000000,4.000000,4.000000,4.000000,4.000000,4.000000,4.000000,4.000000,4.000000,4.000000,4.000000,4.000000,4.000000,4.000000,4.000000,4.000000,4.000000,4.000000,4.000000,4.000000,100.000000
1614045105.457497,95.000000,0.000000,4.672646,10.135441,-66.380630,-13.577215,-27.502697,5.244821,5.480912,3.454808,-14.070136,-21.518469,-10.522689,-1.067701,9.487985,-30.671143,11.814719,-54.487736,35.499733,-8.857706,-50.893490,-3.735464,10.297227,60.312305,10.671357,20.244547,-9.305386,-4.440127,12.515219,2.549707,0.803952,-11.252405,1.069817,6.393700,0.000000,188.000000,4.000000,,,,0.000000,4.000000,4.000000,4.000000,4.000000,4.000000,4.000000,4.000000,4.000000,4.000000,4.000000,4.000000,4.000000,4.000000,4.000000,4.000000,4.000000,4.000000,4.000000,4.000000,4.000000,4.000000,4.000000,4.000000,4.000000,4.000000,4.000000,4.000000,4.000000,4.000000,4.000000,4.000000,4.000000,100.000000
1614045105.465346,96.000000,0.000000,4.667974,10.638126,-66.314247,-13.563638,-26.449554,3.701114,4.962611,8.066737,-14.568886,-13.291822,-5.896781,24.061573,8.452855,-12.178933,11.802905,-49.305042,36.489876,-10.900130,-48.791317,-2.706087,6.184366,58.713531,13.737609,37.660202,-11.347362,-4.435687,14.553986,2.547157,0.290328,-12.779614,-2.008176,6.387306,8064.000000,0.000000,4.000000,,,,0.000000,4.000000,4.000000,4.000000,4.000000,4.000000,4.000000,4.000000,4.000000,4.000000,4.000000,4.000000,4.000000,4.000000,4.000000,4.000000,4.000000,4.000000,4.000000,4.000000,4.000000,4.000000,4.000000,4.000000,4.000000,4.000000,4.000000,4.000000,4.000000,4.000000,4.000000,4.000000,4.000000,100.000000
1614045105.473095,97.000000,0.000000,4.663305,10.114668,-64.709473,-11.498792,-22.320539,3.184593,4.444828,4.981748,-8.913292,-3.534941,-4.352423,32.755459,9.982864,-5.500087,-0.003770,-60.024967,31.837999,-33.453331,-61.563038,-15.011074,5.152541,57.629177,14.749513,39.673824,-9.797553,-4.944072,16.077894,2.544610,0.802858,-12.254014,-2.006167,5.355278,8064.000000,0.000000,4.000000,,,,0.000000,4.000000,4.000000,4.000000,4.000000,4.000000,4.000000,4.000000,4.000000,4.000000,4.000000,4.000000,4.000000,4.000000,4.000000,4.000000,4.000000,4.000000,4.000000,4.000000,4.000000,4.000000,4.000000,4.000000,4.000000,4.000000,4.000000,4.000000,4.000000,4.000000,4.000000,4.000000,4.000000,100.000000
1614045105.480944,98.000000,0.000000,4.658642,10.617373,-55.926811,-7.384729,-15.118732,4.207049,10.081409,7.540868,-0.186430,1.083979,3.344237,4.004755,17.152369,-1.904844,9.227003,-51.246994,27.703598,-29.830135,-61.501472,-24.739653,6.173029,52.443344,14.734763,36.044407,-9.274935,-3.913487,16.061815,3.054886,1.314876,-10.703299,-0.465700,6.888384,8064.000000,0.000000,4.000000,,,,0.000000,4.000000,4.000000,4.000000,4.000000,4.000000,4.000000,4.000000,4.000000,4.000000,4.000000,4.000000,4.000000,4.000000,4.000000,4.000000,4.000000,4.000000,4.000000,4.000000,4.000000,4.000000,4.000000,4.000000,4.000000,4.000000,4.000000,4.000000,4.000000,4.000000,4.000000,4.000000,4.000000,100.000000
1614045105.488694,99.000000,0.000000,4.653984,10.606756,-44.588833,-5.326062,-7.924127,4.202842,16.225174,21.379482,2.890680,3.646997,12.571662,0.411007,22.263422,8.866292,26.653673,-25.041901,27.675894,0.968925,-46.568176,-24.714912,4.628395,47.262695,14.720028,33.444260,-8.752840,-3.396753,16.558575,2.539010,-3.301824,-12.231057,-3.542157,10.984060,8064.000000,0.000000,4.000000,,,,0.000000,4.000000,4.000000,4.000000,4.000000,4.000000,4.000000,4.000000,4.000000,4.000000,4.000000,4.000000,4.000000,4.000000,4.000000,4.000000,4.000000,4.000000,4.000000,4.000000,4.000000,4.000000,4.000000,4.000000,4.000000,4.000000,4.000000,4.000000,4.000000,4.000000,4.000000,4.000000,4.000000,100.000000
1614045105.496343,100.000000,0.000000,4.649330,7.006405,-45.569885,-5.833557,-9.967484,4.198639,15.696128,23.922205,0.323687,4.156170,12.046270,28.615725,21.728336,15.011271,28.678303,-8.093782,27.135397,21.993597,-36.778019,-24.177378,3.598125,45.164150,13.166846,29.308250,-9.769728,-8.008740,16.542015,0.485189,-9.965189,-15.295749,-10.718102,8.408974,8064.000000,0.000000,4.000000,,,,0.000000,4.000000,4.000000,4.000000,4.000000,4.000000,4.000000,4.000000,4.000000,4.000000,4.000000,4.000000,4.000000,4.000000,4.000000,4.000000,4.000000,4.000000,4.000000,4.000000,4.000000,4.000000,4.000000,4.000000,4.000000,4.000000,4.000000,4.000000,4.000000,4.000000,4.000000,4.000000,4.000000,100.000000
1614045105.504092,101.000000,0.000000,4.131860,2.896835,-47.062778,-6.340544,-7.393414,3.168800,12.090688,15.693154,1.861825,4.664835,10.495762,29.612749,20.168148,17.047543,23.008598,-11.675432,25.569801,15.817758,-37.766884,-19.537815,13.850937,46.144627,10.076756,26.714838,-10.272779,-8.000731,14.987012,-1.053757,-11.493685,-13.741992,-12.758666,6.862103,8064.000000,0.000000,4.000000,,,,0.000000,4.000000,4.000000,4.000000,4.000000,4.000000,4.000000,4.000000,4.000000,4.000000,4.000000,4.000000,4.000000,4.000000,4.000000,4.000000,4.000000,4.000000,4.000000,4.000000,4.000000,4.000000,4.000000,4.000000,4.000000,4.000000,4.000000,4.000000,4.000000,4.000000,4.000000,4.000000,4.000000,100.000000
1614045105.511741,102.000000,0.000000,5.153369,2.381118,-39.323406,-5.821383,6.460133,4.704093,12.591417,18.241564,6.988168,9.275555,13.562189,8.557496,21.173620,19.594597,23.498409,-35.766319,34.775002,-5.223701,-36.190655,-2.082380,29.221701,57.893356,12.117962,26.175304,-9.236865,2.776500,17.023308,-1.565524,-9.943729,-10.138506,-9.156164,16.086010,8064.000000,0.000000,4.000000,,,,0.000000,4.000000,4.000000,4.000000,4.000000,4.000000,4.000000,4.000000,4.000000,4.000000,4.000000,4.000000,4.000000,4.000000,4.000000,4.000000,4.000000,4.000000,4.000000,4.000000,4.000000,4.000000,4.000000,4.000000,4.000000,4.000000,4.000000,4.000000,4.000000,4.000000,4.000000,4.000000,4.000000,100.000000
1614045105.519490,103.000000,0.000000,7.712318,2.891557,-46.976391,-5.302741,2.863929,4.699389,13.091647,22.838707,3.904257,1.061151,4.317858,11.625861,21.152447,8.292952,25.013372,-60.858761,48.586380,-18.551811,-37.692924,8.176112,26.115557,71.681618,16.721230,26.149128,-15.381474,3.286544,19.570387,-1.051138,-11.472247,-17.307856,-8.634187,11.967360,8064.000000,0.000000,4.000000,,,,0.000000,4.000000,4.000000,4.000000,4.000000,4.000000,4.000000,4.000000,4.000000,4.000000,4.000000,4.000000,4.000000,4.000000,4.000000,4.000000,4.000000,4.000000,4.000000,4.000000,4.000000,4.000000,4.000000,4.000000,4.000000,4.000000,4.000000,4.000000,4.000000,4.000000,4.000000,4.000000,4.000000,100.000000
1614045105.527139,104.000000,0.000000,7.704606,2.375845,-71.031982,-9.912823,-24.831242,-2.997619,12.565735,12.559458,-8.920160,-22.529654,-15.686460,31.101416,18.054371,-13.253803,20.372974,-58.746620,50.076256,-16.994797,-50.988567,1.501270,6.602262,71.609932,18.755789,26.635799,-32.289169,-12.101358,14.935431,-1.050087,-10.947955,-30.623880,-9.651194,-11.634351,8192.000000,0.000000,4.000000,,,,0.000000,4.000000,4.000000,4.000000,4.000000,4.000000,4.000000,4.000000,4.000000,4.000000,4.000000,4.000000,4.000000,4.000000,4.000000,4.000000,4.000000,4.000000,4.000000,4.000000,4.000000,4.000000,4.000000,4.000000,4.000000,4.000000,4.000000,4.000000,4.000000,4.000000,4.000000,4.000000,4.000000,100.000000
1614045105.534888,105.000000,0.000000,5.132799,2.373469,-83.781464,-17.082397,-37.626923,-11.199749,12.553169,1.777667,-15.065086,-34.301994,-24.388721,27.993391,11.882470,-21.445677,12.660295,-50.995564,44.385151,-16.464983,-57.091423,-2.089975,-1.096648,68.974220,18.737034,24.557882,-47.128674,-21.320026,12.356394,-1.049037,-9.911366,-36.234283,-8.103081,-20.853485,8064.000000,0.000000,4.000000,,,,0.000000,4.000000,4.000000,4.000000,4.000000,4.000000,4.000000,4.000000,4.000000,4.000000,4.000000,4.000000,4.000000,4.000000,4.000000,4.000000,4.000000,4.000000,4.000000,4.000000,4.000000,4.000000,4.000000,4.000000,4.000000,4.000000,4.000000,4.000000,4.000000,4.000000,4.000000,4.000000,4.000000,100.000000
1614045105.542537,106.000000,0.000000,4.102025,2.883916,-83.697678,-18.090956,-29.896990,-11.701370,12.540616,1.263069,-11.460278,-27.601027,-22.825872,6.939756,8.793665,-21.424232,7.006608,-67.354828,41.776665,-28.243389,-47.803562,2.014679,6.083936,73.520630,18.205477,22.482042,-41.953342,-16.683321,17.472242,-1.047988,-13.491198,-35.172405,-10.659081,-14.165966,8064.000000,0.000000,4.000000,,,,0.000000,4.000000,4.000000,4.000000,4.000000,4.000000,4.000000,4.000000,4.000000,4.000000,4.000000,4.000000,4.000000,4.000000,4.000000,4.000000,4.000000,4.000000,4.000000,4.000000,4.000000,4.000000,4.000000,4.000000,4.000000,4.000000,4.000000,4.000000,4.000000,4.000000,4.000000,4.000000,4.000000,100.000000
1614045105.550287,107.000000,0.000000,4.610743,2.881032,-79.511414,-16.534403,-27.302990,-11.689669,12.528075,3.825909,-9.910356,-22.445221,-21.777405,10.009739,8.784871,-20.889986,8.538063,-70.364395,41.734886,-25.138222,-39.550632,3.551126,10.693236,76.011215,18.187271,30.664688,-20.885748,-7.435869,20.018873,-1.559760,-13.990527,-26.932106,-13.212524,-13.638979,8064.000000,0.000000,4.000000,,,,0.000000,4.000000,4.000000,4.000000,4.000000,4.000000,4.000000,4.000000,4.000000,4.000000,4.000000,4.000000,4.000000,4.000000,4.000000,4.000000,4.000000,4.000000,4.000000,4.000000,4.000000,4.000000,4.000000,4.000000,4.000000,4.000000,4.000000,4.000000,4.000000,4.000000,4.000000,4.000000,4.000000,100.000000
