title:26, start timestamp:1614045181.683627, stop timestamp:1614045227.209761, headset type:EPOCFLEX, headset serial:F00001ED, headset firmware:f12, subject name:s06, channels:75, sampling rate:128, samples:5874      , version:2.0
Timestamp,EEG.Counter,EEG.Interpolated,EEG.Cz,EEG.Fz,EEG.Fp1,EEG.AF3,EEG.F7,EEG.F3,EEG.FC1,EEG.C3,EEG.FC5,EEG.T7,EEG.CP5,EEG.CP1,EEG.P3,EEG.P7,EEG.PO3,EEG.O1,EEG.Pz,EEG.Oz,EEG.O2,EEG.PO4,EEG.P8,EEG.P4,EEG.CP2,EEG.CP6,EEG.T8,EEG.FC6,EEG.C4,EEG.FC2,EEG.F4,EEG.F8,EEG.AF4,EEG.Fp2,EEG.HighBitFlex,EEG.RawCq,EEG.Battery,MarkerIndex,MarkerType,MarkerValueInt,EEG.MarkerHardware,CQ.Cz,CQ.Fz,CQ.Fp1,CQ.AF3,CQ.F7,CQ.F3,CQ.FC1,CQ.C3,CQ.FC5,CQ.T7,CQ.CP5,CQ.CP1,CQ.P3,CQ.P7,CQ.PO3,CQ.O1,CQ.Pz,CQ.Oz,CQ.O2,CQ.PO4,CQ.P8,CQ.P4,CQ.CP2,CQ.CP6,CQ.T8,CQ.FC6,CQ.C4,CQ.FC2,CQ.F4,CQ.F8,CQ.AF4,CQ.Fp2,CQ.Overall
1614045181.683627,78.000000,0.000000,2.737099,-5.542620,402.635986,-72.357361,-27.288013,-17.236925,1.676041,-2.421244,-10.852568,-18.908495,-16.913937,1.778917,-5.543920,-25.010693,-10.832479,7.483096,-4.510810,87.553299,57.385796,-74.421463,-53.034348,-17.622648,-13.441988,-38.869347,-29.527374,-17.411968,-13.051173,7.255892,-0.161955,-21.105160,-27.886030,586.714661,0.000000,186.000000,4.000000,,,,0.000000,4.000000,4.000000,4.000000,4.000000,4.000000,4.000000,4.000000,4.000000,4.000000,4.000000,4.000000,4.000000,4.000000,4.000000,4.000000,4.000000,4.000000,4.000000,4.000000,4.000000,4.000000,4.000000,4.000000,4.000000,4.000000,4.000000,4.000000,4.000000,4.000000,4.000000,4.000000,4.000000,100.000000
1614045181.691476,79.000000,0.000000,2.221541,-5.537078,402.233337,-71.259361,-27.260725,-17.219688,2.187185,-2.931643,-11.867356,-19.402407,-16.897024,2.289959,-4.512735,-22.934401,-7.231904,9.526895,-0.403735,107.978569,87.584816,-46.141914,-24.263367,10.600101,-10.351623,-11.138168,-11.036308,-13.291991,-9.961200,9.812738,6.504874,-18.519953,-27.345324,589.717712,0.000000,175.000000,4.000000,,,,0.000000,4.000000,4.000000,4.000000,4.000000,4.000000,4.000000,4.000000,4.000000,4.000000,4.000000,4.000000,4.000000,4.000000,4.000000,4.000000,4.000000,4.000000,4.000000,4.000000,4.000000,4.000000,4.000000,4.000000,4.000000,4.000000,4.000000,4.000000,4.000000,4.000000,4.000000,4.000000,4.000000,100.000000
1614045181.699225,80.000000,0.000000,2.732140,-6.557182,403.882385,-71.700920,-27.233465,-18.228109,1.159357,-2.928712,-10.317027,-19.895824,-19.444229,-0.276434,-3.995402,-24.962748,-5.173390,17.722496,2.160771,115.050079,100.830566,-36.865005,-25.777563,14.692065,-9.315630,6.821688,-7.948349,-11.740238,-7.899956,10.315746,9.575293,-18.501432,-24.753876,593.230530,0.000000,162.000000,4.000000,,,,0.000000,4.000000,4.000000,4.000000,4.000000,4.000000,4.000000,4.000000,4.000000,4.000000,4.000000,4.000000,4.000000,4.000000,4.000000,4.000000,4.000000,4.000000,4.000000,4.000000,4.000000,4.000000,4.000000,4.000000,4.000000,4.000000,4.000000,4.000000,4.000000,4.000000,4.000000,4.000000,4.000000,100.000000
1614045181.707074,81.000000,0.000000,2.729408,-5.012163,405.016968,-72.654861,-27.206230,-14.107317,2.183839,-2.925783,-6.204146,-18.850288,-20.450426,-1.814619,-5.017048,-22.886503,-7.219499,14.115030,4.722713,103.140160,84.832298,-39.392242,-29.341530,8.010707,-8.793494,11.943071,-8.453220,-10.702857,-6.866415,11.331072,9.565717,-18.482931,-21.139378,593.150146,0.000000,190.000000,4.000000,,,,0.000000,4.000000,4.000000,4.000000,4.000000,4.000000,4.000000,4.000000,4.000000,4.000000,4.000000,4.000000,4.000000,4.000000,4.000000,4.000000,4.000000,4.000000,4.000000,4.000000,4.000000,4.000000,4.000000,4.000000,4.000000,4.000000,4.000000,4.000000,4.000000,4.000000,4.000000,4.000000,4.000000,100.000000
1614045181.714823,82.000000,0.000000,2.726679,-0.391766,407.176056,-64.377075,-24.614922,-7.426543,7.309860,0.154066,-3.121019,-18.831438,-14.788950,5.879504,-2.447928,-15.684129,-2.596894,17.177837,9.333375,114.319069,91.926956,-29.096439,-18.542957,16.207825,0.446069,11.418308,0.273181,-6.076769,-4.295446,13.371022,11.607433,-18.464449,-20.092598,591.531372,0.000000,205.000000,4.000000,,,,0.000000,4.000000,4.000000,4.000000,4.000000,4.000000,4.000000,4.000000,4.000000,4.000000,4.000000,4.000000,4.000000,4.000000,4.000000,4.000000,4.000000,4.000000,4.000000,4.000000,4.000000,4.000000,4.000000,4.000000,4.000000,4.000000,4.000000,4.000000,4.000000,4.000000,4.000000,4.000000,4.000000,100.000000
1614045181.722672,83.000000,0.000000,2.723952,2.172728,408.820160,-53.543472,-22.539024,-5.367835,9.353832,4.256476,-3.630718,-18.812607,-8.620315,14.591573,7.810930,-12.591521,10.226215,43.314507,12.913785,147.025253,124.655540,-15.734010,-11.344928,20.294180,8.137931,14.483812,4.888293,-2.993769,-3.265510,14.896113,13.647108,-18.958803,-20.585325,591.452637,0.000000,170.000000,4.000000,,,,0.000000,4.000000,4.000000,4.000000,4.000000,4.000000,4.000000,4.000000,4.000000,4.000000,4.000000,4.000000,4.000000,4.000000,4.000000,4.000000,4.000000,4.000000,4.000000,4.000000,4.000000,4.000000,4.000000,4.000000,4.000000,4.000000,4.000000,4.000000,4.000000,4.000000,4.000000,4.000000,4.000000,100.000000
1614045181.730421,84.000000,0.000000,2.721228,1.657735,406.360077,-55.541210,-24.054947,-6.388108,6.780376,5.277860,-3.627088,-19.306614,-9.124515,13.551340,11.392862,-12.066110,11.754451,44.809654,11.875230,141.237213,117.864220,-33.666992,-26.205378,1.299528,3.001587,13.956509,-1.270442,-2.990776,-3.775065,14.881217,13.120640,-17.401384,-20.564741,590.861206,0.000000,181.000000,4.000000,,,,0.000000,4.000000,4.000000,4.000000,4.000000,4.000000,4.000000,4.000000,4.000000,4.000000,4.000000,4.000000,4.000000,4.000000,4.000000,4.000000,4.000000,4.000000,4.000000,4.000000,4.000000,4.000000,4.000000,4.000000,4.000000,4.000000,4.000000,4.000000,4.000000,4.000000,4.000000,4.000000,4.000000,100.000000
1614045181.738270,85.000000,0.000000,3.231327,1.656077,408.005005,-59.588234,-27.107815,-6.381720,5.235134,4.759762,-3.110640,-18.774487,-9.628211,14.050610,8.304546,-7.438659,4.050388,17.072536,11.350534,108.788277,85.438660,-63.889736,-45.153530,-14.086388,-3.668081,0.609218,-2.807633,-2.987785,-3.771290,13.840694,12.594699,-12.768598,-20.031355,589.757507,0.000000,198.000000,4.000000,,,,0.000000,4.000000,4.000000,4.000000,4.000000,4.000000,4.000000,4.000000,4.000000,4.000000,4.000000,4.000000,4.000000,4.000000,4.000000,4.000000,4.000000,4.000000,4.000000,4.000000,4.000000,4.000000,4.000000,4.000000,4.000000,4.000000,4.000000,4.000000,4.000000,4.000000,4.000000,4.000000,4.000000,100.000000
1614045181.746019,86.000000,0.000000,2.715276,2.167242,419.904663,-54.400440,-24.516605,-5.862517,6.255540,5.780643,-3.107529,-17.730072,-8.080121,14.549379,8.296243,-9.995323,1.482236,6.799053,12.364824,94.320518,72.532715,-71.518158,-52.800686,-15.097942,-4.177233,-10.160622,-2.292005,-6.574541,-3.254698,11.775572,11.043643,-10.191727,-20.524145,590.193359,0.000000,194.000000,4.000000,,,,0.000000,4.000000,4.000000,4.000000,4.000000,4.000000,4.000000,4.000000,4.000000,4.000000,4.000000,4.000000,4.000000,4.000000,4.000000,4.000000,4.000000,4.000000,4.000000,4.000000,4.000000,4.000000,4.000000,4.000000,4.000000,4.000000,4.000000,4.000000,4.000000,4.000000,4.000000,4.000000,4.000000,100.000000
1614045181.753868,87.000000,0.000000,2.712560,1.652254,429.228363,-52.807579,-19.876703,-6.369475,5.223643,4.236401,-3.617242,-19.763622,-13.200246,5.816881,2.646920,-25.882763,-6.211555,8.843536,7.224255,94.226196,84.255051,-78.626122,-58.901730,-24.313614,-8.788441,-10.150461,-15.110226,-11.696171,-3.764264,10.225335,8.981318,-10.694355,-20.503620,591.141663,0.000000,206.000000,4.000000,,,,0.000000,4.000000,4.000000,4.000000,4.000000,4.000000,4.000000,4.000000,4.000000,4.000000,4.000000,4.000000,4.000000,4.000000,4.000000,4.000000,4.000000,4.000000,4.000000,4.000000,4.000000,4.000000,4.000000,4.000000,4.000000,4.000000,4.000000,4.000000,4.000000,4.000000,4.000000,4.000000,4.000000,100.000000
1614045181.761617,88.000000,0.000000,3.222668,2.163422,428.286316,-55.831692,-20.369648,-6.875926,5.218420,0.642421,-3.613625,-18.205399,-22.417814,-3.419705,-11.201880,-35.087650,-19.025856,4.732129,-4.065021,91.567871,81.606697,-96.496216,-66.022316,-37.109814,-15.446319,-17.832619,-21.248962,-11.171655,-3.760499,10.727930,8.459516,-11.709302,-18.431835,592.601807,0.000000,177.000000,4.000000,,,,0.000000,4.000000,4.000000,4.000000,4.000000,4.000000,4.000000,4.000000,4.000000,4.000000,4.000000,4.000000,4.000000,4.000000,4.000000,4.000000,4.000000,4.000000,4.000000,4.000000,4.000000,4.000000,4.000000,4.000000,4.000000,4.000000,4.000000,4.000000,4.000000,4.000000,4.000000,4.000000,4.000000,100.000000
1614045181.769466,89.000000,0.000000,1.168163,1.648438,427.345215,-53.724579,-23.426201,-6.356230,6.238842,-2.435144,-3.097191,-9.982064,-24.959499,-5.467567,-15.806063,-33.514099,-21.058111,0.112012,-11.240443,87.886559,61.525085,-102.553566,-74.161423,-38.611164,-17.482155,-29.096836,-15.586687,-10.647662,-3.243918,11.230022,9.476697,-10.671951,-15.849300,597.137390,0.000000,196.000000,4.000000,,,,0.000000,4.000000,4.000000,4.000000,4.000000,4.000000,4.000000,4.000000,4.000000,4.000000,4.000000,4.000000,4.000000,4.000000,4.000000,4.000000,4.000000,4.000000,4.000000,4.000000,4.000000,4.000000,4.000000,4.000000,4.000000,4.000000,4.000000,4.000000,4.000000,4.000000,4.000000,4.000000,4.000000,100.000000
1614045181.777215,90.000000,0.000000,-2.935569,-2.968595,427.430695,-53.670853,-23.402775,-5.837053,2.130039,-4.483991,-4.632555,-9.972082,-23.908899,-13.154408,-17.328718,-38.608791,-25.652439,-19.888100,-15.844587,68.311493,29.155869,-107.066399,-88.959053,-38.572552,-20.028774,-29.580561,-26.340330,-17.303680,-5.291956,9.167511,8.954400,-10.661280,-18.397554,599.617188,0.000000,201.000000,4.000000,,,,0.000000,4.000000,4.000000,4.000000,4.000000,4.000000,4.000000,4.000000,4.000000,4.000000,4.000000,4.000000,4.000000,4.000000,4.000000,4.000000,4.000000,4.000000,4.000000,4.000000,4.000000,4.000000,4.000000,4.000000,4.000000,4.000000,4.000000,4.000000,4.000000,4.000000,4.000000,4.000000,4.000000,100.000000
1614045181.785064,91.000000,0.000000,-4.983915,-6.042549,421.362213,-60.796669,-22.866552,-9.420959,-4.538757,-6.017969,-6.679205,-21.244162,-24.397810,-16.218176,-18.849852,-36.006081,-29.729349,-28.586161,-18.392845,59.525230,23.485687,-109.010612,-87.844452,-34.431416,-23.085669,-34.679184,-44.262707,-23.440224,-9.389229,5.055779,4.330060,-14.240362,-23.507360,595.427795,0.000000,212.000000,4.000000,,,,0.000000,4.000000,4.000000,4.000000,4.000000,4.000000,4.000000,4.000000,4.000000,4.000000,4.000000,4.000000,4.000000,4.000000,4.000000,4.000000,4.000000,4.000000,4.000000,4.000000,4.000000,4.000000,4.000000,4.000000,4.000000,4.000000,4.000000,4.000000,4.000000,4.000000,4.000000,4.000000,4.000000,100.000000
1614045181.792813,92.000000,0.000000,-4.466111,-6.036507,417.351135,-64.325615,-23.356506,-10.437180,-6.585501,-4.473489,-7.698167,-27.376764,-24.886234,-1.842983,-8.574592,-17.508535,-7.135518,4.262938,-11.194965,92.286217,56.282715,-79.670830,-60.064304,-14.909805,-17.934378,-40.285530,-37.038960,-21.878323,-11.431122,2.999441,1.248807,-18.841507,-25.022316,593.806763,0.000000,178.000000,4.000000,,,,0.000000,4.000000,4.000000,4.000000,4.000000,4.000000,4.000000,4.000000,4.000000,4.000000,4.000000,4.000000,4.000000,4.000000,4.000000,4.000000,4.000000,4.000000,4.000000,4.000000,4.000000,4.000000,4.000000,4.000000,4.000000,4.000000,4.000000,4.000000,4.000000,4.000000,4.000000,4.000000,4.000000,100.000000
1614045181.800662,93.000000,0.000000,-4.974465,-5.517650,422.574799,-60.671547,-23.333149,-3.247256,-5.553274,-1.904913,-7.177648,-27.862207,-24.348526,6.363988,3.228855,-15.439745,11.845977,26.309958,-2.978642,117.322136,89.046944,-46.770649,-38.978600,2.028181,-11.249778,-24.860630,-22.130125,-18.779520,-10.906870,3.509262,1.247559,-18.309845,-21.920370,600.905273,0.000000,172.000000,4.000000,,,,0.000000,4.000000,4.000000,4.000000,4.000000,4.000000,4.000000,4.000000,4.000000,4.000000,4.000000,4.000000,4.000000,4.000000,4.000000,4.000000,4.000000,4.000000,4.000000,4.000000,4.000000,4.000000,4.000000,4.000000,4.000000,4.000000,4.000000,4.000000,4.000000,4.000000,4.000000,4.000000,4.000000,100.000000
1614045181.808411,94.000000,0.000000,-4.969491,-6.024953,426.767609,-59.072414,-23.309816,1.371376,-5.547721,-2.415829,-7.170470,-22.706141,-23.811357,-2.873146,-0.364117,-30.296101,-2.524844,4.232365,-5.026945,98.743279,81.778412,-47.749519,-37.913979,2.026153,-12.776989,-6.887052,-21.595175,-18.247921,-10.895963,2.480112,1.759132,-14.701791,-20.359987,602.868469,0.000000,217.000000,4.000000,,,,0.000000,4.000000,4.000000,4.000000,4.000000,4.000000,4.000000,4.000000,4.000000,4.000000,4.000000,4.000000,4.000000,4.000000,4.000000,4.000000,4.000000,4.000000,4.000000,4.000000,4.000000,4.000000,4.000000,4.000000,4.000000,4.000000,4.000000,4.000000,4.000000,4.000000,4.000000,4.000000,4.000000,100.000000
1614045181.816260,95.000000,0.000000,-2.400419,-5.506107,415.571594,-60.038982,-25.850609,-1.706918,-6.054994,-2.926234,-7.676120,-8.324459,-24.813187,-3.383093,-3.440676,-26.676060,-6.624883,6.792235,-1.944995,100.182999,75.029968,-57.958179,-38.388885,0.485665,-11.738571,-7.392985,-23.112041,-18.229673,-10.885067,3.503273,1.244552,-15.199909,-22.390909,594.573303,0.000000,172.000000,4.000000,,,,0.000000,4.000000,4.000000,4.000000,4.000000,4.000000,4.000000,4.000000,4.000000,4.000000,4.000000,4.000000,4.000000,4.000000,4.000000,4.000000,4.000000,4.000000,4.000000,4.000000,4.000000,4.000000,4.000000,4.000000,4.000000,4.000000,4.000000,4.000000,4.000000,4.000000,4.000000,4.000000,4.000000,100.000000
1614045181.824009,96.000000,0.000000,-0.346736,-5.500601,405.412445,-60.491764,-28.388861,-3.756493,-5.536118,-0.359205,-7.668444,-8.828956,-24.275555,7.902341,2.203790,-16.905794,10.304818,30.375187,13.441566,119.057175,85.211349,-49.695095,-36.812035,2.023641,-4.034525,-8.924054,-22.063288,-18.211443,-10.361362,8.115154,1.243307,-18.261633,-23.906981,588.850525,8064.000000,0.000000,4.000000,,,,0.000000,4.000000,4.000000,4.000000,4.000000,4.000000,4.000000,4.000000,4.000000,4.000000,4.000000,4.000000,4.000000,4.000000,4.000000,4.000000,4.000000,4.000000,4.000000,4.000000,4.000000,4.000000,4.000000,4.000000,4.000000,4.000000,4.000000,4.000000,4.000000,4.000000,4.000000,4.000000,4.000000,100.000000
1614045181.831658,97.000000,0.000000,-0.859210,-5.495100,412.699341,-59.405632,-25.796370,-2.214275,-5.530582,1.179616,-7.147955,-20.102179,-15.020509,10.971362,4.765689,-22.529915,4.653488,19.062759,19.581970,104.066322,77.946648,-48.106937,-39.339325,0.483156,-0.953567,-5.325387,-21.528404,-17.680410,-10.863820,11.183962,1.754885,-18.756191,-23.883074,591.338562,8064.000000,0.000000,4.000000,,,,0.000000,4.000000,4.000000,4.000000,4.000000,4.000000,4.000000,4.000000,4.000000,4.000000,4.000000,4.000000,4.000000,4.000000,4.000000,4.000000,4.000000,4.000000,4.000000,4.000000,4.000000,4.000000,4.000000,4.000000,4.000000,4.000000,4.000000,4.000000,4.000000,4.000000,4.000000,4.000000,4.000000,100.000000
1614045181.839407,98.000000,0.000000,-0.858351,-5.489605,423.568695,-59.859047,-22.180830,-2.724881,-5.525052,1.178436,-7.653628,-3.671819,-6.287539,8.909109,3.222461,-15.840718,-10.735781,3.146262,10.844439,84.475075,58.381523,-67.033188,-42.889729,-4.645532,-6.593639,-5.832881,-16.891491,-18.175550,-10.852957,11.172778,1.753130,-17.711794,-23.346371,593.311340,8064.000000,0.000000,4.000000,,,,0.000000,4.000000,4.000000,4.000000,4.000000,4.000000,4.000000,4.000000,4.000000,4.000000,4.000000,4.000000,4.000000,4.000000,4.000000,4.000000,4.000000,4.000000,4.000000,4.000000,4.000000,4.000000,4.000000,4.000000,4.000000,4.000000,4.000000,4.000000,4.000000,4.000000,4.000000,4.000000,4.000000,100.000000
1614045181.847057,99.000000,0.000000,-0.857493,-5.484116,424.170776,-60.312008,-19.594545,-3.234977,-6.032347,1.177258,-7.133154,14.793391,-5.255611,9.413020,3.219239,6.226405,-3.545558,16.989269,3.141287,93.621368,53.194935,-85.940514,-48.487865,-13.358835,-9.663969,-5.314228,-16.361778,-18.157375,-10.329283,10.648785,1.751377,-18.206903,-23.835844,592.718018,8064.000000,0.000000,4.000000,,,,0.000000,4.000000,4.000000,4.000000,4.000000,4.000000,4.000000,4.000000,4.000000,4.000000,4.000000,4.000000,4.000000,4.000000,4.000000,4.000000,4.000000,4.000000,4.000000,4.000000,4.000000,4.000000,4.000000,4.000000,4.000000,4.000000,4.000000,4.000000,4.000000,4.000000,4.000000,4.000000,4.000000,100.000000
1614045181.854806,100.000000,0.000000,-0.856635,-5.478631,422.208130,-57.687595,-17.010849,-2.718922,-5.513494,1.176081,-3.023456,-7.272685,-3.711894,9.916428,3.728840,11.861204,6.714398,26.203049,4.163786,103.271339,58.269943,-91.495598,-59.721428,-24.114708,-8.115844,-9.924298,-21.473621,-18.139217,-13.908697,9.612495,1.749625,-18.188696,-23.812008,592.125305,8192.000000,0.000000,4.000000,,,,0.000000,4.000000,4.000000,4.000000,4.000000,4.000000,4.000000,4.000000,4.000000,4.000000,4.000000,4.000000,4.000000,4.000000,4.000000,4.000000,4.000000,4.000000,4.000000,4.000000,4.000000,4.000000,4.000000,4.000000,4.000000,4.000000,4.000000,4.000000,4.000000,4.000000,4.000000,4.000000,4.000000,100.000000
1614045181.862455,101.000000,0.000000,-0.855778,-5.473153,422.811554,-53.014523,-16.993837,-3.741844,-3.456698,1.174905,0.569311,-19.573105,0.907203,9.906511,3.725111,6.721138,5.169222,20.023001,4.159623,101.629601,56.673214,-95.506668,-72.482224,-30.757259,-8.620548,-26.324631,-17.349585,-18.121078,-17.484533,7.038780,1.747876,-17.657686,-23.788197,592.046021,8064.000000,0.000000,4.000000,,,,0.000000,4.000000,4.000000,4.000000,4.000000,4.000000,4.000000,4.000000,4.000000,4.000000,4.000000,4.000000,4.000000,4.000000,4.000000,4.000000,4.000000,4.000000,4.000000,4.000000,4.000000,4.000000,4.000000,4.000000,4.000000,4.000000,4.000000,4.000000,4.000000,4.000000,4.000000,4.000000,4.000000,100.000000
1614045181.870204,102.000000,0.000000,-0.854923,-5.467680,422.901581,-51.935867,-16.976845,-1.686820,-1.401960,1.173730,0.568741,5.061854,2.444757,11.435066,2.695745,6.714417,6.189694,15.900413,2.104181,99.989510,56.103722,-95.923981,-71.896919,-26.623938,-8.099107,-36.041897,-12.716850,-18.102959,-17.979868,6.518920,2.258948,-17.127209,-23.764408,592.992432,8064.000000,0.000000,4.000000,,,,0.000000,4.000000,4.000000,4.000000,4.000000,4.000000,4.000000,4.000000,4.000000,4.000000,4.000000,4.000000,4.000000,4.000000,4.000000,4.000000,4.000000,4.000000,4.000000,4.000000,4.000000,4.000000,4.000000,4.000000,4.000000,4.000000,4.000000,4.000000,4.000000,4.000000,4.000000,4.000000,4.000000,100.000000
1614045181.877853,103.000000,0.000000,-0.854068,-5.462212,424.017120,-49.832649,-7.729098,2.930252,-1.913378,1.172556,-0.457468,6.595253,1.416671,13.987734,2.180229,-0.984606,8.234786,19.474257,5.179000,106.556190,77.073257,-75.315239,-50.799377,-11.725519,-6.039726,-31.390469,-21.934902,-18.084854,-14.884966,7.025222,2.256689,-18.648542,-23.740644,589.835327,8320.000000,0.000000,4.000000,,,,0.000000,4.000000,4.000000,4.000000,4.000000,4.000000,4.000000,4.000000,4.000000,4.000000,4.000000,4.000000,4.000000,4.000000,4.000000,4.000000,4.000000,4.000000,4.000000,4.000000,4.000000,4.000000,4.000000,4.000000,4.000000,4.000000,4.000000,4.000000,4.000000,4.000000,4.000000,4.000000,4.000000,100.000000
1614045181.885602,104.000000,0.000000,-0.853214,-5.456750,418.977722,-47.731533,4.586323,4.978603,-2.424285,1.171383,-0.457011,-9.821598,0.389613,12.948105,3.203690,-12.778493,9.252192,29.711191,12.353308,120.295784,104.175674,-45.496334,-24.594734,5.722104,-3.982404,-22.128309,-22.425789,-18.066771,-8.716234,7.018197,0.715971,-17.604254,-23.716904,585.655762,8064.000000,0.000000,4.000000,,,,0.000000,4.000000,4.000000,4.000000,4.000000,4.000000,4.000000,4.000000,4.000000,4.000000,4.000000,4.000000,4.000000,4.000000,4.000000,4.000000,4.000000,4.000000,4.000000,4.000000,4.000000,4.000000,4.000000,4.000000,4.000000,4.000000,4.000000,4.000000,4.000000,4.000000,4.000000,4.000000,4.000000,100.000000
1614045181.893251,105.000000,0.000000,-0.852360,-4.938473,409.840820,-50.760727,7.145839,4.460804,-1.909041,1.170212,0.569087,0.957454,1.927685,7.294131,2.174845,-13.791355,7.704479,25.066095,15.417878,117.098564,98.943291,-33.143143,-15.852190,16.485613,-4.491242,-9.798489,-11.634131,-18.048704,-6.143415,7.011179,-0.823206,-16.561008,-23.693186,585.070068,8064.000000,0.000000,4.000000,,,,0.000000,4.000000,4.000000,4.000000,4.000000,4.000000,4.000000,4.000000,4.000000,4.000000,4.000000,4.000000,4.000000,4.000000,4.000000,4.000000,4.000000,4.000000,4.000000,4.000000,4.000000,4.000000,4.000000,4.000000,4.000000,4.000000,4.000000,4.000000,4.000000,4.000000,4.000000,4.000000,4.000000,100.000000
1614045181.901001,106.000000,0.000000,-0.851508,-5.959175,407.892517,-55.325348,7.651514,4.969164,-1.394311,1.169042,0.568518,6.084702,1.925758,0.107350,-1.929894,-12.751923,1.030108,7.092312,14.889640,99.545570,72.177681,-35.674103,-25.067108,14.417845,-8.076494,0.467720,-20.340446,-18.030655,-13.829579,7.004168,-1.848024,-27.826498,-23.156673,573.715759,8064.000000,0.000000,4.000000,,,,0.000000,4.000000,4.000000,4.000000,4.000000,4.000000,4.000000,4.000000,4.000000,4.000000,4.000000,4.000000,4.000000,4.000000,4.000000,4.000000,4.000000,4.000000,4.000000,4.000000,4.000000,4.000000,4.000000,4.000000,4.000000,4.000000,4.000000,4.000000,4.000000,4.000000,4.000000,4.000000,4.000000,100.000000
1614045181.908650,107.000000,0.000000,-0.850657,-8.517319,400.817932,-55.782845,9.695145,4.451375,-2.418558,1.167873,-1.483333,-5.203434,-0.127450,-1.944039,2.174600,-12.739171,2.567539,16.315989,14.361929,105.599869,58.772171,-36.664070,-34.785629,2.095735,-12.170982,-3.122491,-39.807285,-18.012625,-21.508059,6.997163,-4.923100,-43.183289,-23.133516,551.090759,8064.000000,0.000000,4.000000,,,,0.000000,4.000000,4.000000,4.000000,4.000000,4.000000,4.000000,4.000000,4.000000,4.000000,4.000000,4.000000,4.000000,4.000000,4.000000,4.000000,4.000000,4.000000,4.000000,4.000000,4.000000,4.000000,4.000000,4.000000,4.000000,4.000000,4.000000,4.000000,4.000000,4.000000,4.000000,4.000000,4.000000,100.000000
1614045181.916399,108.000000,0.000000,-0.849806,-9.534442,381.955597,-56.239883,9.685450,4.959743,-1.903319,1.166705,2.620715,5.571000,5.000882,0.109187,16.018579,-1.444381,16.923946,47.068905,14.347568,127.545555,63.328781,-37.653046,-38.340588,-5.085848,-12.671632,-11.837317,-38.229015,-17.994612,-17.383986,6.990166,-9.020741,-44.165745,-23.623203,542.847412,8064.000000,0.000000,4.000000,,,,0.000000,4.000000,4.000000,4.000000,4.000000,4.000000,4.000000,4.000000,4.000000,4.000000,4.000000,4.000000,4.000000,4.000000,4.000000,4.000000,4.000000,4.000000,4.000000,4.000000,4.000000,4.000000,4.000000,4.000000,4.000000,4.000000,4.000000,4.000000,4.000000,4.000000,4.000000,4.000000,4.000000,100.000000
1614045181.924048,109.000000,0.000000,-0.336136,-8.499267,374.394135,-58.234924,10.701406,8.031707,0.149867,1.165538,10.823222,22.488506,17.303574,2.160360,25.746151,13.428859,28.189074,54.201321,17.410143,134.597488,87.880836,-36.589752,-38.815067,4.150007,-11.633319,-14.902404,-28.447197,-17.976616,-13.264038,7.495996,-9.011720,-34.890812,-22.061119,549.484009,8192.000000,0.000000,4.000000,,,,0.000000,4.000000,4.000000,4.000000,4.000000,4.000000,4.000000,4.000000,4.000000,4.000000,4.000000,4.000000,4.000000,4.000000,4.000000,4.000000,4.000000,4.000000,4.000000,4.000000,4.000000,4.000000,4.000000,4.000000,4.000000,4.000000,4.000000,4.000000,4.000000,4.000000,4.000000,4.000000,4.000000,100.000000
1614045181.931897,110.000000,0.000000,-1.361440,-9.516409,374.019745,-61.253613,7.613780,5.972393,0.149717,2.190014,7.222655,20.414736,18.824732,3.183840,27.771687,13.415430,28.673704,45.941994,18.931194,134.975723,112.921165,-35.014702,-38.263432,11.325344,-12.134506,-12.323399,-28.931570,-17.958639,-14.276415,5.950039,-10.028349,-31.778996,-25.115980,543.806335,8064.000000,0.000000,4.000000,,,,0.000000,4.000000,4.000000,4.000000,4.000000,4.000000,4.000000,4.000000,4.000000,4.000000,4.000000,4.000000,4.000000,4.000000,4.000000,4.000000,4.000000,4.000000,4.000000,4.000000,4.000000,4.000000,4.000000,4.000000,4.000000,4.000000,4.000000,4.000000,4.000000,4.000000,4.000000,4.000000,4.000000,100.000000
1614045181.939646,111.000000,0.000000,-3.411361,-12.070994,363.902130,-65.294922,-4.188705,0.838216,-1.901715,1.162183,-3.040977,11.163551,7.523856,1.129374,24.154171,4.684066,22.491184,36.152462,12.758417,122.020233,91.269775,-52.415585,-44.379017,-4.070597,-12.122372,-7.695691,-30.953922,-17.940681,-14.774959,3.379987,-13.095243,-33.285679,-33.295994,531.467651,8064.000000,0.000000,4.000000,,,,0.000000,4.000000,4.000000,4.000000,4.000000,4.000000,4.000000,4.000000,4.000000,4.000000,4.000000,4.000000,4.000000,4.000000,4.000000,4.000000,4.000000,4.000000,4.000000,4.000000,4.000000,4.000000,4.000000,4.000000,4.000000,4.000000,4.000000,4.000000,4.000000,4.000000,4.000000,4.000000,4.000000,100.000000
1614045181.947495,112.000000,0.000000,-4.946411,-13.084565,360.974152,-66.255272,-7.774260,0.837377,-2.412634,1.161020,-3.037936,-1.668125,1.875306,2.666707,15.412068,2.628100,12.725104,16.629129,6.591813,93.693085,58.870815,-80.568298,-56.642330,-22.528065,-12.110250,-9.226457,-29.384506,-17.922741,-13.734543,2.863786,-12.056507,-31.201111,-38.390900,533.500305,8064.000000,0.000000,4.000000,,,,0.000000,4.000000,4.000000,4.000000,4.000000,4.000000,4.000000,4.000000,4.000000,4.000000,4.000000,4.000000,4.000000,4.000000,4.000000,4.000000,4.000000,4.000000,4.000000,4.000000,4.000000,4.000000,4.000000,4.000000,4.000000,4.000000,4.000000,4.000000,4.000000,4.000000,4.000000,4.000000,4.000000,100.000000
1614045181.955244,113.000000,0.000000,-4.428644,-12.558660,365.741364,-65.163376,-2.638280,1.349360,-1.897401,2.698321,0.554845,-6.794662,2.386251,12.407630,11.294092,6.728035,9.122635,9.945833,6.585221,92.060928,62.401691,-87.154396,-60.688251,-23.018356,-12.098139,-18.448000,-25.252558,-17.904818,-13.720808,3.373743,-9.480349,-28.092987,-37.839691,539.120667,8064.000000,0.000000,4.000000,,,,0.000000,4.000000,4.000000,4.000000,4.000000,4.000000,4.000000,4.000000,4.000000,4.000000,4.000000,4.000000,4.000000,4.000000,4.000000,4.000000,4.000000,4.000000,4.000000,4.000000,4.000000,4.000000,4.000000,4.000000,4.000000,4.000000,4.000000,4.000000,4.000000,4.000000,4.000000,4.000000,4.000000,100.000000
1614045181.963093,114.000000,0.000000,-4.424216,-12.546102,359.734589,-67.662315,-5.712565,-2.754553,-1.895503,-2.945403,-2.522633,2.955722,-0.693058,10.856760,8.718696,6.208487,9.113513,24.807682,7.604277,113.507324,91.057236,-79.374931,-54.473717,-17.867134,-11.573220,-20.480833,-17.022177,-17.886913,-14.219908,2.857548,-7.932406,-28.064894,-38.314671,537.555908,8064.000000,0.000000,4.000000,,,,0.000000,4.000000,4.000000,4.000000,4.000000,4.000000,4.000000,4.000000,4.000000,4.000000,4.000000,4.000000,4.000000,4.000000,4.000000,4.000000,4.000000,4.000000,4.000000,4.000000,4.000000,4.000000,4.000000,4.000000,4.000000,4.000000,4.000000,4.000000,4.000000,4.000000,4.000000,4.000000,4.000000,100.000000
1614045181.970842,115.000000,0.000000,-4.932612,-13.046375,356.297943,-69.645935,-7.758135,-6.341542,-1.893608,-14.224509,-4.058572,-1.662618,-5.307749,-8.128455,-8.213100,-2.002850,-3.716114,27.346977,5.032569,112.368179,88.402077,-76.731453,-42.111549,-13.746702,-13.100109,-16.357788,-8.800026,-17.869026,-14.205688,3.367512,-6.386013,-28.036829,-38.276356,538.043945,8064.000000,0.000000,4.000000,,,,0.000000,4.000000,4.000000,4.000000,4.000000,4.000000,4.000000,4.000000,4.000000,4.000000,4.000000,4.000000,4.000000,4.000000,4.000000,4.000000,4.000000,4.000000,4.000000,4.000000,4.000000,4.000000,4.000000,4.000000,4.000000,4.000000,4.000000,4.000000,4.000000,4.000000,4.000000,4.000000,4.000000,100.000000
1614045181.978691,116.000000,0.000000,-4.414859,-12.007689,361.069855,-69.063469,-3.647813,-9.924944,-2.404535,-18.312849,-5.592975,-19.609673,-16.071672,-17.863916,-28.204887,-13.795718,-17.558552,15.011938,2.976255,100.460938,81.134186,-68.962418,-22.582258,-2.450904,-11.548547,-12.751687,-5.714303,-17.851158,-14.191483,5.928246,-4.841165,-29.547255,-36.186798,535.454651,8064.000000,0.000000,4.000000,,,,0.000000,4.000000,4.000000,4.000000,4.000000,4.000000,4.000000,4.000000,4.000000,4.000000,4.000000,4.000000,4.000000,4.000000,4.000000,4.000000,4.000000,4.000000,4.000000,4.000000,4.000000,4.000000,4.000000,4.000000,4.000000,4.000000,4.000000,4.000000,4.000000,4.000000,4.000000,4.000000,4.000000,100.000000
1614045181.986440,117.000000,0.000000,-4.410444,-14.046963,355.580566,-72.071327,-9.285191,-13.504763,-1.889310,-18.294537,-12.766869,-23.179808,-32.465858,-14.769130,-33.817707,-24.038334,-19.592276,14.996926,3.486099,103.437401,91.822281,-54.534481,-9.226343,5.756675,-6.921614,2.645680,-6.734230,-17.320486,-13.664471,7.973600,-4.836324,-33.620270,-41.791637,523.124329,8064.000000,0.000000,4.000000,,,,0.000000,4.000000,4.000000,4.000000,4.000000,4.000000,4.000000,4.000000,4.000000,4.000000,4.000000,4.000000,4.000000,4.000000,4.000000,4.000000,4.000000,4.000000,4.000000,4.000000,4.000000,4.000000,4.000000,4.000000,4.000000,4.000000,4.000000,4.000000,4.000000,4.000000,4.000000,4.000000,4.000000,100.000000
1614045181.994289,118.000000,0.000000,-4.406034,-16.084198,347.532684,-75.588997,-15.942572,-14.516899,-1.887420,-17.250601,-15.831025,-20.079704,-32.946213,-12.703078,-28.655685,-29.142500,-18.034222,20.110134,3.482613,103.333961,89.166359,-52.941483,-18.960707,1.135534,-5.889051,15.976368,-6.214675,-17.815985,-14.163627,6.427165,-5.344308,-36.150753,-47.390869,517.472961,8064.000000,0.000000,4.000000,,,,0.000000,4.000000,4.000000,4.000000,4.000000,4.000000,4.000000,4.000000,4.000000,4.000000,4.000000,4.000000,4.000000,4.000000,4.000000,4.000000,4.000000,4.000000,4.000000,4.000000,4.000000,4.000000,4.000000,4.000000,4.000000,4.000000,4.000000,4.000000,4.000000,4.000000,4.000000,4.000000,4.000000,100.000000
1614045182.002038,119.000000,0.000000,-4.914448,-13.504011,352.313354,-76.026230,-11.311245,-13.476741,-2.398353,-10.566683,-10.686989,-14.931419,-18.041471,-6.536529,-20.421902,-24.497972,-15.452085,18.551563,3.479131,99.128067,75.231041,-56.478287,-32.787899,-3.480987,-7.934444,2.627058,-6.208460,-17.285349,-14.662283,6.933558,-4.826143,-35.601780,-39.138351,523.109375,8320.000000,0.000000,4.000000,,,,0.000000,4.000000,4.000000,4.000000,4.000000,4.000000,4.000000,4.000000,4.000000,4.000000,4.000000,4.000000,4.000000,4.000000,4.000000,4.000000,4.000000,4.000000,4.000000,4.000000,4.000000,4.000000,4.000000,4.000000,4.000000,4.000000,4.000000,4.000000,4.000000,4.000000,4.000000,4.000000,4.000000,100.000000
1614045182.009887,120.000000,0.000000,-3.371072,-9.387942,354.525146,-76.463020,-7.710190,-13.976085,-1.370314,-1.325347,-6.573738,-2.095975,-12.382403,4.752059,-9.119428,-13.191423,-4.154581,17.507370,3.475652,105.695602,78.232735,-52.319244,-32.755112,-1.939044,-5.875228,-9.170441,-11.330457,-17.268064,-13.109159,10.003548,-4.821317,-35.566181,-33.458187,522.586243,8064.000000,0.000000,4.000000,,,,0.000000,4.000000,4.000000,4.000000,4.000000,4.000000,4.000000,4.000000,4.000000,4.000000,4.000000,4.000000,4.000000,4.000000,4.000000,4.000000,4.000000,4.000000,4.000000,4.000000,4.000000,4.000000,4.000000,4.000000,4.000000,4.000000,4.000000,4.000000,4.000000,4.000000,4.000000,4.000000,4.000000,100.000000
1614045182.017636,121.000000,0.000000,-0.803598,-8.352914,353.657806,-75.873741,-8.728121,-13.962109,1.195159,2.778543,-7.079985,-0.555418,-12.370021,7.311409,2.171743,-2.409001,4.567522,20.566786,3.472176,110.205292,83.795525,-55.343849,-39.389023,-7.578131,-5.356532,-6.597167,-17.472973,-18.789257,-15.660152,8.967903,-7.380598,-36.043434,-42.655499,514.884155,8064.000000,0.000000,4.000000,,,,0.000000,4.000000,4.000000,4.000000,4.000000,4.000000,4.000000,4.000000,4.000000,4.000000,4.000000,4.000000,4.000000,4.000000,4.000000,4.000000,4.000000,4.000000,4.000000,4.000000,4.000000,4.000000,4.000000,4.000000,4.000000,4.000000,4.000000,4.000000,4.000000,4.000000,4.000000,4.000000,4.000000,100.000000
1614045182.025485,122.000000,0.000000,-0.802795,-8.857381,354.329773,-74.772224,-5.642469,-13.435327,2.219605,8.929610,-7.585725,-3.631785,-2.101241,5.765636,11.400340,3.234433,6.614237,23.623142,3.468704,110.095085,79.609161,-68.109016,-57.811172,-17.826963,-8.428099,-16.334160,-18.993961,-21.847391,-20.772697,3.830730,-10.962961,-35.494572,-49.792332,514.882141,8064.000000,0.000000,4.000000,,,,0.000000,4.000000,4.000000,4.000000,4.000000,4.000000,4.000000,4.000000,4.000000,4.000000,4.000000,4.000000,4.000000,4.000000,4.000000,4.000000,4.000000,4.000000,4.000000,4.000000,4.000000,4.000000,4.000000,4.000000,4.000000,4.000000,4.000000,4.000000,4.000000,4.000000,4.000000,4.000000,4.000000,100.000000
1614045182.033234,123.000000,0.000000,-0.801992,-8.848524,343.719055,-83.928223,-8.200930,-13.421891,1.704565,11.997603,-6.552498,0.987231,5.080348,6.785511,12.927402,2.718378,9.171725,22.573877,3.465235,110.497810,81.580841,-71.630653,-65.445671,-19.347597,-8.932491,-32.728081,-17.949326,-23.364006,-17.675001,3.314079,-13.003281,-35.971897,-48.204075,515.905701,8064.000000,0.000000,4.000000,,,,0.000000,4.000000,4.000000,4.000000,4.000000,4.000000,4.000000,4.000000,4.000000,4.000000,4.000000,4.000000,4.000000,4.000000,4.000000,4.000000,4.000000,4.000000,4.000000,4.000000,4.000000,4.000000,4.000000,4.000000,4.000000,4.000000,4.000000,4.000000,4.000000,4.000000,4.000000,4.000000,4.000000,100.000000
1614045182.041083,124.000000,0.000000,-0.801190,-8.326855,331.580444,-94.100700,-17.936317,-13.408469,1.702860,9.421503,-6.545946,-9.270166,-2.104220,6.265905,10.863193,-0.874084,7.111271,20.500021,2.948949,105.771935,87.140282,-68.482101,-61.790482,-16.764147,-6.872276,-34.233814,-18.444197,-25.391924,-8.939379,6.387688,-13.503098,-35.423103,-48.155872,511.800049,8064.000000,0.000000,4.000000,,,,0.000000,4.000000,4.000000,4.000000,4.000000,4.000000,4.000000,4.000000,4.000000,4.000000,4.000000,4.000000,4.000000,4.000000,4.000000,4.000000,4.000000,4.000000,4.000000,4.000000,4.000000,4.000000,4.000000,4.000000,4.000000,4.000000,4.000000,4.000000,4.000000,4.000000,4.000000,4.000000,4.000000,100.000000
1614045182.048832,125.000000,0.000000,-1.313209,-8.831348,339.454010,-90.929680,-19.969664,-13.395061,1.701157,8.386441,-7.565041,-19.004486,-5.179039,6.259640,12.903611,0.665252,7.104160,23.556444,2.946000,103.614876,84.489037,-67.900795,-60.190228,-14.183281,-4.301301,-30.097017,-18.425753,-25.879353,-5.340695,7.406941,-11.951133,-33.336399,-47.082077,511.288239,8064.000000,0.000000,4.000000,,,,0.000000,4.000000,4.000000,4.000000,4.000000,4.000000,4.000000,4.000000,4.000000,4.000000,4.000000,4.000000,4.000000,4.000000,4.000000,4.000000,4.000000,4.000000,4.000000,4.000000,4.000000,4.000000,4.000000,4.000000,4.000000,4.000000,4.000000,4.000000,4.000000,4.000000,4.000000,4.000000,4.000000,100.000000
1614045182.056582,126.000000,0.000000,-0.286255,-8.822517,352.447876,-82.633621,-15.847131,-13.381665,1.699456,8.890875,-7.044655,-6.164968,-1.071296,6.253380,10.326605,-1.386695,8.635517,23.532888,3.455875,109.665108,81.840446,-64.243149,-58.591576,-6.476789,-1.732898,-22.887434,-15.330404,-18.673985,-4.822534,6.373894,-7.323797,-31.251780,-42.932430,515.905151,8064.000000,0.000000,4.000000,,,,0.000000,4.000000,4.000000,4.000000,4.000000,4.000000,4.000000,4.000000,4.000000,4.000000,4.000000,4.000000,4.000000,4.000000,4.000000,4.000000,4.000000,4.000000,4.000000,4.000000,4.000000,4.000000,4.000000,4.000000,4.000000,4.000000,4.000000,4.000000,4.000000,4.000000,4.000000,4.000000,4.000000,100.000000
1614045182.064331,127.000000,0.000000,1.765313,-8.813695,353.121063,-82.550987,-15.318462,-13.368283,2.210577,4.266600,-7.037611,-10.261368,-4.659968,-1.445181,-5.068337,-18.821205,-4.706451,6.586278,2.939598,101.863136,80.732964,-61.101986,-54.943241,0.196354,-2.243985,-10.556854,-13.263792,-9.937363,-2.253609,6.880340,-4.752371,-31.220528,-40.838215,517.953369,8064.000000,0.000000,4.000000,,,,0.000000,4.000000,4.000000,4.000000,4.000000,4.000000,4.000000,4.000000,4.000000,4.000000,4.000000,4.000000,4.000000,4.000000,4.000000,4.000000,4.000000,4.000000,4.000000,4.000000,4.000000,4.000000,4.000000,4.000000,4.000000,4.000000,4.000000,4.000000,4.000000,4.000000,4.000000,4.000000,4.000000,100.000000
1614045182.071980,0.000000,0.000000,3.302009,-8.804881,350.716675,-83.494080,-16.328785,-13.354916,0.157084,0.672589,-7.543394,-22.045979,-14.398898,-9.648864,-17.370960,-32.135719,-20.086361,-1.112615,2.423838,91.504860,81.165054,-60.015240,-50.785732,0.196158,-0.190459,-4.905272,-14.788990,-9.414605,-2.764176,6.873460,-5.260439,-31.702127,-40.284557,515.896912,0.000000,198.000000,4.000000,,,,0.000000,4.000000,4.000000,4.000000,4.000000,4.000000,4.000000,4.000000,4.000000,4.000000,4.000000,4.000000,4.000000,4.000000,4.000000,4.000000,4.000000,4.000000,4.000000,4.000000,4.000000,4.000000,4.000000,4.000000,4.000000,4.000000,4.000000,4.000000,4.000000,4.000000,4.000000,4.000000,4.000000,100.000000
1614045182.079729,1.000000,0.000000,2.785887,-8.796076,350.878784,-82.384941,-16.312456,-13.341560,-1.894355,0.671917,-7.023030,-3.049573,-17.974243,-7.075113,-16.327950,-24.924095,-13.912428,17.862856,8.062440,105.772331,87.750557,-49.185997,-44.068283,4.811346,9.040501,-5.926007,-13.235740,-10.430831,-2.761412,6.866586,-5.767999,-31.157606,-37.680168,515.893860,0.000000,213.000000,4.000000,,,,0.000000,4.000000,4.000000,4.000000,4.000000,4.000000,4.000000,4.000000,4.000000,4.000000,4.000000,4.000000,4.000000,4.000000,4.000000,4.000000,4.000000,4.000000,4.000000,4.000000,4.000000,4.000000,4.000000,4.000000,4.000000,4.000000,4.000000,4.000000,4.000000,4.000000,4.000000,4.000000,4.000000,100.000000
1614045182.087378,2.000000,0.000000,2.783101,-8.787280,352.579193,-81.789742,-15.270503,-13.328219,-2.405281,1.184065,-2.400622,1.056040,-16.930628,-4.503935,-14.773160,-19.258146,-5.693387,22.460379,13.695403,108.230659,79.457680,-40.931683,-39.921650,8.396278,13.646845,-0.791876,-11.171222,-8.881939,-2.245830,6.859720,-3.710949,-31.639269,-34.052746,516.403625,0.000000,172.000000,4.000000,,,,0.000000,4.000000,4.000000,4.000000,4.000000,4.000000,4.000000,4.000000,4.000000,4.000000,4.000000,4.000000,4.000000,4.000000,4.000000,4.000000,4.000000,4.000000,4.000000,4.000000,4.000000,4.000000,4.000000,4.000000,4.000000,4.000000,4.000000,4.000000,4.000000,4.000000,4.000000,4.000000,4.000000,100.000000
1614045182.095127,3.000000,0.000000,2.780318,-8.778493,349.662506,-82.220772,-16.280874,-13.314891,-1.890055,0.670061,0.678702,-17.406553,-16.913696,-9.114816,-17.835310,-23.854273,-8.251797,4.489200,14.194529,87.609612,60.403858,-50.634338,-41.420189,3.259677,8.504992,0.747377,-15.262614,-12.462800,-7.371789,6.852860,-1.655956,-31.607630,-32.993050,512.810303,0.000000,172.000000,4.000000,,,,0.000000,4.000000,4.000000,4.000000,4.000000,4.000000,4.000000,4.000000,4.000000,4.000000,4.000000,4.000000,4.000000,4.000000,4.000000,4.000000,4.000000,4.000000,4.000000,4.000000,4.000000,4.000000,4.000000,4.000000,4.000000,4.000000,4.000000,4.000000,4.000000,4.000000,4.000000,4.000000,4.000000,100.000000
1614045182.102776,4.000000,0.000000,2.777538,-8.769714,335.979492,-82.138550,-21.392797,-13.301576,-1.888165,0.669391,0.165202,-6.619917,-16.383963,-6.028778,-9.099525,-20.753494,3.038507,16.792402,16.231615,96.239952,74.189613,-54.173450,-37.789024,4.794878,5.932385,-4.894396,-21.401197,-19.629826,-14.031084,6.846007,-1.141479,-31.576021,-32.960060,507.682098,0.000000,189.000000,4.000000,,,,0.000000,4.000000,4.000000,4.000000,4.000000,4.000000,4.000000,4.000000,4.000000,4.000000,4.000000,4.000000,4.000000,4.000000,4.000000,4.000000,4.000000,4.000000,4.000000,4.000000,4.000000,4.000000,4.000000,4.000000,4.000000,4.000000,4.000000,4.000000,4.000000,4.000000,4.000000,4.000000,4.000000,100.000000
1614045182.110525,5.000000,0.000000,3.287580,-8.248124,327.951202,-82.056412,-23.422688,-13.288275,-1.886277,1.181542,0.165037,-0.972271,-16.367579,5.772123,7.832651,-13.040434,16.368801,37.801250,21.856409,115.118073,95.141060,-48.478249,-35.187134,10.943930,6.439273,-6.427963,-21.892616,-22.174297,-15.042694,6.839161,-1.653159,-31.544445,-32.927097,505.635956,0.000000,202.000000,4.000000,,,,0.000000,4.000000,4.000000,4.000000,4.000000,4.000000,4.000000,4.000000,4.000000,4.000000,4.000000,4.000000,4.000000,4.000000,4.000000,4.000000,4.000000,4.000000,4.000000,4.000000,4.000000,4.000000,4.000000,4.000000,4.000000,4.000000,4.000000,4.000000,4.000000,4.000000,4.000000,4.000000,4.000000,100.000000
1614045182.118175,6.000000,0.000000,2.771472,-8.752696,337.879669,-81.974350,-20.835161,-13.274986,-1.884391,1.180360,0.677693,-24.048222,-16.864031,9.356094,12.440203,-10.976111,7.121664,19.814732,19.270451,97.567055,70.943359,-59.199001,-44.895535,1.702217,1.304629,-5.395894,-20.845083,-21.126482,-13.489190,6.832322,-1.651505,-31.512901,-32.894173,506.155945,0.000000,160.000000,4.000000,,,,0.000000,4.000000,4.000000,4.000000,4.000000,4.000000,4.000000,4.000000,4.000000,4.000000,4.000000,4.000000,4.000000,4.000000,4.000000,4.000000,4.000000,4.000000,4.000000,4.000000,4.000000,4.000000,4.000000,4.000000,4.000000,4.000000,4.000000,4.000000,4.000000,4.000000,4.000000,4.000000,4.000000,100.000000
1614045182.125924,7.000000,0.000000,2.768701,-10.282405,346.772552,-81.892380,-19.788685,-13.261711,-1.882506,1.179180,0.164194,-18.383148,-9.667680,10.372379,10.889301,-8.401032,4.037619,11.076968,15.148617,90.802818,57.026260,-69.396210,-52.542950,-7.017434,-2.286420,-6.928959,-22.362700,-21.105356,-14.501342,6.825490,-1.649854,-31.481388,-33.374096,505.649811,0.000000,181.000000,4.000000,,,,0.000000,4.000000,4.000000,4.000000,4.000000,4.000000,4.000000,4.000000,4.000000,4.000000,4.000000,4.000000,4.000000,4.000000,4.000000,4.000000,4.000000,4.000000,4.000000,4.000000,4.000000,4.000000,4.000000,4.000000,4.000000,4.000000,4.000000,4.000000,4.000000,4.000000,4.000000,4.000000,4.000000,100.000000
1614045182.133573,8.000000,0.000000,3.791573,-12.323405,344.887329,-81.810486,-22.333000,-12.735629,-1.880624,1.178001,0.676851,2.148056,0.085577,14.464571,14.980976,-9.418272,17.879734,32.604355,14.620647,112.250481,89.789749,-63.685791,-50.439121,-5.471955,-1.258492,-6.922030,-20.801876,-21.084249,-14.999660,6.818664,-1.648204,-31.449907,-33.340725,504.631317,0.000000,201.000000,4.000000,,,,0.000000,4.000000,4.000000,4.000000,4.000000,4.000000,4.000000,4.000000,4.000000,4.000000,4.000000,4.000000,4.000000,4.000000,4.000000,4.000000,4.000000,4.000000,4.000000,4.000000,4.000000,4.000000,4.000000,4.000000,4.000000,4.000000,4.000000,4.000000,4.000000,4.000000,4.000000,4.000000,4.000000,100.000000
1614045182.141322,9.000000,0.000000,1.223679,-12.311082,344.029633,-81.728676,-22.823486,-14.774176,-1.878743,2.202464,-0.349467,-10.674605,-6.581175,2.142414,9.837790,-19.152443,13.246470,24.366621,5.375257,104.445923,90.725594,-71.827232,-55.004070,-12.645970,-5.359797,-6.402288,-22.832355,-22.601627,-13.959020,6.811846,-1.646556,-31.418457,-33.307384,504.639526,0.000000,198.000000,4.000000,,,,0.000000,4.000000,4.000000,4.000000,4.000000,4.000000,4.000000,4.000000,4.000000,4.000000,4.000000,4.000000,4.000000,4.000000,4.000000,4.000000,4.000000,4.000000,4.000000,4.000000,4.000000,4.000000,4.000000,4.000000,4.000000,4.000000,4.000000,4.000000,4.000000,4.000000,4.000000,4.000000,4.000000,100.000000
1614045182.148971,10.000000,0.000000,-3.905750,-12.298771,345.224060,-81.646950,-24.339125,-16.810682,-1.876864,0.148979,-2.913220,-28.099829,-21.959209,-12.218703,-7.095125,-22.723036,-8.305238,1.265331,-9.501913,79.726089,58.327179,-86.627205,-67.256760,-20.325632,-12.021105,-15.626655,-28.450550,-24.630308,-13.945061,6.805034,-1.644909,-31.387039,-33.274075,504.134888,0.000000,206.000000,4.000000,,,,0.000000,4.000000,4.000000,4.000000,4.000000,4.000000,4.000000,4.000000,4.000000,4.000000,4.000000,4.000000,4.000000,4.000000,4.000000,4.000000,4.000000,4.000000,4.000000,4.000000,4.000000,4.000000,4.000000,4.000000,4.000000,4.000000,4.000000,4.000000,4.000000,4.000000,4.000000,4.000000,4.000000,100.000000
1614045182.156720,11.000000,0.000000,-5.440305,-12.286471,344.878815,-81.565300,-25.853247,-16.793873,-1.874987,-2.415272,-3.935948,-29.610189,-23.988531,0.101208,-14.267517,-19.623388,-15.476419,8.956373,-12.569334,79.133545,52.627827,-79.361084,-73.343346,-12.612999,-13.034724,-25.867439,-26.883636,-24.605679,-14.443936,6.798229,-1.643264,-31.355652,-33.240803,503.630737,0.000000,180.000000,4.000000,,,,0.000000,4.000000,4.000000,4.000000,4.000000,4.000000,4.000000,4.000000,4.000000,4.000000,4.000000,4.000000,4.000000,4.000000,4.000000,4.000000,4.000000,4.000000,4.000000,4.000000,4.000000,4.000000,4.000000,4.000000,4.000000,4.000000,4.000000,4.000000,4.000000,4.000000,4.000000,4.000000,4.000000,100.000000
1614045182.164369,12.000000,0.000000,-4.409224,-11.761365,344.021118,-80.970917,-26.853035,-16.777079,-1.873112,-1.900037,-2.906371,-21.888271,-16.272236,12.921619,-11.176327,-26.270432,-14.948122,7.921776,-8.967021,81.618515,71.549561,-66.974037,-67.116158,-7.472181,-7.893485,-20.200546,-19.164446,-24.581072,-10.839749,6.791430,-1.128801,-31.324295,-33.207561,503.639923,0.000000,204.000000,4.000000,,,,0.000000,4.000000,4.000000,4.000000,4.000000,4.000000,4.000000,4.000000,4.000000,4.000000,4.000000,4.000000,4.000000,4.000000,4.000000,4.000000,4.000000,4.000000,4.000000,4.000000,4.000000,4.000000,4.000000,4.000000,4.000000,4.000000,4.000000,4.000000,4.000000,4.000000,4.000000,4.000000,4.000000,100.000000
1614045182.172218,13.000000,0.000000,-4.917635,-13.288065,341.625824,-82.941223,-28.364643,-17.273123,-1.871239,-4.462239,-3.416285,-8.020230,-18.307245,2.652288,-12.190791,-33.423649,-17.497276,-15.675889,-5.881131,78.459969,80.708778,-59.727573,-47.561863,-4.387785,-2.757386,-6.334191,-16.581179,-24.556492,-4.675063,6.784639,-2.153313,-31.292973,-33.174355,500.059357,0.000000,210.000000,4.000000,,,,0.000000,4.000000,4.000000,4.000000,4.000000,4.000000,4.000000,4.000000,4.000000,4.000000,4.000000,4.000000,4.000000,4.000000,4.000000,4.000000,4.000000,4.000000,4.000000,4.000000,4.000000,4.000000,4.000000,4.000000,4.000000,4.000000,4.000000,4.000000,4.000000,4.000000,4.000000,4.000000,4.000000,100.000000
1614045182.179967,14.000000,0.000000,-4.912718,-15.326058,339.745728,-85.422386,-30.900381,-16.743029,-2.382189,-10.611623,-6.489792,-13.140415,-22.904324,-4.017031,-13.717062,-32.364586,-15.428497,-9.506368,1.817058,91.202026,94.987045,-45.821690,-28.027121,8.949936,-1.216167,-0.686831,-18.103060,-24.531935,-3.644747,6.777854,-4.715262,-31.261679,-33.141178,494.431091,0.000000,159.000000,4.000000,,,,0.000000,4.000000,4.000000,4.000000,4.000000,4.000000,4.000000,4.000000,4.000000,4.000000,4.000000,4.000000,4.000000,4.000000,4.000000,4.000000,4.000000,4.000000,4.000000,4.000000,4.000000,4.000000,4.000000,4.000000,4.000000,4.000000,4.000000,4.000000,4.000000,4.000000,4.000000,4.000000,4.000000,100.000000
1614045182.187816,15.000000,0.000000,-1.830882,-16.336374,338.380341,-85.336967,-30.356661,-17.239105,-1.866986,-6.498447,-7.508943,-32.101635,-13.137829,1.628012,-7.036678,-32.332218,-8.233582,17.682627,10.533190,103.931335,90.789490,-40.134842,-28.511913,15.607653,-1.214951,-0.173324,-17.572136,-24.507402,-6.205205,6.771077,-5.736188,-31.230417,-33.108036,493.423859,0.000000,193.000000,4.000000,,,,0.000000,4.000000,4.000000,4.000000,4.000000,4.000000,4.000000,4.000000,4.000000,4.000000,4.000000,4.000000,4.000000,4.000000,4.000000,4.000000,4.000000,4.000000,4.000000,4.000000,4.000000,4.000000,4.000000,4.000000,4.000000,4.000000,4.000000,4.000000,4.000000,4.000000,4.000000,4.000000,4.000000,100.000000
1614045182.195566,16.000000,0.000000,-0.803410,-15.807217,337.529144,-84.225990,-30.326303,-19.785969,-1.865119,1.200359,-6.988614,-19.761839,-4.406743,3.164845,1.175487,-25.120399,-1.558682,24.844431,14.625220,102.801765,65.057678,-49.325478,-39.252632,9.438199,-1.213736,1.878131,-17.041742,-24.995716,-6.711820,6.764306,-5.217631,-31.199186,-33.074928,496.007355,0.000000,181.000000,4.000000,,,,0.000000,4.000000,4.000000,4.000000,4.000000,4.000000,4.000000,4.000000,4.000000,4.000000,4.000000,4.000000,4.000000,4.000000,4.000000,4.000000,4.000000,4.000000,4.000000,4.000000,4.000000,4.000000,4.000000,4.000000,4.000000,4.000000,4.000000,4.000000,4.000000,4.000000,4.000000,4.000000,4.000000,100.000000
1614045182.203414,17.000000,0.000000,-0.802607,-15.791409,339.242920,-86.193039,-30.295979,-20.791824,-2.376074,0.686338,-8.520086,-1.280539,-11.069002,2.136039,6.302516,-7.146562,1.006980,17.127279,15.123416,99.622040,75.249031,-49.788975,-38.187737,7.377479,-0.699702,0.337792,-17.537521,-24.457899,-6.705108,6.757541,-5.725234,-31.167988,-33.041855,495.511353,0.000000,197.000000,4.000000,,,,0.000000,4.000000,4.000000,4.000000,4.000000,4.000000,4.000000,4.000000,4.000000,4.000000,4.000000,4.000000,4.000000,4.000000,4.000000,4.000000,4.000000,4.000000,4.000000,4.000000,4.000000,4.000000,4.000000,4.000000,4.000000,4.000000,4.000000,4.000000,4.000000,4.000000,4.000000,4.000000,4.000000,100.000000
1614045182.211164,18.000000,0.000000,2.275119,-15.775619,343.006226,-84.055565,-23.086195,-17.694109,-1.348057,5.301036,-4.921823,-9.484386,-9.519472,7.262108,11.937240,0.040072,1.005973,16.084511,13.569831,99.009598,103.378906,-47.175083,-30.970064,6.857280,-0.699002,-2.226649,-17.519983,-24.433441,-5.672762,6.750783,-5.206688,-31.136820,-33.008812,499.631226,0.000000,218.000000,4.000000,,,,0.000000,4.000000,4.000000,4.000000,4.000000,4.000000,4.000000,4.000000,4.000000,4.000000,4.000000,4.000000,4.000000,4.000000,4.000000,4.000000,4.000000,4.000000,4.000000,4.000000,4.000000,4.000000,4.000000,4.000000,4.000000,4.000000,4.000000,4.000000,4.000000,4.000000,4.000000,4.000000,4.000000,100.000000
1614045182.219013,19.000000,0.000000,6.375408,-16.272663,345.227325,-75.766380,-15.370801,-14.086672,2.755855,17.603428,4.313868,-7.936441,7.413125,10.844590,22.181713,0.552852,12.287018,35.555607,17.146004,107.628532,93.531937,-57.897137,-35.041656,1.209398,-0.698303,-1.711601,-17.502464,-24.921829,-3.615807,6.744033,-0.586097,-31.105682,-32.975803,507.849548,0.000000,183.000000,4.000000,,,,0.000000,4.000000,4.000000,4.000000,4.000000,4.000000,4.000000,4.000000,4.000000,4.000000,4.000000,4.000000,4.000000,4.000000,4.000000,4.000000,4.000000,4.000000,4.000000,4.000000,4.000000,4.000000,4.000000,4.000000,4.000000,4.000000,4.000000,4.000000,4.000000,4.000000,4.000000,4.000000,4.000000,100.000000
1614045182.226762,20.000000,0.000000,6.881853,-15.230749,347.959015,-69.023949,-14.329789,-13.046944,5.317202,20.662746,8.924939,7.968931,14.585198,9.295283,30.364658,14.398454,27.146526,58.596973,21.231422,122.905518,79.079430,-67.582832,-43.724564,-1.355914,-2.236066,-3.761172,-17.484962,-23.871265,-3.099371,6.737289,2.491412,-31.074577,-32.942829,511.444244,0.000000,156.000000,4.000000,,,,0.000000,4.000000,4.000000,4.000000,4.000000,4.000000,4.000000,4.000000,4.000000,4.000000,4.000000,4.000000,4.000000,4.000000,4.000000,4.000000,4.000000,4.000000,4.000000,4.000000,4.000000,4.000000,4.000000,4.000000,4.000000,4.000000,4.000000,4.000000,4.000000,4.000000,4.000000,4.000000,4.000000,100.000000
1614045182.234611,21.000000,0.000000,6.362151,-12.651416,351.713623,-68.954926,-15.341100,-13.033897,5.824705,18.077982,8.403193,6.935321,10.468049,7.747527,27.770191,21.563541,22.503994,47.769146,11.979422,120.731331,94.384972,-67.515244,-45.219303,-0.841738,-0.695369,-5.808693,-17.980297,-19.232010,-3.096272,6.730551,1.976100,-31.043503,-32.909885,509.394348,0.000000,202.000000,4.000000,,,,0.000000,4.000000,4.000000,4.000000,4.000000,4.000000,4.000000,4.000000,4.000000,4.000000,4.000000,4.000000,4.000000,4.000000,4.000000,4.000000,4.000000,4.000000,4.000000,4.000000,4.000000,4.000000,4.000000,4.000000,4.000000,4.000000,4.000000,4.000000,4.000000,4.000000,4.000000,4.000000,4.000000,100.000000
1614045182.242360,22.000000,0.000000,6.355789,-11.613124,351.874725,-70.937256,-14.812939,-13.020864,5.306060,14.982981,6.856328,-2.302383,8.406300,10.816703,16.460371,8.721466,7.096875,24.131632,-0.340250,109.841370,104.546997,-67.960556,-47.225365,-3.917819,-1.720314,-7.341346,-17.962317,-16.135855,-3.093175,6.723821,1.974124,-31.012459,-32.876976,508.884949,0.000000,200.000000,4.000000,,,,0.000000,4.000000,4.000000,4.000000,4.000000,4.000000,4.000000,4.000000,4.000000,4.000000,4.000000,4.000000,4.000000,4.000000,4.000000,4.000000,4.000000,4.000000,4.000000,4.000000,4.000000,4.000000,4.000000,4.000000,4.000000,4.000000,4.000000,4.000000,4.000000,4.000000,4.000000,4.000000,4.000000,100.000000
1614045182.250209,23.000000,0.000000,6.349433,-12.114331,350.497223,-72.404778,-15.823767,-13.007842,5.813574,3.173126,2.746908,-11.530850,2.244047,5.677680,2.597756,1.533257,-4.192273,21.543398,-3.929653,104.603325,89.057831,-72.507973,-62.562756,-12.119030,-11.462184,-11.949389,-17.431534,-16.632540,-6.679826,6.717097,2.484971,-30.981447,-32.844097,508.888885,0.000000,205.000000,4.000000,,,,0.000000,4.000000,4.000000,4.000000,4.000000,4.000000,4.000000,4.000000,4.000000,4.000000,4.000000,4.000000,4.000000,4.000000,4.000000,4.000000,4.000000,4.000000,4.000000,4.000000,4.000000,4.000000,4.000000,4.000000,4.000000,4.000000,4.000000,4.000000,4.000000,4.000000,4.000000,4.000000,4.000000,100.000000
1614045182.257958,24.000000,0.000000,6.343083,-12.102217,350.146729,-73.358017,-18.372046,-12.994835,5.294940,-6.573637,-0.332762,-21.775730,-5.963326,-10.225433,-11.250996,-0.006738,-17.521414,10.752624,-5.977005,88.088463,69.994415,-76.538033,-73.269424,-18.260757,-16.066107,-20.655388,-17.926924,-17.128727,-11.288530,6.710380,1.969665,-30.950464,-32.811253,507.867188,0.000000,201.000000,4.000000,,,,0.000000,4.000000,4.000000,4.000000,4.000000,4.000000,4.000000,4.000000,4.000000,4.000000,4.000000,4.000000,4.000000,4.000000,4.000000,4.000000,4.000000,4.000000,4.000000,4.000000,4.000000,4.000000,4.000000,4.000000,4.000000,4.000000,4.000000,4.000000,4.000000,4.000000,4.000000,4.000000,4.000000,100.000000
1614045182.265807,25.000000,0.000000,6.336740,-11.577294,349.796570,-73.284653,-19.379314,-12.981840,5.289645,0.099604,0.180391,-13.036005,-5.444541,-10.215207,-12.265386,-16.416988,-20.580816,-11.309411,2.234100,77.231148,72.488525,-68.256363,-57.298717,-4.396342,-4.255168,-24.737297,-18.421816,-16.598778,-9.225960,6.703670,1.967695,-30.919514,-32.778442,507.359314,0.000000,213.000000,4.000000,,,,0.000000,4.000000,4.000000,4.000000,4.000000,4.000000,4.000000,4.000000,4.000000,4.000000,4.000000,4.000000,4.000000,4.000000,4.000000,4.000000,4.000000,4.000000,4.000000,4.000000,4.000000,4.000000,4.000000,4.000000,4.000000,4.000000,4.000000,4.000000,4.000000,4.000000,4.000000,4.000000,4.000000,100.000000
1614045182.273556,26.000000,0.000000,6.330404,-12.078537,349.959595,-73.211372,-19.359936,-13.481678,5.284356,9.330273,-0.332609,1.848826,-3.900635,11.846290,7.234059,-24.092878,1.491047,1.522411,25.821609,99.205200,94.980141,-39.982983,-31.600393,24.326002,8.569600,-14.456149,-11.223907,-17.094999,-4.088529,6.696966,1.965728,-30.888596,-32.745663,506.339142,0.000000,216.000000,4.000000,,,,0.000000,4.000000,4.000000,4.000000,4.000000,4.000000,4.000000,4.000000,4.000000,4.000000,4.000000,4.000000,4.000000,4.000000,4.000000,4.000000,4.000000,4.000000,4.000000,4.000000,4.000000,4.000000,4.000000,4.000000,4.000000,4.000000,4.000000,4.000000,4.000000,4.000000,4.000000,4.000000,4.000000,100.000000
1614045182.281205,27.000000,0.000000,6.324073,-12.066459,348.583984,-73.138161,-18.314934,-12.955377,5.279071,10.859405,-0.332277,2.359798,-2.871094,25.680597,26.714005,-0.479042,24.566479,30.751657,40.154762,117.054710,106.167206,-17.891716,-21.312382,38.147831,10.612312,6.071127,-0.956274,-17.077906,-2.545979,6.690269,1.963762,-28.806425,-32.712917,505.832794,0.000000,204.000000,4.000000,,,,0.000000,4.000000,4.000000,4.000000,4.000000,4.000000,4.000000,4.000000,4.000000,4.000000,4.000000,4.000000,4.000000,4.000000,4.000000,4.000000,4.000000,4.000000,4.000000,4.000000,4.000000,4.000000,4.000000,4.000000,4.000000,4.000000,4.000000,4.000000,4.000000,4.000000,4.000000,4.000000,4.000000,100.000000
1614045182.288954,28.000000,0.000000,6.317749,-12.054392,348.235413,-73.577843,-15.732516,-12.942421,5.273792,11.361365,0.180876,9.536925,3.798444,23.603634,29.764214,20.034258,27.618835,35.336292,41.140247,109.758171,102.984116,-19.412287,-22.316711,36.058399,9.576058,20.424030,0.070324,-17.060827,-3.569074,6.683578,1.961798,-25.187874,-32.680206,505.326965,0.000000,175.000000,4.000000,,,,0.000000,4.000000,4.000000,4.000000,4.000000,4.000000,4.000000,4.000000,4.000000,4.000000,4.000000,4.000000,4.000000,4.000000,4.000000,4.000000,4.000000,4.000000,4.000000,4.000000,4.000000,4.000000,4.000000,4.000000,4.000000,4.000000,4.000000,4.000000,4.000000,4.000000,4.000000,4.000000,4.000000,100.000000
1614045182.296603,29.000000,0.000000,6.311431,-12.555159,352.502563,-72.991447,-15.716784,-13.442299,4.755698,12.375646,-1.870587,17.732517,2.256184,23.067211,28.195988,11.296275,25.539934,33.762493,41.099110,114.263794,115.188828,-22.469797,-19.730291,36.022343,10.079304,21.429247,-3.006670,-16.530945,-3.052684,6.164074,1.959836,-23.624226,-33.160347,505.334442,0.000000,172.000000,4.000000,,,,0.000000,4.000000,4.000000,4.000000,4.000000,4.000000,4.000000,4.000000,4.000000,4.000000,4.000000,4.000000,4.000000,4.000000,4.000000,4.000000,4.000000,4.000000,4.000000,4.000000,4.000000,4.000000,4.000000,4.000000,4.000000,4.000000,4.000000,4.000000,4.000000,4.000000,4.000000,4.000000,4.000000,100.000000
1614045182.304352,30.000000,0.000000,6.305120,-11.516962,355.739807,-70.867172,-15.701067,-12.403215,5.776583,11.850449,-3.407178,4.894271,-1.848636,25.095425,29.193434,3.592671,28.078497,44.497963,32.340061,129.021332,127.894150,-24.498610,-20.223381,29.319653,11.094865,17.818075,-3.003663,-14.463133,-2.536811,6.670731,1.957877,-23.087780,-32.614365,503.803467,0.000000,223.000000,4.000000,,,,0.000000,4.000000,4.000000,4.000000,4.000000,4.000000,4.000000,4.000000,4.000000,4.000000,4.000000,4.000000,4.000000,4.000000,4.000000,4.000000,4.000000,4.000000,4.000000,4.000000,4.000000,4.000000,4.000000,4.000000,4.000000,4.000000,4.000000,4.000000,4.000000,4.000000,4.000000,4.000000,4.000000,100.000000
1614045182.312002,31.000000,0.000000,6.298815,-9.454164,354.871246,-68.745018,-10.557161,-9.826710,8.334909,13.889880,-0.839668,-1.264469,11.999366,24.044689,30.702702,14.871130,28.563240,47.530388,16.923105,126.841019,113.920105,-42.935650,-26.869825,11.854436,10.058129,18.313078,-2.487839,-12.910208,-3.047095,9.228163,1.955919,-21.013411,-30.017649,505.350952,0.000000,187.000000,4.000000,,,,0.000000,4.000000,4.000000,4.000000,4.000000,4.000000,4.000000,4.000000,4.000000,4.000000,4.000000,4.000000,4.000000,4.000000,4.000000,4.000000,4.000000,4.000000,4.000000,4.000000,4.000000,4.000000,4.000000,4.000000,4.000000,4.000000,4.000000,4.000000,4.000000,4.000000,4.000000,4.000000,4.000000,100.000000
1614045182.319751,32.000000,0.000000,6.292516,-7.906248,355.542023,-68.676277,-6.444040,-8.278421,8.839395,15.927273,2.750915,12.582949,28.397623,23.507824,31.697639,23.061386,26.996216,43.380291,11.777976,120.560333,102.011307,-58.277328,-27.868595,2.611813,7.483968,17.269123,1.104393,-13.410118,-3.044048,10.244576,1.953963,-18.941114,-28.449169,512.537903,8064.000000,0.000000,4.000000,,,,0.000000,4.000000,4.000000,4.000000,4.000000,4.000000,4.000000,4.000000,4.000000,4.000000,4.000000,4.000000,4.000000,4.000000,4.000000,4.000000,4.000000,4.000000,4.000000,4.000000,4.000000,4.000000,4.000000,4.000000,4.000000,4.000000,4.000000,4.000000,4.000000,4.000000,4.000000,4.000000,4.000000,100.000000
1614045182.327400,33.000000,0.000000,6.286223,-8.411161,358.263397,-70.146065,-7.463237,-9.295784,5.753632,15.398525,4.286626,16.672930,28.369226,23.484316,29.101839,20.474222,25.430758,47.439476,13.817480,127.619263,112.165710,-58.731873,-29.892010,-0.980543,5.938023,8.021085,7.257134,-13.396708,-3.041004,10.747151,1.952009,-19.434994,-29.446362,517.153564,8192.000000,0.000000,4.000000,,,,0.000000,4.000000,4.000000,4.000000,4.000000,4.000000,4.000000,4.000000,4.000000,4.000000,4.000000,4.000000,4.000000,4.000000,4.000000,4.000000,4.000000,4.000000,4.000000,4.000000,4.000000,4.000000,4.000000,4.000000,4.000000,4.000000,4.000000,4.000000,4.000000,4.000000,4.000000,4.000000,4.000000,100.000000
1614045182.335149,34.000000,0.000000,6.279937,-8.402751,357.905121,-66.998993,-7.455774,-9.286489,5.235058,15.895947,4.282339,13.066513,28.853678,23.460831,25.482994,21.479389,23.354044,52.007420,12.265202,134.671127,112.053543,-66.365448,-48.836475,-10.723152,5.419264,-3.781808,6.737057,-12.870491,-3.037963,10.223584,1.950057,-20.954021,-27.878452,517.662048,8064.000000,0.000000,4.000000,,,,0.000000,4.000000,4.000000,4.000000,4.000000,4.000000,4.000000,4.000000,4.000000,4.000000,4.000000,4.000000,4.000000,4.000000,4.000000,4.000000,4.000000,4.000000,4.000000,4.000000,4.000000,4.000000,4.000000,4.000000,4.000000,4.000000,4.000000,4.000000,4.000000,4.000000,4.000000,4.000000,4.000000,100.000000
1614045182.342798,35.000000,0.000000,6.273657,-8.394348,357.547211,-62.316608,-6.935497,-8.251561,5.229823,15.367230,3.252416,16.643190,24.209438,23.437370,20.842127,15.816884,15.638383,34.519516,12.252936,118.126205,80.146622,-81.170876,-66.736359,-17.379095,-0.740001,-9.419052,1.089294,-13.370441,-3.547745,6.623617,1.948107,-19.907425,-25.286472,517.144409,8064.000000,0.000000,4.000000,,,,0.000000,4.000000,4.000000,4.000000,4.000000,4.000000,4.000000,4.000000,4.000000,4.000000,4.000000,4.000000,4.000000,4.000000,4.000000,4.000000,4.000000,4.000000,4.000000,4.000000,4.000000,4.000000,4.000000,4.000000,4.000000,4.000000,4.000000,4.000000,4.000000,4.000000,4.000000,4.000000,4.000000,100.000000
1614045182.350547,36.000000,0.000000,6.267384,-8.385954,356.676849,-66.356857,-14.620870,-10.807412,3.173311,10.223659,-0.340580,5.344496,1.108306,23.413933,11.077695,-10.352778,-3.351615,2.177305,13.266324,85.700386,52.374165,-88.269196,-68.720901,-17.874537,-8.431569,-15.050658,-10.193847,-13.357071,-4.057018,2.514429,1.946159,-18.861877,-26.286827,511.499054,8064.000000,0.000000,4.000000,,,,0.000000,4.000000,4.000000,4.000000,4.000000,4.000000,4.000000,4.000000,4.000000,4.000000,4.000000,4.000000,4.000000,4.000000,4.000000,4.000000,4.000000,4.000000,4.000000,4.000000,4.000000,4.000000,4.000000,4.000000,4.000000,4.000000,4.000000,4.000000,4.000000,4.000000,4.000000,4.000000,4.000000,100.000000
1614045182.358196,37.000000,0.000000,6.261117,-8.377567,347.089417,-75.008446,-25.888300,-15.411989,1.118856,4.572409,-4.442804,-24.404438,-17.867161,23.390520,4.399950,-34.957809,-12.579032,-11.158206,12.227417,72.794167,60.526917,-83.565536,-67.626541,-14.266919,-8.935958,-20.163813,-24.542627,-13.343714,-2.514499,1.999094,1.944213,-24.996862,-28.824642,499.705505,8064.000000,0.000000,4.000000,,,,0.000000,4.000000,4.000000,4.000000,4.000000,4.000000,4.000000,4.000000,4.000000,4.000000,4.000000,4.000000,4.000000,4.000000,4.000000,4.000000,4.000000,4.000000,4.000000,4.000000,4.000000,4.000000,4.000000,4.000000,4.000000,4.000000,4.000000,4.000000,4.000000,4.000000,4.000000,4.000000,4.000000,100.000000
1614045182.365945,38.000000,0.000000,6.254855,-8.369190,336.485901,-77.497543,-30.990616,-17.960680,1.630557,4.055016,-6.489643,-36.687725,-17.849295,23.367128,6.959653,-32.871571,4.869444,4.237567,15.292112,90.157272,79.440750,-67.584541,-61.405067,-2.457780,-3.285996,-17.579546,-29.646290,-13.330370,-3.537626,4.561198,1.429448,-31.638531,-29.308638,496.128876,8064.000000,0.000000,4.000000,,,,0.000000,4.000000,4.000000,4.000000,4.000000,4.000000,4.000000,4.000000,4.000000,4.000000,4.000000,4.000000,4.000000,4.000000,4.000000,4.000000,4.000000,4.000000,4.000000,4.000000,4.000000,4.000000,4.000000,4.000000,4.000000,4.000000,4.000000,4.000000,4.000000,4.000000,4.000000,4.000000,4.000000,100.000000
1614045182.373595,39.000000,0.000000,6.248600,-8.360821,341.277618,-75.881584,-29.933985,-16.404257,1.628927,4.563781,-7.508794,-20.240782,-13.216061,24.369402,12.080898,-12.838699,27.428677,22.182049,26.558872,102.887627,83.463875,-44.952850,-37.753922,11.903652,2.871136,-16.536325,-22.949976,-13.317039,-4.046909,6.607919,1.940839,-23.401764,-28.766510,503.837860,8192.000000,0.000000,4.000000,,,,0.000000,4.000000,4.000000,4.000000,4.000000,4.000000,4.000000,4.000000,4.000000,4.000000,4.000000,4.000000,4.000000,4.000000,4.000000,4.000000,4.000000,4.000000,4.000000,4.000000,4.000000,4.000000,4.000000,4.000000,4.000000,4.000000,4.000000,4.000000,4.000000,4.000000,4.000000,4.000000,4.000000,100.000000
1614045182.381344,40.000000,0.000000,6.242352,-8.865280,351.705566,-76.318520,-28.365589,-16.387854,1.627298,4.559217,-7.501286,-2.784644,-7.048998,24.345034,19.248304,2.045935,32.529453,24.723969,34.224621,104.836021,99.790665,-24.907898,-7.972577,23.686621,9.022111,-10.365944,-12.670616,-10.739620,5.700728,6.601311,5.015821,-10.557850,-28.737743,509.487885,8192.000000,0.000000,4.000000,,,,0.000000,4.000000,4.000000,4.000000,4.000000,4.000000,4.000000,4.000000,4.000000,4.000000,4.000000,4.000000,4.000000,4.000000,4.000000,4.000000,4.000000,4.000000,4.000000,4.000000,4.000000,4.000000,4.000000,4.000000,4.000000,4.000000,4.000000,4.000000,4.000000,4.000000,4.000000,4.000000,4.000000,100.000000
1614045182.388993,41.000000,0.000000,6.236109,-8.343595,351.353882,-76.755028,-26.285942,-17.909927,1.625671,4.554658,-6.980964,-1.243397,0.650359,23.295048,24.357262,6.146453,29.420002,24.186424,32.651936,117.038879,132.511383,-7.959914,8.958473,35.457806,15.166935,11.182884,-0.863074,-7.139137,19.028360,6.081889,3.985164,-10.034472,-29.221825,509.491211,8064.000000,0.000000,4.000000,,,,0.000000,4.000000,4.000000,4.000000,4.000000,4.000000,4.000000,4.000000,4.000000,4.000000,4.000000,4.000000,4.000000,4.000000,4.000000,4.000000,4.000000,4.000000,4.000000,4.000000,4.000000,4.000000,4.000000,4.000000,4.000000,4.000000,4.000000,4.000000,4.000000,4.000000,4.000000,4.000000,4.000000,100.000000
1614045182.396842,42.000000,0.000000,6.229873,-8.848072,349.464050,-76.165451,-25.746836,-14.815094,1.111225,4.037283,-7.486804,-0.216513,2.188170,23.271751,24.845724,7.165947,29.903402,41.085316,32.619282,134.870560,143.660934,-4.875031,6.898232,37.473629,17.715870,28.607599,7.855738,-6.106357,17.983690,9.152730,0.904256,-12.588540,-29.705423,509.494537,8064.000000,0.000000,4.000000,,,,0.000000,4.000000,4.000000,4.000000,4.000000,4.000000,4.000000,4.000000,4.000000,4.000000,4.000000,4.000000,4.000000,4.000000,4.000000,4.000000,4.000000,4.000000,4.000000,4.000000,4.000000,4.000000,4.000000,4.000000,4.000000,4.000000,4.000000,4.000000,4.000000,4.000000,4.000000,4.000000,4.000000,100.000000
1614045182.404591,43.000000,0.000000,6.223643,-8.839224,355.781250,-71.986717,-27.259550,-7.620791,1.622934,4.546066,-6.453676,6.450370,2.698802,19.658737,26.872162,12.799807,33.976063,66.172432,32.073841,140.889542,135.824966,-24.870155,-7.980461,22.051540,12.057129,29.091812,10.924805,-5.074609,10.273399,10.682039,5.005916,-8.986208,-27.624437,509.497864,8192.000000,0.000000,4.000000,,,,0.000000,4.000000,4.000000,4.000000,4.000000,4.000000,4.000000,4.000000,4.000000,4.000000,4.000000,4.000000,4.000000,4.000000,4.000000,4.000000,4.000000,4.000000,4.000000,4.000000,4.000000,4.000000,4.000000,4.000000,4.000000,4.000000,4.000000,4.000000,4.000000,4.000000,4.000000,4.000000,4.000000,100.000000
1614045182.412440,44.000000,0.000000,5.191779,-5.240641,361.579315,-65.760887,-21.078444,-4.023427,1.621311,5.054341,-3.883119,6.443920,6.285847,0.664719,19.665802,15.863931,25.224138,60.465237,13.580231,125.876846,126.458366,-51.511951,-27.972481,-0.021793,-1.288261,23.421694,9.888239,-5.069534,7.186203,8.620074,10.129115,-7.951581,-22.981428,510.526825,8064.000000,0.000000,4.000000,,,,0.000000,4.000000,4.000000,4.000000,4.000000,4.000000,4.000000,4.000000,4.000000,4.000000,4.000000,4.000000,4.000000,4.000000,4.000000,4.000000,4.000000,4.000000,4.000000,4.000000,4.000000,4.000000,4.000000,4.000000,4.000000,4.000000,4.000000,4.000000,4.000000,4.000000,4.000000,4.000000,4.000000,100.000000
1614045182.420189,45.000000,0.000000,3.135305,-1.132836,361.730560,-62.105381,-7.211212,-5.557865,0.594049,2.485184,-2.853595,3.873373,4.741100,-22.412868,-7.020531,11.232681,-2.493394,28.097078,-12.587195,96.007385,98.126778,-79.665565,-53.072712,-23.098694,-14.107486,6.475195,4.237325,-10.192670,2.050812,6.047352,9.093345,-7.943629,-20.394344,516.682983,8064.000000,0.000000,4.000000,,,,0.000000,4.000000,4.000000,4.000000,4.000000,4.000000,4.000000,4.000000,4.000000,4.000000,4.000000,4.000000,4.000000,4.000000,4.000000,4.000000,4.000000,4.000000,4.000000,4.000000,4.000000,4.000000,4.000000,4.000000,4.000000,4.000000,4.000000,4.000000,4.000000,4.000000,4.000000,4.000000,4.000000,100.000000
1614045182.428038,46.000000,0.000000,1.593708,-0.618883,360.856018,-58.966354,-1.562975,-5.039487,2.644737,1.457058,-3.363562,6.433602,2.685076,-19.313532,-24.962229,4.041962,-19.926798,16.786930,-23.343840,83.090866,70.849167,-106.252571,-77.122208,-35.896107,-15.119020,-23.274870,-2.946399,-12.746580,-4.105085,6.041305,9.084251,-4.858762,-18.835487,520.268860,8064.000000,0.000000,4.000000,,,,0.000000,4.000000,4.000000,4.000000,4.000000,4.000000,4.000000,4.000000,4.000000,4.000000,4.000000,4.000000,4.000000,4.000000,4.000000,4.000000,4.000000,4.000000,4.000000,4.000000,4.000000,4.000000,4.000000,4.000000,4.000000,4.000000,4.000000,4.000000,4.000000,4.000000,4.000000,4.000000,4.000000,100.000000
1614045182.435787,47.000000,0.000000,3.130576,-1.131084,359.982330,-56.343285,-9.253720,-1.957524,7.257476,5.558165,-3.360198,-3.829241,2.169571,3.269883,-16.219316,-9.295413,-14.778666,23.949631,-18.705111,91.725723,79.496262,-105.120674,-83.198929,-27.655085,-8.950054,-37.610569,-7.046017,-13.246654,-4.100980,6.548084,10.613629,-10.494929,-16.765369,512.056274,8064.000000,0.000000,4.000000,,,,0.000000,4.000000,4.000000,4.000000,4.000000,4.000000,4.000000,4.000000,4.000000,4.000000,4.000000,4.000000,4.000000,4.000000,4.000000,4.000000,4.000000,4.000000,4.000000,4.000000,4.000000,4.000000,4.000000,4.000000,4.000000,4.000000,4.000000,4.000000,4.000000,4.000000,4.000000,4.000000,4.000000,100.000000
1614045182.443636,48.000000,0.000000,7.230010,-1.129953,355.519806,-59.363865,-14.885492,-1.955567,9.301501,9.142350,-2.844018,-18.697206,-4.499265,10.958921,-9.536431,-29.286118,-13.225426,3.925681,-12.019739,85.480148,83.006516,-86.041199,-75.423424,-16.345377,-5.351360,-34.496037,-16.269739,-21.951357,-4.096879,6.541536,1.372246,-26.381870,-18.799887,500.774994,8064.000000,0.000000,4.000000,,,,0.000000,4.000000,4.000000,4.000000,4.000000,4.000000,4.000000,4.000000,4.000000,4.000000,4.000000,4.000000,4.000000,4.000000,4.000000,4.000000,4.000000,4.000000,4.000000,4.000000,4.000000,4.000000,4.000000,4.000000,4.000000,4.000000,4.000000,4.000000,4.000000,4.000000,4.000000,4.000000,4.000000,100.000000
1614045182.451385,49.000000,0.000000,10.299703,-0.616003,350.036072,-63.919884,-14.870606,-4.517714,8.779379,8.107567,-3.866815,-6.370818,-12.187074,7.871039,-9.526895,-35.923500,-15.263483,-17.616707,-2.776950,70.522873,60.359402,-81.852592,-71.758255,-12.739288,-5.858829,-34.974361,-31.125265,-28.083250,-4.092782,6.022174,-9.398357,-32.509335,-23.909292,497.197296,8064.000000,0.000000,4.000000,,,,0.000000,4.000000,4.000000,4.000000,4.000000,4.000000,4.000000,4.000000,4.000000,4.000000,4.000000,4.000000,4.000000,4.000000,4.000000,4.000000,4.000000,4.000000,4.000000,4.000000,4.000000,4.000000,4.000000,4.000000,4.000000,4.000000,4.000000,4.000000,4.000000,4.000000,4.000000,4.000000,4.000000,100.000000
1614045182.459234,50.000000,0.000000,9.776583,-1.128207,348.147583,-64.881607,-14.342916,-7.077299,8.770599,7.586639,-6.939871,2.866323,-11.149245,12.991373,0.226222,-26.656805,-6.530271,-7.342680,4.918134,76.093376,61.837505,-76.129715,-70.660858,-3.495780,-5.340150,-31.349642,-33.145420,-19.337219,4.116439,7.041793,-6.312036,-25.297338,-25.423843,497.725739,8064.000000,0.000000,4.000000,,,,0.000000,4.000000,4.000000,4.000000,4.000000,4.000000,4.000000,4.000000,4.000000,4.000000,4.000000,4.000000,4.000000,4.000000,4.000000,4.000000,4.000000,4.000000,4.000000,4.000000,4.000000,4.000000,4.000000,4.000000,4.000000,4.000000,4.000000,4.000000,4.000000,4.000000,4.000000,4.000000,4.000000,100.000000
1614045182.466983,51.000000,0.000000,9.766806,-1.127079,346.773773,-64.303902,-15.354214,-9.121504,7.736188,8.604693,-10.522675,-21.751928,-10.112455,16.568125,9.456765,-21.501944,1.681388,5.997997,7.990139,87.812157,85.365410,-54.515121,-62.897888,8.302588,-1.745067,-16.446497,-25.932789,-11.625574,11.291809,9.086033,1.899405,-20.143835,-25.398420,496.715179,8064.000000,0.000000,4.000000,,,,0.000000,4.000000,4.000000,4.000000,4.000000,4.000000,4.000000,4.000000,4.000000,4.000000,4.000000,4.000000,4.000000,4.000000,4.000000,4.000000,4.000000,4.000000,4.000000,4.000000,4.000000,4.000000,4.000000,4.000000,4.000000,4.000000,4.000000,4.000000,4.000000,4.000000,4.000000,4.000000,4.000000,100.000000
1614045182.474832,52.000000,0.000000,10.269859,-1.125952,345.914185,-64.752419,-15.338860,-10.138023,5.164349,8.083268,-11.537793,-24.807100,-9.589522,18.602840,15.088333,-11.224031,14.500219,19.325333,19.264200,97.980751,96.562096,-37.537529,-43.860630,13.935310,3.897704,-6.686461,-20.265831,-13.665231,11.793338,10.615408,1.897505,-20.123692,-24.860201,495.705658,8064.000000,0.000000,4.000000,,,,0.000000,4.000000,4.000000,4.000000,4.000000,4.000000,4.000000,4.000000,4.000000,4.000000,4.000000,4.000000,4.000000,4.000000,4.000000,4.000000,4.000000,4.000000,4.000000,4.000000,4.000000,4.000000,4.000000,4.000000,4.000000,4.000000,4.000000,4.000000,4.000000,4.000000,4.000000,4.000000,4.000000,100.000000
1614045182.482581,53.000000,0.000000,10.259589,-1.124826,347.106750,-64.687668,-14.810699,-9.102243,4.646364,8.075185,-11.013435,4.961298,0.676477,27.302185,27.893759,13.915398,40.126743,50.588058,39.757755,121.472519,111.850151,-19.551273,-16.124462,28.280350,11.073294,1.525353,-4.348129,-11.600283,15.884109,10.604793,0.869967,-20.103567,-25.348162,495.209961,8064.000000,0.000000,4.000000,,,,0.000000,4.000000,4.000000,4.000000,4.000000,4.000000,4.000000,4.000000,4.000000,4.000000,4.000000,4.000000,4.000000,4.000000,4.000000,4.000000,4.000000,4.000000,4.000000,4.000000,4.000000,4.000000,4.000000,4.000000,4.000000,4.000000,4.000000,4.000000,4.000000,4.000000,4.000000,4.000000,4.000000,100.000000
1614045182.490430,54.000000,0.000000,9.736509,-1.123701,345.221161,-64.622978,-14.795889,-9.605962,5.154539,8.067110,-10.489601,3.930695,10.419391,29.326166,38.122276,26.209175,50.343029,67.973366,47.923126,142.889511,134.302399,1.493918,7.994227,45.687965,14.139143,17.421265,16.681860,-5.947657,18.945148,10.081367,1.894738,-20.083464,-25.835634,495.740387,8064.000000,0.000000,4.000000,,,,0.000000,4.000000,4.000000,4.000000,4.000000,4.000000,4.000000,4.000000,4.000000,4.000000,4.000000,4.000000,4.000000,4.000000,4.000000,4.000000,4.000000,4.000000,4.000000,4.000000,4.000000,4.000000,4.000000,4.000000,4.000000,4.000000,4.000000,4.000000,4.000000,4.000000,4.000000,4.000000,4.000000,100.000000
1614045182.498179,55.000000,0.000000,9.726773,-1.635398,344.875946,-64.558357,-14.781094,-10.109177,5.149384,8.059043,-11.504752,-16.073236,10.408971,21.604532,35.007229,16.952196,40.549095,60.725906,37.105972,143.772263,142.373230,1.492424,15.678540,42.052536,14.125004,28.685894,20.767742,-4.916069,16.874920,10.071286,2.405663,-18.524920,-23.758516,500.885651,8320.000000,0.000000,4.000000,,,,0.000000,4.000000,4.000000,4.000000,4.000000,4.000000,4.000000,4.000000,4.000000,4.000000,4.000000,4.000000,4.000000,4.000000,4.000000,4.000000,4.000000,4.000000,4.000000,4.000000,4.000000,4.000000,4.000000,4.000000,4.000000,4.000000,4.000000,4.000000,4.000000,4.000000,4.000000,4.000000,4.000000,100.000000
1614045182.505828,56.000000,0.000000,10.229867,-0.608122,355.813110,-60.391235,-14.766313,-5.996503,5.144235,8.050983,-9.954786,-4.775111,9.372921,17.993183,28.305555,17.960884,41.021366,62.203644,28.863739,146.192581,148.384705,-11.329581,13.611580,31.241251,14.623700,30.195669,17.157230,-2.347050,16.858046,10.574036,1.890437,-12.865369,-17.580912,506.538635,8192.000000,0.000000,4.000000,,,,0.000000,4.000000,4.000000,4.000000,4.000000,4.000000,4.000000,4.000000,4.000000,4.000000,4.000000,4.000000,4.000000,4.000000,4.000000,4.000000,4.000000,4.000000,4.000000,4.000000,4.000000,4.000000,4.000000,4.000000,4.000000,4.000000,4.000000,4.000000,4.000000,4.000000,4.000000,4.000000,4.000000,100.000000
1614045182.513578,57.000000,0.000000,9.706817,1.956589,369.303467,-54.689819,-14.238726,0.676160,5.139091,8.042933,-4.303806,13.178382,10.389190,20.026472,28.277250,23.583950,40.980347,60.602978,29.347696,150.661774,148.749130,-21.061842,2.315917,21.466421,10.506512,27.088551,17.652895,-3.370344,12.225803,9.025000,1.888547,-8.749939,-13.460767,512.185913,8064.000000,0.000000,4.000000,,,,0.000000,4.000000,4.000000,4.000000,4.000000,4.000000,4.000000,4.000000,4.000000,4.000000,4.000000,4.000000,4.000000,4.000000,4.000000,4.000000,4.000000,4.000000,4.000000,4.000000,4.000000,4.000000,4.000000,4.000000,4.000000,4.000000,4.000000,4.000000,4.000000,4.000000,4.000000,4.000000,4.000000,100.000000
1614045182.521227,58.000000,0.000000,5.594545,2.980273,372.523895,-52.583847,-14.737308,2.213945,5.133951,8.034889,0.828703,12.652383,9.865979,20.006445,30.813076,10.739853,18.888083,40.542374,20.087580,130.511124,118.856796,-49.758728,-29.994091,-6.760174,-5.914251,9.625565,3.789088,-10.033640,-4.196679,4.400590,1.886658,-8.228369,-13.447306,517.827576,8192.000000,0.000000,4.000000,,,,0.000000,4.000000,4.000000,4.000000,4.000000,4.000000,4.000000,4.000000,4.000000,4.000000,4.000000,4.000000,4.000000,4.000000,4.000000,4.000000,4.000000,4.000000,4.000000,4.000000,4.000000,4.000000,4.000000,4.000000,4.000000,4.000000,4.000000,4.000000,4.000000,4.000000,4.000000,4.000000,4.000000,100.000000
1614045182.528976,59.000000,0.000000,1.999207,2.464473,372.664185,-53.044083,-15.235391,2.211731,5.128817,8.539675,0.827875,11.101269,8.317652,17.422337,22.064314,-5.681143,-0.105164,25.117216,1.093132,98.585732,86.430252,-82.016663,-62.271790,-36.497002,-24.882696,-22.691753,-20.317266,-14.126170,-15.987354,2.344908,1.884772,-8.732961,-13.946679,519.361023,8064.000000,0.000000,4.000000,,,,0.000000,4.000000,4.000000,4.000000,4.000000,4.000000,4.000000,4.000000,4.000000,4.000000,4.000000,4.000000,4.000000,4.000000,4.000000,4.000000,4.000000,4.000000,4.000000,4.000000,4.000000,4.000000,4.000000,4.000000,4.000000,4.000000,4.000000,4.000000,4.000000,4.000000,4.000000,4.000000,4.000000,100.000000
1614045182.536625,60.000000,0.000000,1.997208,2.462008,375.368469,-52.991039,-13.681693,2.209519,5.123689,6.479854,0.314226,4.936322,2.668309,13.815171,2.042249,-14.906232,-3.181982,13.810048,-7.113089,77.974327,65.318176,-95.267975,-72.978752,-43.127174,-26.909096,-46.771626,-26.963615,-13.599224,-15.971367,2.855383,2.395708,-9.237048,-13.419912,515.251953,8064.000000,0.000000,4.000000,,,,0.000000,4.000000,4.000000,4.000000,4.000000,4.000000,4.000000,4.000000,4.000000,4.000000,4.000000,4.000000,4.000000,4.000000,4.000000,4.000000,4.000000,4.000000,4.000000,4.000000,4.000000,4.000000,4.000000,4.000000,4.000000,4.000000,4.000000,4.000000,4.000000,4.000000,4.000000,4.000000,4.000000,100.000000
1614045182.544374,61.000000,0.000000,2.508031,2.459546,370.377716,-52.938049,-16.744934,-0.869613,5.118565,4.422091,0.826732,-15.581435,-9.129231,11.237253,-8.729024,-31.301582,-10.358287,-12.357608,-3.516232,61.486095,53.970810,-96.198349,-73.418587,-41.032764,-16.112955,-50.314598,-25.398190,-13.072804,-14.416934,2.339707,1.880491,-11.279094,-13.406492,510.121307,8064.000000,0.000000,4.000000,,,,0.000000,4.000000,4.000000,4.000000,4.000000,4.000000,4.000000,4.000000,4.000000,4.000000,4.000000,4.000000,4.000000,4.000000,4.000000,4.000000,4.000000,4.000000,4.000000,4.000000,4.000000,4.000000,4.000000,4.000000,4.000000,4.000000,4.000000,4.000000,4.000000,4.000000,4.000000,4.000000,4.000000,100.000000
1614045182.552023,62.000000,0.000000,1.992703,2.457087,359.750916,-52.885109,-24.420498,-5.484128,5.113446,3.904849,-0.712556,-31.976110,-20.402153,12.251657,-9.233115,-51.270279,-27.271006,-35.934994,-1.974254,43.988712,48.275810,-94.563690,-82.575943,-36.889168,-9.942996,-47.187359,-28.962536,-14.085372,-11.838414,3.363009,1.878611,-13.831917,-13.905907,506.021454,8064.000000,0.000000,4.000000,,,,0.000000,4.000000,4.000000,4.000000,4.000000,4.000000,4.000000,4.000000,4.000000,4.000000,4.000000,4.000000,4.000000,4.000000,4.000000,4.000000,4.000000,4.000000,4.000000,4.000000,4.000000,4.000000,4.000000,4.000000,4.000000,4.000000,4.000000,4.000000,4.000000,4.000000,4.000000,4.000000,4.000000,100.000000
1614045182.559772,63.000000,0.000000,2.503531,2.454630,356.827057,-52.832226,-26.447359,-5.991465,5.108333,3.900944,-3.275946,-32.456955,-22.945854,12.239405,-11.275165,-56.347214,-33.910400,-30.770855,-1.972280,39.842159,54.894203,-78.058868,-78.390800,-22.493303,-8.394591,-45.088890,-32.010494,-14.071287,-8.749653,6.436569,2.389553,-15.869367,-13.379180,506.028229,7936.000000,0.000000,4.000000,,,,0.000000,4.000000,4.000000,4.000000,4.000000,4.000000,4.000000,4.000000,4.000000,4.000000,4.000000,4.000000,4.000000,4.000000,4.000000,4.000000,4.000000,4.000000,4.000000,4.000000,4.000000,4.000000,4.000000,4.000000,4.000000,4.000000,4.000000,4.000000,4.000000,4.000000,4.000000,4.000000,4.000000,100.000000
1614045182.567421,64.000000,0.000000,2.501027,2.452175,360.059967,-52.779392,-20.779886,-5.472652,5.103224,4.922684,-3.785490,-16.527061,-15.230600,11.714345,-3.058761,-36.803688,-15.927773,-1.509314,-2.483128,59.289497,70.223923,-61.570557,-52.158566,-14.265682,-6.334915,-35.813034,-31.465666,-10.467472,-5.663980,3.866030,-0.176939,-16.366318,-13.365801,508.086304,0.000000,208.000000,4.000000,,,,0.000000,4.000000,4.000000,4.000000,4.000000,4.000000,4.000000,4.000000,4.000000,4.000000,4.000000,4.000000,4.000000,4.000000,4.000000,4.000000,4.000000,4.000000,4.000000,4.000000,4.000000,4.000000,4.000000,4.000000,4.000000,4.000000,4.000000,4.000000,4.000000,4.000000,4.000000,4.000000,4.000000,100.000000
1614045182.575171,65.000000,0.000000,2.498526,2.449723,360.212738,-52.726612,-18.195004,-5.467180,5.098121,6.969044,-3.268884,-2.151560,-2.907677,12.215451,15.405836,-6.510474,9.729180,26.184504,-0.429363,91.537903,92.204979,-54.329498,-24.926918,-13.225776,-3.764477,-15.777219,-26.305994,-6.867261,4.598094,-1.266042,-4.792147,-15.837132,-15.916537,506.039764,0.000000,204.000000,4.000000,,,,0.000000,4.000000,4.000000,4.000000,4.000000,4.000000,4.000000,4.000000,4.000000,4.000000,4.000000,4.000000,4.000000,4.000000,4.000000,4.000000,4.000000,4.000000,4.000000,4.000000,4.000000,4.000000,4.000000,4.000000,4.000000,4.000000,4.000000,4.000000,4.000000,4.000000,4.000000,4.000000,4.000000,100.000000
1614045182.582820,66.000000,0.000000,2.496027,2.447273,358.826874,-52.673885,-18.689629,-5.461713,5.093023,8.500536,-3.265615,-6.251973,2.736256,12.203236,23.082739,10.419113,19.463041,36.927547,7.776195,110.933540,123.907646,-33.249527,3.303137,7.813091,1.880313,4.751379,-10.382253,-6.347573,15.362727,-0.239134,-6.325817,-16.846935,-17.439083,502.969635,0.000000,173.000000,4.000000,,,,0.000000,4.000000,4.000000,4.000000,4.000000,4.000000,4.000000,4.000000,4.000000,4.000000,4.000000,4.000000,4.000000,4.000000,4.000000,4.000000,4.000000,4.000000,4.000000,4.000000,4.000000,4.000000,4.000000,4.000000,4.000000,4.000000,4.000000,4.000000,4.000000,4.000000,4.000000,4.000000,4.000000,100.000000
1614045182.590569,67.000000,0.000000,1.980711,2.444826,360.006531,-52.621212,-18.158119,-6.994712,5.087930,7.979215,-3.262350,-3.681618,1.707879,12.191032,20.495552,10.921515,18.930758,39.454723,16.486366,111.335426,142.245285,-8.088073,23.812654,30.882202,11.109201,23.208166,6.038386,-1.213021,16.885826,2.325207,-5.293849,-15.804447,-18.447285,504.005127,0.000000,172.000000,4.000000,,,,0.000000,4.000000,4.000000,4.000000,4.000000,4.000000,4.000000,4.000000,4.000000,4.000000,4.000000,4.000000,4.000000,4.000000,4.000000,4.000000,4.000000,4.000000,4.000000,4.000000,4.000000,4.000000,4.000000,4.000000,4.000000,4.000000,4.000000,4.000000,4.000000,4.000000,4.000000,4.000000,4.000000,100.000000
1614045182.598218,68.000000,0.000000,2.491551,2.442381,359.646515,-52.568592,-18.139961,-9.039000,5.082842,7.971236,-3.259088,13.757960,1.706171,12.178842,20.475058,10.910593,21.988750,46.594757,19.033983,116.352303,135.436371,-5.003062,16.609354,25.723114,16.226297,34.467010,10.134912,5.454859,15.330479,2.835703,-4.775735,-11.173258,-22.018581,502.988281,0.000000,200.000000,4.000000,,,,0.000000,4.000000,4.000000,4.000000,4.000000,4.000000,4.000000,4.000000,4.000000,4.000000,4.000000,4.000000,4.000000,4.000000,4.000000,4.000000,4.000000,4.000000,4.000000,4.000000,4.000000,4.000000,4.000000,4.000000,4.000000,4.000000,4.000000,4.000000,4.000000,4.000000,4.000000,4.000000,4.000000,100.000000
1614045182.605967,69.000000,0.000000,4.540341,2.439939,357.748413,-52.516022,-18.121820,-9.542782,5.077759,7.963264,-3.255828,5.026254,2.730106,12.166663,21.993044,11.412503,22.992401,51.676369,15.938026,127.517998,124.018883,-16.280109,1.720950,7.748673,12.620328,34.945362,9.099136,4.423763,16.340788,4.371328,-6.309421,-8.597982,-25.586306,500.946838,0.000000,200.000000,4.000000,,,,0.000000,4.000000,4.000000,4.000000,4.000000,4.000000,4.000000,4.000000,4.000000,4.000000,4.000000,4.000000,4.000000,4.000000,4.000000,4.000000,4.000000,4.000000,4.000000,4.000000,4.000000,4.000000,4.000000,4.000000,4.000000,4.000000,4.000000,4.000000,4.000000,4.000000,4.000000,4.000000,4.000000,100.000000
1614045182.613616,70.000000,0.000000,6.587083,2.437499,366.108612,-51.950687,-15.539597,-9.020418,5.072681,7.955301,-3.252573,-12.414670,1.701735,12.154496,21.458231,12.939552,19.892487,50.086227,10.281062,124.826378,118.766655,-32.674088,-5.973078,-4.566768,2.864118,31.320673,7.038755,1.342416,14.273166,6.931060,-4.764650,-8.076564,-22.483797,511.727936,0.000000,181.000000,4.000000,,,,0.000000,4.000000,4.000000,4.000000,4.000000,4.000000,4.000000,4.000000,4.000000,4.000000,4.000000,4.000000,4.000000,4.000000,4.000000,4.000000,4.000000,4.000000,4.000000,4.000000,4.000000,4.000000,4.000000,4.000000,4.000000,4.000000,4.000000,4.000000,4.000000,4.000000,4.000000,4.000000,4.000000,100.000000
1614045182.621365,71.000000,0.000000,6.067676,2.435061,378.563019,-52.411556,-11.934314,-9.011397,5.067609,7.947346,-3.249320,9.136207,1.700033,12.142342,20.411131,16.516356,18.846952,48.497681,6.168217,115.470779,106.853020,-53.154232,-26.992746,-17.895535,-4.831054,22.058584,1.390691,2.366715,6.566585,6.924129,-0.144501,-4.478744,-15.281825,524.036743,0.000000,201.000000,4.000000,,,,0.000000,4.000000,4.000000,4.000000,4.000000,4.000000,4.000000,4.000000,4.000000,4.000000,4.000000,4.000000,4.000000,4.000000,4.000000,4.000000,4.000000,4.000000,4.000000,4.000000,4.000000,4.000000,4.000000,4.000000,4.000000,4.000000,4.000000,4.000000,4.000000,4.000000,4.000000,4.000000,4.000000,100.000000
1614045182.629015,72.000000,0.000000,6.061608,0.381344,378.697266,-52.871964,-10.896738,-9.002386,5.062541,7.939399,-3.246071,32.203995,1.698333,12.130199,19.877899,15.987019,15.238362,48.449184,7.700511,115.355309,94.438469,-63.870308,-49.529858,-27.108408,-5.339044,4.087807,-2.200444,-1.738216,-1.132289,6.404384,1.394105,-0.884521,-13.215261,516.846008,0.000000,211.000000,4.000000,,,,0.000000,4.000000,4.000000,4.000000,4.000000,4.000000,4.000000,4.000000,4.000000,4.000000,4.000000,4.000000,4.000000,4.000000,4.000000,4.000000,4.000000,4.000000,4.000000,4.000000,4.000000,4.000000,4.000000,4.000000,4.000000,4.000000,4.000000,4.000000,4.000000,4.000000,4.000000,4.000000,4.000000,100.000000
1614045182.636864,73.000000,0.000000,6.055546,-1.157499,373.703186,-51.793453,-10.885841,-8.993384,5.057479,7.931459,-3.242825,19.864098,1.183814,12.118069,21.396482,11.868468,11.120560,41.221249,9.744092,111.137390,93.318390,-64.319260,-49.993145,-28.106941,-4.820884,-10.275255,-4.762346,-8.915965,-3.695260,6.397980,-1.684212,-0.883637,-13.714867,507.611237,0.000000,207.000000,4.000000,,,,0.000000,4.000000,4.000000,4.000000,4.000000,4.000000,4.000000,4.000000,4.000000,4.000000,4.000000,4.000000,4.000000,4.000000,4.000000,4.000000,4.000000,4.000000,4.000000,4.000000,4.000000,4.000000,4.000000,4.000000,4.000000,4.000000,4.000000,4.000000,4.000000,4.000000,4.000000,4.000000,4.000000,100.000000
1614045182.644613,74.000000,0.000000,6.049490,-1.156341,372.303833,-52.254478,-10.362135,-8.984390,5.052421,7.923528,-2.726761,6.510900,1.182630,12.105951,17.785343,7.754035,7.006876,23.231308,8.195887,94.103180,91.686615,-68.357506,-49.430332,-27.566013,-6.354525,-14.367544,-10.398609,-11.471151,-4.204385,6.391582,-2.195348,-1.395574,-13.188332,513.257446,0.000000,201.000000,4.000000,,,,0.000000,4.000000,4.000000,4.000000,4.000000,4.000000,4.000000,4.000000,4.000000,4.000000,4.000000,4.000000,4.000000,4.000000,4.000000,4.000000,4.000000,4.000000,4.000000,4.000000,4.000000,4.000000,4.000000,4.000000,4.000000,4.000000,4.000000,4.000000,4.000000,4.000000,4.000000,4.000000,4.000000,100.000000
1614045182.652462,75.000000,0.000000,6.043441,-1.155185,361.675140,-58.356071,-11.890234,-8.975406,5.047369,7.402784,-5.288137,2.401825,1.694268,12.093845,5.972686,-1.484488,-1.718080,8.336282,9.213331,80.675743,83.389801,-72.391708,-59.124493,-27.025627,-6.860991,-15.378818,-14.490774,-10.434039,-4.713001,6.385190,0.883770,-1.394178,-13.175143,512.744202,0.000000,198.000000,4.000000,,,,0.000000,4.000000,4.000000,4.000000,4.000000,4.000000,4.000000,4.000000,4.000000,4.000000,4.000000,4.000000,4.000000,4.000000,4.000000,4.000000,4.000000,4.000000,4.000000,4.000000,4.000000,4.000000,4.000000,4.000000,4.000000,4.000000,4.000000,4.000000,4.000000,4.000000,4.000000,4.000000,4.000000,100.000000
1614045182.660211,76.000000,0.000000,5.524577,-1.154030,349.518585,-63.938740,-13.929626,-9.479251,5.042322,7.395381,-7.334131,-9.908270,0.666933,12.081751,1.351328,-10.713773,-4.280465,10.892048,9.716939,77.518143,69.973076,-75.909065,-61.629471,-28.024242,-4.802848,-14.337798,-14.989104,-9.397964,-4.708288,6.378805,1.908527,-1.392784,-13.674788,499.410950,0.000000,194.000000,4.000000,,,,0.000000,4.000000,4.000000,4.000000,4.000000,4.000000,4.000000,4.000000,4.000000,4.000000,4.000000,4.000000,4.000000,4.000000,4.000000,4.000000,4.000000,4.000000,4.000000,4.000000,4.000000,4.000000,4.000000,4.000000,4.000000,4.000000,4.000000,4.000000,4.000000,4.000000,4.000000,4.000000,4.000000,100.000000
1614045182.668060,77.000000,0.000000,6.031873,-0.640055,348.656250,-63.361980,-14.428517,-8.956951,5.037279,7.900806,-6.813976,-13.488105,-2.923478,11.556849,10.067925,-9.164598,7.518688,25.240131,7.143119,81.543190,65.287720,-73.269051,-54.901173,-23.893654,-5.310865,-14.836281,-14.974115,-10.414207,-4.190759,6.372426,1.906619,-1.391391,-13.148293,493.270508,0.000000,217.000000,4.000000,,,,0.000000,4.000000,4.000000,4.000000,4.000000,4.000000,4.000000,4.000000,4.000000,4.000000,4.000000,4.000000,4.000000,4.000000,4.000000,4.000000,4.000000,4.000000,4.000000,4.000000,4.000000,4.000000,4.000000,4.000000,4.000000,4.000000,4.000000,4.000000,4.000000,4.000000,4.000000,4.000000,4.000000,100.000000
1614045182.675809,78.000000,0.000000,6.538661,-4.229159,344.717834,-62.785797,-16.465370,-7.922353,5.032242,7.380085,-6.807162,-5.269488,-0.356452,12.058113,20.314268,-0.437484,22.895784,44.189251,14.315463,103.000107,98.042946,-43.965012,-33.820633,-1.818478,-5.818375,-13.795803,-6.241192,-10.916614,-1.622466,6.366054,1.391892,-1.390000,-14.673606,494.828522,0.000000,177.000000,4.000000,,,,0.000000,4.000000,4.000000,4.000000,4.000000,4.000000,4.000000,4.000000,4.000000,4.000000,4.000000,4.000000,4.000000,4.000000,4.000000,4.000000,4.000000,4.000000,4.000000,4.000000,4.000000,4.000000,4.000000,4.000000,4.000000,4.000000,4.000000,4.000000,4.000000,4.000000,4.000000,4.000000,4.000000,100.000000
1614045182.683658,79.000000,0.000000,5.506482,-8.840314,334.629547,-65.287117,-18.500187,-9.965714,5.027210,7.372705,-7.825996,-4.238578,9.387494,12.046055,27.986261,12.896287,39.795967,66.709160,30.711405,133.666336,130.765411,-11.100535,-0.966299,27.414110,4.443853,5.192352,11.200946,0.376354,6.584285,6.872508,1.390500,0.149852,-17.223036,494.333710,0.000000,204.000000,4.000000,,,,0.000000,4.000000,4.000000,4.000000,4.000000,4.000000,4.000000,4.000000,4.000000,4.000000,4.000000,4.000000,4.000000,4.000000,4.000000,4.000000,4.000000,4.000000,4.000000,4.000000,4.000000,4.000000,4.000000,4.000000,4.000000,4.000000,4.000000,4.000000,4.000000,4.000000,4.000000,4.000000,4.000000,100.000000
1614045182.691407,80.000000,0.000000,6.526617,-6.780192,335.833374,-66.760292,-15.404764,-8.417286,5.022182,10.955075,-1.664324,-0.644596,16.557594,12.034009,36.163403,28.780827,55.140785,80.488609,37.347359,142.763443,132.173111,2.756719,17.496206,41.232849,19.824024,34.417927,21.958977,16.786234,20.936674,8.916918,5.491673,3.739445,-17.718632,493.839355,0.000000,199.000000,4.000000,,,,0.000000,4.000000,4.000000,4.000000,4.000000,4.000000,4.000000,4.000000,4.000000,4.000000,4.000000,4.000000,4.000000,4.000000,4.000000,4.000000,4.000000,4.000000,4.000000,4.000000,4.000000,4.000000,4.000000,4.000000,4.000000,4.000000,4.000000,4.000000,4.000000,4.000000,4.000000,4.000000,4.000000,100.000000
1614045182.699256,81.000000,0.000000,11.135474,-1.645207,341.138550,-66.180710,-10.773974,-2.767843,7.068442,17.097967,7.055289,9.099639,16.541037,13.560436,39.716984,40.034096,60.213848,81.433762,34.745911,135.441193,104.861450,-0.322961,16.453068,41.191616,26.983688,47.716843,24.501120,21.384832,34.761890,10.446463,11.640028,9.889552,-17.188093,492.832703,0.000000,202.000000,4.000000,,,,0.000000,4.000000,4.000000,4.000000,4.000000,4.000000,4.000000,4.000000,4.000000,4.000000,4.000000,4.000000,4.000000,4.000000,4.000000,4.000000,4.000000,4.000000,4.000000,4.000000,4.000000,4.000000,4.000000,4.000000,4.000000,4.000000,4.000000,4.000000,4.000000,4.000000,4.000000,4.000000,4.000000,100.000000
1614045182.707005,82.000000,0.000000,13.688441,-0.617920,339.258972,-65.601707,-10.250381,-3.277896,9.112656,19.644972,7.048234,13.193103,17.037315,17.136620,40.702908,42.558167,61.179276,81.352325,35.223984,137.869858,112.961716,-1.861099,15.923795,30.894014,21.828499,48.181946,23.450977,17.773705,32.675850,9.410375,13.679670,9.879663,-17.170906,492.852692,0.000000,200.000000,4.000000,,,,0.000000,4.000000,4.000000,4.000000,4.000000,4.000000,4.000000,4.000000,4.000000,4.000000,4.000000,4.000000,4.000000,4.000000,4.000000,4.000000,4.000000,4.000000,4.000000,4.000000,4.000000,4.000000,4.000000,4.000000,4.000000,4.000000,4.000000,4.000000,4.000000,4.000000,4.000000,4.000000,4.000000,100.000000
1614045182.714854,83.000000,0.000000,11.110651,-1.130123,336.868408,-66.561745,-10.240129,-11.479746,8.077902,19.625326,4.989903,13.179910,18.045919,19.683584,38.610924,32.772018,59.066814,69.988922,34.675941,134.655060,128.746185,-14.166930,5.651461,10.863120,9.498979,46.082485,10.607014,14.166187,12.643172,5.811221,12.640349,-1.925089,-17.153734,493.385468,0.000000,198.000000,4.000000,,,,0.000000,4.000000,4.000000,4.000000,4.000000,4.000000,4.000000,4.000000,4.000000,4.000000,4.000000,4.000000,4.000000,4.000000,4.000000,4.000000,4.000000,4.000000,4.000000,4.000000,4.000000,4.000000,4.000000,4.000000,4.000000,4.000000,4.000000,4.000000,4.000000,4.000000,4.000000,4.000000,4.000000,100.000000
1614045182.722603,84.000000,0.000000,6.996976,-1.128993,336.018738,-65.982368,-10.742710,-13.519548,5.505722,18.580059,3.959272,7.012884,11.874027,18.638260,29.854362,10.687963,40.033390,42.739445,27.974598,111.956299,105.027702,-36.716866,-18.969576,-4.019537,-3.843854,30.138966,-7.352311,5.434072,-3.779727,1.702845,12.627708,-16.794958,-17.136581,487.251068,0.000000,179.000000,4.000000,,,,0.000000,4.000000,4.000000,4.000000,4.000000,4.000000,4.000000,4.000000,4.000000,4.000000,4.000000,4.000000,4.000000,4.000000,4.000000,4.000000,4.000000,4.000000,4.000000,4.000000,4.000000,4.000000,4.000000,4.000000,4.000000,4.000000,4.000000,4.000000,4.000000,4.000000,4.000000,4.000000,4.000000,100.000000
1614045182.730452,85.000000,0.000000,5.964338,-0.615043,331.067322,-65.403564,-18.424274,-11.967567,4.987395,17.023018,-1.685712,-7.865924,2.631384,16.055519,19.055279,-8.809904,22.557459,30.389015,22.818417,95.946907,74.153442,-51.551945,-35.360863,-6.066800,-6.404112,7.031903,-13.498805,-2.263670,-4.288768,-1.375780,13.127902,-17.290985,-17.632265,475.481781,0.000000,199.000000,4.000000,,,,0.000000,4.000000,4.000000,4.000000,4.000000,4.000000,4.000000,4.000000,4.000000,4.000000,4.000000,4.000000,4.000000,4.000000,4.000000,4.000000,4.000000,4.000000,4.000000,4.000000,4.000000,4.000000,4.000000,4.000000,4.000000,4.000000,4.000000,4.000000,4.000000,4.000000,4.000000,4.000000,4.000000,100.000000
1614045182.738201,86.000000,0.000000,5.958374,-0.614428,328.684967,-68.927902,-28.149441,-16.058165,5.495229,14.441893,-6.299411,-19.652929,-5.576375,15.526644,13.395197,-19.570326,20.483620,29.845804,23.308420,96.876602,69.463905,-55.090137,-38.402424,-4.522272,1.294599,-1.180257,-9.382742,-2.261406,-1.207556,-1.374405,13.114774,-7.530103,-17.101812,471.929352,0.000000,180.000000,4.000000,,,,0.000000,4.000000,4.000000,4.000000,4.000000,4.000000,4.000000,4.000000,4.000000,4.000000,4.000000,4.000000,4.000000,4.000000,4.000000,4.000000,4.000000,4.000000,4.000000,4.000000,4.000000,4.000000,4.000000,4.000000,4.000000,4.000000,4.000000,4.000000,4.000000,4.000000,4.000000,4.000000,4.000000,100.000000
1614045182.746050,87.000000,0.000000,5.952415,-2.152275,326.817841,-74.500000,-32.736675,-20.144670,4.464092,9.299246,-7.831573,-29.376867,-14.288748,14.998297,6.202314,-33.396908,10.206725,11.867241,25.336393,89.087418,74.009827,-54.009403,-36.825562,-4.517749,5.908689,1.385026,-10.911821,-5.848888,-0.693528,1.191072,13.101659,-11.112317,-16.571890,472.995880,0.000000,205.000000,4.000000,,,,0.000000,4.000000,4.000000,4.000000,4.000000,4.000000,4.000000,4.000000,4.000000,4.000000,4.000000,4.000000,4.000000,4.000000,4.000000,4.000000,4.000000,4.000000,4.000000,4.000000,4.000000,4.000000,4.000000,4.000000,4.000000,4.000000,4.000000,4.000000,4.000000,4.000000,4.000000,4.000000,4.000000,100.000000
1614045182.753799,88.000000,0.000000,5.946463,-4.201405,320.337158,-76.989601,-35.780861,-20.124525,1.895526,4.161741,-15.003229,-38.578259,-24.018049,12.419195,-1.496195,-46.184025,-6.213738,-7.631805,20.182852,70.023972,69.320427,-56.519497,-38.327194,-6.051693,5.389960,1.383641,-16.029114,-13.535347,2.384089,2.728343,12.575737,-22.383255,-17.580959,469.958801,0.000000,203.000000,4.000000,,,,0.000000,4.000000,4.000000,4.000000,4.000000,4.000000,4.000000,4.000000,4.000000,4.000000,4.000000,4.000000,4.000000,4.000000,4.000000,4.000000,4.000000,4.000000,4.000000,4.000000,4.000000,4.000000,4.000000,4.000000,4.000000,4.000000,4.000000,4.000000,4.000000,4.000000,4.000000,4.000000,4.000000,100.000000
1614045182.761448,89.000000,0.000000,5.940516,-5.222845,316.427094,-76.912613,-35.745083,-19.591579,0.867989,3.131938,-22.167713,-23.667887,-23.994030,9.842674,1.582224,-35.881432,1.997604,6.221980,11.957541,74.569336,74.379311,-54.924519,-34.699127,-2.455898,5.384570,-1.181845,-9.859239,-13.521811,5.971448,2.725614,12.563161,-16.207026,-16.024916,469.488831,0.000000,199.000000,4.000000,,,,0.000000,4.000000,4.000000,4.000000,4.000000,4.000000,4.000000,4.000000,4.000000,4.000000,4.000000,4.000000,4.000000,4.000000,4.000000,4.000000,4.000000,4.000000,4.000000,4.000000,4.000000,4.000000,4.000000,4.000000,4.000000,4.000000,4.000000,4.000000,4.000000,4.000000,4.000000,4.000000,4.000000,100.000000
1614045182.769197,90.000000,0.000000,5.934576,-4.704802,318.674774,-75.810059,-32.119591,-19.571989,1.892762,4.154448,-20.607084,-0.054474,-16.277729,8.294370,14.401155,-8.666061,26.610991,39.036270,13.484044,107.315277,107.125450,-33.331131,-7.997759,14.469635,6.404827,5.486003,5.535235,-7.354444,8.529579,2.722889,13.576239,-1.831845,-10.367866,474.147552,0.000000,193.000000,4.000000,,,,0.000000,4.000000,4.000000,4.000000,4.000000,4.000000,4.000000,4.000000,4.000000,4.000000,4.000000,4.000000,4.000000,4.000000,4.000000,4.000000,4.000000,4.000000,4.000000,4.000000,4.000000,4.000000,4.000000,4.000000,4.000000,4.000000,4.000000,4.000000,4.000000,4.000000,4.000000,4.000000,4.000000,100.000000
1614045182.776846,91.000000,0.000000,6.441462,-4.700097,316.304810,-76.759888,-28.497730,-19.552416,1.378049,3.637473,-17.509554,-9.285189,-13.184528,7.773255,21.053419,7.240040,34.789509,56.945953,17.573124,123.105400,122.402939,-17.913185,14.061521,25.737217,6.911242,25.480516,9.632264,-4.782987,10.572331,2.720166,9.460098,-6.445398,-10.870318,470.596497,0.000000,202.000000,4.000000,,,,0.000000,4.000000,4.000000,4.000000,4.000000,4.000000,4.000000,4.000000,4.000000,4.000000,4.000000,4.000000,4.000000,4.000000,4.000000,4.000000,4.000000,4.000000,4.000000,4.000000,4.000000,4.000000,4.000000,4.000000,4.000000,4.000000,4.000000,4.000000,4.000000,4.000000,4.000000,4.000000,4.000000,100.000000
1614045182.784596,92.000000,0.000000,4.896559,-4.695396,311.373108,-80.272873,-28.469233,-21.584146,-0.674611,4.146656,-17.492044,-26.711802,-13.171344,7.765481,17.955444,6.207160,26.549591,52.786442,10.376064,99.392548,89.972839,-33.792706,-1.337157,17.506351,5.878690,33.660164,-0.120958,-5.803844,12.100221,2.717446,0.732690,-19.772285,-18.038935,461.407928,0.000000,180.000000,4.000000,,,,0.000000,4.000000,4.000000,4.000000,4.000000,4.000000,4.000000,4.000000,4.000000,4.000000,4.000000,4.000000,4.000000,4.000000,4.000000,4.000000,4.000000,4.000000,4.000000,4.000000,4.000000,4.000000,4.000000,4.000000,4.000000,4.000000,4.000000,4.000000,4.000000,4.000000,4.000000,4.000000,4.000000,100.000000
1614045182.792245,93.000000,0.000000,1.814739,-4.690701,311.061737,-83.782341,-27.927942,-23.101023,-2.212398,4.142509,-18.500193,-12.838936,-10.081249,7.757716,17.937489,3.636850,26.523041,47.605450,4.724663,92.113670,67.318764,-39.912762,-13.130692,10.822178,5.872811,18.241890,-6.274683,-7.849323,11.062480,2.714728,-2.857786,-20.778154,-21.610640,457.869598,0.000000,180.000000,4.000000,,,,0.000000,4.000000,4.000000,4.000000,4.000000,4.000000,4.000000,4.000000,4.000000,4.000000,4.000000,4.000000,4.000000,4.000000,4.000000,4.000000,4.000000,4.000000,4.000000,4.000000,4.000000,4.000000,4.000000,4.000000,4.000000,4.000000,4.000000,4.000000,4.000000,4.000000,4.000000,4.000000,4.000000,100.000000
1614045182.799994,94.000000,0.000000,2.325745,-4.686010,311.776337,-83.185745,-27.900015,-23.077923,-2.723006,4.138367,-16.943232,-1.031225,-7.507065,8.262779,24.073397,5.684495,38.291389,55.762974,10.873784,119.713860,100.071960,-19.872849,1.241414,13.888279,6.379759,7.967237,-5.242767,-8.354294,11.051417,2.199193,-2.342108,-18.193274,-20.563389,457.924561,0.000000,200.000000,4.000000,,,,0.000000,4.000000,4.000000,4.000000,4.000000,4.000000,4.000000,4.000000,4.000000,4.000000,4.000000,4.000000,4.000000,4.000000,4.000000,4.000000,4.000000,4.000000,4.000000,4.000000,4.000000,4.000000,4.000000,4.000000,4.000000,4.000000,4.000000,4.000000,4.000000,4.000000,4.000000,4.000000,4.000000,100.000000
1614045182.807643,95.000000,0.000000,2.836240,-4.681324,311.464539,-83.102554,-27.872114,-22.542025,-2.207463,4.647048,-13.849365,-17.953270,-8.012379,9.280157,25.587786,6.704452,38.253098,54.168751,9.837269,121.132607,111.766762,-21.904257,-7.990597,8.746185,4.322097,15.651578,-5.750345,-5.781837,12.066007,2.709814,-1.826946,-19.713543,-20.542826,457.979462,0.000000,189.000000,4.000000,,,,0.000000,4.000000,4.000000,4.000000,4.000000,4.000000,4.000000,4.000000,4.000000,4.000000,4.000000,4.000000,4.000000,4.000000,4.000000,4.000000,4.000000,4.000000,4.000000,4.000000,4.000000,4.000000,4.000000,4.000000,4.000000,4.000000,4.000000,4.000000,4.000000,4.000000,4.000000,4.000000,4.000000,100.000000
1614045182.815392,96.000000,0.000000,-2.294802,-5.189464,313.204376,-83.019455,-27.844242,-23.032303,-2.205255,4.129581,-13.322695,-26.140446,-5.440264,6.706774,17.869890,1.056721,20.266127,33.601761,2.135124,90.242249,79.347298,-49.061840,-38.239017,-2.544612,-2.348891,13.071823,-6.770236,-7.314517,6.925735,2.194284,-2.337939,-20.206650,-20.522282,461.111206,8064.000000,0.000000,4.000000,,,,0.000000,4.000000,4.000000,4.000000,4.000000,4.000000,4.000000,4.000000,4.000000,4.000000,4.000000,4.000000,4.000000,4.000000,4.000000,4.000000,4.000000,4.000000,4.000000,4.000000,4.000000,4.000000,4.000000,4.000000,4.000000,4.000000,4.000000,4.000000,4.000000,4.000000,4.000000,4.000000,4.000000,100.000000
1614045182.823041,97.000000,0.000000,-4.856609,-4.671453,313.916809,-80.372330,-29.867680,-23.522091,-2.203050,-0.489933,-14.335013,-10.216869,-4.922003,8.238529,3.493045,-8.175105,7.425348,23.824568,4.184271,80.408417,71.062828,-56.192265,-45.893085,-5.618990,-6.449107,-2.838684,-10.866030,-12.948228,-0.260677,2.704910,-2.335601,-19.673622,-21.527401,464.239838,8064.000000,0.000000,4.000000,,,,0.000000,4.000000,4.000000,4.000000,4.000000,4.000000,4.000000,4.000000,4.000000,4.000000,4.000000,4.000000,4.000000,4.000000,4.000000,4.000000,4.000000,4.000000,4.000000,4.000000,4.000000,4.000000,4.000000,4.000000,4.000000,4.000000,4.000000,4.000000,4.000000,4.000000,4.000000,4.000000,4.000000,100.000000
1614045182.830790,98.000000,0.000000,0.789273,-2.615500,313.602875,-80.291962,-34.966019,-23.498569,-2.200847,-3.566366,-12.782217,-7.129729,-13.635030,12.845675,-6.766858,-22.013083,-3.351308,20.723822,9.308292,77.763901,90.991760,-54.084789,-50.462578,-4.587730,-4.904196,-8.989692,-22.650036,-14.473742,0.252404,6.291949,-1.820445,-19.653948,-20.480232,463.775604,8064.000000,0.000000,4.000000,,,,0.000000,4.000000,4.000000,4.000000,4.000000,4.000000,4.000000,4.000000,4.000000,4.000000,4.000000,4.000000,4.000000,4.000000,4.000000,4.000000,4.000000,4.000000,4.000000,4.000000,4.000000,4.000000,4.000000,4.000000,4.000000,4.000000,4.000000,4.000000,4.000000,4.000000,4.000000,4.000000,4.000000,100.000000
1614045182.838440,99.000000,0.000000,6.429509,-1.074423,312.776459,-81.750130,-42.623360,-22.449429,-2.198646,-3.049979,-15.333537,-30.712343,-27.980370,5.653342,-9.837014,-48.144917,-21.809496,-8.014852,7.760522,47.942551,66.798210,-67.876862,-62.719807,-5.095963,-1.309548,-6.416600,-30.319693,-12.920806,3.329075,9.875401,0.745478,-19.121473,-15.331547,463.311829,8064.000000,0.000000,4.000000,,,,0.000000,4.000000,4.000000,4.000000,4.000000,4.000000,4.000000,4.000000,4.000000,4.000000,4.000000,4.000000,4.000000,4.000000,4.000000,4.000000,4.000000,4.000000,4.000000,4.000000,4.000000,4.000000,4.000000,4.000000,4.000000,4.000000,4.000000,4.000000,4.000000,4.000000,4.000000,4.000000,4.000000,100.000000
1614045182.846189,100.000000,0.000000,6.423079,-1.073349,307.335480,-83.719658,-47.708942,-24.991081,-2.196447,-4.585391,-23.523333,-47.604706,-36.670338,-7.685644,-11.365639,-74.763435,-26.915892,-35.186325,4.163018,27.381786,39.551922,-76.526932,-57.016060,-3.039585,1.768685,-6.410183,-26.186810,-13.420706,3.325745,10.378345,2.283194,-20.127993,-14.290574,461.822876,8064.000000,0.000000,4.000000,,,,0.000000,4.000000,4.000000,4.000000,4.000000,4.000000,4.000000,4.000000,4.000000,4.000000,4.000000,4.000000,4.000000,4.000000,4.000000,4.000000,4.000000,4.000000,4.000000,4.000000,4.000000,4.000000,4.000000,4.000000,4.000000,4.000000,4.000000,4.000000,4.000000,4.000000,4.000000,4.000000,4.000000,100.000000
1614045182.853838,101.000000,0.000000,4.878195,-1.072275,305.489685,-83.635941,-45.609951,-27.017374,-2.194251,-6.632088,-22.986988,-39.351974,-34.582386,-0.498471,-9.815812,-68.022011,-10.991539,-19.253702,3.646034,48.380047,56.948269,-67.732452,-44.651352,-2.523725,4.331018,-6.916593,-25.647802,-13.920106,3.322420,9.855146,1.255270,-19.082224,-18.378847,462.386688,8064.000000,0.000000,4.000000,,,,0.000000,4.000000,4.000000,4.000000,4.000000,4.000000,4.000000,4.000000,4.000000,4.000000,4.000000,4.000000,4.000000,4.000000,4.000000,4.000000,4.000000,4.000000,4.000000,4.000000,4.000000,4.000000,4.000000,4.000000,4.000000,4.000000,4.000000,4.000000,4.000000,4.000000,4.000000,4.000000,4.000000,100.000000
1614045182.861687,102.000000,0.000000,5.898958,-1.584023,314.414948,-76.885635,-41.461777,-20.323689,-2.192057,-4.574173,-12.707591,-29.056213,-22.752932,17.963566,6.091440,-35.133472,9.019452,13.586065,11.847517,81.152176,89.711830,-50.741646,-32.811829,1.581363,7.403610,-4.345574,-25.622154,-9.803621,5.370379,9.845292,1.766835,-13.422116,-18.360470,467.052521,8064.000000,0.000000,4.000000,,,,0.000000,4.000000,4.000000,4.000000,4.000000,4.000000,4.000000,4.000000,4.000000,4.000000,4.000000,4.000000,4.000000,4.000000,4.000000,4.000000,4.000000,4.000000,4.000000,4.000000,4.000000,4.000000,4.000000,4.000000,4.000000,4.000000,4.000000,4.000000,4.000000,4.000000,4.000000,4.000000,4.000000,100.000000
1614045182.869436,103.000000,0.000000,11.534084,-1.069619,322.818481,-69.116447,-40.394672,-12.611057,-2.702685,-0.467035,-9.105140,-25.437412,-10.935306,24.099447,25.572529,-15.098340,29.010433,33.059658,26.194643,102.096664,117.314430,-30.178085,-4.061069,17.477217,13.037232,7.966464,-7.647814,-2.101510,8.441932,9.835446,6.380453,-7.767669,-14.239545,468.123932,8192.000000,0.000000,4.000000,,,,0.000000,4.000000,4.000000,4.000000,4.000000,4.000000,4.000000,4.000000,4.000000,4.000000,4.000000,4.000000,4.000000,4.000000,4.000000,4.000000,4.000000,4.000000,4.000000,4.000000,4.000000,4.000000,4.000000,4.000000,4.000000,4.000000,4.000000,4.000000,4.000000,4.000000,4.000000,4.000000,4.000000,100.000000
1614045182.877285,104.000000,0.000000,17.163576,0.982733,323.008484,-67.508865,-35.738892,-11.572805,-2.187162,1.071893,-10.634496,-13.617104,-5.283345,22.536886,29.649519,-6.365293,43.853218,34.565060,33.347935,105.584312,122.838142,-14.763291,10.814787,31.305895,17.126759,28.984138,14.411117,4.054438,14.587337,9.825611,8.938175,-4.682978,-12.174023,468.168610,8192.000000,0.000000,4.000000,,,,0.000000,4.000000,4.000000,4.000000,4.000000,4.000000,4.000000,4.000000,4.000000,4.000000,4.000000,4.000000,4.000000,4.000000,4.000000,4.000000,4.000000,4.000000,4.000000,4.000000,4.000000,4.000000,4.000000,4.000000,4.000000,4.000000,4.000000,4.000000,4.000000,4.000000,4.000000,4.000000,4.000000,100.000000
1614045182.885034,105.000000,0.000000,17.146412,1.494570,327.300873,-67.441360,-24.933924,-9.509951,-0.133693,0.045181,-7.546938,4.345232,-2.201139,23.027170,27.055767,9.538508,45.860645,33.504852,30.750486,104.965912,113.484528,-14.235707,-1.503720,26.659203,17.109632,40.750027,18.499269,5.588845,19.188133,9.815785,8.929236,-1.601372,-8.572105,475.392761,8064.000000,0.000000,4.000000,,,,0.000000,4.000000,4.000000,4.000000,4.000000,4.000000,4.000000,4.000000,4.000000,4.000000,4.000000,4.000000,4.000000,4.000000,4.000000,4.000000,4.000000,4.000000,4.000000,4.000000,4.000000,4.000000,4.000000,4.000000,4.000000,4.000000,4.000000,4.000000,4.000000,4.000000,4.000000,4.000000,4.000000,100.000000
1614045182.892883,106.000000,0.000000,16.616446,3.544358,335.691528,-61.732891,-19.267963,-4.372236,1.404902,-0.467685,-6.000930,11.007553,3.954909,24.029785,35.233841,20.298201,48.378887,50.907246,31.232555,119.732735,128.242844,-14.734292,1.061886,21.504339,17.605343,38.657993,15.403847,5.583256,18.656124,9.293149,8.407487,-0.574130,-5.486610,482.096863,8192.000000,0.000000,4.000000,,,,0.000000,4.000000,4.000000,4.000000,4.000000,4.000000,4.000000,4.000000,4.000000,4.000000,4.000000,4.000000,4.000000,4.000000,4.000000,4.000000,4.000000,4.000000,4.000000,4.000000,4.000000,4.000000,4.000000,4.000000,4.000000,4.000000,4.000000,4.000000,4.000000,4.000000,4.000000,4.000000,4.000000,100.000000
1614045182.900632,107.000000,0.000000,17.112650,8.669019,337.919922,-59.107056,-20.274338,-3.855043,4.480421,7.737911,-4.456468,7.919622,10.617620,26.569857,44.942196,21.816364,53.971535,76.497368,32.739784,134.997620,145.550491,-13.693916,10.291594,23.534117,16.562098,39.644978,18.465366,6.090493,18.124649,10.309497,8.911900,-0.060735,-6.506764,482.640411,8192.000000,0.000000,4.000000,,,,0.000000,4.000000,4.000000,4.000000,4.000000,4.000000,4.000000,4.000000,4.000000,4.000000,4.000000,4.000000,4.000000,4.000000,4.000000,4.000000,4.000000,4.000000,4.000000,4.000000,4.000000,4.000000,4.000000,4.000000,4.000000,4.000000,4.000000,4.000000,4.000000,4.000000,4.000000,4.000000,4.000000,100.000000
1614045182.908481,108.000000,0.000000,14.018614,9.685990,336.043549,-60.073589,-20.254063,-4.364008,6.014402,17.986584,-0.349447,8.937344,11.632644,23.979185,35.666485,19.230446,40.584229,70.779839,26.040379,121.016472,122.840843,-31.116119,-8.180237,14.279814,10.904510,40.630974,20.498182,5.571582,18.619345,12.863290,12.492732,2.503428,-3.936155,481.132111,8192.000000,0.000000,4.000000,,,,0.000000,4.000000,4.000000,4.000000,4.000000,4.000000,4.000000,4.000000,4.000000,4.000000,4.000000,4.000000,4.000000,4.000000,4.000000,4.000000,4.000000,4.000000,4.000000,4.000000,4.000000,4.000000,4.000000,4.000000,4.000000,4.000000,4.000000,4.000000,4.000000,4.000000,4.000000,4.000000,4.000000,100.000000
1614045182.916230,109.000000,0.000000,12.978954,10.701946,335.707520,-60.526337,-19.720989,-4.872465,2.418644,14.378853,-0.861918,9.441227,3.928704,12.673155,12.553895,1.775317,15.415441,38.401371,16.783569,95.767250,97.076973,-56.726028,-32.274620,-2.144723,5.252579,27.769829,16.887941,4.540370,18.087904,13.363247,17.608444,2.500925,2.734448,479.625336,8064.000000,0.000000,4.000000,,,,0.000000,4.000000,4.000000,4.000000,4.000000,4.000000,4.000000,4.000000,4.000000,4.000000,4.000000,4.000000,4.000000,4.000000,4.000000,4.000000,4.000000,4.000000,4.000000,4.000000,4.000000,4.000000,4.000000,4.000000,4.000000,4.000000,4.000000,4.000000,4.000000,4.000000,4.000000,4.000000,4.000000,100.000000
1614045182.924079,110.000000,0.000000,15.530078,15.819449,335.884613,-60.465809,-20.726908,-4.867592,2.416225,8.210628,-2.912338,-0.311804,-3.254712,3.942533,-0.279172,-26.944407,1.041051,14.773225,14.202682,78.235580,88.774773,-67.951355,-49.678242,-6.245142,4.221685,12.870264,7.640284,4.535829,17.556995,13.862704,20.667759,2.498424,5.808636,480.684174,8064.000000,0.000000,4.000000,,,,0.000000,4.000000,4.000000,4.000000,4.000000,4.000000,4.000000,4.000000,4.000000,4.000000,4.000000,4.000000,4.000000,4.000000,4.000000,4.000000,4.000000,4.000000,4.000000,4.000000,4.000000,4.000000,4.000000,4.000000,4.000000,4.000000,4.000000,4.000000,4.000000,4.000000,4.000000,4.000000,4.000000,100.000000
1614045182.931828,111.000000,0.000000,17.053009,17.342091,335.035919,-59.892525,-20.706182,-4.349905,8.567655,8.202417,-2.396605,-12.619184,-8.892484,2.912949,-3.868636,-42.814899,-7.677939,6.040503,14.701301,54.567604,58.429588,-71.985970,-68.602921,-4.700435,5.755925,5.165087,-4.162228,3.505652,18.052259,16.412945,20.134270,3.008746,5.290007,479.177856,8064.000000,0.000000,4.000000,,,,0.000000,4.000000,4.000000,4.000000,4.000000,4.000000,4.000000,4.000000,4.000000,4.000000,4.000000,4.000000,4.000000,4.000000,4.000000,4.000000,4.000000,4.000000,4.000000,4.000000,4.000000,4.000000,4.000000,4.000000,4.000000,4.000000,4.000000,4.000000,4.000000,4.000000,4.000000,4.000000,4.000000,100.000000
1614045182.939677,112.000000,0.000000,16.523136,11.683723,329.572662,-61.883915,-21.711117,-5.371195,5.482164,4.091650,-6.496773,-19.273232,-22.729744,5.474139,-8.992972,-48.925930,-18.439491,-4.734768,11.096855,42.205345,39.396797,-73.452446,-66.995857,-5.721376,5.237349,-3.558027,-10.824733,-2.138879,17.521387,15.883711,14.985931,-2.635288,2.207794,465.365356,8064.000000,0.000000,4.000000,,,,0.000000,4.000000,4.000000,4.000000,4.000000,4.000000,4.000000,4.000000,4.000000,4.000000,4.000000,4.000000,4.000000,4.000000,4.000000,4.000000,4.000000,4.000000,4.000000,4.000000,4.000000,4.000000,4.000000,4.000000,4.000000,4.000000,4.000000,4.000000,4.000000,4.000000,4.000000,4.000000,4.000000,100.000000
1614045182.947426,113.000000,0.000000,16.506613,8.595117,324.114899,-66.950233,-24.766329,-10.494029,-1.702805,1.010636,-10.592840,-20.792421,-29.886501,9.058408,-3.342954,-50.928288,-11.754385,-5.242854,10.572938,62.675961,72.177917,-56.455914,-44.364761,-0.587449,3.693650,-7.144213,-10.301087,-4.700843,17.503864,13.303724,8.304278,-8.786499,-2.409798,455.156403,8064.000000,0.000000,4.000000,,,,0.000000,4.000000,4.000000,4.000000,4.000000,4.000000,4.000000,4.000000,4.000000,4.000000,4.000000,4.000000,4.000000,4.000000,4.000000,4.000000,4.000000,4.000000,4.000000,4.000000,4.000000,4.000000,4.000000,4.000000,4.000000,4.000000,4.000000,4.000000,4.000000,4.000000,4.000000,4.000000,4.000000,100.000000
1614045182.955275,114.000000,0.000000,16.490107,9.612163,322.252319,-68.421745,-24.228741,-10.996356,4.452744,12.804497,-5.966863,-10.515218,-12.933538,11.613452,18.711670,-34.979923,17.488138,14.762389,20.305954,85.177383,104.926247,-32.809715,-24.833218,10.182368,9.330982,2.093701,-4.136940,5.560268,21.076105,12.777600,8.808795,-4.162328,-1.894568,465.470459,8064.000000,0.000000,4.000000,,,,0.000000,4.000000,4.000000,4.000000,4.000000,4.000000,4.000000,4.000000,4.000000,4.000000,4.000000,4.000000,4.000000,4.000000,4.000000,4.000000,4.000000,4.000000,4.000000,4.000000,4.000000,4.000000,4.000000,4.000000,4.000000,4.000000,4.000000,4.000000,4.000000,4.000000,4.000000,4.000000,4.000000,100.000000
1614045182.963024,115.000000,0.000000,16.473616,9.602551,321.417236,-65.276398,-16.512205,-5.857154,13.166240,23.560923,0.705771,4.879913,7.079395,11.089018,34.590397,-5.201352,39.521931,44.491215,30.029238,92.784515,104.821320,-27.648699,-6.859665,17.864494,18.552420,14.912120,11.251812,18.375221,24.644772,13.277643,14.441011,5.072604,0.671429,477.825500,8064.000000,0.000000,4.000000,,,,0.000000,4.000000,4.000000,4.000000,4.000000,4.000000,4.000000,4.000000,4.000000,4.000000,4.000000,4.000000,4.000000,4.000000,4.000000,4.000000,4.000000,4.000000,4.000000,4.000000,4.000000,4.000000,4.000000,4.000000,4.000000,4.000000,4.000000,4.000000,4.000000,4.000000,4.000000,4.000000,4.000000,100.000000
1614045182.970873,116.000000,0.000000,16.969963,9.080127,323.147125,-63.672665,-9.829026,-3.800015,10.588971,20.973261,1.217885,6.926315,9.636418,11.077929,35.581444,20.444876,43.584972,71.626213,31.537670,107.050705,109.844704,-32.749256,6.993348,22.974834,21.097971,25.153618,24.573895,20.920948,25.645769,13.264365,16.477852,6.605992,1.183578,476.834869,8064.000000,0.000000,4.000000,,,,0.000000,4.000000,4.000000,4.000000,4.000000,4.000000,4.000000,4.000000,4.000000,4.000000,4.000000,4.000000,4.000000,4.000000,4.000000,4.000000,4.000000,4.000000,4.000000,4.000000,4.000000,4.000000,4.000000,4.000000,4.000000,4.000000,4.000000,4.000000,4.000000,4.000000,4.000000,4.000000,4.000000,100.000000
1614045182.978622,117.000000,0.000000,15.927352,9.071047,329.490631,-63.608990,-9.306376,-4.821856,7.501459,18.388184,0.191027,4.355286,10.139602,14.143774,37.597145,36.834686,45.592670,86.426384,29.967672,120.276985,123.581017,-24.511379,9.550457,26.028784,20.564053,34.359234,27.626244,19.361567,25.620123,12.738280,15.435734,5.573746,1.182395,476.358032,8064.000000,0.000000,4.000000,,,,0.000000,4.000000,4.000000,4.000000,4.000000,4.000000,4.000000,4.000000,4.000000,4.000000,4.000000,4.000000,4.000000,4.000000,4.000000,4.000000,4.000000,4.000000,4.000000,4.000000,4.000000,4.000000,4.000000,4.000000,4.000000,4.000000,4.000000,4.000000,4.000000,4.000000,4.000000,4.000000,4.000000,100.000000
