title:36, start timestamp:1614045951.261567, stop timestamp:1614045997.166022, headset type:EPOCFLEX, headset serial:F00001ED, headset firmware:f12, subject name:s06, channels:75, sampling rate:128, samples:5925      , version:2.0
Timestamp,EEG.Counter,EEG.Interpolated,EEG.Cz,EEG.Fz,EEG.Fp1,EEG.AF3,EEG.F7,EEG.F3,EEG.FC1,EEG.C3,EEG.FC5,EEG.T7,EEG.CP5,EEG.CP1,EEG.P3,EEG.P7,EEG.PO3,EEG.O1,EEG.Pz,EEG.Oz,EEG.O2,EEG.PO4,EEG.P8,EEG.P4,EEG.CP2,EEG.CP6,EEG.T8,EEG.FC6,EEG.C4,EEG.FC2,EEG.F4,EEG.F8,EEG.AF4,EEG.Fp2,EEG.HighBitFlex,EEG.RawCq,EEG.Battery,MarkerIndex,MarkerType,MarkerValueInt,EEG.MarkerHardware,CQ.Cz,CQ.Fz,CQ.Fp1,CQ.AF3,CQ.F7,CQ.F3,CQ.FC1,CQ.C3,CQ.FC5,CQ.T7,CQ.CP5,CQ.CP1,CQ.P3,CQ.P7,CQ.PO3,CQ.O1,CQ.Pz,CQ.Oz,CQ.O2,CQ.PO4,CQ.P8,CQ.P4,CQ.CP2,CQ.CP6,CQ.T8,CQ.FC6,CQ.C4,CQ.FC2,CQ.F4,CQ.F8,CQ.AF4,CQ.Fp2,CQ.Overall
1614045951.261567,61.000000,0.000000,4.812270,16.776861,-40.917519,19.729792,19.952505,8.036335,12.001637,14.081285,16.008860,31.439976,12.540444,-14.632039,8.338063,17.092783,-0.068106,44.278019,-7.988647,0.418246,52.930935,-99.223412,-11.601474,-24.501694,-11.382751,-10.795043,0.905199,10.492518,14.182082,7.020610,12.065769,4.340695,40.139420,30.034271,8064.000000,0.000000,4.000000,,,,0.000000,4.000000,4.000000,4.000000,4.000000,4.000000,4.000000,4.000000,4.000000,4.000000,4.000000,4.000000,4.000000,4.000000,4.000000,4.000000,4.000000,4.000000,4.000000,4.000000,4.000000,4.000000,4.000000,4.000000,4.000000,4.000000,4.000000,4.000000,4.000000,4.000000,4.000000,4.000000,4.000000,100.000000
1614045951.269416,62.000000,0.000000,4.807457,16.760084,-48.056087,17.658781,20.445374,8.541119,11.989635,10.477460,15.992851,26.793152,6.374058,-14.617407,-2.439505,-1.385848,-9.298807,26.285023,-7.980658,-22.659096,25.185696,-110.919060,-21.333462,-23.964373,-10.858548,-18.476555,-6.275193,7.405103,14.167900,7.013589,13.079344,-6.432877,40.612099,28.465775,8064.000000,0.000000,4.000000,,,,0.000000,4.000000,4.000000,4.000000,4.000000,4.000000,4.000000,4.000000,4.000000,4.000000,4.000000,4.000000,4.000000,4.000000,4.000000,4.000000,4.000000,4.000000,4.000000,4.000000,4.000000,4.000000,4.000000,4.000000,4.000000,4.000000,4.000000,4.000000,4.000000,4.000000,4.000000,4.000000,4.000000,100.000000
1614045951.277165,63.000000,0.000000,4.289829,16.743324,-52.623417,15.589840,17.860826,5.968475,11.977646,6.364419,15.976858,8.817640,1.239479,-14.089969,-14.231937,-27.025488,-31.853611,-6.048955,-12.075242,-51.867207,-7.147182,-135.936356,-47.465977,-34.709637,-12.898972,-16.919617,-16.525328,3.295133,14.153732,6.493755,7.938060,-23.349520,36.981743,26.898848,8064.000000,0.000000,4.000000,,,,0.000000,4.000000,4.000000,4.000000,4.000000,4.000000,4.000000,4.000000,4.000000,4.000000,4.000000,4.000000,4.000000,4.000000,4.000000,4.000000,4.000000,4.000000,4.000000,4.000000,4.000000,4.000000,4.000000,4.000000,4.000000,4.000000,4.000000,4.000000,4.000000,4.000000,4.000000,4.000000,4.000000,100.000000
1614045951.285014,64.000000,0.000000,5.311181,16.726582,-54.109253,16.087070,13.227580,1.859943,11.965669,5.845233,15.960881,4.193438,-1.838684,-14.075879,-15.756167,-39.818974,-36.949963,-7.068548,-11.550345,-46.174313,2.090734,-136.826050,-48.444149,-34.162109,-9.296329,-24.082186,-22.662649,2.266197,14.139579,7.000082,4.853199,-28.967197,32.842197,21.743744,0.000000,198.000000,4.000000,,,,0.000000,4.000000,4.000000,4.000000,4.000000,4.000000,4.000000,4.000000,4.000000,4.000000,4.000000,4.000000,4.000000,4.000000,4.000000,4.000000,4.000000,4.000000,4.000000,4.000000,4.000000,4.000000,4.000000,4.000000,4.000000,4.000000,4.000000,4.000000,4.000000,4.000000,4.000000,4.000000,4.000000,100.000000
1614045951.292763,65.000000,0.000000,9.408434,16.709854,-53.542324,16.583803,11.675892,-0.193199,12.466523,6.352209,15.944921,9.830270,-1.836845,-14.574623,-14.201950,-40.291977,-32.297626,3.194931,-7.949052,-31.256344,34.909157,-107.971275,-20.703398,-13.102305,-1.594725,-23.032461,-6.229730,2.776752,14.125439,9.044364,9.976551,-20.220282,32.296535,19.670719,0.000000,208.000000,4.000000,,,,0.000000,4.000000,4.000000,4.000000,4.000000,4.000000,4.000000,4.000000,4.000000,4.000000,4.000000,4.000000,4.000000,4.000000,4.000000,4.000000,4.000000,4.000000,4.000000,4.000000,4.000000,4.000000,4.000000,4.000000,4.000000,4.000000,4.000000,4.000000,4.000000,4.000000,4.000000,4.000000,4.000000,100.000000
1614045951.300612,66.000000,0.000000,12.475948,16.693144,-53.488781,16.054399,14.741138,0.832635,11.941236,5.833036,15.928976,9.820440,2.267556,-11.995946,-15.213388,-38.200401,-30.726870,-4.500571,-7.428282,-31.737907,41.028091,-94.017151,-7.862182,-0.781511,2.509434,-4.035070,6.597013,2.261154,13.598493,10.573781,10.479395,-14.559035,31.238598,20.676689,0.000000,225.000000,4.000000,,,,0.000000,4.000000,4.000000,4.000000,4.000000,4.000000,4.000000,4.000000,4.000000,4.000000,4.000000,4.000000,4.000000,4.000000,4.000000,4.000000,4.000000,4.000000,4.000000,4.000000,4.000000,4.000000,4.000000,4.000000,4.000000,4.000000,4.000000,4.000000,4.000000,4.000000,4.000000,4.000000,4.000000,100.000000
1614045951.308361,67.000000,0.000000,12.463472,16.676451,-53.435295,16.551167,16.264858,0.831802,12.442116,5.827203,15.913047,7.246517,5.342211,-4.804463,-11.095612,-37.649380,-20.439732,8.324442,-7.933675,-17.860016,42.012707,-91.359032,-9.392781,-3.857652,3.532565,7.763836,-0.589071,0.720432,14.097715,11.076028,2.776608,-16.595758,28.643257,19.630371,0.000000,166.000000,4.000000,,,,0.000000,4.000000,4.000000,4.000000,4.000000,4.000000,4.000000,4.000000,4.000000,4.000000,4.000000,4.000000,4.000000,4.000000,4.000000,4.000000,4.000000,4.000000,4.000000,4.000000,4.000000,4.000000,4.000000,4.000000,4.000000,4.000000,4.000000,4.000000,4.000000,4.000000,4.000000,4.000000,4.000000,100.000000
1614045951.316010,68.000000,0.000000,10.399727,16.659775,-53.381859,16.534615,15.735774,0.318150,12.429673,6.334196,15.897134,11.854655,5.336869,-2.235556,-3.905028,-35.047630,-7.085958,34.982784,-6.900100,0.106562,66.586075,-77.934341,-4.255183,-3.853795,4.041853,4.166329,-1.101303,0.206891,14.596437,9.526490,-0.303092,-14.015059,28.614613,16.533817,0.000000,186.000000,4.000000,,,,0.000000,4.000000,4.000000,4.000000,4.000000,4.000000,4.000000,4.000000,4.000000,4.000000,4.000000,4.000000,4.000000,4.000000,4.000000,4.000000,4.000000,4.000000,4.000000,4.000000,4.000000,4.000000,4.000000,4.000000,4.000000,4.000000,4.000000,4.000000,4.000000,4.000000,4.000000,4.000000,4.000000,100.000000
1614045951.323759,69.000000,0.000000,7.312404,16.643116,-53.328476,16.518080,16.232859,0.830652,8.827500,6.327862,15.881236,20.047928,8.408455,-6.848705,-4.413944,-20.140787,-10.155796,28.793955,-6.380379,-15.790980,58.314365,-74.266663,-3.225287,-0.260197,4.037811,2.110881,11.720311,-1.844598,14.069021,6.952861,1.748493,-5.283096,29.098820,16.517284,0.000000,221.000000,4.000000,,,,0.000000,4.000000,4.000000,4.000000,4.000000,4.000000,4.000000,4.000000,4.000000,4.000000,4.000000,4.000000,4.000000,4.000000,4.000000,4.000000,4.000000,4.000000,4.000000,4.000000,4.000000,4.000000,4.000000,4.000000,4.000000,4.000000,4.000000,4.000000,4.000000,4.000000,4.000000,4.000000,4.000000,100.000000
1614045951.331408,70.000000,0.000000,4.228168,16.626472,-51.223866,16.501562,16.729446,0.829822,4.716108,6.321534,15.865355,23.104803,8.912868,-6.841856,-6.973632,0.392174,-20.402050,13.380546,-8.938102,-33.211086,37.743229,-75.218040,-2.709241,0.765704,3.520953,3.647231,16.836796,-0.304292,14.567772,7.458729,1.746744,-2.713710,28.556900,25.218716,0.000000,177.000000,4.000000,,,,0.000000,4.000000,4.000000,4.000000,4.000000,4.000000,4.000000,4.000000,4.000000,4.000000,4.000000,4.000000,4.000000,4.000000,4.000000,4.000000,4.000000,4.000000,4.000000,4.000000,4.000000,4.000000,4.000000,4.000000,4.000000,4.000000,4.000000,4.000000,4.000000,4.000000,4.000000,4.000000,4.000000,100.000000
1614045951.339157,71.000000,0.000000,4.736761,16.609846,-48.608540,16.485060,16.712717,1.341812,4.198572,6.315213,16.362310,20.517597,3.775749,-4.783732,-6.453838,5.007166,-19.356007,25.674858,-7.390702,-8.049671,70.526001,-56.168461,11.139622,5.893144,3.517432,2.105123,18.871241,10.465242,17.630127,9.502552,3.283459,-2.710996,29.041164,37.501190,0.000000,204.000000,4.000000,,,,0.000000,4.000000,4.000000,4.000000,4.000000,4.000000,4.000000,4.000000,4.000000,4.000000,4.000000,4.000000,4.000000,4.000000,4.000000,4.000000,4.000000,4.000000,4.000000,4.000000,4.000000,4.000000,4.000000,4.000000,4.000000,4.000000,4.000000,4.000000,4.000000,4.000000,4.000000,4.000000,4.000000,100.000000
1614045951.346807,72.000000,0.000000,5.244844,16.593235,-48.559933,16.981396,19.260107,0.827650,5.220014,6.308897,15.833128,21.522720,2.746333,-14.522538,-7.473025,0.899595,-17.798189,41.546619,-7.896132,15.548122,97.122139,-53.548191,17.282328,3.323148,-0.075829,3.641479,23.467754,18.147085,18.638138,11.031511,5.331458,1.907099,29.524942,42.079071,0.000000,201.000000,4.000000,,,,0.000000,4.000000,4.000000,4.000000,4.000000,4.000000,4.000000,4.000000,4.000000,4.000000,4.000000,4.000000,4.000000,4.000000,4.000000,4.000000,4.000000,4.000000,4.000000,4.000000,4.000000,4.000000,4.000000,4.000000,4.000000,4.000000,4.000000,4.000000,4.000000,4.000000,4.000000,4.000000,4.000000,100.000000
1614045951.354556,73.000000,0.000000,2.162677,17.089462,-48.511372,16.964415,21.292128,0.826822,3.676333,6.815409,16.330114,22.014017,1.205125,-25.790068,-10.029655,2.437157,-29.575264,28.684559,-26.349773,-11.646913,64.717323,-85.802338,-6.324697,-17.705816,-10.332163,6.714760,14.213518,10.436630,11.952834,10.507659,4.300485,-0.658911,25.905674,37.934429,0.000000,218.000000,4.000000,,,,0.000000,4.000000,4.000000,4.000000,4.000000,4.000000,4.000000,4.000000,4.000000,4.000000,4.000000,4.000000,4.000000,4.000000,4.000000,4.000000,4.000000,4.000000,4.000000,4.000000,4.000000,4.000000,4.000000,4.000000,4.000000,4.000000,4.000000,4.000000,4.000000,4.000000,4.000000,4.000000,4.000000,100.000000
1614045951.362205,74.000000,0.000000,-1.942050,15.533912,-49.488503,13.870527,17.681093,1.338816,1.108554,6.295773,16.313786,9.684311,-7.001209,-23.200174,-10.532446,-7.821690,-39.289276,8.143054,-41.708038,-40.866035,32.344913,-110.844734,-35.549141,-36.149651,-19.552601,-4.061185,-6.313516,-1.881498,3.735753,9.471510,-0.832020,-13.478765,21.777205,29.691366,0.000000,201.000000,4.000000,,,,0.000000,4.000000,4.000000,4.000000,4.000000,4.000000,4.000000,4.000000,4.000000,4.000000,4.000000,4.000000,4.000000,4.000000,4.000000,4.000000,4.000000,4.000000,4.000000,4.000000,4.000000,4.000000,4.000000,4.000000,4.000000,4.000000,4.000000,4.000000,4.000000,4.000000,4.000000,4.000000,4.000000,100.000000
1614045951.369954,75.000000,0.000000,-3.478570,13.467096,-55.080036,9.754092,9.458283,-0.200984,0.594625,6.289477,13.220548,-9.299732,-13.660874,-14.971847,-10.521914,-30.890791,-34.634605,12.750296,-28.332998,-30.568758,52.825390,-101.503120,-35.000771,-33.036575,-15.943304,-22.518661,-15.537971,-4.956540,2.193555,7.410757,-10.574778,-19.619131,20.729786,19.918085,0.000000,182.000000,4.000000,,,,0.000000,4.000000,4.000000,4.000000,4.000000,4.000000,4.000000,4.000000,4.000000,4.000000,4.000000,4.000000,4.000000,4.000000,4.000000,4.000000,4.000000,4.000000,4.000000,4.000000,4.000000,4.000000,4.000000,4.000000,4.000000,4.000000,4.000000,4.000000,4.000000,4.000000,4.000000,4.000000,4.000000,100.000000
1614045951.377603,76.000000,0.000000,-2.449450,10.889526,-59.127522,9.231518,2.782158,-3.790527,1.106851,6.796008,6.027840,-18.521202,-15.185675,-13.418413,-9.998571,-40.090672,-26.907661,25.045238,-6.253383,-23.358704,59.439232,-94.222130,-17.529875,-19.670206,-4.645309,-23.008965,-14.496793,-3.925942,3.729823,6.377705,-16.718050,-18.061050,21.734697,13.744321,0.000000,204.000000,4.000000,,,,0.000000,4.000000,4.000000,4.000000,4.000000,4.000000,4.000000,4.000000,4.000000,4.000000,4.000000,4.000000,4.000000,4.000000,4.000000,4.000000,4.000000,4.000000,4.000000,4.000000,4.000000,4.000000,4.000000,4.000000,4.000000,4.000000,4.000000,4.000000,4.000000,4.000000,4.000000,4.000000,4.000000,100.000000
1614045951.385352,77.000000,0.000000,-2.447001,9.340176,-61.119675,7.171004,1.240915,-5.838018,1.105744,3.712289,1.406428,-16.451399,-17.734592,-14.430635,-10.501393,-39.537758,-25.855112,15.276603,-2.144566,-35.643036,41.943893,-91.050987,-11.871319,-8.368484,0.487541,-9.652622,-14.482296,-4.947658,5.264555,6.884148,-15.162869,-18.042990,21.200142,13.730577,0.000000,205.000000,4.000000,,,,0.000000,4.000000,4.000000,4.000000,4.000000,4.000000,4.000000,4.000000,4.000000,4.000000,4.000000,4.000000,4.000000,4.000000,4.000000,4.000000,4.000000,4.000000,4.000000,4.000000,4.000000,4.000000,4.000000,4.000000,4.000000,4.000000,4.000000,4.000000,4.000000,4.000000,4.000000,4.000000,4.000000,100.000000
1614045951.393001,78.000000,0.000000,-2.957374,8.818015,-65.161118,0.497166,0.726853,-7.883462,0.591818,-0.906808,0.379380,-8.742640,-21.306601,-13.390564,-13.567815,-48.728989,-28.906181,-3.200212,-6.757806,-41.248421,43.440414,-81.216347,-16.474833,-1.180629,-0.538588,-4.514764,-16.519096,-5.455530,5.772111,6.877264,-13.609245,-19.050589,21.178942,12.691205,0.000000,168.000000,4.000000,,,,0.000000,4.000000,4.000000,4.000000,4.000000,4.000000,4.000000,4.000000,4.000000,4.000000,4.000000,4.000000,4.000000,4.000000,4.000000,4.000000,4.000000,4.000000,4.000000,4.000000,4.000000,4.000000,4.000000,4.000000,4.000000,4.000000,4.000000,4.000000,4.000000,4.000000,4.000000,4.000000,4.000000,100.000000
1614045951.400750,79.000000,0.000000,-2.441596,8.809196,-63.557499,-0.528972,0.726126,-7.875579,0.591226,-1.931542,0.891822,-1.554409,-21.285294,-13.377173,-18.682451,-59.962311,-31.441378,-8.325217,-7.263868,-50.950760,44.935432,-80.109489,-16.458357,0.359013,-0.025229,-6.561532,-14.964115,-4.424434,7.304801,6.357566,-13.082815,-18.518717,21.157763,10.114411,0.000000,205.000000,4.000000,,,,0.000000,4.000000,4.000000,4.000000,4.000000,4.000000,4.000000,4.000000,4.000000,4.000000,4.000000,4.000000,4.000000,4.000000,4.000000,4.000000,4.000000,4.000000,4.000000,4.000000,4.000000,4.000000,4.000000,4.000000,4.000000,4.000000,4.000000,4.000000,4.000000,4.000000,4.000000,4.000000,4.000000,100.000000
1614045951.408400,80.000000,0.000000,-2.439155,9.313208,-54.775993,4.599762,3.289503,0.337425,1.103455,-0.903969,0.890930,-2.578496,-17.161446,-13.363796,-21.227873,-55.799786,-32.435577,0.401057,-8.795066,-55.515194,43.864857,-79.003738,-14.390616,0.871475,1.000438,-5.529329,-13.923511,-7.496933,7.297496,6.864029,-8.454349,-17.987377,21.649426,10.104297,0.000000,179.000000,4.000000,,,,0.000000,4.000000,4.000000,4.000000,4.000000,4.000000,4.000000,4.000000,4.000000,4.000000,4.000000,4.000000,4.000000,4.000000,4.000000,4.000000,4.000000,4.000000,4.000000,4.000000,4.000000,4.000000,4.000000,4.000000,4.000000,4.000000,4.000000,4.000000,4.000000,4.000000,4.000000,4.000000,4.000000,100.000000
1614045951.416149,81.000000,0.000000,-2.436716,8.791075,-50.618652,6.133624,5.850316,2.901190,1.102352,-1.415886,0.377218,-3.088738,-13.554540,-13.863253,-21.719465,-37.282448,-30.864679,15.785271,-11.350373,-23.151987,76.641502,-66.104225,-15.401867,0.357783,-1.051845,-3.985338,-15.448049,-12.617640,2.674814,6.857165,-5.368971,-17.969391,21.627777,13.171116,0.000000,194.000000,4.000000,,,,0.000000,4.000000,4.000000,4.000000,4.000000,4.000000,4.000000,4.000000,4.000000,4.000000,4.000000,4.000000,4.000000,4.000000,4.000000,4.000000,4.000000,4.000000,4.000000,4.000000,4.000000,4.000000,4.000000,4.000000,4.000000,4.000000,4.000000,4.000000,4.000000,4.000000,4.000000,4.000000,4.000000,100.000000
1614045951.423798,82.000000,0.000000,-2.434279,9.295104,-52.619316,5.101850,4.306004,-4.281199,0.075608,-1.414470,1.915303,9.222043,-13.028165,-13.849390,-22.723387,-19.296448,-31.346636,27.564358,-11.339024,0.460909,99.128967,-65.525299,-15.899286,-3.232319,-0.025152,-5.006994,-12.355677,-11.579382,-0.404784,6.337487,-5.363602,-18.464241,21.606150,14.696406,0.000000,202.000000,4.000000,,,,0.000000,4.000000,4.000000,4.000000,4.000000,4.000000,4.000000,4.000000,4.000000,4.000000,4.000000,4.000000,4.000000,4.000000,4.000000,4.000000,4.000000,4.000000,4.000000,4.000000,4.000000,4.000000,4.000000,4.000000,4.000000,4.000000,4.000000,4.000000,4.000000,4.000000,4.000000,4.000000,4.000000,100.000000
1614045951.431647,83.000000,0.000000,-2.431844,11.849912,-51.028236,5.609568,7.891442,-0.174353,3.665276,-0.900235,6.528772,18.956411,-8.399752,-13.322720,-21.675022,-12.610484,-31.828110,27.536793,-11.840505,-18.513910,67.234962,-84.434128,-16.909027,-10.408574,-1.050768,-6.027628,0.477191,-4.388316,4.211005,7.356791,-2.794136,-17.420135,21.584543,14.168889,0.000000,186.000000,4.000000,,,,0.000000,4.000000,4.000000,4.000000,4.000000,4.000000,4.000000,4.000000,4.000000,4.000000,4.000000,4.000000,4.000000,4.000000,4.000000,4.000000,4.000000,4.000000,4.000000,4.000000,4.000000,4.000000,4.000000,4.000000,4.000000,4.000000,4.000000,4.000000,4.000000,4.000000,4.000000,2.000000,4.000000,83.333336
1614045951.439396,84.000000,0.000000,-2.942233,12.863703,-47.900284,6.116779,16.088678,10.595052,10.841098,1.664768,9.086346,16.373352,0.839417,-15.873500,-21.653347,-12.085053,-29.744999,23.406693,-16.444048,-22.597961,46.654911,-99.734314,-20.481863,-21.680216,-10.793306,-6.021600,9.194663,-0.281363,6.770896,9.400716,-1.765700,-15.351434,21.562958,13.129079,0.000000,144.000000,4.000000,,,,0.000000,4.000000,4.000000,4.000000,4.000000,4.000000,4.000000,4.000000,4.000000,4.000000,4.000000,4.000000,4.000000,4.000000,4.000000,4.000000,4.000000,4.000000,4.000000,4.000000,4.000000,4.000000,4.000000,4.000000,4.000000,4.000000,4.000000,4.000000,4.000000,4.000000,4.000000,2.000000,4.000000,83.333336
1614045951.447245,85.000000,0.000000,-2.939291,12.850839,-49.390846,5.597842,15.559770,8.533175,12.881539,4.740026,8.564439,23.023645,3.402680,-17.908909,-23.682976,-11.047327,-32.792175,24.921747,-25.658375,-4.626645,69.172356,-110.916626,-22.512663,-33.966228,-19.500462,-8.579681,7.134186,-0.793902,3.174382,10.416956,-1.763935,-13.797621,21.541395,16.192873,0.000000,198.000000,4.000000,,,,0.000000,4.000000,4.000000,4.000000,4.000000,4.000000,4.000000,4.000000,4.000000,4.000000,4.000000,4.000000,4.000000,4.000000,4.000000,4.000000,4.000000,4.000000,4.000000,4.000000,4.000000,4.000000,4.000000,4.000000,4.000000,4.000000,4.000000,4.000000,4.000000,4.000000,4.000000,2.000000,4.000000,83.333336
1614045951.454994,86.000000,0.000000,-2.423531,13.350808,-51.905556,5.592244,9.390364,4.422078,11.843017,6.273747,8.555875,34.795494,1.347996,-14.814076,-15.454165,-10.010639,-34.810669,24.384005,-29.222460,-16.929710,67.564728,-124.139046,-25.567072,-37.522007,-18.455320,-15.237768,4.050129,-0.793108,1.632746,10.406539,1.314752,-14.296644,21.007034,20.792065,0.000000,206.000000,4.000000,,,,0.000000,4.000000,4.000000,4.000000,4.000000,4.000000,4.000000,4.000000,4.000000,4.000000,4.000000,4.000000,4.000000,4.000000,4.000000,4.000000,4.000000,4.000000,4.000000,4.000000,4.000000,4.000000,4.000000,4.000000,4.000000,4.000000,4.000000,4.000000,4.000000,4.000000,4.000000,2.000000,4.000000,83.333336
1614045951.462843,87.000000,0.000000,-2.933928,11.286176,-55.443394,5.586652,8.355332,3.392015,12.856814,6.780294,9.060139,26.555569,2.885109,-12.747980,5.074110,-11.539090,-17.339958,18.718596,-16.372725,-36.912781,36.727928,-113.245674,-24.003044,-19.535767,-9.206097,-17.273813,3.533258,-0.279495,8.297780,10.396132,0.800617,-14.282348,21.498846,18.719992,0.000000,182.000000,4.000000,,,,0.000000,4.000000,4.000000,4.000000,4.000000,4.000000,4.000000,4.000000,4.000000,4.000000,4.000000,4.000000,4.000000,4.000000,4.000000,4.000000,4.000000,4.000000,4.000000,4.000000,4.000000,4.000000,4.000000,4.000000,4.000000,4.000000,4.000000,4.000000,4.000000,4.000000,4.000000,2.000000,4.000000,83.333336
1614045951.470592,88.000000,0.000000,-2.418174,6.659505,-60.003334,5.581065,6.295694,-6.867788,12.331138,8.824796,8.538259,9.093117,5.446327,-15.812155,17.376728,-12.553192,5.241484,14.597313,0.053905,-31.234842,41.306583,-80.311920,-2.953400,12.791462,5.674905,-6.487308,4.555366,-0.279215,17.007431,8.847275,-4.841209,-14.780886,20.964527,14.085886,0.000000,203.000000,4.000000,,,,0.000000,4.000000,4.000000,4.000000,4.000000,4.000000,4.000000,4.000000,4.000000,4.000000,4.000000,4.000000,4.000000,4.000000,4.000000,4.000000,4.000000,4.000000,4.000000,4.000000,4.000000,4.000000,4.000000,4.000000,4.000000,4.000000,4.000000,4.000000,4.000000,4.000000,4.000000,2.000000,4.000000,83.333336
1614045951.478441,89.000000,0.000000,2.199629,4.601563,-64.045898,5.575484,0.648373,-14.553227,8.216242,10.354433,8.529720,7.032742,5.953701,-11.693779,15.820890,-7.412434,7.287524,21.249382,5.182056,-23.511301,73.572968,-47.411095,24.229040,34.829952,18.489742,13.519179,9.166195,-0.791756,24.169910,6.787146,-6.887650,-14.766105,18.379461,13.046160,0.000000,199.000000,4.000000,,,,0.000000,4.000000,4.000000,4.000000,4.000000,4.000000,4.000000,4.000000,4.000000,4.000000,4.000000,4.000000,4.000000,4.000000,4.000000,4.000000,4.000000,4.000000,4.000000,4.000000,4.000000,4.000000,4.000000,4.000000,4.000000,4.000000,4.000000,4.000000,4.000000,4.000000,4.000000,2.000000,4.000000,83.333336
1614045951.486190,90.000000,0.000000,5.274353,5.109782,-62.443390,5.057088,4.237468,-9.410469,8.208026,9.831258,8.521191,14.718017,5.434927,-0.912854,16.317890,-0.738354,2.152031,29.433260,3.638413,-24.000610,82.217346,-36.081631,29.333017,37.872047,22.573816,30.941557,10.695491,-0.790965,28.248304,8.831640,-5.855122,-14.238518,17.335440,13.033113,0.000000,202.000000,4.000000,,,,0.000000,4.000000,4.000000,4.000000,4.000000,4.000000,4.000000,4.000000,4.000000,4.000000,4.000000,4.000000,4.000000,4.000000,4.000000,4.000000,4.000000,4.000000,4.000000,4.000000,4.000000,4.000000,4.000000,4.000000,4.000000,4.000000,4.000000,4.000000,4.000000,4.000000,4.000000,2.000000,4.000000,83.333336
1614045951.494039,91.000000,0.000000,5.269078,5.617493,-55.714279,5.564851,10.387077,-5.298495,8.712638,9.821426,8.512670,17.267401,5.429492,-0.911941,17.840033,-3.814539,5.226802,25.814083,4.147595,-25.002251,77.006927,-36.045547,26.226761,37.834175,22.551243,36.551643,13.248898,-0.790174,29.758518,10.874091,-6.362087,-14.737100,17.830925,16.097004,0.000000,183.000000,4.000000,,,,0.000000,4.000000,4.000000,4.000000,4.000000,4.000000,4.000000,4.000000,4.000000,4.000000,4.000000,4.000000,4.000000,4.000000,4.000000,4.000000,4.000000,4.000000,4.000000,4.000000,4.000000,4.000000,4.000000,4.000000,4.000000,4.000000,4.000000,4.000000,4.000000,4.000000,4.000000,2.000000,4.000000,83.333336
1614045951.501788,92.000000,0.000000,4.750988,7.663157,-48.991898,6.072107,12.427972,-7.344478,2.550079,10.324426,8.504156,14.686031,8.500985,-7.064876,12.181168,-12.015853,4.195935,20.660065,5.681909,-18.823402,89.237610,-31.906940,30.303099,39.847622,23.041513,35.489449,21.953598,-0.276563,28.703119,10.350396,-5.842904,-11.132619,18.325914,23.773214,0.000000,155.000000,4.000000,,,,0.000000,4.000000,4.000000,4.000000,4.000000,4.000000,4.000000,4.000000,4.000000,4.000000,4.000000,4.000000,4.000000,4.000000,4.000000,4.000000,4.000000,4.000000,4.000000,4.000000,4.000000,4.000000,4.000000,4.000000,4.000000,4.000000,4.000000,4.000000,4.000000,4.000000,4.000000,2.000000,4.000000,83.333336
1614045951.509637,93.000000,0.000000,5.259058,8.681135,-43.814701,5.040394,21.133493,-5.798672,-3.093496,9.801281,8.495652,15.696986,10.030946,-1.929606,5.502320,-12.516658,-5.039031,31.408636,4.650586,-3.932783,104.020164,-43.157085,16.426641,27.500082,20.967190,34.428318,26.034208,-0.276287,28.674416,9.827226,-2.760138,-1.890718,17.794767,31.954569,0.000000,173.000000,4.000000,,,,0.000000,4.000000,4.000000,4.000000,4.000000,4.000000,4.000000,4.000000,4.000000,4.000000,4.000000,4.000000,4.000000,4.000000,4.000000,4.000000,4.000000,4.000000,4.000000,4.000000,4.000000,4.000000,4.000000,4.000000,4.000000,4.000000,4.000000,4.000000,4.000000,4.000000,4.000000,2.000000,4.000000,83.333336
1614045951.517386,94.000000,0.000000,5.253799,10.210916,-38.642681,6.573815,30.855949,0.360973,-1.039121,9.278659,8.487157,27.476160,6.431171,2.687709,-0.144208,-7.888756,-14.264761,38.556713,0.543371,1.199355,100.326401,-75.421616,-12.307734,3.882838,17.356478,26.701582,21.392790,-1.301651,29.158562,10.330218,0.319545,4.265019,17.776974,40.640564,0.000000,183.000000,4.000000,,,,0.000000,4.000000,4.000000,4.000000,4.000000,4.000000,4.000000,4.000000,4.000000,4.000000,4.000000,4.000000,4.000000,4.000000,4.000000,4.000000,4.000000,4.000000,4.000000,4.000000,4.000000,4.000000,4.000000,4.000000,4.000000,4.000000,4.000000,4.000000,4.000000,4.000000,4.000000,2.000000,4.000000,83.333336
1614045951.525235,95.000000,0.000000,4.735725,12.251987,-39.116859,9.131344,25.184067,2.411894,1.526021,9.782201,8.478669,36.679455,5.399099,-11.673953,-9.887653,-10.444970,-24.506907,25.184824,-7.662300,-6.494153,95.097870,-98.423119,-25.628759,-17.146687,9.133993,9.238984,15.217550,-0.274709,25.539660,10.319888,1.857687,2.722293,18.272017,39.061462,0.000000,194.000000,4.000000,,,,0.000000,4.000000,4.000000,4.000000,4.000000,4.000000,4.000000,4.000000,4.000000,4.000000,4.000000,4.000000,4.000000,4.000000,4.000000,4.000000,4.000000,4.000000,4.000000,4.000000,4.000000,4.000000,4.000000,4.000000,4.000000,4.000000,4.000000,4.000000,4.000000,4.000000,4.000000,2.000000,4.000000,83.333336
1614045951.532984,96.000000,0.000000,3.192528,9.675632,-50.872612,6.558110,15.928114,-0.667441,0.498854,8.233957,8.470191,30.488928,4.880879,-22.944330,-20.646997,-22.229397,-39.354195,13.877588,-15.859766,-9.564581,99.105339,-106.529823,-31.756977,-35.078259,-4.208474,-10.257435,3.920281,-0.787254,16.796171,10.309568,1.343009,0.155468,16.202463,19.022400,8064.000000,0.000000,4.000000,,,,0.000000,4.000000,4.000000,4.000000,4.000000,4.000000,4.000000,4.000000,4.000000,4.000000,4.000000,4.000000,4.000000,4.000000,4.000000,4.000000,4.000000,4.000000,4.000000,4.000000,4.000000,4.000000,4.000000,4.000000,4.000000,4.000000,4.000000,4.000000,4.000000,4.000000,4.000000,2.000000,4.000000,83.333336
1614045951.540833,97.000000,0.000000,1.138053,6.076213,-66.206360,0.910526,15.912186,-5.794979,0.498355,5.661621,8.461720,24.817413,-3.841950,-19.844463,-27.293016,-32.976398,-52.135353,7.197043,-22.510572,-26.990913,72.852386,-128.474579,-49.673939,-50.940613,-12.922215,-28.195896,-9.929792,-5.401852,12.163990,10.299259,-0.709616,0.668133,12.596517,3.105941,8192.000000,0.000000,4.000000,,,,0.000000,4.000000,4.000000,4.000000,4.000000,4.000000,4.000000,4.000000,4.000000,4.000000,4.000000,4.000000,4.000000,4.000000,4.000000,4.000000,4.000000,4.000000,4.000000,4.000000,4.000000,4.000000,4.000000,4.000000,4.000000,4.000000,4.000000,4.000000,4.000000,4.000000,4.000000,2.000000,4.000000,83.333336
1614045951.548582,98.000000,0.000000,0.111274,5.044496,-78.447845,-2.167307,14.870633,-6.302005,1.010677,5.655959,8.453259,31.459263,-5.376570,-28.542568,-27.265724,-26.789576,-50.031937,-3.066564,-28.641909,-59.271614,40.471840,-160.653793,-67.060165,-57.556339,-13.934933,-41.501034,-13.509606,-8.473373,13.177467,10.288960,-2.247368,0.667465,7.455715,2.077194,8064.000000,0.000000,4.000000,,,,0.000000,4.000000,4.000000,4.000000,4.000000,4.000000,4.000000,4.000000,4.000000,4.000000,4.000000,4.000000,4.000000,4.000000,4.000000,4.000000,4.000000,4.000000,4.000000,4.000000,4.000000,4.000000,4.000000,4.000000,4.000000,4.000000,4.000000,4.000000,4.000000,4.000000,4.000000,2.000000,4.000000,83.333336
1614045951.556232,99.000000,0.000000,1.136804,4.013810,-88.625801,-7.293345,12.291659,-5.782882,1.522487,7.701585,7.931985,34.504726,12.577525,-40.821716,-11.341022,-8.301248,-30.494724,5.654451,-32.203011,-65.366188,10.174959,-166.646988,-62.377716,-52.883400,-12.895357,-47.100555,-8.367891,-6.413618,12.651469,10.278671,-2.757941,-0.358844,3.345695,-2.027447,8064.000000,0.000000,4.000000,,,,0.000000,4.000000,4.000000,4.000000,4.000000,4.000000,4.000000,4.000000,4.000000,4.000000,4.000000,4.000000,4.000000,4.000000,4.000000,4.000000,4.000000,4.000000,4.000000,4.000000,4.000000,4.000000,4.000000,4.000000,4.000000,4.000000,4.000000,4.000000,4.000000,4.000000,4.000000,2.000000,4.000000,83.333336
1614045951.563981,100.000000,0.000000,2.674128,1.958514,-95.716667,-14.978359,11.253727,-7.315561,3.572247,10.257986,8.436873,30.367659,28.462383,-20.268076,15.336986,5.553207,-2.771921,28.725719,-19.863115,-35.557236,42.985298,-133.659836,-30.007647,-31.804874,-3.138872,-41.925251,0.871245,-4.868742,13.664459,9.755571,-1.729542,0.154336,3.342350,-9.204906,8064.000000,0.000000,4.000000,,,,0.000000,4.000000,4.000000,4.000000,4.000000,4.000000,4.000000,4.000000,4.000000,4.000000,4.000000,4.000000,4.000000,4.000000,4.000000,4.000000,4.000000,4.000000,4.000000,4.000000,4.000000,4.000000,4.000000,4.000000,4.000000,4.000000,4.000000,4.000000,4.000000,4.000000,4.000000,2.000000,4.000000,83.333336
1614045951.571630,101.000000,0.000000,4.722736,1.443735,-95.620949,-17.527483,8.165550,-9.872348,5.107136,14.863112,8.428437,30.337290,27.921101,7.444500,30.193443,10.163039,19.282133,38.440586,9.387517,-13.470395,75.762825,-100.705658,2.842873,1.047442,15.325806,-20.857685,14.716528,-3.325412,20.317461,10.258636,-2.240633,0.154181,2.313366,-7.144420,8064.000000,0.000000,4.000000,,,,0.000000,4.000000,4.000000,4.000000,4.000000,4.000000,4.000000,4.000000,4.000000,4.000000,4.000000,4.000000,4.000000,4.000000,4.000000,4.000000,4.000000,4.000000,4.000000,4.000000,4.000000,4.000000,4.000000,4.000000,4.000000,4.000000,4.000000,4.000000,4.000000,4.000000,4.000000,2.000000,4.000000,83.333336
1614045951.579379,102.000000,0.000000,7.282116,-1.121811,-94.499687,-15.971495,4.054821,-10.375296,4.589208,19.463634,7.907188,30.819773,26.867538,3.334492,31.701712,12.204158,30.032082,52.248299,31.429411,9.107178,89.020393,-67.784439,27.455416,29.764343,25.054070,11.983685,24.958221,2.318939,25.425348,10.248378,-4.802495,-0.358793,-1.791511,-3.547532,8064.000000,0.000000,4.000000,,,,0.000000,4.000000,4.000000,4.000000,4.000000,4.000000,4.000000,4.000000,4.000000,4.000000,4.000000,4.000000,4.000000,4.000000,4.000000,4.000000,4.000000,4.000000,4.000000,4.000000,4.000000,4.000000,4.000000,4.000000,4.000000,4.000000,4.000000,4.000000,4.000000,4.000000,4.000000,2.000000,4.000000,83.333336
1614045951.587028,103.000000,0.000000,10.864577,-2.146330,-94.405190,-15.955523,4.563586,-9.852100,4.584619,20.982632,8.412101,29.250492,28.379131,-3.848330,31.670010,15.268877,34.104614,78.349892,34.474907,38.328838,105.854454,-50.280754,29.992062,35.375607,26.054657,34.022984,29.035828,7.444825,24.887102,7.161207,-5.310513,0.667207,-4.866643,-4.569625,8064.000000,0.000000,4.000000,,,,0.000000,4.000000,4.000000,4.000000,4.000000,4.000000,4.000000,4.000000,4.000000,4.000000,4.000000,4.000000,4.000000,4.000000,4.000000,4.000000,4.000000,4.000000,4.000000,4.000000,4.000000,4.000000,4.000000,4.000000,4.000000,4.000000,4.000000,4.000000,4.000000,4.000000,4.000000,2.000000,4.000000,83.333336
1614045951.594777,104.000000,0.000000,12.392175,-1.631363,-93.797966,-16.452389,7.635946,-9.842248,4.580034,20.961649,10.967792,39.477654,27.325111,11.540134,30.099878,17.304890,35.096149,83.399750,34.440430,50.598202,133.953720,-45.615089,32.013351,36.878693,31.156807,35.527424,35.160637,9.488663,23.836575,7.666866,-3.253921,3.230642,-3.836135,-4.565056,8192.000000,0.000000,4.000000,,,,0.000000,4.000000,4.000000,4.000000,4.000000,4.000000,4.000000,4.000000,4.000000,4.000000,4.000000,4.000000,4.000000,4.000000,4.000000,4.000000,4.000000,4.000000,4.000000,4.000000,4.000000,4.000000,4.000000,4.000000,4.000000,4.000000,4.000000,4.000000,4.000000,4.000000,4.000000,2.000000,4.000000,83.333336
1614045951.602426,105.000000,0.000000,12.379783,-3.681014,-93.191345,-15.923116,8.653951,-9.832406,4.575454,21.453508,12.495285,49.694584,25.759325,10.502953,22.890291,11.646560,22.753361,71.521477,32.867527,49.009144,130.742844,-53.774605,24.289032,35.303352,32.664112,36.004715,42.304966,10.504815,24.838379,12.787404,-1.712205,4.253052,-3.832299,-4.047670,8064.000000,0.000000,4.000000,,,,0.000000,4.000000,4.000000,4.000000,4.000000,4.000000,4.000000,4.000000,4.000000,4.000000,4.000000,4.000000,4.000000,4.000000,4.000000,4.000000,4.000000,4.000000,4.000000,4.000000,4.000000,4.000000,4.000000,4.000000,4.000000,4.000000,4.000000,4.000000,4.000000,4.000000,4.000000,2.000000,4.000000,83.333336
1614045951.610175,106.000000,0.000000,11.854582,-5.728615,-93.098152,-15.394372,8.645297,-9.309752,4.570879,18.355131,11.969970,40.926941,20.605360,-16.174217,9.534068,0.865682,0.166505,61.193546,22.065430,41.267826,111.124924,-76.797752,0.674999,16.293688,28.016064,35.968712,39.698559,10.494310,25.326361,12.774616,-2.223314,4.761620,-4.341287,-3.530802,8192.000000,0.000000,4.000000,,,,0.000000,4.000000,4.000000,4.000000,4.000000,4.000000,4.000000,4.000000,4.000000,4.000000,4.000000,4.000000,4.000000,4.000000,4.000000,4.000000,4.000000,4.000000,4.000000,4.000000,4.000000,4.000000,4.000000,4.000000,4.000000,4.000000,4.000000,4.000000,4.000000,4.000000,4.000000,2.000000,4.000000,83.333336
1614045951.617825,107.000000,0.000000,12.355548,-4.184425,-92.492233,-15.891798,9.662292,-9.813264,4.566308,17.311136,12.470820,30.629604,12.379627,-22.824709,-6.372902,-2.724927,-12.654174,43.183636,8.710032,17.636816,95.629189,-103.387619,-21.889778,-6.799529,21.834200,21.060947,26.325525,10.996636,21.711292,10.710560,-2.221090,4.244038,-3.824125,-3.527271,8064.000000,0.000000,4.000000,,,,0.000000,4.000000,4.000000,4.000000,4.000000,4.000000,4.000000,4.000000,4.000000,4.000000,4.000000,4.000000,4.000000,4.000000,4.000000,4.000000,4.000000,4.000000,4.000000,4.000000,4.000000,4.000000,4.000000,4.000000,4.000000,4.000000,4.000000,4.000000,4.000000,4.000000,4.000000,2.000000,4.000000,83.333336
1614045951.625574,108.000000,0.000000,12.856013,-1.616138,-93.425385,-15.875906,8.114169,-9.803451,4.561742,17.293825,11.945529,31.624615,6.213401,-6.904449,-18.161402,-10.414510,-20.846647,26.217375,-0.016627,1.208922,66.815605,-124.822693,-39.303787,-14.997857,11.555956,0.014245,17.581251,10.472819,17.074196,12.751131,-2.218869,3.726973,-3.820301,-4.036564,8064.000000,0.000000,4.000000,,,,0.000000,4.000000,4.000000,4.000000,4.000000,4.000000,4.000000,4.000000,4.000000,4.000000,4.000000,4.000000,4.000000,4.000000,4.000000,4.000000,4.000000,4.000000,4.000000,4.000000,4.000000,4.000000,4.000000,4.000000,4.000000,4.000000,4.000000,4.000000,4.000000,4.000000,4.000000,2.000000,4.000000,83.333336
1614045951.633223,109.000000,0.000000,9.766233,-1.614522,-93.844780,-14.834389,1.952208,-9.280827,4.557180,9.584223,4.754096,21.849401,-4.562043,-16.641134,-30.963753,-34.506660,-43.902725,17.986031,-7.708918,-1.356389,41.620586,-142.133774,-56.187561,-19.598244,-1.788933,-5.113975,19.614952,9.949526,16.544300,13.251201,-2.216650,5.261708,-3.816481,-4.032528,8064.000000,0.000000,4.000000,,,,0.000000,4.000000,4.000000,4.000000,4.000000,4.000000,4.000000,4.000000,4.000000,4.000000,4.000000,4.000000,4.000000,4.000000,4.000000,4.000000,4.000000,4.000000,4.000000,4.000000,4.000000,4.000000,4.000000,4.000000,4.000000,4.000000,4.000000,4.000000,4.000000,4.000000,4.000000,2.000000,4.000000,83.333336
1614045951.640972,110.000000,0.000000,3.089801,-2.125728,-95.802216,-17.383657,-2.152308,-10.297187,3.014161,-0.681772,-2.430145,1.827552,-23.019018,-44.829620,-48.368687,-54.984974,-71.551132,-5.621700,-16.931978,-31.611443,29.271275,-161.991638,-63.310860,-27.783773,-7.428170,-0.493476,11.903029,11.478038,17.553398,10.673847,-1.701613,-0.384580,-3.812665,-3.002854,8064.000000,0.000000,4.000000,,,,0.000000,4.000000,4.000000,4.000000,4.000000,4.000000,4.000000,4.000000,4.000000,4.000000,4.000000,4.000000,4.000000,4.000000,4.000000,4.000000,4.000000,4.000000,4.000000,4.000000,4.000000,4.000000,4.000000,4.000000,4.000000,4.000000,4.000000,4.000000,4.000000,4.000000,4.000000,2.000000,4.000000,83.333336
1614045951.648621,111.000000,0.000000,0.009788,-1.610782,-105.450005,-21.981659,-4.201437,-12.850992,0.959865,-3.245192,-3.453356,-6.379404,-35.303692,-43.759151,-59.089546,-59.545372,-87.889832,-37.923771,-31.274021,-63.887524,-2.552868,-184.393753,-69.914215,-32.371376,-8.959203,-9.210931,-12.211438,6.338355,12.920460,8.611891,-3.238373,-12.691888,-3.808852,-7.615236,8064.000000,0.000000,4.000000,,,,0.000000,4.000000,4.000000,4.000000,4.000000,4.000000,4.000000,4.000000,4.000000,4.000000,4.000000,4.000000,4.000000,4.000000,4.000000,4.000000,4.000000,4.000000,4.000000,4.000000,4.000000,4.000000,4.000000,4.000000,4.000000,4.000000,4.000000,4.000000,4.000000,4.000000,4.000000,2.000000,4.000000,83.333336
1614045951.656370,112.000000,0.000000,0.522599,-1.609171,-114.575325,-23.498138,-8.299800,-13.863782,-0.066736,-3.241947,-3.449903,-1.757640,-32.704285,-22.176929,-56.466354,-59.998650,-89.853226,-42.501232,-36.883774,-72.028763,-25.114418,-193.952942,-74.459686,-32.851826,-10.488706,-29.714540,-21.942816,-6.488497,9.317796,4.500715,-5.286417,-19.345861,-3.805043,-16.325569,8064.000000,0.000000,4.000000,,,,0.000000,4.000000,4.000000,4.000000,4.000000,4.000000,4.000000,4.000000,4.000000,4.000000,4.000000,4.000000,4.000000,4.000000,4.000000,4.000000,4.000000,4.000000,4.000000,4.000000,4.000000,4.000000,4.000000,4.000000,4.000000,4.000000,4.000000,4.000000,4.000000,4.000000,4.000000,2.000000,4.000000,83.333336
1614045951.664019,113.000000,0.000000,0.522076,-1.607562,-112.922287,-22.961819,-10.855603,-13.337098,0.446151,1.376679,-3.446453,7.474887,-13.697223,-19.077829,-37.948353,-46.605316,-70.276192,-12.715140,-22.487915,-39.136223,6.192748,-174.784637,-59.000610,-24.613844,-7.914114,-38.915596,-8.587541,-14.174315,8.795657,2.957753,-6.306771,-18.813696,-3.801238,-18.873346,8064.000000,0.000000,4.000000,,,,0.000000,4.000000,4.000000,4.000000,4.000000,4.000000,4.000000,4.000000,4.000000,4.000000,4.000000,4.000000,4.000000,4.000000,4.000000,4.000000,4.000000,4.000000,4.000000,4.000000,4.000000,4.000000,4.000000,4.000000,4.000000,4.000000,4.000000,4.000000,4.000000,4.000000,4.000000,2.000000,4.000000,83.333336
1614045951.671768,114.000000,0.000000,0.521554,-1.605954,-111.783722,-22.938858,-9.819106,-13.323761,2.496987,15.734277,-0.878904,18.236643,13.495961,-23.674137,-9.192454,-19.379223,-37.898228,12.938601,-6.567991,-10.891958,39.007069,-144.353439,-36.377506,-8.178973,-2.265174,-32.722836,-0.886645,-12.108859,8.786861,5.006077,-5.787644,-17.256420,-3.797437,-19.367294,8064.000000,0.000000,4.000000,,,,0.000000,4.000000,4.000000,4.000000,4.000000,4.000000,4.000000,4.000000,4.000000,4.000000,4.000000,4.000000,4.000000,4.000000,4.000000,4.000000,4.000000,4.000000,4.000000,4.000000,4.000000,4.000000,4.000000,4.000000,4.000000,4.000000,4.000000,4.000000,4.000000,4.000000,4.000000,2.000000,4.000000,83.333336
1614045951.679418,115.000000,0.000000,2.572315,-1.604348,-115.774506,-23.428740,-9.296467,-13.310437,4.032952,21.872389,0.147616,25.910713,25.277338,-8.778667,8.765456,1.665797,-13.757764,23.694893,-1.433218,2.965087,48.198830,-120.619339,-20.956514,9.265102,3.378116,-21.920879,3.729626,-3.378802,11.854998,5.513892,-5.781857,-12.623779,-3.793639,-19.860746,8064.000000,0.000000,4.000000,,,,0.000000,4.000000,4.000000,4.000000,4.000000,4.000000,4.000000,4.000000,4.000000,4.000000,4.000000,4.000000,4.000000,4.000000,4.000000,4.000000,4.000000,4.000000,4.000000,4.000000,4.000000,4.000000,4.000000,4.000000,4.000000,4.000000,4.000000,4.000000,4.000000,4.000000,4.000000,2.000000,4.000000,83.333336
1614045951.687167,116.000000,0.000000,4.621024,-1.602744,-107.966423,-22.892490,-6.723068,-13.297127,4.028919,20.312056,2.711571,29.474546,23.200777,8.153188,21.064383,24.741055,7.794456,46.235302,13.952831,31.167250,80.971146,-89.729485,3.167006,30.281479,12.605508,-6.514344,24.751537,9.957911,19.022631,8.072480,-5.776074,-4.918848,-3.789846,-12.148579,8064.000000,0.000000,4.000000,,,,0.000000,4.000000,4.000000,4.000000,4.000000,4.000000,4.000000,4.000000,4.000000,4.000000,4.000000,4.000000,4.000000,4.000000,4.000000,4.000000,4.000000,4.000000,4.000000,4.000000,4.000000,4.000000,4.000000,4.000000,4.000000,4.000000,4.000000,4.000000,4.000000,4.000000,4.000000,2.000000,4.000000,83.333336
1614045951.694816,117.000000,0.000000,7.180506,-1.601141,-94.012299,-22.869598,-2.613781,-13.283830,6.588993,27.471230,8.862706,33.547638,30.869884,4.042471,41.556141,52.408619,33.940506,79.009575,35.477341,63.443775,109.608124,-62.460270,20.599737,49.738377,26.439056,12.979350,42.162685,18.153080,22.080530,15.243895,-5.770298,-2.349827,-3.786056,-1.880020,8064.000000,0.000000,4.000000,,,,0.000000,4.000000,4.000000,4.000000,4.000000,4.000000,4.000000,4.000000,4.000000,4.000000,4.000000,4.000000,4.000000,4.000000,4.000000,4.000000,4.000000,4.000000,4.000000,4.000000,4.000000,4.000000,4.000000,4.000000,4.000000,4.000000,4.000000,4.000000,4.000000,4.000000,4.000000,2.000000,4.000000,83.333336
1614045951.702665,118.000000,0.000000,10.763069,-1.599540,-90.841362,-23.359549,-2.098346,-13.270545,11.197788,31.546324,12.956408,35.565372,40.069786,-6.730803,44.591507,49.792110,36.983490,84.571594,31.852119,49.534180,77.190819,-73.167046,5.707342,43.534794,28.976719,25.786884,41.607700,17.622107,21.032808,18.818396,-5.764528,-3.373118,-3.782270,-2.390960,8064.000000,0.000000,4.000000,,,,0.000000,4.000000,4.000000,4.000000,4.000000,4.000000,4.000000,4.000000,4.000000,4.000000,4.000000,4.000000,4.000000,4.000000,4.000000,4.000000,4.000000,4.000000,4.000000,4.000000,4.000000,4.000000,4.000000,4.000000,4.000000,4.000000,4.000000,4.000000,4.000000,4.000000,4.000000,2.000000,4.000000,83.333336
1614045951.710414,119.000000,0.000000,12.290768,-1.597940,-91.776161,-22.823368,-2.096248,-13.257275,12.212232,18.694263,12.430631,33.478523,26.183561,-4.672790,19.931530,21.024368,11.818301,52.179329,7.717702,17.176950,44.805939,-102.324646,-12.247084,19.901514,16.127230,24.735456,37.463528,18.630125,20.498955,17.261114,-5.758764,-2.856924,-3.265667,-3.927031,8064.000000,0.000000,4.000000,,,,0.000000,4.000000,4.000000,4.000000,4.000000,4.000000,4.000000,4.000000,4.000000,4.000000,4.000000,4.000000,4.000000,4.000000,4.000000,4.000000,4.000000,4.000000,4.000000,4.000000,4.000000,4.000000,4.000000,4.000000,4.000000,4.000000,4.000000,4.000000,4.000000,4.000000,4.000000,2.000000,4.000000,83.333336
1614045951.718263,120.000000,0.000000,11.765656,-1.596342,-90.658745,-21.774904,-1.068511,-13.244018,11.687199,7.906339,12.418200,31.906584,6.157377,-6.206578,0.937240,7.157190,-9.219158,20.332279,-4.597707,10.493108,71.427795,-106.324883,-11.722015,11.676484,6.367513,9.838925,35.887604,18.611496,21.504097,17.243855,-5.753005,-1.828426,-4.800863,-0.333360,8064.000000,0.000000,4.000000,,,,0.000000,4.000000,4.000000,4.000000,4.000000,4.000000,4.000000,4.000000,4.000000,4.000000,4.000000,4.000000,4.000000,4.000000,4.000000,4.000000,4.000000,4.000000,4.000000,4.000000,4.000000,4.000000,4.000000,4.000000,4.000000,4.000000,4.000000,4.000000,4.000000,4.000000,4.000000,2.000000,4.000000,83.333336
1614045951.726012,121.000000,0.000000,12.266711,-1.594746,-91.593727,-22.778770,-1.580263,-11.692312,12.188332,8.924073,11.892961,30.849035,4.612758,-27.226013,0.423482,5.611572,-11.774041,29.542715,-3.054648,37.662102,94.946114,-105.192917,-16.838499,10.126347,5.848325,-1.452965,30.210690,8.849295,18.405670,17.739429,-5.747252,-2.852239,-6.847344,-0.333027,8064.000000,0.000000,4.000000,,,,0.000000,4.000000,4.000000,4.000000,4.000000,4.000000,4.000000,4.000000,4.000000,4.000000,4.000000,4.000000,4.000000,4.000000,4.000000,4.000000,4.000000,4.000000,4.000000,4.000000,4.000000,4.000000,4.000000,4.000000,4.000000,4.000000,4.000000,4.000000,4.000000,4.000000,4.000000,2.000000,4.000000,83.333336
1614045951.733861,122.000000,0.000000,10.715982,-1.593151,-88.425209,-22.243172,-1.065862,-10.654979,12.688964,10.453611,11.881068,30.305367,11.274812,-42.070583,0.423058,3.041857,-11.249447,42.846508,-6.641337,31.983414,65.620399,-128.677475,-34.257557,-9.883780,0.201451,-1.451512,22.488173,-0.903145,8.643675,17.721691,-5.741505,-3.362207,-7.353317,3.257050,8064.000000,0.000000,4.000000,,,,0.000000,4.000000,4.000000,4.000000,4.000000,4.000000,4.000000,4.000000,4.000000,4.000000,4.000000,4.000000,4.000000,4.000000,4.000000,4.000000,4.000000,4.000000,4.000000,4.000000,4.000000,4.000000,4.000000,4.000000,4.000000,4.000000,4.000000,4.000000,4.000000,4.000000,4.000000,2.000000,4.000000,83.333336
1614045951.741610,123.000000,0.000000,8.141164,-1.591558,-84.234222,-16.579903,4.576230,-9.618683,11.650634,7.879055,14.433290,34.377625,11.776358,-30.746460,-2.141467,9.705482,-17.904863,31.521608,-14.327003,7.848866,37.349651,-150.087250,-43.454071,-28.848255,-7.491058,-8.116727,14.260555,-1.927882,0.429903,17.191149,-5.735763,-1.820383,-7.858784,9.920460,8064.000000,0.000000,4.000000,,,,0.000000,4.000000,4.000000,4.000000,4.000000,4.000000,4.000000,4.000000,4.000000,4.000000,4.000000,4.000000,4.000000,4.000000,4.000000,4.000000,4.000000,4.000000,4.000000,4.000000,4.000000,4.000000,4.000000,4.000000,4.000000,4.000000,4.000000,4.000000,4.000000,4.000000,4.000000,2.000000,4.000000,83.333336
1614045951.749459,124.000000,0.000000,7.620203,-1.589967,-91.329475,-14.512040,4.571653,-4.993680,12.151804,8.383996,12.367574,34.343246,11.764582,-17.382380,-1.113685,11.234239,-25.579268,22.259317,-13.799856,16.046146,58.850761,-146.347427,-40.333691,-24.716843,-5.945106,-25.544508,6.553987,-0.900314,2.993576,17.173958,-5.730027,-5.921127,-10.415029,3.756693,8064.000000,0.000000,4.000000,,,,0.000000,4.000000,4.000000,4.000000,4.000000,4.000000,4.000000,4.000000,4.000000,4.000000,4.000000,4.000000,4.000000,4.000000,4.000000,4.000000,4.000000,4.000000,4.000000,4.000000,4.000000,4.000000,4.000000,4.000000,4.000000,4.000000,4.000000,4.000000,4.000000,4.000000,4.000000,2.000000,4.000000,83.333336
1614045951.757208,125.000000,0.000000,8.125402,-1.588377,-104.058662,-22.702656,-8.253431,-8.065609,12.139652,10.426894,5.688540,18.411469,11.239996,-25.057304,0.425891,-9.289817,-22.476765,28.390905,-10.709133,22.183947,78.791908,-138.508774,-37.729256,-18.538280,-4.400699,-27.570246,1.419228,-1.412234,9.657248,17.669603,-5.724298,-19.248539,-11.430254,-10.093218,8064.000000,0.000000,4.000000,,,,0.000000,4.000000,4.000000,4.000000,4.000000,4.000000,4.000000,4.000000,4.000000,4.000000,4.000000,4.000000,4.000000,4.000000,4.000000,4.000000,4.000000,4.000000,4.000000,4.000000,4.000000,4.000000,4.000000,4.000000,4.000000,4.000000,4.000000,4.000000,4.000000,4.000000,4.000000,2.000000,4.000000,83.333336
1614045951.765057,126.000000,0.000000,8.117277,-2.099609,-109.082802,-31.910723,-17.988768,-22.929338,4.948025,7.339544,3.631569,2.495620,3.536449,-30.673273,-1.112997,-26.716425,-12.197878,23.234308,-14.288167,-10.145930,46.405426,-145.036926,-41.281269,-20.058203,-6.960401,-15.747804,-2.684755,-1.410822,12.211695,14.575011,-5.718573,-26.921598,-10.393183,-13.160048,8064.000000,0.000000,4.000000,,,,0.000000,4.000000,4.000000,4.000000,4.000000,4.000000,4.000000,4.000000,4.000000,4.000000,4.000000,4.000000,4.000000,4.000000,4.000000,4.000000,4.000000,4.000000,4.000000,4.000000,4.000000,4.000000,4.000000,4.000000,4.000000,4.000000,4.000000,4.000000,4.000000,4.000000,4.000000,2.000000,4.000000,83.333336
1614045951.772806,127.000000,0.000000,7.596340,-1.584689,-109.486542,-33.930096,-17.970779,-32.649998,-3.262051,-0.360103,4.653579,0.954663,-3.133754,-12.693882,3.503501,-20.023041,-0.903628,17.570049,-7.094392,-22.956297,14.051330,-132.584198,-33.547680,-7.730453,2.277329,-15.219235,0.907673,-0.896590,13.737944,8.406590,-6.225675,-24.330574,-11.921251,-11.095606,8064.000000,0.000000,4.000000,,,,0.000000,4.000000,4.000000,4.000000,4.000000,4.000000,4.000000,4.000000,4.000000,4.000000,4.000000,4.000000,4.000000,4.000000,4.000000,4.000000,4.000000,4.000000,4.000000,4.000000,4.000000,4.000000,4.000000,4.000000,4.000000,4.000000,4.000000,4.000000,4.000000,4.000000,4.000000,2.000000,4.000000,83.333336
1614045951.780655,0.000000,0.000000,8.614385,-1.583104,-109.889877,-33.383343,-16.414347,-29.027605,-3.771609,1.691539,4.648925,-0.584753,-2.617800,6.805991,16.833330,-9.746608,19.610096,50.372990,22.143471,9.887172,46.857792,-99.631096,-0.693621,25.097790,20.223770,-9.050170,14.240099,-0.895694,19.878052,6.859722,-5.706629,-21.742142,-14.473433,-11.597330,0.000000,192.000000,4.000000,,,,0.000000,4.000000,4.000000,4.000000,4.000000,4.000000,4.000000,4.000000,4.000000,4.000000,4.000000,4.000000,4.000000,4.000000,4.000000,4.000000,4.000000,4.000000,4.000000,4.000000,4.000000,4.000000,4.000000,4.000000,4.000000,4.000000,4.000000,4.000000,4.000000,4.000000,4.000000,2.000000,4.000000,83.333336
1614045951.788404,1.000000,0.000000,9.118590,-2.607162,-110.805626,-34.888420,-17.423573,-26.947296,-2.742197,8.869335,4.131456,0.954293,0.461741,1.158159,25.021626,-9.224041,36.513561,83.143127,40.582867,42.697796,79.631447,-66.710953,25.460918,48.662437,27.895853,19.676828,21.918167,-0.894798,24.986380,6.340042,-5.700922,-21.720400,-14.971780,-13.124194,0.000000,207.000000,4.000000,,,,0.000000,4.000000,4.000000,4.000000,4.000000,4.000000,4.000000,4.000000,4.000000,4.000000,4.000000,4.000000,4.000000,4.000000,4.000000,4.000000,4.000000,4.000000,4.000000,4.000000,4.000000,4.000000,4.000000,4.000000,4.000000,4.000000,4.000000,4.000000,4.000000,4.000000,4.000000,2.000000,4.000000,83.333336
1614045951.796253,2.000000,0.000000,7.571010,-1.066093,-109.669182,-33.315071,-18.431791,-28.971630,-4.277916,6.296363,4.127324,16.337955,0.974099,-14.740435,18.329937,-8.701996,29.297562,68.701012,32.849976,21.629459,47.244122,-83.567322,9.538022,40.408646,22.739752,34.528946,22.409069,-0.893903,24.448572,4.282420,-6.208042,-20.160217,-14.956808,-12.598249,0.000000,198.000000,4.000000,,,,0.000000,4.000000,4.000000,4.000000,4.000000,4.000000,4.000000,4.000000,4.000000,2.000000,4.000000,4.000000,4.000000,4.000000,4.000000,4.000000,4.000000,4.000000,4.000000,4.000000,4.000000,4.000000,4.000000,4.000000,4.000000,4.000000,4.000000,4.000000,4.000000,4.000000,4.000000,2.000000,4.000000,66.666664
1614045951.804002,3.000000,0.000000,8.589081,3.550358,-101.867203,-24.563808,-15.849257,-26.378555,-2.735177,1.674682,5.148838,15.808796,0.460305,-15.238515,12.670582,-2.539448,15.934931,49.145134,26.663280,0.582188,14.889186,-107.073494,-3.804849,27.034904,22.717012,20.135445,21.873838,-0.893009,24.424124,12.483266,-4.150552,-16.037493,-12.890569,-6.431806,0.000000,142.000000,4.000000,,,,0.000000,4.000000,4.000000,4.000000,4.000000,4.000000,4.000000,4.000000,4.000000,2.000000,4.000000,4.000000,4.000000,4.000000,4.000000,4.000000,4.000000,4.000000,4.000000,4.000000,4.000000,4.000000,4.000000,4.000000,4.000000,4.000000,4.000000,4.000000,4.000000,4.000000,4.000000,2.000000,4.000000,66.666664
1614045951.811652,4.000000,0.000000,9.606133,6.623730,-92.534569,-15.821296,-5.576997,-21.223972,3.421405,3.724289,7.707792,-3.181372,1.998306,-14.197635,12.657911,0.540015,7.201047,53.198551,22.534052,4.171350,37.438400,-108.504883,0.814340,23.930946,21.668653,12.423001,18.775042,-0.379296,23.886879,19.137449,0.468983,-10.893250,-8.262294,1.266934,0.000000,207.000000,4.000000,,,,0.000000,4.000000,4.000000,4.000000,4.000000,4.000000,4.000000,4.000000,4.000000,2.000000,4.000000,4.000000,4.000000,4.000000,4.000000,4.000000,4.000000,4.000000,4.000000,4.000000,4.000000,4.000000,4.000000,4.000000,4.000000,4.000000,4.000000,4.000000,4.000000,4.000000,4.000000,2.000000,4.000000,66.666664
1614045951.819401,5.000000,0.000000,0.365757,5.591465,-88.852287,-14.267013,2.633708,-16.587364,5.469265,6.797488,8.725725,2.975656,1.996308,-34.183437,5.465766,-0.486166,-8.190769,42.376122,-0.052584,-11.730258,24.580448,-126.857918,-17.648012,10.573682,4.723909,11.897758,11.576780,-1.917378,15.657865,5.272158,2.006976,-9.343895,-6.715570,3.316949,0.000000,244.000000,4.000000,,,,0.000000,4.000000,4.000000,4.000000,4.000000,4.000000,4.000000,4.000000,4.000000,2.000000,4.000000,4.000000,4.000000,4.000000,4.000000,4.000000,4.000000,4.000000,4.000000,4.000000,4.000000,4.000000,4.000000,4.000000,4.000000,4.000000,4.000000,4.000000,4.000000,4.000000,4.000000,2.000000,4.000000,66.666664
1614045951.827050,6.000000,0.000000,-9.378199,5.585874,-88.250618,-15.278387,2.118254,-14.006674,2.899693,5.765050,8.204179,28.100885,-1.082612,-53.123611,-0.693546,2.078422,-12.285142,31.564516,-18.001249,-18.385195,-1.085158,-154.936188,-39.168827,-9.949713,-12.716713,-5.550038,9.001101,-3.966743,6.411437,-4.989525,1.492149,-10.873013,-7.221675,7.416196,0.000000,131.000000,4.000000,,,,0.000000,4.000000,4.000000,4.000000,4.000000,2.000000,4.000000,4.000000,4.000000,2.000000,4.000000,4.000000,4.000000,4.000000,4.000000,4.000000,4.000000,4.000000,4.000000,4.000000,4.000000,4.000000,4.000000,4.000000,4.000000,4.000000,4.000000,4.000000,4.000000,4.000000,4.000000,2.000000,4.000000,50.000000
1614045951.834799,7.000000,0.000000,-6.291897,8.657211,-86.623909,-14.750288,1.090495,-12.454206,8.024999,4.733644,8.195974,29.611246,4.046676,-42.814079,2.896891,0.537882,-4.067729,40.250900,-16.444786,-2.469373,7.633876,-161.447922,-32.975811,-15.580789,-13.729637,-23.493206,10.017740,-4.988417,3.328103,4.759055,1.490656,-9.323679,-6.701632,14.075447,0.000000,203.000000,4.000000,,,,0.000000,4.000000,4.000000,4.000000,4.000000,2.000000,4.000000,4.000000,4.000000,2.000000,4.000000,4.000000,4.000000,4.000000,4.000000,4.000000,4.000000,4.000000,4.000000,4.000000,4.000000,4.000000,4.000000,4.000000,4.000000,4.000000,4.000000,4.000000,4.000000,4.000000,4.000000,2.000000,4.000000,50.000000
1614045951.842448,8.000000,0.000000,-3.721503,9.674195,-85.511642,-14.735538,2.115046,-9.364828,12.119538,5.241731,8.187778,17.786762,11.734937,-30.463573,-4.798314,-9.719066,-19.961098,23.287573,-21.556547,-22.466904,-12.886579,-172.568527,-33.455654,-15.565207,-12.177445,-22.956892,10.007723,-4.983428,6.914518,12.446603,3.027627,-6.750252,-6.694931,13.548551,0.000000,201.000000,4.000000,,,,0.000000,4.000000,4.000000,4.000000,4.000000,2.000000,4.000000,4.000000,4.000000,2.000000,4.000000,4.000000,4.000000,4.000000,4.000000,4.000000,4.000000,4.000000,4.000000,4.000000,4.000000,4.000000,4.000000,4.000000,4.000000,4.000000,4.000000,4.000000,4.000000,4.000000,4.000000,2.000000,4.000000,50.000000
1614045951.850197,9.000000,0.000000,-7.307525,9.151700,-87.990234,-15.233623,2.112931,-8.842643,3.389470,5.749310,8.179591,18.281797,6.594997,-41.202339,-18.126848,-21.504219,-43.018059,-1.863920,-29.227299,-53.726486,-40.565998,-184.190826,-39.576046,-12.985540,-14.729371,-22.421114,7.946433,-3.952804,13.061450,8.844413,4.563061,-7.769143,-7.201056,9.945259,0.000000,199.000000,4.000000,,,,0.000000,4.000000,4.000000,4.000000,4.000000,2.000000,4.000000,4.000000,4.000000,2.000000,4.000000,4.000000,4.000000,4.000000,4.000000,4.000000,4.000000,4.000000,4.000000,4.000000,4.000000,4.000000,4.000000,4.000000,4.000000,4.000000,4.000000,4.000000,4.000000,4.000000,4.000000,2.000000,4.000000,50.000000
1614045951.857846,10.000000,0.000000,-3.197653,9.655369,-93.030449,-15.218389,1.597997,-13.962006,-3.280586,4.717919,8.171412,20.827618,2.485838,-38.597034,-3.749747,-20.969894,-24.000683,14.035379,-11.249353,-35.724045,-12.833126,-160.929718,-20.562111,6.514625,-3.945411,-21.373053,9.989769,-1.384749,17.150953,9.348389,5.584139,-10.325477,-6.681035,10.448133,0.000000,187.000000,4.000000,,,,0.000000,4.000000,4.000000,4.000000,4.000000,2.000000,4.000000,4.000000,4.000000,2.000000,4.000000,4.000000,4.000000,4.000000,4.000000,4.000000,4.000000,4.000000,4.000000,4.000000,4.000000,4.000000,4.000000,4.000000,4.000000,4.000000,4.000000,4.000000,4.000000,4.000000,4.000000,2.000000,4.000000,50.000000
1614045951.865595,11.000000,0.000000,3.985032,9.645714,-90.373314,-14.690350,1.596399,-15.486505,1.850899,6.764483,8.163239,18.242687,17.867968,-9.840489,27.023233,-1.461744,8.843831,37.611088,16.454205,-10.560114,15.384835,-127.948273,-0.028729,28.046572,16.058535,-6.992705,18.697727,-0.357723,17.133801,10.877502,6.091375,-10.315151,-8.212815,9.412045,0.000000,176.000000,4.000000,,,,0.000000,4.000000,4.000000,4.000000,4.000000,2.000000,4.000000,4.000000,4.000000,2.000000,4.000000,4.000000,4.000000,4.000000,4.000000,4.000000,4.000000,4.000000,4.000000,4.000000,4.000000,4.000000,4.000000,4.000000,4.000000,4.000000,4.000000,4.000000,4.000000,4.000000,4.000000,2.000000,4.000000,50.000000
1614045951.873245,12.000000,0.000000,5.519508,5.020683,-81.564995,-14.675659,3.133264,-10.342813,5.951612,14.962847,8.155076,21.814188,30.670612,2.989864,39.303902,20.078178,29.347809,55.009373,27.206980,0.732497,23.061758,-105.769035,7.663608,34.172371,24.247604,11.475826,23.807236,-0.870186,17.116667,8.815343,3.521182,-10.304836,-10.255885,6.325710,0.000000,203.000000,4.000000,,,,0.000000,4.000000,4.000000,4.000000,4.000000,2.000000,4.000000,4.000000,4.000000,2.000000,4.000000,4.000000,4.000000,4.000000,4.000000,4.000000,4.000000,4.000000,4.000000,4.000000,4.000000,4.000000,4.000000,4.000000,4.000000,4.000000,4.000000,4.000000,4.000000,4.000000,4.000000,2.000000,4.000000,50.000000
1614045951.880994,13.000000,0.000000,8.590912,1.425919,-78.919327,-15.686625,5.181413,-8.794009,3.894379,22.640192,8.146921,31.023144,31.152761,-11.884921,39.777420,31.340153,45.728718,86.749237,29.743876,24.321508,48.166901,-87.714554,22.527739,39.779224,21.659254,22.233582,24.809069,-0.356495,17.099550,6.242425,-2.636186,-10.807351,-11.271270,7.345025,0.000000,206.000000,4.000000,,,,0.000000,4.000000,4.000000,4.000000,4.000000,2.000000,4.000000,4.000000,4.000000,2.000000,4.000000,4.000000,4.000000,4.000000,4.000000,4.000000,4.000000,4.000000,4.000000,4.000000,4.000000,4.000000,4.000000,4.000000,4.000000,4.000000,4.000000,4.000000,4.000000,4.000000,4.000000,2.000000,4.000000,50.000000
1614045951.888643,14.000000,0.000000,12.684885,1.937314,-78.840401,-14.132477,5.689052,-9.298036,3.890485,24.668833,8.138775,34.069042,31.121609,-17.514061,41.276104,34.898556,48.247089,89.226593,33.816696,31.989494,61.964890,-73.780685,37.377007,50.508675,22.150415,26.826733,38.117592,-0.356138,17.082451,6.236182,-6.223293,-8.745262,-10.747178,10.414603,0.000000,175.000000,4.000000,,,,0.000000,4.000000,4.000000,4.000000,4.000000,2.000000,4.000000,4.000000,4.000000,2.000000,4.000000,4.000000,4.000000,4.000000,4.000000,4.000000,4.000000,4.000000,4.000000,4.000000,4.000000,4.000000,4.000000,4.000000,4.000000,4.000000,4.000000,4.000000,4.000000,4.000000,4.000000,2.000000,4.000000,50.000000
1614045951.896492,15.000000,0.000000,12.672200,2.448197,-77.223099,-13.092703,5.683363,-7.750276,4.912235,21.054420,9.156277,33.522152,26.987925,-9.804239,34.568161,26.658529,27.686024,60.419415,32.244419,22.213915,67.031128,-74.219727,39.390911,50.970989,23.666727,28.851187,46.797424,-2.407064,17.065369,7.255587,-5.704249,-6.685235,-10.223611,11.429830,0.000000,178.000000,4.000000,,,,0.000000,4.000000,4.000000,4.000000,4.000000,2.000000,4.000000,4.000000,4.000000,2.000000,4.000000,4.000000,4.000000,4.000000,4.000000,4.000000,4.000000,4.000000,4.000000,4.000000,4.000000,4.000000,4.000000,4.000000,4.000000,4.000000,4.000000,4.000000,4.000000,4.000000,4.000000,2.000000,4.000000,50.000000
1614045951.904241,16.000000,0.000000,12.146708,-0.118354,-82.274086,-21.284739,5.164859,-12.870730,2.856041,12.315418,8.121479,37.591194,15.166064,-16.461102,19.148977,8.683152,11.760900,62.923096,19.904482,29.371189,78.758972,-87.991661,32.684853,36.561043,13.899470,29.335157,37.519859,-4.968760,12.432919,4.171409,-5.698545,-6.165729,-11.751848,9.879938,0.000000,183.000000,4.000000,,,,0.000000,4.000000,4.000000,4.000000,4.000000,2.000000,4.000000,4.000000,4.000000,2.000000,4.000000,4.000000,4.000000,4.000000,4.000000,4.000000,4.000000,4.000000,4.000000,4.000000,4.000000,4.000000,4.000000,4.000000,4.000000,4.000000,4.000000,4.000000,4.000000,4.000000,4.000000,2.000000,4.000000,50.000000
1614045951.912090,17.000000,0.000000,10.596099,-2.169518,-79.627708,-23.314735,5.672515,-19.524527,0.801903,5.123615,7.087717,34.476681,9.509872,-35.931820,5.796494,4.571905,6.108114,76.193504,1.935859,17.546946,46.372517,-120.211357,4.959861,8.832174,-7.652891,20.587873,29.790030,-4.963791,5.753819,-0.448147,-6.205667,-6.159564,-13.791379,10.895700,0.000000,203.000000,4.000000,,,,0.000000,4.000000,4.000000,4.000000,4.000000,2.000000,4.000000,4.000000,4.000000,2.000000,4.000000,4.000000,4.000000,4.000000,4.000000,4.000000,4.000000,4.000000,4.000000,4.000000,4.000000,4.000000,4.000000,4.000000,4.000000,4.000000,4.000000,4.000000,4.000000,4.000000,4.000000,2.000000,4.000000,50.000000
1614045951.919839,18.000000,0.000000,4.431657,-2.167348,-68.778847,-15.599113,5.666842,-15.915258,0.288280,5.118492,9.644732,19.057589,12.577286,-42.049736,1.688134,10.208359,-5.180045,55.091675,-10.886590,-14.778294,14.018454,-152.398834,-27.352791,-19.381786,-22.517033,-0.458356,21.555111,-4.446007,4.209604,-1.473340,-6.199461,-8.717506,-14.803228,11.397624,0.000000,173.000000,4.000000,,,,0.000000,4.000000,4.000000,4.000000,4.000000,2.000000,4.000000,4.000000,4.000000,2.000000,4.000000,4.000000,4.000000,4.000000,4.000000,4.000000,4.000000,4.000000,4.000000,4.000000,4.000000,4.000000,4.000000,4.000000,4.000000,4.000000,4.000000,4.000000,4.000000,4.000000,4.000000,2.000000,4.000000,50.000000
1614045951.927688,19.000000,0.000000,0.324661,-1.652360,-78.966484,-20.198898,0.020150,-12.822420,0.800813,5.626194,6.558164,9.807762,11.539067,-32.776917,-0.364836,0.454561,-13.892814,40.677608,-13.439806,-7.071208,24.773666,-161.990036,-33.992104,-26.029072,-23.520157,-18.406616,-1.030546,-6.492843,5.743856,-1.984688,-5.680441,-13.324173,-14.275604,4.719560,0.000000,194.000000,4.000000,,,,0.000000,4.000000,4.000000,4.000000,4.000000,2.000000,4.000000,4.000000,4.000000,2.000000,4.000000,4.000000,4.000000,4.000000,4.000000,4.000000,4.000000,4.000000,4.000000,4.000000,4.000000,4.000000,4.000000,4.000000,4.000000,4.000000,4.000000,4.000000,4.000000,4.000000,4.000000,4.000000,4.000000,66.666664
1614045951.935437,20.000000,0.000000,0.324336,-2.676349,-98.374695,-32.486393,-9.723460,-18.963444,0.800012,0.492362,-5.243266,11.849236,1.271118,-30.180037,-9.595241,-13.392048,-20.545588,39.611290,-11.375084,-1.423111,27.825815,-160.289581,-40.624779,-19.336376,-25.035099,-18.901030,-14.875669,-8.537632,4.199651,-1.469882,-5.674761,-14.336491,-14.261329,-4.003109,0.000000,156.000000,4.000000,,,,0.000000,4.000000,4.000000,4.000000,4.000000,2.000000,4.000000,4.000000,4.000000,2.000000,4.000000,4.000000,4.000000,4.000000,4.000000,4.000000,4.000000,4.000000,4.000000,4.000000,4.000000,4.000000,4.000000,4.000000,4.000000,4.000000,4.000000,4.000000,4.000000,4.000000,4.000000,4.000000,4.000000,66.666664
1614045951.943286,21.000000,0.000000,0.836832,-0.622390,-93.148117,-28.351341,-13.303480,-20.482943,0.799212,-2.072232,-8.827766,9.786105,-6.422461,-40.406265,-16.252312,-12.865835,-30.268631,15.469113,-13.414990,-33.729382,-4.509703,-169.872879,-59.045692,-18.291399,-22.958780,-17.856487,-7.681306,-4.939351,6.246733,4.172613,-6.181907,-13.809333,-14.247067,-3.999105,0.000000,183.000000,4.000000,,,,0.000000,4.000000,4.000000,4.000000,4.000000,2.000000,4.000000,4.000000,4.000000,2.000000,4.000000,4.000000,4.000000,4.000000,4.000000,4.000000,4.000000,4.000000,4.000000,4.000000,4.000000,4.000000,4.000000,4.000000,4.000000,4.000000,4.000000,4.000000,4.000000,4.000000,4.000000,4.000000,4.000000,66.666664
1614045951.951035,22.000000,0.000000,2.374457,3.993617,-84.849838,-17.040939,-12.777356,-14.308613,0.285592,1.006763,-1.126631,7.212217,1.276269,-34.212013,-7.518111,-13.365790,-22.546055,-0.443792,-12.375935,-39.849499,13.956346,-162.010696,-39.499470,-4.426953,-7.551207,-19.889914,4.634067,0.706614,17.522537,10.322287,-5.662904,-13.795524,-14.232821,-0.405363,0.000000,203.000000,4.000000,,,,0.000000,4.000000,4.000000,4.000000,4.000000,2.000000,4.000000,4.000000,4.000000,2.000000,4.000000,4.000000,4.000000,4.000000,4.000000,4.000000,4.000000,4.000000,4.000000,4.000000,4.000000,4.000000,4.000000,4.000000,4.000000,4.000000,4.000000,4.000000,4.000000,4.000000,4.000000,4.000000,4.000000,66.666664
1614045951.958884,23.000000,0.000000,4.423365,6.040905,-91.944473,-17.536718,-13.277399,-11.730202,0.798127,2.544218,1.951419,7.717825,12.557044,-5.459854,5.309920,-14.890885,1.066234,24.684856,-0.055866,-6.989135,46.762901,-129.028168,-6.639456,27.372345,6.302498,-7.562331,21.039690,3.270010,27.248604,10.311964,-3.605959,-12.243267,-14.218588,-0.404957,0.000000,203.000000,4.000000,,,,0.000000,4.000000,4.000000,4.000000,4.000000,2.000000,4.000000,4.000000,4.000000,2.000000,4.000000,4.000000,4.000000,4.000000,4.000000,4.000000,4.000000,4.000000,4.000000,4.000000,4.000000,4.000000,4.000000,4.000000,4.000000,4.000000,4.000000,4.000000,4.000000,4.000000,4.000000,4.000000,4.000000,66.666664
1614045951.966633,24.000000,0.000000,4.931762,5.522044,-88.775604,-19.570465,-13.264122,-12.744112,3.361431,2.028853,0.923826,4.120364,7.929102,3.263555,8.894354,-7.183687,12.860040,49.788376,10.713420,-3.392402,40.562294,-110.437607,7.726158,44.268051,8.347478,20.137539,35.890446,4.292381,29.272638,10.301653,-2.063892,-10.179742,-13.691548,-0.917373,0.000000,178.000000,4.000000,,,,0.000000,4.000000,4.000000,4.000000,4.000000,2.000000,4.000000,4.000000,4.000000,2.000000,4.000000,4.000000,4.000000,4.000000,4.000000,4.000000,4.000000,4.000000,4.000000,4.000000,4.000000,4.000000,4.000000,4.000000,4.000000,4.000000,4.000000,4.000000,4.000000,4.000000,4.000000,4.000000,4.000000,66.666664
1614045951.974482,25.000000,0.000000,4.926830,5.516521,-78.430420,-18.012432,-12.738037,-12.731368,3.358070,1.514004,-0.102738,-0.499141,0.228866,-22.380733,6.321356,-2.561119,9.770257,51.277050,9.164246,-12.619779,32.316601,-110.327171,1.564586,37.044296,7.826310,33.450733,30.213530,0.185525,25.653622,9.265710,-2.061828,-10.682383,-14.190678,-1.942097,0.000000,209.000000,4.000000,,,,0.000000,4.000000,4.000000,4.000000,4.000000,2.000000,4.000000,4.000000,4.000000,2.000000,4.000000,4.000000,4.000000,4.000000,4.000000,4.000000,4.000000,4.000000,4.000000,4.000000,4.000000,4.000000,4.000000,4.000000,4.000000,4.000000,4.000000,4.000000,4.000000,4.000000,4.000000,4.000000,4.000000,66.666664
1614045951.982231,26.000000,0.000000,2.357801,6.023826,-85.531479,-17.994419,-16.827864,-12.205816,-0.747852,-2.077254,-6.256482,0.526999,1.767098,-33.640404,3.238112,-5.635481,3.606640,50.712952,1.975594,13.546687,65.104797,-112.268127,2.588662,25.725199,3.203099,24.186516,20.952545,-9.045430,14.345917,3.102598,-2.059766,-10.158879,-16.227770,-4.504257,0.000000,201.000000,4.000000,,,,0.000000,4.000000,4.000000,4.000000,4.000000,2.000000,4.000000,4.000000,4.000000,2.000000,4.000000,4.000000,4.000000,4.000000,4.000000,4.000000,4.000000,4.000000,4.000000,4.000000,4.000000,4.000000,4.000000,4.000000,4.000000,4.000000,4.000000,4.000000,4.000000,4.000000,4.000000,4.000000,4.000000,66.666664
1614045951.990080,27.000000,0.000000,-1.747121,5.504982,-93.138252,-17.976425,-19.887959,-12.193610,-2.798386,-5.152100,-9.839969,2.064933,-0.798771,-18.222149,1.696412,-7.168307,-7.679018,51.175060,-10.846894,13.533140,45.039692,-132.155853,-14.337004,9.802038,-8.594976,10.828995,18.367491,-16.215872,2.023879,-1.515889,-2.057706,-9.635900,-17.750002,-2.961291,0.000000,202.000000,4.000000,,,,0.000000,4.000000,4.000000,4.000000,4.000000,2.000000,4.000000,4.000000,4.000000,2.000000,4.000000,4.000000,4.000000,4.000000,4.000000,4.000000,4.000000,4.000000,4.000000,4.000000,4.000000,4.000000,4.000000,4.000000,4.000000,4.000000,4.000000,4.000000,4.000000,4.000000,4.000000,4.000000,4.000000,66.666664
1614045951.997829,28.000000,0.000000,-3.283836,5.499476,-88.942551,-18.471270,-18.329609,-12.694238,-3.308408,-6.172589,-7.778847,-0.501234,-7.464639,-22.306490,-0.869387,-10.238062,-19.466209,42.918758,-28.784765,-18.788086,12.686961,-161.767288,-39.450871,-9.694943,-16.791510,-3.027988,6.554252,-17.738117,0.483393,-2.027194,-2.568469,-10.651905,-17.732252,-1.932689,0.000000,177.000000,4.000000,,,,0.000000,4.000000,4.000000,4.000000,4.000000,2.000000,4.000000,4.000000,4.000000,2.000000,4.000000,4.000000,4.000000,4.000000,4.000000,4.000000,4.000000,4.000000,4.000000,4.000000,4.000000,4.000000,4.000000,4.000000,4.000000,4.000000,4.000000,4.000000,4.000000,4.000000,4.000000,4.000000,4.000000,66.666664
1614045952.005678,29.000000,0.000000,-3.280552,5.493977,-84.751045,-18.452799,-16.772818,-12.681543,-2.279459,-6.166416,-6.745427,2.063370,0.747954,-40.745724,0.157124,-5.612439,-16.882641,37.234814,-27.730339,-15.179553,27.546070,-156.990143,-28.129370,-15.839094,-16.774717,-15.332652,4.496415,-11.053713,7.149577,-0.999526,-1.540260,-6.025869,-18.227341,-2.956397,0.000000,182.000000,4.000000,,,,0.000000,4.000000,4.000000,4.000000,4.000000,2.000000,4.000000,4.000000,4.000000,2.000000,4.000000,4.000000,4.000000,4.000000,4.000000,4.000000,4.000000,4.000000,4.000000,4.000000,4.000000,4.000000,4.000000,4.000000,4.000000,4.000000,4.000000,4.000000,4.000000,4.000000,4.000000,4.000000,4.000000,66.666664
1614045952.013427,30.000000,0.000000,-2.764451,5.488483,-80.563728,-15.870243,-11.627840,-12.668861,0.286923,-1.032045,-3.148938,14.368999,16.131821,-28.910105,6.310813,11.316251,-7.122169,43.351425,-11.805174,9.963831,60.339035,-131.704941,-3.998676,-10.695050,-14.706661,-10.189115,28.081663,2.803495,11.757812,0.539935,1.025383,1.159644,-17.696293,8.841431,0.000000,200.000000,4.000000,,,,0.000000,4.000000,4.000000,4.000000,4.000000,2.000000,4.000000,4.000000,4.000000,2.000000,4.000000,4.000000,4.000000,4.000000,4.000000,4.000000,4.000000,4.000000,4.000000,4.000000,4.000000,4.000000,4.000000,4.000000,4.000000,4.000000,4.000000,4.000000,4.000000,4.000000,4.000000,4.000000,4.000000,66.666664
1614045952.021276,31.000000,0.000000,-3.274507,5.482995,-74.329323,-13.803091,-3.411084,-12.656193,-1.251826,3.584372,3.008057,13.841809,13.038766,-8.881195,2.714758,2.074165,-12.243252,39.718330,-18.460035,-1.841004,41.817158,-141.829651,-19.379293,-13.761278,-17.256058,1.615947,31.643324,3.826332,11.746054,2.590677,2.049999,-1.405618,-14.601674,20.114641,0.000000,205.000000,4.000000,,,,0.000000,4.000000,4.000000,4.000000,4.000000,2.000000,4.000000,4.000000,4.000000,2.000000,4.000000,4.000000,4.000000,4.000000,4.000000,4.000000,4.000000,4.000000,4.000000,4.000000,4.000000,4.000000,4.000000,4.000000,4.000000,4.000000,4.000000,4.000000,4.000000,4.000000,4.000000,4.000000,4.000000,66.666664
1614045952.029025,32.000000,0.000000,-5.322514,5.477511,-74.767815,-17.379032,-0.843570,-12.643537,-5.865958,0.503865,3.005049,-3.095110,-1.846067,-20.667187,-13.185392,-29.209961,-28.641266,16.088867,-33.313370,-34.146854,9.467649,-173.995514,-49.616325,-17.850080,-20.828545,-9.154900,4.432194,-4.382622,12.759949,2.588087,1.535128,-10.122161,-15.099893,6.761193,8064.000000,0.000000,4.000000,,,,0.000000,4.000000,4.000000,4.000000,4.000000,2.000000,4.000000,4.000000,4.000000,2.000000,4.000000,4.000000,4.000000,4.000000,4.000000,4.000000,4.000000,4.000000,4.000000,4.000000,4.000000,4.000000,4.000000,4.000000,4.000000,4.000000,4.000000,4.000000,4.000000,4.000000,4.000000,4.000000,4.000000,66.666664
1614045952.036675,33.000000,0.000000,-6.855653,5.472034,-77.257149,-21.464216,-4.432470,-12.630893,-6.885734,-0.522280,-2.126161,-6.168938,-0.305760,-36.031136,-12.146565,-25.591007,-24.510059,5.303548,-18.408262,-43.856300,14.586387,-171.257416,-45.976963,-8.088641,-13.115408,-24.530361,2.376480,1.262786,13.260010,2.585499,1.533593,-10.112039,-17.136074,-5.553261,8064.000000,0.000000,4.000000,,,,0.000000,4.000000,4.000000,4.000000,4.000000,2.000000,4.000000,4.000000,4.000000,2.000000,4.000000,4.000000,4.000000,4.000000,4.000000,4.000000,4.000000,4.000000,4.000000,4.000000,4.000000,4.000000,4.000000,4.000000,4.000000,4.000000,4.000000,4.000000,4.000000,4.000000,4.000000,4.000000,4.000000,66.666664
1614045952.044424,34.000000,0.000000,-4.797515,4.953742,-72.564507,-19.904291,-5.966499,-12.618262,-6.878848,4.093626,-3.149676,10.247488,14.053520,-20.097668,10.429684,1.614071,1.155476,31.964911,6.225531,-17.145775,47.392315,-139.291290,-22.341244,7.304063,0.743861,-16.300701,25.451027,14.082036,11.708288,2.582913,1.532060,-6.512183,-16.093298,7.785626,8064.000000,0.000000,4.000000,,,,0.000000,4.000000,4.000000,4.000000,4.000000,2.000000,4.000000,4.000000,4.000000,2.000000,4.000000,4.000000,4.000000,4.000000,4.000000,4.000000,4.000000,4.000000,4.000000,4.000000,4.000000,4.000000,4.000000,4.000000,4.000000,4.000000,4.000000,4.000000,4.000000,4.000000,4.000000,4.000000,4.000000,66.666664
1614045952.052073,35.000000,0.000000,-2.741436,4.948788,-69.415016,-17.833105,-4.934892,-10.554362,-6.871969,5.627995,-2.633706,17.416727,20.706133,-1.103210,23.239767,12.381688,18.077396,63.214996,8.783408,15.691883,69.396202,-123.254555,-13.088133,13.450605,4.845681,0.125855,28.502499,14.067954,15.799144,2.067510,0.504886,-8.044132,-14.025923,18.034250,8064.000000,0.000000,4.000000,,,,0.000000,4.000000,4.000000,4.000000,4.000000,2.000000,4.000000,4.000000,4.000000,2.000000,4.000000,4.000000,4.000000,4.000000,4.000000,4.000000,4.000000,4.000000,4.000000,4.000000,4.000000,4.000000,4.000000,4.000000,4.000000,4.000000,4.000000,4.000000,4.000000,4.000000,4.000000,4.000000,4.000000,66.666664
1614045952.059822,36.000000,0.000000,-2.738695,8.020761,-70.371246,-18.328091,-1.340213,-9.005346,-2.249712,8.186469,0.958671,21.501875,18.634146,-7.768774,22.703707,25.702641,18.059320,58.023579,7.236163,9.522345,47.275524,-123.644127,-14.100686,13.949975,3.815195,5.253934,23.345791,13.541065,25.526934,4.116724,2.042843,-5.471986,-13.499076,13.913652,8064.000000,0.000000,4.000000,,,,0.000000,4.000000,4.000000,4.000000,4.000000,2.000000,4.000000,4.000000,4.000000,2.000000,4.000000,4.000000,4.000000,4.000000,4.000000,4.000000,4.000000,4.000000,4.000000,4.000000,4.000000,4.000000,4.000000,4.000000,4.000000,4.000000,4.000000,4.000000,4.000000,4.000000,4.000000,4.000000,4.000000,66.666664
1614045952.067471,37.000000,0.000000,-2.223135,9.551203,-67.736771,-18.309763,2.250870,-8.483521,0.829461,12.793667,7.111559,36.864986,19.128332,-21.607159,22.681002,39.523090,14.964337,38.991196,9.280210,-18.692305,22.612865,-124.546120,-14.599405,14.448846,4.837020,7.812783,30.501932,13.527525,26.527048,6.676710,1.527980,2.738614,-13.485577,14.925380,8064.000000,0.000000,4.000000,,,,0.000000,4.000000,4.000000,4.000000,4.000000,2.000000,4.000000,4.000000,4.000000,2.000000,4.000000,4.000000,4.000000,4.000000,4.000000,4.000000,4.000000,4.000000,4.000000,4.000000,4.000000,4.000000,4.000000,4.000000,4.000000,4.000000,4.000000,4.000000,4.000000,4.000000,4.000000,4.000000,4.000000,66.666664
1614045952.075220,38.000000,0.000000,-3.246553,8.003190,-63.053646,-18.291454,1.735799,-9.500678,-2.761112,12.268053,7.617268,40.417866,20.647665,-22.098372,21.119860,27.688696,13.923732,50.234253,2.604262,2.864848,47.718456,-122.883110,-12.020703,13.408755,1.242440,9.343431,30.984251,4.283228,17.269753,5.644392,-0.012010,2.735876,-15.010552,17.474556,8064.000000,0.000000,4.000000,,,,0.000000,4.000000,4.000000,4.000000,4.000000,2.000000,4.000000,4.000000,4.000000,2.000000,4.000000,4.000000,4.000000,4.000000,4.000000,4.000000,4.000000,4.000000,4.000000,4.000000,4.000000,4.000000,4.000000,4.000000,4.000000,4.000000,4.000000,4.000000,4.000000,4.000000,4.000000,4.000000,4.000000,66.666664
1614045952.082869,39.000000,0.000000,-1.704845,12.097751,-61.452133,-17.760342,1.734063,-8.978356,-2.758351,10.204503,5.045548,28.582577,19.088556,-15.409607,19.560278,12.789212,14.935450,76.850685,1.063196,35.682495,80.491249,-113.016640,-4.316375,13.395347,-0.297264,8.821268,24.799419,2.740483,15.201200,6.664389,5.116207,2.220320,-12.431439,18.482723,8064.000000,0.000000,4.000000,,,,0.000000,4.000000,4.000000,4.000000,4.000000,2.000000,4.000000,4.000000,4.000000,2.000000,4.000000,4.000000,4.000000,4.000000,4.000000,4.000000,4.000000,4.000000,4.000000,4.000000,4.000000,4.000000,4.000000,4.000000,4.000000,4.000000,4.000000,4.000000,4.000000,4.000000,4.000000,4.000000,4.000000,66.666664
1614045952.090618,40.000000,0.000000,3.937885,19.777962,-62.416321,-15.691299,4.296432,-6.918096,3.398253,15.322503,4.527682,29.066814,20.607929,-16.932659,16.976616,15.853346,11.843591,70.107170,2.087774,23.851942,74.769737,-112.390800,-5.850520,12.356311,-0.296967,13.427832,27.851543,13.506973,23.391127,11.785930,14.341861,10.936048,-4.726700,24.618086,8064.000000,0.000000,4.000000,,,,0.000000,4.000000,4.000000,4.000000,4.000000,2.000000,4.000000,4.000000,4.000000,2.000000,4.000000,4.000000,4.000000,4.000000,4.000000,4.000000,4.000000,4.000000,4.000000,4.000000,4.000000,4.000000,4.000000,4.000000,4.000000,4.000000,4.000000,4.000000,4.000000,4.000000,4.000000,4.000000,4.000000,66.666664
1614045952.098268,41.000000,0.000000,3.933947,18.219721,-62.866726,-14.137147,5.830597,-5.372716,5.446137,16.332823,5.035975,32.627491,23.151423,-21.531111,3.113485,12.760570,-10.219535,40.293472,-18.939955,-8.479602,42.387272,-142.022003,-22.767746,0.036262,-15.681285,14.952865,30.900616,17.083210,21.829275,12.286964,14.840339,15.540497,-5.234794,26.131929,8064.000000,0.000000,4.000000,,,,0.000000,4.000000,4.000000,4.000000,4.000000,2.000000,4.000000,4.000000,4.000000,2.000000,4.000000,4.000000,4.000000,4.000000,4.000000,4.000000,4.000000,4.000000,4.000000,4.000000,4.000000,4.000000,4.000000,4.000000,4.000000,4.000000,4.000000,4.000000,4.000000,4.000000,4.000000,4.000000,4.000000,66.666664
1614045952.106017,42.000000,0.000000,-5.813576,13.073297,-60.752575,-14.635830,5.824766,-4.854523,0.312486,9.137002,5.030939,25.415377,19.538528,-18.945477,-12.787065,1.465758,-37.388802,25.381384,-37.382553,-24.368559,16.703859,-171.623566,-33.001389,-18.938133,-33.614323,2.630220,24.715868,12.963563,10.012573,10.223395,8.158832,9.371110,-12.409047,18.413490,8064.000000,0.000000,4.000000,,,,0.000000,4.000000,4.000000,4.000000,4.000000,2.000000,4.000000,4.000000,4.000000,2.000000,4.000000,4.000000,4.000000,4.000000,4.000000,4.000000,4.000000,4.000000,4.000000,4.000000,4.000000,4.000000,4.000000,4.000000,4.000000,4.000000,4.000000,4.000000,4.000000,4.000000,4.000000,4.000000,4.000000,66.666664
1614045952.113666,43.000000,0.000000,-10.935967,12.547402,-62.743107,-14.621194,5.306121,-4.849669,-3.277570,2.461198,2.974626,18.210474,12.339502,-16.362429,-10.722995,-0.074169,-34.274490,25.868824,-24.524658,-22.805729,39.764080,-163.246811,-26.814541,-19.944836,-31.016605,-8.141642,22.127050,15.514702,8.976920,9.700352,8.663494,7.310457,-13.935100,13.779693,8064.000000,0.000000,4.000000,,,,0.000000,4.000000,4.000000,4.000000,4.000000,2.000000,4.000000,4.000000,4.000000,2.000000,4.000000,4.000000,4.000000,4.000000,4.000000,4.000000,4.000000,4.000000,4.000000,4.000000,4.000000,4.000000,4.000000,4.000000,4.000000,4.000000,4.000000,4.000000,4.000000,4.000000,4.000000,4.000000,4.000000,66.666664
1614045952.121415,44.000000,0.000000,-8.360929,10.483573,-73.449593,-14.093752,1.711071,-5.870460,-2.761472,0.920276,-3.182195,11.525598,10.788702,-16.346067,5.185164,1.977187,-7.573549,42.253212,-3.474492,-3.295743,72.544830,-130.263062,-12.941573,2.639211,-16.626614,-3.005295,29.284410,18.576111,22.814096,8.152189,10.193292,8.841608,-15.459625,11.201810,8064.000000,0.000000,4.000000,,,,0.000000,4.000000,4.000000,4.000000,4.000000,2.000000,4.000000,4.000000,4.000000,2.000000,4.000000,4.000000,4.000000,4.000000,4.000000,4.000000,4.000000,4.000000,4.000000,4.000000,4.000000,4.000000,4.000000,4.000000,4.000000,4.000000,4.000000,4.000000,4.000000,4.000000,4.000000,4.000000,4.000000,66.666664
1614045952.129064,45.000000,0.000000,-7.326927,5.344884,-82.094093,-14.592479,-2.393204,-7.915872,-2.245890,2.970637,-6.768756,3.308944,11.803554,-10.688695,18.000492,0.949569,7.818639,69.903267,5.759752,21.322937,87.856895,-102.440483,3.481625,24.175034,-4.815116,13.920788,34.896152,17.531893,30.483591,7.118396,5.054893,7.294304,-23.136475,7.600864,8064.000000,0.000000,4.000000,,,,0.000000,4.000000,4.000000,4.000000,4.000000,2.000000,4.000000,4.000000,4.000000,2.000000,4.000000,4.000000,4.000000,4.000000,4.000000,4.000000,4.000000,4.000000,4.000000,4.000000,4.000000,4.000000,4.000000,4.000000,4.000000,4.000000,4.000000,4.000000,4.000000,4.000000,4.000000,4.000000,4.000000,66.666664
1614045952.136813,46.000000,0.000000,-5.268318,4.826719,-80.986359,-14.577887,-2.390811,-9.446417,-3.269285,6.557410,-4.197885,9.459481,10.766109,-1.447237,22.085054,1.974260,5.759539,68.294899,16.523222,7.968281,59.563911,-95.671379,7.580707,28.766243,4.420469,31.342764,35.374077,18.027182,30.453108,8.649739,-1.104008,4.722908,-25.164619,6.567623,8064.000000,0.000000,4.000000,,,,0.000000,4.000000,4.000000,4.000000,4.000000,2.000000,4.000000,4.000000,4.000000,2.000000,4.000000,4.000000,4.000000,4.000000,4.000000,4.000000,4.000000,4.000000,4.000000,4.000000,4.000000,4.000000,4.000000,4.000000,4.000000,4.000000,4.000000,4.000000,4.000000,4.000000,4.000000,4.000000,4.000000,66.666664
1614045952.144462,47.000000,0.000000,1.916437,3.283431,-80.392548,-14.563309,-1.875599,-8.924150,-2.753196,8.602135,-2.655226,18.167971,11.780984,0.092672,22.062969,5.049209,5.753779,51.816349,23.686186,-9.475585,43.606915,-97.626991,-0.632002,27.199015,8.005792,38.490910,34.313061,14.932231,31.448296,8.641089,-3.154186,3.179723,-25.652275,-0.618432,8064.000000,0.000000,4.000000,,,,0.000000,4.000000,4.000000,4.000000,4.000000,2.000000,4.000000,4.000000,4.000000,2.000000,4.000000,4.000000,4.000000,4.000000,4.000000,4.000000,4.000000,4.000000,4.000000,4.000000,4.000000,4.000000,4.000000,4.000000,4.000000,4.000000,4.000000,4.000000,4.000000,4.000000,4.000000,4.000000,4.000000,66.666664
1614045952.152211,48.000000,0.000000,6.529905,1.228865,-80.824982,-14.548745,-1.873724,-8.915226,-2.750443,9.619174,-2.652570,14.047238,16.384588,-0.933062,23.579369,7.608263,17.542898,68.687607,23.662500,18.226198,76.383820,-92.401161,-0.631370,29.735918,8.510607,34.862675,36.330029,9.276274,26.288641,6.581167,-2.125391,1.125261,-28.190725,-9.335762,8192.000000,0.000000,4.000000,,,,0.000000,4.000000,4.000000,4.000000,4.000000,2.000000,4.000000,4.000000,4.000000,2.000000,4.000000,4.000000,4.000000,4.000000,4.000000,4.000000,4.000000,4.000000,4.000000,4.000000,4.000000,4.000000,4.000000,4.000000,4.000000,4.000000,4.000000,4.000000,4.000000,4.000000,4.000000,4.000000,4.000000,66.666664
1614045952.159861,49.000000,0.000000,4.472094,3.791739,-75.103127,-14.534197,-1.871850,-8.906311,-2.747692,9.609554,-3.162738,21.725498,19.445126,0.093512,23.042969,15.292962,22.653559,85.542000,24.151659,32.054127,86.051025,-96.411324,-1.656379,24.577978,9.014916,31.750889,35.780880,5.164433,17.544405,5.036124,-1.610445,0.611316,-26.624073,-4.198222,8192.000000,0.000000,4.000000,,,,0.000000,4.000000,4.000000,4.000000,4.000000,2.000000,4.000000,4.000000,4.000000,2.000000,4.000000,4.000000,4.000000,4.000000,4.000000,4.000000,4.000000,4.000000,4.000000,4.000000,4.000000,4.000000,4.000000,4.000000,4.000000,4.000000,4.000000,4.000000,4.000000,4.000000,4.000000,4.000000,4.000000,66.666664
1614045952.167710,50.000000,0.000000,4.980442,4.813588,-72.463921,-14.006842,-1.869978,-8.897405,-2.744944,5.497381,-2.646755,39.652493,19.938501,-5.547607,21.481464,29.636642,11.861675,66.994919,15.409558,4.329764,53.657280,-120.930298,-21.141903,10.194426,2.339235,25.052471,32.155354,0.031063,14.962757,1.441344,-3.660116,0.610704,-26.084629,3.498284,8064.000000,0.000000,4.000000,,,,0.000000,4.000000,4.000000,4.000000,4.000000,2.000000,4.000000,4.000000,4.000000,2.000000,4.000000,4.000000,4.000000,4.000000,4.000000,4.000000,4.000000,4.000000,4.000000,4.000000,4.000000,4.000000,4.000000,4.000000,4.000000,4.000000,4.000000,4.000000,4.000000,4.000000,4.000000,4.000000,4.000000,66.666664
1614045952.175459,51.000000,0.000000,6.001102,1.731852,-73.417099,-13.480015,-1.868108,-8.888507,-2.742199,2.414961,-0.080006,31.920530,19.405743,-14.772829,23.511265,33.196751,4.670326,56.671513,3.086456,3.812614,43.860035,-132.091415,-30.864349,5.056026,-3.816951,10.668445,30.071917,-5.097173,15.973435,-0.611379,-8.271841,0.610094,-30.161108,1.956325,8064.000000,0.000000,4.000000,,,,0.000000,4.000000,4.000000,4.000000,4.000000,2.000000,4.000000,4.000000,4.000000,2.000000,4.000000,4.000000,4.000000,4.000000,4.000000,4.000000,4.000000,4.000000,4.000000,4.000000,4.000000,4.000000,4.000000,4.000000,4.000000,4.000000,4.000000,4.000000,4.000000,4.000000,4.000000,4.000000,4.000000,66.666664
1614045952.183308,52.000000,0.000000,0.866896,1.217299,-70.779579,-13.979355,-0.840599,-8.366798,-2.739457,4.463828,1.458536,8.811687,16.309414,-17.834980,15.795446,13.163553,-0.462549,58.666122,-2.044835,22.783161,76.636688,-128.369583,-26.730923,6.076611,-3.813134,3.478289,26.452103,-5.604896,15.957462,1.440514,-9.802031,1.122304,-31.669409,-0.609734,8064.000000,0.000000,4.000000,,,,0.000000,4.000000,4.000000,4.000000,4.000000,2.000000,4.000000,4.000000,4.000000,2.000000,4.000000,4.000000,4.000000,4.000000,4.000000,4.000000,4.000000,4.000000,4.000000,4.000000,4.000000,4.000000,4.000000,4.000000,4.000000,4.000000,4.000000,4.000000,4.000000,4.000000,4.000000,4.000000,4.000000,66.666664
1614045952.191057,53.000000,0.000000,-5.800637,2.241723,-73.272903,-13.965376,-3.403861,-8.871252,-2.736718,3.946543,-0.594205,0.597747,13.216182,-16.791504,-4.220349,-7.875251,-20.974907,36.043354,-9.735098,-2.880648,57.072872,-148.241211,-41.575985,-8.288440,-12.527269,4.500451,14.117957,-4.573650,14.915863,0.413433,-7.228126,-0.417280,-31.637739,-3.173227,8064.000000,0.000000,4.000000,,,,0.000000,4.000000,4.000000,4.000000,4.000000,2.000000,4.000000,4.000000,4.000000,2.000000,4.000000,4.000000,4.000000,4.000000,4.000000,4.000000,4.000000,4.000000,4.000000,4.000000,4.000000,4.000000,4.000000,4.000000,4.000000,4.000000,4.000000,4.000000,4.000000,4.000000,4.000000,4.000000,4.000000,66.666664
1614045952.198906,54.000000,0.000000,-7.333298,0.188199,-84.994499,-14.977052,-8.015841,-9.375201,-2.733981,0.865674,-2.132072,4.186893,11.664504,-15.236250,-12.934078,-8.893017,-36.851368,18.058594,-19.981773,-35.185459,24.708105,-177.323746,-61.534409,-33.408356,-26.873716,-10.888664,2.308968,-5.081897,13.875306,-1.638263,-7.220898,-5.032247,-35.195847,-7.272618,8064.000000,0.000000,4.000000,,,,0.000000,4.000000,4.000000,4.000000,4.000000,2.000000,4.000000,4.000000,4.000000,2.000000,4.000000,4.000000,4.000000,4.000000,4.000000,4.000000,4.000000,4.000000,4.000000,4.000000,4.000000,4.000000,4.000000,4.000000,4.000000,4.000000,4.000000,4.000000,4.000000,4.000000,4.000000,4.000000,4.000000,66.666664
1614045952.206655,55.000000,0.000000,-6.300324,-2.376091,-82.345406,-21.628740,-9.033467,-8.340185,-2.731247,1.377629,-3.668401,5.208347,2.934891,-16.246655,-8.818580,-15.037971,-34.250416,22.143099,-20.474611,-31.560532,34.939808,-178.172058,-61.985695,-40.041615,-30.949408,-31.903418,0.768197,-5.076815,12.322969,-1.123804,-9.777780,-7.591318,-33.109367,-6.239704,8064.000000,0.000000,4.000000,,,,0.000000,4.000000,4.000000,4.000000,4.000000,2.000000,4.000000,4.000000,4.000000,2.000000,4.000000,4.000000,4.000000,4.000000,4.000000,4.000000,4.000000,4.000000,4.000000,4.000000,4.000000,4.000000,4.000000,4.000000,4.000000,4.000000,4.000000,4.000000,4.000000,4.000000,4.000000,4.000000,4.000000,66.666664
1614045952.214504,56.000000,0.000000,-6.806844,-2.373715,-72.519470,-30.837881,-11.588536,-10.895947,-2.728516,1.376251,-7.767297,0.074934,-5.785993,-17.768869,-9.322581,-35.022934,-32.164883,9.813264,-19.941317,-28.964869,54.904869,-172.352859,-58.333965,-30.770803,-28.354355,-32.897156,1.280249,-4.558918,11.797826,-2.148321,-9.768002,-7.070906,-28.460873,-5.720644,8064.000000,0.000000,4.000000,,,,0.000000,4.000000,4.000000,4.000000,4.000000,2.000000,4.000000,4.000000,4.000000,2.000000,4.000000,4.000000,4.000000,4.000000,4.000000,4.000000,4.000000,4.000000,4.000000,4.000000,4.000000,4.000000,4.000000,4.000000,4.000000,4.000000,4.000000,4.000000,4.000000,4.000000,4.000000,4.000000,4.000000,66.666664
1614045952.222253,57.000000,0.000000,-6.800037,-1.858521,-81.164902,-34.396786,-16.192331,-16.526077,-2.725787,1.887695,-8.785171,-0.437962,2.937742,-4.417768,-3.672233,-30.372524,-25.466049,-2.504241,-17.870094,-39.705135,40.490990,-171.667679,-51.096146,-18.432341,-19.608051,-27.736052,1.791790,-4.554359,12.298849,0.417930,-9.245413,-7.063835,-32.534977,-8.279026,8064.000000,0.000000,4.000000,,,,0.000000,4.000000,4.000000,4.000000,4.000000,2.000000,4.000000,4.000000,4.000000,2.000000,4.000000,4.000000,4.000000,4.000000,4.000000,4.000000,4.000000,4.000000,4.000000,4.000000,4.000000,4.000000,4.000000,4.000000,4.000000,4.000000,4.000000,4.000000,4.000000,4.000000,4.000000,4.000000,4.000000,66.666664
1614045952.230102,58.000000,0.000000,-6.280417,-1.856663,-85.699120,-31.798288,-13.099216,-15.483910,-2.723062,9.578115,-5.186642,15.972733,18.832239,13.022548,18.382721,1.452720,-1.850840,25.703392,-4.006070,-24.793634,39.937679,-152.521652,-27.968126,-0.978011,-3.178187,-23.605753,6.405383,-4.549805,14.850653,10.161101,-8.723347,-6.543951,-33.528084,-5.193824,8064.000000,0.000000,4.000000,,,,0.000000,4.000000,4.000000,4.000000,4.000000,2.000000,4.000000,4.000000,4.000000,2.000000,4.000000,4.000000,4.000000,4.000000,4.000000,4.000000,4.000000,4.000000,4.000000,4.000000,4.000000,4.000000,4.000000,4.000000,4.000000,4.000000,4.000000,4.000000,4.000000,4.000000,4.000000,4.000000,4.000000,66.666664
1614045952.237851,59.000000,0.000000,-6.274137,-1.854806,-67.151878,-26.125463,-6.419451,-7.776118,-2.720338,16.235203,-2.617353,29.290092,23.428793,7.368499,30.672031,17.861523,15.074087,53.882816,8.305629,4.974750,61.949020,-126.215294,-11.017081,12.869121,4.004478,-7.684711,8.963079,-4.545255,16.374264,13.740684,-6.663342,-7.050227,-24.776606,-1.086066,8064.000000,0.000000,4.000000,,,,0.000000,4.000000,4.000000,4.000000,4.000000,2.000000,4.000000,4.000000,4.000000,2.000000,4.000000,4.000000,4.000000,4.000000,4.000000,4.000000,4.000000,4.000000,4.000000,4.000000,4.000000,4.000000,4.000000,4.000000,4.000000,4.000000,4.000000,4.000000,4.000000,4.000000,4.000000,4.000000,4.000000,66.666664
1614045952.245700,60.000000,0.000000,-6.267862,-1.852951,-56.828320,-25.073698,-3.848929,-4.178599,-2.717618,17.244610,2.000649,21.568495,21.866901,-6.997843,22.436230,12.202636,15.059013,45.623806,5.733221,8.046698,70.605019,-119.422409,-12.031705,13.881892,0.410730,9.246051,10.492579,-4.540709,14.306607,8.085917,-5.118217,-7.043177,-24.239008,-0.059339,8192.000000,0.000000,4.000000,,,,0.000000,4.000000,4.000000,4.000000,4.000000,2.000000,4.000000,4.000000,4.000000,2.000000,4.000000,4.000000,4.000000,4.000000,4.000000,4.000000,4.000000,4.000000,4.000000,4.000000,4.000000,4.000000,4.000000,4.000000,4.000000,4.000000,4.000000,4.000000,4.000000,4.000000,4.000000,4.000000,4.000000,66.666664
1614045952.253449,61.000000,0.000000,-6.261594,-1.851098,-60.874054,-25.561443,-2.306618,-5.200061,-2.714900,16.714544,10.203776,11.290517,23.896317,-6.990846,14.721486,13.728895,10.941390,40.449978,0.086462,-1.704939,67.970314,-122.379906,-10.481212,11.816729,-0.615322,9.749626,15.097470,-4.536169,12.241018,5.513729,-5.113099,-2.420749,-27.291693,5.581746,8064.000000,0.000000,4.000000,,,,0.000000,4.000000,4.000000,4.000000,4.000000,2.000000,4.000000,4.000000,4.000000,2.000000,4.000000,4.000000,4.000000,4.000000,4.000000,4.000000,4.000000,4.000000,4.000000,4.000000,4.000000,4.000000,4.000000,4.000000,4.000000,4.000000,4.000000,4.000000,4.000000,4.000000,4.000000,4.000000,4.000000,66.666664
1614045952.261298,62.000000,0.000000,-6.255333,-1.849247,-54.146515,-20.407679,-0.765850,-5.194861,-2.712186,13.620907,11.732035,11.792047,22.846779,-3.906932,16.758047,21.920294,6.827885,61.435165,1.112016,7.014715,71.492088,-121.744705,-12.522013,9.753630,0.923755,4.611671,20.723398,-4.018812,12.228778,6.533856,-5.107985,1.171415,-24.700298,10.191549,8064.000000,0.000000,4.000000,,,,0.000000,4.000000,4.000000,4.000000,4.000000,2.000000,4.000000,4.000000,4.000000,2.000000,4.000000,4.000000,4.000000,4.000000,4.000000,4.000000,4.000000,4.000000,4.000000,4.000000,4.000000,4.000000,4.000000,4.000000,4.000000,4.000000,4.000000,4.000000,4.000000,4.000000,4.000000,4.000000,4.000000,66.666664
1614045952.269047,63.000000,0.000000,-6.249077,-1.334577,-44.348778,-17.310347,-0.765084,-4.164025,-2.196653,6.940619,9.669020,18.959742,18.721369,-7.492768,15.202827,22.924015,3.744134,76.758347,1.110904,21.879496,77.574440,-118.033218,-26.355644,3.077209,0.410011,6.658341,23.266777,-3.501973,12.216549,6.527323,-6.641339,-2.419500,-27.239700,5.053152,8064.000000,0.000000,4.000000,,,,0.000000,4.000000,4.000000,4.000000,4.000000,2.000000,4.000000,4.000000,4.000000,2.000000,4.000000,4.000000,4.000000,4.000000,4.000000,4.000000,4.000000,4.000000,4.000000,4.000000,4.000000,4.000000,4.000000,4.000000,4.000000,4.000000,4.000000,4.000000,4.000000,4.000000,4.000000,4.000000,4.000000,66.666664
1614045952.276696,64.000000,0.000000,-6.242828,-1.846063,-46.355713,-23.959703,0.261322,-4.159861,-2.194456,5.395217,8.633710,30.222834,20.241108,-11.075019,13.649163,19.311348,5.278851,65.912361,-0.428668,12.114026,71.855843,-123.556213,-37.098518,-1.028432,-0.103220,6.651683,17.602486,-6.062573,12.204332,6.007975,-9.198800,-6.006824,-33.879128,-0.592927,0.000000,178.000000,4.000000,,,,0.000000,4.000000,4.000000,4.000000,4.000000,2.000000,4.000000,4.000000,4.000000,2.000000,4.000000,4.000000,4.000000,4.000000,4.000000,4.000000,4.000000,4.000000,4.000000,4.000000,4.000000,4.000000,4.000000,4.000000,4.000000,4.000000,4.000000,4.000000,4.000000,4.000000,4.000000,4.000000,4.000000,66.666664
1614045952.284445,65.000000,0.000000,-6.236586,-1.844217,-53.488842,-29.063950,-2.815863,-4.668522,-2.705082,5.902642,6.060974,24.551584,18.682405,-9.525482,16.199615,5.958703,-4.982838,36.615677,0.084581,-17.641678,52.296806,-140.868561,-44.753727,-3.078686,-2.667219,-4.124199,6.302831,-8.107793,11.679307,6.001967,-9.189602,-6.513638,-31.281145,-0.592334,0.000000,189.000000,4.000000,,,,0.000000,4.000000,4.000000,4.000000,4.000000,2.000000,4.000000,4.000000,4.000000,2.000000,4.000000,4.000000,4.000000,4.000000,4.000000,4.000000,4.000000,4.000000,4.000000,4.000000,4.000000,4.000000,4.000000,4.000000,4.000000,4.000000,4.000000,4.000000,4.000000,4.000000,4.000000,4.000000,4.000000,66.666664
1614045952.292095,66.000000,0.000000,-6.230349,0.721730,-58.563560,-28.522064,-9.992534,-4.663853,-2.189557,4.871099,6.054913,-0.601172,4.304749,-4.900572,8.491109,-21.739563,-29.080420,5.809830,-1.966786,-36.598396,41.988098,-150.984100,-55.991028,-10.767915,-4.203013,-18.991871,-1.908600,-7.074044,12.180449,5.995965,-9.180412,-5.994303,-26.121660,-0.591741,0.000000,178.000000,4.000000,,,,0.000000,4.000000,4.000000,4.000000,4.000000,2.000000,4.000000,4.000000,4.000000,2.000000,4.000000,4.000000,4.000000,4.000000,4.000000,4.000000,4.000000,4.000000,4.000000,4.000000,4.000000,4.000000,4.000000,4.000000,4.000000,4.000000,4.000000,4.000000,4.000000,4.000000,4.000000,4.000000,4.000000,66.666664
1614045952.299844,67.000000,0.000000,-6.224119,2.772290,-60.556278,-27.980722,-15.110746,-5.684831,-2.700188,2.814945,3.997576,-13.933904,-11.596992,-15.152082,-12.543023,-42.743465,-43.410313,-8.042133,-13.759690,-39.125900,46.048676,-156.986954,-62.601704,-18.962275,-4.198810,-27.178007,-6.009255,-12.195175,11.655448,6.502789,-9.171231,-11.116514,-26.608358,-0.078329,0.000000,147.000000,4.000000,,,,0.000000,4.000000,4.000000,4.000000,4.000000,2.000000,4.000000,4.000000,4.000000,2.000000,4.000000,4.000000,4.000000,4.000000,4.000000,4.000000,4.000000,4.000000,4.000000,4.000000,4.000000,4.000000,4.000000,4.000000,4.000000,4.000000,4.000000,4.000000,4.000000,4.000000,4.000000,4.000000,4.000000,66.666664
1614045952.307493,68.000000,0.000000,-6.217895,-1.333047,-61.521362,-27.952742,-20.223841,-11.832992,-9.364154,-4.367357,-9.852575,-16.996893,-15.175138,-32.572826,-24.838173,-46.803288,-41.315620,-1.880245,-29.130547,-39.599594,31.643652,-177.342789,-64.590385,-22.020235,-10.348457,-27.663649,-11.131451,-22.439390,9.592510,4.957825,-8.649240,-24.951551,-30.171494,-6.744917,0.000000,197.000000,4.000000,,,,0.000000,4.000000,4.000000,4.000000,4.000000,2.000000,4.000000,4.000000,4.000000,2.000000,4.000000,4.000000,4.000000,4.000000,4.000000,4.000000,4.000000,4.000000,4.000000,4.000000,4.000000,4.000000,4.000000,4.000000,4.000000,4.000000,4.000000,4.000000,4.000000,4.000000,4.000000,4.000000,4.000000,66.666664
1614045952.315242,69.000000,0.000000,-6.211677,-5.947098,-64.023941,-29.976070,-28.921566,-21.051928,-16.534277,-14.619399,-21.637594,-29.287588,-13.621501,-19.206921,-21.736412,-46.756481,-41.274303,2.224199,-29.101416,-40.585636,5.458162,-183.319290,-63.500153,-19.946934,-14.953494,-29.687267,-14.710063,-27.032335,8.044456,0.850303,-10.179052,-35.695831,-34.756706,-17.507402,0.000000,207.000000,4.000000,,,,0.000000,4.000000,4.000000,4.000000,4.000000,2.000000,4.000000,4.000000,4.000000,2.000000,4.000000,4.000000,4.000000,4.000000,4.000000,4.000000,4.000000,4.000000,4.000000,4.000000,4.000000,4.000000,4.000000,4.000000,4.000000,4.000000,4.000000,4.000000,4.000000,4.000000,4.000000,4.000000,4.000000,66.666664
1614045952.322891,70.000000,0.000000,-6.205465,-5.941151,-65.498383,-35.074299,-31.456747,-26.671902,-18.056204,-17.681704,-20.077496,-31.309584,-15.146341,4.402029,-18.637753,-39.017418,-41.233032,-4.957512,-18.303083,-44.134792,4.427063,-156.982132,-47.026394,-11.721858,-7.246233,-29.144760,-13.156892,-27.518124,8.549232,-1.714650,-12.220155,-34.634495,-38.311695,-16.977076,0.000000,150.000000,4.000000,,,,0.000000,4.000000,4.000000,4.000000,4.000000,2.000000,4.000000,4.000000,4.000000,2.000000,4.000000,4.000000,4.000000,4.000000,4.000000,4.000000,4.000000,4.000000,4.000000,4.000000,4.000000,4.000000,4.000000,4.000000,4.000000,4.000000,4.000000,4.000000,4.000000,4.000000,4.000000,4.000000,4.000000,66.666664
1614045952.330640,71.000000,0.000000,-6.199259,-4.909569,-64.920059,-35.552044,-31.425289,-27.158051,-17.012506,-16.125561,-16.467674,-22.560324,-13.592733,-9.448526,-19.131935,-21.542503,-30.422567,0.688471,-14.182217,-46.141941,25.961098,-135.286682,-28.005009,-2.479367,0.453321,-19.372025,-6.989889,-25.952145,8.540683,-1.712935,-12.720756,-30.497295,-38.273380,-10.293431,0.000000,203.000000,4.000000,,,,0.000000,4.000000,4.000000,4.000000,4.000000,2.000000,4.000000,4.000000,4.000000,2.000000,4.000000,4.000000,4.000000,4.000000,4.000000,4.000000,4.000000,4.000000,4.000000,4.000000,4.000000,4.000000,4.000000,4.000000,4.000000,4.000000,4.000000,4.000000,4.000000,4.000000,4.000000,4.000000,4.000000,66.666664
1614045952.338289,72.000000,0.000000,-6.193060,-5.930300,-66.393600,-29.875467,-34.470787,-26.618073,-17.508316,-16.622255,-18.502489,-26.127508,-8.450935,-24.310873,-18.599981,-12.290192,-19.622913,30.944193,-15.706495,-24.044516,58.755650,-124.382172,-20.797518,0.087215,-2.111234,-10.121883,5.324794,-16.695423,8.019321,-1.198402,-12.195214,-25.851414,-38.235107,-4.129292,0.000000,208.000000,4.000000,,,,0.000000,4.000000,4.000000,4.000000,4.000000,2.000000,4.000000,4.000000,4.000000,2.000000,4.000000,4.000000,4.000000,4.000000,4.000000,4.000000,4.000000,4.000000,4.000000,4.000000,4.000000,4.000000,4.000000,4.000000,4.000000,4.000000,4.000000,4.000000,4.000000,4.000000,4.000000,4.000000,4.000000,66.666664
1614045952.346038,73.000000,0.000000,-6.186867,-5.924370,-61.711826,-27.794310,-33.410675,-27.104275,-17.490807,-17.118454,-16.432705,-23.537277,-5.365561,0.328822,-18.068562,-15.867645,-16.526367,51.938889,-14.152328,5.723118,91.517403,-110.411629,-12.571591,0.087128,-4.160405,-7.034839,14.550238,-7.447958,8.524123,-1.197203,-12.695840,-16.594793,-38.196873,10.233811,0.000000,181.000000,4.000000,,,,0.000000,4.000000,4.000000,4.000000,4.000000,2.000000,4.000000,4.000000,4.000000,2.000000,4.000000,4.000000,4.000000,4.000000,4.000000,4.000000,4.000000,4.000000,4.000000,4.000000,4.000000,4.000000,4.000000,4.000000,4.000000,4.000000,4.000000,4.000000,4.000000,4.000000,4.000000,4.000000,4.000000,66.666664
1614045952.353688,74.000000,0.000000,-6.180680,-5.405625,-46.265499,-28.792156,-25.684958,-27.589991,-16.960495,-16.075693,-12.826529,-4.026561,-6.385837,8.020802,-17.537672,-18.928699,-18.048304,41.117722,-15.163816,-8.128759,65.784866,-117.480705,-16.148764,-2.989883,-4.156245,-4.463702,11.971585,-6.927690,8.515598,-2.734468,-12.170323,-12.988454,-38.158676,24.582552,0.000000,199.000000,4.000000,,,,0.000000,4.000000,4.000000,4.000000,4.000000,2.000000,4.000000,4.000000,4.000000,2.000000,4.000000,4.000000,4.000000,4.000000,4.000000,4.000000,4.000000,4.000000,4.000000,4.000000,4.000000,4.000000,4.000000,4.000000,4.000000,4.000000,4.000000,4.000000,4.000000,4.000000,4.000000,4.000000,4.000000,66.666664
1614045952.361437,75.000000,0.000000,-6.174500,-5.400219,-35.450001,-27.224903,-22.069529,-26.536760,-16.943535,-16.059618,-14.352163,-1.971252,-6.379451,-20.705168,-18.032955,-16.345669,-21.619999,18.512499,-17.712755,-40.428322,33.411385,-142.491440,-43.312103,-10.679200,-8.254653,-7.536161,4.267306,-7.946403,8.507083,-4.783015,-14.209435,-19.129313,-38.120518,19.942585,0.000000,165.000000,4.000000,,,,0.000000,4.000000,4.000000,4.000000,4.000000,2.000000,4.000000,4.000000,4.000000,2.000000,4.000000,4.000000,4.000000,4.000000,4.000000,4.000000,4.000000,4.000000,4.000000,4.000000,4.000000,4.000000,4.000000,4.000000,4.000000,4.000000,4.000000,4.000000,4.000000,4.000000,4.000000,4.000000,4.000000,66.666664
1614045952.369086,76.000000,0.000000,-6.168325,-5.394819,-35.927372,-29.761782,-23.585920,-26.510223,-16.926592,-16.043558,-11.773708,-15.815435,-5.860251,-24.274206,-18.527742,-19.919067,-24.675301,8.750398,-15.643761,-33.208408,47.224129,-148.502792,-55.576481,-12.206983,-11.836142,-19.836317,2.724577,-6.912816,8.498576,-5.291053,-18.297789,-21.161465,-38.082397,12.230335,0.000000,183.000000,4.000000,,,,0.000000,4.000000,4.000000,4.000000,4.000000,2.000000,4.000000,4.000000,4.000000,2.000000,4.000000,4.000000,4.000000,4.000000,4.000000,4.000000,4.000000,4.000000,4.000000,4.000000,4.000000,4.000000,4.000000,4.000000,4.000000,4.000000,4.000000,4.000000,4.000000,4.000000,4.000000,4.000000,4.000000,66.666664
1614045952.376835,77.000000,0.000000,-6.162157,-5.389424,-34.865803,-31.270481,-23.049515,-27.509354,-16.909664,-16.540335,-6.633729,-17.338081,-7.905673,-0.147368,-19.022036,-34.770943,-26.701908,8.741647,-11.525553,-16.764942,79.997414,-148.354279,-49.367058,-14.246058,-11.824306,-25.457506,0.157750,-7.418723,7.977257,-4.772941,-19.817953,-20.114662,-38.044315,16.320669,0.000000,185.000000,4.000000,,,,0.000000,4.000000,4.000000,4.000000,4.000000,2.000000,4.000000,4.000000,4.000000,2.000000,4.000000,4.000000,4.000000,4.000000,4.000000,4.000000,4.000000,4.000000,4.000000,4.000000,4.000000,4.000000,4.000000,4.000000,4.000000,4.000000,4.000000,4.000000,4.000000,4.000000,4.000000,4.000000,4.000000,66.666664
1614045952.384484,78.000000,0.000000,-6.155994,-5.384035,-29.189913,-24.059723,-19.949543,-24.917742,-16.892756,-16.010975,-9.191198,-11.679717,-9.949049,3.442523,-17.977373,-44.479763,-29.752129,9.245726,-11.001206,-33.158432,64.532806,-162.564911,-57.009998,-23.975401,-11.812481,-25.432049,-7.534715,-7.924125,7.969280,-5.280989,-20.310955,-22.658649,-38.006271,16.817169,0.000000,177.000000,4.000000,,,,0.000000,4.000000,4.000000,4.000000,4.000000,2.000000,4.000000,4.000000,4.000000,2.000000,4.000000,4.000000,4.000000,4.000000,4.000000,4.000000,4.000000,4.000000,4.000000,4.000000,4.000000,4.000000,4.000000,4.000000,4.000000,4.000000,4.000000,4.000000,4.000000,4.000000,4.000000,4.000000,4.000000,66.666664
1614045952.392233,79.000000,0.000000,-6.149838,-5.378651,-24.032518,-17.368998,-18.903952,-17.713337,-16.875862,-13.430861,-11.233289,-13.206499,-10.451921,-8.868612,-18.472216,-37.768616,-30.235197,4.108275,-10.990205,-53.125275,42.929810,-171.120285,-65.158119,-27.541170,-11.287848,-30.534822,-7.527181,-7.916201,8.474131,-5.275708,-19.777824,-16.994967,-34.378521,16.800352,0.000000,202.000000,4.000000,,,,0.000000,4.000000,4.000000,4.000000,4.000000,2.000000,4.000000,4.000000,4.000000,2.000000,4.000000,4.000000,4.000000,4.000000,4.000000,4.000000,4.000000,4.000000,4.000000,4.000000,4.000000,4.000000,4.000000,4.000000,4.000000,4.000000,4.000000,4.000000,4.000000,4.000000,4.000000,4.000000,4.000000,66.666664
1614045952.399882,80.000000,0.000000,-6.143689,-5.373272,-13.752074,-16.325987,-18.885048,-12.054598,-16.858986,-12.391789,-4.555389,-15.244575,-8.903008,-11.423846,-19.992205,-29.012897,-30.204962,0.001603,-12.004856,-56.149075,35.194572,-170.436340,-55.862190,-22.898245,-12.302201,-30.504288,2.223936,-7.908285,7.952837,-2.193509,-16.681124,-3.644638,-28.703117,32.168167,0.000000,178.000000,4.000000,,,,0.000000,4.000000,4.000000,4.000000,4.000000,2.000000,4.000000,4.000000,4.000000,2.000000,4.000000,4.000000,4.000000,4.000000,4.000000,4.000000,4.000000,4.000000,4.000000,4.000000,4.000000,4.000000,4.000000,4.000000,4.000000,4.000000,4.000000,4.000000,4.000000,4.000000,4.000000,4.000000,4.000000,66.666664
1614045952.407731,81.000000,0.000000,-6.137545,-5.367899,-1.943451,-12.719917,-18.866163,-11.529722,-16.842127,-12.379397,-2.499552,-14.203690,-3.765899,-4.745756,-12.279905,-27.445423,-31.200399,14.360576,-15.582595,-45.836514,26.954250,-167.701813,-44.011456,-18.772781,-11.777079,-24.319937,7.349917,-7.900376,6.919242,-0.652854,-12.561878,3.025674,-26.110312,47.007793,0.000000,214.000000,4.000000,,,,0.000000,4.000000,4.000000,4.000000,4.000000,2.000000,4.000000,4.000000,4.000000,2.000000,4.000000,4.000000,4.000000,4.000000,4.000000,4.000000,4.000000,4.000000,4.000000,4.000000,4.000000,4.000000,4.000000,4.000000,4.000000,4.000000,4.000000,4.000000,4.000000,4.000000,4.000000,4.000000,4.000000,66.666664
1614045952.415480,82.000000,0.000000,-6.131408,-5.362531,2.161057,-9.630274,-19.872938,-11.518193,-16.825285,-8.777274,-6.599617,-12.651024,2.904533,-4.228189,1.065708,-19.212851,-21.425608,37.935959,-11.464448,-18.098370,56.670887,-148.046921,-24.993086,-7.984778,-6.124276,-20.705873,5.291286,-7.892476,11.527708,-2.190663,-12.036496,0.971366,-26.597021,46.960785,0.000000,197.000000,4.000000,,,,0.000000,4.000000,4.000000,4.000000,4.000000,2.000000,4.000000,4.000000,4.000000,2.000000,4.000000,4.000000,4.000000,4.000000,4.000000,4.000000,4.000000,4.000000,4.000000,4.000000,4.000000,4.000000,4.000000,4.000000,4.000000,4.000000,4.000000,4.000000,4.000000,4.000000,4.000000,4.000000,4.000000,66.666664
1614045952.423329,83.000000,0.000000,-6.125276,-5.869989,0.620434,-12.184747,-22.417168,-11.506675,-16.808460,-4.665933,-4.541735,-14.176834,4.952911,-11.916269,5.680027,-2.270560,-2.942644,44.051868,-3.247855,-3.208477,89.434731,-121.232216,2.211394,8.946283,-0.989947,-9.915936,4.773174,-7.884583,18.182846,0.375631,-12.537280,0.970395,-26.570425,44.862541,0.000000,192.000000,4.000000,,,,0.000000,4.000000,4.000000,4.000000,4.000000,2.000000,4.000000,4.000000,4.000000,2.000000,4.000000,4.000000,4.000000,4.000000,4.000000,4.000000,4.000000,4.000000,4.000000,4.000000,4.000000,4.000000,4.000000,4.000000,4.000000,4.000000,4.000000,4.000000,4.000000,4.000000,4.000000,4.000000,4.000000,66.666664
1614045952.431078,84.000000,0.000000,-6.119151,-4.325658,0.619814,-14.223844,-22.394751,-11.495168,-16.791653,-4.661267,1.103833,-13.649837,5.973599,-10.878712,5.674347,5.936839,5.265427,40.418072,0.345136,-14.487319,82.678627,-113.931496,7.850208,14.578363,0.549505,7.017056,10.922247,-7.876699,19.190306,7.554742,-12.011922,1.995065,-26.543854,46.868961,0.000000,190.000000,4.000000,,,,0.000000,4.000000,4.000000,4.000000,4.000000,2.000000,4.000000,4.000000,4.000000,2.000000,4.000000,4.000000,4.000000,4.000000,4.000000,4.000000,4.000000,4.000000,4.000000,4.000000,4.000000,4.000000,4.000000,4.000000,4.000000,4.000000,4.000000,4.000000,4.000000,4.000000,4.000000,4.000000,4.000000,66.666664
1614045952.438927,85.000000,0.000000,-6.113032,-1.757229,0.619194,-13.183979,-22.885176,-11.483673,-16.774860,-4.656606,2.128370,-3.379777,8.531728,5.029603,9.771236,4.905261,4.234520,50.634064,6.498637,-6.267704,65.672867,-112.791924,-2.414052,15.076605,4.138699,11.112603,22.706196,-7.868822,22.248037,10.624110,-11.999910,0.967429,-27.030130,45.796452,0.000000,197.000000,4.000000,,,,0.000000,4.000000,4.000000,4.000000,4.000000,2.000000,4.000000,4.000000,4.000000,2.000000,4.000000,4.000000,4.000000,4.000000,4.000000,4.000000,4.000000,4.000000,4.000000,4.000000,4.000000,4.000000,4.000000,4.000000,4.000000,4.000000,4.000000,4.000000,4.000000,4.000000,4.000000,4.000000,4.000000,66.666664
1614045952.446677,86.000000,0.000000,-6.106919,-1.242652,0.105754,-14.196436,-26.452034,-11.985009,-16.758085,-4.651949,0.587780,6.367193,7.497555,7.588676,11.812748,3.874715,5.255927,58.788559,14.184446,12.200103,80.991814,-107.038101,-6.001382,18.138453,7.724304,10.075850,26.786055,-7.860953,29.918097,9.587846,-12.500731,0.966462,-27.515921,45.237835,0.000000,192.000000,4.000000,,,,0.000000,4.000000,4.000000,4.000000,4.000000,2.000000,4.000000,4.000000,4.000000,2.000000,4.000000,4.000000,4.000000,4.000000,4.000000,4.000000,4.000000,4.000000,4.000000,4.000000,4.000000,4.000000,4.000000,4.000000,4.000000,4.000000,4.000000,4.000000,4.000000,4.000000,4.000000,4.000000,4.000000,66.666664
1614045952.454526,87.000000,0.000000,-6.100812,-1.754230,0.105648,-13.156598,-25.399940,-11.460204,-16.741327,-6.185759,1.612833,-0.305841,4.925955,-6.777887,11.800935,3.870840,1.660927,43.345154,11.606159,-4.735175,81.936462,-110.007988,-13.687688,11.453647,7.203759,11.091415,18.554140,-7.853092,28.349718,9.578258,-13.001051,0.452675,-26.462765,47.243877,0.000000,208.000000,4.000000,,,,0.000000,4.000000,4.000000,4.000000,4.000000,2.000000,4.000000,4.000000,4.000000,2.000000,4.000000,4.000000,4.000000,4.000000,4.000000,4.000000,4.000000,4.000000,4.000000,4.000000,4.000000,4.000000,4.000000,4.000000,4.000000,4.000000,4.000000,4.000000,4.000000,4.000000,4.000000,4.000000,4.000000,66.666664
1614045952.462275,88.000000,0.000000,-6.094711,-1.752475,-0.920098,-13.656262,-23.836079,-11.448744,-16.724586,-7.718034,2.124041,-9.023484,5.946670,-9.335212,12.301954,5.405430,-5.007401,27.404375,8.004809,-21.140696,65.444267,-116.051826,-27.520155,3.749885,6.683735,3.388016,13.920201,-7.845239,18.064959,10.081500,-12.475229,-1.599060,-27.461943,49.247917,0.000000,201.000000,4.000000,,,,0.000000,4.000000,4.000000,4.000000,4.000000,2.000000,4.000000,4.000000,4.000000,2.000000,4.000000,4.000000,4.000000,4.000000,4.000000,4.000000,4.000000,4.000000,4.000000,4.000000,4.000000,4.000000,4.000000,4.000000,4.000000,4.000000,4.000000,4.000000,4.000000,4.000000,4.000000,4.000000,4.000000,66.666664
1614045952.470124,89.000000,0.000000,-6.088616,-1.750723,0.619283,-15.181067,-30.478910,-13.488577,-16.707861,-10.787239,-0.955006,-9.014461,-0.213123,-3.684851,5.622986,-0.241001,-9.617778,26.864149,6.458343,-13.940068,60.763439,-122.602440,-38.774685,2.207674,7.189871,-7.384603,12.880640,-7.837394,14.457150,9.045777,-12.462753,-3.135922,-27.434481,48.173027,0.000000,197.000000,4.000000,,,,0.000000,4.000000,4.000000,4.000000,4.000000,2.000000,4.000000,4.000000,4.000000,2.000000,4.000000,4.000000,4.000000,4.000000,4.000000,4.000000,4.000000,4.000000,4.000000,4.000000,4.000000,4.000000,4.000000,4.000000,4.000000,4.000000,4.000000,4.000000,4.000000,4.000000,4.000000,4.000000,4.000000,66.666664
1614045952.477873,90.000000,0.000000,-6.082528,-1.748972,8.823792,-9.012040,-36.602276,-15.526371,-16.178333,-15.391837,-6.082256,-17.723394,-12.007781,-10.860653,-5.151868,-20.753580,-18.838930,21.196260,-3.804526,-28.797922,47.882164,-140.428558,-54.120525,-7.538124,5.131400,-12.505424,0.560067,-7.829556,15.981153,10.062372,-12.963112,-2.619966,-22.791660,49.150497,0.000000,195.000000,4.000000,,,,0.000000,4.000000,4.000000,4.000000,4.000000,2.000000,4.000000,4.000000,4.000000,2.000000,4.000000,4.000000,4.000000,4.000000,4.000000,4.000000,4.000000,4.000000,4.000000,4.000000,4.000000,4.000000,4.000000,4.000000,4.000000,4.000000,4.000000,4.000000,4.000000,4.000000,4.000000,4.000000,4.000000,66.666664
1614045952.485722,91.000000,0.000000,-6.076445,-1.747223,14.968815,-3.362003,-34.514393,-15.510844,-16.162155,-15.376445,-6.588995,-33.603107,-10.970133,-15.465178,-8.736460,-35.091801,-25.999577,16.046858,-10.980208,-48.256306,35.526588,-153.621460,-64.322815,-20.351099,3.074986,-21.210867,-11.235365,-7.821727,15.452352,12.616413,-11.924507,-0.566064,-16.102203,53.203911,0.000000,203.000000,4.000000,,,,0.000000,4.000000,4.000000,4.000000,4.000000,2.000000,4.000000,4.000000,4.000000,2.000000,4.000000,4.000000,4.000000,4.000000,4.000000,4.000000,4.000000,4.000000,4.000000,4.000000,4.000000,4.000000,4.000000,4.000000,4.000000,4.000000,4.000000,4.000000,4.000000,4.000000,4.000000,4.000000,4.000000,66.666664
1614045952.493471,92.000000,0.000000,-6.070369,-1.745476,14.441026,-6.948384,-34.479877,-15.495334,-16.658813,-11.771325,-5.556765,-38.184891,-6.343778,-5.193302,-6.676441,-29.928503,-22.383835,24.748760,-7.892305,-37.951637,39.080807,-151.929382,-57.079006,-18.279465,3.071911,-27.856323,-3.019001,-7.813905,14.411259,13.116617,-7.297198,0.972964,-15.060459,57.253269,0.000000,179.000000,4.000000,,,,0.000000,4.000000,4.000000,4.000000,4.000000,2.000000,4.000000,4.000000,4.000000,2.000000,4.000000,4.000000,4.000000,4.000000,4.000000,4.000000,4.000000,4.000000,4.000000,4.000000,4.000000,4.000000,4.000000,4.000000,4.000000,4.000000,4.000000,4.000000,4.000000,4.000000,4.000000,4.000000,4.000000,66.666664
1614045952.501220,93.000000,0.000000,-6.064298,-1.743730,14.939404,-8.479897,-37.522324,-15.479838,-16.129333,-12.785194,-9.140951,-33.531319,-15.568203,-1.598365,-7.695406,-23.231909,-22.874271,19.082985,-9.935695,-36.375225,35.451981,-153.828735,-47.278336,-17.235544,3.581660,-24.238722,9.291710,-7.806091,14.909668,13.103500,-4.725799,0.971991,-16.071039,58.734478,0.000000,173.000000,4.000000,,,,0.000000,4.000000,4.000000,4.000000,4.000000,2.000000,4.000000,4.000000,4.000000,2.000000,4.000000,4.000000,4.000000,4.000000,4.000000,4.000000,4.000000,4.000000,4.000000,4.000000,4.000000,4.000000,4.000000,4.000000,4.000000,4.000000,4.000000,4.000000,4.000000,4.000000,4.000000,4.000000,4.000000,66.666664
1614045952.508969,94.000000,0.000000,-6.058234,-1.741987,18.001389,-2.830392,-36.971977,-15.464358,-15.600384,-15.336512,-13.234375,-25.805481,-22.219301,-7.750613,-8.200531,-23.208677,-23.364218,9.833134,-11.464221,-38.390133,47.211403,-149.059525,-36.974648,-16.705488,3.065258,-21.137560,9.795238,-7.798285,15.407578,13.603217,-5.233893,0.971019,-15.542149,58.675743,0.000000,201.000000,4.000000,,,,0.000000,4.000000,4.000000,4.000000,4.000000,2.000000,4.000000,4.000000,4.000000,2.000000,4.000000,4.000000,4.000000,4.000000,4.000000,4.000000,4.000000,4.000000,4.000000,4.000000,4.000000,4.000000,4.000000,4.000000,4.000000,4.000000,4.000000,4.000000,4.000000,4.000000,4.000000,4.000000,4.000000,66.666664
1614045952.516618,95.000000,0.000000,-6.052176,-1.740245,19.009027,-4.366023,-36.935005,-16.987356,-19.174526,-15.833996,-13.733961,-18.600187,-16.043236,-8.255683,-3.576946,-22.672647,-5.392135,31.361761,-1.196346,-8.095331,79.984703,-123.782257,-14.373571,1.259935,3.575013,-18.039499,8.246982,-7.790487,15.904991,12.051152,-5.228659,0.970048,-15.526607,59.129890,0.000000,212.000000,4.000000,,,,0.000000,4.000000,4.000000,4.000000,4.000000,2.000000,4.000000,4.000000,4.000000,2.000000,4.000000,4.000000,4.000000,4.000000,4.000000,4.000000,4.000000,4.000000,4.000000,4.000000,4.000000,4.000000,4.000000,4.000000,4.000000,4.000000,4.000000,4.000000,4.000000,4.000000,4.000000,4.000000,4.000000,66.666664
1614045952.524367,96.000000,0.000000,-6.046124,-1.738505,16.938738,-10.002683,-39.462173,-19.021650,-23.770737,-15.305342,-12.694586,-23.709793,-14.488731,-9.785889,-3.573369,-20.598694,-1.284179,41.073990,2.394594,-2.959031,74.776512,-115.453346,-7.179710,8.950982,3.571438,-5.713768,10.290017,-7.782697,14.863445,9.987820,-4.710610,0.969078,-16.023901,62.147682,8064.000000,0.000000,4.000000,,,,0.000000,4.000000,4.000000,4.000000,4.000000,2.000000,4.000000,4.000000,4.000000,2.000000,4.000000,4.000000,4.000000,4.000000,4.000000,4.000000,4.000000,4.000000,4.000000,4.000000,4.000000,4.000000,4.000000,4.000000,4.000000,4.000000,4.000000,4.000000,4.000000,4.000000,4.000000,4.000000,4.000000,66.666664
1614045952.532016,97.000000,0.000000,-6.040078,-1.736766,17.947439,-11.018321,-40.961174,-19.002628,-24.259787,-15.802856,-13.194712,-31.378391,-20.115269,-14.904307,-10.236462,-22.116556,-27.949562,10.776505,-9.915493,-35.263763,42.394043,-137.901993,-24.095608,-5.416943,1.003764,-0.579849,9.766907,-7.774914,15.361403,8.952190,-5.731541,0.968109,-16.007875,62.085533,8064.000000,0.000000,4.000000,,,,0.000000,4.000000,4.000000,4.000000,4.000000,2.000000,4.000000,4.000000,4.000000,2.000000,4.000000,4.000000,4.000000,4.000000,4.000000,4.000000,4.000000,4.000000,4.000000,4.000000,4.000000,4.000000,4.000000,4.000000,4.000000,4.000000,4.000000,4.000000,4.000000,4.000000,4.000000,4.000000,4.000000,66.666664
1614045952.539765,98.000000,0.000000,-6.546858,-1.735029,22.544876,-9.468842,-40.407391,-18.983625,-23.209887,-15.787054,-13.694338,-23.654705,-19.069511,-12.325301,-9.200584,-21.068798,-32.024178,10.765729,-16.059423,-33.177219,42.864471,-143.405121,-27.148436,-4.898705,-1.048522,-8.271577,9.757139,-8.279960,20.474247,8.943238,-4.700168,0.967140,-16.504688,62.023449,8064.000000,0.000000,4.000000,,,,0.000000,4.000000,4.000000,4.000000,4.000000,2.000000,4.000000,4.000000,4.000000,2.000000,4.000000,4.000000,4.000000,4.000000,4.000000,4.000000,4.000000,4.000000,4.000000,4.000000,4.000000,4.000000,4.000000,4.000000,4.000000,4.000000,4.000000,4.000000,4.000000,4.000000,4.000000,4.000000,4.000000,66.666664
1614045952.547415,99.000000,0.000000,-6.027491,-1.733294,25.599255,-8.433731,-39.854164,-18.964642,-23.699497,-14.745625,-12.655002,-16.451563,-15.973519,-10.261693,-2.524717,-17.457985,-8.915229,41.524193,-9.889518,-1.349169,75.642120,-127.364273,-16.864876,5.875424,-0.534653,-6.212024,13.337126,-7.758859,21.992233,9.447116,-2.131365,0.966173,-15.462543,71.192192,8064.000000,0.000000,4.000000,,,,0.000000,4.000000,4.000000,4.000000,4.000000,2.000000,4.000000,4.000000,4.000000,2.000000,4.000000,4.000000,4.000000,4.000000,4.000000,4.000000,4.000000,4.000000,4.000000,4.000000,4.000000,4.000000,4.000000,4.000000,4.000000,4.000000,4.000000,4.000000,4.000000,4.000000,4.000000,4.000000,4.000000,66.666664
1614045952.555164,100.000000,0.000000,-6.021463,-1.731561,25.573656,-6.374015,-39.814312,-18.945677,-23.675797,-17.294983,-12.129526,-29.768444,-15.957546,-16.405277,-9.188859,-22.055912,-18.649902,30.200619,-10.392449,-24.937563,54.028015,-137.493317,-29.155704,-8.489426,-5.149503,-1.590427,11.272507,-7.751100,16.842037,9.437669,-1.103593,0.965207,-12.882978,75.223564,8064.000000,0.000000,4.000000,,,,0.000000,4.000000,4.000000,4.000000,4.000000,2.000000,4.000000,4.000000,4.000000,2.000000,4.000000,4.000000,4.000000,4.000000,4.000000,4.000000,4.000000,4.000000,4.000000,4.000000,4.000000,4.000000,4.000000,4.000000,4.000000,4.000000,4.000000,4.000000,4.000000,4.000000,4.000000,4.000000,4.000000,66.666664
1614045952.562813,101.000000,0.000000,-6.528262,-1.729829,25.548082,-5.854821,-40.287315,-18.413912,-23.652121,-21.893072,-14.168679,-46.148933,-17.992870,-19.978617,-20.974543,-33.315907,-45.297920,-1.111633,-18.074364,-57.220318,21.666296,-162.996857,-48.100906,-25.404013,-11.811020,-13.896529,4.081747,-8.768991,14.261091,7.889769,-1.615310,0.964242,-12.357275,63.866291,8064.000000,0.000000,4.000000,,,,0.000000,4.000000,4.000000,4.000000,4.000000,2.000000,4.000000,4.000000,4.000000,2.000000,4.000000,4.000000,4.000000,4.000000,4.000000,4.000000,4.000000,4.000000,4.000000,4.000000,4.000000,4.000000,4.000000,4.000000,4.000000,4.000000,4.000000,4.000000,4.000000,4.000000,4.000000,4.000000,4.000000,66.666664
