title:03, start timestamp:1614409202.869132, stop timestamp:1614409248.549498, headset type:EPOCFLEX, headset serial:F00001ED, headset firmware:f12, subject name:s12, channels:75, sampling rate:128, samples:5895      , version:2.0
Timestamp,EEG.Counter,EEG.Interpolated,EEG.Cz,EEG.Fz,EEG.Fp1,EEG.AF3,EEG.F7,EEG.F3,EEG.FC1,EEG.C3,EEG.FC5,EEG.T7,EEG.CP5,EEG.CP1,EEG.P3,EEG.P7,EEG.PO3,EEG.O1,EEG.Pz,EEG.Oz,EEG.O2,EEG.PO4,EEG.P8,EEG.P4,EEG.CP2,EEG.CP6,EEG.T8,EEG.FC6,EEG.C4,EEG.FC2,EEG.F4,EEG.F8,EEG.AF4,EEG.Fp2,EEG.HighBitFlex,EEG.RawCq,EEG.Battery,MarkerIndex,MarkerType,MarkerValueInt,EEG.MarkerHardware,CQ.Cz,CQ.Fz,CQ.Fp1,CQ.AF3,CQ.F7,CQ.F3,CQ.FC1,CQ.C3,CQ.FC5,CQ.T7,CQ.CP5,CQ.CP1,CQ.P3,CQ.P7,CQ.PO3,CQ.O1,CQ.Pz,CQ.Oz,CQ.O2,CQ.PO4,CQ.P8,CQ.P4,CQ.CP2,CQ.CP6,CQ.T8,CQ.FC6,CQ.C4,CQ.FC2,CQ.F4,CQ.F8,CQ.AF4,CQ.Fp2,CQ.Overall
1614409202.869132,114.000000,0.000000,5.387722,4.909159,-6.883761,2.060063,1.918467,4.752305,-2.815870,2.434223,6.206555,-6.866965,0.666548,7.357435,0.456399,-2.966680,8.869603,68.511253,15.068897,25.560163,17.207043,-1.283405,1.838304,-2.575241,5.285264,3.481913,20.462437,25.866659,11.602227,8.419234,10.133618,25.910568,8.499721,-8.891466,8064.000000,0.000000,4.000000,,,,0.000000,4.000000,4.000000,4.000000,2.000000,4.000000,4.000000,4.000000,2.000000,4.000000,4.000000,4.000000,4.000000,4.000000,4.000000,4.000000,4.000000,4.000000,4.000000,4.000000,4.000000,4.000000,4.000000,4.000000,4.000000,4.000000,4.000000,4.000000,4.000000,4.000000,4.000000,4.000000,4.000000,66.666664
1614409202.876981,115.000000,0.000000,10.510540,4.904250,-3.287134,3.596464,6.019113,10.901399,-2.813054,3.457430,6.200348,3.396312,3.229984,8.375719,0.455942,-3.989355,15.014580,80.750435,18.643572,40.919220,22.318041,3.846083,2.862107,4.094001,8.869721,10.657919,21.467615,30.456177,11.590625,12.000559,14.226048,27.423120,19.260452,3.425118,8192.000000,0.000000,4.000000,,,,0.000000,4.000000,4.000000,4.000000,2.000000,4.000000,4.000000,4.000000,2.000000,4.000000,4.000000,4.000000,4.000000,4.000000,4.000000,4.000000,4.000000,4.000000,4.000000,4.000000,4.000000,4.000000,4.000000,4.000000,4.000000,4.000000,4.000000,4.000000,4.000000,4.000000,4.000000,4.000000,4.000000,66.666664
1614409202.884730,116.000000,0.000000,9.987208,4.899346,-5.847949,1.541586,6.013093,7.300753,-2.810241,5.505255,5.681328,0.828813,4.252395,7.341702,-0.057334,-4.498186,12.435463,80.669685,16.060825,38.827019,9.988031,2.816597,1.320783,2.038625,9.373672,13.724184,17.856403,17.605207,11.579034,12.501379,13.186182,25.344416,14.625807,3.934513,8064.000000,0.000000,4.000000,,,,0.000000,4.000000,4.000000,4.000000,2.000000,4.000000,4.000000,4.000000,2.000000,4.000000,4.000000,4.000000,4.000000,4.000000,4.000000,4.000000,4.000000,4.000000,4.000000,4.000000,4.000000,4.000000,4.000000,4.000000,4.000000,4.000000,4.000000,4.000000,4.000000,4.000000,4.000000,4.000000,4.000000,66.666664
1614409202.892580,117.000000,0.000000,9.464401,4.894446,-8.406204,-1.024058,3.955798,1.652427,-2.294611,5.499750,5.675646,-2.761759,4.760963,7.847181,0.455544,-3.980867,15.499950,83.153114,17.070406,38.275368,7.413941,8.454805,2.857924,2.036586,9.364299,10.633536,15.274445,6.818372,11.567455,11.976057,12.660175,23.267788,1.790668,-14.018139,8064.000000,0.000000,4.000000,,,,0.000000,4.000000,4.000000,4.000000,2.000000,4.000000,4.000000,4.000000,2.000000,4.000000,4.000000,4.000000,4.000000,4.000000,4.000000,4.000000,4.000000,4.000000,4.000000,4.000000,4.000000,4.000000,4.000000,4.000000,4.000000,4.000000,4.000000,4.000000,4.000000,4.000000,4.000000,4.000000,4.000000,66.666664
1614409202.900329,118.000000,0.000000,9.967757,4.889552,-8.397798,-1.535855,2.413381,1.650774,-2.805136,2.930147,5.669971,-1.220536,4.243382,8.352155,0.967909,-3.464066,15.484450,83.069962,16.540516,37.724274,10.483450,5.369428,-0.221857,3.573011,7.816473,11.648544,12.182247,7.837194,11.555888,12.476902,13.160336,21.706059,0.763236,-21.696428,8064.000000,0.000000,4.000000,,,,0.000000,4.000000,4.000000,4.000000,2.000000,4.000000,4.000000,4.000000,2.000000,4.000000,4.000000,4.000000,4.000000,4.000000,4.000000,4.000000,4.000000,4.000000,4.000000,4.000000,4.000000,4.000000,4.000000,4.000000,4.000000,4.000000,4.000000,4.000000,4.000000,4.000000,4.000000,4.000000,4.000000,66.666664
1614409202.908178,119.000000,0.000000,9.957789,4.884662,-9.927861,-1.021498,-0.665955,2.161944,-5.366434,3.440037,4.125839,-2.757777,3.213497,6.805341,-0.571521,-3.973422,10.340761,77.858688,13.959872,27.430140,8.421684,-6.430814,-6.888302,-0.533126,3.193272,12.662537,9.093142,8.854998,11.544332,10.925963,13.147175,20.145891,3.326576,-16.033707,8064.000000,0.000000,4.000000,,,,0.000000,4.000000,4.000000,4.000000,2.000000,4.000000,4.000000,4.000000,2.000000,4.000000,4.000000,4.000000,4.000000,4.000000,4.000000,4.000000,4.000000,4.000000,4.000000,4.000000,4.000000,4.000000,4.000000,4.000000,4.000000,4.000000,4.000000,4.000000,4.000000,4.000000,4.000000,4.000000,4.000000,66.666664
1614409202.915927,120.000000,0.000000,9.947831,4.879778,-11.969215,-0.507656,-5.280674,-0.404320,-6.386708,2.410957,0.531970,-7.883224,1.159002,4.234433,-3.135052,-2.430987,5.202215,65.473137,13.433092,19.197580,5.849160,-8.988485,-7.394234,-4.122336,0.625976,11.111412,9.084048,7.307682,11.532787,8.350935,13.134027,18.074463,3.323249,-17.556135,8064.000000,0.000000,4.000000,,,,0.000000,4.000000,4.000000,4.000000,2.000000,4.000000,4.000000,4.000000,2.000000,4.000000,4.000000,4.000000,4.000000,4.000000,4.000000,4.000000,4.000000,4.000000,4.000000,4.000000,4.000000,4.000000,4.000000,4.000000,4.000000,4.000000,4.000000,4.000000,4.000000,4.000000,4.000000,4.000000,4.000000,66.666664
1614409202.923677,121.000000,0.000000,9.937883,5.387719,-11.957247,-1.532790,-5.788214,-2.455198,-6.893142,-2.719660,-1.519844,-9.926623,0.132202,3.717378,-3.644737,1.674008,5.197013,57.715355,13.419659,24.306589,5.843311,-4.876933,-4.822737,-2.579753,1.650991,9.561839,10.100605,7.813194,11.521255,7.829763,13.120893,18.569210,4.858387,-20.615501,8064.000000,0.000000,4.000000,,,,0.000000,4.000000,4.000000,4.000000,2.000000,4.000000,4.000000,4.000000,2.000000,4.000000,4.000000,4.000000,4.000000,4.000000,4.000000,4.000000,4.000000,4.000000,4.000000,4.000000,4.000000,4.000000,4.000000,4.000000,4.000000,4.000000,4.000000,4.000000,4.000000,4.000000,4.000000,4.000000,4.000000,66.666664
1614409202.931426,122.000000,0.000000,9.927946,4.869510,-11.432468,-1.018437,-1.679862,0.111360,-6.886249,-3.229760,-2.031145,-6.326953,0.644890,4.226481,-3.128272,4.749257,19.037970,83.811485,13.406240,40.179718,14.042596,-1.282312,-4.305094,-0.525891,1.649340,8.013816,9.064863,8.318202,11.509733,8.334754,13.107773,21.627563,6.391990,-15.466681,8064.000000,0.000000,4.000000,,,,0.000000,4.000000,4.000000,4.000000,2.000000,4.000000,4.000000,4.000000,2.000000,4.000000,4.000000,4.000000,4.000000,4.000000,4.000000,4.000000,4.000000,4.000000,4.000000,4.000000,4.000000,4.000000,4.000000,4.000000,4.000000,4.000000,4.000000,4.000000,4.000000,4.000000,4.000000,4.000000,4.000000,66.666664
1614409202.939076,123.000000,0.000000,9.918017,4.864641,-8.344113,3.085146,1.911562,8.829197,-5.340901,2.414495,0.022168,-2.218062,1.157066,4.222254,-3.125144,4.744508,31.326624,106.804596,13.392833,42.703640,18.131117,3.847175,-4.300789,-1.038185,1.134870,9.031444,9.568620,8.309883,11.498223,8.326419,13.094666,22.118757,9.462522,-11.861470,8064.000000,0.000000,4.000000,,,,0.000000,4.000000,4.000000,4.000000,2.000000,4.000000,4.000000,4.000000,2.000000,4.000000,4.000000,4.000000,4.000000,4.000000,4.000000,4.000000,4.000000,4.000000,4.000000,4.000000,4.000000,4.000000,4.000000,4.000000,4.000000,4.000000,4.000000,4.000000,4.000000,4.000000,4.000000,4.000000,4.000000,66.666664
1614409202.946825,124.000000,0.000000,9.908100,5.372597,-6.797307,6.158984,2.422471,15.999855,-3.284278,3.950542,2.586249,-2.215844,-0.382553,4.218032,-3.634839,-0.388442,14.885041,74.390099,9.789697,20.609655,3.754012,-0.772057,-6.347770,-2.062788,1.646556,9.535233,10.584692,8.301574,11.999546,8.318092,13.081571,22.609459,14.068443,-11.336788,8064.000000,0.000000,4.000000,,,,0.000000,4.000000,4.000000,4.000000,2.000000,4.000000,4.000000,4.000000,2.000000,4.000000,4.000000,4.000000,4.000000,4.000000,4.000000,4.000000,4.000000,4.000000,4.000000,4.000000,4.000000,4.000000,4.000000,4.000000,4.000000,4.000000,4.000000,4.000000,4.000000,4.000000,4.000000,4.000000,4.000000,66.666664
1614409202.954474,125.000000,0.000000,9.898191,4.854403,-12.944356,1.024620,-1.169695,10.855650,-2.255353,2.408130,0.019560,-7.341833,-4.997555,4.213814,-3.118384,-10.644464,-7.181126,42.008018,5.677343,4.691609,-11.634357,-14.617438,-15.059371,-6.676110,1.644910,4.910312,7.497184,8.293272,10.961905,8.309774,13.581309,23.099669,14.054375,-10.812631,8064.000000,0.000000,4.000000,,,,0.000000,4.000000,4.000000,4.000000,2.000000,4.000000,4.000000,4.000000,2.000000,4.000000,4.000000,4.000000,4.000000,4.000000,4.000000,4.000000,4.000000,4.000000,4.000000,4.000000,4.000000,4.000000,4.000000,4.000000,4.000000,4.000000,4.000000,4.000000,4.000000,4.000000,4.000000,4.000000,4.000000,66.666664
1614409202.962224,126.000000,0.000000,9.888293,0.234164,-23.700644,-5.130251,-6.809551,0.075564,-2.765918,2.918542,-4.595844,-14.513979,-7.043839,4.209600,-2.602445,-18.838947,-9.225227,47.094215,5.671666,3.148456,-12.135544,-19.218206,-22.223799,-11.797639,1.643265,-3.299726,0.823020,8.284979,6.848380,8.301465,13.054908,16.409903,10.963398,-14.904383,8064.000000,0.000000,4.000000,,,,0.000000,4.000000,4.000000,4.000000,2.000000,4.000000,4.000000,4.000000,2.000000,4.000000,4.000000,4.000000,4.000000,4.000000,4.000000,4.000000,4.000000,4.000000,4.000000,4.000000,4.000000,4.000000,4.000000,4.000000,4.000000,4.000000,4.000000,4.000000,4.000000,4.000000,4.000000,4.000000,4.000000,66.666664
1614409202.969873,127.000000,0.000000,9.878406,-2.842993,-27.266685,-5.125121,-9.366844,-4.539896,-2.763152,3.428444,-5.616889,-20.140490,-6.523975,4.205390,-5.163945,-18.820108,-9.728823,46.534302,6.691635,-7.111103,-13.661870,-15.609243,-23.227217,-11.273021,1.641621,-6.886170,-1.741906,8.276693,4.277429,8.293163,13.041853,7.675544,10.439613,-22.068966,8064.000000,0.000000,4.000000,,,,0.000000,4.000000,4.000000,4.000000,2.000000,4.000000,4.000000,4.000000,4.000000,4.000000,4.000000,4.000000,4.000000,4.000000,4.000000,4.000000,4.000000,4.000000,4.000000,4.000000,4.000000,4.000000,4.000000,4.000000,4.000000,4.000000,4.000000,4.000000,4.000000,4.000000,4.000000,4.000000,4.000000,83.333336
1614409202.977622,0.000000,0.000000,9.868526,-2.327329,-26.213778,-4.094355,-8.844657,-4.535357,-2.760389,2.912195,-4.585632,-19.607529,-7.030272,4.201185,-6.697242,-16.237186,-11.257555,39.308277,5.146482,-7.616812,-13.648208,-15.593635,-22.691168,-6.646363,0.614339,-5.853643,-1.740164,8.268417,3.760331,8.284870,13.541632,7.155048,7.352251,-23.072538,0.000000,168.000000,4.000000,,,,0.000000,4.000000,4.000000,4.000000,2.000000,4.000000,4.000000,4.000000,4.000000,4.000000,4.000000,4.000000,4.000000,4.000000,4.000000,4.000000,4.000000,4.000000,4.000000,4.000000,4.000000,4.000000,4.000000,4.000000,4.000000,4.000000,4.000000,4.000000,4.000000,4.000000,4.000000,4.000000,4.000000,83.333336
1614409202.985272,1.000000,0.000000,9.858658,-2.325002,-26.187565,-5.115901,-8.835813,-4.530821,-2.757629,2.909283,-5.093866,-17.023819,-6.510421,4.196984,-4.639263,-14.682487,3.112677,65.935638,7.192617,13.929266,-6.455072,-13.013938,-24.206940,-3.562794,2.665006,-5.847789,-1.225603,8.260149,4.269391,8.276586,11.476808,7.147893,2.729514,-26.126389,0.000000,194.000000,4.000000,,,,0.000000,4.000000,4.000000,4.000000,2.000000,4.000000,4.000000,4.000000,4.000000,4.000000,4.000000,4.000000,4.000000,4.000000,4.000000,4.000000,4.000000,4.000000,4.000000,4.000000,4.000000,4.000000,4.000000,4.000000,4.000000,4.000000,4.000000,4.000000,4.000000,4.000000,4.000000,4.000000,4.000000,83.333336
1614409202.993021,2.000000,0.000000,9.848800,-4.886779,-28.212658,-5.110785,-9.339797,-5.039111,-2.754871,2.906374,-5.601593,-16.493975,-3.426987,4.192787,-2.583342,-14.667805,13.365974,82.792778,10.262347,19.043543,-9.012720,-9.924002,-24.182732,-7.148974,4.713624,-6.354762,-1.224377,7.226247,3.752301,6.217027,6.849946,1.499720,2.213964,-36.356670,0.000000,206.000000,4.000000,,,,0.000000,4.000000,4.000000,4.000000,2.000000,4.000000,4.000000,4.000000,4.000000,4.000000,4.000000,4.000000,4.000000,4.000000,4.000000,4.000000,4.000000,4.000000,4.000000,4.000000,4.000000,4.000000,4.000000,4.000000,4.000000,4.000000,4.000000,4.000000,4.000000,4.000000,4.000000,4.000000,4.000000,83.333336
1614409203.000670,3.000000,0.000000,9.838951,-6.420354,-30.235727,-4.592854,-9.330457,-5.034072,-2.752116,2.903467,-5.083171,-16.477480,-3.423560,4.188594,-3.093579,-14.140316,7.198762,65.786911,6.149521,1.588601,-17.208836,-16.067923,-21.594446,-18.936697,2.144807,-6.861228,-6.864179,4.654919,4.261369,4.672348,4.791814,-0.553062,0.673289,-39.397240,0.000000,183.000000,4.000000,,,,0.000000,4.000000,4.000000,4.000000,4.000000,4.000000,4.000000,4.000000,4.000000,4.000000,4.000000,4.000000,4.000000,4.000000,4.000000,4.000000,4.000000,4.000000,4.000000,4.000000,4.000000,4.000000,4.000000,4.000000,4.000000,4.000000,4.000000,4.000000,4.000000,4.000000,4.000000,4.000000,4.000000,100.000000
1614409203.008420,4.000000,0.000000,9.829112,-5.901114,-30.205492,-4.588261,-8.808306,-4.516217,-2.749364,2.900564,-5.078088,-15.948183,-5.984239,4.184406,-3.090486,-14.126176,2.576179,69.310867,-0.523295,2.099833,-16.165985,-22.718523,-23.624134,-23.020325,-1.447081,-5.828725,-12.498340,4.137443,4.257108,4.667676,5.812664,-0.039689,-1.378667,-32.178352,0.000000,159.000000,4.000000,,,,0.000000,4.000000,4.000000,4.000000,4.000000,4.000000,4.000000,4.000000,4.000000,4.000000,4.000000,4.000000,4.000000,4.000000,4.000000,4.000000,4.000000,4.000000,4.000000,4.000000,4.000000,4.000000,4.000000,4.000000,4.000000,4.000000,4.000000,4.000000,4.000000,4.000000,4.000000,4.000000,4.000000,100.000000
1614409203.016069,5.000000,0.000000,9.819283,-5.895212,-29.662466,-4.583673,-8.799498,-4.511701,-2.746615,2.897663,-5.585830,-15.932235,-7.003896,4.180222,-2.574574,-13.599230,2.573603,93.856941,-2.061233,15.943887,-13.585717,-21.157343,-22.062048,-13.253715,0.605648,-4.797256,-7.357636,5.671767,5.278491,4.150187,5.806851,-0.552469,-1.377288,-30.094893,0.000000,198.000000,4.000000,,,,0.000000,4.000000,4.000000,4.000000,4.000000,4.000000,4.000000,4.000000,4.000000,4.000000,4.000000,4.000000,4.000000,4.000000,4.000000,4.000000,4.000000,4.000000,4.000000,4.000000,4.000000,4.000000,4.000000,4.000000,4.000000,4.000000,4.000000,4.000000,4.000000,4.000000,4.000000,4.000000,4.000000,100.000000
1614409203.023819,6.000000,0.000000,9.809464,-5.889317,-30.658445,-4.579089,-9.816339,-5.020010,-2.743868,2.894766,-4.554604,-14.890661,-6.484072,4.176041,-3.597641,-12.047169,3.596670,100.942566,-1.033531,26.184353,-2.802901,-9.341313,-3.065627,-4.009692,2.143504,-6.843740,1.880490,6.691737,6.811675,4.658858,5.288224,2.525006,-1.888731,-31.090439,0.000000,191.000000,4.000000,,,,0.000000,4.000000,4.000000,4.000000,4.000000,4.000000,4.000000,4.000000,4.000000,4.000000,4.000000,4.000000,4.000000,4.000000,4.000000,4.000000,4.000000,4.000000,4.000000,4.000000,4.000000,4.000000,4.000000,4.000000,4.000000,4.000000,4.000000,4.000000,4.000000,4.000000,4.000000,4.000000,4.000000,100.000000
1614409203.031468,7.000000,0.000000,9.799654,-5.883428,-26.525223,-4.574510,-6.729600,-4.502169,-2.741124,2.891871,-2.498767,-12.311668,-6.477588,4.171865,-3.081223,-9.983839,7.182817,97.764702,-1.032497,31.799194,15.148621,5.027003,14.886156,-4.005682,2.141360,-3.759974,8.545277,8.223506,8.856145,9.269584,5.795756,9.189148,-0.861202,-23.879862,0.000000,205.000000,4.000000,,,,0.000000,4.000000,4.000000,4.000000,4.000000,4.000000,4.000000,4.000000,4.000000,4.000000,4.000000,4.000000,4.000000,4.000000,4.000000,4.000000,4.000000,4.000000,4.000000,4.000000,4.000000,4.000000,4.000000,4.000000,4.000000,4.000000,4.000000,4.000000,4.000000,4.000000,4.000000,4.000000,4.000000,100.000000
1614409203.039217,8.000000,0.000000,10.302675,-5.877544,-17.780748,-3.031474,0.969437,-1.933565,-2.738383,2.888979,-0.957806,-11.786536,-6.471110,4.167693,-2.052500,-9.461035,1.021788,85.872070,-1.544285,20.485344,8.466805,4.509155,10.255885,-4.514497,0.600757,9.064300,14.690578,11.805026,8.334469,12.337237,8.354063,11.744061,5.806326,-11.548290,0.000000,207.000000,4.000000,,,,0.000000,4.000000,4.000000,4.000000,4.000000,4.000000,4.000000,4.000000,4.000000,4.000000,4.000000,4.000000,4.000000,4.000000,4.000000,4.000000,4.000000,4.000000,4.000000,4.000000,4.000000,4.000000,4.000000,4.000000,4.000000,4.000000,4.000000,4.000000,4.000000,4.000000,4.000000,4.000000,4.000000,100.000000
1614409203.046867,9.000000,0.000000,8.753911,-5.871667,-13.660403,-0.977161,3.532571,-0.905990,-2.735645,2.886090,-1.469669,-12.287570,-6.977459,4.163526,-6.153012,-13.041318,-12.825387,58.606709,-3.594023,-3.637705,-14.105764,-9.341508,-4.113345,-5.535624,-3.502407,12.132158,9.547682,11.280401,3.197929,11.812079,10.396991,11.219497,10.928725,-6.408536,0.000000,186.000000,4.000000,,,,0.000000,4.000000,4.000000,4.000000,4.000000,4.000000,4.000000,4.000000,4.000000,4.000000,4.000000,4.000000,4.000000,4.000000,4.000000,4.000000,4.000000,4.000000,4.000000,4.000000,4.000000,4.000000,4.000000,4.000000,4.000000,4.000000,4.000000,4.000000,4.000000,4.000000,4.000000,4.000000,4.000000,100.000000
1614409203.054716,10.000000,0.000000,6.181054,-5.865795,-15.185205,-0.976183,1.477756,-0.392264,-2.732909,3.396025,-1.468199,-12.275282,-5.432021,4.159362,-10.249423,-17.130840,-14.863844,41.112206,-5.128891,-9.787913,-17.681402,-15.486012,-9.750257,-9.119831,-5.550187,-3.777410,-4.820840,2.551172,-2.959115,11.800267,7.822491,10.695457,10.404976,-8.966230,0.000000,206.000000,4.000000,,,,0.000000,4.000000,4.000000,4.000000,4.000000,4.000000,4.000000,4.000000,4.000000,4.000000,4.000000,4.000000,4.000000,4.000000,4.000000,4.000000,4.000000,4.000000,4.000000,4.000000,4.000000,4.000000,4.000000,4.000000,4.000000,4.000000,4.000000,4.000000,4.000000,4.000000,4.000000,4.000000,4.000000,100.000000
1614409203.062465,11.000000,0.000000,5.662053,-6.372750,-15.170019,-0.975207,3.527560,1.659411,-2.730176,2.366987,-1.466731,-12.263007,-3.375306,4.155202,-6.136610,-18.139351,-9.720775,40.558270,-3.585300,-5.162741,-10.484234,-14.957706,-11.278969,-12.187634,-2.980534,-15.055684,-8.405764,1.010159,-3.981797,12.301288,6.789028,11.710402,9.881750,-11.008546,0.000000,197.000000,4.000000,,,,0.000000,4.000000,4.000000,4.000000,4.000000,4.000000,4.000000,4.000000,4.000000,4.000000,4.000000,4.000000,4.000000,4.000000,4.000000,4.000000,4.000000,4.000000,4.000000,4.000000,4.000000,4.000000,4.000000,4.000000,4.000000,4.000000,4.000000,4.000000,4.000000,4.000000,4.000000,4.000000,4.000000,100.000000
1614409203.070314,12.000000,0.000000,6.169211,-5.853557,-14.642029,-0.974232,7.113776,3.196213,-2.727446,0.313338,-1.465265,-12.250744,-4.397572,4.151047,-2.027909,-17.608391,-8.685413,46.671558,-1.530433,-5.157578,-10.986569,-14.942748,-11.780510,-12.688268,-2.464733,-10.938065,-0.192229,9.214277,-2.952174,11.776166,10.884803,17.852537,10.384689,-9.459076,0.000000,196.000000,4.000000,,,,0.000000,4.000000,4.000000,4.000000,4.000000,4.000000,4.000000,4.000000,4.000000,4.000000,4.000000,4.000000,4.000000,4.000000,4.000000,4.000000,4.000000,4.000000,4.000000,4.000000,4.000000,4.000000,4.000000,4.000000,4.000000,4.000000,4.000000,4.000000,4.000000,4.000000,4.000000,4.000000,4.000000,100.000000
1614409203.078064,13.000000,0.000000,5.650221,-5.847703,-15.140207,-0.973258,1.978457,2.680196,-2.724719,-1.225436,-1.463799,-12.238493,-6.444457,3.634076,-3.564342,-17.590782,-4.061343,64.573608,0.522380,8.180912,-10.462763,-8.261139,-9.204627,-10.111477,-1.436628,-3.234818,2.884886,12.794806,-0.385120,11.764390,13.438021,22.962891,9.861484,-7.911156,0.000000,191.000000,4.000000,,,,0.000000,4.000000,4.000000,4.000000,4.000000,4.000000,4.000000,4.000000,4.000000,4.000000,4.000000,4.000000,4.000000,4.000000,4.000000,4.000000,4.000000,4.000000,4.000000,4.000000,4.000000,4.000000,4.000000,4.000000,4.000000,4.000000,4.000000,4.000000,4.000000,4.000000,4.000000,4.000000,4.000000,100.000000
1614409203.085913,14.000000,0.000000,6.157392,-6.354676,-15.125067,-0.972285,-4.690188,2.677516,-2.721994,-0.711390,-1.462336,-12.739076,-6.438012,4.143262,-3.047958,-18.086012,1.583744,81.432106,5.137242,25.095808,-7.888197,-0.047750,-8.682602,-5.485981,3.693014,0.358160,1.343540,11.243550,3.205009,11.752625,10.347659,21.401466,9.851623,-8.416065,0.000000,198.000000,4.000000,,,,0.000000,4.000000,4.000000,4.000000,4.000000,4.000000,4.000000,4.000000,4.000000,4.000000,4.000000,4.000000,4.000000,4.000000,4.000000,4.000000,4.000000,4.000000,4.000000,4.000000,4.000000,4.000000,4.000000,4.000000,4.000000,4.000000,4.000000,4.000000,4.000000,4.000000,4.000000,4.000000,4.000000,100.000000
1614409203.093662,15.000000,0.000000,8.715337,-3.271398,-15.109942,-0.971312,-4.172677,2.674839,-2.719272,-0.710679,-1.460873,-11.187875,-6.944395,6.703222,0.032013,-18.580746,2.607801,78.273750,6.670566,20.968149,-8.393129,-3.124625,-10.725202,-3.942033,5.740603,0.870622,2.367837,11.232306,4.227445,11.740872,8.798850,18.303143,9.328950,-8.920469,0.000000,207.000000,4.000000,,,,0.000000,4.000000,4.000000,4.000000,4.000000,4.000000,4.000000,4.000000,4.000000,4.000000,4.000000,4.000000,4.000000,4.000000,4.000000,4.000000,4.000000,4.000000,4.000000,4.000000,4.000000,4.000000,4.000000,4.000000,4.000000,4.000000,4.000000,4.000000,4.000000,4.000000,4.000000,4.000000,4.000000,100.000000
1614409203.101512,16.000000,0.000000,10.245083,0.834437,-15.607653,-0.970341,-1.604402,2.672164,-2.716552,-1.222789,-1.459412,-6.048482,-6.424630,8.234980,1.057622,-14.459601,7.733398,75.631378,6.151075,13.254872,-8.384737,-8.249705,-12.252937,-4.963732,5.222042,-0.668710,-0.711454,12.246716,3.710397,11.729132,9.302872,17.772018,10.345263,-8.911549,0.000000,220.000000,4.000000,,,,0.000000,4.000000,4.000000,4.000000,4.000000,4.000000,4.000000,4.000000,4.000000,4.000000,4.000000,4.000000,4.000000,4.000000,4.000000,4.000000,4.000000,4.000000,4.000000,4.000000,4.000000,4.000000,4.000000,4.000000,4.000000,4.000000,4.000000,4.000000,4.000000,4.000000,4.000000,4.000000,4.000000,100.000000
1614409203.109261,17.000000,0.000000,9.722017,1.859244,-15.592045,-0.969371,-1.602798,2.669492,-2.713836,-0.708746,-1.970773,-3.991151,-1.802820,7.713924,0.543744,-8.291296,16.956434,87.863441,6.144924,18.369823,-7.863531,-7.728635,-12.240685,-4.445948,5.216820,-1.693682,-4.300486,11.721648,4.732328,11.717402,9.293569,18.267067,12.899020,-7.364176,0.000000,199.000000,4.000000,,,,0.000000,4.000000,4.000000,4.000000,4.000000,4.000000,4.000000,4.000000,4.000000,4.000000,4.000000,4.000000,4.000000,4.000000,4.000000,4.000000,4.000000,4.000000,4.000000,4.000000,4.000000,4.000000,4.000000,4.000000,4.000000,4.000000,4.000000,4.000000,4.000000,4.000000,4.000000,4.000000,4.000000,100.000000
1614409203.117110,18.000000,0.000000,9.712296,0.831744,-13.012350,-0.968401,-1.601195,2.666822,-2.711122,-0.708037,-1.455982,-5.012801,0.763085,7.706211,0.543200,-6.231723,19.503580,99.057625,6.651599,24.505299,-6.830027,-7.208086,-9.664341,-3.928681,5.211603,-3.743270,-1.732083,11.709927,4.214775,11.705686,9.284275,18.248800,13.911761,-4.792709,0.000000,201.000000,4.000000,,,,0.000000,4.000000,4.000000,4.000000,4.000000,4.000000,4.000000,4.000000,4.000000,4.000000,4.000000,4.000000,4.000000,4.000000,4.000000,4.000000,4.000000,4.000000,4.000000,4.000000,4.000000,4.000000,4.000000,4.000000,4.000000,4.000000,4.000000,4.000000,4.000000,4.000000,4.000000,4.000000,4.000000,100.000000
1614409203.124859,19.000000,0.000000,10.215404,1.856553,-11.973697,-0.967433,-2.112414,2.664155,-2.708411,-0.194508,-1.454526,-3.982147,1.275142,8.724145,1.568298,-4.687029,18.971256,99.984207,7.670589,23.455153,0.356290,-6.688057,-8.116216,-4.437573,6.232033,-6.303630,1.346572,11.698216,4.210560,11.693979,8.249350,17.204910,13.385030,-5.300737,0.000000,218.000000,4.000000,,,,0.000000,4.000000,4.000000,4.000000,4.000000,4.000000,4.000000,4.000000,4.000000,4.000000,4.000000,4.000000,4.000000,4.000000,4.000000,4.000000,4.000000,4.000000,4.000000,4.000000,4.000000,4.000000,4.000000,4.000000,4.000000,4.000000,4.000000,4.000000,4.000000,4.000000,4.000000,4.000000,4.000000,100.000000
1614409203.132709,20.000000,0.000000,9.692368,4.418799,-10.936082,0.571996,-0.059020,2.148670,-2.705703,-0.707134,-1.965892,-1.926883,4.863611,7.689780,0.541089,-0.579778,16.901003,90.140633,7.662919,19.329134,13.176447,-4.117267,-5.031176,-3.407495,10.328365,-0.143480,6.986251,11.686519,8.308913,11.169465,9.779562,18.213346,12.858824,-4.782616,0.000000,203.000000,4.000000,,,,0.000000,4.000000,4.000000,4.000000,4.000000,4.000000,4.000000,4.000000,4.000000,4.000000,4.000000,4.000000,4.000000,4.000000,4.000000,4.000000,4.000000,4.000000,4.000000,4.000000,4.000000,4.000000,4.000000,4.000000,4.000000,4.000000,4.000000,4.000000,4.000000,4.000000,4.000000,4.000000,4.000000,100.000000
1614409203.140458,21.000000,0.000000,9.682675,5.440021,-5.796941,3.648347,7.633347,3.172163,-2.702997,-1.219248,-0.425465,-0.386495,7.935670,7.682090,0.540548,1.472084,16.371281,83.383827,9.706537,27.002111,25.983784,-1.036227,3.178983,1.211297,12.882139,10.625895,19.799778,11.162011,14.454451,11.671116,13.872347,24.348978,13.358786,1.888834,0.000000,199.000000,4.000000,,,,0.000000,4.000000,4.000000,4.000000,4.000000,4.000000,4.000000,4.000000,4.000000,4.000000,4.000000,4.000000,4.000000,4.000000,4.000000,4.000000,4.000000,4.000000,4.000000,4.000000,4.000000,4.000000,4.000000,4.000000,4.000000,4.000000,4.000000,4.000000,4.000000,4.000000,4.000000,4.000000,4.000000,100.000000
1614409203.148307,22.000000,0.000000,10.185813,4.921761,-0.662939,5.695981,8.651355,6.245914,-2.187474,-0.192387,1.626243,-0.898929,7.414914,8.700049,1.565648,1.983432,20.457474,87.915833,14.825036,37.231522,22.368055,0.503271,0.098881,4.799829,12.869257,17.794756,18.754337,11.663670,17.004099,11.146625,16.935398,30.991297,13.345427,7.015150,0.000000,205.000000,4.000000,,,,0.000000,4.000000,4.000000,4.000000,4.000000,4.000000,4.000000,4.000000,4.000000,4.000000,4.000000,4.000000,4.000000,4.000000,4.000000,4.000000,4.000000,4.000000,4.000000,4.000000,4.000000,4.000000,4.000000,4.000000,4.000000,4.000000,4.000000,4.000000,4.000000,4.000000,4.000000,4.000000,4.000000,100.000000
1614409203.156056,23.000000,0.000000,8.637166,4.916839,-1.175097,4.664644,-0.588066,5.726847,-4.236568,-0.192195,2.650258,-5.000594,5.869038,5.101605,-1.000020,-3.146757,7.103683,71.417656,7.117903,8.476340,-6.372261,-7.189539,-21.952499,0.692466,8.753823,17.264141,1.299685,12.164826,12.884531,8.571375,16.405642,28.909023,12.819261,4.956853,0.000000,207.000000,4.000000,,,,0.000000,4.000000,4.000000,4.000000,4.000000,4.000000,4.000000,4.000000,4.000000,4.000000,4.000000,4.000000,4.000000,4.000000,4.000000,4.000000,4.000000,4.000000,4.000000,4.000000,4.000000,4.000000,4.000000,4.000000,4.000000,4.000000,4.000000,4.000000,4.000000,4.000000,4.000000,4.000000,4.000000,100.000000
1614409203.163906,24.000000,0.000000,6.064426,4.911922,-5.276485,2.095877,-7.254144,3.157018,-6.283614,-5.320208,2.647607,-10.636619,-1.316319,-2.595804,-8.178507,-14.425661,-24.185472,39.038548,-10.837933,-23.839828,-29.442812,-18.977222,-27.058752,-3.923611,2.078403,2.375081,-3.829819,11.127021,5.179338,7.537163,16.389236,23.239088,12.806441,1.874973,0.000000,202.000000,4.000000,,,,0.000000,4.000000,4.000000,4.000000,4.000000,4.000000,4.000000,4.000000,4.000000,4.000000,4.000000,4.000000,4.000000,4.000000,4.000000,4.000000,4.000000,4.000000,4.000000,4.000000,4.000000,4.000000,4.000000,4.000000,4.000000,4.000000,4.000000,4.000000,4.000000,4.000000,4.000000,4.000000,4.000000,100.000000
1614409203.171655,25.000000,0.000000,5.545541,4.907010,-3.732748,2.606601,-4.169967,2.128220,-6.790151,-7.366170,2.132139,-13.190084,-5.417566,-4.644490,-12.272893,-11.334312,-22.110004,35.922585,-6.211710,-8.944194,-13.515933,-9.727475,-5.493232,0.182876,2.589145,-13.011909,8.994523,11.628715,4.661339,10.093728,16.885668,28.344053,16.896200,4.950021,0.000000,204.000000,4.000000,,,,0.000000,4.000000,4.000000,4.000000,4.000000,4.000000,4.000000,4.000000,4.000000,4.000000,4.000000,4.000000,4.000000,4.000000,4.000000,4.000000,4.000000,4.000000,4.000000,4.000000,4.000000,4.000000,4.000000,4.000000,4.000000,4.000000,4.000000,4.000000,4.000000,4.000000,4.000000,4.000000,4.000000,100.000000
1614409203.179304,26.000000,0.000000,6.052816,4.902103,6.014575,5.168097,1.475229,3.151733,-6.270540,-2.743419,2.642828,-11.638433,-1.822405,-0.537281,-10.722158,2.523176,6.630054,68.707176,13.794501,23.885263,11.625788,12.846354,6.307133,4.798078,7.714761,-2.229666,15.652195,16.745291,10.810524,11.622096,16.355961,37.546478,20.981867,11.098917,0.000000,199.000000,4.000000,,,,0.000000,4.000000,4.000000,4.000000,4.000000,4.000000,4.000000,4.000000,4.000000,4.000000,4.000000,4.000000,4.000000,4.000000,4.000000,4.000000,4.000000,4.000000,4.000000,4.000000,4.000000,4.000000,4.000000,4.000000,4.000000,4.000000,4.000000,4.000000,4.000000,4.000000,4.000000,4.000000,4.000000,100.000000
1614409203.187054,27.000000,0.000000,5.533943,4.897201,11.136765,6.188570,1.986574,3.148581,-6.777090,-1.202214,2.127364,-12.139615,-4.384686,0.488897,-9.685795,-3.633193,0.469578,86.074364,14.806348,21.297276,4.947495,9.756585,0.659800,-2.386207,5.655765,15.721281,11.533979,18.779827,10.286893,11.610474,16.339605,30.842266,19.422424,12.113460,0.000000,195.000000,4.000000,,,,0.000000,4.000000,4.000000,4.000000,4.000000,4.000000,4.000000,4.000000,4.000000,4.000000,4.000000,4.000000,4.000000,4.000000,4.000000,4.000000,4.000000,4.000000,4.000000,4.000000,4.000000,4.000000,4.000000,4.000000,4.000000,4.000000,4.000000,4.000000,4.000000,4.000000,4.000000,4.000000,4.000000,100.000000
1614409203.194703,28.000000,0.000000,6.041229,4.892304,2.407680,6.182382,-1.605156,0.068509,-6.257492,-4.790755,-1.464507,-14.178758,-14.636711,-0.537233,-13.265853,-25.680841,-23.120634,58.808804,5.047952,-1.800945,-15.570272,-11.791633,-10.110090,-11.614590,1.034724,8.013252,5.881420,14.145663,2.584298,11.598864,15.810445,15.939630,16.838900,8.511602,0.000000,165.000000,4.000000,,,,0.000000,4.000000,4.000000,4.000000,4.000000,4.000000,4.000000,4.000000,4.000000,4.000000,4.000000,4.000000,4.000000,4.000000,4.000000,4.000000,4.000000,4.000000,4.000000,4.000000,4.000000,4.000000,4.000000,4.000000,4.000000,4.000000,4.000000,4.000000,4.000000,4.000000,4.000000,4.000000,4.000000,100.000000
1614409203.202452,29.000000,0.000000,6.035188,4.887412,-6.825497,6.176199,-5.193295,-4.546944,-5.738414,-4.273144,-5.052786,-16.215860,-14.622074,2.540227,-14.278228,-31.296186,-12.841104,54.647430,5.042904,0.764959,-20.170086,-22.036251,-24.971775,-12.115796,1.033689,-6.353735,0.747333,11.054594,-1.008030,11.587265,16.307455,12.846766,16.822060,6.451808,0.000000,183.000000,4.000000,,,,0.000000,4.000000,4.000000,4.000000,4.000000,4.000000,4.000000,4.000000,4.000000,4.000000,4.000000,4.000000,4.000000,4.000000,4.000000,4.000000,4.000000,4.000000,4.000000,4.000000,4.000000,4.000000,4.000000,4.000000,4.000000,4.000000,4.000000,4.000000,4.000000,4.000000,4.000000,4.000000,4.000000,100.000000
1614409203.210102,30.000000,0.000000,5.516333,4.882524,-7.844313,6.170023,-5.700922,-5.055217,-6.758317,-0.166307,-6.073374,-16.199646,-6.915144,9.204354,-2.469078,-17.931557,5.120455,72.541504,7.089143,6.918040,-15.021711,-17.911652,-25.972445,-12.616501,1.032656,-7.373023,-1.817517,11.556360,0.531440,11.575678,16.291147,14.372381,14.753956,4.906895,0.000000,202.000000,4.000000,,,,0.000000,4.000000,4.000000,4.000000,4.000000,4.000000,4.000000,4.000000,4.000000,4.000000,4.000000,4.000000,4.000000,4.000000,4.000000,4.000000,4.000000,4.000000,4.000000,4.000000,4.000000,4.000000,4.000000,4.000000,4.000000,4.000000,4.000000,4.000000,4.000000,4.000000,4.000000,4.000000,4.000000,100.000000
1614409203.217851,31.000000,0.000000,7.562098,4.877642,-9.374929,6.163853,-5.182401,-2.486060,-5.725917,2.397962,-4.528839,-14.132163,-2.805665,15.348995,12.405186,-6.118754,10.756360,81.186905,8.107696,19.218815,-8.340023,-6.098868,-6.972113,-11.578243,2.057264,-5.314368,-1.302879,11.544804,1.043729,11.564102,15.762036,13.332368,12.687920,1.825065,0.000000,198.000000,4.000000,,,,0.000000,4.000000,4.000000,4.000000,4.000000,4.000000,4.000000,4.000000,4.000000,4.000000,4.000000,4.000000,4.000000,4.000000,4.000000,4.000000,4.000000,4.000000,4.000000,4.000000,4.000000,4.000000,4.000000,4.000000,4.000000,4.000000,4.000000,4.000000,4.000000,4.000000,4.000000,4.000000,4.000000,100.000000
1614409203.225501,32.000000,0.000000,9.605818,4.872764,-4.750170,6.157689,-3.125936,-0.945112,-3.156089,3.421205,-2.473028,-12.066750,-0.238757,15.846467,13.418422,-0.471610,17.925091,91.874954,11.689331,44.327801,-0.639375,8.266206,4.316910,0.741027,6.670591,-2.232130,0.236885,11.020438,-1.008597,11.552538,16.771915,15.883138,12.675232,1.823240,8064.000000,0.000000,4.000000,,,,0.000000,4.000000,4.000000,4.000000,4.000000,4.000000,4.000000,4.000000,4.000000,4.000000,4.000000,4.000000,4.000000,4.000000,4.000000,4.000000,4.000000,4.000000,4.000000,4.000000,4.000000,4.000000,4.000000,4.000000,4.000000,4.000000,4.000000,4.000000,4.000000,4.000000,4.000000,4.000000,4.000000,100.000000
1614409203.233250,33.000000,0.000000,9.596212,4.867891,2.946888,6.151532,-1.584349,-0.944167,-3.152933,1.366502,-1.444914,-11.541862,0.274302,11.728057,3.148593,1.580144,15.343063,92.808716,12.703283,42.745010,4.489469,12.360503,2.774132,11.509517,7.689562,5.975230,2.287931,11.009418,1.043694,11.540985,19.319246,21.508280,13.688198,4.898340,8064.000000,0.000000,4.000000,,,,0.000000,4.000000,4.000000,4.000000,4.000000,4.000000,4.000000,4.000000,4.000000,4.000000,4.000000,4.000000,4.000000,4.000000,4.000000,4.000000,4.000000,4.000000,4.000000,4.000000,4.000000,4.000000,4.000000,4.000000,4.000000,4.000000,4.000000,4.000000,4.000000,4.000000,4.000000,4.000000,4.000000,100.000000
1614409203.240899,34.000000,0.000000,9.586617,4.863023,-2.184264,6.145380,-1.582764,-0.943223,-6.226703,-0.686147,-1.443469,-12.043140,-1.777254,6.075303,-4.546863,-1.498359,-2.108177,70.151810,10.126477,16.548420,3.972159,9.271220,3.796999,10.985187,5.117770,8.533358,2.285643,11.511230,6.170855,11.529444,19.812746,21.486773,13.674509,3.867801,8064.000000,0.000000,4.000000,,,,0.000000,4.000000,4.000000,4.000000,4.000000,4.000000,4.000000,4.000000,4.000000,4.000000,4.000000,4.000000,4.000000,4.000000,4.000000,4.000000,4.000000,4.000000,4.000000,4.000000,4.000000,4.000000,4.000000,4.000000,4.000000,4.000000,4.000000,4.000000,4.000000,4.000000,4.000000,4.000000,4.000000,100.000000
1614409203.248649,35.000000,0.000000,10.089850,4.858160,-7.823106,6.139235,-1.581182,-0.942280,-6.733297,-0.685461,-1.442026,-11.518277,-2.288297,4.017945,-6.593598,-5.086605,-9.285556,52.645760,9.603530,7.301102,-0.134377,6.185026,-1.335003,7.897279,5.112652,6.473542,2.283357,12.012538,7.190325,11.517915,20.305754,21.465286,12.635194,3.863933,8064.000000,0.000000,4.000000,,,,0.000000,4.000000,4.000000,4.000000,4.000000,4.000000,4.000000,4.000000,4.000000,4.000000,4.000000,4.000000,4.000000,4.000000,4.000000,4.000000,4.000000,4.000000,4.000000,4.000000,4.000000,4.000000,4.000000,4.000000,4.000000,4.000000,4.000000,4.000000,4.000000,4.000000,4.000000,4.000000,4.000000,100.000000
1614409203.256298,36.000000,0.000000,8.028478,4.853302,4.492410,6.645916,-1.066780,-0.941337,-4.162461,-0.684775,-1.440584,-11.506759,-2.286009,4.013927,-6.587005,-5.594338,-8.250629,51.054649,10.106747,8.319442,-3.723986,1.563456,-13.128540,4.812459,5.620360,5.441427,2.793894,10.974885,4.106212,11.506397,20.798269,24.520742,13.135379,11.552377,8064.000000,0.000000,4.000000,,,,0.000000,4.000000,4.000000,4.000000,4.000000,4.000000,4.000000,4.000000,4.000000,4.000000,4.000000,4.000000,4.000000,4.000000,4.000000,4.000000,4.000000,4.000000,4.000000,4.000000,4.000000,4.000000,4.000000,4.000000,4.000000,4.000000,4.000000,4.000000,4.000000,4.000000,4.000000,4.000000,4.000000,100.000000
1614409203.264047,37.000000,0.000000,6.481988,4.848449,8.590482,6.126450,-1.065713,-0.427575,-2.619837,-0.684090,-1.439143,-12.008073,-2.796544,4.009913,-7.093238,-7.127206,-9.268020,51.003597,9.583819,9.336763,-4.745903,-1.515031,-16.705154,0.192261,5.101919,3.384704,1.252639,11.476730,3.589285,11.494890,16.162086,22.957762,14.147885,13.592106,8064.000000,0.000000,4.000000,,,,0.000000,4.000000,4.000000,4.000000,4.000000,4.000000,4.000000,4.000000,4.000000,4.000000,4.000000,4.000000,4.000000,4.000000,4.000000,4.000000,4.000000,4.000000,4.000000,4.000000,4.000000,4.000000,4.000000,4.000000,4.000000,4.000000,4.000000,4.000000,4.000000,4.000000,4.000000,4.000000,4.000000,100.000000
1614409203.271697,38.000000,0.000000,8.526788,4.843600,-9.366827,4.069041,-2.090288,-1.965609,-2.617217,-0.683406,-1.437704,-11.996064,-2.280926,3.493083,-8.111786,-7.120079,-3.617726,65.824387,8.548594,17.019735,-4.741158,0.024946,-15.149988,-1.346393,5.096817,1.842858,-0.799896,11.978074,5.124157,11.483396,9.479258,16.268137,7.467071,2.296463,8064.000000,0.000000,4.000000,,,,0.000000,4.000000,4.000000,4.000000,4.000000,4.000000,4.000000,4.000000,4.000000,4.000000,4.000000,4.000000,4.000000,4.000000,4.000000,4.000000,4.000000,4.000000,4.000000,4.000000,4.000000,4.000000,4.000000,4.000000,4.000000,4.000000,4.000000,4.000000,4.000000,4.000000,4.000000,4.000000,4.000000,100.000000
1614409203.279546,39.000000,0.000000,8.518261,4.838757,-20.126692,2.013690,-1.575378,-4.014926,-2.614600,-1.195543,-1.436266,-12.496889,-5.868389,1.951129,-9.129315,-5.574497,-0.537185,79.604713,10.078507,17.515535,-5.249237,-2.026361,-16.160480,-1.345046,3.553258,1.841015,-1.824737,8.889174,3.067751,11.471912,7.931317,13.174945,-1.258345,-8.475064,8064.000000,0.000000,4.000000,,,,0.000000,4.000000,4.000000,4.000000,4.000000,4.000000,4.000000,4.000000,4.000000,4.000000,4.000000,4.000000,4.000000,4.000000,4.000000,4.000000,4.000000,4.000000,4.000000,4.000000,4.000000,4.000000,4.000000,4.000000,4.000000,4.000000,4.000000,4.000000,4.000000,4.000000,4.000000,4.000000,4.000000,100.000000
1614409203.287295,40.000000,0.000000,5.945641,4.833918,-16.004000,2.524497,-1.060982,-2.985270,-2.611985,-1.194348,-1.947651,-14.022854,-12.529187,-0.102105,-10.145827,-14.799692,-12.331520,65.678955,6.991506,6.728789,-4.731167,-10.229463,-16.657139,-1.343701,1.498423,-5.853134,-1.310092,4.264899,0.500581,11.460441,8.949027,13.674591,-1.257087,-10.005051,8064.000000,0.000000,4.000000,,,,0.000000,4.000000,4.000000,4.000000,4.000000,4.000000,4.000000,4.000000,4.000000,4.000000,4.000000,4.000000,4.000000,4.000000,4.000000,4.000000,4.000000,4.000000,4.000000,4.000000,4.000000,4.000000,4.000000,4.000000,4.000000,4.000000,4.000000,4.000000,4.000000,4.000000,4.000000,4.000000,4.000000,100.000000
1614409203.295145,41.000000,0.000000,5.426874,4.829084,-14.449534,2.521972,-4.136844,-0.931002,-2.609373,-0.680333,-1.432882,-15.547292,-14.055120,0.410818,-11.674143,-27.092585,-20.011496,52.279945,1.856310,3.132317,-5.239256,-16.373079,-15.614841,-1.342357,0.984104,-14.052409,-1.821602,6.311916,-0.525561,11.448979,8.427258,13.660916,4.385196,-7.430943,8064.000000,0.000000,4.000000,,,,0.000000,4.000000,4.000000,4.000000,4.000000,4.000000,4.000000,4.000000,4.000000,4.000000,4.000000,4.000000,4.000000,4.000000,4.000000,4.000000,4.000000,4.000000,4.000000,4.000000,4.000000,4.000000,4.000000,4.000000,4.000000,4.000000,4.000000,4.000000,4.000000,4.000000,4.000000,4.000000,4.000000,100.000000
1614409203.302894,42.000000,0.000000,6.447089,4.824255,-15.973547,2.519450,-8.748092,-0.930072,-2.606764,-0.679653,-1.431450,-17.070206,-13.015424,-0.102413,-9.611187,-20.911646,-7.683792,64.535355,3.392915,7.744569,-3.695556,-13.279783,-15.599227,-0.828194,0.470300,-11.987075,-1.819781,10.920989,0.500606,11.437531,8.418830,13.647255,6.432093,-5.885051,8064.000000,0.000000,4.000000,,,,0.000000,4.000000,4.000000,4.000000,4.000000,4.000000,4.000000,4.000000,4.000000,4.000000,4.000000,4.000000,4.000000,4.000000,4.000000,4.000000,4.000000,4.000000,4.000000,4.000000,4.000000,4.000000,4.000000,4.000000,4.000000,4.000000,4.000000,4.000000,4.000000,4.000000,4.000000,4.000000,4.000000,100.000000
1614409203.310743,43.000000,0.000000,5.927821,4.819431,-16.470394,2.516931,-7.200882,-1.441962,-2.604157,-2.217435,-2.455659,-11.924931,-8.899844,1.436151,3.731758,-5.506119,14.887994,81.906723,13.133112,17.480413,4.513268,-4.035735,-13.019525,-0.827366,3.546752,-8.898165,-1.817961,11.422889,-0.012715,11.426093,8.923231,13.120788,5.400019,-5.879166,8064.000000,0.000000,4.000000,,,,0.000000,4.000000,4.000000,4.000000,4.000000,4.000000,4.000000,4.000000,4.000000,4.000000,4.000000,4.000000,4.000000,4.000000,4.000000,4.000000,4.000000,4.000000,4.000000,4.000000,4.000000,4.000000,4.000000,4.000000,4.000000,4.000000,4.000000,4.000000,4.000000,4.000000,4.000000,4.000000,4.000000,100.000000
1614409203.318492,44.000000,0.000000,5.409072,4.814611,-14.402641,2.514414,-1.552655,-0.927699,-2.601553,2.400167,-0.914742,0.907507,7.519312,10.152663,19.625462,7.832721,31.283363,94.645325,19.273825,32.334728,13.226704,8.788814,-2.750095,0.711923,10.209872,-10.427728,-0.790502,10.385825,-1.038344,11.414667,8.401487,13.620487,5.907440,-4.847646,8064.000000,0.000000,4.000000,,,,0.000000,4.000000,4.000000,4.000000,4.000000,4.000000,4.000000,4.000000,4.000000,4.000000,4.000000,4.000000,4.000000,4.000000,4.000000,4.000000,4.000000,4.000000,4.000000,4.000000,4.000000,4.000000,4.000000,4.000000,4.000000,4.000000,4.000000,4.000000,4.000000,4.000000,4.000000,4.000000,4.000000,100.000000
1614409203.326342,45.000000,0.000000,5.916484,4.809797,-8.234392,2.511899,1.525820,-1.439592,-2.598951,9.577254,3.701557,10.137368,23.409229,18.860458,23.195580,19.106939,30.226439,94.550682,19.767372,38.456242,20.392963,17.497974,13.150091,4.813775,12.763765,-6.827557,4.338494,11.401080,2.039618,10.890432,8.393086,18.222252,5.901533,-2.791516,8064.000000,0.000000,4.000000,,,,0.000000,4.000000,4.000000,4.000000,4.000000,4.000000,4.000000,4.000000,4.000000,4.000000,4.000000,4.000000,4.000000,4.000000,4.000000,4.000000,4.000000,4.000000,4.000000,4.000000,4.000000,4.000000,4.000000,4.000000,4.000000,4.000000,4.000000,4.000000,4.000000,4.000000,4.000000,4.000000,4.000000,100.000000
1614409203.334091,46.000000,0.000000,5.910568,4.804987,-4.636415,2.509387,2.037115,-0.925332,-2.596353,9.567677,6.261959,10.640052,17.744793,16.277496,17.018539,13.446807,18.914160,75.481773,20.773245,32.263939,22.423853,18.506117,19.290787,5.321782,12.751001,0.358758,8.949540,11.389679,6.140142,11.392362,9.410335,21.280952,5.895631,-0.737442,8064.000000,0.000000,4.000000,,,,0.000000,4.000000,4.000000,4.000000,4.000000,4.000000,4.000000,4.000000,4.000000,4.000000,4.000000,4.000000,4.000000,4.000000,4.000000,4.000000,4.000000,4.000000,4.000000,4.000000,4.000000,4.000000,4.000000,4.000000,4.000000,4.000000,4.000000,4.000000,4.000000,4.000000,4.000000,4.000000,4.000000,100.000000
1614409203.341940,47.000000,0.000000,4.879016,4.800182,-6.683060,2.506878,2.035078,3.690978,-2.593756,5.968366,5.742876,9.090950,8.496280,10.107372,11.873315,-3.489717,13.254221,69.252441,20.239651,29.667572,14.709122,17.974791,9.527906,1.726716,12.225430,1.896861,8.427770,12.916751,7.672463,11.380970,8.888103,20.746851,5.889735,-1.249525,8064.000000,0.000000,4.000000,,,,0.000000,4.000000,4.000000,4.000000,4.000000,4.000000,4.000000,4.000000,4.000000,4.000000,4.000000,4.000000,4.000000,4.000000,4.000000,4.000000,4.000000,4.000000,4.000000,4.000000,4.000000,4.000000,4.000000,4.000000,4.000000,4.000000,4.000000,4.000000,4.000000,4.000000,4.000000,4.000000,4.000000,100.000000
1614409203.349690,48.000000,0.000000,6.412599,4.795382,-7.189198,3.017192,2.545863,6.764210,-2.591162,8.013680,5.737133,10.620320,12.590347,12.148547,10.835800,1.641978,13.753787,87.131912,21.245052,33.227646,12.130310,18.469637,3.364532,6.853195,11.700384,0.869323,14.060368,17.006397,10.228893,10.856769,8.366395,23.290207,5.371025,-1.248276,8064.000000,0.000000,4.000000,,,,0.000000,4.000000,4.000000,4.000000,4.000000,4.000000,4.000000,4.000000,4.000000,4.000000,4.000000,4.000000,4.000000,4.000000,4.000000,4.000000,4.000000,4.000000,4.000000,4.000000,4.000000,4.000000,4.000000,4.000000,4.000000,4.000000,4.000000,4.000000,4.000000,4.000000,4.000000,4.000000,4.000000,100.000000
1614409203.357539,49.000000,0.000000,11.021570,4.790586,-8.207649,1.475713,2.030497,6.757446,-2.588571,10.569769,6.244216,12.660982,17.193142,17.264605,15.953170,18.050592,13.227213,95.762726,28.916115,38.322624,24.938692,17.938347,12.591937,18.641212,18.355350,5.483839,25.328358,21.604776,14.834049,12.897194,12.973413,27.882301,7.416936,-0.734207,8064.000000,0.000000,4.000000,,,,0.000000,4.000000,4.000000,4.000000,4.000000,4.000000,4.000000,4.000000,4.000000,4.000000,4.000000,4.000000,4.000000,4.000000,4.000000,4.000000,4.000000,4.000000,4.000000,4.000000,4.000000,4.000000,4.000000,4.000000,4.000000,4.000000,4.000000,4.000000,4.000000,4.000000,4.000000,4.000000,4.000000,100.000000
1614409203.365288,50.000000,0.000000,13.574652,4.785796,-13.327647,-1.089865,2.028466,6.237868,-2.585983,10.046378,5.725152,13.673963,15.124667,18.785801,21.065422,18.032541,11.675524,95.666962,34.528225,45.976608,32.093243,17.407587,17.707550,22.212317,26.542124,11.632201,28.379953,23.121634,15.844856,14.935578,16.550182,28.880060,9.460801,-2.271934,8064.000000,0.000000,4.000000,,,,0.000000,4.000000,4.000000,4.000000,4.000000,4.000000,4.000000,4.000000,4.000000,4.000000,4.000000,4.000000,4.000000,4.000000,4.000000,4.000000,4.000000,4.000000,4.000000,4.000000,4.000000,4.000000,4.000000,4.000000,4.000000,4.000000,4.000000,4.000000,4.000000,4.000000,4.000000,4.000000,4.000000,100.000000
1614409203.373137,51.000000,0.000000,13.048256,5.293830,-15.365602,-1.601596,4.077720,6.744451,-2.583397,9.523511,6.232247,13.147468,14.083901,17.741373,20.018715,14.937586,11.663848,91.981552,30.391132,45.417812,26.420122,17.390179,14.100100,20.138821,22.925837,12.646210,22.710548,21.047230,14.803370,13.382181,12.943890,29.364000,9.964161,-4.320944,8064.000000,0.000000,4.000000,,,,0.000000,4.000000,4.000000,4.000000,4.000000,4.000000,4.000000,4.000000,4.000000,4.000000,4.000000,4.000000,4.000000,4.000000,4.000000,4.000000,4.000000,4.000000,4.000000,4.000000,4.000000,4.000000,4.000000,4.000000,4.000000,4.000000,4.000000,4.000000,4.000000,4.000000,4.000000,4.000000,4.000000,100.000000
1614409203.380887,52.000000,0.000000,13.035208,4.775716,-14.837415,-1.087174,6.124924,6.737706,-2.580813,10.539629,5.200374,13.134320,15.095458,18.236454,15.383312,11.845726,12.677826,72.915215,23.694075,35.115986,23.316778,16.859968,13.573178,20.631502,15.723424,12.120743,19.098093,18.974899,14.788568,11.317517,8.828382,26.770533,9.441376,-5.342265,8064.000000,0.000000,4.000000,,,,0.000000,4.000000,4.000000,4.000000,4.000000,4.000000,4.000000,4.000000,4.000000,4.000000,4.000000,4.000000,4.000000,4.000000,4.000000,4.000000,4.000000,4.000000,4.000000,4.000000,4.000000,4.000000,4.000000,4.000000,4.000000,4.000000,4.000000,4.000000,4.000000,4.000000,4.000000,4.000000,4.000000,100.000000
1614409203.388736,53.000000,0.000000,13.534993,2.719658,-17.386681,-1.086087,5.605979,6.218148,-2.578233,10.016269,2.631071,13.634007,15.080362,18.218216,11.265365,-1.499454,13.177968,64.637169,23.670382,29.439842,24.319103,16.843109,9.969862,20.098051,17.246162,12.621443,15.489252,18.443104,14.773779,10.793379,8.819553,18.025814,9.944756,-4.824102,8064.000000,0.000000,4.000000,,,,0.000000,4.000000,4.000000,4.000000,4.000000,4.000000,4.000000,4.000000,4.000000,4.000000,4.000000,4.000000,4.000000,4.000000,4.000000,4.000000,4.000000,4.000000,4.000000,4.000000,4.000000,4.000000,4.000000,4.000000,4.000000,4.000000,4.000000,4.000000,4.000000,4.000000,4.000000,4.000000,4.000000,100.000000
1614409203.396485,54.000000,0.000000,13.008637,1.178477,-18.907755,-1.085001,5.600373,6.724750,-2.575654,10.006252,1.602799,13.620373,15.065282,19.738461,9.715638,-5.600518,16.241713,83.034073,24.159531,27.871943,22.243502,17.339087,3.293225,17.001030,19.793018,11.070360,12.396839,18.424662,14.759005,11.295406,8.810734,12.366763,9.421990,-4.819278,8064.000000,0.000000,4.000000,,,,0.000000,4.000000,4.000000,4.000000,4.000000,4.000000,4.000000,4.000000,4.000000,4.000000,4.000000,4.000000,4.000000,4.000000,4.000000,4.000000,4.000000,4.000000,4.000000,4.000000,4.000000,4.000000,4.000000,4.000000,4.000000,4.000000,4.000000,4.000000,4.000000,4.000000,4.000000,4.000000,4.000000,100.000000
1614409203.404234,55.000000,0.000000,12.995629,1.177299,-18.376026,-0.571095,5.594772,6.205205,-2.573079,10.509067,2.114017,13.093932,15.050217,21.257183,18.423870,6.199954,24.430599,93.720268,23.109730,29.382532,20.169977,16.296106,5.854034,16.471209,19.773226,8.495187,12.384442,18.406237,14.744246,11.284111,8.801923,13.380037,9.925388,-4.814458,8064.000000,0.000000,4.000000,,,,0.000000,4.000000,4.000000,4.000000,4.000000,4.000000,4.000000,4.000000,4.000000,4.000000,4.000000,4.000000,4.000000,4.000000,4.000000,4.000000,4.000000,4.000000,4.000000,4.000000,4.000000,4.000000,4.000000,4.000000,4.000000,4.000000,4.000000,4.000000,4.000000,4.000000,4.000000,4.000000,4.000000,100.000000
1614409203.411984,56.000000,0.000000,12.982634,1.176121,-18.870472,-2.108985,5.589178,3.634897,-2.570505,9.472917,2.111902,11.542377,15.035167,22.261566,31.225960,12.860421,36.713863,95.677826,23.086620,45.250584,19.636986,17.818272,9.437924,19.531660,21.804735,8.486691,11.859238,18.387831,14.729502,11.272826,11.357224,13.366657,9.915463,-5.835285,8192.000000,0.000000,4.000000,,,,0.000000,4.000000,4.000000,4.000000,4.000000,4.000000,4.000000,4.000000,4.000000,4.000000,4.000000,4.000000,4.000000,4.000000,4.000000,4.000000,4.000000,4.000000,4.000000,4.000000,4.000000,4.000000,4.000000,4.000000,4.000000,4.000000,4.000000,4.000000,4.000000,4.000000,4.000000,4.000000,4.000000,100.000000
1614409203.419633,57.000000,0.000000,12.969651,0.662125,-18.338779,-4.670979,5.583589,2.605621,-2.567935,6.899341,2.109791,8.966731,15.020132,21.726484,31.707554,10.283458,41.292534,98.659073,24.089174,55.461742,21.155811,24.979940,9.941307,23.614693,21.270109,10.529487,12.873019,18.369442,14.714772,10.748734,9.294584,13.866111,6.315804,-7.880732,8064.000000,0.000000,4.000000,,,,0.000000,4.000000,4.000000,4.000000,4.000000,4.000000,4.000000,4.000000,4.000000,4.000000,4.000000,4.000000,4.000000,4.000000,4.000000,4.000000,4.000000,4.000000,4.000000,4.000000,4.000000,4.000000,4.000000,4.000000,4.000000,4.000000,4.000000,4.000000,4.000000,4.000000,4.000000,4.000000,4.000000,100.000000
1614409203.427383,58.000000,0.000000,12.956681,1.174283,-14.730698,-5.179129,6.090826,1.577374,-2.565367,6.379622,2.107681,4.855200,15.005112,18.115015,21.932257,10.785995,28.943548,78.047592,22.013803,37.970387,27.801321,32.134449,21.213417,25.129539,19.197557,12.570240,18.501173,18.863894,14.700057,11.763625,5.695546,16.929169,2.206924,-8.385672,8192.000000,0.000000,4.000000,,,,0.000000,4.000000,4.000000,4.000000,4.000000,4.000000,4.000000,4.000000,4.000000,4.000000,4.000000,4.000000,4.000000,4.000000,4.000000,4.000000,4.000000,4.000000,4.000000,4.000000,4.000000,4.000000,4.000000,4.000000,4.000000,4.000000,4.000000,4.000000,4.000000,4.000000,4.000000,4.000000,4.000000,100.000000
1614409203.435032,59.000000,0.000000,11.405263,2.198750,-16.254429,-4.661129,5.571914,-0.475485,-2.562802,4.834780,2.105573,1.773422,14.990107,13.994335,17.807760,11.800850,17.119732,62.584930,16.863585,29.214466,31.876083,31.589493,31.961433,22.027487,18.665539,17.173054,21.046774,18.845030,14.685357,11.239041,5.177030,17.937880,1.691897,-8.890106,8192.000000,0.000000,4.000000,,,,0.000000,4.000000,4.000000,4.000000,4.000000,4.000000,4.000000,4.000000,4.000000,4.000000,4.000000,4.000000,4.000000,4.000000,4.000000,4.000000,4.000000,4.000000,4.000000,4.000000,4.000000,4.000000,4.000000,4.000000,4.000000,4.000000,4.000000,4.000000,4.000000,4.000000,4.000000,4.000000,4.000000,100.000000
1614409203.442781,60.000000,0.000000,8.829755,-1.393192,-18.289455,-4.656468,5.053522,-1.500651,-3.073059,2.778663,2.103467,1.771649,14.975117,13.467521,18.815594,11.789049,20.179535,90.727478,15.308260,44.057045,28.767284,24.891237,28.339729,17.390074,19.159695,19.719984,19.487265,15.236442,14.670671,5.586777,4.146212,16.894300,0.664564,-8.881216,8064.000000,0.000000,4.000000,,,,0.000000,4.000000,4.000000,4.000000,4.000000,4.000000,4.000000,4.000000,4.000000,4.000000,4.000000,4.000000,4.000000,4.000000,4.000000,4.000000,4.000000,4.000000,4.000000,4.000000,4.000000,4.000000,4.000000,4.000000,4.000000,4.000000,4.000000,4.000000,4.000000,4.000000,4.000000,4.000000,4.000000,100.000000
1614409203.450431,61.000000,0.000000,8.820926,-2.417440,-15.194243,-4.651811,6.074109,-1.499150,-2.044345,2.263064,2.101364,2.282698,14.960141,14.479694,17.258316,10.751619,24.261921,99.354698,17.857054,41.448887,27.712877,21.276602,24.721645,16.347044,19.140533,19.187443,20.493420,14.195564,14.143181,4.555549,5.167706,17.390226,1.689540,-7.333873,8064.000000,0.000000,4.000000,,,,0.000000,4.000000,4.000000,4.000000,4.000000,4.000000,4.000000,4.000000,4.000000,4.000000,4.000000,4.000000,4.000000,4.000000,4.000000,4.000000,4.000000,4.000000,4.000000,4.000000,4.000000,4.000000,4.000000,4.000000,4.000000,4.000000,4.000000,4.000000,4.000000,4.000000,4.000000,4.000000,4.000000,100.000000
1614409203.458180,62.000000,0.000000,9.324925,0.661900,-16.204691,-4.647160,5.042394,-0.984830,0.008981,2.773622,2.099263,1.767594,14.945181,17.029318,17.753880,10.740868,22.699196,71.563034,20.403299,29.099745,27.685163,23.306606,22.645641,16.843517,19.121393,19.681076,20.472925,15.207009,14.641858,9.679198,7.726642,16.347197,2.200671,-11.941924,8064.000000,0.000000,4.000000,,,,0.000000,4.000000,4.000000,4.000000,4.000000,4.000000,4.000000,4.000000,4.000000,4.000000,4.000000,4.000000,4.000000,4.000000,4.000000,4.000000,4.000000,4.000000,4.000000,4.000000,4.000000,4.000000,4.000000,4.000000,4.000000,4.000000,4.000000,4.000000,4.000000,4.000000,4.000000,4.000000,4.000000,100.000000
1614409203.465829,63.000000,0.000000,8.802779,-2.415685,-24.906435,-4.642512,-0.090853,-0.983845,1.547434,2.770848,2.097163,2.278647,14.930236,20.089211,22.351509,14.832690,31.394445,87.388908,22.946999,45.993721,26.119017,24.821762,15.443509,16.313852,18.589453,19.148575,10.708863,10.063598,14.627216,8.131058,2.077889,10.689823,-5.493837,-19.622290,8064.000000,0.000000,4.000000,,,,0.000000,4.000000,4.000000,4.000000,4.000000,4.000000,4.000000,4.000000,4.000000,4.000000,4.000000,4.000000,4.000000,4.000000,4.000000,4.000000,4.000000,4.000000,4.000000,4.000000,4.000000,4.000000,4.000000,4.000000,4.000000,4.000000,4.000000,4.000000,4.000000,4.000000,4.000000,4.000000,4.000000,100.000000
1614409203.473579,64.000000,0.000000,9.306797,-9.592756,-24.881529,-4.637870,0.422058,-1.495682,1.033066,2.768077,2.095066,4.840471,14.915306,21.607584,25.918901,18.407602,42.132282,120.122032,26.000975,68.511833,35.323666,23.771299,15.940886,16.297539,19.596504,14.001221,4.544308,6.976611,14.099769,3.507542,-1.001112,10.679133,-7.539625,-14.987283,0.000000,182.000000,4.000000,,,,0.000000,4.000000,4.000000,4.000000,4.000000,4.000000,4.000000,4.000000,4.000000,4.000000,4.000000,4.000000,4.000000,4.000000,4.000000,4.000000,4.000000,4.000000,4.000000,4.000000,4.000000,4.000000,4.000000,4.000000,4.000000,4.000000,4.000000,4.000000,4.000000,4.000000,4.000000,4.000000,4.000000,100.000000
1614409203.481228,65.000000,0.000000,11.861593,-4.454958,-14.087416,-4.633232,8.113944,-0.981366,1.032033,2.765309,2.092971,6.374092,14.900391,21.585976,25.380163,17.876373,36.449123,97.437805,27.513435,61.776653,46.057575,23.747528,25.668535,16.281242,21.628189,12.448758,14.283354,15.174762,15.111310,9.657881,11.307582,19.899223,7.852530,-3.177424,0.000000,219.000000,4.000000,,,,0.000000,4.000000,4.000000,4.000000,4.000000,4.000000,4.000000,4.000000,4.000000,4.000000,4.000000,4.000000,4.000000,4.000000,4.000000,4.000000,4.000000,4.000000,4.000000,4.000000,4.000000,4.000000,4.000000,4.000000,4.000000,4.000000,4.000000,4.000000,4.000000,4.000000,4.000000,4.000000,4.000000,100.000000
1614409203.488977,66.000000,0.000000,16.465117,4.780266,-9.457944,-4.628599,9.644291,1.583718,1.543821,2.762544,2.090878,5.854897,14.372669,22.077209,24.841961,18.884138,26.669086,76.827545,26.973101,52.484108,40.370491,22.698139,28.719790,16.777781,21.093740,17.564514,24.012659,22.851894,17.660301,15.802069,24.116787,26.033171,21.178011,-0.097324,0.000000,193.000000,4.000000,,,,0.000000,4.000000,4.000000,4.000000,4.000000,4.000000,4.000000,4.000000,4.000000,4.000000,4.000000,4.000000,4.000000,4.000000,4.000000,4.000000,4.000000,4.000000,4.000000,4.000000,4.000000,4.000000,4.000000,4.000000,4.000000,4.000000,4.000000,4.000000,4.000000,4.000000,4.000000,4.000000,4.000000,100.000000
1614409203.496627,67.000000,0.000000,17.987112,5.801126,-11.499768,-4.623970,6.044903,3.120596,1.542277,2.759781,2.088787,5.849043,15.383938,21.029491,25.842760,17.326792,27.155237,95.212257,26.946129,56.021366,31.099352,20.624159,23.050045,16.761003,19.534185,19.598232,20.398903,22.316223,18.668282,14.760626,24.092670,24.468676,21.156832,-1.635688,0.000000,183.000000,4.000000,,,,0.000000,4.000000,4.000000,4.000000,4.000000,4.000000,4.000000,4.000000,4.000000,4.000000,4.000000,4.000000,4.000000,4.000000,4.000000,4.000000,4.000000,4.000000,4.000000,4.000000,4.000000,4.000000,4.000000,4.000000,4.000000,4.000000,4.000000,4.000000,4.000000,4.000000,4.000000,4.000000,4.000000,100.000000
1614409203.504376,68.000000,0.000000,15.405023,4.769684,-10.975448,-4.619346,5.013217,2.604655,1.027915,2.757021,2.086699,5.843194,15.368554,19.470001,26.329739,11.155620,27.128082,89.988838,27.944822,51.349960,30.555431,20.090715,17.385969,16.744242,19.001831,19.065813,15.250299,21.268265,18.136793,14.233045,22.530115,23.931387,20.110035,-0.608411,0.000000,179.000000,4.000000,,,,0.000000,4.000000,4.000000,4.000000,4.000000,4.000000,4.000000,4.000000,4.000000,4.000000,4.000000,4.000000,4.000000,4.000000,4.000000,4.000000,4.000000,4.000000,4.000000,4.000000,4.000000,4.000000,4.000000,4.000000,4.000000,4.000000,4.000000,4.000000,4.000000,4.000000,4.000000,4.000000,4.000000,100.000000
1614409203.512026,69.000000,0.000000,18.979361,5.277735,-10.451652,-4.614727,6.033845,2.602050,1.026887,2.754264,3.623073,5.837350,13.301904,19.963352,25.277767,11.657285,26.075314,67.847572,26.891237,36.426815,30.524876,21.096266,17.368582,17.753139,18.470009,18.533926,15.747869,22.272638,18.118656,15.244452,24.046047,24.933096,20.602745,-1.120623,0.000000,199.000000,4.000000,,,,0.000000,4.000000,4.000000,4.000000,4.000000,4.000000,4.000000,4.000000,4.000000,4.000000,4.000000,4.000000,4.000000,4.000000,4.000000,4.000000,4.000000,4.000000,4.000000,4.000000,4.000000,4.000000,4.000000,4.000000,4.000000,4.000000,4.000000,4.000000,4.000000,4.000000,4.000000,4.000000,4.000000,100.000000
1614409203.519875,70.000000,0.000000,24.601408,5.272458,-10.954021,-4.610112,5.514991,2.599448,2.051501,4.289972,5.670732,5.831513,16.878345,21.994671,25.252489,20.363575,31.177443,78.548950,26.351526,35.877567,35.109737,23.639271,25.556343,20.299488,19.990000,19.028214,19.834686,22.250366,18.613358,14.716388,24.022001,24.395342,21.094963,-0.606682,0.000000,184.000000,4.000000,,,,0.000000,4.000000,4.000000,4.000000,4.000000,4.000000,4.000000,4.000000,4.000000,4.000000,4.000000,4.000000,4.000000,4.000000,4.000000,4.000000,4.000000,4.000000,4.000000,4.000000,4.000000,4.000000,4.000000,4.000000,4.000000,4.000000,4.000000,4.000000,4.000000,4.000000,4.000000,4.000000,4.000000,100.000000
1614409203.527624,71.000000,0.000000,16.371677,5.780005,-10.943067,-4.605502,5.509476,2.596849,-0.001833,6.336964,6.177882,5.825682,21.476851,22.485497,26.252878,22.907314,33.197548,97.444763,27.863636,49.175026,41.228474,27.718197,31.684631,21.304831,18.944368,24.650211,25.968697,21.715294,18.081924,15.214492,23.485159,24.370947,21.073868,2.983668,0.000000,194.000000,4.000000,,,,0.000000,4.000000,4.000000,4.000000,4.000000,4.000000,4.000000,4.000000,4.000000,4.000000,4.000000,4.000000,4.000000,4.000000,4.000000,4.000000,4.000000,4.000000,4.000000,4.000000,4.000000,4.000000,4.000000,4.000000,4.000000,4.000000,4.000000,4.000000,4.000000,4.000000,4.000000,4.000000,4.000000,100.000000
1614409203.535473,72.000000,0.000000,2.509153,4.235764,-10.932123,-4.600896,5.503966,2.594252,-6.668498,6.330627,5.658884,5.819856,16.327169,15.796344,20.585600,19.294664,26.497683,98.885780,24.246029,47.587387,32.469296,26.664837,28.063204,18.206602,10.720296,29.753765,27.994011,21.693579,15.499740,14.686457,20.384750,24.346577,15.924589,-1.121879,0.000000,221.000000,4.000000,,,,0.000000,4.000000,4.000000,4.000000,4.000000,4.000000,4.000000,4.000000,4.000000,4.000000,4.000000,4.000000,4.000000,4.000000,4.000000,4.000000,4.000000,4.000000,4.000000,4.000000,4.000000,4.000000,4.000000,4.000000,4.000000,4.000000,4.000000,4.000000,4.000000,4.000000,4.000000,4.000000,4.000000,100.000000
1614409203.543223,73.000000,0.000000,0.455361,-0.383856,-10.921191,-4.596295,5.498462,2.591658,-10.764393,6.324296,5.653225,5.814036,7.592893,5.011317,7.744502,15.172805,21.855801,88.530487,10.888449,32.155186,19.616312,22.535608,23.419756,13.573010,3.530088,26.647089,25.914734,21.671886,13.945778,12.107668,16.261801,23.809408,12.318921,-9.325886,0.000000,198.000000,4.000000,,,,0.000000,4.000000,4.000000,4.000000,4.000000,4.000000,4.000000,4.000000,4.000000,4.000000,4.000000,4.000000,4.000000,4.000000,4.000000,4.000000,4.000000,4.000000,4.000000,4.000000,4.000000,4.000000,4.000000,4.000000,4.000000,4.000000,4.000000,4.000000,4.000000,4.000000,4.000000,4.000000,4.000000,100.000000
1614409203.551072,74.000000,0.000000,2.506188,-3.460396,-10.910270,-4.591699,5.492964,2.589066,-9.727988,6.317972,6.673213,5.808222,9.123762,1.416562,2.095731,8.490966,22.859587,71.006058,3.185253,28.533287,19.083876,20.461790,22.370695,12.533796,6.090661,22.005056,23.837538,21.650213,13.931832,10.557098,15.219899,24.811241,16.921986,-4.188355,0.000000,178.000000,4.000000,,,,0.000000,4.000000,4.000000,4.000000,4.000000,4.000000,4.000000,4.000000,4.000000,4.000000,4.000000,4.000000,4.000000,4.000000,4.000000,4.000000,4.000000,4.000000,4.000000,4.000000,4.000000,4.000000,4.000000,4.000000,4.000000,4.000000,4.000000,4.000000,4.000000,4.000000,4.000000,4.000000,4.000000,100.000000
1614409203.558821,75.000000,0.000000,0.965220,-2.431294,-10.386539,-4.074287,5.487471,3.099297,-9.718260,6.311654,5.640899,5.802414,12.191562,5.517709,8.247482,8.482474,24.888008,70.935051,8.823093,37.222702,21.116074,20.441328,19.271400,13.546904,8.135853,22.495872,22.275238,21.628563,14.430721,11.059362,15.717500,26.837711,21.007629,3.508141,0.000000,201.000000,4.000000,,,,0.000000,4.000000,4.000000,4.000000,4.000000,4.000000,4.000000,4.000000,4.000000,4.000000,4.000000,4.000000,4.000000,4.000000,4.000000,4.000000,4.000000,4.000000,4.000000,4.000000,4.000000,4.000000,4.000000,4.000000,4.000000,4.000000,4.000000,4.000000,4.000000,4.000000,4.000000,4.000000,4.000000,100.000000
1614409203.566670,76.000000,0.000000,3.015537,-2.428863,-11.914615,-6.121495,5.481984,2.583378,-10.221362,6.818163,1.019873,5.796611,10.640908,7.050653,13.880260,14.627838,26.401583,90.351295,15.480937,40.775223,19.043676,20.420887,16.688028,12.507716,7.614896,22.986197,19.688862,21.606936,13.903470,10.022661,15.188961,27.836515,18.422518,-1.623572,0.000000,196.000000,4.000000,,,,0.000000,4.000000,4.000000,4.000000,4.000000,4.000000,4.000000,4.000000,4.000000,4.000000,4.000000,4.000000,4.000000,4.000000,4.000000,4.000000,4.000000,4.000000,4.000000,4.000000,4.000000,4.000000,4.000000,4.000000,4.000000,4.000000,4.000000,4.000000,4.000000,4.000000,4.000000,4.000000,4.000000,100.000000
1614409203.574420,77.000000,0.000000,5.576624,-2.939255,-14.466803,-8.166656,5.476501,0.016692,-9.698320,5.272883,-2.058070,5.790815,11.143087,6.017962,13.866380,11.536287,26.888000,91.799408,15.465456,38.170345,21.075914,20.913286,15.132878,11.982388,9.658563,21.937571,19.156351,21.585329,14.402387,7.448536,15.173773,27.808678,15.839993,-9.314256,0.000000,164.000000,4.000000,,,,0.000000,4.000000,4.000000,4.000000,4.000000,4.000000,4.000000,4.000000,4.000000,4.000000,4.000000,4.000000,4.000000,4.000000,4.000000,4.000000,4.000000,4.000000,4.000000,4.000000,4.000000,4.000000,4.000000,4.000000,4.000000,4.000000,4.000000,4.000000,4.000000,4.000000,4.000000,4.000000,4.000000,100.000000
1614409203.582269,78.000000,0.000000,3.519766,-2.423495,-14.965156,-8.158488,5.471025,-1.521787,-9.688622,3.216328,-2.056012,5.785024,10.619124,6.524764,13.339693,6.396546,26.861113,80.938377,15.449990,37.619354,23.618940,15.764169,16.143387,13.508867,12.213007,21.402811,19.650015,21.563744,14.387984,6.928267,15.671419,27.780869,16.336973,-8.792121,0.000000,186.000000,4.000000,,,,0.000000,4.000000,4.000000,4.000000,4.000000,4.000000,4.000000,4.000000,4.000000,4.000000,4.000000,4.000000,4.000000,4.000000,4.000000,4.000000,4.000000,4.000000,4.000000,4.000000,4.000000,4.000000,4.000000,4.000000,4.000000,4.000000,4.000000,4.000000,4.000000,4.000000,4.000000,4.000000,4.000000,100.000000
1614409203.590018,79.000000,0.000000,1.464964,-2.421071,-14.437370,-8.150331,5.465554,-1.007444,-9.678933,2.187471,-1.541135,5.779239,6.505941,7.031060,14.351995,7.415791,26.321430,85.472824,15.947361,39.633015,20.005579,8.568917,17.152884,10.418435,12.200794,22.407051,19.630365,21.542179,14.373597,7.434160,15.655747,27.753088,16.320637,-7.757688,0.000000,177.000000,4.000000,,,,0.000000,4.000000,4.000000,4.000000,4.000000,4.000000,4.000000,4.000000,4.000000,4.000000,4.000000,4.000000,4.000000,4.000000,4.000000,4.000000,4.000000,4.000000,4.000000,4.000000,4.000000,4.000000,4.000000,4.000000,4.000000,4.000000,4.000000,4.000000,4.000000,4.000000,4.000000,4.000000,4.000000,100.000000
1614409203.597868,80.000000,0.000000,1.976319,-2.418650,-14.935754,-8.142179,5.460088,-1.006437,-9.669254,2.185283,-2.052415,5.773460,3.422512,6.511208,14.850463,2.280169,20.654083,86.412987,16.444235,40.619026,11.267625,4.970604,10.469064,4.766991,11.675773,22.384644,19.097916,21.520638,14.359223,7.426725,15.640092,27.725336,15.791495,-8.775572,0.000000,207.000000,4.000000,,,,0.000000,4.000000,4.000000,4.000000,4.000000,4.000000,4.000000,4.000000,4.000000,4.000000,4.000000,4.000000,4.000000,4.000000,4.000000,4.000000,4.000000,4.000000,4.000000,4.000000,4.000000,4.000000,4.000000,4.000000,4.000000,4.000000,4.000000,4.000000,4.000000,4.000000,4.000000,4.000000,4.000000,100.000000
1614409203.605617,81.000000,0.000000,1.974343,-2.416231,-14.407997,-8.134038,5.454628,-1.005430,-9.659585,2.695919,-1.537542,5.767686,3.419090,7.530338,13.809971,-4.388777,14.992404,75.557343,15.914969,34.424561,7.666613,3.939993,5.330390,6.300685,11.151277,18.259695,19.591637,21.499117,14.344864,7.419299,15.624452,27.697611,15.775704,-8.766796,0.000000,190.000000,4.000000,,,,0.000000,4.000000,4.000000,4.000000,4.000000,4.000000,4.000000,4.000000,4.000000,4.000000,4.000000,4.000000,4.000000,4.000000,4.000000,4.000000,4.000000,4.000000,4.000000,4.000000,4.000000,4.000000,4.000000,4.000000,4.000000,4.000000,4.000000,4.000000,4.000000,4.000000,4.000000,4.000000,4.000000,100.000000
1614409203.613466,82.000000,0.000000,1.972369,-2.413815,-13.880769,-8.125904,5.449174,-1.004425,-9.649925,4.744504,-1.536004,5.249098,4.441311,9.574090,14.308982,5.872022,16.003054,75.481789,15.899055,31.826033,16.376896,13.166822,15.068649,13.986692,12.678587,19.267076,19.572046,21.477617,14.843340,7.411880,16.121649,27.669912,16.785570,-7.732388,0.000000,186.000000,4.000000,,,,0.000000,4.000000,4.000000,4.000000,4.000000,4.000000,4.000000,4.000000,4.000000,4.000000,4.000000,4.000000,4.000000,4.000000,4.000000,4.000000,4.000000,4.000000,4.000000,4.000000,4.000000,4.000000,4.000000,4.000000,4.000000,4.000000,4.000000,4.000000,4.000000,4.000000,4.000000,4.000000,4.000000,100.000000
1614409203.621215,83.000000,0.000000,1.970396,-2.411402,-14.892529,-8.117778,5.443725,-1.003421,-9.640276,6.791042,-1.534468,5.756670,7.000973,11.102977,16.858776,20.737946,18.551153,85.662720,15.883155,45.640362,34.309235,28.538271,26.335632,17.562449,11.127447,27.452936,20.065294,21.456141,13.290034,7.404468,16.105526,28.155064,16.255964,-8.237476,0.000000,178.000000,4.000000,,,,0.000000,4.000000,4.000000,4.000000,4.000000,4.000000,4.000000,4.000000,4.000000,4.000000,4.000000,4.000000,4.000000,4.000000,4.000000,4.000000,4.000000,4.000000,4.000000,4.000000,4.000000,4.000000,4.000000,4.000000,4.000000,4.000000,4.000000,4.000000,4.000000,4.000000,4.000000,4.000000,4.000000,100.000000
1614409203.629065,84.000000,0.000000,1.455605,-2.408990,-14.364816,-8.109660,5.438281,-1.002417,-9.630635,6.271430,-1.532934,7.802195,10.583715,10.579054,18.380379,23.281309,19.558243,89.679619,16.380093,50.210106,42.480057,29.022552,28.360579,16.519245,4.962473,28.451124,19.532408,21.434683,11.225463,7.397063,15.063780,27.614088,15.726887,-8.229239,0.000000,191.000000,4.000000,,,,0.000000,4.000000,4.000000,4.000000,4.000000,4.000000,4.000000,4.000000,4.000000,4.000000,4.000000,4.000000,4.000000,4.000000,4.000000,4.000000,4.000000,4.000000,4.000000,4.000000,4.000000,4.000000,4.000000,4.000000,4.000000,4.000000,4.000000,4.000000,4.000000,4.000000,4.000000,4.000000,4.000000,100.000000
1614409203.636814,85.000000,0.000000,2.479791,-2.406581,-11.273528,-8.101550,5.432843,-1.001415,-9.621005,6.265159,-1.531401,9.332854,11.598773,10.568475,18.361998,21.206745,19.538685,85.487373,14.825251,31.698357,33.206806,18.737120,29.357859,15.989906,5.983151,21.756006,20.025696,21.413248,10.188596,7.389666,16.074358,27.586473,17.249622,-7.708189,0.000000,204.000000,4.000000,,,,0.000000,4.000000,4.000000,4.000000,4.000000,4.000000,4.000000,4.000000,4.000000,4.000000,4.000000,4.000000,4.000000,4.000000,4.000000,4.000000,4.000000,4.000000,4.000000,4.000000,4.000000,4.000000,4.000000,4.000000,4.000000,4.000000,4.000000,4.000000,4.000000,4.000000,4.000000,4.000000,4.000000,100.000000
1614409203.644463,86.000000,0.000000,5.041414,-2.404174,-11.262255,-8.093449,5.427410,-1.000413,-9.611383,6.258894,-1.529869,9.323522,11.587173,10.557906,18.343636,22.211180,18.493504,82.837784,12.246324,25.512812,24.968472,16.667101,20.097733,17.512377,11.105373,23.272713,20.518492,21.904655,10.691228,7.382277,16.058283,28.071707,15.693911,-8.213302,0.000000,180.000000,4.000000,,,,0.000000,4.000000,4.000000,4.000000,4.000000,4.000000,4.000000,4.000000,4.000000,4.000000,4.000000,4.000000,4.000000,4.000000,4.000000,4.000000,4.000000,4.000000,4.000000,4.000000,4.000000,4.000000,4.000000,4.000000,4.000000,4.000000,4.000000,4.000000,4.000000,4.000000,4.000000,4.000000,4.000000,100.000000
1614409203.652213,87.000000,0.000000,6.062013,-2.401770,-13.815095,-8.085356,5.421982,-0.999413,-9.601772,6.252635,-1.528340,9.314198,11.062766,10.547348,18.325293,23.214609,21.551933,89.421616,11.721256,39.333454,22.892220,14.599152,-4.024930,16.469225,6.478884,20.685337,15.882588,20.857111,10.680537,7.374894,9.888378,24.966713,9.524370,-12.307652,0.000000,206.000000,4.000000,,,,0.000000,4.000000,4.000000,4.000000,4.000000,4.000000,4.000000,4.000000,4.000000,4.000000,4.000000,4.000000,4.000000,4.000000,4.000000,4.000000,4.000000,4.000000,4.000000,4.000000,4.000000,4.000000,4.000000,4.000000,4.000000,4.000000,4.000000,4.000000,4.000000,4.000000,4.000000,4.000000,4.000000,100.000000
1614409203.659862,88.000000,0.000000,5.543131,-2.399369,-14.826921,-8.077270,5.416560,-0.998414,-9.592171,6.246383,-1.526811,9.304884,11.051703,10.536801,17.794146,22.165754,29.735510,95.998856,12.222356,36.217197,13.638559,7.405066,-14.277315,10.811729,1.344200,3.741575,9.200039,19.297792,10.157036,7.367519,4.237464,18.275080,4.899461,-15.885088,0.000000,201.000000,4.000000,,,,0.000000,4.000000,4.000000,4.000000,4.000000,4.000000,4.000000,4.000000,4.000000,4.000000,4.000000,4.000000,4.000000,4.000000,4.000000,4.000000,4.000000,4.000000,4.000000,4.000000,4.000000,4.000000,4.000000,4.000000,4.000000,4.000000,4.000000,4.000000,4.000000,4.000000,4.000000,4.000000,4.000000,100.000000
1614409203.667611,89.000000,0.000000,6.050408,-2.396969,-14.299273,-8.069193,5.923965,-0.997415,-9.582579,6.240136,-1.525285,9.295579,11.553473,10.526264,18.801992,15.989742,27.654493,90.261833,12.210134,27.463030,10.547997,6.372019,-6.057910,5.672713,5.445419,-4.467295,7.652378,17.740032,10.659699,7.360152,4.233227,15.692701,4.894562,-15.869203,0.000000,208.000000,4.000000,,,,0.000000,4.000000,4.000000,4.000000,4.000000,4.000000,4.000000,4.000000,4.000000,4.000000,4.000000,4.000000,4.000000,4.000000,4.000000,4.000000,4.000000,4.000000,4.000000,4.000000,4.000000,4.000000,4.000000,4.000000,4.000000,4.000000,4.000000,4.000000,4.000000,4.000000,4.000000,4.000000,4.000000,100.000000
1614409203.675261,90.000000,0.000000,5.018717,-2.394572,-14.284974,-8.573944,5.405220,-0.996418,-9.572996,6.233896,-1.523759,9.286283,9.490637,10.002917,14.167807,10.845548,16.857607,83.504906,12.197923,40.768902,21.819500,8.416929,-1.949288,4.641399,7.491256,4.255121,8.670366,16.183830,10.649039,7.352791,4.741814,16.189829,5.402488,-15.340513,0.000000,178.000000,4.000000,,,,0.000000,4.000000,4.000000,4.000000,4.000000,4.000000,4.000000,4.000000,4.000000,4.000000,4.000000,4.000000,4.000000,4.000000,4.000000,4.000000,4.000000,4.000000,4.000000,4.000000,4.000000,4.000000,4.000000,4.000000,4.000000,4.000000,4.000000,4.000000,4.000000,4.000000,4.000000,4.000000,4.000000,100.000000
1614409203.683010,91.000000,0.000000,1.936775,-2.392178,-14.270689,-7.539729,5.399815,-0.995421,-9.563423,6.227662,-1.522235,9.276997,4.352941,9.992914,3.384408,10.321881,14.789468,82.908577,11.160084,47.907619,23.848963,8.921333,-3.485800,5.149578,3.894021,9.379071,8.148875,14.116364,10.638391,7.345439,4.737072,16.173639,4.884265,-15.837994,0.000000,165.000000,4.000000,,,,0.000000,4.000000,4.000000,4.000000,4.000000,4.000000,4.000000,4.000000,4.000000,4.000000,4.000000,4.000000,4.000000,4.000000,4.000000,4.000000,4.000000,4.000000,4.000000,4.000000,4.000000,4.000000,4.000000,4.000000,4.000000,4.000000,4.000000,4.000000,4.000000,4.000000,4.000000,4.000000,4.000000,100.000000
1614409203.690660,92.000000,0.000000,1.422018,-2.389785,-14.256418,-5.480907,5.907235,-0.994426,-9.553860,6.221435,-1.520713,9.267720,3.322947,11.008562,-1.234361,7.747457,15.800320,79.235924,9.097642,28.885351,8.440499,9.938053,-1.943853,6.170069,3.890127,6.805590,8.140726,13.589428,10.627752,7.338093,4.732335,16.157467,5.392201,-15.822155,0.000000,179.000000,4.000000,,,,0.000000,4.000000,4.000000,4.000000,4.000000,4.000000,4.000000,4.000000,4.000000,4.000000,4.000000,4.000000,4.000000,4.000000,4.000000,4.000000,4.000000,4.000000,4.000000,4.000000,4.000000,4.000000,4.000000,4.000000,4.000000,4.000000,4.000000,4.000000,4.000000,4.000000,4.000000,4.000000,4.000000,100.000000
1614409203.698409,93.000000,0.000000,1.933416,-2.387396,-14.242162,-3.936965,4.875687,-0.993431,-9.544306,6.215213,-1.519192,9.258452,4.345265,10.484734,3.382258,3.124325,12.194776,78.131050,8.062903,15.523133,-1.311531,8.389653,-1.429088,5.651079,4.399058,7.311604,8.645406,12.550198,10.617125,7.330755,1.650680,16.141308,3.848347,-16.319153,0.000000,194.000000,4.000000,,,,0.000000,4.000000,4.000000,4.000000,4.000000,4.000000,4.000000,4.000000,4.000000,4.000000,4.000000,4.000000,4.000000,4.000000,4.000000,4.000000,4.000000,4.000000,4.000000,4.000000,4.000000,4.000000,4.000000,4.000000,4.000000,4.000000,4.000000,4.000000,4.000000,4.000000,4.000000,4.000000,4.000000,100.000000
1614409203.706058,94.000000,0.000000,1.418662,-2.385008,-14.227920,-4.445848,0.255427,-0.992438,-9.534761,6.208998,-1.517673,7.710732,2.802458,9.961429,7.481440,2.608380,16.285145,82.668304,8.567661,19.097353,5.356447,9.919725,1.136443,4.106966,4.907479,8.329934,8.123940,10.486365,10.606507,7.323424,-2.453535,16.637987,1.793217,-18.866938,0.000000,210.000000,4.000000,,,,0.000000,4.000000,4.000000,4.000000,4.000000,4.000000,4.000000,4.000000,4.000000,4.000000,4.000000,4.000000,4.000000,4.000000,4.000000,4.000000,4.000000,4.000000,4.000000,4.000000,4.000000,4.000000,4.000000,4.000000,4.000000,4.000000,4.000000,4.000000,4.000000,4.000000,4.000000,4.000000,4.000000,100.000000
1614409203.713808,95.000000,0.000000,1.930064,-2.382623,-14.213692,-4.441402,-2.821752,-0.991446,-9.525227,6.202789,-1.516156,5.651740,5.876579,14.566852,15.679087,7.733977,31.140654,86.688202,11.123196,29.847486,21.761347,22.217497,12.930179,13.333629,9.517956,7.808784,9.141458,9.450238,10.595901,7.316101,-0.912620,19.185452,1.278603,-19.360891,0.000000,169.000000,4.000000,,,,0.000000,4.000000,4.000000,4.000000,4.000000,4.000000,4.000000,4.000000,4.000000,4.000000,4.000000,4.000000,4.000000,4.000000,4.000000,4.000000,4.000000,4.000000,4.000000,4.000000,4.000000,4.000000,4.000000,4.000000,4.000000,4.000000,4.000000,4.000000,4.000000,4.000000,4.000000,4.000000,4.000000,100.000000
1614409203.721457,96.000000,0.000000,4.492237,-2.380241,-14.199478,-4.436961,-1.280468,-1.503275,-9.515701,6.196586,-1.514639,5.133267,13.563010,17.116386,23.868536,12.854448,37.263359,88.652794,13.163355,41.612511,32.508816,27.323484,23.173658,22.038244,11.559720,7.800975,11.183598,10.466429,10.585305,7.308785,1.652395,20.191908,1.790145,-15.751786,8064.000000,0.000000,4.000000,,,,0.000000,4.000000,4.000000,4.000000,4.000000,4.000000,4.000000,4.000000,4.000000,4.000000,4.000000,4.000000,4.000000,4.000000,4.000000,4.000000,4.000000,4.000000,4.000000,4.000000,4.000000,4.000000,4.000000,4.000000,4.000000,4.000000,4.000000,4.000000,4.000000,4.000000,4.000000,4.000000,4.000000,100.000000
1614409203.729206,97.000000,0.000000,6.026206,-2.377860,-14.698099,-4.945345,0.772094,-0.988951,-9.506186,6.190390,-1.513125,5.640954,13.036627,11.458245,12.562615,6.687747,23.379942,74.717987,7.509166,30.288847,22.219896,14.475649,16.996639,8.170052,8.471237,7.793174,12.198055,9.943142,10.574719,7.301476,0.625102,19.658895,1.275535,-10.607829,8064.000000,0.000000,4.000000,,,,0.000000,4.000000,4.000000,4.000000,4.000000,4.000000,4.000000,4.000000,4.000000,4.000000,4.000000,4.000000,4.000000,4.000000,4.000000,4.000000,4.000000,4.000000,4.000000,4.000000,4.000000,4.000000,4.000000,4.000000,4.000000,4.000000,4.000000,4.000000,4.000000,4.000000,4.000000,4.000000,4.000000,100.000000
1614409203.736856,98.000000,0.000000,5.507359,-2.375483,-14.683401,-4.940399,1.284142,1.063320,-9.496679,6.184199,-1.511612,5.635314,5.331282,5.805761,-5.911485,-5.113812,2.330922,45.412498,-0.190651,6.155994,-1.392066,4.717584,5.184770,-8.248375,7.437125,7.272560,12.185858,9.420378,10.564145,7.294175,0.111656,20.152058,0.761438,-7.520298,8064.000000,0.000000,4.000000,,,,0.000000,4.000000,4.000000,4.000000,4.000000,4.000000,4.000000,4.000000,4.000000,4.000000,4.000000,4.000000,4.000000,4.000000,4.000000,4.000000,4.000000,4.000000,4.000000,4.000000,4.000000,4.000000,4.000000,4.000000,4.000000,4.000000,4.000000,4.000000,4.000000,4.000000,4.000000,4.000000,4.000000,100.000000
1614409203.744705,99.000000,0.000000,5.501852,-2.373107,-13.130257,-3.909818,3.334140,3.113539,-9.487183,6.178015,-1.510100,5.629678,3.274669,6.312776,-4.879933,-4.595878,-3.312435,45.879910,3.912104,8.713942,-8.057341,5.738507,2.102663,-4.137562,8.455329,7.778108,11.660851,11.975060,10.553580,7.286880,1.137186,20.131905,2.299139,-7.512778,8064.000000,0.000000,4.000000,,,,0.000000,4.000000,4.000000,4.000000,4.000000,4.000000,4.000000,4.000000,4.000000,4.000000,4.000000,4.000000,4.000000,4.000000,4.000000,4.000000,4.000000,4.000000,4.000000,4.000000,4.000000,4.000000,4.000000,4.000000,4.000000,4.000000,4.000000,4.000000,4.000000,4.000000,4.000000,4.000000,4.000000,100.000000
1614409203.752454,100.000000,0.000000,5.496350,-2.370734,-15.168408,-4.418729,0.766704,3.110425,-9.477695,6.684658,-0.995769,5.111228,5.322676,7.332104,4.355716,3.613846,5.408826,71.987877,14.677423,27.166765,4.771229,7.271230,2.613380,-1.569322,8.446874,11.360074,12.674831,14.527188,10.543027,7.279593,1.136048,19.598953,1.271198,-7.505265,8064.000000,0.000000,4.000000,,,,0.000000,4.000000,4.000000,4.000000,4.000000,4.000000,4.000000,4.000000,4.000000,4.000000,4.000000,4.000000,4.000000,4.000000,4.000000,4.000000,4.000000,4.000000,4.000000,4.000000,4.000000,4.000000,4.000000,4.000000,4.000000,4.000000,4.000000,4.000000,4.000000,4.000000,4.000000,4.000000,4.000000,100.000000
1614409203.760304,101.000000,0.000000,5.490853,-2.881184,-18.230164,-5.439951,-5.387909,2.081674,-9.981038,6.165152,-1.507594,5.618937,3.778892,5.786311,2.812899,4.123053,7.967520,71.403069,16.714027,28.165239,16.048510,12.904984,3.636408,-2.080574,7.925606,11.861534,16.764721,13.487020,10.532484,7.272314,1.134912,23.169098,0.757107,-7.497760,8064.000000,0.000000,4.000000,,,,0.000000,4.000000,4.000000,4.000000,4.000000,4.000000,4.000000,4.000000,4.000000,4.000000,4.000000,4.000000,4.000000,4.000000,4.000000,4.000000,4.000000,4.000000,4.000000,4.000000,4.000000,4.000000,4.000000,4.000000,4.000000,4.000000,4.000000,4.000000,4.000000,4.000000,4.000000,4.000000,4.000000,100.000000
1614409203.768053,102.000000,0.000000,5.485363,-1.852661,-12.570907,0.719335,-1.279957,5.156515,-8.945416,6.158987,-1.506087,8.177421,3.262292,6.806165,5.374189,6.170212,7.446732,64.152176,15.671672,32.239639,22.699127,21.097208,12.863541,14.331763,7.917681,10.311211,22.388981,15.524815,12.573234,7.265042,5.236341,28.786953,9.474298,-8.003083,8064.000000,0.000000,4.000000,,,,0.000000,4.000000,4.000000,4.000000,4.000000,4.000000,4.000000,4.000000,4.000000,4.000000,4.000000,4.000000,4.000000,4.000000,4.000000,4.000000,4.000000,4.000000,4.000000,4.000000,4.000000,4.000000,4.000000,4.000000,4.000000,4.000000,4.000000,4.000000,4.000000,4.000000,4.000000,4.000000,4.000000,100.000000
1614409203.775902,103.000000,0.000000,5.479877,0.200473,-5.891669,6.872462,5.387990,13.356487,-6.372368,7.178469,-0.991760,9.707705,4.284671,9.876282,10.497020,10.779427,14.105952,85.626488,16.681641,42.463810,23.189249,17.999187,17.978882,22.009739,8.935404,15.941925,23.905054,21.663136,15.124763,7.257777,10.872130,32.347912,20.234055,-7.482259,8064.000000,0.000000,4.000000,,,,0.000000,4.000000,4.000000,4.000000,4.000000,4.000000,4.000000,4.000000,4.000000,4.000000,4.000000,4.000000,4.000000,4.000000,4.000000,4.000000,4.000000,4.000000,4.000000,4.000000,4.000000,4.000000,4.000000,4.000000,4.000000,4.000000,4.000000,4.000000,4.000000,4.000000,4.000000,4.000000,4.000000,100.000000
1614409203.783651,104.000000,0.000000,5.474397,1.225914,-11.526803,0.711743,-1.796886,13.855951,-5.340355,5.120008,-2.529230,9.185177,1.716284,10.379227,2.794215,1.537878,10.502103,89.130600,11.536755,28.575191,10.345547,3.109393,2.576288,1.987730,6.362366,22.079830,16.701662,17.538908,12.032715,7.250519,11.374079,31.289921,17.136898,-9.013239,8064.000000,0.000000,4.000000,,,,0.000000,4.000000,4.000000,4.000000,4.000000,4.000000,4.000000,4.000000,4.000000,4.000000,4.000000,4.000000,4.000000,4.000000,4.000000,4.000000,4.000000,4.000000,4.000000,4.000000,4.000000,4.000000,4.000000,4.000000,4.000000,4.000000,4.000000,4.000000,4.000000,4.000000,4.000000,4.000000,4.000000,100.000000
1614409203.791501,105.000000,0.000000,5.468923,1.224688,-20.233225,-8.519737,-13.077140,4.611326,-5.847835,0.499504,-7.142085,9.175992,-6.490561,7.804745,-6.952169,-11.796993,-3.867374,59.810703,1.781628,6.495335,-8.126337,-11.252690,-14.862185,-10.834771,-1.336304,14.878263,8.479832,7.264960,6.892477,7.243268,8.285782,24.079144,7.376171,-13.106790,8064.000000,0.000000,4.000000,,,,0.000000,4.000000,4.000000,4.000000,4.000000,4.000000,4.000000,4.000000,4.000000,4.000000,4.000000,4.000000,4.000000,4.000000,4.000000,4.000000,4.000000,4.000000,4.000000,4.000000,4.000000,4.000000,4.000000,4.000000,4.000000,4.000000,4.000000,4.000000,4.000000,4.000000,4.000000,4.000000,4.000000,100.000000
1614409203.799250,106.000000,0.000000,5.463454,1.223463,-21.751453,-8.511218,-13.576883,-1.547132,-5.841987,-2.065098,-9.186225,9.679636,-13.150737,6.771299,-8.996499,-16.400581,-12.068635,40.776531,0.241385,-0.690648,-19.400263,-14.831182,-15.360144,-7.234192,-3.386250,4.094153,7.958531,5.719233,5.859944,7.236025,8.277496,16.362757,4.804692,-16.170605,8064.000000,0.000000,4.000000,,,,0.000000,4.000000,4.000000,4.000000,4.000000,4.000000,4.000000,4.000000,4.000000,4.000000,4.000000,4.000000,4.000000,4.000000,4.000000,4.000000,4.000000,4.000000,4.000000,4.000000,4.000000,4.000000,4.000000,4.000000,4.000000,4.000000,4.000000,4.000000,4.000000,4.000000,4.000000,4.000000,4.000000,100.000000
1614409203.807099,107.000000,0.000000,5.457991,1.222240,-21.216881,-7.989886,-12.537665,-1.032764,-5.836145,-1.037392,-9.177039,9.157136,-9.035022,5.738886,-8.474682,-15.871360,-11.030925,37.658833,3.830887,-0.177137,-17.329580,-8.149684,-8.165297,-5.175676,-1.331581,3.064419,10.514675,9.303257,7.392545,7.228789,10.833322,15.320754,5.825529,-15.128794,8064.000000,0.000000,4.000000,,,,0.000000,4.000000,4.000000,4.000000,4.000000,4.000000,4.000000,4.000000,4.000000,4.000000,4.000000,4.000000,4.000000,4.000000,4.000000,4.000000,4.000000,4.000000,4.000000,4.000000,4.000000,4.000000,4.000000,4.000000,4.000000,4.000000,4.000000,4.000000,4.000000,4.000000,4.000000,4.000000,4.000000,100.000000
1614409203.814848,108.000000,0.000000,5.452533,1.221017,-18.631561,-6.956255,-12.012307,-1.031731,-5.830309,-1.036355,-8.142220,9.147979,0.204782,7.784430,0.764562,-4.060617,1.800619,50.954506,4.852697,15.720476,2.687750,1.602056,-0.464824,4.060268,-0.304609,4.599815,11.529801,10.832416,5.333871,7.221560,12.360950,16.843895,5.306882,-12.036742,8064.000000,0.000000,4.000000,,,,0.000000,4.000000,4.000000,4.000000,4.000000,4.000000,4.000000,4.000000,4.000000,4.000000,4.000000,4.000000,4.000000,4.000000,4.000000,4.000000,4.000000,4.000000,4.000000,4.000000,4.000000,4.000000,4.000000,4.000000,4.000000,4.000000,4.000000,4.000000,4.000000,4.000000,4.000000,4.000000,4.000000,100.000000
1614409203.822698,109.000000,0.000000,5.447080,3.271079,-15.536008,-2.333914,-7.897731,-1.543520,-4.286017,-1.548139,-6.595617,9.138831,4.819963,12.392030,14.097131,12.866521,21.285997,82.185600,7.411947,39.807320,25.249165,9.292762,8.253590,18.928003,5.336721,5.620857,14.082375,12.360044,7.379819,7.214339,11.835768,15.801410,4.788755,-11.511885,8064.000000,0.000000,4.000000,,,,0.000000,4.000000,4.000000,4.000000,4.000000,4.000000,4.000000,4.000000,4.000000,4.000000,4.000000,4.000000,4.000000,4.000000,4.000000,4.000000,4.000000,4.000000,4.000000,4.000000,4.000000,4.000000,4.000000,4.000000,4.000000,4.000000,4.000000,4.000000,4.000000,4.000000,4.000000,4.000000,4.000000,100.000000
1614409203.830447,110.000000,0.000000,4.928813,5.319089,-15.007651,-1.305939,-5.838551,-2.054797,-2.230449,-1.033770,-5.050560,7.591230,3.789501,13.405279,10.493290,12.340834,19.213428,87.231621,11.507099,35.664948,26.249556,12.873212,13.373542,19.421896,14.049334,10.743441,18.683678,13.886147,15.064747,7.207124,11.823933,15.272788,4.783967,-9.961911,8064.000000,0.000000,4.000000,,,,0.000000,4.000000,4.000000,4.000000,4.000000,4.000000,4.000000,4.000000,4.000000,4.000000,4.000000,4.000000,4.000000,4.000000,4.000000,4.000000,4.000000,4.000000,4.000000,4.000000,4.000000,4.000000,4.000000,4.000000,4.000000,4.000000,4.000000,4.000000,4.000000,4.000000,4.000000,4.000000,4.000000,100.000000
1614409203.838296,111.000000,0.000000,6.462345,4.800950,-12.941361,-0.791813,-5.319892,-2.052742,-2.228219,-1.545557,-5.045509,5.532357,2.760071,10.827771,3.303310,2.584903,5.348062,70.734138,12.008412,20.757488,15.966897,13.373159,13.872989,12.735807,15.573746,15.348083,19.690634,14.385080,18.639425,7.199917,12.324929,16.283155,5.292003,-7.387847,8064.000000,0.000000,4.000000,,,,0.000000,4.000000,4.000000,4.000000,4.000000,4.000000,4.000000,4.000000,4.000000,4.000000,4.000000,4.000000,4.000000,4.000000,4.000000,4.000000,4.000000,4.000000,4.000000,4.000000,4.000000,4.000000,4.000000,4.000000,4.000000,4.000000,4.000000,4.000000,4.000000,4.000000,4.000000,4.000000,4.000000,100.000000
1614409203.846046,112.000000,0.000000,9.019985,4.796149,-16.005342,-0.278201,-4.801752,-1.025048,-2.225991,-1.031191,-5.040464,5.014004,4.808593,9.791303,13.043596,5.146421,18.163227,86.048019,14.560507,33.557243,16.463751,14.898248,13.859116,15.799994,17.609453,14.819914,19.158123,14.370696,18.107965,7.192718,11.286963,16.266872,4.773890,-10.457382,8064.000000,0.000000,4.000000,,,,0.000000,4.000000,4.000000,4.000000,4.000000,4.000000,4.000000,4.000000,4.000000,4.000000,4.000000,4.000000,4.000000,4.000000,4.000000,4.000000,4.000000,4.000000,4.000000,4.000000,4.000000,4.000000,4.000000,4.000000,4.000000,4.000000,4.000000,4.000000,4.000000,4.000000,4.000000,4.000000,4.000000,100.000000
1614409203.853695,113.000000,0.000000,9.523786,4.791353,-27.271389,-6.944589,-10.437976,-2.049664,-2.223764,1.021122,-5.548244,5.521811,4.803784,11.319972,19.184399,5.654095,33.016857,96.218376,19.161331,41.215996,20.037029,17.960274,12.306795,21.425220,22.720049,15.317914,19.651785,11.792222,17.577038,7.185524,9.224394,14.199324,-0.359089,-20.703335,8064.000000,0.000000,4.000000,,,,0.000000,4.000000,4.000000,4.000000,4.000000,4.000000,4.000000,4.000000,4.000000,4.000000,4.000000,4.000000,4.000000,4.000000,4.000000,4.000000,4.000000,4.000000,4.000000,4.000000,4.000000,4.000000,4.000000,4.000000,4.000000,4.000000,4.000000,4.000000,4.000000,4.000000,4.000000,4.000000,4.000000,100.000000
1614409203.861444,114.000000,0.000000,9.001442,4.273741,-23.141554,-10.527388,-11.966000,-1.021974,-2.221541,2.045742,-5.029875,6.029109,-1.354866,10.283011,6.344702,-8.197713,15.035124,63.814468,16.065247,19.123497,10.786223,15.378210,10.243206,18.326872,17.569124,18.379519,18.606493,7.165046,16.533819,7.178339,7.676708,12.646663,-2.410012,-25.298016,8064.000000,0.000000,4.000000,,,,0.000000,4.000000,4.000000,4.000000,4.000000,4.000000,4.000000,4.000000,4.000000,4.000000,4.000000,4.000000,4.000000,4.000000,4.000000,4.000000,4.000000,4.000000,4.000000,4.000000,4.000000,4.000000,4.000000,4.000000,4.000000,4.000000,4.000000,4.000000,4.000000,4.000000,4.000000,4.000000,4.000000,100.000000
1614409203.869094,115.000000,0.000000,8.992440,5.295108,-1.067130,-0.773271,-0.671982,7.184176,0.344783,4.094979,-1.435102,7.561542,-2.891972,9.247087,-3.405233,-10.753618,-2.415809,40.160912,8.356874,3.206937,-5.634819,7.157703,8.694501,10.103416,7.807966,17.848320,16.023783,6.132239,13.953183,7.171161,8.181851,14.172478,3.746245,-15.016308,8064.000000,0.000000,4.000000,,,,0.000000,4.000000,4.000000,4.000000,4.000000,4.000000,4.000000,4.000000,4.000000,4.000000,4.000000,4.000000,4.000000,4.000000,4.000000,4.000000,4.000000,4.000000,4.000000,4.000000,4.000000,4.000000,4.000000,4.000000,4.000000,4.000000,4.000000,4.000000,4.000000,4.000000,4.000000,4.000000,4.000000,100.000000
1614409203.876843,116.000000,0.000000,8.983448,7.853916,10.728809,7.432631,9.585100,16.920582,4.447003,8.706268,3.694539,9.092442,4.290407,9.750661,-0.837725,1.052007,3.740453,61.659210,7.322875,9.870397,-7.680466,5.099264,6.121704,3.939467,6.261696,12.702266,14.469298,6.126107,13.426409,7.163990,8.173670,17.235229,9.383524,0.383324,8064.000000,0.000000,4.000000,,,,0.000000,4.000000,4.000000,4.000000,4.000000,4.000000,4.000000,4.000000,4.000000,4.000000,4.000000,4.000000,4.000000,4.000000,4.000000,4.000000,4.000000,4.000000,4.000000,4.000000,4.000000,4.000000,4.000000,4.000000,4.000000,4.000000,4.000000,4.000000,4.000000,4.000000,4.000000,4.000000,4.000000,100.000000
1614409203.884492,117.000000,0.000000,8.461644,8.871703,7.641157,6.912377,9.575515,18.442123,5.468197,8.697562,5.742126,9.083349,8.388680,9.228089,-0.324067,0.025314,1.172610,61.084732,7.828373,8.834886,-2.031760,5.606985,4.577121,1.371425,8.306717,10.125461,14.967649,6.632802,13.925803,7.156826,8.165496,16.192352,8.861320,3.972684,8064.000000,0.000000,4.000000,,,,0.000000,4.000000,4.000000,4.000000,4.000000,4.000000,4.000000,4.000000,4.000000,4.000000,4.000000,4.000000,4.000000,4.000000,4.000000,4.000000,4.000000,4.000000,4.000000,4.000000,4.000000,4.000000,4.000000,4.000000,4.000000,4.000000,4.000000,4.000000,4.000000,4.000000,4.000000,4.000000,4.000000,100.000000
1614409203.892242,118.000000,0.000000,9.478823,8.350011,5.582234,5.879824,8.540298,14.833938,4.949908,4.073480,5.736384,7.535805,2.739266,2.552195,-8.016050,-15.359326,-19.854204,28.715954,2.179519,-11.686770,-14.337420,-4.655032,6.111005,1.370054,6.247128,10.628156,15.465503,8.677451,14.424698,7.149669,8.157331,10.022314,8.339638,-2.185135,8064.000000,0.000000,4.000000,,,,0.000000,4.000000,4.000000,4.000000,4.000000,4.000000,4.000000,4.000000,4.000000,4.000000,4.000000,4.000000,4.000000,4.000000,4.000000,4.000000,4.000000,4.000000,4.000000,4.000000,4.000000,4.000000,4.000000,4.000000,4.000000,4.000000,4.000000,4.000000,4.000000,4.000000,4.000000,4.000000,4.000000,100.000000
1614409203.899891,119.000000,0.000000,8.443704,8.341660,4.551011,4.848303,9.044579,13.793463,4.944958,0.992483,5.730648,2.400064,-2.391678,-2.065742,-13.649060,-20.472172,-23.424093,22.020571,-0.386763,-21.418673,-25.605135,-10.804223,5.079253,0.343043,3.163958,11.130348,15.962857,10.720056,13.897452,7.142519,8.661994,5.396907,9.356939,-4.234232,8064.000000,0.000000,4.000000,,,,0.000000,4.000000,4.000000,4.000000,4.000000,4.000000,4.000000,4.000000,4.000000,4.000000,4.000000,4.000000,4.000000,4.000000,4.000000,4.000000,4.000000,4.000000,4.000000,4.000000,4.000000,4.000000,4.000000,4.000000,4.000000,4.000000,4.000000,4.000000,4.000000,4.000000,4.000000,4.000000,4.000000,100.000000
1614409203.907641,120.000000,0.000000,8.435260,8.333319,4.546460,3.817814,9.035534,13.779669,4.940013,3.555593,5.724917,1.372023,2.226098,6.654273,-4.404642,-11.220931,3.265998,54.819065,8.844393,2.705310,-6.092350,2.027094,7.125456,5.470905,3.673614,11.119218,14.921253,10.196515,13.883555,7.135376,8.140512,5.391510,9.347583,-3.204357,8064.000000,0.000000,4.000000,,,,0.000000,4.000000,4.000000,4.000000,4.000000,4.000000,4.000000,4.000000,4.000000,4.000000,4.000000,4.000000,4.000000,4.000000,4.000000,4.000000,4.000000,4.000000,4.000000,4.000000,4.000000,4.000000,4.000000,4.000000,4.000000,4.000000,4.000000,4.000000,4.000000,4.000000,4.000000,4.000000,4.000000,100.000000
1614409203.915290,121.000000,0.000000,13.042209,8.324986,7.106016,7.403739,13.129063,12.740248,6.473535,7.654602,5.719192,10.088599,11.454641,19.980951,12.522840,3.662085,26.339655,85.020653,18.066319,33.471836,24.682974,17.922503,24.554228,17.773127,12.387889,10.595279,20.034538,10.186318,16.946594,7.128241,8.132371,5.386118,8.825415,-4.226793,8064.000000,0.000000,4.000000,,,,0.000000,4.000000,4.000000,4.000000,4.000000,4.000000,4.000000,4.000000,4.000000,4.000000,4.000000,4.000000,4.000000,4.000000,4.000000,4.000000,4.000000,4.000000,4.000000,4.000000,4.000000,4.000000,4.000000,4.000000,4.000000,4.000000,4.000000,4.000000,4.000000,4.000000,4.000000,4.000000,4.000000,100.000000
1614409203.923039,122.000000,0.000000,15.593269,8.316661,6.586089,9.960439,16.705677,12.727508,8.518343,10.211050,5.200652,18.796459,16.058571,22.525074,20.715445,19.555859,26.826136,90.063843,21.125175,38.566570,34.401878,23.032785,40.939930,24.422020,19.042168,13.661606,30.783733,10.688952,18.980930,7.633934,9.149879,5.893553,8.816589,-4.735387,8192.000000,0.000000,4.000000,,,,0.000000,4.000000,4.000000,4.000000,4.000000,4.000000,4.000000,4.000000,4.000000,4.000000,4.000000,4.000000,4.000000,4.000000,4.000000,4.000000,4.000000,4.000000,4.000000,4.000000,4.000000,4.000000,4.000000,4.000000,4.000000,4.000000,4.000000,4.000000,4.000000,4.000000,4.000000,4.000000,4.000000,100.000000
1614409203.930689,123.000000,0.000000,9.423830,8.308344,9.143606,10.463299,16.176151,15.278883,8.509825,9.688018,6.221093,20.828945,14.504051,17.887163,17.104986,21.587585,23.209566,93.050697,19.052767,36.476719,25.649530,20.445650,31.155401,19.269392,13.894920,20.827433,27.163206,9.652622,11.782462,5.575017,6.063807,5.887659,8.807773,-4.730651,8064.000000,0.000000,4.000000,,,,0.000000,4.000000,4.000000,4.000000,4.000000,4.000000,4.000000,4.000000,4.000000,4.000000,4.000000,4.000000,4.000000,4.000000,4.000000,4.000000,4.000000,4.000000,4.000000,4.000000,4.000000,4.000000,4.000000,4.000000,4.000000,4.000000,4.000000,4.000000,4.000000,4.000000,4.000000,4.000000,4.000000,100.000000
1614409203.938438,124.000000,0.000000,4.286201,8.300035,16.826771,14.555399,16.672796,16.802065,8.501315,9.678330,8.266153,19.782475,14.489547,17.869276,15.549419,11.309587,25.237638,101.162773,11.341407,36.440243,19.470034,13.245717,10.611424,12.070636,4.650257,21.319426,10.212966,7.078867,0.488628,3.518160,0.929538,-3.348998,8.798965,-4.213100,8064.000000,0.000000,4.000000,,,,0.000000,4.000000,4.000000,4.000000,4.000000,4.000000,4.000000,4.000000,4.000000,4.000000,4.000000,4.000000,4.000000,4.000000,4.000000,4.000000,4.000000,4.000000,4.000000,4.000000,4.000000,4.000000,4.000000,4.000000,4.000000,4.000000,4.000000,4.000000,4.000000,4.000000,4.000000,4.000000,4.000000,100.000000
1614409203.946087,125.000000,0.000000,5.307556,8.291736,18.861225,18.130587,19.220226,16.785263,8.492814,10.181473,9.796349,20.275513,16.013519,19.389868,16.559511,7.708534,21.622658,90.805206,5.176219,26.660213,19.963385,7.078625,4.446967,10.007283,4.132786,12.580156,3.023266,6.046147,-1.563142,3.001822,0.415788,-13.089238,8.790166,-4.208888,8064.000000,0.000000,4.000000,,,,0.000000,4.000000,4.000000,4.000000,4.000000,4.000000,4.000000,4.000000,4.000000,4.000000,4.000000,4.000000,4.000000,4.000000,4.000000,4.000000,4.000000,4.000000,4.000000,4.000000,4.000000,4.000000,4.000000,4.000000,4.000000,4.000000,4.000000,4.000000,4.000000,4.000000,4.000000,4.000000,4.000000,100.000000
1614409203.953837,126.000000,0.000000,6.327889,8.283443,17.816723,17.086817,18.688185,16.768478,8.484321,10.171291,9.273732,20.768059,13.433403,13.729453,8.850644,7.700826,13.395906,76.355423,5.683864,19.454065,13.276754,4.507444,6.493802,9.997276,5.154294,6.413731,7.635627,7.578563,-0.023118,3.511641,1.441013,-12.050508,8.781376,-4.204679,8064.000000,0.000000,4.000000,,,,0.000000,4.000000,4.000000,4.000000,4.000000,4.000000,4.000000,4.000000,4.000000,4.000000,4.000000,4.000000,4.000000,4.000000,4.000000,4.000000,4.000000,4.000000,4.000000,4.000000,4.000000,4.000000,4.000000,4.000000,4.000000,4.000000,4.000000,4.000000,4.000000,4.000000,4.000000,4.000000,4.000000,100.000000
1614409203.961486,127.000000,0.000000,3.757459,8.275161,18.824547,17.582550,16.105394,16.751709,8.475837,8.109838,9.264459,19.721649,8.804585,6.536237,-2.440258,0.513638,5.690203,69.099579,0.549975,15.332047,-5.710882,-2.163730,3.923206,5.884715,0.533755,8.458599,7.115171,6.545343,-2.587197,3.508129,-1.637351,-13.576920,8.772594,-4.200474,8064.000000,0.000000,4.000000,,,,0.000000,4.000000,4.000000,4.000000,4.000000,4.000000,4.000000,4.000000,4.000000,4.000000,4.000000,4.000000,4.000000,4.000000,4.000000,4.000000,4.000000,4.000000,4.000000,4.000000,4.000000,4.000000,4.000000,4.000000,4.000000,4.000000,4.000000,4.000000,4.000000,4.000000,4.000000,4.000000,4.000000,100.000000
1614409203.969235,0.000000,0.000000,1.702419,8.266885,15.215979,16.539326,15.576468,16.734959,8.467360,6.050446,9.255194,17.137825,4.180396,4.991239,-7.053202,-6.153543,-5.597538,50.568943,-13.296729,-1.606362,-16.987223,-12.417976,0.329539,-0.787837,-4.082163,7.937320,1.467030,-2.179151,-4.635892,3.504621,-6.763919,-24.332573,8.763822,-4.196273,0.000000,165.000000,4.000000,,,,0.000000,4.000000,4.000000,4.000000,4.000000,4.000000,4.000000,4.000000,4.000000,4.000000,4.000000,4.000000,4.000000,4.000000,4.000000,4.000000,4.000000,4.000000,4.000000,4.000000,4.000000,4.000000,4.000000,4.000000,4.000000,4.000000,4.000000,4.000000,4.000000,4.000000,4.000000,4.000000,4.000000,100.000000
1614409203.976885,1.000000,0.000000,1.187896,8.258618,10.072558,12.933043,16.073711,16.718224,8.458894,5.531575,9.245938,12.505302,3.150574,6.524709,-4.482047,-4.096107,-12.258608,43.338886,-19.437279,-9.297063,-12.867671,-14.456841,-1.209252,-3.351152,-4.078081,0.749895,-0.072898,-8.330818,-5.144077,3.501116,-6.757155,-28.923626,8.755058,-4.192077,0.000000,173.000000,4.000000,,,,0.000000,4.000000,4.000000,4.000000,4.000000,4.000000,4.000000,4.000000,4.000000,4.000000,4.000000,4.000000,4.000000,4.000000,4.000000,4.000000,4.000000,4.000000,4.000000,4.000000,4.000000,4.000000,4.000000,4.000000,4.000000,4.000000,4.000000,4.000000,4.000000,4.000000,4.000000,4.000000,4.000000,100.000000
1614409203.984734,2.000000,0.000000,1.699529,8.763180,15.703511,15.997033,15.544818,16.701506,8.450435,6.038864,9.236692,8.390233,3.147424,6.518184,-3.964744,-3.579190,-9.682246,57.654522,-17.879379,-3.133919,-16.444546,-14.955204,-4.797786,-2.322160,-3.048362,-4.379060,0.952816,-5.245564,-4.113292,3.497615,-3.673475,-24.792137,8.746303,-4.700706,0.000000,186.000000,4.000000,,,,0.000000,4.000000,4.000000,4.000000,4.000000,4.000000,4.000000,4.000000,4.000000,4.000000,4.000000,4.000000,4.000000,4.000000,4.000000,4.000000,4.000000,4.000000,4.000000,4.000000,4.000000,4.000000,4.000000,4.000000,4.000000,4.000000,4.000000,4.000000,4.000000,4.000000,4.000000,4.000000,4.000000,100.000000
1614409203.992483,3.000000,0.000000,1.697829,7.215956,25.431396,19.570780,16.042093,16.684803,8.441984,5.520004,9.227456,8.381843,3.144276,5.998846,-6.012061,-7.165355,-15.826410,44.263535,-17.348680,-16.464119,-29.248615,-21.606916,-8.895553,-3.345478,-3.045314,-3.861860,0.951863,-4.214677,-3.596358,3.494117,-2.644160,-22.716063,8.737556,-4.183184,0.000000,203.000000,4.000000,,,,0.000000,4.000000,4.000000,4.000000,4.000000,4.000000,4.000000,4.000000,4.000000,4.000000,4.000000,4.000000,4.000000,4.000000,4.000000,4.000000,4.000000,4.000000,4.000000,4.000000,4.000000,4.000000,4.000000,4.000000,4.000000,4.000000,4.000000,4.000000,4.000000,4.000000,4.000000,4.000000,4.000000,100.000000
1614409204.000333,4.000000,0.000000,1.696132,5.157457,24.893145,15.448645,16.026051,16.668119,8.433542,7.565766,8.705408,8.373461,4.166773,5.992847,-2.416306,-5.619728,-20.425968,28.834656,-15.280049,-25.165604,-25.116802,-19.021206,-9.912298,-6.931876,-3.555089,-3.345178,0.950911,-9.851488,-6.156864,3.490623,-2.641516,-23.206167,8.728819,-4.179001,0.000000,139.000000,4.000000,,,,0.000000,4.000000,4.000000,4.000000,2.000000,4.000000,4.000000,4.000000,4.000000,4.000000,4.000000,4.000000,4.000000,4.000000,4.000000,4.000000,4.000000,4.000000,4.000000,4.000000,4.000000,4.000000,4.000000,4.000000,4.000000,4.000000,4.000000,4.000000,4.000000,4.000000,4.000000,4.000000,4.000000,83.333336
1614409204.008082,5.000000,0.000000,1.694435,4.126659,20.765688,11.843452,15.497205,16.651451,8.425109,9.609483,9.722343,8.365088,5.701068,8.038136,11.945085,1.565379,2.671380,61.626335,-6.546820,6.141613,-5.091685,2.536276,-4.261360,-6.412124,-3.038713,-4.367474,0.437140,-12.405739,-7.176348,3.999953,-2.638875,-23.182961,8.720090,-5.200463,0.000000,199.000000,4.000000,,,,0.000000,4.000000,4.000000,4.000000,2.000000,4.000000,4.000000,4.000000,4.000000,4.000000,4.000000,4.000000,4.000000,4.000000,4.000000,4.000000,4.000000,4.000000,4.000000,4.000000,4.000000,4.000000,4.000000,4.000000,4.000000,4.000000,4.000000,4.000000,4.000000,4.000000,4.000000,4.000000,4.000000,83.333336
1614409204.015931,6.000000,0.000000,1.692741,4.635353,25.873127,14.908532,17.020168,16.634800,8.416683,9.599874,11.763904,10.408005,9.285110,10.081380,24.753653,6.692019,27.284094,94.385223,3.716137,32.802139,6.708278,20.995279,6.512132,1.799416,-1.497213,-2.311824,1.462343,-11.367693,-2.040967,3.483133,-2.636236,-22.646957,8.711370,-3.143981,0.000000,184.000000,4.000000,,,,0.000000,4.000000,4.000000,4.000000,2.000000,4.000000,4.000000,4.000000,4.000000,4.000000,4.000000,4.000000,4.000000,4.000000,4.000000,4.000000,4.000000,4.000000,4.000000,4.000000,4.000000,4.000000,4.000000,4.000000,4.000000,4.000000,4.000000,4.000000,4.000000,4.000000,4.000000,4.000000,4.000000,83.333336
1614409204.023680,7.000000,0.000000,1.691048,4.630718,36.103664,17.457726,19.054432,16.618164,6.869805,9.590273,13.290601,12.448878,11.327107,10.071299,20.626335,7.710968,23.667067,73.265190,9.353446,26.102669,5.163108,19.948643,11.121004,9.489924,0.555566,0.254590,1.460881,-11.356325,0.012356,0.402726,-2.633600,-22.111490,8.702659,1.474548,0.000000,193.000000,4.000000,,,,0.000000,4.000000,4.000000,4.000000,2.000000,4.000000,4.000000,4.000000,4.000000,4.000000,4.000000,4.000000,4.000000,4.000000,4.000000,4.000000,4.000000,4.000000,4.000000,4.000000,4.000000,4.000000,4.000000,4.000000,4.000000,4.000000,4.000000,4.000000,4.000000,4.000000,4.000000,4.000000,4.000000,83.333336
1614409204.031530,8.000000,0.000000,1.689357,4.626087,37.093201,16.927448,20.061018,16.601545,4.811654,9.580683,12.764490,12.436430,7.726037,10.574048,9.836478,6.164795,12.361347,57.807312,7.292811,19.409901,6.183586,11.723565,5.468858,9.993256,0.555011,0.767156,-1.617503,-11.857789,-5.115861,-0.110497,-2.630966,-23.627840,8.693956,3.524355,0.000000,180.000000,4.000000,,,,0.000000,4.000000,4.000000,4.000000,2.000000,4.000000,4.000000,4.000000,4.000000,4.000000,4.000000,4.000000,4.000000,4.000000,4.000000,4.000000,4.000000,4.000000,4.000000,4.000000,4.000000,4.000000,4.000000,4.000000,4.000000,4.000000,4.000000,4.000000,4.000000,4.000000,4.000000,4.000000,4.000000,83.333336
1614409204.039279,9.000000,0.000000,1.687668,4.621461,25.774057,16.397699,19.528135,16.584944,4.294021,10.083922,12.751725,12.423993,4.128567,11.076294,4.698436,5.132989,12.861807,72.108482,1.131672,19.903311,7.715864,10.173380,1.873645,10.496082,0.554456,0.253568,-2.128706,-11.333111,-8.187668,-0.110386,-2.628335,-26.168316,8.685262,3.008011,0.000000,178.000000,4.000000,,,,0.000000,4.000000,4.000000,4.000000,2.000000,4.000000,4.000000,4.000000,4.000000,4.000000,4.000000,4.000000,4.000000,4.000000,4.000000,4.000000,4.000000,4.000000,4.000000,4.000000,4.000000,4.000000,4.000000,4.000000,4.000000,4.000000,4.000000,4.000000,4.000000,4.000000,4.000000,4.000000,4.000000,83.333336
1614409204.047128,10.000000,0.000000,1.685980,4.616839,21.645720,16.894123,19.508608,16.568359,4.802548,9.561018,12.738974,12.411570,3.098797,7.475474,0.591174,4.102215,9.772022,72.549194,-1.946383,14.242382,1.041482,10.163207,3.923054,8.947124,1.066722,0.766135,0.437525,-11.321777,-7.666660,-1.648737,-2.625707,-26.654968,8.676577,3.005003,0.000000,191.000000,4.000000,,,,0.000000,4.000000,4.000000,4.000000,2.000000,4.000000,4.000000,4.000000,4.000000,4.000000,4.000000,4.000000,4.000000,4.000000,4.000000,4.000000,4.000000,4.000000,4.000000,4.000000,4.000000,4.000000,4.000000,4.000000,4.000000,4.000000,4.000000,4.000000,4.000000,4.000000,4.000000,4.000000,4.000000,83.333336
1614409204.054878,11.000000,0.000000,1.684294,4.612222,29.829203,16.877228,19.489100,16.551792,4.797745,9.551457,12.726234,12.399158,3.608519,2.852614,-4.024802,3.072472,4.634045,64.784332,-1.431616,9.099935,-8.703150,10.665864,-3.773177,-4.395155,0.552835,0.765369,-2.127015,-11.310456,-7.658993,-4.211191,-2.623081,-27.141132,8.667900,3.514818,0.000000,201.000000,4.000000,,,,0.000000,4.000000,4.000000,4.000000,2.000000,4.000000,4.000000,4.000000,4.000000,4.000000,4.000000,4.000000,4.000000,4.000000,4.000000,4.000000,4.000000,4.000000,4.000000,4.000000,4.000000,4.000000,4.000000,4.000000,4.000000,4.000000,4.000000,4.000000,4.000000,4.000000,4.000000,4.000000,4.000000,83.333336
1614409204.062727,12.000000,0.000000,1.682610,4.607610,30.825014,16.860352,19.469610,16.535240,4.792947,9.541906,12.200688,12.386759,4.117731,2.849762,-5.046418,4.607861,5.142231,64.206734,-3.481466,5.501091,-11.258549,6.039814,-17.615559,-17.211273,0.552282,-3.337960,-8.278734,-11.299146,-8.164155,-4.206980,-2.620458,-29.678095,8.659232,2.485662,0.000000,188.000000,4.000000,,,,0.000000,4.000000,4.000000,4.000000,2.000000,4.000000,4.000000,4.000000,4.000000,4.000000,4.000000,4.000000,4.000000,4.000000,4.000000,4.000000,4.000000,4.000000,4.000000,4.000000,4.000000,4.000000,4.000000,4.000000,4.000000,4.000000,4.000000,4.000000,4.000000,4.000000,4.000000,4.000000,4.000000,83.333336
1614409204.070476,13.000000,0.000000,1.680927,4.603003,24.640343,16.843491,19.450140,16.005884,4.788155,9.019544,12.701308,10.835910,2.575152,1.308450,-6.579834,2.551971,-1.016757,53.373295,-6.042088,-1.683897,-8.683187,-6.786739,-21.187685,-18.219704,1.064550,-8.975648,-10.321737,-11.287847,-7.643170,-3.689953,-2.617837,-30.674057,8.650573,2.995997,0.000000,174.000000,4.000000,,,,0.000000,4.000000,4.000000,4.000000,2.000000,4.000000,4.000000,4.000000,4.000000,4.000000,4.000000,4.000000,4.000000,4.000000,4.000000,4.000000,4.000000,4.000000,4.000000,4.000000,4.000000,4.000000,4.000000,4.000000,4.000000,4.000000,4.000000,4.000000,4.000000,4.000000,4.000000,4.000000,4.000000,83.333336
1614409204.078325,14.000000,0.000000,1.679246,4.598400,26.666985,16.826647,19.430691,16.502699,4.783366,6.446422,12.175786,8.260972,-2.042808,-2.795422,-13.239921,-9.245453,-14.861895,34.345562,-6.036046,-6.297598,-12.264248,-16.523542,-17.063934,-16.150202,-2.013438,-11.530775,-9.798594,-11.276558,-7.635527,-3.686263,-2.615220,-30.130562,8.641923,5.044283,0.000000,200.000000,4.000000,,,,0.000000,4.000000,4.000000,4.000000,2.000000,4.000000,4.000000,4.000000,4.000000,4.000000,4.000000,4.000000,4.000000,4.000000,4.000000,4.000000,4.000000,4.000000,4.000000,4.000000,4.000000,4.000000,4.000000,4.000000,4.000000,4.000000,4.000000,4.000000,4.000000,4.000000,4.000000,4.000000,4.000000,83.333336
1614409204.086075,15.000000,0.000000,1.164747,4.593801,32.281342,16.809820,19.411261,16.486197,4.778583,4.901514,12.163610,8.252710,-4.604868,-4.843909,-20.406168,-16.415695,-24.077801,28.670189,-11.671035,-10.906685,-23.534035,-18.045481,-15.508409,-17.672512,-6.626809,-10.493603,-10.301617,-11.265282,-7.627892,-3.682576,-2.612604,-30.100431,8.633281,6.577701,0.000000,191.000000,4.000000,,,,0.000000,4.000000,4.000000,4.000000,2.000000,4.000000,4.000000,4.000000,4.000000,4.000000,4.000000,4.000000,4.000000,4.000000,4.000000,4.000000,4.000000,4.000000,4.000000,4.000000,4.000000,4.000000,4.000000,4.000000,4.000000,4.000000,4.000000,4.000000,4.000000,4.000000,4.000000,4.000000,4.000000,83.333336
1614409204.093924,16.000000,0.000000,1.676402,4.589207,32.761883,16.793011,19.391848,15.956889,4.773804,6.435073,14.715549,10.295740,-2.036160,-4.839065,-19.872940,-10.245433,-22.002441,31.205622,-17.813210,-12.947061,-26.074604,-17.514614,-14.980080,-17.142019,-7.645823,-10.483109,-9.778495,-11.254017,-7.620264,-3.678894,-2.609992,-30.070332,8.624647,6.571123,0.000000,176.000000,4.000000,,,,0.000000,4.000000,4.000000,4.000000,2.000000,4.000000,4.000000,4.000000,4.000000,4.000000,4.000000,4.000000,4.000000,4.000000,4.000000,4.000000,4.000000,4.000000,4.000000,4.000000,4.000000,4.000000,4.000000,4.000000,4.000000,4.000000,4.000000,4.000000,4.000000,4.000000,4.000000,4.000000,4.000000,83.333336
1614409204.101673,17.000000,0.000000,3.726008,4.584618,31.703480,16.776218,19.372458,17.479393,4.769031,8.479920,16.752115,12.336726,0.017158,-3.808585,-8.058196,-2.542879,-8.647106,38.353905,-15.744115,-0.626421,-9.125452,-8.779151,-11.375356,-11.996673,-6.099716,-11.498267,-7.204614,-11.242763,-7.612643,-3.675215,-2.607382,-30.040262,8.616023,6.564552,0.000000,203.000000,4.000000,,,,0.000000,4.000000,4.000000,4.000000,2.000000,4.000000,4.000000,4.000000,4.000000,4.000000,4.000000,4.000000,4.000000,4.000000,4.000000,4.000000,4.000000,4.000000,4.000000,4.000000,4.000000,4.000000,4.000000,4.000000,4.000000,4.000000,4.000000,4.000000,4.000000,4.000000,4.000000,4.000000,4.000000,83.333336
1614409204.109323,18.000000,0.000000,5.773564,4.580034,31.671776,16.759441,19.353085,19.513197,4.764262,9.497082,16.222544,12.324389,-0.495680,-1.753494,5.796016,-1.001875,8.284618,53.187344,-9.574525,13.733180,5.755468,6.101423,-6.235775,-4.805189,-3.529513,-9.948308,-5.658947,-11.231520,-7.605031,-3.671540,-2.604774,-30.010221,8.607407,6.557987,0.000000,177.000000,4.000000,,,,0.000000,4.000000,4.000000,4.000000,2.000000,4.000000,4.000000,4.000000,4.000000,4.000000,4.000000,4.000000,4.000000,4.000000,4.000000,4.000000,4.000000,4.000000,4.000000,4.000000,4.000000,4.000000,4.000000,4.000000,4.000000,4.000000,4.000000,4.000000,4.000000,4.000000,4.000000,4.000000,4.000000,83.333336
1614409204.117072,19.000000,0.000000,5.254970,4.575454,32.665745,16.742683,19.333731,20.519323,5.272318,9.487584,15.693500,11.799245,-0.495184,-0.726100,8.354322,-0.488052,13.917359,64.416206,-9.052130,13.206626,5.236892,11.223527,-1.614155,-1.210640,-3.525984,-4.810154,-7.191750,-11.220288,-7.597426,-4.180689,-2.602170,-29.980211,8.598799,6.551429,0.000000,188.000000,4.000000,,,,0.000000,4.000000,4.000000,4.000000,2.000000,4.000000,4.000000,4.000000,4.000000,4.000000,4.000000,4.000000,4.000000,4.000000,4.000000,4.000000,4.000000,4.000000,4.000000,4.000000,4.000000,4.000000,4.000000,4.000000,4.000000,4.000000,4.000000,4.000000,4.000000,4.000000,4.000000,4.000000,4.000000,83.333336
1614409204.124721,20.000000,0.000000,5.249715,4.570878,35.197182,16.725941,19.314398,19.985985,3.728584,9.478097,16.190626,12.300266,0.018132,-0.725374,6.294686,0.538077,11.339339,63.838970,-10.068718,11.654958,6.257296,9.161021,-1.099720,-1.722250,-3.009637,-2.754062,-4.620456,-9.157786,-7.589828,-2.638047,-2.599567,-29.950232,8.590200,6.544878,0.000000,221.000000,4.000000,,,,0.000000,4.000000,4.000000,4.000000,2.000000,4.000000,4.000000,4.000000,4.000000,4.000000,4.000000,4.000000,4.000000,4.000000,4.000000,4.000000,4.000000,4.000000,4.000000,4.000000,4.000000,4.000000,4.000000,4.000000,4.000000,4.000000,4.000000,4.000000,4.000000,4.000000,4.000000,4.000000,4.000000,83.333336
1614409204.132471,21.000000,0.000000,5.244465,4.566307,33.623524,16.709213,19.295082,19.965998,1.160753,7.930157,14.635975,12.800786,0.018113,-0.724648,8.852494,1.050359,13.892102,65.313591,-9.545829,17.797150,9.840782,10.690322,-1.611441,-1.207707,0.070295,-3.776949,2.563652,-7.097346,-7.582239,-0.071306,-2.596968,-29.920280,8.581611,7.051153,0.000000,209.000000,4.000000,,,,0.000000,4.000000,4.000000,4.000000,2.000000,4.000000,4.000000,4.000000,4.000000,4.000000,4.000000,4.000000,4.000000,4.000000,4.000000,4.000000,4.000000,4.000000,4.000000,4.000000,4.000000,4.000000,4.000000,4.000000,4.000000,4.000000,4.000000,4.000000,4.000000,4.000000,4.000000,4.000000,4.000000,83.333336
1614409204.140120,22.000000,0.000000,5.752041,4.561741,28.974514,15.154043,19.275787,19.946032,0.646771,5.870945,11.544415,11.762344,-0.494725,-0.723924,6.792359,-2.027614,12.339748,67.299561,-9.023463,13.163967,-0.938289,11.192452,-1.097009,-1.206499,1.608687,-2.234710,5.638011,-7.603069,-7.574656,0.441586,-2.594371,-30.403181,8.573029,4.480000,0.000000,176.000000,4.000000,,,,0.000000,4.000000,4.000000,4.000000,2.000000,4.000000,4.000000,4.000000,4.000000,4.000000,4.000000,4.000000,4.000000,4.000000,4.000000,4.000000,4.000000,4.000000,4.000000,4.000000,4.000000,4.000000,4.000000,4.000000,4.000000,4.000000,4.000000,4.000000,4.000000,4.000000,4.000000,4.000000,4.000000,83.333336
1614409204.147869,23.000000,0.000000,5.746289,4.557179,27.407080,13.087607,19.256512,19.926086,1.158945,5.352253,12.558513,11.750582,1.557052,-0.723200,-2.445202,-4.589689,3.096640,53.386108,-9.527260,-1.720992,-10.680941,5.540234,-1.608733,-4.282216,0.068616,0.844447,4.093912,-7.595466,-7.567081,-0.071676,-3.104597,-30.885597,8.564456,1.911417,0.000000,228.000000,4.000000,,,,0.000000,4.000000,4.000000,4.000000,2.000000,4.000000,4.000000,4.000000,4.000000,4.000000,4.000000,4.000000,4.000000,4.000000,4.000000,4.000000,4.000000,4.000000,4.000000,4.000000,4.000000,4.000000,4.000000,4.000000,4.000000,4.000000,4.000000,4.000000,4.000000,4.000000,4.000000,4.000000,4.000000,83.333336
1614409204.155519,24.000000,0.000000,4.714902,4.552622,28.405313,12.561699,19.237255,19.906160,1.157786,5.859722,17.161339,16.354216,3.606776,-0.722476,-0.904295,-0.995356,3.093543,45.640415,-9.517733,0.844832,-0.926670,2.457771,-1.607124,-5.303575,0.581368,0.330782,5.115459,-7.587871,-7.559515,-0.071604,-2.588672,-29.316252,8.555891,3.447967,0.000000,194.000000,4.000000,,,,0.000000,4.000000,4.000000,4.000000,2.000000,4.000000,4.000000,4.000000,4.000000,4.000000,4.000000,4.000000,4.000000,4.000000,4.000000,4.000000,4.000000,4.000000,4.000000,4.000000,4.000000,4.000000,4.000000,4.000000,4.000000,4.000000,4.000000,4.000000,4.000000,4.000000,4.000000,4.000000,4.000000,83.333336
1614409204.163268,25.000000,0.000000,5.735828,4.548069,28.376907,12.549137,19.218018,19.886253,1.156628,5.853862,20.221100,19.414785,4.115990,-0.721754,4.737635,0.544101,8.731475,66.620415,-9.508215,18.279884,5.740923,1.429672,-1.605517,-2.734169,1.093607,-0.182369,5.110343,-7.067462,-7.551955,-0.071533,-2.586083,-29.286934,8.547336,2.418878,0.000000,203.000000,4.000000,,,,0.000000,4.000000,4.000000,4.000000,2.000000,4.000000,4.000000,4.000000,4.000000,4.000000,4.000000,4.000000,4.000000,4.000000,4.000000,4.000000,4.000000,4.000000,4.000000,4.000000,4.000000,4.000000,4.000000,4.000000,4.000000,4.000000,4.000000,4.000000,4.000000,4.000000,4.000000,4.000000,4.000000,83.333336
1614409204.170918,26.000000,0.000000,5.730093,4.543521,27.322889,12.536588,19.198801,19.866367,1.155472,5.848008,19.688059,14.779985,3.599054,-0.721032,-3.472231,-4.071828,1.543257,72.707642,-9.498707,16.723143,-5.034048,-7.802527,-1.603911,-3.757075,-5.061332,1.356275,1.002669,-7.573215,-7.544403,-0.071461,-3.096318,-31.308929,8.538788,-2.198925,0.000000,197.000000,4.000000,,,,0.000000,4.000000,4.000000,4.000000,2.000000,4.000000,4.000000,4.000000,4.000000,4.000000,4.000000,4.000000,4.000000,4.000000,4.000000,4.000000,4.000000,4.000000,4.000000,4.000000,4.000000,4.000000,4.000000,4.000000,4.000000,4.000000,4.000000,4.000000,4.000000,4.000000,4.000000,4.000000,4.000000,83.333336
1614409204.178667,27.000000,0.000000,-0.429484,4.538978,28.321207,12.524052,19.179602,19.846500,1.154316,5.842160,19.668371,11.688283,3.595455,-0.720311,-10.648246,-0.478012,-7.689056,48.019550,-10.002028,1.834625,-11.182860,-17.025494,-2.115128,-4.778959,-10.697297,-0.696363,3.052948,-7.565642,-8.049679,-0.071390,-1.041939,-22.046852,9.043070,4.469940,0.000000,204.000000,4.000000,,,,0.000000,4.000000,4.000000,4.000000,2.000000,4.000000,4.000000,4.000000,4.000000,4.000000,4.000000,4.000000,4.000000,4.000000,4.000000,4.000000,4.000000,4.000000,4.000000,4.000000,4.000000,4.000000,4.000000,4.000000,4.000000,4.000000,4.000000,4.000000,4.000000,4.000000,4.000000,4.000000,4.000000,83.333336
1614409204.186316,28.000000,0.000000,-5.044439,4.534439,31.369810,12.511527,19.160421,19.826654,1.153162,5.836318,20.161522,14.753517,3.591859,-0.719591,0.131633,14.394260,-1.527521,47.971531,-8.966386,6.448175,-4.505011,-14.444366,-0.061731,-0.671616,-6.071215,-3.772590,9.716562,-5.506794,-7.015988,-0.071318,4.087308,-3.563266,11.598129,16.773163,0.000000,194.000000,4.000000,,,,0.000000,4.000000,4.000000,4.000000,2.000000,4.000000,4.000000,4.000000,4.000000,4.000000,4.000000,4.000000,4.000000,4.000000,4.000000,4.000000,4.000000,4.000000,4.000000,4.000000,4.000000,4.000000,4.000000,4.000000,4.000000,4.000000,4.000000,4.000000,4.000000,4.000000,4.000000,4.000000,4.000000,83.333336
1614409204.194066,29.000000,0.000000,-2.988112,4.529904,29.799978,13.011836,19.141262,19.806828,1.152009,5.830482,18.602900,14.225944,3.588267,-1.231692,9.362270,20.533712,5.653494,70.487663,-6.393316,16.698137,-0.397942,-9.301716,3.528075,2.405978,0.601523,-0.179074,11.245307,-3.450006,-4.444870,-0.071247,6.134502,-2.534062,13.124992,16.243568,0.000000,183.000000,4.000000,,,,0.000000,4.000000,4.000000,4.000000,2.000000,4.000000,4.000000,4.000000,4.000000,4.000000,4.000000,4.000000,4.000000,4.000000,4.000000,4.000000,4.000000,4.000000,4.000000,4.000000,4.000000,4.000000,4.000000,4.000000,4.000000,4.000000,4.000000,4.000000,4.000000,4.000000,4.000000,4.000000,4.000000,83.333336
