title:27, start timestamp:1614411681.076937, stop timestamp:1614411726.262194, headset type:EPOCFLEX, headset serial:F00001ED, headset firmware:f12, subject name:s12, channels:75, sampling rate:128, samples:5833      , version:2.0
Timestamp,EEG.Counter,EEG.Interpolated,EEG.Cz,EEG.Fz,EEG.Fp1,EEG.AF3,EEG.F7,EEG.F3,EEG.FC1,EEG.C3,EEG.FC5,EEG.T7,EEG.CP5,EEG.CP1,EEG.P3,EEG.P7,EEG.PO3,EEG.O1,EEG.Pz,EEG.Oz,EEG.O2,EEG.PO4,EEG.P8,EEG.P4,EEG.CP2,EEG.CP6,EEG.T8,EEG.FC6,EEG.C4,EEG.FC2,EEG.F4,EEG.F8,EEG.AF4,EEG.Fp2,EEG.HighBitFlex,EEG.RawCq,EEG.Battery,MarkerIndex,MarkerType,MarkerValueInt,EEG.MarkerHardware,CQ.Cz,CQ.Fz,CQ.Fp1,CQ.AF3,CQ.F7,CQ.F3,CQ.FC1,CQ.C3,CQ.FC5,CQ.T7,CQ.CP5,CQ.CP1,CQ.P3,CQ.P7,CQ.PO3,CQ.O1,CQ.Pz,CQ.Oz,CQ.O2,CQ.PO4,CQ.P8,CQ.P4,CQ.CP2,CQ.CP6,CQ.T8,CQ.FC6,CQ.C4,CQ.FC2,CQ.F4,CQ.F8,CQ.AF4,CQ.Fp2,CQ.Overall
1614411681.076937,50.000000,0.000000,-9.208673,-5.806952,-7.201583,-3.613956,5.967242,-0.663173,-2.752758,-7.030344,-2.508253,-0.190185,-7.884109,-8.729926,-4.892562,0.404126,-13.970110,7.747411,-12.494072,-10.470314,42.342995,-12.807971,-5.990959,-15.296950,-20.931782,-10.863868,-15.064285,-4.828598,-7.350320,-6.725020,-10.529550,-17.803972,-8.202915,-11.986269,8064.000000,0.000000,4.000000,,,,0.000000,4.000000,4.000000,4.000000,4.000000,4.000000,4.000000,4.000000,4.000000,4.000000,4.000000,4.000000,4.000000,4.000000,4.000000,4.000000,4.000000,4.000000,4.000000,4.000000,4.000000,4.000000,4.000000,4.000000,4.000000,4.000000,4.000000,4.000000,4.000000,4.000000,4.000000,4.000000,4.000000,100.000000
1614411681.084786,51.000000,0.000000,-9.199465,-5.801145,-7.707201,-3.610342,5.961275,-0.662510,-2.750005,-7.023313,-2.505745,-0.189995,-7.876225,-11.798120,-4.887670,0.403722,-13.443319,8.252484,-12.994398,-6.357280,43.326294,-16.384907,-10.087532,-17.845757,-22.449312,-18.545311,-17.613323,-4.823770,-7.855791,-6.718295,-11.031840,-17.786169,-8.194712,-11.974282,8064.000000,0.000000,4.000000,,,,0.000000,4.000000,4.000000,4.000000,4.000000,4.000000,4.000000,4.000000,4.000000,4.000000,4.000000,4.000000,4.000000,4.000000,4.000000,4.000000,4.000000,4.000000,4.000000,4.000000,4.000000,4.000000,4.000000,4.000000,4.000000,4.000000,4.000000,4.000000,4.000000,4.000000,4.000000,4.000000,4.000000,100.000000
1614411681.092536,52.000000,0.000000,-9.190265,-6.308164,-8.212315,-4.119552,5.955313,-0.661847,-2.747255,-7.016290,-2.503239,-0.189805,-7.868348,-12.811962,-4.369961,0.403319,-12.917056,8.244232,-12.981403,7.495231,59.180405,-15.342881,-4.949239,-13.212525,-21.401220,-19.039587,-15.544428,-4.818946,-7.847935,-6.711577,-11.020808,-17.768383,-8.186518,-11.449488,8064.000000,0.000000,4.000000,,,,0.000000,4.000000,4.000000,4.000000,4.000000,4.000000,4.000000,4.000000,4.000000,4.000000,4.000000,4.000000,4.000000,4.000000,4.000000,4.000000,4.000000,4.000000,4.000000,4.000000,4.000000,4.000000,4.000000,4.000000,4.000000,4.000000,4.000000,4.000000,4.000000,4.000000,4.000000,4.000000,4.000000,100.000000
1614411681.100385,53.000000,0.000000,-9.181074,-5.789035,-5.127180,-3.089792,5.949358,-0.661185,-2.744508,-7.009274,-2.500736,-0.189615,-7.860480,-12.286330,-6.416873,0.402915,-13.416959,7.723167,-12.968422,10.564659,68.864815,-12.763435,-2.893008,-9.096748,-21.379820,-12.866701,-12.964781,-4.814127,-7.327266,-6.704865,-10.496967,-18.263433,-8.691152,-11.950859,8064.000000,0.000000,4.000000,,,,0.000000,4.000000,4.000000,4.000000,4.000000,4.000000,4.000000,4.000000,4.000000,4.000000,4.000000,4.000000,4.000000,4.000000,4.000000,4.000000,4.000000,4.000000,4.000000,4.000000,4.000000,4.000000,4.000000,4.000000,4.000000,4.000000,4.000000,4.000000,4.000000,4.000000,4.000000,4.000000,4.000000,100.000000
1614411681.108134,54.000000,0.000000,-9.171893,-5.270426,-3.070770,-0.522599,5.943408,-0.660524,-2.741763,-7.002264,-2.498235,-0.189426,-7.852620,-12.274043,-8.461739,0.915333,-12.890721,7.715444,-12.955454,-1.753598,48.283127,-11.725031,-6.992679,-10.113293,-21.871262,-13.879476,-13.464637,-4.809313,-7.319939,-6.698161,-12.024932,-18.245171,-5.605537,-10.913267,8064.000000,0.000000,4.000000,,,,0.000000,4.000000,4.000000,4.000000,4.000000,4.000000,4.000000,4.000000,4.000000,4.000000,4.000000,4.000000,4.000000,4.000000,4.000000,4.000000,4.000000,4.000000,4.000000,4.000000,4.000000,4.000000,4.000000,4.000000,4.000000,4.000000,4.000000,4.000000,4.000000,4.000000,4.000000,4.000000,4.000000,100.000000
1614411681.115983,55.000000,0.000000,-9.162722,-6.290796,-4.606161,0.503565,5.937465,-0.659864,-2.739022,-6.995262,-2.495737,-0.189236,-7.844767,-12.261769,-8.453277,0.914418,-13.390652,8.733370,-12.942498,-9.444152,39.004074,-11.713305,-3.395943,-10.103180,-21.849390,-15.916878,-10.887070,-4.804504,-8.851081,-6.691463,-8.423163,-17.714106,-1.497367,-6.286969,8064.000000,0.000000,4.000000,,,,0.000000,4.000000,4.000000,4.000000,4.000000,4.000000,4.000000,4.000000,4.000000,4.000000,4.000000,4.000000,4.000000,4.000000,4.000000,4.000000,4.000000,4.000000,4.000000,4.000000,4.000000,4.000000,4.000000,4.000000,4.000000,4.000000,4.000000,4.000000,4.000000,4.000000,4.000000,4.000000,4.000000,100.000000
1614411681.123732,56.000000,0.000000,-9.666379,-5.258864,-3.575914,-0.009760,5.931528,-0.659204,-2.736283,-6.988266,-2.493241,-0.189047,-8.349743,-12.762328,-8.444823,0.400683,-12.351620,7.186174,-12.929556,-8.409067,56.400967,-11.701592,4.299761,-9.580256,-18.237797,-11.285577,-3.696695,-4.799699,-5.252486,-6.684771,0.816029,-15.645109,-0.470229,-1.665298,8064.000000,0.000000,4.000000,,,,0.000000,4.000000,4.000000,4.000000,4.000000,4.000000,4.000000,4.000000,4.000000,4.000000,4.000000,4.000000,4.000000,4.000000,4.000000,4.000000,4.000000,4.000000,4.000000,4.000000,4.000000,4.000000,4.000000,4.000000,4.000000,4.000000,4.000000,4.000000,4.000000,4.000000,4.000000,4.000000,4.000000,100.000000
1614411681.131581,57.000000,0.000000,-8.118252,-0.638221,2.581508,-0.009750,6.438416,-0.658545,-2.220726,-6.981278,-1.977928,-0.188858,-6.802931,-11.723925,-8.436378,-0.112539,-8.749525,4.102065,-10.865344,-11.477581,51.216362,-11.177071,6.346743,-9.570676,-14.116995,-9.223009,-1.128896,-4.794899,3.983536,-6.678086,5.430598,-11.526899,-0.982579,0.387650,8064.000000,0.000000,4.000000,,,,0.000000,4.000000,4.000000,4.000000,4.000000,4.000000,4.000000,4.000000,4.000000,4.000000,4.000000,4.000000,4.000000,4.000000,4.000000,4.000000,4.000000,4.000000,4.000000,4.000000,4.000000,4.000000,4.000000,4.000000,4.000000,4.000000,4.000000,4.000000,4.000000,4.000000,4.000000,4.000000,4.000000,100.000000
1614411681.139330,58.000000,0.000000,-5.546031,-0.124762,3.604568,0.503080,4.380696,-0.657886,-3.244146,-6.974297,-3.514411,-0.188669,-4.232026,-9.148098,-6.376660,1.426036,-5.663852,6.149245,-9.316017,-11.466104,31.677967,-11.678714,5.314755,-10.073926,-13.590057,-9.213786,-2.153408,-4.277284,8.594937,-6.671408,4.912347,-7.412809,-0.981597,-0.125558,8064.000000,0.000000,4.000000,,,,0.000000,4.000000,4.000000,4.000000,4.000000,4.000000,4.000000,4.000000,4.000000,4.000000,4.000000,4.000000,4.000000,4.000000,4.000000,4.000000,4.000000,4.000000,4.000000,4.000000,4.000000,4.000000,4.000000,4.000000,4.000000,4.000000,4.000000,4.000000,4.000000,4.000000,4.000000,4.000000,4.000000,100.000000
1614411681.147179,59.000000,0.000000,-5.027664,-4.740022,-4.604165,-1.548705,2.325033,-0.657228,-5.805005,-6.967323,-5.562179,0.324340,-3.714973,-8.113309,-4.319002,-2.677955,-5.145368,11.784122,-8.793881,-4.787971,44.466801,-11.154215,5.822261,-10.063851,-14.089288,-5.614829,-1.638434,-4.273007,7.560701,-6.151916,4.394614,-5.866934,-0.467795,-5.253638,8064.000000,0.000000,4.000000,,,,0.000000,4.000000,4.000000,4.000000,4.000000,4.000000,4.000000,4.000000,4.000000,4.000000,4.000000,4.000000,4.000000,4.000000,4.000000,4.000000,4.000000,4.000000,4.000000,4.000000,4.000000,4.000000,4.000000,4.000000,4.000000,4.000000,4.000000,4.000000,4.000000,4.000000,4.000000,4.000000,4.000000,100.000000
1614411681.154928,60.000000,0.000000,-5.535457,-6.786564,-7.163663,-3.598438,1.809888,-0.656571,-6.824841,-6.960355,-6.582258,-1.727266,-4.224079,-8.618016,-4.827503,-11.393226,-5.653043,12.285158,-9.297908,-2.219080,63.396694,-9.091779,5.816439,-10.053788,-13.562378,-1.506649,-2.662436,-4.781554,7.040320,-6.658585,2.851758,-6.886709,-0.980147,-11.402230,8064.000000,0.000000,4.000000,,,,0.000000,4.000000,4.000000,4.000000,4.000000,4.000000,4.000000,4.000000,4.000000,4.000000,4.000000,4.000000,4.000000,4.000000,4.000000,4.000000,4.000000,4.000000,4.000000,4.000000,4.000000,4.000000,4.000000,4.000000,4.000000,4.000000,4.000000,4.000000,4.000000,4.000000,4.000000,4.000000,4.000000,100.000000
1614411681.162777,61.000000,0.000000,-5.529922,-5.241316,0.022987,-4.107660,2.320899,-0.655914,-6.305195,-6.953395,-6.062855,-3.776821,-4.219855,-8.609399,-4.822676,-8.817730,-5.647390,11.760053,-9.288610,-3.755322,53.076885,-7.544225,5.297802,-10.556555,-13.548816,-2.017963,-5.223877,-4.263952,8.058921,-6.651926,0.797624,-6.367001,-0.979167,-11.903648,8064.000000,0.000000,4.000000,,,,0.000000,4.000000,4.000000,4.000000,4.000000,4.000000,4.000000,4.000000,4.000000,4.000000,4.000000,4.000000,4.000000,4.000000,4.000000,4.000000,4.000000,4.000000,4.000000,4.000000,4.000000,4.000000,4.000000,4.000000,4.000000,4.000000,4.000000,4.000000,4.000000,4.000000,4.000000,4.000000,4.000000,100.000000
1614411681.170526,62.000000,0.000000,-5.011571,-5.748895,4.638349,-3.590732,2.318578,-0.655258,-6.298890,-6.946442,-6.056792,-3.773044,-4.215635,-8.087969,-4.305033,4.524421,-5.128922,16.363676,-8.766500,-2.213106,40.716118,-7.536681,5.805325,-9.520357,-14.048087,-2.528766,-6.244294,-4.259688,8.563682,-6.132454,0.284006,-5.847814,-0.978188,-10.866104,8064.000000,0.000000,4.000000,,,,0.000000,4.000000,4.000000,4.000000,4.000000,4.000000,4.000000,4.000000,4.000000,4.000000,4.000000,4.000000,4.000000,4.000000,4.000000,4.000000,4.000000,4.000000,4.000000,4.000000,4.000000,4.000000,4.000000,4.000000,4.000000,4.000000,4.000000,4.000000,4.000000,4.000000,4.000000,4.000000,4.000000,100.000000
1614411681.178375,63.000000,0.000000,-5.006559,-5.743146,2.582429,-3.587141,2.316259,-0.654603,-6.292591,-6.939495,-6.050735,-3.769271,-4.211419,-8.592701,-4.813548,9.135282,-3.585331,21.475519,-6.706452,-2.210892,43.239502,-8.554785,4.261058,-6.946734,-14.034039,-2.013417,-5.725229,-7.845172,4.452554,-7.664783,-3.306022,-8.406069,-0.977210,-11.880879,8064.000000,0.000000,4.000000,,,,0.000000,4.000000,4.000000,4.000000,4.000000,4.000000,4.000000,4.000000,4.000000,4.000000,4.000000,4.000000,4.000000,4.000000,4.000000,4.000000,4.000000,4.000000,4.000000,4.000000,4.000000,4.000000,4.000000,4.000000,4.000000,4.000000,4.000000,4.000000,4.000000,4.000000,4.000000,4.000000,4.000000,100.000000
1614411681.186124,64.000000,0.000000,-5.514373,-5.737403,2.579846,-4.096375,2.313943,-0.653949,-6.286299,-6.932556,-6.044684,-3.765502,-4.207208,-8.584108,-4.808734,7.587685,-2.043284,24.018145,-5.674105,0.355421,47.811649,-8.033410,2.205515,-5.914146,-14.020005,-2.011403,-5.719504,-11.939891,-2.218565,-9.708400,-7.918100,-13.013047,-0.976233,-11.868999,0.000000,189.000000,4.000000,,,,0.000000,4.000000,4.000000,4.000000,4.000000,4.000000,4.000000,4.000000,4.000000,4.000000,4.000000,4.000000,4.000000,4.000000,4.000000,4.000000,4.000000,4.000000,4.000000,4.000000,4.000000,4.000000,4.000000,4.000000,4.000000,4.000000,4.000000,4.000000,4.000000,4.000000,4.000000,4.000000,4.000000,100.000000
1614411681.193973,65.000000,0.000000,-4.996038,-5.731666,3.602907,-2.553817,2.311629,-0.653295,-6.280012,-6.925623,-6.038640,-3.761737,-4.203001,-8.575524,-3.778285,8.605738,-1.015600,23.481306,-5.668430,7.534553,56.994606,-3.409992,1.690489,-6.421052,-14.005985,-4.060674,-5.713784,-11.927951,-3.754808,-10.724333,-6.371721,-14.538496,-0.975256,-11.344309,0.000000,208.000000,4.000000,,,,0.000000,4.000000,4.000000,4.000000,4.000000,4.000000,4.000000,4.000000,4.000000,4.000000,4.000000,4.000000,4.000000,4.000000,4.000000,4.000000,4.000000,4.000000,4.000000,4.000000,4.000000,4.000000,4.000000,4.000000,4.000000,4.000000,4.000000,4.000000,4.000000,4.000000,4.000000,4.000000,4.000000,100.000000
1614411681.201722,66.000000,0.000000,-5.503863,-5.213114,3.086484,0.012840,2.309317,-0.139821,-5.760912,-6.918697,-6.032601,-3.757975,-4.198798,-8.566949,-6.338609,1.930466,-2.553046,10.637313,-5.662762,-0.678110,57.450432,-5.457864,2.201619,-6.414631,-13.991979,-5.595075,-5.708071,-12.428843,-4.776694,-10.200788,-3.288426,-14.011137,-0.974281,-11.332964,0.000000,187.000000,4.000000,,,,0.000000,4.000000,4.000000,4.000000,4.000000,4.000000,4.000000,4.000000,4.000000,4.000000,4.000000,4.000000,4.000000,4.000000,4.000000,4.000000,4.000000,4.000000,4.000000,4.000000,4.000000,4.000000,4.000000,4.000000,4.000000,4.000000,4.000000,4.000000,4.000000,4.000000,4.000000,4.000000,4.000000,100.000000
1614411681.209371,67.000000,0.000000,-9.600924,-6.746362,3.083397,-1.525635,2.307008,-1.678143,-7.806433,-6.911779,-6.026568,-6.318319,-4.194599,-9.071202,-10.947655,-10.379157,-8.191519,-7.834863,-6.169920,-17.600510,42.521187,-15.708817,1.173776,-6.408217,-13.977987,-6.102300,-5.702363,-15.493338,-9.900123,-10.190587,-6.362061,-14.509946,-0.973307,-11.321631,0.000000,207.000000,4.000000,,,,0.000000,4.000000,4.000000,4.000000,4.000000,4.000000,4.000000,4.000000,4.000000,4.000000,4.000000,4.000000,4.000000,4.000000,4.000000,4.000000,4.000000,4.000000,4.000000,4.000000,4.000000,4.000000,4.000000,4.000000,4.000000,4.000000,4.000000,4.000000,4.000000,4.000000,4.000000,4.000000,4.000000,100.000000
1614411681.217120,68.000000,0.000000,-13.181066,-8.790897,3.080314,-3.575391,2.304701,-3.727746,-9.849909,-6.904867,-6.020542,-7.850462,-4.190404,-8.036490,-12.987989,-11.907239,-10.747430,-9.878310,-5.650929,-7.839319,45.042767,-11.590544,1.685423,-6.914629,-13.964009,-8.147480,-6.209481,-16.503487,-12.454325,-10.180396,-11.483904,-14.495436,-0.972333,-11.823131,0.000000,183.000000,4.000000,,,,0.000000,4.000000,4.000000,4.000000,4.000000,4.000000,4.000000,4.000000,4.000000,4.000000,4.000000,4.000000,4.000000,4.000000,4.000000,4.000000,4.000000,4.000000,4.000000,4.000000,4.000000,4.000000,4.000000,4.000000,4.000000,4.000000,4.000000,4.000000,4.000000,4.000000,4.000000,4.000000,4.000000,100.000000
1614411681.224769,69.000000,0.000000,-12.655065,-9.807748,3.077234,-3.571816,2.815217,-4.749660,-9.840058,-6.897962,-6.014522,-7.329792,-4.186214,-5.977171,-11.949361,-6.254306,-4.582836,-1.150483,-2.568355,9.604418,60.382339,-1.322543,1.683737,-6.394894,-13.950045,-9.677794,-5.690451,-15.461341,-10.903409,-10.170217,-10.959599,-11.916838,-0.971361,-11.298487,0.000000,191.000000,4.000000,,,,0.000000,4.000000,4.000000,4.000000,4.000000,4.000000,4.000000,4.000000,4.000000,4.000000,4.000000,4.000000,4.000000,4.000000,4.000000,4.000000,4.000000,4.000000,4.000000,4.000000,4.000000,4.000000,4.000000,4.000000,4.000000,4.000000,4.000000,4.000000,4.000000,4.000000,4.000000,4.000000,4.000000,100.000000
1614411681.232518,70.000000,0.000000,-12.642409,-9.285120,3.074157,-4.593885,2.299581,-4.232090,-10.343039,-6.891064,-6.008507,-7.322462,-5.720489,-4.432733,-11.937411,-3.171129,-3.039792,-0.636512,-3.078608,-7.841084,44.937344,-12.090451,-3.446151,-6.901320,-13.936095,-7.104013,-5.684760,-15.445880,-11.405326,-10.160046,-7.871716,-9.853639,-0.970390,-11.287188,0.000000,204.000000,4.000000,,,,0.000000,4.000000,4.000000,4.000000,4.000000,4.000000,4.000000,4.000000,4.000000,4.000000,4.000000,4.000000,4.000000,4.000000,4.000000,4.000000,4.000000,4.000000,4.000000,4.000000,4.000000,4.000000,4.000000,4.000000,4.000000,4.000000,4.000000,4.000000,4.000000,4.000000,4.000000,4.000000,4.000000,100.000000
1614411681.240168,71.000000,0.000000,-13.142588,-9.788655,3.071082,-3.050829,2.297281,-4.227858,-9.819876,-6.884173,-6.002499,-7.315139,-8.278872,-4.941121,-12.951115,-3.680779,-8.677777,-0.635876,-6.665272,-28.346064,20.277021,-23.873232,-6.006808,-6.381598,-13.922159,-5.558448,-6.191896,-15.943254,-11.393921,-10.149886,-6.838204,-9.843785,-0.969419,-11.788721,0.000000,192.000000,4.000000,,,,0.000000,4.000000,4.000000,4.000000,4.000000,4.000000,4.000000,4.000000,4.000000,4.000000,4.000000,4.000000,4.000000,4.000000,4.000000,4.000000,4.000000,4.000000,4.000000,4.000000,4.000000,4.000000,4.000000,4.000000,4.000000,4.000000,4.000000,4.000000,4.000000,4.000000,4.000000,4.000000,4.000000,100.000000
1614411681.247917,72.000000,0.000000,-10.052522,-9.266046,3.068011,4.131709,4.346266,-4.223629,-6.220312,-6.877289,-5.996496,-5.256542,-7.757772,-4.936180,-10.886882,-3.677098,-6.104997,8.595530,-2.043222,-11.394640,33.077255,-8.464744,0.153045,-3.811114,-13.908237,-6.578531,-5.160063,-14.901670,-8.305604,-10.139736,-6.831366,-10.859583,-1.481271,-10.751291,0.000000,180.000000,4.000000,,,,0.000000,4.000000,4.000000,4.000000,4.000000,4.000000,4.000000,4.000000,4.000000,4.000000,4.000000,4.000000,4.000000,4.000000,4.000000,4.000000,4.000000,4.000000,4.000000,4.000000,4.000000,4.000000,4.000000,4.000000,4.000000,4.000000,4.000000,4.000000,4.000000,4.000000,4.000000,4.000000,4.000000,100.000000
1614411681.255566,73.000000,0.000000,-5.939905,-9.256780,3.064943,4.640398,5.880382,-4.219406,-2.624348,-6.870412,-5.990499,-3.200004,-5.185912,-4.931243,-5.747789,-2.647780,3.644697,12.689498,7.189590,12.719318,62.787769,10.005260,10.409302,2.346544,-10.817406,-2.982208,-1.052339,-11.297025,-4.194734,-10.129596,-5.286073,-9.823082,-0.454148,-6.125156,0.000000,200.000000,4.000000,,,,0.000000,4.000000,4.000000,4.000000,4.000000,4.000000,4.000000,4.000000,4.000000,4.000000,4.000000,4.000000,4.000000,4.000000,4.000000,4.000000,4.000000,4.000000,4.000000,4.000000,4.000000,4.000000,4.000000,4.000000,4.000000,4.000000,4.000000,4.000000,4.000000,4.000000,4.000000,4.000000,4.000000,100.000000
1614411681.263315,74.000000,0.000000,-4.908324,-9.760344,3.061878,0.020372,3.823219,-4.215187,-2.108903,-6.863541,-5.984509,-3.709624,-4.155085,-4.926312,-3.690760,-3.157952,7.230796,13.702450,10.259323,14.757881,72.468575,9.995255,13.988636,7.985223,-6.704024,1.636158,2.025637,-8.721625,-0.600796,-10.119467,-3.229505,-7.249156,1.597588,-3.554928,0.000000,184.000000,4.000000,,,,0.000000,4.000000,4.000000,4.000000,4.000000,4.000000,4.000000,4.000000,4.000000,4.000000,4.000000,4.000000,4.000000,4.000000,4.000000,4.000000,4.000000,4.000000,4.000000,4.000000,4.000000,4.000000,4.000000,4.000000,4.000000,4.000000,4.000000,4.000000,4.000000,4.000000,4.000000,4.000000,4.000000,100.000000
1614411681.270964,75.000000,0.000000,-5.416236,-7.186481,3.058816,3.610096,1.768114,-4.210971,-2.619615,-6.856678,-5.978525,-3.705914,-4.150929,-4.921386,-4.712710,-2.641974,5.172284,27.022079,9.223423,15.255944,58.549950,5.882695,8.333622,6.951596,-7.210140,2.147343,2.023611,-6.661622,0.425446,-10.109347,-2.713455,-6.216266,3.134452,-4.064194,0.000000,202.000000,4.000000,,,,0.000000,4.000000,4.000000,4.000000,4.000000,4.000000,4.000000,4.000000,4.000000,4.000000,4.000000,4.000000,4.000000,4.000000,4.000000,4.000000,4.000000,4.000000,4.000000,4.000000,4.000000,4.000000,4.000000,4.000000,4.000000,4.000000,4.000000,4.000000,4.000000,4.000000,4.000000,4.000000,4.000000,100.000000
1614411681.278713,76.000000,0.000000,-5.410820,-2.051089,3.568578,8.221870,2.279166,-4.206760,-2.104175,-6.849821,-5.972546,-3.702209,-4.146779,-4.916464,-4.707997,-0.075229,5.679932,34.687366,8.188559,17.291969,45.670887,5.363992,0.632981,1.816440,-10.792674,0.093913,1.508767,-8.193421,-2.139082,-10.099237,-3.223562,-6.210050,2.618497,-4.060129,0.000000,180.000000,4.000000,,,,0.000000,4.000000,4.000000,4.000000,4.000000,4.000000,4.000000,4.000000,4.000000,4.000000,4.000000,4.000000,4.000000,4.000000,4.000000,4.000000,4.000000,4.000000,4.000000,4.000000,4.000000,4.000000,4.000000,4.000000,4.000000,4.000000,4.000000,4.000000,4.000000,4.000000,4.000000,4.000000,4.000000,100.000000
1614411681.286362,77.000000,0.000000,-4.892589,-2.049038,2.026548,3.085443,2.789707,-4.202554,-2.614891,-6.842971,-5.966573,-3.698506,-4.142632,-4.911548,-4.190469,0.950487,5.674252,16.703960,6.129088,9.069550,57.420086,2.281705,-2.444575,1.301803,-9.243420,-4.008745,2.020079,-16.390356,-3.162584,-10.089139,-4.758800,-6.716660,2.615878,-3.543249,0.000000,172.000000,4.000000,,,,0.000000,4.000000,4.000000,4.000000,4.000000,4.000000,4.000000,4.000000,4.000000,4.000000,4.000000,4.000000,4.000000,4.000000,4.000000,4.000000,4.000000,4.000000,4.000000,4.000000,4.000000,4.000000,4.000000,4.000000,4.000000,4.000000,4.000000,4.000000,4.000000,4.000000,4.000000,4.000000,4.000000,100.000000
1614411681.294112,78.000000,0.000000,-2.836414,-5.636733,-0.026761,-0.507386,2.274097,-4.198351,-2.612276,-6.836128,-5.960607,-3.694808,-4.138489,-4.906636,-4.699099,0.949536,1.053193,-4.338384,5.097318,-1.708750,60.952412,-0.797500,-1.929310,1.300501,-6.157253,-6.056018,1.505238,-23.553453,-3.159421,-10.079049,-6.805323,-9.786867,2.613263,-4.052526,0.000000,201.000000,4.000000,,,,0.000000,4.000000,4.000000,4.000000,4.000000,4.000000,4.000000,4.000000,4.000000,4.000000,4.000000,4.000000,4.000000,4.000000,4.000000,4.000000,4.000000,4.000000,4.000000,4.000000,4.000000,4.000000,4.000000,4.000000,4.000000,4.000000,4.000000,4.000000,4.000000,4.000000,4.000000,4.000000,4.000000,100.000000
1614411681.301761,79.000000,0.000000,-1.295116,-5.631096,2.024548,0.005942,2.271823,-4.194153,-2.609664,-6.829292,-5.954646,-3.691113,-3.621530,-4.901730,-4.694400,0.948587,-4.588886,-11.000712,5.092221,-10.424991,33.711971,-3.360805,-2.440201,-5.367466,-10.253660,-6.049962,1.503733,-19.427336,-6.746006,-10.068971,-6.798518,-13.879644,2.610649,-4.048473,0.000000,189.000000,4.000000,,,,0.000000,4.000000,4.000000,4.000000,4.000000,4.000000,4.000000,4.000000,4.000000,4.000000,4.000000,4.000000,4.000000,4.000000,4.000000,4.000000,4.000000,4.000000,4.000000,4.000000,4.000000,4.000000,4.000000,4.000000,4.000000,4.000000,4.000000,4.000000,4.000000,4.000000,4.000000,4.000000,4.000000,100.000000
1614411681.309610,80.000000,0.000000,-1.806642,-5.112644,3.048165,0.518757,2.782372,-4.189959,-2.607054,-6.309642,-5.435871,-3.687422,-5.156370,-4.896828,-4.689705,-2.642105,-6.122758,-13.553815,3.035846,-15.029950,28.550055,-4.383085,-2.437761,-11.003124,-13.833150,-6.043912,1.502229,-15.818165,-11.354644,-10.058902,-6.791719,-14.378585,3.120859,-4.044425,0.000000,176.000000,4.000000,,,,0.000000,4.000000,4.000000,4.000000,4.000000,4.000000,4.000000,4.000000,4.000000,4.000000,4.000000,4.000000,4.000000,4.000000,4.000000,4.000000,4.000000,4.000000,4.000000,4.000000,4.000000,4.000000,4.000000,4.000000,4.000000,4.000000,4.000000,4.000000,4.000000,4.000000,4.000000,4.000000,4.000000,100.000000
1614411681.317359,81.000000,0.000000,-1.804835,-7.158813,-0.031807,0.005417,1.241128,-4.185769,-2.091627,-7.841794,-6.968897,-3.683734,-7.202496,-4.891931,-4.685016,-7.254848,-5.090995,-13.540260,0.981528,-13.989279,52.111248,-3.865882,-1.922503,-10.479300,-11.255214,-6.550689,1.500727,-20.930552,-11.343289,-10.048842,-6.784927,-13.851386,1.066456,-4.040380,0.000000,179.000000,4.000000,,,,0.000000,4.000000,4.000000,4.000000,4.000000,4.000000,4.000000,4.000000,4.000000,4.000000,4.000000,4.000000,4.000000,4.000000,4.000000,4.000000,4.000000,4.000000,4.000000,4.000000,4.000000,4.000000,4.000000,4.000000,4.000000,4.000000,4.000000,4.000000,4.000000,4.000000,4.000000,4.000000,4.000000,100.000000
1614411681.325208,82.000000,0.000000,-1.803030,-9.715757,-1.570236,-1.020229,-0.811395,-4.694403,-3.115176,-10.398055,-9.526031,-3.680051,-8.220934,-4.887039,-5.193151,-7.760414,-7.137186,-3.783131,0.980547,-15.000931,49.495033,-5.913298,-2.946221,-10.468822,-10.218318,-6.031317,1.499226,-23.986544,-11.331946,-10.038794,-7.290963,-14.350355,-0.985892,-4.036340,0.000000,201.000000,4.000000,,,,0.000000,4.000000,4.000000,4.000000,4.000000,4.000000,4.000000,4.000000,4.000000,4.000000,4.000000,4.000000,4.000000,4.000000,4.000000,4.000000,4.000000,4.000000,4.000000,4.000000,4.000000,4.000000,4.000000,4.000000,4.000000,4.000000,4.000000,4.000000,4.000000,4.000000,4.000000,4.000000,4.000000,100.000000
1614411681.332957,83.000000,0.000000,-2.314048,-9.706041,-1.055845,-3.583312,-1.836225,-4.689709,-6.188984,-11.413298,-10.029325,-3.676371,-7.699893,-5.394973,-5.187958,-5.701371,-5.078767,10.066807,0.979566,-10.370545,41.240410,-4.881743,-0.891993,-10.458353,-10.208099,-6.538106,1.497727,-20.372814,-11.320614,-10.028755,-6.770852,-13.823184,-1.497727,-4.545125,0.000000,202.000000,4.000000,,,,0.000000,4.000000,4.000000,4.000000,4.000000,4.000000,4.000000,4.000000,4.000000,4.000000,4.000000,4.000000,4.000000,4.000000,4.000000,4.000000,4.000000,4.000000,4.000000,4.000000,4.000000,4.000000,4.000000,4.000000,4.000000,4.000000,4.000000,4.000000,4.000000,4.000000,4.000000,4.000000,4.000000,100.000000
1614411681.340806,84.000000,0.000000,-1.798913,-8.670694,-0.029149,-3.579728,-1.321568,-4.172199,-6.695615,-9.863423,-9.506475,-3.672694,-7.692193,-4.876757,-4.157129,-3.644387,3.644261,18.261868,1.491407,6.562902,60.686348,0.251343,1.673002,-7.883791,-7.120968,-6.018748,1.496229,-17.788340,-8.745192,-10.018726,-6.764081,-13.809361,-0.983409,-4.027759,0.000000,178.000000,4.000000,,,,0.000000,4.000000,4.000000,4.000000,4.000000,4.000000,4.000000,4.000000,4.000000,4.000000,4.000000,4.000000,4.000000,4.000000,4.000000,4.000000,4.000000,4.000000,4.000000,4.000000,4.000000,4.000000,4.000000,4.000000,4.000000,4.000000,4.000000,4.000000,4.000000,4.000000,4.000000,4.000000,4.000000,100.000000
1614411681.348555,85.000000,0.000000,-1.797114,-9.687665,-1.054761,-4.601789,-1.320247,-4.680847,-5.663279,-10.366381,-10.009789,-3.669022,-8.197321,-4.871881,-4.665792,-3.640743,3.127796,18.243607,0.977095,5.530698,58.574383,-7.441216,-1.918415,-8.901549,-8.652309,-6.012729,1.494733,-19.821833,-8.736446,-10.008707,-7.270137,-14.308372,-0.982425,-4.023731,0.000000,202.000000,4.000000,,,,0.000000,4.000000,4.000000,4.000000,4.000000,4.000000,4.000000,4.000000,4.000000,4.000000,4.000000,4.000000,4.000000,4.000000,4.000000,4.000000,4.000000,4.000000,4.000000,4.000000,4.000000,4.000000,4.000000,4.000000,4.000000,4.000000,4.000000,4.000000,4.000000,4.000000,4.000000,4.000000,4.000000,100.000000
1614411681.356404,86.000000,0.000000,-2.820958,-9.677978,-1.566526,-7.161290,-1.831747,-4.676166,-7.196077,-11.381655,-8.974138,-3.665353,-7.676303,-5.892650,-6.199588,-4.149923,-5.080460,15.661260,0.976118,-13.449191,31.849140,-17.177364,-4.993420,-8.892648,-10.182118,-7.032358,0.980418,-18.776369,-10.778992,-9.998698,-5.724405,-12.755602,-1.494263,-5.045348,0.000000,181.000000,4.000000,,,,0.000000,4.000000,4.000000,4.000000,4.000000,4.000000,4.000000,4.000000,4.000000,4.000000,4.000000,4.000000,4.000000,4.000000,4.000000,4.000000,4.000000,4.000000,4.000000,4.000000,4.000000,4.000000,4.000000,4.000000,4.000000,4.000000,4.000000,4.000000,4.000000,4.000000,4.000000,4.000000,4.000000,100.000000
1614411681.364153,87.000000,0.000000,-0.766855,-4.540094,7.665810,-2.538744,-1.829915,-0.568926,-5.650420,-7.267709,-6.401062,-3.661687,-5.104525,-2.809834,0.473278,-0.556029,-1.485636,16.671240,3.539245,-6.769075,34.894215,-3.826854,-3.449965,-2.217088,-4.018090,-5.486864,1.492258,-12.603747,-6.665648,-9.988700,-0.077655,-8.127462,-1.492769,-2.476200,0.000000,196.000000,4.000000,,,,0.000000,4.000000,4.000000,4.000000,4.000000,4.000000,4.000000,4.000000,4.000000,4.000000,4.000000,4.000000,4.000000,4.000000,4.000000,4.000000,4.000000,4.000000,4.000000,4.000000,4.000000,4.000000,4.000000,4.000000,4.000000,4.000000,4.000000,4.000000,4.000000,4.000000,4.000000,4.000000,4.000000,100.000000
1614411681.372002,88.000000,0.000000,3.849296,-0.945810,17.914555,6.181743,-1.315265,3.534207,-0.516564,-0.080954,-5.369020,-3.658026,-3.560959,3.859643,9.190754,6.111193,8.772260,19.731491,8.151090,18.878719,55.884960,12.074409,-2.420874,1.887693,1.626954,0.672469,4.054868,-7.462938,-0.505137,-6.901788,4.024986,-6.068052,1.585647,4.705763,0.000000,217.000000,4.000000,,,,0.000000,4.000000,4.000000,4.000000,4.000000,4.000000,4.000000,4.000000,4.000000,4.000000,4.000000,4.000000,4.000000,4.000000,4.000000,4.000000,4.000000,4.000000,4.000000,4.000000,4.000000,4.000000,4.000000,4.000000,4.000000,4.000000,4.000000,4.000000,4.000000,4.000000,4.000000,4.000000,4.000000,100.000000
1614411681.379751,89.000000,0.000000,6.409550,-4.021788,15.332537,7.201202,-1.313949,4.043493,1.022414,0.944768,-6.389291,-3.654367,-4.583039,6.932706,7.643101,8.669185,10.301950,20.224581,9.681400,21.423943,63.008564,11.036694,1.171291,1.372985,1.112506,5.800002,6.102095,-6.942655,1.033830,-3.305143,4.533782,-6.061985,3.122523,7.777980,0.000000,205.000000,4.000000,,,,0.000000,4.000000,4.000000,4.000000,4.000000,4.000000,4.000000,4.000000,4.000000,4.000000,4.000000,4.000000,4.000000,4.000000,4.000000,4.000000,4.000000,4.000000,4.000000,4.000000,4.000000,4.000000,4.000000,4.000000,4.000000,4.000000,4.000000,4.000000,4.000000,4.000000,4.000000,4.000000,4.000000,100.000000
1614411681.387600,90.000000,0.000000,5.377499,-4.530586,7.112076,3.604258,-2.338277,1.988168,-2.055531,-2.645921,-5.870082,-3.650713,-4.065635,5.900132,1.994433,7.122054,7.727545,19.691536,8.646078,14.223032,64.996834,12.564118,9.888068,2.397253,0.598573,5.281382,5.070352,-7.961353,0.007155,-2.276197,4.016428,-7.081563,2.093759,4.693279,0.000000,175.000000,4.000000,,,,0.000000,4.000000,4.000000,4.000000,4.000000,4.000000,4.000000,4.000000,4.000000,4.000000,4.000000,4.000000,4.000000,4.000000,4.000000,4.000000,4.000000,4.000000,4.000000,4.000000,4.000000,4.000000,4.000000,4.000000,4.000000,4.000000,4.000000,4.000000,4.000000,4.000000,4.000000,4.000000,4.000000,100.000000
1614411681.395349,91.000000,0.000000,5.372122,0.089329,6.079323,3.087833,-0.284656,4.550282,-3.079117,-3.668916,-3.300109,-4.159883,-1.497467,5.894232,2.505259,8.140573,9.771099,22.235947,8.637432,19.849834,68.521584,18.705400,11.929462,4.958958,0.597975,4.763279,5.065282,-7.953392,-1.018493,-2.786741,4.525232,-7.074482,4.142948,2.637304,0.000000,204.000000,4.000000,,,,0.000000,4.000000,4.000000,4.000000,4.000000,4.000000,4.000000,4.000000,4.000000,4.000000,4.000000,4.000000,4.000000,4.000000,4.000000,4.000000,4.000000,4.000000,4.000000,4.000000,4.000000,4.000000,4.000000,4.000000,4.000000,4.000000,4.000000,4.000000,4.000000,4.000000,4.000000,4.000000,4.000000,100.000000
1614411681.403198,92.000000,0.000000,5.366749,2.653342,7.098885,4.110386,4.331013,9.673937,-2.050397,-2.639606,-1.758347,-4.155723,0.042492,6.401158,3.528394,8.645253,9.248507,22.213711,9.141615,18.291523,65.376137,7.917464,8.840610,4.954000,1.623018,4.758516,5.060216,-7.432618,0.520987,-2.271134,4.520707,-3.477664,8.754189,3.660308,0.000000,198.000000,4.000000,,,,0.000000,4.000000,4.000000,4.000000,4.000000,4.000000,4.000000,4.000000,4.000000,4.000000,4.000000,4.000000,4.000000,4.000000,4.000000,4.000000,4.000000,4.000000,4.000000,4.000000,4.000000,4.000000,4.000000,4.000000,4.000000,4.000000,4.000000,4.000000,4.000000,4.000000,4.000000,4.000000,4.000000,100.000000
1614411681.410947,93.000000,0.000000,3.310101,1.625048,7.091786,4.106276,6.890785,8.638622,-2.561167,-3.149787,-2.269410,-3.638747,-0.470371,5.881937,2.499225,-0.081341,3.085413,7.832522,8.106833,-4.803691,45.310764,-9.526350,6.780487,1.872122,0.595754,4.240937,-2.124331,-8.450827,1.033287,-3.294504,4.003365,1.654019,10.796717,3.143827,0.000000,180.000000,4.000000,,,,0.000000,4.000000,4.000000,4.000000,4.000000,4.000000,4.000000,4.000000,4.000000,4.000000,4.000000,4.000000,4.000000,4.000000,4.000000,4.000000,4.000000,4.000000,4.000000,4.000000,4.000000,4.000000,4.000000,4.000000,4.000000,4.000000,4.000000,4.000000,4.000000,4.000000,4.000000,4.000000,4.000000,100.000000
1614411681.418596,94.000000,0.000000,1.768329,1.623423,5.546232,2.563708,5.858253,2.476137,-3.071426,-3.659457,-2.267140,-4.147929,-0.469901,5.876055,1.983905,-8.286388,-2.558698,-8.585567,4.508982,-19.670683,17.573145,-14.132209,4.722425,-3.770776,-4.533047,5.262337,-13.404258,-10.493657,-5.634413,-5.855312,3.999362,-0.398917,9.760280,3.140683,0.000000,200.000000,4.000000,,,,0.000000,4.000000,4.000000,4.000000,4.000000,4.000000,4.000000,4.000000,4.000000,4.000000,4.000000,4.000000,4.000000,4.000000,4.000000,4.000000,4.000000,4.000000,4.000000,4.000000,4.000000,4.000000,4.000000,4.000000,4.000000,4.000000,4.000000,4.000000,4.000000,4.000000,4.000000,4.000000,4.000000,100.000000
1614411681.426345,95.000000,0.000000,1.253740,2.134620,6.053507,3.586785,5.852395,3.499302,-2.555534,-3.142977,-2.264873,-4.143781,-0.469431,5.870179,2.494742,-2.637076,-0.504857,1.679429,4.504473,-6.317678,24.735058,-5.912948,6.768984,-2.228543,-6.579796,4.744255,-14.929316,-12.021626,-9.731343,-6.875097,3.995363,-2.449800,9.750519,3.137542,0.000000,192.000000,4.000000,,,,0.000000,4.000000,4.000000,4.000000,4.000000,4.000000,4.000000,4.000000,4.000000,4.000000,4.000000,4.000000,4.000000,4.000000,4.000000,4.000000,4.000000,4.000000,4.000000,4.000000,4.000000,4.000000,4.000000,4.000000,4.000000,4.000000,4.000000,4.000000,4.000000,4.000000,4.000000,4.000000,4.000000,100.000000
1614411681.433995,96.000000,0.000000,2.278127,1.619665,9.124376,8.711404,5.846542,9.649649,-1.014517,-3.139834,-2.262608,-0.549893,-0.468961,5.864309,2.492247,6.596330,2.059750,21.677750,9.628174,10.098895,57.530834,3.323734,13.941702,8.542916,-1.445011,3.713869,-3.632335,-8.419860,0.021978,-5.329761,3.991367,3.193675,10.253589,3.134405,8064.000000,0.000000,4.000000,,,,0.000000,4.000000,4.000000,4.000000,4.000000,4.000000,4.000000,4.000000,4.000000,4.000000,4.000000,4.000000,4.000000,4.000000,4.000000,4.000000,4.000000,4.000000,4.000000,4.000000,4.000000,4.000000,4.000000,4.000000,4.000000,4.000000,4.000000,4.000000,4.000000,4.000000,4.000000,4.000000,4.000000,100.000000
1614411681.441744,97.000000,0.000000,4.327131,1.618045,9.628073,10.241154,5.840696,11.178461,1.037779,-3.136695,-2.260345,3.553221,-0.468492,5.858444,2.489755,6.076913,0.519229,21.656073,12.695469,12.140079,63.114330,6.910154,17.004684,16.226681,1.633357,11.402463,8.166169,-1.231953,9.252726,-2.760329,3.987376,9.344328,9.730515,3.131270,8064.000000,0.000000,4.000000,,,,0.000000,4.000000,4.000000,4.000000,4.000000,4.000000,4.000000,4.000000,4.000000,4.000000,4.000000,4.000000,4.000000,4.000000,4.000000,4.000000,4.000000,4.000000,4.000000,4.000000,4.000000,4.000000,4.000000,4.000000,4.000000,4.000000,4.000000,4.000000,4.000000,4.000000,4.000000,4.000000,4.000000,100.000000
1614411681.449393,98.000000,0.000000,6.374086,1.616427,4.490239,8.179630,5.834855,8.090360,1.549562,-3.133558,-2.258085,4.062488,-0.468024,6.365407,3.000086,4.019555,2.057171,21.121595,12.682774,14.692041,45.102497,6.903244,13.910756,13.646352,1.118903,20.109009,9.696465,3.384663,6.679370,-2.757568,4.496209,8.309342,10.233604,3.128139,8064.000000,0.000000,4.000000,,,,0.000000,4.000000,4.000000,4.000000,4.000000,4.000000,4.000000,4.000000,4.000000,4.000000,4.000000,4.000000,4.000000,4.000000,4.000000,4.000000,4.000000,4.000000,4.000000,4.000000,4.000000,4.000000,4.000000,4.000000,4.000000,4.000000,4.000000,4.000000,4.000000,4.000000,4.000000,4.000000,4.000000,100.000000
1614411681.457142,99.000000,0.000000,5.342071,1.614811,1.921646,6.632989,5.316200,6.030987,1.035192,-3.130424,-2.255827,3.545605,-0.467556,6.359041,3.509906,4.528356,6.157678,23.151756,13.182911,13.651708,39.929192,4.332238,11.845563,8.504500,1.117784,14.960695,6.097025,1.842817,3.595767,-2.754811,4.491713,4.711289,9.710550,3.125011,8064.000000,0.000000,4.000000,,,,0.000000,4.000000,4.000000,4.000000,4.000000,4.000000,4.000000,4.000000,4.000000,4.000000,4.000000,4.000000,4.000000,4.000000,4.000000,4.000000,4.000000,4.000000,4.000000,4.000000,4.000000,4.000000,4.000000,4.000000,4.000000,4.000000,4.000000,4.000000,4.000000,4.000000,4.000000,4.000000,4.000000,100.000000
1614411681.464791,100.000000,0.000000,2.772627,1.613196,5.509469,7.139177,5.823704,7.050597,1.034157,-3.127294,-2.253571,3.542059,-0.467088,4.814220,2.480755,2.985366,3.587418,10.308091,11.631267,6.458569,41.940544,1.250983,12.346538,7.983175,0.091025,5.202145,5.065287,-0.210308,4.104992,-2.752056,3.461580,4.706578,9.700840,3.121886,8064.000000,0.000000,4.000000,,,,0.000000,4.000000,4.000000,4.000000,4.000000,4.000000,4.000000,4.000000,4.000000,4.000000,4.000000,4.000000,4.000000,4.000000,4.000000,4.000000,4.000000,4.000000,4.000000,4.000000,4.000000,4.000000,4.000000,4.000000,4.000000,4.000000,4.000000,4.000000,4.000000,4.000000,4.000000,4.000000,4.000000,100.000000
1614411681.472540,101.000000,0.000000,1.744213,1.611583,7.555241,7.644858,8.381983,6.530726,1.033123,-2.611346,-2.251318,3.538517,-0.466621,6.347867,2.991095,8.623405,6.660754,17.990091,12.645276,25.939291,62.924244,10.480501,14.385473,12.077756,1.629396,6.222584,6.085863,0.302723,4.613708,-2.749304,4.483759,4.701871,10.716781,3.631585,8064.000000,0.000000,4.000000,,,,0.000000,4.000000,4.000000,4.000000,4.000000,4.000000,4.000000,4.000000,4.000000,4.000000,4.000000,4.000000,4.000000,4.000000,4.000000,4.000000,4.000000,4.000000,4.000000,4.000000,4.000000,4.000000,4.000000,4.000000,4.000000,4.000000,4.000000,4.000000,4.000000,4.000000,4.000000,4.000000,4.000000,100.000000
1614411681.480189,102.000000,0.000000,2.255289,-0.441311,5.496404,6.611572,9.912063,2.934452,1.032090,-3.634376,-2.249066,3.534979,-0.466154,6.854341,3.500924,22.973757,16.397682,44.125946,14.171092,46.426170,84.912605,17.649508,16.422371,11.040037,0.602125,10.318925,4.541315,-2.261682,4.609094,-2.746554,4.992096,2.645888,8.141961,1.576671,8064.000000,0.000000,4.000000,,,,0.000000,4.000000,4.000000,4.000000,4.000000,4.000000,4.000000,4.000000,4.000000,4.000000,4.000000,4.000000,4.000000,4.000000,4.000000,4.000000,4.000000,4.000000,4.000000,4.000000,4.000000,4.000000,4.000000,4.000000,4.000000,4.000000,4.000000,4.000000,4.000000,4.000000,4.000000,4.000000,4.000000,100.000000
1614411681.487938,103.000000,0.000000,-1.336710,-1.979331,1.901164,3.528038,9.389330,3.444338,1.031057,-6.194844,-2.246817,3.018623,-0.465688,-1.870463,-4.194884,21.925142,1.509490,18.953615,1.336408,14.072053,55.596920,-4.932245,14.354666,0.772587,-10.680528,7.231683,1.972671,-7.387626,-0.523720,-2.743808,-3.218024,0.591960,3.518435,-2.527470,8064.000000,0.000000,4.000000,,,,0.000000,4.000000,4.000000,4.000000,4.000000,4.000000,4.000000,4.000000,4.000000,4.000000,4.000000,4.000000,4.000000,4.000000,4.000000,4.000000,4.000000,4.000000,4.000000,4.000000,4.000000,4.000000,4.000000,4.000000,4.000000,4.000000,4.000000,4.000000,4.000000,4.000000,4.000000,4.000000,4.000000,100.000000
1614411681.495588,104.000000,0.000000,-4.925117,-1.977352,3.950545,3.524509,9.379940,9.594740,1.030026,-7.214290,-2.244570,3.528425,-0.465223,-8.022438,-14.959920,5.492960,-23.107405,-13.373030,-12.511082,-18.249712,23.233631,-25.952953,12.801849,-6.920493,-17.336514,0.044964,0.945058,-8.918699,-7.189863,-2.741064,-10.907114,0.591368,1.463634,-3.550583,8064.000000,0.000000,4.000000,,,,0.000000,4.000000,4.000000,4.000000,4.000000,4.000000,4.000000,4.000000,4.000000,4.000000,4.000000,4.000000,4.000000,4.000000,4.000000,4.000000,4.000000,4.000000,4.000000,4.000000,4.000000,4.000000,4.000000,4.000000,4.000000,4.000000,4.000000,4.000000,4.000000,4.000000,4.000000,4.000000,4.000000,100.000000
1614411681.503337,105.000000,0.000000,-3.381730,-1.975375,5.997876,6.597908,9.370561,10.097965,1.028996,-6.694255,-2.242326,6.088999,-0.464757,-1.860570,-13.406499,-0.666379,-15.391989,-3.103247,-6.857545,-1.308385,39.107834,-12.593667,12.276227,-6.913573,-9.626870,-3.544824,1.456933,-7.884140,-7.182673,-2.738323,-6.280822,0.590776,2.487811,-1.495751,8064.000000,0.000000,4.000000,,,,0.000000,4.000000,4.000000,4.000000,4.000000,4.000000,4.000000,4.000000,4.000000,4.000000,4.000000,4.000000,4.000000,4.000000,4.000000,4.000000,4.000000,4.000000,4.000000,4.000000,4.000000,4.000000,4.000000,4.000000,4.000000,4.000000,4.000000,4.000000,4.000000,4.000000,4.000000,4.000000,4.000000,100.000000
1614411681.510986,106.000000,0.000000,-1.327066,-1.973399,0.350853,6.078490,9.361190,6.498124,1.027967,-6.687561,-2.240084,7.621372,-0.464293,3.269496,-9.290528,1.898390,2.059300,19.976780,1.867261,6.385231,44.196930,-1.811843,7.135746,-6.906659,-5.514679,-2.515638,1.455476,-7.876256,-4.098567,-2.735584,0.904946,0.590186,1.972503,-0.468614,8064.000000,0.000000,4.000000,,,,0.000000,4.000000,4.000000,4.000000,4.000000,4.000000,4.000000,4.000000,4.000000,4.000000,4.000000,4.000000,4.000000,4.000000,4.000000,4.000000,4.000000,4.000000,4.000000,4.000000,4.000000,4.000000,4.000000,4.000000,4.000000,4.000000,4.000000,4.000000,4.000000,4.000000,4.000000,4.000000,4.000000,100.000000
1614411681.518735,107.000000,0.000000,-1.838560,-2.484246,-5.290524,2.995488,9.351829,7.004446,1.026940,-6.680873,-2.237844,7.100930,-0.463828,1.727765,-8.768417,-1.180431,2.057241,13.802957,0.326932,-2.851923,35.947605,-5.399775,6.615789,-4.848471,-7.560446,-2.513123,1.454021,-8.381200,-3.581648,-2.732849,0.391221,0.589595,1.457710,-1.493786,8064.000000,0.000000,4.000000,,,,0.000000,4.000000,4.000000,4.000000,4.000000,4.000000,4.000000,4.000000,4.000000,4.000000,4.000000,4.000000,4.000000,4.000000,4.000000,4.000000,4.000000,4.000000,4.000000,4.000000,4.000000,4.000000,4.000000,4.000000,4.000000,4.000000,4.000000,4.000000,4.000000,4.000000,4.000000,4.000000,4.000000,100.000000
1614411681.526384,108.000000,0.000000,-2.349541,-1.968942,-2.208310,2.992493,9.342477,5.971801,1.538733,-6.674193,-2.748426,7.093829,-0.463365,4.802960,-0.041700,2.923313,10.260312,28.148129,5.454811,29.971441,68.732170,12.041523,13.788661,1.823045,-1.911860,-2.510610,1.452567,-7.859998,-3.578067,-2.730116,-0.634812,-1.462276,2.481893,-0.979472,8064.000000,0.000000,4.000000,,,,0.000000,4.000000,4.000000,4.000000,4.000000,4.000000,4.000000,4.000000,4.000000,4.000000,4.000000,4.000000,4.000000,4.000000,4.000000,4.000000,4.000000,4.000000,4.000000,4.000000,4.000000,4.000000,4.000000,4.000000,4.000000,4.000000,4.000000,4.000000,4.000000,4.000000,4.000000,4.000000,4.000000,100.000000
1614411681.534133,109.000000,0.000000,-1.834371,-1.966973,-1.180461,4.015141,9.333135,-0.700838,-0.514088,-6.667519,-2.745678,6.573915,-0.975722,5.823798,6.112188,13.176801,19.480822,53.248184,10.064740,47.377369,76.868568,22.285891,13.774872,4.898145,-0.371487,0.056003,1.963935,-7.852138,-3.574489,-2.727386,0.904285,-2.999275,1.966591,-0.978493,8064.000000,0.000000,4.000000,,,,0.000000,4.000000,4.000000,4.000000,4.000000,4.000000,4.000000,4.000000,4.000000,4.000000,4.000000,4.000000,4.000000,4.000000,4.000000,4.000000,4.000000,4.000000,4.000000,4.000000,4.000000,4.000000,4.000000,4.000000,4.000000,4.000000,4.000000,4.000000,4.000000,4.000000,4.000000,4.000000,4.000000,100.000000
1614411681.541782,110.000000,0.000000,-1.832537,-2.477826,-1.692101,2.472664,9.323801,-4.802701,-2.564856,-6.660851,-2.230112,4.516059,-0.461925,-1.361513,-3.637514,9.061059,2.538263,40.374424,4.413650,15.022298,44.484005,-0.813317,6.581610,2.329144,-10.627525,1.081589,1.449150,-7.844286,-5.622196,-2.724659,0.903380,-3.509097,1.964624,-2.515976,8064.000000,0.000000,4.000000,,,,0.000000,4.000000,4.000000,4.000000,4.000000,4.000000,4.000000,4.000000,4.000000,4.000000,4.000000,4.000000,4.000000,4.000000,4.000000,4.000000,4.000000,4.000000,4.000000,4.000000,4.000000,4.000000,4.000000,4.000000,4.000000,4.000000,4.000000,4.000000,4.000000,4.000000,4.000000,4.000000,4.000000,100.000000
1614411681.549631,111.000000,0.000000,-1.830705,-1.449707,6.001899,3.495833,9.314478,-2.746616,-3.075111,-6.654190,-2.740702,3.485902,-0.974284,-5.462715,-13.377466,-7.358258,-13.874532,21.359690,2.870775,8.853430,48.029266,-11.581735,4.010926,0.275533,-14.206642,1.593327,-1.116402,-7.836442,-6.129395,-3.234755,0.389656,-2.992767,5.552403,1.589104,8064.000000,0.000000,4.000000,,,,0.000000,4.000000,4.000000,4.000000,4.000000,4.000000,4.000000,4.000000,4.000000,4.000000,4.000000,4.000000,4.000000,4.000000,4.000000,4.000000,4.000000,4.000000,4.000000,4.000000,4.000000,4.000000,4.000000,4.000000,4.000000,4.000000,4.000000,4.000000,4.000000,4.000000,4.000000,4.000000,4.000000,100.000000
1614411681.557380,112.000000,0.000000,-1.828874,0.603024,11.636923,8.107721,9.305163,-0.179767,-2.559216,-6.647536,-2.737961,2.456775,-0.460489,-2.893150,-12.851268,-12.479105,-10.270913,20.825510,8.508930,31.921499,80.801750,4.327283,5.032556,1.300898,-8.038589,1.591734,-2.653747,-7.828605,-4.071983,-2.718699,0.389267,-2.989774,9.649415,11.331105,8064.000000,0.000000,4.000000,,,,0.000000,4.000000,4.000000,4.000000,4.000000,4.000000,4.000000,4.000000,4.000000,4.000000,4.000000,4.000000,4.000000,4.000000,4.000000,4.000000,4.000000,4.000000,4.000000,4.000000,4.000000,4.000000,4.000000,4.000000,4.000000,4.000000,4.000000,4.000000,4.000000,4.000000,4.000000,4.000000,4.000000,100.000000
1614411681.565229,113.000000,0.000000,-1.827045,2.140883,14.189388,11.176537,9.295857,1.358874,-2.556657,-6.640888,1.880161,2.967139,2.616894,-0.838975,-10.274315,-1.184575,-4.619617,16.189301,9.526062,23.171629,77.644028,9.963981,6.053164,0.786777,-5.466448,0.564501,-1.625452,-7.820776,-3.555091,-2.203160,0.388878,-2.986785,9.126945,16.447979,8064.000000,0.000000,4.000000,,,,0.000000,4.000000,4.000000,4.000000,4.000000,4.000000,4.000000,4.000000,4.000000,4.000000,4.000000,4.000000,4.000000,4.000000,4.000000,4.000000,4.000000,4.000000,4.000000,4.000000,4.000000,4.000000,4.000000,4.000000,4.000000,4.000000,4.000000,4.000000,4.000000,4.000000,4.000000,4.000000,4.000000,100.000000
1614411681.572979,114.000000,0.000000,-1.825218,1.113101,23.405968,10.139719,8.773742,2.895977,-2.554100,-6.121427,5.468025,9.118017,5.691201,0.187505,-6.161476,11.124302,-2.563715,12.583367,7.978074,7.251021,58.079201,5.851453,10.149675,0.785990,-6.999443,2.102398,-2.136647,-7.812956,-4.064356,-4.765059,0.388489,-3.496618,9.117818,20.534096,8064.000000,0.000000,4.000000,,,,0.000000,4.000000,4.000000,4.000000,4.000000,4.000000,4.000000,4.000000,4.000000,4.000000,4.000000,4.000000,4.000000,4.000000,4.000000,4.000000,4.000000,4.000000,4.000000,4.000000,4.000000,4.000000,4.000000,4.000000,4.000000,4.000000,4.000000,4.000000,4.000000,4.000000,4.000000,4.000000,4.000000,100.000000
1614411681.580828,115.000000,0.000000,-1.823393,1.111988,31.587690,10.129580,9.277788,2.893081,-2.551546,-3.551203,5.462557,17.314028,7.223971,1.725779,-1.539930,16.241383,3.079874,17.698990,6.944455,7.243770,47.251892,2.768678,11.677987,0.272384,-6.992444,4.664399,-2.647331,-7.805143,-1.496189,-5.785935,-0.124720,-2.980301,11.159983,32.308434,8064.000000,0.000000,4.000000,,,,0.000000,4.000000,4.000000,4.000000,4.000000,4.000000,4.000000,4.000000,4.000000,4.000000,4.000000,4.000000,4.000000,4.000000,4.000000,4.000000,4.000000,4.000000,4.000000,4.000000,4.000000,4.000000,4.000000,4.000000,4.000000,4.000000,4.000000,4.000000,4.000000,4.000000,4.000000,4.000000,4.000000,100.000000
1614411681.588577,116.000000,0.000000,-1.821569,4.187799,32.581745,13.709193,9.268511,5.967111,-2.548994,-2.522011,4.944273,19.347996,7.216747,3.262515,-1.025569,14.173860,5.640897,22.809496,4.886229,13.903193,30.281561,-2.362295,6.025284,0.784932,-5.959810,1.582811,-1.619043,-7.797338,0.556589,-0.651944,0.388225,-2.977321,11.661643,40.481255,8064.000000,0.000000,4.000000,,,,0.000000,4.000000,4.000000,4.000000,4.000000,4.000000,4.000000,4.000000,4.000000,4.000000,4.000000,4.000000,4.000000,4.000000,4.000000,4.000000,4.000000,4.000000,4.000000,4.000000,4.000000,4.000000,4.000000,4.000000,4.000000,4.000000,4.000000,4.000000,4.000000,4.000000,4.000000,4.000000,4.000000,100.000000
1614411681.596426,117.000000,0.000000,-1.819748,8.286176,36.138905,16.772408,8.746422,9.550887,-2.546445,-4.570771,5.452150,16.251724,5.158248,3.259253,-0.511723,10.057121,6.660897,26.889250,5.394163,24.145700,37.430767,-2.359933,0.378233,1.296967,-6.466671,-3.034156,-4.181526,-7.789540,0.043212,0.374349,1.926298,-3.999985,15.752545,37.876667,8064.000000,0.000000,4.000000,,,,0.000000,4.000000,4.000000,4.000000,4.000000,4.000000,4.000000,4.000000,4.000000,4.000000,4.000000,4.000000,4.000000,4.000000,4.000000,4.000000,4.000000,4.000000,4.000000,4.000000,4.000000,4.000000,4.000000,4.000000,4.000000,4.000000,4.000000,4.000000,4.000000,4.000000,4.000000,4.000000,4.000000,100.000000
1614411681.604175,118.000000,0.000000,-2.330749,9.303530,41.743793,17.781277,9.763316,10.054157,-2.543899,-6.617482,4.421057,14.697011,3.614628,-0.846571,-0.511212,3.893219,5.628595,20.195694,4.363128,11.301042,43.547184,-7.485778,-2.699069,0.270029,-6.460204,-2.518302,-9.305550,-8.294572,0.043169,-2.190128,3.975654,-1.944703,23.941921,40.402893,8064.000000,0.000000,4.000000,,,,0.000000,4.000000,4.000000,4.000000,4.000000,4.000000,4.000000,4.000000,4.000000,4.000000,4.000000,4.000000,4.000000,4.000000,4.000000,4.000000,4.000000,4.000000,4.000000,4.000000,4.000000,4.000000,4.000000,4.000000,4.000000,4.000000,4.000000,4.000000,4.000000,4.000000,4.000000,4.000000,4.000000,100.000000
1614411681.612024,119.000000,0.000000,-1.302777,8.781406,43.240509,19.814777,12.317656,10.044103,-2.541355,-6.610865,1.852533,14.682314,3.098193,0.179917,-1.536341,-0.213239,4.084505,15.047293,3.333124,-7.171798,24.016457,-15.170600,-2.696370,0.782580,-5.428102,-3.028604,-9.809065,-6.747815,0.043126,1.401805,6.022960,5.236729,28.533363,50.618900,8192.000000,0.000000,4.000000,,,,0.000000,4.000000,4.000000,4.000000,4.000000,4.000000,4.000000,4.000000,4.000000,4.000000,4.000000,4.000000,4.000000,4.000000,4.000000,4.000000,4.000000,4.000000,4.000000,4.000000,4.000000,4.000000,4.000000,4.000000,4.000000,4.000000,4.000000,4.000000,4.000000,4.000000,4.000000,4.000000,4.000000,100.000000
1614411681.619773,120.000000,0.000000,0.749808,8.772625,41.658810,21.333424,11.792517,10.034059,-2.538814,-6.604254,0.825040,15.180452,3.095095,8.384865,3.080580,1.325436,14.849651,37.596348,12.047739,22.578964,49.120644,2.280468,1.921711,4.371541,-2.858572,-2.512755,-6.209512,-4.689785,0.043082,4.990147,7.555399,8.821237,27.479189,54.670849,8064.000000,0.000000,4.000000,,,,0.000000,4.000000,4.000000,4.000000,4.000000,4.000000,4.000000,4.000000,4.000000,4.000000,4.000000,4.000000,4.000000,4.000000,4.000000,4.000000,4.000000,4.000000,4.000000,4.000000,4.000000,4.000000,4.000000,4.000000,4.000000,4.000000,4.000000,4.000000,4.000000,4.000000,4.000000,4.000000,4.000000,100.000000
1614411681.627622,121.000000,0.000000,2.287520,8.763852,40.591507,21.824911,7.678161,10.024025,-2.536275,-6.597650,1.337035,12.601170,3.092000,6.325198,9.231345,-1.239992,19.450186,48.840805,18.189537,44.607666,81.892036,17.149982,4.483892,3.341528,-2.342893,2.617963,-5.177661,-3.659455,0.043039,1.908234,7.035023,7.786774,27.451710,52.564896,8064.000000,0.000000,4.000000,,,,0.000000,4.000000,4.000000,4.000000,4.000000,4.000000,4.000000,4.000000,4.000000,4.000000,4.000000,4.000000,4.000000,4.000000,4.000000,4.000000,4.000000,4.000000,4.000000,4.000000,4.000000,4.000000,4.000000,4.000000,4.000000,4.000000,4.000000,4.000000,4.000000,4.000000,4.000000,4.000000,4.000000,100.000000
1614411681.635371,122.000000,0.000000,1.772412,9.267909,44.140659,23.341547,5.106380,10.526821,-2.533738,-6.591052,1.335698,5.921902,3.601728,-3.937537,4.093909,-8.931060,-0.056443,24.176579,7.402117,12.255366,49.502453,-2.867168,2.428126,-3.841300,-4.904653,4.153807,-6.198125,-4.168616,0.042996,-0.144956,11.130552,7.778987,27.937078,53.025150,8064.000000,0.000000,4.000000,,,,0.000000,4.000000,4.000000,4.000000,4.000000,4.000000,4.000000,4.000000,4.000000,4.000000,4.000000,4.000000,4.000000,4.000000,4.000000,4.000000,4.000000,4.000000,4.000000,4.000000,4.000000,4.000000,4.000000,4.000000,4.000000,4.000000,4.000000,4.000000,4.000000,4.000000,4.000000,4.000000,4.000000,100.000000
1614411681.643220,123.000000,0.000000,1.770639,11.822743,52.301647,25.369488,5.614094,12.567576,-2.531205,-6.584461,1.334362,2.326236,2.572486,-6.497703,-4.628134,-11.486231,-14.415361,16.972914,2.266510,1.986701,26.888847,-12.095070,0.887237,-7.427203,-6.438210,-0.978552,-5.679106,-4.677268,0.042953,1.393650,17.273268,7.771208,26.883501,56.049049,8064.000000,0.000000,4.000000,,,,0.000000,4.000000,4.000000,4.000000,4.000000,4.000000,4.000000,4.000000,4.000000,4.000000,4.000000,4.000000,4.000000,4.000000,4.000000,4.000000,4.000000,4.000000,4.000000,4.000000,4.000000,4.000000,4.000000,4.000000,4.000000,4.000000,4.000000,4.000000,4.000000,4.000000,4.000000,4.000000,4.000000,100.000000
1614411681.650969,124.000000,0.000000,1.768869,12.836561,55.839088,24.831299,5.608480,14.093471,-2.528673,-6.577877,1.333028,3.349551,0.005811,-4.439923,-5.136326,-10.961925,-8.759920,28.237993,7.905269,25.574457,58.144009,7.404205,1.399170,-6.394135,-6.431771,-3.541676,-5.673427,-4.159770,0.042910,0.879436,19.307276,7.763437,27.369438,56.505821,8064.000000,0.000000,4.000000,,,,0.000000,4.000000,4.000000,4.000000,4.000000,4.000000,4.000000,4.000000,4.000000,4.000000,4.000000,4.000000,4.000000,4.000000,4.000000,4.000000,4.000000,4.000000,4.000000,4.000000,4.000000,4.000000,4.000000,4.000000,4.000000,4.000000,4.000000,4.000000,4.000000,4.000000,4.000000,4.000000,4.000000,100.000000
1614411681.658818,125.000000,0.000000,1.767100,12.310905,52.706326,24.293646,5.090051,13.566556,-2.526145,-6.571299,1.331695,3.346201,-1.019836,-5.461124,-4.618370,-11.463783,-8.751161,9.235395,3.794800,12.215550,53.470482,6.371160,1.397771,-6.900561,-6.425340,-1.999673,-5.667754,-4.155610,0.042867,0.365736,18.262329,7.755673,29.393351,56.449314,8064.000000,0.000000,4.000000,,,,0.000000,4.000000,4.000000,4.000000,4.000000,4.000000,4.000000,4.000000,4.000000,4.000000,4.000000,4.000000,4.000000,4.000000,4.000000,4.000000,4.000000,4.000000,4.000000,4.000000,4.000000,4.000000,4.000000,4.000000,4.000000,4.000000,4.000000,4.000000,4.000000,4.000000,4.000000,4.000000,4.000000,100.000000
1614411681.666567,126.000000,0.000000,1.765333,12.298594,51.627979,24.782173,5.084961,13.552990,-2.523619,-6.564727,1.330363,2.830035,-0.505996,-4.430022,-4.100931,-5.811294,-11.819332,-7.184096,-2.875662,2.459745,36.493935,-3.891622,2.422014,-5.355199,-6.418914,-2.510494,-5.662086,-4.664275,0.042825,0.878191,18.244066,7.235097,30.902418,56.905685,8064.000000,0.000000,4.000000,,,,0.000000,4.000000,4.000000,4.000000,4.000000,4.000000,4.000000,4.000000,4.000000,4.000000,4.000000,4.000000,4.000000,4.000000,4.000000,4.000000,4.000000,4.000000,4.000000,4.000000,4.000000,4.000000,4.000000,4.000000,4.000000,4.000000,4.000000,4.000000,4.000000,4.000000,4.000000,4.000000,4.000000,100.000000
1614411681.674216,127.000000,0.000000,1.763567,11.773475,53.114815,24.757391,5.592696,13.539436,-2.521095,-6.558162,1.329033,5.904128,-0.505490,-1.348669,1.031375,5.476569,-0.525462,11.284626,2.255419,29.636772,62.098465,7.394321,4.983695,-0.221639,-6.412495,-3.020804,-5.656424,-3.633970,0.042782,0.364492,18.738642,9.279144,30.871515,55.823139,8064.000000,0.000000,4.000000,,,,0.000000,4.000000,4.000000,4.000000,4.000000,4.000000,4.000000,4.000000,4.000000,4.000000,4.000000,4.000000,4.000000,4.000000,4.000000,4.000000,4.000000,4.000000,4.000000,4.000000,4.000000,4.000000,4.000000,4.000000,4.000000,4.000000,4.000000,4.000000,4.000000,4.000000,4.000000,4.000000,4.000000,100.000000
1614411681.681965,0.000000,0.000000,1.761804,12.274522,52.548878,24.732634,5.587103,13.525897,-2.518574,-6.551604,1.327704,7.436685,-1.017805,-0.834499,3.594447,7.522374,7.167371,25.119495,1.227523,32.684059,63.574829,12.002312,5.491531,1.829865,-6.406083,-2.504963,-5.650767,0.472228,0.042739,1.389769,18.207083,12.859609,30.327824,56.280136,0.000000,189.000000,4.000000,,,,0.000000,4.000000,4.000000,4.000000,4.000000,4.000000,4.000000,4.000000,4.000000,4.000000,4.000000,4.000000,4.000000,4.000000,4.000000,4.000000,4.000000,4.000000,4.000000,4.000000,4.000000,4.000000,4.000000,4.000000,4.000000,4.000000,4.000000,4.000000,4.000000,4.000000,4.000000,4.000000,4.000000,100.000000
1614411681.689614,1.000000,0.000000,1.760042,12.775067,51.983509,24.707901,5.068696,13.512371,-2.516055,-6.545053,1.326376,5.890787,-0.503967,-1.346485,-1.024533,4.950749,2.544819,22.017452,-6.466012,22.907785,45.049717,1.221078,4.973219,0.802394,-6.399677,-2.502458,-5.645117,3.548679,0.042696,3.439661,18.188875,15.923672,30.810316,57.249496,0.000000,195.000000,4.000000,,,,0.000000,4.000000,4.000000,4.000000,4.000000,4.000000,4.000000,4.000000,4.000000,4.000000,4.000000,4.000000,4.000000,4.000000,4.000000,4.000000,4.000000,4.000000,4.000000,4.000000,4.000000,4.000000,4.000000,4.000000,4.000000,4.000000,4.000000,4.000000,4.000000,4.000000,4.000000,4.000000,4.000000,100.000000
1614411681.697363,2.000000,0.000000,1.758282,8.146908,51.931526,24.683193,5.576448,13.498859,-2.513539,-6.538507,1.325050,3.833614,-0.503463,-1.345139,-5.126072,3.407337,1.003813,25.585178,-3.895444,39.807953,65.004669,1.219857,5.481067,1.314412,-6.393277,-2.499955,-5.639472,3.545130,0.042654,4.974683,18.170687,15.394928,30.779507,50.525581,0.000000,171.000000,4.000000,,,,0.000000,4.000000,4.000000,4.000000,4.000000,4.000000,4.000000,4.000000,4.000000,4.000000,4.000000,4.000000,4.000000,4.000000,4.000000,4.000000,4.000000,4.000000,4.000000,4.000000,4.000000,4.000000,4.000000,4.000000,4.000000,4.000000,4.000000,4.000000,4.000000,4.000000,4.000000,4.000000,4.000000,100.000000
1614411681.705013,3.000000,0.000000,1.756524,5.574658,52.392414,24.658510,7.622153,13.485360,-2.511026,-6.531969,1.323725,3.316960,-0.502959,-1.343794,-4.095305,-1.724275,3.054091,31.713440,0.723836,47.460453,77.760178,7.885304,5.988406,0.800277,-6.386884,-2.497455,-5.633832,3.028765,0.042611,4.456888,18.152517,11.789789,30.748728,41.757107,0.000000,186.000000,4.000000,,,,0.000000,4.000000,4.000000,4.000000,4.000000,4.000000,4.000000,4.000000,4.000000,4.000000,4.000000,4.000000,4.000000,4.000000,4.000000,4.000000,4.000000,4.000000,4.000000,4.000000,4.000000,4.000000,4.000000,4.000000,4.000000,4.000000,4.000000,4.000000,4.000000,4.000000,4.000000,4.000000,4.000000,100.000000
1614411681.712762,4.000000,0.000000,1.754767,9.671648,52.852844,24.633852,9.152993,13.471875,-2.508515,-6.525437,1.322401,3.313643,-0.502456,-1.342450,-3.578389,-6.850756,2.538217,31.681726,2.261574,32.028378,62.297798,7.877419,3.418315,1.312298,-6.380497,-2.494958,-5.628198,3.538557,0.042568,4.452431,18.134363,7.675436,30.717978,41.202530,0.000000,161.000000,4.000000,,,,0.000000,4.000000,4.000000,4.000000,4.000000,4.000000,4.000000,4.000000,4.000000,4.000000,4.000000,4.000000,4.000000,4.000000,4.000000,4.000000,4.000000,4.000000,4.000000,4.000000,4.000000,4.000000,4.000000,4.000000,4.000000,4.000000,4.000000,4.000000,4.000000,4.000000,4.000000,4.000000,4.000000,100.000000
1614411681.720411,5.000000,0.000000,1.753012,13.251719,50.235886,24.609217,9.143840,13.458403,-2.506006,-6.518912,1.321079,3.310329,-0.501954,-1.341107,-5.113272,-6.843905,1.510037,27.034660,3.797774,20.714298,51.979092,4.792618,1.876435,1.310985,-6.374116,-2.492463,-5.622570,3.535018,0.042526,4.447978,18.116230,7.154940,31.200081,41.674145,0.000000,179.000000,4.000000,,,,0.000000,4.000000,4.000000,4.000000,4.000000,4.000000,4.000000,4.000000,4.000000,4.000000,4.000000,4.000000,4.000000,4.000000,4.000000,4.000000,4.000000,4.000000,4.000000,4.000000,4.000000,4.000000,4.000000,4.000000,4.000000,4.000000,4.000000,4.000000,4.000000,4.000000,4.000000,4.000000,4.000000,100.000000
1614411681.728160,6.000000,0.000000,1.751259,12.725648,49.160011,25.097429,9.134696,13.444944,-2.503500,-6.512393,1.319757,3.307019,-0.501452,-1.339766,-4.595338,-8.375523,1.508527,24.956343,0.717053,9.411532,32.952751,-3.417303,1.361738,-2.280069,-6.367742,-2.489970,-5.616948,3.531483,0.042483,4.443531,18.610933,10.737528,31.168880,41.119652,0.000000,196.000000,4.000000,,,,0.000000,4.000000,4.000000,4.000000,4.000000,4.000000,4.000000,4.000000,4.000000,4.000000,4.000000,4.000000,4.000000,4.000000,4.000000,4.000000,4.000000,4.000000,4.000000,4.000000,4.000000,4.000000,4.000000,4.000000,4.000000,4.000000,4.000000,4.000000,4.000000,4.000000,4.000000,4.000000,4.000000,100.000000
1614411681.735809,7.000000,0.000000,1.749508,12.200102,48.598030,24.559511,9.125562,13.431499,-2.500997,-6.505880,1.318438,3.303712,-0.500950,-0.825606,-3.565102,-10.931251,0.994198,28.008310,-5.437510,-1.367110,8.304415,-10.593372,-1.716546,-6.380353,-6.361374,-2.487480,-5.611331,3.015131,0.042441,4.439087,17.053862,10.726790,30.624891,42.616993,0.000000,200.000000,4.000000,,,,0.000000,4.000000,4.000000,4.000000,4.000000,4.000000,4.000000,4.000000,4.000000,4.000000,4.000000,4.000000,4.000000,4.000000,4.000000,4.000000,4.000000,4.000000,4.000000,4.000000,4.000000,4.000000,4.000000,4.000000,4.000000,4.000000,4.000000,4.000000,4.000000,4.000000,4.000000,4.000000,4.000000,100.000000
1614411681.743558,8.000000,0.000000,2.260579,12.187901,42.908405,24.022131,8.603615,13.418068,-2.498496,-6.499374,1.829940,3.300408,-0.500449,-2.363242,-11.766665,-10.407498,-6.186283,18.236712,-6.970534,-4.955486,0.090982,-12.121241,-5.817394,-6.886793,-6.355013,-2.484993,-5.605719,3.524936,0.555219,4.434648,14.985525,6.100679,31.107086,37.958992,0.000000,180.000000,4.000000,,,,0.000000,4.000000,4.000000,4.000000,4.000000,4.000000,4.000000,4.000000,4.000000,4.000000,4.000000,4.000000,4.000000,4.000000,4.000000,4.000000,4.000000,4.000000,4.000000,4.000000,4.000000,4.000000,4.000000,4.000000,4.000000,4.000000,4.000000,4.000000,4.000000,4.000000,4.000000,4.000000,4.000000,100.000000
1614411681.751207,9.000000,0.000000,1.745498,13.201354,35.686008,25.536570,9.107832,13.404650,-2.495997,-6.492875,1.315289,3.297108,-0.499949,-4.924982,-22.011309,-11.935553,-15.923686,3.859501,-5.937923,-10.078735,-5.550134,-14.160401,-6.837218,-6.367086,-6.348658,-2.482508,-5.600113,4.547052,-1.496619,4.430213,14.457720,4.043297,30.050339,22.536417,0.000000,199.000000,4.000000,,,,0.000000,4.000000,4.000000,4.000000,4.000000,4.000000,4.000000,4.000000,4.000000,4.000000,4.000000,4.000000,4.000000,4.000000,4.000000,4.000000,4.000000,4.000000,4.000000,4.000000,4.000000,4.000000,4.000000,4.000000,4.000000,4.000000,4.000000,4.000000,4.000000,4.000000,4.000000,4.000000,4.000000,100.000000
1614411681.758956,10.000000,0.000000,-0.820350,12.675333,32.060581,23.459751,9.098724,13.391246,-3.006322,-6.486382,-0.737308,3.293811,-0.499449,-5.432877,-20.450836,-13.974899,-14.882122,16.676155,-5.931985,2.751856,15.481057,-7.479574,-4.779099,-6.360719,-6.342309,-2.480025,-5.081693,-0.072879,-3.546404,4.425783,13.417621,3.526433,22.327980,14.821573,0.000000,193.000000,4.000000,,,,0.000000,4.000000,4.000000,4.000000,4.000000,4.000000,4.000000,4.000000,4.000000,4.000000,4.000000,4.000000,4.000000,4.000000,4.000000,4.000000,4.000000,4.000000,4.000000,4.000000,4.000000,4.000000,4.000000,4.000000,4.000000,4.000000,4.000000,4.000000,4.000000,4.000000,4.000000,4.000000,4.000000,100.000000
1614411681.766606,11.000000,0.000000,-2.357991,4.457529,26.900314,12.154241,6.012702,13.377854,-5.054597,-6.479896,-2.787853,2.777696,-0.498950,-3.888983,-15.815001,-7.807078,-7.174932,38.197941,-3.874771,34.543976,48.286087,7.399700,-2.723037,-6.354358,-6.335967,-2.477545,-6.615073,-8.790755,-4.055678,4.421357,10.840100,-0.579658,13.587704,15.832393,0.000000,193.000000,4.000000,,,,0.000000,4.000000,4.000000,4.000000,4.000000,4.000000,4.000000,4.000000,4.000000,4.000000,4.000000,4.000000,4.000000,4.000000,4.000000,4.000000,4.000000,4.000000,4.000000,4.000000,4.000000,4.000000,4.000000,4.000000,4.000000,4.000000,4.000000,4.000000,4.000000,4.000000,4.000000,4.000000,4.000000,100.000000
1614411681.774355,12.000000,0.000000,-1.842813,-2.726416,22.258030,5.475420,4.981049,13.364476,-6.588005,-6.473416,-2.272244,3.287739,-0.498451,-5.936376,-15.286366,-0.106963,-6.142116,34.057178,-2.332434,37.073536,52.340366,4.828198,-2.720314,-6.348004,-5.816811,-2.475068,-9.172560,-12.371708,-3.538802,4.416936,10.316440,-4.681642,11.522835,13.765279,0.000000,176.000000,4.000000,,,,0.000000,4.000000,4.000000,4.000000,4.000000,4.000000,4.000000,4.000000,4.000000,4.000000,4.000000,4.000000,4.000000,4.000000,4.000000,4.000000,4.000000,4.000000,4.000000,4.000000,4.000000,4.000000,4.000000,4.000000,4.000000,4.000000,4.000000,4.000000,4.000000,4.000000,4.000000,4.000000,4.000000,100.000000
1614411681.782004,13.000000,0.000000,-2.353790,-0.672407,22.235771,8.034047,9.078631,13.351111,-6.068596,-6.466943,-2.269972,4.822913,-0.497952,-5.417619,-10.655694,0.918785,-5.623153,26.843634,-2.330102,23.190308,34.339310,-7.484323,-3.230414,-7.367297,-6.323814,-2.472593,-9.676208,-11.333695,-3.535263,3.899698,10.818944,-3.651320,12.024132,12.725872,0.000000,170.000000,4.000000,,,,0.000000,4.000000,4.000000,4.000000,4.000000,4.000000,4.000000,4.000000,4.000000,4.000000,4.000000,4.000000,4.000000,4.000000,4.000000,4.000000,4.000000,4.000000,4.000000,4.000000,4.000000,4.000000,4.000000,4.000000,4.000000,4.000000,4.000000,4.000000,4.000000,4.000000,4.000000,4.000000,4.000000,100.000000
1614411681.789753,14.000000,0.000000,-2.351437,1.379547,22.213537,10.077294,12.659297,12.824941,-4.011245,-6.460475,-2.780523,6.869372,-0.497454,3.305748,-4.491192,1.430687,-1.002146,31.432175,-1.814951,38.038910,59.945995,-3.374274,-1.688722,-6.334289,-6.317491,-2.982941,-9.153711,-11.835182,-4.044548,4.408619,10.808125,-1.083566,12.012108,17.841351,0.000000,221.000000,4.000000,,,,0.000000,4.000000,4.000000,4.000000,4.000000,4.000000,4.000000,4.000000,4.000000,4.000000,4.000000,4.000000,4.000000,4.000000,4.000000,4.000000,4.000000,4.000000,4.000000,4.000000,4.000000,4.000000,4.000000,4.000000,4.000000,4.000000,4.000000,4.000000,4.000000,4.000000,4.000000,4.000000,4.000000,100.000000
1614411681.797402,15.000000,0.000000,0.215017,0.352527,23.216965,9.554397,13.159458,13.324936,-2.468772,-6.454015,-2.264922,7.375323,-0.496957,4.840903,-5.512342,-2.673308,-8.180631,25.246897,-4.377239,41.590618,57.834766,-1.832438,-4.251136,-5.815134,-5.798353,-3.492778,-9.657378,-11.823347,-3.527683,6.455492,10.797317,0.455979,12.512917,20.900433,0.000000,174.000000,4.000000,,,,0.000000,4.000000,4.000000,4.000000,4.000000,4.000000,4.000000,4.000000,4.000000,4.000000,4.000000,4.000000,4.000000,4.000000,4.000000,4.000000,4.000000,4.000000,4.000000,4.000000,4.000000,4.000000,4.000000,4.000000,4.000000,4.000000,4.000000,4.000000,4.000000,4.000000,4.000000,4.000000,4.000000,100.000000
1614411681.805251,16.000000,0.000000,2.266084,1.377815,23.706568,10.057663,13.659119,13.824431,-2.466304,-6.447561,-1.749836,7.367948,0.016361,-4.907527,-8.070932,-15.491148,-22.018604,7.785752,-10.013887,9.241333,25.469240,-18.240862,-10.913552,-9.911882,-7.843836,-1.438003,-8.622080,-11.811523,-3.524156,7.987499,10.786520,0.968344,10.961942,20.366713,0.000000,177.000000,4.000000,,,,0.000000,4.000000,4.000000,4.000000,4.000000,4.000000,4.000000,4.000000,4.000000,4.000000,4.000000,4.000000,4.000000,4.000000,4.000000,4.000000,4.000000,4.000000,4.000000,4.000000,4.000000,4.000000,4.000000,4.000000,4.000000,4.000000,4.000000,4.000000,4.000000,4.000000,4.000000,4.000000,4.000000,100.000000
1614411681.813000,17.000000,0.000000,1.238177,0.350796,17.016193,9.021964,12.619819,13.297787,-2.463837,-6.441113,-2.260907,7.360580,-0.496476,-6.953902,-8.575682,-15.988477,-19.945303,-0.939983,-7.952591,-14.870472,13.648898,-22.325186,-6.287254,-8.363509,-9.887275,-2.462206,-6.049355,-11.286891,-4.033452,9.005152,10.775733,0.454555,9.925339,19.320704,0.000000,196.000000,4.000000,,,,0.000000,4.000000,4.000000,4.000000,4.000000,4.000000,4.000000,4.000000,4.000000,4.000000,4.000000,4.000000,4.000000,4.000000,4.000000,4.000000,4.000000,4.000000,4.000000,4.000000,4.000000,4.000000,4.000000,4.000000,4.000000,4.000000,4.000000,4.000000,4.000000,4.000000,4.000000,4.000000,4.000000,100.000000
1614411681.820849,18.000000,0.000000,2.262580,1.376087,15.460716,12.089866,13.632840,12.771668,-2.461374,-6.434672,-1.233005,10.430142,-1.008800,0.745360,-7.028645,3.001870,-1.463819,10.855829,-0.252331,10.785424,46.455761,-6.918245,10.642111,3.952547,-6.800464,-3.998206,-5.530485,-7.685861,-3.003778,10.534609,11.277778,0.454101,12.992336,20.327024,0.000000,181.000000,4.000000,,,,0.000000,4.000000,4.000000,4.000000,4.000000,4.000000,4.000000,4.000000,4.000000,4.000000,4.000000,4.000000,4.000000,4.000000,4.000000,4.000000,4.000000,4.000000,4.000000,4.000000,4.000000,4.000000,4.000000,4.000000,4.000000,4.000000,4.000000,4.000000,4.000000,4.000000,4.000000,4.000000,4.000000,100.000000
1614411681.828598,19.000000,0.000000,4.824420,11.118300,24.676025,20.282904,18.234592,17.374281,-2.458912,-6.941058,4.922074,15.547917,-0.494971,3.308717,-2.406231,8.127073,7.255593,31.357794,2.312024,33.338741,43.845203,1.293801,16.272493,10.615261,-2.178279,5.236562,-5.012134,-4.088431,-0.949492,12.575356,10.753679,1.479288,17.594728,21.332338,0.000000,211.000000,4.000000,,,,0.000000,4.000000,4.000000,4.000000,4.000000,4.000000,4.000000,4.000000,4.000000,4.000000,4.000000,4.000000,4.000000,4.000000,4.000000,4.000000,4.000000,4.000000,4.000000,4.000000,4.000000,4.000000,4.000000,4.000000,4.000000,4.000000,4.000000,4.000000,4.000000,4.000000,4.000000,4.000000,4.000000,100.000000
1614411681.836447,20.000000,0.000000,5.845237,15.722567,21.061605,19.236980,12.575332,16.844086,-2.456453,-6.421297,3.891511,10.404164,-2.032938,1.766947,-3.429466,-8.291309,-3.520893,32.864899,0.771250,33.818222,36.109051,-4.861339,4.461350,3.425158,-2.176101,15.487736,-6.032763,-3.571522,0.589919,11.024319,8.178823,-0.573474,16.038673,13.618699,0.000000,201.000000,4.000000,,,,0.000000,4.000000,4.000000,4.000000,4.000000,4.000000,4.000000,4.000000,4.000000,4.000000,4.000000,4.000000,4.000000,4.000000,4.000000,4.000000,4.000000,4.000000,4.000000,4.000000,4.000000,4.000000,4.000000,4.000000,4.000000,4.000000,4.000000,4.000000,4.000000,4.000000,4.000000,4.000000,4.000000,100.000000
1614411681.844196,21.000000,0.000000,5.326571,10.578639,1.553364,8.448512,-5.385962,4.519550,-2.453997,-5.902055,-9.445714,-6.016496,-8.697571,0.739539,-10.092704,-20.077890,-17.363525,19.498699,1.283299,36.348507,55.047302,-8.446221,-2.209778,-2.732113,-2.686745,8.805581,-10.129294,-4.080771,0.076509,6.910731,7.145003,-5.188285,9.355968,0.271747,0.000000,200.000000,4.000000,,,,0.000000,4.000000,4.000000,4.000000,4.000000,4.000000,4.000000,4.000000,4.000000,4.000000,4.000000,4.000000,4.000000,4.000000,4.000000,4.000000,4.000000,4.000000,4.000000,4.000000,4.000000,4.000000,4.000000,4.000000,4.000000,4.000000,4.000000,4.000000,4.000000,4.000000,4.000000,4.000000,4.000000,100.000000
1614411681.852045,22.000000,0.000000,5.321244,7.491137,-3.576394,5.363141,-14.611345,-2.151636,-2.451543,-6.921794,-13.538832,-13.189967,-10.740155,-0.799662,-11.108252,-22.621916,-21.448727,14.350995,1.794837,34.260876,57.043537,-5.873672,-2.720389,-2.729381,-2.171238,-2.485276,-13.708909,-4.076691,0.076433,3.826897,7.137858,-7.747199,5.756868,-1.779807,0.000000,218.000000,4.000000,,,,0.000000,4.000000,4.000000,4.000000,4.000000,4.000000,4.000000,4.000000,4.000000,4.000000,4.000000,4.000000,4.000000,4.000000,4.000000,4.000000,4.000000,4.000000,4.000000,4.000000,4.000000,4.000000,4.000000,4.000000,4.000000,4.000000,4.000000,4.000000,4.000000,4.000000,4.000000,4.000000,4.000000,100.000000
1614411681.859794,23.000000,0.000000,5.315923,9.534928,5.657951,8.947521,-8.955708,5.542823,-2.449091,-5.889231,-0.704780,0.669377,-2.011467,-0.798863,-8.020221,-19.009550,-13.734970,13.823824,1.280221,24.995846,46.730083,-7.919081,-1.692028,-1.701011,-2.681887,-2.995611,-10.105456,-3.559793,0.076356,4.335890,7.130721,-6.713811,7.802393,4.375819,0.000000,205.000000,4.000000,,,,0.000000,4.000000,4.000000,4.000000,4.000000,4.000000,4.000000,4.000000,4.000000,4.000000,4.000000,4.000000,4.000000,4.000000,4.000000,4.000000,4.000000,4.000000,4.000000,4.000000,4.000000,4.000000,4.000000,4.000000,4.000000,4.000000,4.000000,4.000000,4.000000,4.000000,4.000000,4.000000,4.000000,100.000000
1614411681.867643,24.000000,0.000000,5.310607,7.474111,9.754857,10.477035,-2.792906,11.178306,-2.446642,-0.755137,6.988232,17.078964,6.195673,1.253218,-0.319892,1.009460,2.176201,17.912563,1.278941,38.304184,64.119247,-5.859879,9.078896,1.890434,-1.140744,-1.454154,-5.479966,-4.069054,0.076280,4.331554,7.123590,-6.707097,9.333052,5.909904,0.000000,207.000000,4.000000,,,,0.000000,4.000000,4.000000,4.000000,4.000000,4.000000,4.000000,4.000000,4.000000,4.000000,4.000000,4.000000,4.000000,4.000000,4.000000,4.000000,4.000000,4.000000,4.000000,4.000000,4.000000,4.000000,4.000000,4.000000,4.000000,4.000000,4.000000,4.000000,4.000000,4.000000,4.000000,4.000000,4.000000,100.000000
1614411681.875392,25.000000,0.000000,5.305297,4.389714,8.206641,9.440917,-2.277293,9.115846,-2.444196,1.809721,2.878680,16.036243,7.727939,3.303247,9.936838,19.982809,14.994537,36.356190,1.277662,63.394085,91.747437,9.530596,19.839046,9.068030,1.424500,-2.991161,-4.961666,-5.603446,0.076203,3.814403,6.090825,-6.700390,8.298078,4.878354,0.000000,208.000000,4.000000,,,,0.000000,4.000000,4.000000,4.000000,4.000000,4.000000,4.000000,4.000000,4.000000,4.000000,4.000000,4.000000,4.000000,4.000000,4.000000,4.000000,4.000000,4.000000,4.000000,4.000000,4.000000,4.000000,4.000000,4.000000,4.000000,4.000000,4.000000,4.000000,4.000000,4.000000,4.000000,4.000000,4.000000,100.000000
1614411681.883241,26.000000,0.000000,5.299992,4.385324,7.172793,8.405835,-2.275015,9.106730,-2.441751,-1.269012,1.337339,4.738157,6.181749,2.274303,2.747414,7.142314,7.800056,41.448040,1.276384,54.612743,91.655693,14.136450,12.639721,8.033321,-1.653848,-0.424068,-5.982345,-7.649125,0.076127,4.323409,4.033453,-6.693690,8.802601,5.386296,0.000000,198.000000,4.000000,,,,0.000000,4.000000,4.000000,4.000000,4.000000,4.000000,4.000000,4.000000,4.000000,4.000000,4.000000,4.000000,4.000000,4.000000,4.000000,4.000000,4.000000,4.000000,4.000000,4.000000,4.000000,4.000000,4.000000,4.000000,4.000000,4.000000,4.000000,4.000000,4.000000,4.000000,4.000000,4.000000,4.000000,100.000000
1614411681.890991,27.000000,0.000000,5.294692,5.406580,10.242543,13.012814,-1.759920,10.123264,-2.439310,-3.319025,1.336002,-0.907607,2.585824,-3.881818,-18.280975,-17.480213,-13.746206,17.816847,1.275108,22.763258,62.333267,-9.980250,1.345030,-2.743942,-6.267579,1.114818,-4.950722,-7.641476,0.076051,4.319085,3.003778,-6.686996,8.793797,5.380909,0.000000,191.000000,4.000000,,,,0.000000,4.000000,4.000000,4.000000,4.000000,4.000000,4.000000,4.000000,4.000000,4.000000,4.000000,4.000000,4.000000,4.000000,4.000000,4.000000,4.000000,4.000000,4.000000,4.000000,4.000000,4.000000,4.000000,4.000000,4.000000,4.000000,4.000000,4.000000,4.000000,4.000000,4.000000,4.000000,4.000000,100.000000
1614411681.898640,28.000000,0.000000,5.289397,4.888353,18.437429,20.179289,-1.245339,10.113141,-2.436870,-2.290065,-1.229437,0.118941,-2.544967,-9.518961,-23.390900,-22.078117,-25.014511,0.875954,1.273833,6.843059,29.963240,-28.431808,0.830864,-10.433506,-6.774132,-2.476040,-4.945771,-7.633834,0.075975,4.314766,4.026415,-4.629027,8.272183,6.401170,0.000000,189.000000,4.000000,,,,0.000000,4.000000,4.000000,4.000000,4.000000,4.000000,4.000000,4.000000,4.000000,4.000000,4.000000,4.000000,4.000000,4.000000,4.000000,4.000000,4.000000,4.000000,4.000000,4.000000,4.000000,4.000000,4.000000,4.000000,4.000000,4.000000,4.000000,4.000000,4.000000,4.000000,4.000000,4.000000,4.000000,100.000000
1614411681.906389,29.000000,0.000000,5.284107,2.832182,18.931812,19.133469,-1.756915,9.590207,-2.434433,-2.800595,-2.766669,-0.393998,-5.106524,-7.970981,-15.675200,-17.440655,-17.810009,6.003283,1.272559,9.400318,24.292252,-18.659788,2.368495,-10.935893,-6.254537,-6.576128,-4.940825,-7.626201,0.075899,4.823272,4.022389,-2.060295,9.289553,4.856307,0.000000,181.000000,4.000000,,,,0.000000,4.000000,4.000000,4.000000,4.000000,4.000000,4.000000,4.000000,4.000000,4.000000,4.000000,4.000000,4.000000,4.000000,4.000000,4.000000,4.000000,4.000000,4.000000,4.000000,4.000000,4.000000,4.000000,4.000000,4.000000,4.000000,4.000000,4.000000,4.000000,4.000000,4.000000,4.000000,4.000000,100.000000
1614411681.914238,30.000000,0.000000,5.278823,1.290889,7.630829,11.422027,-3.806440,8.042155,-1.919178,-2.797795,-3.789543,-1.419245,-4.588598,-4.886087,-15.146705,-17.936035,-4.458866,10.612664,1.271286,15.544764,36.062832,-6.333435,1.340485,-9.386496,-6.248282,-6.569552,-4.935884,-7.105754,0.075823,3.792808,0.428623,-4.622338,8.767443,-2.328037,0.000000,202.000000,4.000000,,,,0.000000,4.000000,4.000000,4.000000,4.000000,4.000000,4.000000,4.000000,4.000000,4.000000,4.000000,4.000000,4.000000,4.000000,4.000000,4.000000,4.000000,4.000000,4.000000,4.000000,4.000000,4.000000,4.000000,4.000000,4.000000,4.000000,4.000000,4.000000,4.000000,4.000000,4.000000,4.000000,4.000000,100.000000
1614411681.921987,31.000000,0.000000,5.273544,0.776777,0.443711,8.846502,-5.853915,5.982831,-3.968541,-2.794997,-5.837036,-0.905005,-4.071188,-4.881201,-17.182840,-18.943739,-1.890305,9.063590,1.270015,7.836911,30.898563,-7.865563,0.826324,-10.402750,-6.242034,-5.537342,-5.443769,-9.149930,0.075747,-0.826370,-3.674370,-9.745920,2.604829,-9.505196,0.000000,187.000000,4.000000,,,,0.000000,4.000000,4.000000,4.000000,4.000000,4.000000,4.000000,4.000000,4.000000,4.000000,4.000000,4.000000,4.000000,4.000000,4.000000,4.000000,4.000000,4.000000,4.000000,4.000000,4.000000,4.000000,4.000000,4.000000,4.000000,4.000000,4.000000,4.000000,4.000000,4.000000,4.000000,4.000000,4.000000,100.000000
1614411681.929636,32.000000,0.000000,5.268271,1.288821,1.468909,10.376117,-5.335241,5.464028,-6.015855,-3.817843,-6.344019,-0.391280,-5.605579,-5.389140,-15.627195,-18.924795,-9.067902,7.516065,1.268745,-2.940156,18.047152,-11.447441,0.312678,-11.417989,-8.287074,-6.044625,-4.925505,-11.192062,0.075672,-3.389646,-4.183516,-10.761815,3.115044,-10.008511,8064.000000,0.000000,4.000000,,,,0.000000,4.000000,4.000000,4.000000,4.000000,4.000000,4.000000,4.000000,4.000000,4.000000,4.000000,4.000000,4.000000,4.000000,4.000000,4.000000,4.000000,4.000000,4.000000,4.000000,4.000000,4.000000,4.000000,4.000000,4.000000,4.000000,4.000000,4.000000,4.000000,4.000000,4.000000,4.000000,4.000000,100.000000
1614411681.937385,33.000000,0.000000,5.263002,1.287532,1.467440,9.852921,-5.329906,5.971384,-6.522659,-5.865307,-5.824854,-0.390888,-8.676896,-4.870930,-15.098748,-17.367409,-11.622936,11.098292,1.267476,16.549963,37.516285,-5.282148,2.363647,-7.304007,-8.791608,-8.089863,-4.407759,-8.616768,0.075596,-2.873436,-3.666512,-9.725412,10.804237,-8.972861,8064.000000,0.000000,4.000000,,,,0.000000,4.000000,4.000000,4.000000,4.000000,4.000000,4.000000,4.000000,4.000000,4.000000,4.000000,4.000000,4.000000,4.000000,4.000000,4.000000,4.000000,4.000000,4.000000,4.000000,4.000000,4.000000,4.000000,4.000000,4.000000,4.000000,4.000000,4.000000,4.000000,4.000000,4.000000,4.000000,4.000000,100.000000
1614411681.945034,34.000000,0.000000,5.257740,1.286245,0.440331,9.330247,-5.837396,5.965413,-6.003316,-6.885083,-5.819029,-0.390498,-6.104117,-4.866059,-15.596470,-13.247478,-9.560031,16.728220,1.266209,40.123158,64.145432,4.979545,1.335642,-0.630036,-4.167431,-2.440747,-9.018736,-7.069690,0.075520,-2.870563,-3.662846,-12.279790,10.793433,-9.476709,8064.000000,0.000000,4.000000,,,,0.000000,4.000000,4.000000,4.000000,4.000000,4.000000,4.000000,4.000000,4.000000,4.000000,4.000000,4.000000,4.000000,4.000000,4.000000,4.000000,4.000000,4.000000,4.000000,4.000000,4.000000,4.000000,4.000000,4.000000,4.000000,4.000000,4.000000,4.000000,4.000000,4.000000,4.000000,4.000000,4.000000,100.000000
1614411681.952783,35.000000,0.000000,5.252482,1.284958,0.952711,9.320917,-5.318738,5.959447,-5.997313,-6.365377,-5.813210,-0.390107,1.594295,-5.374014,-10.452668,-10.670128,-9.037651,15.685850,1.264943,26.749701,52.286415,4.974565,-7.896462,-0.116585,-3.650444,4.741181,-15.676384,-10.139543,0.075445,-3.380512,-4.172003,-14.318792,4.628793,-9.467233,8064.000000,0.000000,4.000000,,,,0.000000,4.000000,4.000000,4.000000,4.000000,4.000000,4.000000,4.000000,4.000000,4.000000,4.000000,4.000000,4.000000,4.000000,4.000000,4.000000,4.000000,4.000000,4.000000,4.000000,4.000000,4.000000,4.000000,4.000000,4.000000,4.000000,4.000000,4.000000,4.000000,4.000000,4.000000,4.000000,4.000000,100.000000
1614411681.960433,36.000000,0.000000,5.247230,1.283673,1.464579,9.824416,-5.313420,5.953488,-5.991316,-6.359012,-5.807397,-0.389717,4.156803,-4.342999,-2.749908,-5.531252,-1.336305,23.875294,3.827780,20.056284,38.900799,-0.158615,-6.862925,-1.142110,-6.210896,-0.904586,-17.199169,-11.667865,0.075369,-2.864311,-4.167831,-13.791653,4.111344,-9.970586,8064.000000,0.000000,4.000000,,,,0.000000,4.000000,4.000000,4.000000,4.000000,4.000000,4.000000,4.000000,4.000000,4.000000,4.000000,4.000000,4.000000,4.000000,4.000000,4.000000,4.000000,4.000000,4.000000,4.000000,4.000000,4.000000,4.000000,4.000000,4.000000,4.000000,4.000000,4.000000,4.000000,4.000000,4.000000,4.000000,4.000000,100.000000
1614411681.968182,37.000000,0.000000,5.241982,1.282390,0.950294,9.814592,-5.820927,5.947535,-5.985324,-6.865473,-5.801590,-0.902148,3.127005,-1.774553,0.329765,4.217868,8.408621,43.338596,5.362414,45.164433,59.887539,4.456929,3.400348,0.910315,-6.717505,-6.031887,-16.156328,-11.143376,0.075294,-2.861447,-3.650843,-13.777862,5.645694,-8.422153,8064.000000,0.000000,4.000000,,,,0.000000,4.000000,4.000000,4.000000,4.000000,4.000000,4.000000,4.000000,4.000000,4.000000,4.000000,4.000000,4.000000,4.000000,4.000000,4.000000,4.000000,4.000000,4.000000,4.000000,4.000000,4.000000,4.000000,4.000000,4.000000,4.000000,4.000000,4.000000,4.000000,4.000000,4.000000,4.000000,4.000000,100.000000
1614411681.975831,38.000000,0.000000,5.236740,1.281107,0.949344,8.779137,-5.302285,5.941587,-5.979339,-6.858608,-5.795788,-0.388425,3.123878,-1.259958,-0.696205,9.341856,1.733545,39.192696,3.305770,47.170551,67.519958,4.965292,0.320025,-0.116237,-6.197967,1.666453,-16.652992,-11.645054,0.075219,-2.858586,-3.647192,-13.764083,4.614408,-5.849629,8064.000000,0.000000,4.000000,,,,0.000000,4.000000,4.000000,4.000000,4.000000,4.000000,4.000000,4.000000,4.000000,4.000000,4.000000,4.000000,4.000000,4.000000,4.000000,4.000000,4.000000,4.000000,4.000000,4.000000,4.000000,4.000000,4.000000,4.000000,4.000000,4.000000,4.000000,4.000000,4.000000,4.000000,4.000000,4.000000,4.000000,100.000000
1614411681.983580,39.000000,0.000000,5.231503,1.279826,0.948395,9.795999,-2.732880,5.422825,-5.973360,-6.338929,-6.302813,1.663245,3.633575,-1.771519,-0.695509,6.768411,-9.037419,16.076578,0.225541,24.559277,45.913975,-6.834545,-4.295680,-2.167403,-5.678949,3.716069,-15.610699,-10.607768,0.075144,-2.855727,-4.669186,-13.750319,5.122613,-6.356600,8064.000000,0.000000,4.000000,,,,0.000000,4.000000,4.000000,4.000000,4.000000,4.000000,4.000000,4.000000,4.000000,4.000000,4.000000,4.000000,4.000000,4.000000,4.000000,4.000000,4.000000,4.000000,4.000000,4.000000,4.000000,4.000000,4.000000,4.000000,4.000000,4.000000,4.000000,4.000000,4.000000,4.000000,4.000000,4.000000,4.000000,100.000000
1614411681.991229,40.000000,0.000000,5.226272,1.278546,2.998728,12.350305,-1.704507,5.930223,-6.480207,-6.845410,-5.270869,3.200044,3.117121,-0.744106,-0.181993,5.223181,-10.054023,15.547682,1.250956,19.919334,39.201397,-12.981557,4.939385,1.937329,-3.621988,-2.441493,-12.518165,-5.981775,0.075068,-2.852871,-3.126055,-14.249390,7.681593,-2.760499,8064.000000,0.000000,4.000000,,,,0.000000,4.000000,4.000000,4.000000,4.000000,4.000000,4.000000,4.000000,4.000000,4.000000,4.000000,4.000000,4.000000,4.000000,4.000000,4.000000,4.000000,4.000000,4.000000,4.000000,4.000000,4.000000,4.000000,4.000000,4.000000,4.000000,4.000000,4.000000,4.000000,4.000000,4.000000,4.000000,4.000000,100.000000
1614411681.998978,41.000000,0.000000,4.708225,1.277268,6.072652,12.850775,-1.702802,7.975574,-5.960906,-6.838565,-2.701496,3.709664,3.114004,0.795099,-0.694632,4.705138,-9.018328,26.301365,5.865090,25.027620,51.982708,-8.866011,9.037009,5.525135,-2.592725,3.201974,-11.992826,-2.898870,0.074993,-2.850019,1.492455,-12.183858,9.212374,5.960210,8064.000000,0.000000,4.000000,,,,0.000000,4.000000,4.000000,4.000000,4.000000,4.000000,4.000000,4.000000,4.000000,4.000000,4.000000,4.000000,4.000000,4.000000,4.000000,4.000000,4.000000,4.000000,4.000000,4.000000,4.000000,4.000000,4.000000,4.000000,4.000000,4.000000,4.000000,4.000000,4.000000,4.000000,4.000000,4.000000,4.000000,100.000000
1614411682.006627,42.000000,0.000000,5.729158,1.275991,10.169144,14.376386,0.350183,9.506061,-3.390843,-3.241983,-2.698794,5.757236,3.623710,2.332766,0.844524,4.187612,-5.419566,24.736601,8.936148,26.541054,58.084572,-4.241760,4.925408,5.006790,-2.077312,12.942362,-12.493654,-3.921613,0.074918,-2.847168,4.055066,-7.556290,10.741623,10.569634,8064.000000,0.000000,4.000000,,,,0.000000,4.000000,4.000000,4.000000,4.000000,4.000000,4.000000,4.000000,4.000000,4.000000,4.000000,4.000000,4.000000,4.000000,4.000000,4.000000,4.000000,4.000000,4.000000,4.000000,4.000000,4.000000,4.000000,4.000000,4.000000,4.000000,4.000000,4.000000,4.000000,4.000000,4.000000,4.000000,4.000000,100.000000
1614411682.014476,43.000000,0.000000,8.287531,1.274715,14.261539,18.977394,1.888294,9.496554,-0.310529,0.863823,-1.670454,7.289941,5.671369,6.945817,2.894962,8.285989,4.329443,29.327250,8.414392,30.104256,59.052128,-0.134954,6.971765,3.976142,-0.023952,12.929420,-12.481160,-3.917691,0.074843,-2.844321,3.538190,-6.010272,12.269342,8.507782,8064.000000,0.000000,4.000000,,,,0.000000,4.000000,4.000000,4.000000,4.000000,4.000000,4.000000,4.000000,4.000000,4.000000,4.000000,4.000000,4.000000,4.000000,4.000000,4.000000,4.000000,4.000000,4.000000,4.000000,4.000000,4.000000,4.000000,4.000000,4.000000,4.000000,4.000000,4.000000,4.000000,4.000000,4.000000,4.000000,4.000000,100.000000
1614411682.022225,44.000000,0.000000,9.304885,0.247799,17.324200,21.009699,1.886406,9.487058,1.741064,1.375780,0.895319,6.769830,7.716980,10.528616,2.892067,10.328984,8.940499,36.990231,7.893157,31.099792,64.121277,2.942104,6.451973,4.484986,1.514533,11.378028,-11.955858,-3.913773,0.074769,-2.841477,5.585934,-7.029902,11.744252,9.012095,8064.000000,0.000000,4.000000,,,,0.000000,4.000000,4.000000,4.000000,4.000000,4.000000,4.000000,4.000000,4.000000,4.000000,4.000000,4.000000,4.000000,4.000000,4.000000,4.000000,4.000000,4.000000,4.000000,4.000000,4.000000,4.000000,4.000000,4.000000,4.000000,4.000000,4.000000,4.000000,4.000000,4.000000,4.000000,4.000000,4.000000,100.000000
1614411682.029975,45.000000,0.000000,8.782760,1.273192,19.870979,20.475868,1.884519,9.477571,1.226502,0.861584,-0.131218,6.763061,6.170801,6.415523,1.350713,5.703271,6.880276,29.260933,8.398084,30.043053,67.134079,2.939162,2.855778,5.506142,1.000198,12.392291,-12.456723,-3.397039,0.074694,-3.351456,7.631630,-5.484411,12.245329,12.592827,8064.000000,0.000000,4.000000,,,,0.000000,4.000000,4.000000,4.000000,4.000000,4.000000,4.000000,4.000000,4.000000,4.000000,4.000000,4.000000,4.000000,4.000000,4.000000,4.000000,4.000000,4.000000,4.000000,4.000000,4.000000,4.000000,4.000000,4.000000,4.000000,4.000000,4.000000,4.000000,4.000000,4.000000,4.000000,4.000000,4.000000,100.000000
1614411682.037624,46.000000,0.000000,8.773976,4.348842,19.851109,20.968212,1.369814,9.468093,1.225276,1.373543,-2.182369,6.243477,3.600528,1.793723,-1.214740,0.056542,-0.818912,15.898338,5.312763,24.371983,54.759254,-0.653521,3.878563,2.936533,0.999198,11.354258,-12.444266,-2.880821,0.074619,-2.835284,7.623999,-7.530209,12.745904,13.605875,8064.000000,0.000000,4.000000,,,,0.000000,4.000000,4.000000,4.000000,4.000000,4.000000,4.000000,4.000000,4.000000,4.000000,4.000000,4.000000,4.000000,4.000000,4.000000,4.000000,4.000000,4.000000,4.000000,4.000000,4.000000,4.000000,4.000000,4.000000,4.000000,4.000000,4.000000,4.000000,4.000000,4.000000,4.000000,4.000000,4.000000,100.000000
1614411682.045473,47.000000,0.000000,8.765203,4.344493,18.292795,19.408783,2.394086,10.997087,1.224050,1.372169,-0.641725,6.750054,3.084106,4.868852,-1.213525,-0.456335,-5.946298,17.420900,3.256168,17.168123,35.730137,-6.293893,-0.227880,0.882315,0.998199,7.753160,-12.431822,-3.903582,0.074544,-1.806808,7.103554,-14.702166,11.707518,11.540987,8064.000000,0.000000,4.000000,,,,0.000000,4.000000,4.000000,4.000000,4.000000,4.000000,4.000000,4.000000,4.000000,4.000000,4.000000,4.000000,4.000000,4.000000,4.000000,4.000000,4.000000,4.000000,4.000000,4.000000,4.000000,4.000000,4.000000,4.000000,4.000000,4.000000,4.000000,4.000000,4.000000,4.000000,4.000000,4.000000,4.000000,100.000000
1614411682.053222,48.000000,0.000000,8.756437,5.365790,20.838606,21.440657,6.494256,13.037372,1.222826,0.857976,1.410199,9.307406,3.081022,9.992188,3.403073,2.108224,7.392982,38.941940,9.406757,36.125317,50.053379,0.891888,-3.817396,6.522458,2.022842,2.104381,-12.419391,-3.899678,0.074470,0.759102,7.096450,-12.636182,14.772733,12.042267,8064.000000,0.000000,4.000000,,,,0.000000,4.000000,4.000000,4.000000,4.000000,4.000000,4.000000,4.000000,4.000000,4.000000,4.000000,4.000000,4.000000,4.000000,4.000000,4.000000,4.000000,4.000000,4.000000,4.000000,4.000000,4.000000,4.000000,4.000000,4.000000,4.000000,4.000000,4.000000,4.000000,4.000000,4.000000,4.000000,4.000000,100.000000
1614411682.061071,49.000000,0.000000,9.260502,12.539911,29.022894,28.598703,9.564685,13.024334,1.221604,0.857118,1.921609,10.323740,3.077941,9.982196,9.040695,6.208680,23.283024,56.851719,15.038377,59.678932,82.823837,14.224329,3.878729,13.182602,4.584921,2.102277,-12.406971,0.206786,0.074395,3.322445,7.602174,-0.828673,22.450268,20.235352,8064.000000,0.000000,4.000000,,,,0.000000,4.000000,4.000000,4.000000,4.000000,4.000000,4.000000,4.000000,4.000000,4.000000,4.000000,4.000000,4.000000,4.000000,4.000000,4.000000,4.000000,4.000000,4.000000,4.000000,4.000000,4.000000,4.000000,4.000000,4.000000,4.000000,4.000000,4.000000,4.000000,4.000000,4.000000,4.000000,4.000000,100.000000
1614411682.068820,50.000000,0.000000,7.712780,17.142756,35.147717,28.057283,9.042299,13.011310,1.220382,0.856261,3.970970,9.800596,3.074863,7.408111,10.570116,6.715292,15.054613,47.051277,9.895133,45.260281,71.971786,6.517797,7.977415,10.605317,5.093157,7.228380,-12.394564,-2.357524,0.074321,4.344764,6.568931,0.710617,23.966278,24.317680,8064.000000,0.000000,4.000000,,,,0.000000,4.000000,4.000000,4.000000,4.000000,4.000000,4.000000,4.000000,4.000000,4.000000,4.000000,4.000000,4.000000,4.000000,4.000000,4.000000,4.000000,4.000000,4.000000,4.000000,4.000000,4.000000,4.000000,4.000000,4.000000,4.000000,4.000000,4.000000,4.000000,4.000000,4.000000,4.000000,4.000000,100.000000
1614411682.076669,51.000000,0.000000,5.140964,12.510228,33.061287,21.362560,9.033257,12.998299,1.219162,0.855405,4.992640,11.329257,3.071789,5.862242,10.046725,4.144474,1.193405,22.388840,3.218571,22.650917,45.233147,-7.847695,5.405335,9.056251,4.575243,6.708331,-12.382170,-15.175679,0.074247,4.853240,3.998260,-8.520863,16.762825,16.088236,8064.000000,0.000000,4.000000,,,,0.000000,4.000000,4.000000,4.000000,4.000000,4.000000,4.000000,4.000000,4.000000,4.000000,4.000000,4.000000,4.000000,4.000000,4.000000,4.000000,4.000000,4.000000,4.000000,4.000000,4.000000,4.000000,4.000000,4.000000,4.000000,4.000000,4.000000,4.000000,4.000000,4.000000,4.000000,4.000000,4.000000,100.000000
1614411682.084418,52.000000,0.000000,4.623003,7.882334,29.951303,19.289915,9.537045,12.985300,1.217942,0.854550,6.013288,13.882030,3.068717,5.856380,10.549500,4.140329,1.192212,14.674144,5.266635,28.782112,57.495605,0.878101,8.476852,14.175399,4.570668,1.060597,-12.369787,-19.775888,0.074172,4.335566,2.968621,-11.076445,11.617858,13.508044,8064.000000,0.000000,4.000000,,,,0.000000,4.000000,4.000000,4.000000,4.000000,4.000000,4.000000,4.000000,4.000000,4.000000,4.000000,4.000000,4.000000,4.000000,4.000000,4.000000,4.000000,4.000000,4.000000,4.000000,4.000000,4.000000,4.000000,4.000000,4.000000,4.000000,4.000000,4.000000,4.000000,4.000000,4.000000,4.000000,4.000000,100.000000
1614411682.092267,53.000000,0.000000,5.131200,8.387272,30.434174,20.809088,9.014687,12.972315,1.216725,1.366516,8.571378,14.380969,3.065648,5.850523,11.051770,4.649009,2.729481,21.838957,8.851111,37.471279,75.899651,10.620813,10.519658,15.699685,4.566097,3.623639,-11.844597,-11.038163,0.074098,4.331230,3.478472,-6.449984,12.119061,24.263767,8064.000000,0.000000,4.000000,,,,0.000000,4.000000,4.000000,4.000000,4.000000,4.000000,4.000000,4.000000,4.000000,4.000000,4.000000,4.000000,4.000000,4.000000,4.000000,4.000000,4.000000,4.000000,4.000000,4.000000,4.000000,4.000000,4.000000,4.000000,4.000000,4.000000,4.000000,4.000000,4.000000,4.000000,4.000000,4.000000,4.000000,100.000000
1614411682.100016,54.000000,0.000000,5.126069,8.891705,30.403738,20.275457,9.005672,12.959343,1.215508,0.339508,8.049986,13.853767,3.062582,5.331852,10.015078,4.644361,2.726751,26.945324,7.816620,35.895348,68.131439,0.866603,2.816830,13.119883,4.561532,8.748220,-12.345572,-6.411740,0.074024,4.326899,3.474994,-5.930713,12.106941,25.777966,8064.000000,0.000000,4.000000,,,,0.000000,4.000000,4.000000,4.000000,4.000000,4.000000,4.000000,4.000000,4.000000,4.000000,4.000000,4.000000,4.000000,4.000000,4.000000,4.000000,4.000000,4.000000,4.000000,4.000000,4.000000,4.000000,4.000000,4.000000,4.000000,4.000000,4.000000,4.000000,4.000000,4.000000,4.000000,4.000000,4.000000,100.000000
1614411682.107865,55.000000,0.000000,5.120943,7.857172,29.347694,19.742361,8.996666,12.433562,1.214292,0.851989,4.965013,13.839913,2.546699,5.326520,8.979422,4.126895,4.262486,25.892736,8.321624,32.782528,62.935104,-6.826572,0.249911,11.568301,4.556970,7.201011,-12.333227,-7.943790,0.073950,4.322572,3.471519,-6.950424,11.582014,17.034239,8064.000000,0.000000,4.000000,,,,0.000000,4.000000,4.000000,4.000000,4.000000,4.000000,4.000000,4.000000,4.000000,4.000000,4.000000,4.000000,4.000000,4.000000,4.000000,4.000000,4.000000,4.000000,4.000000,4.000000,4.000000,4.000000,4.000000,4.000000,4.000000,4.000000,4.000000,4.000000,4.000000,4.000000,4.000000,4.000000,4.000000,100.000000
1614411682.115614,56.000000,0.000000,5.115822,7.849315,29.831167,20.235439,8.987670,12.933949,1.213078,1.876778,5.985689,13.826074,3.056973,4.808373,9.996083,-1.005437,-0.357161,26.892485,7.287661,22.493334,60.308067,-5.281283,1.788123,8.479810,4.552413,4.116887,-11.808074,-7.935846,-0.438944,4.318249,3.468047,-5.405012,11.570432,15.478743,8064.000000,0.000000,4.000000,,,,0.000000,4.000000,4.000000,4.000000,4.000000,4.000000,4.000000,4.000000,4.000000,4.000000,4.000000,4.000000,4.000000,4.000000,4.000000,4.000000,4.000000,4.000000,4.000000,4.000000,4.000000,4.000000,4.000000,4.000000,4.000000,4.000000,4.000000,4.000000,4.000000,4.000000,4.000000,4.000000,4.000000,100.000000
1614411682.123463,57.000000,0.000000,3.572245,8.354286,29.801336,20.215204,8.978682,12.921016,-0.326597,-2.227663,0.338677,13.812247,2.028275,2.752283,6.909164,-5.619816,-4.972188,29.429695,4.203450,18.368277,52.555450,-4.250361,-1.803409,4.368766,4.547861,4.112770,-13.334727,-6.902269,0.074315,4.313931,3.464579,-7.450889,12.071682,15.976084,8064.000000,0.000000,4.000000,,,,0.000000,4.000000,4.000000,4.000000,4.000000,4.000000,4.000000,4.000000,4.000000,4.000000,4.000000,4.000000,4.000000,4.000000,4.000000,4.000000,4.000000,4.000000,4.000000,4.000000,4.000000,4.000000,4.000000,4.000000,4.000000,4.000000,4.000000,4.000000,4.000000,4.000000,4.000000,4.000000,4.000000,100.000000
1614411682.131212,58.000000,0.000000,1.004570,8.345932,24.130508,20.194988,8.969704,10.856812,-3.403193,-9.404922,-9.405252,13.285615,-1.050676,0.698248,-0.790053,-7.665478,-6.505678,17.605394,0.096683,21.426832,51.477257,-4.246111,-6.416990,3.851577,4.543313,4.621477,-15.885495,-6.895367,0.074241,4.309617,3.461115,-14.622925,12.059610,10.831903,8064.000000,0.000000,4.000000,,,,0.000000,4.000000,4.000000,4.000000,4.000000,4.000000,4.000000,4.000000,4.000000,4.000000,4.000000,4.000000,4.000000,4.000000,4.000000,4.000000,4.000000,4.000000,4.000000,4.000000,4.000000,4.000000,4.000000,4.000000,4.000000,4.000000,4.000000,4.000000,4.000000,4.000000,4.000000,4.000000,4.000000,100.000000
1614411682.138861,59.000000,0.000000,1.003565,8.337586,18.465353,20.174793,8.960733,9.307494,-2.374149,-7.344235,-5.293282,13.272329,1.514477,4.287294,1.262019,-8.170633,-7.524813,5.792916,0.609406,10.636174,40.656548,-9.882891,-9.487496,4.360546,4.538769,5.129676,-16.382429,-7.401292,-1.977115,4.305308,3.457654,-18.198046,12.047550,8.769789,8064.000000,0.000000,4.000000,,,,0.000000,4.000000,4.000000,4.000000,4.000000,4.000000,4.000000,4.000000,4.000000,4.000000,4.000000,4.000000,4.000000,4.000000,4.000000,4.000000,4.000000,4.000000,4.000000,4.000000,4.000000,4.000000,4.000000,4.000000,4.000000,4.000000,4.000000,4.000000,4.000000,4.000000,4.000000,4.000000,4.000000,100.000000
1614411682.146610,60.000000,0.000000,4.079485,8.329248,20.498169,20.154619,8.951773,11.349469,3.269251,-0.670224,7.019704,15.310339,10.743731,13.000956,15.619732,1.581127,3.251943,21.684559,5.737002,9.087077,26.256916,-11.924290,-9.478009,3.843365,4.534230,2.560444,-15.853227,-7.393891,-3.513600,4.301003,3.454196,-17.154207,12.035502,11.325122,8064.000000,0.000000,4.000000,,,,0.000000,4.000000,4.000000,4.000000,4.000000,4.000000,4.000000,4.000000,4.000000,4.000000,4.000000,4.000000,4.000000,4.000000,4.000000,4.000000,4.000000,4.000000,4.000000,4.000000,4.000000,4.000000,4.000000,4.000000,4.000000,4.000000,4.000000,4.000000,4.000000,4.000000,4.000000,4.000000,4.000000,100.000000
1614411682.154259,61.000000,0.000000,7.665149,8.320919,23.041773,20.134464,8.942822,13.389401,7.881366,0.868907,9.576787,17.346310,18.425295,17.603338,26.373343,19.015444,23.248690,44.739799,11.372291,35.744656,45.717838,5.523532,-2.289044,4.865162,4.529696,1.532243,-15.837374,-7.386497,-1.458804,4.296701,3.450742,-17.137053,12.023467,10.800976,8064.000000,0.000000,4.000000,,,,0.000000,4.000000,4.000000,4.000000,4.000000,4.000000,4.000000,4.000000,4.000000,4.000000,4.000000,4.000000,4.000000,4.000000,4.000000,4.000000,4.000000,4.000000,4.000000,4.000000,4.000000,4.000000,4.000000,4.000000,4.000000,4.000000,4.000000,4.000000,4.000000,4.000000,4.000000,4.000000,4.000000,100.000000
1614411682.162009,62.000000,0.000000,8.683125,8.312598,18.403347,18.575869,8.933878,12.863192,8.386306,0.355218,7.515928,17.328964,19.432512,14.508812,23.782867,23.098993,26.815186,48.284801,12.899380,53.657631,78.492638,23.466726,4.892733,7.424400,4.525167,9.223018,-15.821536,-7.379111,0.593937,4.292405,3.447291,-17.632736,12.011444,8.226072,8064.000000,0.000000,4.000000,,,,0.000000,4.000000,4.000000,4.000000,4.000000,4.000000,4.000000,4.000000,4.000000,4.000000,4.000000,4.000000,4.000000,4.000000,4.000000,4.000000,4.000000,4.000000,4.000000,4.000000,4.000000,4.000000,4.000000,4.000000,4.000000,4.000000,4.000000,4.000000,4.000000,4.000000,4.000000,4.000000,4.000000,100.000000
1614411682.169658,63.000000,0.000000,8.674441,8.304286,14.282380,16.506010,8.924945,12.337508,8.377919,1.380504,9.046873,17.311636,11.720771,12.955842,16.066776,11.281022,17.557602,44.133953,10.835198,51.039871,87.132088,21.391977,5.913481,8.442616,5.033462,16.393282,-15.292894,-7.371732,0.080522,4.288112,3.443844,-17.102282,11.999433,8.730667,8064.000000,0.000000,4.000000,,,,0.000000,4.000000,4.000000,4.000000,4.000000,4.000000,4.000000,4.000000,4.000000,4.000000,4.000000,4.000000,4.000000,4.000000,4.000000,4.000000,4.000000,4.000000,4.000000,4.000000,4.000000,4.000000,4.000000,4.000000,4.000000,4.000000,4.000000,4.000000,4.000000,4.000000,4.000000,4.000000,4.000000,100.000000
1614411682.177407,64.000000,0.000000,8.665767,8.295981,15.293738,15.976684,8.916019,12.837991,8.882361,-0.159338,9.550647,17.807144,-1.111462,13.968527,13.999428,3.577433,8.822095,39.474434,8.773082,47.911907,84.993675,17.268023,4.369106,7.921353,5.028429,13.812786,-15.277601,-7.364360,0.080442,4.283824,3.440400,-16.572359,11.987433,9.234756,0.000000,189.000000,4.000000,,,,0.000000,4.000000,4.000000,4.000000,4.000000,4.000000,4.000000,4.000000,4.000000,4.000000,4.000000,4.000000,4.000000,4.000000,4.000000,4.000000,4.000000,4.000000,4.000000,4.000000,4.000000,4.000000,4.000000,4.000000,4.000000,4.000000,4.000000,4.000000,4.000000,4.000000,4.000000,4.000000,4.000000,100.000000
1614411682.185056,65.000000,0.000000,8.657102,8.287685,15.791265,16.473528,8.907104,12.825152,8.873479,-3.236102,8.515455,17.276516,-4.187274,12.928918,13.985428,4.599496,3.172247,34.306755,8.251488,42.735790,79.267654,18.276394,5.903198,6.374970,2.459297,11.234871,-15.775145,-6.844175,0.080361,4.279540,3.436960,-17.068607,11.975446,8.712702,0.000000,200.000000,4.000000,,,,0.000000,4.000000,4.000000,4.000000,4.000000,4.000000,4.000000,4.000000,4.000000,4.000000,4.000000,4.000000,4.000000,4.000000,4.000000,4.000000,4.000000,4.000000,4.000000,4.000000,4.000000,4.000000,4.000000,4.000000,4.000000,4.000000,4.000000,4.000000,4.000000,4.000000,4.000000,4.000000,4.000000,100.000000
1614411682.192805,66.000000,0.000000,8.648444,8.279398,13.211371,16.457054,8.898196,12.812327,8.351786,-1.694404,8.506940,17.259239,5.560503,12.915989,13.458622,7.158999,4.194716,32.221165,8.756057,32.436642,56.111465,3.899144,4.871654,4.317314,0.918377,12.762097,-15.246549,-7.350152,0.080281,4.275261,3.946343,-16.538719,11.963470,9.216809,0.000000,192.000000,4.000000,,,,0.000000,4.000000,4.000000,4.000000,4.000000,4.000000,4.000000,4.000000,4.000000,4.000000,4.000000,4.000000,4.000000,4.000000,4.000000,4.000000,4.000000,4.000000,4.000000,4.000000,4.000000,4.000000,4.000000,4.000000,4.000000,4.000000,4.000000,4.000000,4.000000,4.000000,4.000000,4.000000,4.000000,100.000000
1614411682.200454,67.000000,0.000000,8.639796,8.271118,11.146878,15.927776,8.889298,12.799516,8.343433,0.871393,9.011253,17.754801,10.683147,16.492817,13.445164,7.664661,6.241803,21.932535,6.696019,17.532412,28.875868,-18.156036,0.764218,1.748894,0.917458,11.210874,-15.231302,-7.342801,0.080201,4.270986,3.942397,-16.522181,12.464327,8.694772,0.000000,184.000000,4.000000,,,,0.000000,4.000000,4.000000,4.000000,4.000000,4.000000,4.000000,4.000000,4.000000,4.000000,4.000000,4.000000,4.000000,4.000000,4.000000,4.000000,4.000000,4.000000,4.000000,4.000000,4.000000,4.000000,4.000000,4.000000,4.000000,4.000000,4.000000,4.000000,4.000000,4.000000,4.000000,4.000000,4.000000,100.000000
1614411682.208203,68.000000,0.000000,8.631156,8.262847,11.648552,16.424669,8.880409,12.786716,8.335090,1.383342,7.463781,14.147303,7.595541,13.912221,11.380436,2.015971,-3.508029,6.525987,4.638041,6.745649,27.308531,-20.189163,-2.826290,0.208683,-0.109100,8.635561,-18.805815,-6.822638,0.080120,4.266715,1.887172,-20.608221,10.400580,5.096334,0.000000,189.000000,4.000000,,,,0.000000,4.000000,4.000000,4.000000,4.000000,4.000000,4.000000,4.000000,4.000000,4.000000,4.000000,4.000000,4.000000,4.000000,4.000000,4.000000,4.000000,4.000000,4.000000,4.000000,4.000000,4.000000,4.000000,4.000000,4.000000,4.000000,4.000000,4.000000,4.000000,4.000000,4.000000,4.000000,4.000000,100.000000
1614411682.215853,69.000000,0.000000,8.622525,8.767405,10.611262,16.408245,8.871529,12.773929,8.326755,0.869138,4.892214,9.517771,6.049484,6.718822,6.240850,-3.114250,-10.684008,8.057922,4.120582,22.636339,49.845325,-5.810000,-2.823463,0.208475,-2.673094,5.037181,-22.889572,-8.354277,0.080040,4.262448,-0.165997,-24.177357,8.851719,0.475853,0.000000,198.000000,4.000000,,,,0.000000,4.000000,4.000000,4.000000,4.000000,4.000000,4.000000,4.000000,4.000000,4.000000,4.000000,4.000000,4.000000,4.000000,4.000000,4.000000,4.000000,4.000000,4.000000,4.000000,4.000000,4.000000,4.000000,4.000000,4.000000,4.000000,4.000000,4.000000,4.000000,4.000000,4.000000,4.000000,4.000000,100.000000
1614411682.223602,70.000000,0.000000,8.613902,6.707355,8.036549,14.340554,8.862657,13.273975,6.267146,0.868269,4.887322,9.508253,7.069076,4.148000,0.080764,-4.136777,-7.596400,15.229351,4.629282,37.998318,66.718559,-1.188805,-2.820640,0.721087,-3.183241,-0.608881,-23.379503,-10.397204,0.079960,4.771006,-0.165831,-24.666000,8.842867,-3.114367,0.000000,192.000000,4.000000,,,,0.000000,4.000000,4.000000,4.000000,4.000000,4.000000,4.000000,4.000000,4.000000,4.000000,4.000000,4.000000,4.000000,4.000000,4.000000,4.000000,4.000000,4.000000,4.000000,4.000000,4.000000,4.000000,4.000000,4.000000,4.000000,4.000000,4.000000,4.000000,4.000000,4.000000,4.000000,4.000000,4.000000,100.000000
1614411682.231251,71.000000,0.000000,8.605289,3.110904,7.515691,12.787752,9.366614,13.260702,4.722417,0.867400,5.395256,9.498745,6.036366,6.195134,-0.432138,-3.619820,-6.050343,16.239763,4.624653,25.139807,61.523632,-7.341463,-5.894742,0.720366,-2.667237,-3.685195,-22.330482,-10.899628,0.079880,4.253414,0.347155,-23.615694,7.295563,-5.162534,0.000000,195.000000,4.000000,,,,0.000000,4.000000,4.000000,4.000000,4.000000,4.000000,4.000000,4.000000,4.000000,4.000000,4.000000,4.000000,4.000000,4.000000,4.000000,4.000000,4.000000,4.000000,4.000000,4.000000,4.000000,4.000000,4.000000,4.000000,4.000000,4.000000,4.000000,4.000000,4.000000,4.000000,4.000000,4.000000,4.000000,100.000000
1614411682.239100,72.000000,0.000000,8.596684,1.056512,8.533816,12.262144,9.357248,12.734620,4.717695,0.866533,4.877039,8.976425,9.107252,6.188939,6.234961,1.512005,1.135195,25.967113,5.645669,21.012102,56.333904,-7.334121,-9.478591,1.232466,-2.151750,-3.168690,-22.820972,-10.375908,0.079800,4.249161,-1.191653,-24.104898,5.749805,-6.183013,0.000000,193.000000,4.000000,,,,0.000000,4.000000,4.000000,4.000000,4.000000,4.000000,4.000000,4.000000,4.000000,4.000000,4.000000,4.000000,4.000000,4.000000,4.000000,4.000000,4.000000,4.000000,4.000000,4.000000,4.000000,4.000000,4.000000,4.000000,4.000000,4.000000,4.000000,4.000000,4.000000,4.000000,4.000000,4.000000,4.000000,100.000000
1614411682.246849,73.000000,0.000000,8.588086,0.542635,8.012462,12.762703,8.322249,13.747527,4.712977,0.865667,4.872162,12.557193,15.764812,5.157109,9.818470,10.741262,12.928931,33.120632,5.127203,31.247501,56.790390,-3.737043,-9.469112,1.231233,-2.149598,-2.652701,-22.798153,-10.878352,0.079721,4.757732,-3.241744,-24.080793,3.692774,-5.664009,0.000000,188.000000,4.000000,,,,0.000000,4.000000,4.000000,4.000000,4.000000,4.000000,4.000000,4.000000,4.000000,4.000000,4.000000,4.000000,4.000000,4.000000,4.000000,4.000000,4.000000,4.000000,4.000000,4.000000,4.000000,4.000000,4.000000,4.000000,4.000000,4.000000,4.000000,4.000000,4.000000,4.000000,4.000000,4.000000,4.000000,100.000000
1614411682.254698,74.000000,0.000000,9.092319,1.054912,8.004450,12.749940,9.852389,11.682497,5.221085,0.864801,5.892931,17.160021,18.313150,5.664773,8.783010,16.371548,16.505747,31.549051,3.583614,30.703434,51.092575,-4.246127,-4.844259,0.717181,-3.173089,-2.650048,-22.775354,-10.867474,0.079641,2.701693,-4.776964,-24.056713,-1.439124,-5.145525,0.000000,184.000000,4.000000,,,,0.000000,4.000000,4.000000,4.000000,4.000000,4.000000,4.000000,4.000000,4.000000,4.000000,4.000000,4.000000,4.000000,4.000000,4.000000,4.000000,4.000000,4.000000,4.000000,4.000000,4.000000,4.000000,4.000000,4.000000,4.000000,4.000000,4.000000,4.000000,4.000000,4.000000,4.000000,4.000000,4.000000,100.000000
1614411682.262447,75.000000,0.000000,7.544765,1.053858,7.996445,10.173087,8.816895,2.952866,4.703043,1.376757,2.810115,17.655680,13.679452,6.171928,12.363971,15.842355,15.976420,40.748272,6.144133,40.416321,59.246609,-1.164958,-1.249671,1.742105,-2.144275,-3.160218,-22.752579,-9.830965,0.079561,-1.403573,-6.823469,-23.519835,-6.053070,-7.191661,0.000000,196.000000,4.000000,,,,0.000000,4.000000,4.000000,4.000000,4.000000,4.000000,4.000000,4.000000,4.000000,4.000000,4.000000,4.000000,4.000000,4.000000,4.000000,4.000000,4.000000,4.000000,4.000000,4.000000,4.000000,4.000000,4.000000,4.000000,4.000000,4.000000,4.000000,4.000000,4.000000,4.000000,4.000000,4.000000,4.000000,100.000000
1614411682.270296,76.000000,0.000000,4.973118,-0.998478,3.885885,6.060350,1.115771,-5.768035,0.595776,1.375380,-1.295259,16.612385,4.435003,4.114474,2.608017,5.057281,4.165572,34.553677,3.573886,43.965645,73.033516,-1.163793,-1.761242,-1.849380,-2.142131,-2.131417,-22.729826,-13.410878,0.079482,-3.453452,-7.842286,-23.496315,-6.559837,-14.876778,0.000000,176.000000,4.000000,,,,0.000000,4.000000,4.000000,4.000000,4.000000,4.000000,4.000000,4.000000,4.000000,4.000000,4.000000,4.000000,4.000000,4.000000,4.000000,4.000000,4.000000,4.000000,4.000000,4.000000,4.000000,4.000000,4.000000,4.000000,4.000000,4.000000,4.000000,4.000000,4.000000,4.000000,4.000000,4.000000,4.000000,100.000000
1614411682.278045,77.000000,0.000000,4.455324,-2.535941,-2.271847,5.028649,-6.064832,-6.275088,-2.994563,-1.190098,-3.345246,17.108591,-5.825842,-0.505025,-25.599718,-10.332391,-22.505260,2.211431,-11.301482,11.613989,46.293816,-16.547245,-6.887686,-11.078300,-10.857938,-2.129286,-22.707096,-18.012852,0.079402,-2.937178,-7.321623,-27.062563,-7.066098,-21.015747,0.000000,188.000000,4.000000,,,,0.000000,4.000000,4.000000,4.000000,4.000000,4.000000,4.000000,4.000000,4.000000,4.000000,4.000000,4.000000,4.000000,4.000000,4.000000,4.000000,4.000000,4.000000,4.000000,4.000000,4.000000,4.000000,4.000000,4.000000,4.000000,4.000000,4.000000,4.000000,4.000000,4.000000,4.000000,4.000000,4.000000,100.000000
1614411682.285894,78.000000,0.000000,4.963689,-2.533406,-3.295217,5.536441,-6.571588,-4.730351,-2.991569,-2.727370,-4.367541,17.091484,-8.896939,-2.555802,-29.676683,-13.911802,-28.636600,-7.021550,-20.520950,-1.218138,13.939830,-29.864031,-12.009003,-17.733889,-17.000925,-6.742541,-22.171568,-18.507660,0.079323,-2.934241,-7.314302,-31.138063,-9.623135,-20.481911,0.000000,201.000000,4.000000,,,,0.000000,4.000000,4.000000,4.000000,4.000000,4.000000,4.000000,4.000000,4.000000,4.000000,4.000000,4.000000,4.000000,4.000000,4.000000,4.000000,4.000000,4.000000,4.000000,4.000000,4.000000,4.000000,4.000000,4.000000,4.000000,4.000000,4.000000,4.000000,4.000000,4.000000,4.000000,4.000000,4.000000,100.000000
1614411682.293643,79.000000,0.000000,4.958725,-2.530872,-2.266280,5.530904,-5.026554,-6.264082,-1.962936,-2.211822,-5.388815,17.074392,-5.298299,-1.527605,-5.031622,-7.231224,-9.633606,18.626497,-12.808122,28.526670,29.310505,-24.705961,-13.022635,-17.716154,-11.342899,-12.889645,-22.149397,-17.463511,0.079243,-3.444127,-7.306987,-30.594105,-9.613511,-18.922968,0.000000,182.000000,4.000000,,,,0.000000,4.000000,4.000000,4.000000,4.000000,4.000000,4.000000,4.000000,4.000000,4.000000,4.000000,4.000000,4.000000,4.000000,4.000000,4.000000,4.000000,4.000000,4.000000,4.000000,4.000000,4.000000,4.000000,4.000000,4.000000,4.000000,4.000000,4.000000,4.000000,4.000000,4.000000,4.000000,4.000000,100.000000
1614411682.301492,80.000000,0.000000,4.953767,-2.528341,-4.315296,5.012553,-6.047169,-5.744998,-2.986614,-3.235251,-7.434708,17.057318,-5.293001,-2.038898,1.640076,-7.736813,-0.906024,26.300179,-6.128647,30.549425,53.383759,-14.424845,-13.009612,-17.185617,-5.177710,-13.902396,-22.640068,-17.958868,0.079164,-2.927862,-7.299681,-31.076332,-9.603898,-20.955326,0.000000,196.000000,4.000000,,,,0.000000,4.000000,4.000000,4.000000,4.000000,4.000000,4.000000,4.000000,4.000000,4.000000,4.000000,4.000000,4.000000,4.000000,4.000000,4.000000,4.000000,4.000000,4.000000,4.000000,4.000000,4.000000,4.000000,4.000000,4.000000,4.000000,4.000000,4.000000,4.000000,4.000000,4.000000,4.000000,4.000000,100.000000
1614411682.309241,81.000000,0.000000,4.948813,-0.474531,-6.875083,5.520361,-6.041121,-0.098227,-2.470807,-5.796118,-9.478556,17.040260,-5.287707,-2.549680,-5.541051,-8.241897,-1.930758,20.632853,-7.148159,15.647081,49.740631,-11.333497,-13.509423,-18.194073,-6.198174,-13.375673,-22.104609,-17.940908,0.079085,-2.924934,-7.292381,-31.558077,-9.594294,-19.395908,0.000000,198.000000,4.000000,,,,0.000000,4.000000,4.000000,4.000000,4.000000,4.000000,4.000000,4.000000,4.000000,4.000000,4.000000,4.000000,4.000000,4.000000,4.000000,4.000000,4.000000,4.000000,4.000000,4.000000,4.000000,4.000000,4.000000,4.000000,4.000000,4.000000,4.000000,4.000000,4.000000,4.000000,4.000000,4.000000,4.000000,100.000000
1614411682.317090,82.000000,0.000000,4.943864,1.577226,-6.355388,6.027661,-5.522260,2.465973,-1.955516,-6.303143,-8.956256,17.023220,-3.231138,-1.521489,-4.509869,-6.695193,-6.544212,14.971194,-6.115370,22.298101,44.049866,-12.860625,-12.983093,-18.175879,-6.191975,-13.362297,-22.595324,-17.410147,0.079006,-2.922009,-7.285089,-29.475237,-9.071879,-12.197026,0.000000,200.000000,4.000000,,,,0.000000,4.000000,4.000000,4.000000,4.000000,4.000000,4.000000,4.000000,4.000000,4.000000,4.000000,4.000000,4.000000,4.000000,4.000000,4.000000,4.000000,4.000000,4.000000,4.000000,4.000000,4.000000,4.000000,4.000000,4.000000,4.000000,4.000000,4.000000,4.000000,4.000000,4.000000,4.000000,4.000000,100.000000
1614411682.324839,83.000000,0.000000,4.938920,0.037187,-6.349032,5.508813,-6.029558,-2.664698,-3.492022,-7.835301,-10.998582,17.006197,-8.868932,-2.032788,-13.736129,-20.534653,-26.024847,-8.120700,-6.622075,10.993752,45.544277,-14.899047,-15.534213,-17.132063,-6.185783,-13.348935,-24.624010,-18.931198,0.078927,-2.919087,-7.277803,-34.061146,-11.114089,-15.261752,0.000000,199.000000,4.000000,,,,0.000000,4.000000,4.000000,4.000000,4.000000,4.000000,4.000000,4.000000,4.000000,4.000000,4.000000,4.000000,4.000000,4.000000,4.000000,4.000000,4.000000,4.000000,4.000000,4.000000,4.000000,4.000000,4.000000,4.000000,4.000000,4.000000,4.000000,4.000000,4.000000,4.000000,4.000000,4.000000,4.000000,100.000000
1614411682.332688,84.000000,0.000000,4.933981,-2.014132,-10.445248,1.913560,-7.561990,-6.251777,-6.052632,-10.391568,-19.192711,16.989191,-14.501089,-2.030755,-20.389059,-33.847450,-30.614208,-12.727964,-9.179556,-2.863396,39.857708,-13.345686,-23.210987,-18.140572,-9.256520,-16.925329,-26.137848,-23.014832,0.078848,-2.916168,-7.270525,-44.283493,-15.718360,-29.605465,0.000000,208.000000,4.000000,,,,0.000000,4.000000,4.000000,4.000000,4.000000,4.000000,4.000000,4.000000,4.000000,4.000000,4.000000,4.000000,4.000000,4.000000,4.000000,4.000000,4.000000,4.000000,4.000000,4.000000,4.000000,4.000000,4.000000,4.000000,4.000000,4.000000,4.000000,4.000000,4.000000,4.000000,4.000000,4.000000,4.000000,100.000000
1614411682.340437,85.000000,0.000000,4.929048,-2.524939,-13.511725,1.911647,-9.092890,-5.219884,-6.559400,-9.355536,-21.224802,16.972202,-6.281460,1.561019,-0.368670,-15.864885,-4.429747,19.079636,-3.529350,18.677929,34.689644,-8.204135,-24.213417,-16.583969,-9.247264,-21.010969,-27.137350,-25.043098,0.078769,-2.913252,-7.263255,-45.264851,-17.241102,-35.216885,0.000000,211.000000,4.000000,,,,0.000000,4.000000,4.000000,4.000000,4.000000,4.000000,4.000000,4.000000,4.000000,4.000000,4.000000,4.000000,4.000000,4.000000,4.000000,4.000000,4.000000,4.000000,4.000000,4.000000,4.000000,4.000000,4.000000,4.000000,4.000000,4.000000,4.000000,4.000000,4.000000,4.000000,4.000000,4.000000,4.000000,100.000000
1614411682.348286,86.000000,0.000000,4.924119,-2.522414,-14.011034,1.909735,-10.622258,-4.701843,-6.040020,-6.782078,-15.049730,16.955229,3.981232,5.662023,17.580418,9.792006,10.959298,32.906712,3.140846,30.454123,40.295982,-7.170290,-14.958434,-8.875077,-6.673914,-18.425856,-25.571753,-25.018057,0.078690,-2.910339,-7.255992,-40.091381,-17.223862,-31.591925,0.000000,199.000000,4.000000,,,,0.000000,4.000000,4.000000,4.000000,4.000000,4.000000,4.000000,4.000000,4.000000,4.000000,4.000000,4.000000,4.000000,4.000000,4.000000,4.000000,4.000000,4.000000,4.000000,4.000000,4.000000,4.000000,4.000000,4.000000,4.000000,4.000000,4.000000,4.000000,4.000000,4.000000,4.000000,4.000000,4.000000,100.000000
1614411682.356035,87.000000,0.000000,4.919194,-2.519891,-14.509844,-3.733200,-8.560354,-5.722783,-6.033980,-6.262475,-12.983398,16.938274,2.951610,6.169181,13.460272,11.320675,6.332954,22.617393,0.573602,22.731361,58.204403,-7.163120,-3.661424,-2.199536,-6.154420,-13.792045,-21.956436,-25.505859,0.078612,-2.907429,-7.248736,-38.512829,-16.693817,-30.534691,0.000000,198.000000,4.000000,,,,0.000000,4.000000,4.000000,4.000000,4.000000,4.000000,4.000000,4.000000,4.000000,4.000000,4.000000,4.000000,4.000000,4.000000,4.000000,4.000000,4.000000,4.000000,4.000000,4.000000,4.000000,4.000000,4.000000,4.000000,4.000000,4.000000,4.000000,4.000000,4.000000,4.000000,4.000000,4.000000,4.000000,100.000000
1614411682.363884,88.000000,0.000000,4.914275,-2.517371,-10.905590,-4.755108,-0.859486,-5.204239,-6.027946,-4.717751,-12.970415,16.921335,3.461479,5.650191,8.831428,8.745252,4.788160,32.338364,-3.529535,32.452217,63.787224,-4.591854,3.521724,-2.197336,-5.122624,-13.778253,-18.857557,-22.916250,0.078533,-2.904521,-7.241487,-33.346111,-13.600201,-28.452875,0.000000,202.000000,4.000000,,,,0.000000,4.000000,4.000000,4.000000,4.000000,4.000000,4.000000,4.000000,4.000000,4.000000,4.000000,4.000000,4.000000,4.000000,4.000000,4.000000,4.000000,4.000000,4.000000,4.000000,4.000000,4.000000,4.000000,4.000000,4.000000,4.000000,4.000000,4.000000,4.000000,4.000000,4.000000,4.000000,4.000000,100.000000
1614411682.371633,89.000000,0.000000,4.909361,-2.514854,-4.228018,2.429134,5.808040,-2.634932,-6.534739,-2.661751,-7.829239,16.391594,6.534940,5.644541,8.309775,11.813429,4.783371,43.075256,-2.500365,39.086433,49.877281,-3.561621,6.082305,-2.707960,-2.553399,-10.687551,-17.813059,-18.277948,0.078455,-2.901617,-7.747066,-24.081997,-9.484036,-23.809038,0.000000,219.000000,4.000000,,,,0.000000,4.000000,4.000000,4.000000,4.000000,4.000000,4.000000,4.000000,4.000000,4.000000,4.000000,4.000000,4.000000,4.000000,4.000000,4.000000,4.000000,4.000000,4.000000,4.000000,4.000000,4.000000,4.000000,4.000000,4.000000,4.000000,4.000000,4.000000,4.000000,4.000000,4.000000,4.000000,4.000000,100.000000
1614411682.379283,90.000000,0.000000,4.904451,-3.025160,-2.685328,6.529269,5.802232,-1.606656,-6.528204,-2.146269,-5.770128,16.888023,2.425841,5.638896,4.198902,2.570847,-0.349617,34.314232,-1.985044,32.893501,55.981251,-4.070880,6.589044,-2.192431,-2.550846,-4.523017,-16.256784,-17.746851,0.078376,-3.411536,-6.713678,-23.545094,-8.961732,-22.759586,0.000000,191.000000,4.000000,,,,0.000000,4.000000,4.000000,4.000000,4.000000,4.000000,4.000000,4.000000,4.000000,4.000000,4.000000,4.000000,4.000000,4.000000,4.000000,4.000000,4.000000,4.000000,4.000000,4.000000,4.000000,4.000000,4.000000,4.000000,4.000000,4.000000,4.000000,4.000000,4.000000,4.000000,4.000000,4.000000,4.000000,100.000000
1614411682.387032,91.000000,0.000000,4.899547,-2.509314,-2.682643,5.497099,3.745148,-1.605050,-6.008855,-2.656943,-5.251537,16.871134,-0.140687,6.658898,2.143421,-10.252237,-1.887729,27.100431,-2.495879,33.886250,74.386810,-3.553989,4.531172,-2.190239,-2.548295,-1.441571,-14.189245,-17.729103,0.078298,-2.895303,-4.655682,-21.983088,-9.465590,-23.249649,0.000000,208.000000,4.000000,,,,0.000000,4.000000,4.000000,4.000000,4.000000,4.000000,4.000000,4.000000,4.000000,4.000000,4.000000,4.000000,4.000000,4.000000,4.000000,4.000000,4.000000,4.000000,4.000000,4.000000,4.000000,4.000000,4.000000,4.000000,4.000000,4.000000,4.000000,4.000000,4.000000,4.000000,4.000000,4.000000,4.000000,100.000000
1614411682.394681,92.000000,0.000000,4.894648,-2.506805,-1.141499,5.491602,2.202941,-1.603445,-6.515667,-2.654286,-2.682184,14.290161,4.987659,5.113778,2.141277,-11.780446,-1.885841,21.432306,-3.006204,21.544670,55.338062,-4.063255,-1.627205,-2.188048,-2.032926,-1.952950,-14.687877,-14.634452,0.591040,-0.328306,-3.112565,-16.320078,-8.943304,-22.713577,0.000000,191.000000,4.000000,,,,0.000000,4.000000,4.000000,4.000000,4.000000,4.000000,4.000000,4.000000,4.000000,4.000000,4.000000,4.000000,4.000000,4.000000,4.000000,4.000000,4.000000,4.000000,4.000000,4.000000,4.000000,2.000000,4.000000,4.000000,4.000000,4.000000,4.000000,4.000000,4.000000,4.000000,4.000000,4.000000,4.000000,83.333336
1614411682.402430,93.000000,0.000000,4.889753,-3.529939,-3.704460,5.998930,1.175097,-2.114662,-7.021972,-2.651632,-2.166681,12.737410,7.546773,5.621485,2.139136,-10.230205,-2.396776,13.718566,-3.003198,8.189792,35.795547,-4.059192,-8.805065,-2.698681,-3.569355,-2.463818,-15.186009,-13.594176,-0.948013,0.697664,-3.622273,-19.893501,-8.934361,-23.203686,0.000000,152.000000,4.000000,,,,0.000000,4.000000,4.000000,4.000000,4.000000,4.000000,4.000000,4.000000,4.000000,4.000000,4.000000,4.000000,4.000000,4.000000,4.000000,4.000000,4.000000,4.000000,4.000000,4.000000,4.000000,2.000000,4.000000,4.000000,4.000000,4.000000,4.000000,4.000000,4.000000,4.000000,4.000000,4.000000,4.000000,83.333336
