title:33, start timestamp:1614412142.467816, stop timestamp:1614412188.257422, headset type:EPOCFLEX, headset serial:F00001ED, headset firmware:f12, subject name:s12, channels:75, sampling rate:128, samples:5909      , version:2.0
Timestamp,EEG.Counter,EEG.Interpolated,EEG.Cz,EEG.Fz,EEG.Fp1,EEG.AF3,EEG.F7,EEG.F3,EEG.FC1,EEG.C3,EEG.FC5,EEG.T7,EEG.CP5,EEG.CP1,EEG.P3,EEG.P7,EEG.PO3,EEG.O1,EEG.Pz,EEG.Oz,EEG.O2,EEG.PO4,EEG.P8,EEG.P4,EEG.CP2,EEG.CP6,EEG.T8,EEG.FC6,EEG.C4,EEG.FC2,EEG.F4,EEG.F8,EEG.AF4,EEG.Fp2,EEG.HighBitFlex,EEG.RawCq,EEG.Battery,MarkerIndex,MarkerType,MarkerValueInt,EEG.MarkerHardware,CQ.Cz,CQ.Fz,CQ.Fp1,CQ.AF3,CQ.F7,CQ.F3,CQ.FC1,CQ.C3,CQ.FC5,CQ.T7,CQ.CP5,CQ.CP1,CQ.P3,CQ.P7,CQ.PO3,CQ.O1,CQ.Pz,CQ.Oz,CQ.O2,CQ.PO4,CQ.P8,CQ.P4,CQ.CP2,CQ.CP6,CQ.T8,CQ.FC6,CQ.C4,CQ.FC2,CQ.F4,CQ.F8,CQ.AF4,CQ.Fp2,CQ.Overall
1614412142.467816,72.000000,0.000000,-10.276561,18.775167,82.270439,35.685299,-1.251381,5.407751,-6.985270,-16.090654,33.423012,-14.329293,-6.482244,-8.617392,-4.673000,-14.044903,0.855352,-13.214661,-10.637801,-22.518770,1.256472,-10.716676,-12.680429,-4.076009,1.441104,-11.729370,-4.980412,15.420061,7.761761,-3.308399,17.116804,19.776756,47.105686,90.679489,0.000000,199.000000,4.000000,,,,0.000000,4.000000,4.000000,4.000000,4.000000,4.000000,4.000000,4.000000,4.000000,4.000000,4.000000,4.000000,4.000000,4.000000,4.000000,4.000000,4.000000,4.000000,4.000000,4.000000,4.000000,4.000000,4.000000,4.000000,4.000000,4.000000,4.000000,4.000000,4.000000,4.000000,4.000000,4.000000,4.000000,100.000000
1614412142.475465,73.000000,0.000000,-9.753464,18.243572,87.829193,35.136795,-2.275771,5.402343,-6.978285,-16.587383,33.389587,-14.314964,-6.475762,-8.608774,-5.181148,-14.030858,2.392958,-9.098882,-12.165625,-18.393686,15.614189,-10.705959,-14.719030,-6.123215,1.952483,-13.256103,0.152774,13.866179,8.266820,-3.817911,17.612509,20.269798,50.648323,101.870865,0.000000,206.000000,4.000000,,,,0.000000,4.000000,4.000000,4.000000,4.000000,4.000000,4.000000,4.000000,4.000000,4.000000,4.000000,4.000000,4.000000,4.000000,4.000000,4.000000,4.000000,4.000000,4.000000,4.000000,4.000000,4.000000,4.000000,4.000000,4.000000,4.000000,4.000000,4.000000,4.000000,4.000000,4.000000,4.000000,4.000000,100.000000
1614412142.483214,74.000000,0.000000,-10.769351,18.225328,85.177261,34.588837,-5.350418,3.345659,-6.971306,-14.519514,32.843380,-14.300649,-7.494927,-10.138627,-4.663146,-14.016827,11.108514,8.858935,-10.614997,2.650347,22.778063,-10.695253,-14.704310,-3.552989,0.924889,-16.832590,3.229544,14.877954,6.720091,-3.814093,17.082075,20.249529,50.084854,104.333099,0.000000,164.000000,4.000000,,,,0.000000,4.000000,4.000000,4.000000,4.000000,4.000000,4.000000,4.000000,4.000000,4.000000,4.000000,4.000000,4.000000,4.000000,4.000000,4.000000,4.000000,4.000000,4.000000,4.000000,4.000000,4.000000,4.000000,4.000000,4.000000,4.000000,4.000000,4.000000,4.000000,4.000000,4.000000,4.000000,4.000000,100.000000
1614412142.490964,75.000000,0.000000,-10.245762,18.207102,88.169006,35.579887,3.885701,8.470518,-6.964335,-9.376789,37.425919,-13.260708,-5.948970,-6.025924,-5.684124,-14.002810,11.610226,-0.893513,-11.630023,-15.813841,1.729643,-11.197379,-13.663965,-1.498154,2.975247,-19.379860,2.200673,14.863077,4.662089,-0.733356,17.064993,20.229280,50.034771,101.664658,0.000000,206.000000,4.000000,,,,0.000000,4.000000,4.000000,4.000000,4.000000,4.000000,4.000000,4.000000,4.000000,4.000000,4.000000,4.000000,4.000000,4.000000,4.000000,4.000000,4.000000,4.000000,4.000000,4.000000,4.000000,4.000000,4.000000,4.000000,4.000000,4.000000,4.000000,4.000000,4.000000,4.000000,4.000000,4.000000,4.000000,100.000000
1614412142.498613,76.000000,0.000000,-6.132952,18.188896,99.875710,39.134052,18.753611,22.308201,-6.957371,-5.264849,46.619263,-10.683344,0.723645,3.210871,-1.063055,-13.988808,8.521692,-14.738773,-10.592752,-28.105721,-4.938753,-10.160541,-11.086199,-2.522297,10.664579,-19.873301,2.198473,14.335393,3.631786,5.421223,22.688953,21.234692,57.164223,107.204018,0.000000,195.000000,4.000000,,,,0.000000,4.000000,4.000000,4.000000,4.000000,4.000000,4.000000,4.000000,4.000000,4.000000,4.000000,4.000000,4.000000,4.000000,4.000000,4.000000,4.000000,4.000000,4.000000,4.000000,4.000000,4.000000,4.000000,4.000000,4.000000,4.000000,4.000000,4.000000,4.000000,4.000000,4.000000,4.000000,4.000000,100.000000
1614412142.506362,77.000000,0.000000,-2.537075,18.170706,103.365578,41.659019,20.273319,27.926918,-6.950413,-4.233943,46.572643,-10.159841,5.338306,7.310224,5.604674,-13.974818,15.179837,3.737504,-8.018057,-0.385306,14.553366,-7.586277,-10.049472,-2.006954,13.730838,-19.340607,1.683454,15.346699,4.140975,8.492725,25.743187,20.187817,61.209621,107.096817,0.000000,160.000000,4.000000,,,,0.000000,4.000000,4.000000,4.000000,4.000000,4.000000,4.000000,4.000000,4.000000,4.000000,4.000000,4.000000,4.000000,4.000000,4.000000,4.000000,4.000000,4.000000,4.000000,4.000000,4.000000,4.000000,4.000000,4.000000,4.000000,4.000000,4.000000,4.000000,4.000000,4.000000,4.000000,4.000000,4.000000,100.000000
1614412142.514011,78.000000,0.000000,-2.534538,18.152536,94.544266,42.130180,11.535096,23.796427,-6.943463,-5.255350,39.859406,-10.662501,4.820148,6.277273,7.137531,-13.960844,19.780043,22.708124,-6.984398,8.333028,18.128555,-6.553050,-10.039422,-2.004947,10.640183,-19.321266,-2.420794,14.818532,4.136834,7.458591,21.614880,19.654808,55.507385,95.194847,0.000000,237.000000,4.000000,,,,0.000000,4.000000,4.000000,4.000000,4.000000,4.000000,4.000000,4.000000,4.000000,4.000000,4.000000,4.000000,4.000000,4.000000,4.000000,4.000000,4.000000,4.000000,4.000000,4.000000,4.000000,4.000000,4.000000,4.000000,4.000000,4.000000,4.000000,4.000000,4.000000,4.000000,4.000000,4.000000,4.000000,100.000000
1614412142.521660,79.000000,0.000000,-3.044824,18.134384,91.885620,42.088051,8.959458,22.746990,-6.936520,-4.737274,36.742622,-10.139018,4.302506,6.270996,6.104753,-13.946883,13.093596,13.967468,-7.490234,-11.675305,6.828376,-7.059318,-10.029383,-2.002942,9.091082,-19.301945,-4.982476,14.803713,4.132697,7.451133,23.131727,21.686434,54.426239,94.074013,0.000000,186.000000,4.000000,,,,0.000000,4.000000,4.000000,4.000000,4.000000,4.000000,4.000000,4.000000,4.000000,4.000000,4.000000,4.000000,4.000000,4.000000,4.000000,4.000000,4.000000,4.000000,4.000000,4.000000,4.000000,4.000000,4.000000,4.000000,4.000000,4.000000,4.000000,4.000000,4.000000,4.000000,4.000000,4.000000,4.000000,100.000000
1614412142.529409,80.000000,0.000000,-2.528959,18.116249,94.357834,41.020321,9.976140,24.262705,-6.929583,-4.732537,36.193058,-10.641700,4.811025,5.239084,6.611468,-13.932936,7.952297,2.158629,-7.482744,-14.740553,6.821548,-6.539437,-10.532174,-2.000939,8.569170,-19.282642,-4.977493,15.814550,4.128564,7.956502,27.723980,18.075005,57.448734,99.108147,0.000000,171.000000,4.000000,,,,0.000000,4.000000,4.000000,4.000000,4.000000,4.000000,4.000000,4.000000,4.000000,4.000000,4.000000,4.000000,4.000000,4.000000,4.000000,4.000000,4.000000,4.000000,4.000000,4.000000,4.000000,4.000000,4.000000,4.000000,4.000000,4.000000,4.000000,4.000000,4.000000,4.000000,4.000000,4.000000,4.000000,100.000000
1614412142.537158,81.000000,0.000000,-2.526430,18.098133,90.160912,37.389561,9.453343,21.674339,-6.922653,-6.266265,33.592762,-10.118237,4.806214,-0.920002,6.092036,-13.919003,7.431524,6.259035,-7.475261,-8.571966,12.968572,-6.532898,-10.008821,-1.998938,5.996499,-18.750540,-4.972516,13.747454,4.124436,7.948546,22.055231,4.210776,50.211800,87.214165,0.000000,199.000000,4.000000,,,,0.000000,4.000000,4.000000,4.000000,4.000000,4.000000,4.000000,4.000000,4.000000,4.000000,4.000000,4.000000,4.000000,4.000000,4.000000,4.000000,4.000000,4.000000,4.000000,4.000000,4.000000,4.000000,4.000000,4.000000,4.000000,4.000000,4.000000,4.000000,4.000000,4.000000,4.000000,4.000000,4.000000,100.000000
1614412142.544807,82.000000,0.000000,-2.523903,18.080034,82.891266,34.788067,8.931070,19.088562,-6.915731,-8.311281,32.020710,-10.108119,3.775766,-5.021646,3.521842,-13.392263,5.885631,7.278417,-6.954965,-11.640318,15.006886,-8.064827,-9.485992,-1.484119,5.477682,-20.270250,-4.967543,8.605501,4.120311,7.940597,13.828047,-3.485743,42.469280,76.870537,0.000000,218.000000,4.000000,,,,0.000000,4.000000,4.000000,4.000000,4.000000,4.000000,4.000000,4.000000,4.000000,4.000000,4.000000,4.000000,4.000000,4.000000,4.000000,4.000000,4.000000,4.000000,4.000000,4.000000,4.000000,4.000000,4.000000,4.000000,4.000000,4.000000,4.000000,4.000000,4.000000,4.000000,4.000000,4.000000,4.000000,100.000000
1614412142.552457,83.000000,0.000000,-3.034200,18.061954,81.269913,34.240459,8.922139,19.069473,-6.908815,-9.328611,33.014328,-12.149293,1.207888,-5.016624,2.492679,-13.891692,4.341284,-6.062195,-6.948010,-14.705601,9.863673,-10.108044,-14.604712,-1.482635,5.472204,-22.301262,-4.962575,7.571255,4.116191,7.419836,12.788578,3.184410,44.990913,84.485977,0.000000,198.000000,4.000000,,,,0.000000,4.000000,4.000000,4.000000,4.000000,4.000000,4.000000,4.000000,4.000000,4.000000,4.000000,4.000000,4.000000,4.000000,4.000000,4.000000,4.000000,4.000000,4.000000,4.000000,4.000000,4.000000,4.000000,4.000000,4.000000,4.000000,4.000000,4.000000,4.000000,4.000000,4.000000,4.000000,4.000000,100.000000
1614412142.560206,84.000000,0.000000,-3.031166,18.043892,82.214279,34.206219,9.426037,19.563225,-6.901906,-8.806462,32.981316,-14.188426,-0.331781,-5.011607,2.490186,-13.877800,4.336943,-13.235620,-7.453883,-15.203715,8.315349,-11.123577,-21.256773,-1.481152,5.466732,-23.304602,-4.957613,8.076504,4.112075,7.925237,12.775789,4.719687,44.945923,85.939949,0.000000,201.000000,4.000000,,,,0.000000,4.000000,4.000000,4.000000,4.000000,4.000000,4.000000,4.000000,4.000000,4.000000,4.000000,4.000000,4.000000,4.000000,4.000000,4.000000,4.000000,4.000000,4.000000,4.000000,4.000000,4.000000,4.000000,4.000000,4.000000,4.000000,4.000000,4.000000,4.000000,4.000000,4.000000,4.000000,4.000000,100.000000
1614412142.567855,85.000000,0.000000,-2.515314,18.025848,80.593605,34.684834,9.416611,19.543661,-6.895004,-8.797655,32.948334,-14.174237,2.232653,-5.006596,4.026157,-13.351102,5.358247,-3.991616,-6.933609,-10.573127,18.563444,-9.061172,-22.261158,-1.479671,5.974085,-22.255657,-4.439835,3.453043,4.107963,7.917312,9.686090,-5.028623,39.259949,75.084785,0.000000,197.000000,4.000000,,,,0.000000,4.000000,4.000000,4.000000,4.000000,4.000000,4.000000,4.000000,4.000000,4.000000,4.000000,4.000000,4.000000,4.000000,4.000000,4.000000,4.000000,4.000000,4.000000,4.000000,4.000000,4.000000,4.000000,4.000000,4.000000,4.000000,4.000000,4.000000,4.000000,4.000000,4.000000,4.000000,4.000000,100.000000
1614412142.575604,86.000000,0.000000,-3.025619,16.982182,78.461731,33.624508,9.407194,19.524118,-6.888109,-8.788857,32.915386,-14.160063,-0.333682,-5.001589,0.432388,-13.850572,4.840068,-3.474803,-6.413854,-15.177938,20.083342,-11.103393,-20.700434,-3.529474,4.429650,-21.720581,-4.948215,-0.652974,4.616675,4.832471,9.676404,-9.638979,37.682228,71.419952,0.000000,220.000000,4.000000,,,,0.000000,4.000000,4.000000,4.000000,4.000000,4.000000,4.000000,4.000000,4.000000,4.000000,4.000000,4.000000,4.000000,4.000000,4.000000,4.000000,4.000000,4.000000,4.000000,4.000000,4.000000,4.000000,4.000000,4.000000,4.000000,4.000000,4.000000,4.000000,4.000000,4.000000,4.000000,4.000000,4.000000,100.000000
1614412142.583253,87.000000,0.000000,-7.637978,14.401097,78.896088,31.539600,9.910608,20.017414,-6.368401,-10.831351,32.882469,-14.145903,-12.641041,-7.047870,-8.285994,-16.400824,-0.805798,-18.343122,-13.074107,-36.701221,-1.988024,-21.861519,-21.705376,-8.654149,-1.215805,-26.827065,-4.943267,-0.139501,4.612059,0.212254,10.179548,-5.526775,39.183006,73.912636,0.000000,221.000000,4.000000,,,,0.000000,4.000000,4.000000,4.000000,4.000000,4.000000,4.000000,4.000000,4.000000,4.000000,4.000000,4.000000,4.000000,4.000000,4.000000,4.000000,4.000000,4.000000,4.000000,4.000000,4.000000,4.000000,4.000000,4.000000,4.000000,4.000000,4.000000,4.000000,4.000000,4.000000,4.000000,4.000000,4.000000,100.000000
1614412142.591002,88.000000,0.000000,-10.707263,14.386696,76.253090,30.995239,9.387877,19.997396,-7.387673,-12.871801,32.849586,-14.131757,-18.269426,-8.579284,-13.405912,-17.410063,-6.958838,-18.324780,-20.753342,-41.792725,-22.498857,-32.096069,-21.683670,-14.286521,-5.829974,-32.954082,-3.399863,0.886280,4.094626,-0.300779,10.169369,-3.469967,39.143826,74.351547,0.000000,195.000000,4.000000,,,,0.000000,4.000000,4.000000,4.000000,4.000000,4.000000,4.000000,4.000000,4.000000,4.000000,4.000000,4.000000,4.000000,4.000000,4.000000,4.000000,4.000000,4.000000,4.000000,4.000000,4.000000,4.000000,4.000000,4.000000,4.000000,4.000000,4.000000,4.000000,4.000000,4.000000,4.000000,4.000000,4.000000,100.000000
1614412142.598651,89.000000,0.000000,-10.183736,16.936411,72.074272,30.964245,9.378489,19.464579,-6.354645,-11.833289,32.816738,-13.604805,-10.558848,-8.570704,-11.854045,-16.879833,-5.413418,-5.998763,-21.245407,-25.340677,-21.963537,-34.628075,-21.149166,-16.836336,-5.824144,-34.459591,-4.934924,0.372573,5.116172,0.212343,10.672020,-4.492137,39.104679,72.738731,0.000000,204.000000,4.000000,,,,0.000000,4.000000,4.000000,4.000000,4.000000,4.000000,4.000000,4.000000,4.000000,4.000000,4.000000,4.000000,4.000000,4.000000,4.000000,4.000000,4.000000,4.000000,4.000000,4.000000,4.000000,4.000000,4.000000,4.000000,4.000000,4.000000,4.000000,4.000000,4.000000,4.000000,4.000000,4.000000,4.000000,100.000000
1614412142.606401,90.000000,0.000000,-9.660731,18.457937,71.489380,30.933281,10.394752,19.957935,-3.784187,-9.257353,32.783920,-14.104020,-5.420084,-8.562133,-12.355011,-17.888594,-2.843902,-7.018405,-18.660061,-26.340977,-9.633882,-33.054985,-21.128017,-17.332321,-5.305500,-32.886669,-8.006912,-0.140620,3.572595,0.212130,9.122887,-5.513287,38.552757,70.101891,0.000000,218.000000,4.000000,,,,0.000000,4.000000,4.000000,4.000000,4.000000,4.000000,4.000000,4.000000,4.000000,4.000000,4.000000,4.000000,4.000000,4.000000,4.000000,4.000000,4.000000,4.000000,4.000000,4.000000,4.000000,4.000000,4.000000,4.000000,4.000000,4.000000,4.000000,4.000000,4.000000,4.000000,4.000000,4.000000,4.000000,100.000000
1614412142.614050,91.000000,0.000000,-10.676712,18.439480,66.289688,31.415167,6.794613,19.425158,-3.780403,-8.735275,32.751137,-14.089916,-7.465946,-9.066392,-12.855477,-17.870705,-3.353878,-8.549849,-18.641399,-28.365919,2.683445,-25.842443,-21.619709,-16.802168,-5.813015,-33.366604,-7.998905,0.885161,-2.584824,0.211918,7.575302,-4.994953,38.001381,69.518967,0.000000,201.000000,4.000000,,,,0.000000,4.000000,4.000000,4.000000,4.000000,4.000000,4.000000,4.000000,4.000000,4.000000,4.000000,4.000000,4.000000,4.000000,4.000000,4.000000,4.000000,4.000000,4.000000,4.000000,4.000000,4.000000,4.000000,4.000000,4.000000,4.000000,4.000000,4.000000,4.000000,4.000000,4.000000,4.000000,4.000000,100.000000
1614412142.621799,92.000000,0.000000,-10.153214,15.344116,54.941345,27.281187,-1.930130,13.764706,-6.340725,-8.726540,32.718388,-14.075827,-6.945660,-9.570146,-11.816980,-16.827194,-2.324883,1.715111,-18.622759,-10.901655,3.193582,-17.611473,-20.572449,-16.785366,-5.807201,-34.358879,-9.529368,0.884276,-7.197624,-0.813935,6.542086,-2.938676,36.424919,62.782780,0.000000,197.000000,4.000000,,,,0.000000,4.000000,4.000000,4.000000,4.000000,4.000000,4.000000,4.000000,4.000000,4.000000,4.000000,4.000000,4.000000,4.000000,4.000000,4.000000,4.000000,4.000000,4.000000,4.000000,4.000000,4.000000,4.000000,4.000000,4.000000,4.000000,4.000000,4.000000,4.000000,4.000000,4.000000,4.000000,4.000000,100.000000
1614412142.629448,93.000000,0.000000,-10.143061,9.687747,50.271019,21.100061,-6.543585,8.622736,-7.360026,-8.717813,32.685669,-15.087392,-6.425894,-8.534935,-12.830805,-19.374470,-3.348200,1.713396,-19.116957,-10.377933,-2.450637,-18.619501,-21.577517,-16.768581,-5.288574,-33.811699,-19.263428,-3.731993,-7.190426,-3.377223,3.458621,-12.166507,26.644905,45.796921,0.000000,175.000000,4.000000,,,,0.000000,4.000000,4.000000,4.000000,4.000000,4.000000,4.000000,4.000000,4.000000,4.000000,4.000000,4.000000,4.000000,4.000000,4.000000,4.000000,4.000000,4.000000,4.000000,4.000000,4.000000,4.000000,4.000000,4.000000,4.000000,4.000000,4.000000,4.000000,4.000000,4.000000,4.000000,4.000000,4.000000,100.000000
1614412142.637197,94.000000,0.000000,-10.132918,6.601136,52.272030,19.027679,-2.947298,8.101293,-6.839845,-8.709096,32.652981,-18.149227,-6.932288,-8.526400,-11.792333,-20.893557,-2.832031,-10.083189,-18.072199,-22.162426,4.731300,-15.523959,-24.632862,-16.751812,-5.796106,-32.752247,-24.885191,-7.830825,-7.183236,-3.886667,2.429521,-26.513313,17.900311,38.571636,0.000000,216.000000,4.000000,,,,0.000000,4.000000,4.000000,4.000000,4.000000,4.000000,4.000000,4.000000,4.000000,4.000000,4.000000,4.000000,4.000000,4.000000,4.000000,4.000000,4.000000,4.000000,4.000000,4.000000,4.000000,4.000000,4.000000,4.000000,4.000000,4.000000,4.000000,4.000000,4.000000,4.000000,4.000000,4.000000,4.000000,100.000000
1614412142.644846,95.000000,0.000000,-10.122786,7.107355,52.219757,20.034292,-1.918709,8.093191,-6.833005,-8.700386,32.620327,-17.618258,-0.258689,-10.056334,-4.601053,-13.180355,6.401570,-10.585926,-8.310536,-13.422316,14.982980,-0.636640,-21.531307,-10.581214,-5.277489,-34.770775,-18.193638,-5.771712,-7.688873,-3.369960,4.478374,-22.384237,23.523438,47.251015,0.000000,185.000000,4.000000,,,,0.000000,4.000000,4.000000,4.000000,4.000000,4.000000,4.000000,4.000000,4.000000,4.000000,4.000000,4.000000,4.000000,4.000000,4.000000,4.000000,4.000000,4.000000,4.000000,4.000000,4.000000,4.000000,4.000000,4.000000,4.000000,4.000000,4.000000,4.000000,4.000000,4.000000,4.000000,4.000000,4.000000,100.000000
1614412142.652595,96.000000,0.000000,-10.112662,7.100248,51.141895,19.501436,-2.942432,8.597919,-4.774890,-8.691686,32.074886,-12.472434,7.433877,-1.841150,2.070215,-3.936405,17.677219,-3.908674,0.415723,-4.178124,16.506458,6.030663,-12.791826,-2.878325,-0.656827,-32.171902,-9.970317,-2.689017,-4.604261,-3.879410,3.961074,-9.028520,32.217861,48.742226,8064.000000,0.000000,4.000000,,,,0.000000,4.000000,4.000000,4.000000,4.000000,4.000000,4.000000,4.000000,4.000000,4.000000,4.000000,4.000000,4.000000,4.000000,4.000000,4.000000,4.000000,4.000000,4.000000,4.000000,4.000000,4.000000,4.000000,4.000000,4.000000,4.000000,4.000000,4.000000,4.000000,4.000000,4.000000,4.000000,4.000000,100.000000
1614412142.660245,97.000000,0.000000,-10.102550,6.067507,51.603573,19.481936,3.214357,11.153423,-3.231654,-8.682995,32.555634,-7.331757,8.964905,10.981204,4.119426,-1.881187,20.736465,-1.340662,0.928128,-5.199587,16.489952,2.434889,-8.676471,-0.824165,2.420753,-22.396141,-8.421885,-4.224790,-3.061195,-3.362710,3.957114,-9.019490,31.160004,47.667843,8064.000000,0.000000,4.000000,,,,0.000000,4.000000,4.000000,4.000000,4.000000,4.000000,4.000000,4.000000,4.000000,4.000000,4.000000,4.000000,4.000000,4.000000,4.000000,4.000000,4.000000,4.000000,4.000000,4.000000,4.000000,4.000000,4.000000,4.000000,4.000000,4.000000,4.000000,4.000000,4.000000,4.000000,4.000000,4.000000,4.000000,100.000000
1614412142.667994,98.000000,0.000000,-10.092447,8.112721,53.603252,23.052197,12.441912,12.167912,-3.228422,-8.674312,34.574360,-4.247502,7.930299,13.534325,5.140948,-2.392126,19.690088,1.737602,0.414379,-0.066182,12.370897,0.893992,-10.206256,-1.848981,1.905511,-14.168617,-8.413464,-0.630821,-3.570955,-3.359348,10.107002,-6.446369,31.128843,58.902225,8064.000000,0.000000,4.000000,,,,0.000000,4.000000,4.000000,4.000000,4.000000,4.000000,4.000000,4.000000,4.000000,4.000000,4.000000,4.000000,4.000000,4.000000,4.000000,4.000000,4.000000,4.000000,4.000000,4.000000,4.000000,4.000000,4.000000,4.000000,4.000000,4.000000,4.000000,4.000000,4.000000,4.000000,4.000000,4.000000,4.000000,100.000000
1614412142.675643,99.000000,0.000000,-10.082355,10.155890,55.600933,26.618889,13.967932,11.642922,-1.173912,-8.665637,36.078247,-3.217613,8.435189,9.931047,6.674269,-2.902555,17.619116,4.299966,-1.124497,-3.655859,0.050834,-2.696645,-10.196050,-1.847133,2.416426,-14.154449,-8.917871,8.087758,-0.490461,-3.868809,15.225101,7.406231,35.200279,65.509987,8064.000000,0.000000,4.000000,,,,0.000000,4.000000,4.000000,4.000000,4.000000,4.000000,4.000000,4.000000,4.000000,4.000000,4.000000,4.000000,4.000000,4.000000,4.000000,4.000000,4.000000,4.000000,4.000000,4.000000,4.000000,4.000000,4.000000,4.000000,4.000000,4.000000,4.000000,4.000000,4.000000,4.000000,4.000000,4.000000,4.000000,100.000000
1614412142.683392,100.000000,0.000000,-10.072272,11.171375,56.058151,27.617910,12.415502,12.144100,-0.147097,-9.682612,36.042168,-2.701575,6.888292,9.921116,6.667594,-5.463755,12.986113,4.808487,-5.738757,-15.959896,-0.462037,-9.360616,-9.673033,-1.332465,2.414010,-15.165935,-8.396132,11.669415,4.125414,-3.352119,13.671414,10.475748,35.165077,59.290634,8192.000000,0.000000,4.000000,,,,0.000000,4.000000,4.000000,4.000000,4.000000,4.000000,4.000000,4.000000,4.000000,4.000000,4.000000,4.000000,4.000000,4.000000,4.000000,4.000000,4.000000,4.000000,4.000000,4.000000,4.000000,4.000000,4.000000,4.000000,4.000000,4.000000,4.000000,4.000000,4.000000,4.000000,4.000000,4.000000,4.000000,100.000000
1614412142.691041,101.000000,0.000000,-10.062201,10.647384,55.489273,27.077473,13.428727,11.619136,-2.711052,-11.724212,35.493305,-2.698874,4.830122,6.834272,5.635286,-6.483932,12.460306,6.342140,-7.784300,-11.328551,12.358938,-9.351254,-10.176180,-1.843953,-2.716609,-14.125128,-0.695428,12.170566,4.634109,-0.271844,13.144922,2.772965,35.129913,57.180061,8064.000000,0.000000,4.000000,,,,0.000000,4.000000,4.000000,4.000000,4.000000,4.000000,4.000000,4.000000,4.000000,4.000000,4.000000,4.000000,4.000000,4.000000,4.000000,4.000000,4.000000,4.000000,4.000000,4.000000,4.000000,4.000000,4.000000,4.000000,4.000000,4.000000,4.000000,4.000000,4.000000,4.000000,4.000000,4.000000,4.000000,100.000000
1614412142.698790,102.000000,0.000000,-10.052138,10.123916,55.433784,27.050394,12.902478,13.145978,-4.246803,-12.738129,35.970634,-3.721816,4.312471,-0.864870,0.501445,-6.477448,11.422205,5.310157,-7.263695,-7.214659,16.449142,-6.777801,-10.166004,-2.354929,-5.277995,-14.623823,6.997575,11.645575,4.116655,0.241248,14.157418,1.744551,35.094784,58.148521,8064.000000,0.000000,4.000000,,,,0.000000,4.000000,4.000000,4.000000,4.000000,4.000000,4.000000,4.000000,4.000000,4.000000,4.000000,4.000000,4.000000,4.000000,4.000000,4.000000,4.000000,4.000000,4.000000,4.000000,4.000000,4.000000,4.000000,4.000000,4.000000,4.000000,4.000000,4.000000,4.000000,4.000000,4.000000,4.000000,4.000000,100.000000
1614412142.706439,103.000000,0.000000,-10.042086,11.139433,55.891171,27.023344,13.402396,18.773857,-1.678453,-12.212570,37.985947,-2.692453,3.795338,-1.889646,-1.037518,-6.983791,10.897962,3.253565,-7.256432,-10.797188,15.407053,-6.771023,-10.155838,-1.839754,-0.657332,-15.122020,3.913655,6.505723,4.112538,-0.271814,13.630440,1.742806,31.982765,55.526272,8192.000000,0.000000,4.000000,,,,0.000000,4.000000,4.000000,4.000000,4.000000,4.000000,4.000000,4.000000,4.000000,4.000000,4.000000,4.000000,4.000000,4.000000,4.000000,4.000000,4.000000,4.000000,4.000000,4.000000,4.000000,4.000000,4.000000,4.000000,4.000000,4.000000,4.000000,4.000000,4.000000,4.000000,4.000000,4.000000,4.000000,100.000000
1614412142.714188,104.000000,0.000000,-10.032043,13.179576,55.322460,26.996321,15.440276,23.370468,0.374507,-9.636255,39.486420,1.925624,5.330005,1.189167,6.655828,-3.899884,21.143475,16.070824,-3.146611,4.598225,21.032671,-4.200150,-10.145682,2.264650,2.933069,-15.106898,-0.705644,5.473577,4.621246,2.805381,13.616810,-1.335859,32.463604,53.932281,8064.000000,0.000000,4.000000,,,,0.000000,4.000000,4.000000,4.000000,4.000000,4.000000,4.000000,4.000000,4.000000,4.000000,4.000000,4.000000,4.000000,4.000000,4.000000,4.000000,4.000000,4.000000,4.000000,4.000000,4.000000,4.000000,4.000000,4.000000,4.000000,4.000000,4.000000,4.000000,4.000000,4.000000,4.000000,4.000000,4.000000,100.000000
1614412142.721838,105.000000,0.000000,-10.022012,14.704858,55.267136,26.969324,16.450478,23.859919,0.374133,-6.036875,39.446934,4.487801,7.888777,2.726439,11.264556,1.232221,31.891562,31.439369,0.959100,19.465422,25.627024,0.932256,-10.135536,6.364949,1.904494,-15.091791,3.910446,12.647591,4.103805,7.417961,13.603193,0.203938,37.559345,53.878349,8064.000000,0.000000,4.000000,,,,0.000000,4.000000,4.000000,4.000000,4.000000,4.000000,4.000000,4.000000,4.000000,4.000000,4.000000,4.000000,4.000000,4.000000,4.000000,4.000000,4.000000,4.000000,4.000000,4.000000,4.000000,4.000000,4.000000,4.000000,4.000000,4.000000,4.000000,4.000000,4.000000,4.000000,4.000000,4.000000,4.000000,100.000000
1614412142.729587,106.000000,0.000000,-10.524810,14.177332,55.211868,26.942356,16.434027,21.271955,0.373759,-5.518018,39.407486,4.483313,4.291145,2.210892,4.586625,0.718168,25.193003,14.484852,-2.118783,0.471597,22.011652,-0.094318,-10.125401,5.845764,1.389769,-15.076699,7.496280,14.173405,4.099701,7.923363,13.589590,5.331939,37.008965,53.824471,8064.000000,0.000000,4.000000,,,,0.000000,4.000000,4.000000,4.000000,4.000000,4.000000,4.000000,4.000000,4.000000,4.000000,4.000000,4.000000,4.000000,4.000000,4.000000,4.000000,4.000000,4.000000,4.000000,4.000000,4.000000,4.000000,4.000000,4.000000,4.000000,4.000000,4.000000,4.000000,4.000000,4.000000,4.000000,4.000000,4.000000,100.000000
1614412142.737236,107.000000,0.000000,-9.488645,14.163155,55.156658,26.915413,16.930412,17.148121,0.373385,-9.102243,39.368080,3.966009,-2.379813,0.670219,-1.571808,-4.923576,12.347298,-14.247581,-7.244869,-14.400669,22.502462,-2.145505,-10.115275,5.327097,2.414021,-15.061623,4.924681,11.595128,4.095601,7.402619,13.576000,6.352248,35.433495,59.411674,8064.000000,0.000000,4.000000,,,,0.000000,4.000000,4.000000,4.000000,4.000000,4.000000,4.000000,4.000000,4.000000,4.000000,4.000000,4.000000,4.000000,4.000000,4.000000,4.000000,4.000000,4.000000,4.000000,4.000000,4.000000,4.000000,4.000000,4.000000,4.000000,4.000000,4.000000,4.000000,4.000000,4.000000,4.000000,4.000000,4.000000,100.000000
1614412142.744985,108.000000,0.000000,-6.915053,14.148992,55.101501,26.888498,15.375021,15.079690,0.373011,-12.170064,39.841534,4.474864,-3.403074,-1.894553,-1.570236,-6.969934,10.796489,-6.028205,-7.750444,-5.155499,25.044062,-2.143360,-10.105161,6.860232,1.898786,-15.046561,9.535141,13.634815,4.091506,7.908037,14.075245,6.345896,38.474983,61.916363,8064.000000,0.000000,4.000000,,,,0.000000,4.000000,4.000000,4.000000,4.000000,4.000000,4.000000,4.000000,4.000000,4.000000,4.000000,4.000000,4.000000,4.000000,4.000000,4.000000,4.000000,4.000000,4.000000,4.000000,4.000000,4.000000,4.000000,4.000000,4.000000,4.000000,4.000000,4.000000,4.000000,4.000000,4.000000,4.000000,4.000000,100.000000
1614412142.752634,109.000000,0.000000,-5.882497,14.134843,55.046398,26.861609,13.308364,16.090252,0.372638,-12.157894,39.288872,3.957568,-2.374030,-1.379838,-0.543025,-5.937323,13.349794,18.593206,-6.717053,-6.688806,8.095941,-6.243781,-10.095056,2.237987,1.896887,-15.031514,17.217913,13.108360,4.087414,5.848847,12.522708,5.826730,33.308304,51.598038,8064.000000,0.000000,4.000000,,,,0.000000,4.000000,4.000000,4.000000,4.000000,4.000000,4.000000,4.000000,4.000000,4.000000,4.000000,4.000000,4.000000,4.000000,4.000000,4.000000,4.000000,4.000000,4.000000,4.000000,4.000000,4.000000,4.000000,4.000000,4.000000,4.000000,4.000000,4.000000,4.000000,4.000000,4.000000,4.000000,4.000000,100.000000
1614412142.760283,110.000000,0.000000,-6.389435,14.120708,54.991352,26.321928,12.782235,14.535699,0.372266,-12.145736,39.249580,4.466432,-2.884477,-0.865638,-1.568123,-6.444206,10.772343,8.831024,-7.223156,-18.989809,-11.399335,-13.417024,-10.084960,-4.430918,1.894990,-15.016483,13.098131,7.967046,4.083326,3.791716,10.458903,6.333724,24.044226,45.392593,8064.000000,0.000000,4.000000,,,,0.000000,4.000000,4.000000,4.000000,4.000000,4.000000,4.000000,4.000000,4.000000,4.000000,4.000000,4.000000,4.000000,4.000000,4.000000,4.000000,4.000000,4.000000,4.000000,4.000000,4.000000,4.000000,4.000000,4.000000,4.000000,4.000000,4.000000,4.000000,4.000000,4.000000,4.000000,4.000000,4.000000,100.000000
1614412142.768032,111.000000,0.000000,-6.383046,14.106587,54.936359,26.808426,11.230991,11.957061,0.371893,-12.133591,39.723152,2.410683,-3.394413,-5.992977,-3.105016,-6.950583,5.633365,-14.254730,-7.728754,-14.868255,0.919757,-14.942068,-10.074875,-6.477769,1.893095,-15.001467,5.905546,6.420618,4.079243,3.275104,9.422803,8.891492,26.071465,50.988228,8064.000000,0.000000,4.000000,,,,0.000000,4.000000,4.000000,4.000000,4.000000,4.000000,4.000000,4.000000,4.000000,4.000000,4.000000,4.000000,4.000000,4.000000,4.000000,4.000000,4.000000,4.000000,4.000000,4.000000,4.000000,4.000000,4.000000,4.000000,4.000000,4.000000,4.000000,4.000000,4.000000,4.000000,4.000000,4.000000,4.000000,100.000000
1614412142.775682,112.000000,0.000000,-5.863842,14.092481,54.881424,26.781618,9.168478,11.432283,0.371522,-12.121457,38.657787,-1.694292,-3.391018,-8.551087,-5.666014,-6.430811,5.114911,-4.496885,-7.721025,-6.135438,15.790632,-14.414306,-10.064800,-5.958470,1.891202,-14.986465,5.386820,7.439838,4.075164,3.271829,9.926201,8.882601,31.173597,54.014160,8064.000000,0.000000,4.000000,,,,0.000000,4.000000,4.000000,4.000000,4.000000,4.000000,4.000000,4.000000,4.000000,4.000000,4.000000,4.000000,4.000000,4.000000,4.000000,4.000000,4.000000,4.000000,4.000000,4.000000,4.000000,4.000000,4.000000,4.000000,4.000000,4.000000,4.000000,4.000000,4.000000,4.000000,4.000000,4.000000,4.000000,100.000000
1614412142.783431,113.000000,0.000000,-6.370799,14.078388,55.339363,24.190733,9.159309,9.882390,0.371150,-12.622156,35.542206,-3.743880,-2.874807,-3.927151,-5.660347,-6.937201,7.673899,14.994791,-7.713304,-7.154943,6.544072,-14.912712,-10.567556,-5.952512,1.889311,-14.971478,6.919895,7.432398,4.071089,3.781378,9.916275,4.258334,28.578321,49.857582,8064.000000,0.000000,4.000000,,,,0.000000,4.000000,4.000000,4.000000,4.000000,4.000000,4.000000,4.000000,4.000000,4.000000,4.000000,4.000000,4.000000,4.000000,4.000000,4.000000,4.000000,4.000000,4.000000,4.000000,4.000000,4.000000,4.000000,4.000000,4.000000,4.000000,4.000000,4.000000,4.000000,4.000000,4.000000,4.000000,4.000000,100.000000
1614412142.791080,114.000000,0.000000,-6.364428,14.064310,55.284023,20.063978,8.124509,8.334045,0.370779,-12.096713,35.506664,-3.227315,-2.871932,-0.846301,-4.116226,-6.417444,7.666224,9.338771,-7.192770,-6.634968,11.665733,-13.872158,-10.044168,-5.946559,1.887422,-15.469328,5.887334,7.937787,4.067018,3.264776,9.906359,2.715614,26.498461,49.807724,8064.000000,0.000000,4.000000,,,,0.000000,4.000000,4.000000,4.000000,4.000000,4.000000,4.000000,4.000000,4.000000,4.000000,4.000000,4.000000,4.000000,4.000000,4.000000,4.000000,4.000000,4.000000,4.000000,4.000000,4.000000,4.000000,4.000000,4.000000,4.000000,4.000000,4.000000,4.000000,4.000000,4.000000,4.000000,4.000000,4.000000,100.000000
1614412142.798829,115.000000,0.000000,-6.358064,14.050245,55.228741,17.992632,4.013821,7.812891,0.370408,-12.084617,35.471157,-3.224088,-3.381881,-1.358275,-5.650571,-6.411026,7.658558,-1.952619,-7.698398,-3.038590,31.654068,-14.883927,-10.034123,-6.966254,1.372714,-14.428217,3.830164,5.878567,4.062951,0.697408,9.896452,-0.364025,27.497604,50.270737,8064.000000,0.000000,4.000000,,,,0.000000,4.000000,4.000000,4.000000,4.000000,4.000000,4.000000,4.000000,4.000000,4.000000,4.000000,4.000000,4.000000,4.000000,4.000000,4.000000,4.000000,4.000000,4.000000,4.000000,4.000000,4.000000,4.000000,4.000000,4.000000,4.000000,4.000000,4.000000,4.000000,4.000000,4.000000,4.000000,4.000000,100.000000
1614412142.806478,116.000000,0.000000,-6.351706,14.036195,54.660690,19.513102,1.445704,7.805079,-0.142783,-12.585352,30.820303,-3.733684,-2.352858,-1.869738,-5.644920,-6.917436,12.266285,3.177538,-5.639418,-3.548372,24.955748,-14.869043,-11.049730,-4.395185,1.884162,-15.439430,2.287873,8.949611,4.058888,1.209531,9.886556,-4.979045,26.957285,45.092262,8064.000000,0.000000,4.000000,,,,0.000000,4.000000,4.000000,4.000000,4.000000,4.000000,4.000000,4.000000,4.000000,4.000000,4.000000,4.000000,4.000000,4.000000,4.000000,4.000000,4.000000,4.000000,4.000000,4.000000,4.000000,4.000000,4.000000,4.000000,4.000000,4.000000,4.000000,4.000000,4.000000,4.000000,4.000000,4.000000,4.000000,100.000000
1614412142.814227,117.000000,0.000000,-6.345354,14.022159,55.631672,24.108973,1.444259,8.822914,0.370180,-12.059947,27.712559,-3.217130,1.752059,-1.355047,4.104314,-3.320775,18.407864,18.558975,1.545709,1.070561,19.802586,-2.546482,-9.500219,5.865620,3.933560,-15.936811,1.772764,16.632969,4.054829,6.336527,9.876669,-1.384323,27.443148,41.970249,8064.000000,0.000000,4.000000,,,,0.000000,4.000000,4.000000,4.000000,4.000000,4.000000,4.000000,4.000000,4.000000,4.000000,4.000000,4.000000,4.000000,4.000000,4.000000,4.000000,4.000000,4.000000,4.000000,4.000000,4.000000,4.000000,4.000000,4.000000,4.000000,4.000000,4.000000,4.000000,4.000000,4.000000,4.000000,4.000000,4.000000,100.000000
1614412142.821876,118.000000,0.000000,-6.339008,14.008137,54.037579,27.161787,1.955635,10.865374,2.933913,-6.919682,30.761770,-3.213913,4.827230,0.184769,16.407902,3.349213,22.492022,28.284006,7.185189,14.915645,38.757141,9.250937,-4.362514,10.475140,5.980908,-10.792669,2.283812,15.077875,4.050774,7.868652,9.866793,-0.357298,27.415705,41.928276,8064.000000,0.000000,4.000000,,,,0.000000,4.000000,4.000000,4.000000,4.000000,4.000000,4.000000,4.000000,4.000000,4.000000,4.000000,4.000000,4.000000,4.000000,4.000000,4.000000,4.000000,4.000000,4.000000,4.000000,4.000000,4.000000,4.000000,4.000000,4.000000,4.000000,4.000000,4.000000,4.000000,4.000000,4.000000,4.000000,4.000000,100.000000
1614412142.829625,119.000000,0.000000,-6.845490,13.994128,48.855335,25.083344,1.953679,10.854508,4.469440,-4.348659,31.756649,-2.697879,4.309583,2.235867,18.442776,5.397146,25.033630,23.127518,7.690824,20.541756,43.846592,5.139121,-2.819690,8.413383,5.462107,-4.115210,1.768708,9.421771,4.046723,7.347963,9.856926,-7.536427,24.824186,39.835068,8192.000000,0.000000,4.000000,,,,0.000000,4.000000,4.000000,4.000000,4.000000,4.000000,4.000000,4.000000,4.000000,4.000000,4.000000,4.000000,4.000000,4.000000,4.000000,4.000000,4.000000,4.000000,4.000000,4.000000,4.000000,4.000000,4.000000,4.000000,4.000000,4.000000,4.000000,4.000000,4.000000,4.000000,4.000000,4.000000,4.000000,100.000000
1614412142.837275,120.000000,0.000000,-5.300183,13.980134,44.191097,23.006977,1.951725,8.279551,3.952151,-5.369952,32.237713,-3.720822,4.305273,2.233631,16.373051,3.853287,26.034239,15.412083,7.170313,16.931469,37.648899,4.621161,-1.791229,10.969071,4.431004,-3.598274,2.279759,15.053375,4.042676,7.340615,9.847069,-2.400686,25.312183,38.256771,8064.000000,0.000000,4.000000,,,,0.000000,4.000000,4.000000,4.000000,4.000000,4.000000,4.000000,4.000000,4.000000,4.000000,4.000000,4.000000,4.000000,4.000000,4.000000,4.000000,4.000000,4.000000,4.000000,4.000000,4.000000,4.000000,4.000000,4.000000,4.000000,4.000000,4.000000,4.000000,4.000000,4.000000,4.000000,4.000000,4.000000,100.000000
1614412142.845024,121.000000,0.000000,-2.730780,13.966154,43.634083,22.983971,1.949774,7.758451,3.948198,-3.826120,34.769577,-3.204280,4.813788,1.718577,17.895140,4.875075,27.033846,17.960773,7.675963,17.427359,40.688171,12.821669,0.774665,12.496564,5.452214,-3.594676,2.277480,20.679348,4.038634,7.846095,9.837221,11.960690,30.415077,40.782616,8064.000000,0.000000,4.000000,,,,0.000000,4.000000,4.000000,4.000000,4.000000,4.000000,4.000000,4.000000,4.000000,4.000000,4.000000,4.000000,4.000000,4.000000,4.000000,4.000000,4.000000,4.000000,4.000000,4.000000,4.000000,4.000000,4.000000,4.000000,4.000000,4.000000,4.000000,4.000000,4.000000,4.000000,4.000000,4.000000,4.000000,100.000000
1614412142.852673,122.000000,0.000000,-2.215229,12.413727,42.564808,22.960987,2.460644,8.776334,3.944250,-5.873576,33.196346,-2.688256,4.296154,2.229679,15.825963,4.357379,25.468349,12.301786,6.129826,10.230444,25.775688,0.501155,-0.764572,3.253298,5.959582,-1.026978,1.762382,15.530463,4.034595,7.838249,9.827384,15.025652,29.871841,42.793114,8064.000000,0.000000,4.000000,,,,0.000000,4.000000,4.000000,4.000000,4.000000,4.000000,4.000000,4.000000,4.000000,4.000000,4.000000,4.000000,4.000000,4.000000,4.000000,4.000000,4.000000,4.000000,4.000000,4.000000,4.000000,4.000000,4.000000,4.000000,4.000000,4.000000,4.000000,4.000000,4.000000,4.000000,4.000000,4.000000,4.000000,100.000000
1614412142.860422,123.000000,0.000000,-3.238655,10.350031,37.906860,22.938026,2.458184,8.254737,3.940306,-14.072830,28.034945,-7.300952,4.291858,1.714628,9.656291,0.763278,20.827497,-2.069489,3.046773,-8.241325,2.160169,-18.986526,-6.404833,-2.390981,3.902340,0.512510,2.786260,13.463651,3.517740,6.804770,9.304736,12.446524,27.277866,42.237503,8064.000000,0.000000,4.000000,,,,0.000000,4.000000,4.000000,4.000000,4.000000,4.000000,4.000000,4.000000,4.000000,4.000000,4.000000,4.000000,4.000000,4.000000,4.000000,4.000000,4.000000,4.000000,4.000000,4.000000,4.000000,4.000000,4.000000,4.000000,4.000000,4.000000,4.000000,4.000000,4.000000,4.000000,4.000000,4.000000,4.000000,100.000000
1614412142.868071,124.000000,0.000000,-1.696954,9.826860,31.202286,21.889446,-1.134018,8.246482,3.936366,-14.058758,26.981270,-10.370574,4.287566,1.712914,9.133814,0.762515,24.909233,6.137708,4.582187,-6.181802,16.004164,-5.634206,-6.911248,1.713974,8.513823,-0.513644,4.834756,15.501469,4.539864,7.823606,10.321073,12.434076,27.763409,42.195263,8064.000000,0.000000,4.000000,,,,0.000000,4.000000,4.000000,4.000000,4.000000,4.000000,4.000000,4.000000,4.000000,4.000000,4.000000,4.000000,4.000000,4.000000,4.000000,4.000000,4.000000,4.000000,4.000000,4.000000,4.000000,4.000000,4.000000,4.000000,4.000000,4.000000,4.000000,4.000000,4.000000,4.000000,4.000000,4.000000,4.000000,100.000000
1614412142.875820,125.000000,0.000000,2.920127,10.329854,26.555698,19.816275,-5.748269,8.238235,3.932429,-3.788289,27.979929,-4.206357,4.283278,5.300944,12.201603,3.838675,33.602272,26.131571,7.141708,10.234636,38.039440,14.371428,-3.827414,5.814824,20.813002,-0.513130,6.368383,13.434686,6.586606,10.379885,12.874854,10.883182,24.145903,42.665890,8064.000000,0.000000,4.000000,,,,0.000000,4.000000,4.000000,4.000000,4.000000,4.000000,4.000000,4.000000,4.000000,4.000000,4.000000,4.000000,4.000000,4.000000,4.000000,4.000000,4.000000,4.000000,4.000000,4.000000,4.000000,4.000000,4.000000,4.000000,4.000000,4.000000,4.000000,4.000000,4.000000,4.000000,4.000000,4.000000,4.000000,100.000000
1614412142.883469,126.000000,0.000000,4.968489,10.319524,26.016323,18.770817,-5.742520,8.229998,3.928497,0.318064,27.951948,1.951695,3.766175,9.398208,13.215043,3.834837,29.466106,18.925951,7.134566,9.198761,31.334734,7.690390,-2.797946,5.296189,24.894753,-0.512617,5.849194,10.857148,8.118481,9.856685,13.887620,9.846657,16.942268,42.623222,8064.000000,0.000000,4.000000,,,,0.000000,4.000000,4.000000,4.000000,4.000000,4.000000,4.000000,4.000000,4.000000,4.000000,4.000000,4.000000,4.000000,4.000000,4.000000,4.000000,4.000000,4.000000,4.000000,4.000000,4.000000,4.000000,4.000000,4.000000,4.000000,4.000000,4.000000,4.000000,4.000000,4.000000,4.000000,4.000000,4.000000,100.000000
1614412142.891218,127.000000,0.000000,4.450700,10.309204,26.503126,19.777687,-4.711137,8.221767,3.924568,-1.733537,27.411177,0.924102,4.275229,9.901629,12.689007,4.343822,22.257153,11.727538,6.614611,5.599819,29.764938,3.580136,0.281775,4.778072,19.228832,0.000716,6.356165,10.846291,8.110362,7.282725,13.360912,9.323990,15.386866,44.119061,8064.000000,0.000000,4.000000,,,,0.000000,4.000000,4.000000,4.000000,4.000000,4.000000,4.000000,4.000000,4.000000,4.000000,4.000000,4.000000,4.000000,4.000000,4.000000,4.000000,4.000000,4.000000,4.000000,4.000000,4.000000,4.000000,4.000000,4.000000,4.000000,4.000000,4.000000,4.000000,4.000000,4.000000,4.000000,4.000000,4.000000,100.000000
1614412142.898868,0.000000,0.000000,4.446249,10.298896,24.938162,18.219448,-5.732067,8.213546,3.920644,-1.218982,27.896585,0.923178,6.835056,9.378908,13.189138,11.006145,30.952845,29.664530,7.120817,20.978834,44.606968,14.345786,3.871237,5.798935,15.619860,0.513536,6.349809,10.835444,8.102252,6.762622,13.347551,5.724922,16.397120,43.049301,0.000000,189.000000,4.000000,,,,0.000000,4.000000,4.000000,4.000000,4.000000,4.000000,4.000000,4.000000,4.000000,4.000000,4.000000,4.000000,4.000000,4.000000,4.000000,4.000000,4.000000,4.000000,4.000000,4.000000,4.000000,4.000000,4.000000,4.000000,4.000000,4.000000,4.000000,4.000000,4.000000,4.000000,4.000000,4.000000,4.000000,100.000000
1614412142.906617,1.000000,0.000000,4.441803,10.288596,26.964506,16.149948,-5.726335,8.205332,3.916723,-0.704943,29.407150,2.973537,8.366683,9.369529,13.175949,16.636166,37.588558,37.327171,7.113696,30.188625,44.049541,17.408363,5.405828,7.844419,16.629881,-0.512618,5.830639,11.337430,7.581329,7.781500,13.334204,5.719197,15.867902,42.493431,0.000000,203.000000,4.000000,,,,0.000000,4.000000,4.000000,4.000000,4.000000,4.000000,4.000000,4.000000,4.000000,4.000000,4.000000,4.000000,4.000000,4.000000,4.000000,4.000000,4.000000,4.000000,4.000000,4.000000,4.000000,4.000000,4.000000,4.000000,4.000000,4.000000,4.000000,4.000000,4.000000,4.000000,4.000000,4.000000,4.000000,100.000000
1614412142.914266,2.000000,0.000000,4.437361,10.278308,25.911901,15.108156,-4.182147,8.197126,3.912807,-1.217059,31.429026,5.021846,8.358316,9.872980,13.162773,15.081067,31.909945,19.853947,7.106582,24.004589,37.338825,16.365314,5.913242,9.887856,16.613251,0.000715,6.337629,11.326092,8.086568,7.260898,13.320869,6.739119,15.852034,45.015041,0.000000,193.000000,4.000000,,,,0.000000,4.000000,4.000000,4.000000,4.000000,4.000000,4.000000,4.000000,4.000000,4.000000,4.000000,4.000000,4.000000,4.000000,4.000000,4.000000,4.000000,4.000000,4.000000,4.000000,4.000000,4.000000,4.000000,4.000000,4.000000,4.000000,4.000000,4.000000,4.000000,4.000000,4.000000,4.000000,4.000000,100.000000
1614412142.922015,3.000000,0.000000,4.432924,10.268029,14.091117,14.067407,-6.742067,8.188930,3.908894,-0.703021,31.910418,3.478362,7.837137,9.350286,13.149611,10.963422,29.313932,12.654607,7.099476,17.826738,35.250202,13.784846,0.779124,7.826686,15.570996,4.103278,3.767189,7.212202,8.078482,7.253637,13.820370,-0.447107,15.836182,37.790539,0.000000,181.000000,4.000000,,,,0.000000,4.000000,4.000000,4.000000,4.000000,4.000000,4.000000,4.000000,4.000000,4.000000,4.000000,4.000000,4.000000,4.000000,4.000000,4.000000,4.000000,4.000000,4.000000,4.000000,4.000000,4.000000,4.000000,4.000000,4.000000,4.000000,4.000000,4.000000,4.000000,4.000000,4.000000,4.000000,4.000000,100.000000
1614412142.929664,4.000000,0.000000,3.915671,8.206479,3.820616,12.002058,-11.350710,8.180740,3.904985,-2.240779,31.365686,-5.243065,6.290839,9.340936,11.085179,5.311433,27.233335,17.257336,7.092376,11.655066,18.804697,-1.100734,-10.503707,1.665013,15.555426,-1.029030,-2.903245,3.102426,3.967839,7.246384,12.268087,-8.651789,13.769064,17.239927,0.000000,180.000000,4.000000,,,,0.000000,4.000000,4.000000,4.000000,4.000000,4.000000,4.000000,4.000000,4.000000,4.000000,4.000000,4.000000,4.000000,4.000000,4.000000,4.000000,4.000000,4.000000,4.000000,4.000000,4.000000,4.000000,4.000000,4.000000,4.000000,4.000000,4.000000,4.000000,4.000000,4.000000,4.000000,4.000000,4.000000,100.000000
1614412142.937413,5.000000,0.000000,4.937396,6.659811,5.355257,11.477235,-13.390641,8.172560,3.901080,-4.289821,31.334320,-10.878847,4.233265,9.331595,9.022812,-1.360545,17.975334,10.573412,7.085284,3.438283,-0.188466,-10.330402,-18.185511,-2.439216,16.052691,-15.899796,-5.464445,3.099323,-0.138693,7.239137,10.204537,-9.668777,12.216833,4.402175,0.000000,208.000000,4.000000,,,,0.000000,4.000000,4.000000,4.000000,4.000000,4.000000,4.000000,4.000000,4.000000,4.000000,4.000000,4.000000,4.000000,4.000000,4.000000,4.000000,4.000000,4.000000,4.000000,4.000000,4.000000,4.000000,4.000000,4.000000,4.000000,4.000000,4.000000,4.000000,4.000000,4.000000,4.000000,4.000000,4.000000,100.000000
1614412142.945062,6.000000,0.000000,7.496561,6.653152,8.426825,11.978579,-12.864429,8.164387,3.897179,-3.259890,31.302986,-5.226943,3.716212,9.322264,9.013789,-3.410467,12.829153,-5.847417,7.078198,-0.154899,-1.213919,-7.243149,-17.654505,-2.436777,16.036638,-23.576204,-4.946160,3.609045,1.912728,7.231898,9.168692,-10.684750,12.204617,5.423414,0.000000,194.000000,4.000000,,,,0.000000,4.000000,4.000000,4.000000,4.000000,4.000000,4.000000,4.000000,4.000000,4.000000,4.000000,4.000000,4.000000,4.000000,4.000000,4.000000,4.000000,4.000000,4.000000,4.000000,4.000000,4.000000,4.000000,4.000000,4.000000,4.000000,4.000000,4.000000,4.000000,4.000000,4.000000,4.000000,4.000000,100.000000
1614412142.952812,7.000000,0.000000,8.514706,6.646499,7.392756,11.966599,-12.851565,7.643402,4.406102,-0.692527,31.271683,0.932130,3.712496,9.312942,9.517595,-3.407056,13.841965,-8.918493,7.071120,-3.744488,2.377038,-12.364111,-17.124029,-1.921519,16.020601,-19.450064,-5.454034,2.579794,3.962097,6.711846,9.672343,-7.597142,12.705232,5.417991,0.000000,187.000000,4.000000,,,,0.000000,4.000000,4.000000,4.000000,4.000000,4.000000,4.000000,4.000000,4.000000,4.000000,4.000000,4.000000,4.000000,4.000000,4.000000,4.000000,4.000000,4.000000,4.000000,4.000000,4.000000,4.000000,4.000000,4.000000,4.000000,4.000000,4.000000,4.000000,4.000000,4.000000,4.000000,4.000000,4.000000,100.000000
1614412142.960461,8.000000,0.000000,7.993371,6.639852,6.872543,11.954633,-12.838714,8.148580,3.376055,-1.204656,31.240412,0.418378,3.708783,9.303628,9.508079,-3.403649,14.340943,5.449400,7.064049,-1.689461,2.887482,-16.967131,-19.158188,-2.432418,16.004581,-14.815229,-3.910119,5.654138,3.445314,7.217954,9.662671,4.205327,14.743809,5.412572,0.000000,199.000000,4.000000,,,,0.000000,4.000000,4.000000,4.000000,4.000000,4.000000,4.000000,4.000000,4.000000,4.000000,4.000000,4.000000,4.000000,4.000000,4.000000,4.000000,4.000000,4.000000,4.000000,4.000000,4.000000,4.000000,4.000000,4.000000,4.000000,4.000000,4.000000,4.000000,4.000000,4.000000,4.000000,4.000000,4.000000,100.000000
1614412142.968210,9.000000,0.000000,8.498198,6.633212,7.891312,11.942678,-13.338696,8.140430,0.808576,-1.716271,31.209171,-0.094861,4.217895,9.294325,9.498570,-3.400246,14.326603,10.059335,7.056985,9.081459,18.782030,-6.180933,-16.574926,-2.429986,15.988576,-14.800414,0.196356,10.776689,3.441869,7.723557,9.653008,10.354968,16.267527,8.484083,0.000000,214.000000,4.000000,,,,0.000000,4.000000,4.000000,4.000000,4.000000,4.000000,4.000000,4.000000,4.000000,4.000000,4.000000,4.000000,4.000000,4.000000,4.000000,4.000000,4.000000,4.000000,4.000000,4.000000,4.000000,4.000000,4.000000,4.000000,4.000000,4.000000,4.000000,4.000000,4.000000,4.000000,4.000000,4.000000,4.000000,100.000000
1614412142.975859,10.000000,0.000000,6.951238,6.626579,8.396241,11.930736,-12.299716,7.619470,-0.217873,-1.201735,31.177961,0.418054,3.188036,8.772210,9.489072,-3.396845,13.799456,0.305686,7.049928,10.610839,37.224789,1.517555,-9.378864,0.136547,15.972588,-15.811255,2.760262,11.278732,3.951248,4.638910,9.643355,9.318972,16.251259,7.962779,0.000000,180.000000,4.000000,,,,0.000000,4.000000,4.000000,4.000000,4.000000,4.000000,4.000000,4.000000,4.000000,4.000000,4.000000,4.000000,4.000000,4.000000,4.000000,4.000000,4.000000,4.000000,4.000000,4.000000,4.000000,4.000000,4.000000,4.000000,4.000000,4.000000,4.000000,4.000000,4.000000,4.000000,4.000000,4.000000,4.000000,100.000000
1614412142.983708,11.000000,0.000000,4.380184,6.619952,10.951947,11.918805,-5.620749,9.663133,0.295165,-1.200533,31.146784,0.417636,5.236130,9.789079,9.479583,-0.316525,15.324118,6.972047,7.042878,4.446382,32.572178,-2.586526,-5.266922,2.187692,15.956614,-14.256982,2.244681,10.241813,3.947297,4.121451,9.633712,15.463499,16.235008,6.929174,0.000000,201.000000,4.000000,,,,0.000000,4.000000,4.000000,4.000000,4.000000,4.000000,4.000000,4.000000,4.000000,4.000000,4.000000,4.000000,4.000000,4.000000,4.000000,4.000000,4.000000,4.000000,4.000000,4.000000,4.000000,4.000000,4.000000,4.000000,4.000000,4.000000,4.000000,4.000000,4.000000,4.000000,4.000000,4.000000,4.000000,100.000000
1614412142.991457,12.000000,0.000000,3.862983,6.613332,11.453815,11.906886,1.564358,14.268854,0.294870,-1.199332,31.115637,4.006962,9.846278,12.343392,9.470103,3.786355,21.975460,26.965075,7.035835,4.954756,18.180632,-4.122401,-6.287296,1.672684,15.940659,-9.627340,1.216795,11.770033,6.507452,8.732714,9.624079,22.114702,16.218773,11.024810,0.000000,212.000000,4.000000,,,,0.000000,4.000000,4.000000,4.000000,4.000000,4.000000,4.000000,4.000000,4.000000,4.000000,4.000000,4.000000,4.000000,4.000000,4.000000,4.000000,4.000000,4.000000,4.000000,4.000000,4.000000,4.000000,4.000000,4.000000,4.000000,4.000000,4.000000,4.000000,4.000000,4.000000,4.000000,4.000000,4.000000,100.000000
1614412142.999106,13.000000,0.000000,4.371941,6.606719,10.929542,11.894979,3.101256,15.793047,0.294575,-1.198133,31.084522,7.592699,12.400535,11.305408,9.460632,4.808210,26.568869,29.502213,7.028800,9.052365,23.803476,-2.066997,-5.768188,1.671011,15.924718,-7.053610,4.292502,13.809545,10.603508,9.749622,9.614454,20.041306,16.202555,14.090708,0.000000,184.000000,4.000000,,,,0.000000,4.000000,4.000000,4.000000,4.000000,4.000000,4.000000,4.000000,4.000000,4.000000,4.000000,4.000000,4.000000,4.000000,4.000000,4.000000,4.000000,4.000000,4.000000,4.000000,4.000000,4.000000,4.000000,4.000000,4.000000,4.000000,4.000000,4.000000,4.000000,4.000000,4.000000,4.000000,4.000000,100.000000
1614412143.006855,14.000000,0.000000,4.367569,6.600112,11.431433,11.883084,2.072513,15.264433,0.294280,-1.196935,31.053436,8.097926,11.362494,10.268461,9.451172,4.290581,26.029480,22.806044,7.021771,9.556134,39.677109,-2.577750,-2.685497,1.669340,15.908792,-7.046556,10.954876,14.821376,11.618546,7.175770,9.604840,21.046906,16.186352,13.563797,0.000000,215.000000,4.000000,,,,0.000000,4.000000,4.000000,4.000000,4.000000,4.000000,4.000000,4.000000,4.000000,4.000000,4.000000,4.000000,4.000000,4.000000,4.000000,4.000000,4.000000,4.000000,4.000000,4.000000,4.000000,4.000000,4.000000,4.000000,4.000000,4.000000,4.000000,4.000000,4.000000,4.000000,4.000000,4.000000,4.000000,100.000000
1614412143.014504,15.000000,0.000000,4.363201,6.593512,11.420001,11.871202,2.583261,15.249168,0.293986,-0.682917,31.022383,8.089828,11.863951,11.283834,9.954541,4.799111,26.003450,23.296059,7.527570,7.495296,41.688713,-2.575172,-2.169991,1.667671,15.892884,-7.552330,14.533665,14.293735,11.094107,7.168594,9.595235,24.615602,16.170166,13.550233,0.000000,189.000000,4.000000,,,,0.000000,4.000000,4.000000,4.000000,4.000000,4.000000,4.000000,4.000000,4.000000,4.000000,4.000000,4.000000,4.000000,4.000000,4.000000,4.000000,4.000000,4.000000,4.000000,4.000000,4.000000,4.000000,4.000000,4.000000,4.000000,4.000000,4.000000,4.000000,4.000000,4.000000,4.000000,4.000000,4.000000,100.000000
1614412143.022254,16.000000,0.000000,4.871658,6.586919,10.382940,11.859330,2.580678,15.233919,0.293692,-1.195055,30.991362,8.081738,12.364908,10.759729,9.431767,4.794312,25.977448,16.093275,7.007222,7.487800,34.980358,-3.598238,-2.167821,1.666003,15.876991,-7.031958,12.980669,14.279440,11.083013,6.135785,9.585640,18.949961,16.153996,13.023862,0.000000,185.000000,4.000000,,,,0.000000,4.000000,4.000000,4.000000,4.000000,4.000000,4.000000,4.000000,4.000000,4.000000,4.000000,4.000000,4.000000,4.000000,4.000000,4.000000,4.000000,4.000000,4.000000,4.000000,4.000000,4.000000,4.000000,4.000000,4.000000,4.000000,4.000000,4.000000,4.000000,4.000000,4.000000,4.000000,4.000000,100.000000
1614412143.029903,17.000000,0.000000,4.353966,6.580332,12.936660,11.847471,2.578097,15.218685,0.293398,-0.681039,30.960369,7.560836,11.326901,9.210508,9.422335,4.789518,24.925829,7.359233,7.000214,9.531594,30.842813,-3.594640,-2.678473,1.664337,16.373934,-7.537746,12.967689,14.265161,11.584750,3.565546,9.576055,13.802806,16.137840,13.523659,0.000000,198.000000,4.000000,,,,0.000000,4.000000,4.000000,4.000000,4.000000,4.000000,4.000000,4.000000,4.000000,4.000000,4.000000,4.000000,4.000000,4.000000,4.000000,4.000000,4.000000,4.000000,4.000000,4.000000,4.000000,4.000000,4.000000,4.000000,4.000000,4.000000,4.000000,4.000000,4.000000,4.000000,4.000000,4.000000,4.000000,100.000000
1614412143.037652,18.000000,0.000000,4.862433,6.573751,19.077570,11.322803,2.062699,15.203466,0.293105,-0.680358,31.442230,8.578917,11.828396,8.175656,9.925733,4.271908,26.952185,15.044181,8.018855,3.881037,18.504278,-1.539763,-4.214257,1.662673,14.819099,-7.530209,13.467542,14.250896,11.060345,3.049160,9.566478,17.378746,15.608883,15.048596,0.000000,202.000000,4.000000,,,,0.000000,4.000000,4.000000,4.000000,4.000000,4.000000,4.000000,4.000000,4.000000,4.000000,4.000000,4.000000,4.000000,4.000000,4.000000,4.000000,4.000000,4.000000,4.000000,4.000000,4.000000,4.000000,4.000000,4.000000,4.000000,4.000000,4.000000,4.000000,4.000000,4.000000,4.000000,4.000000,4.000000,100.000000
1614412143.045301,19.000000,0.000000,4.344750,6.567178,23.161057,11.311480,0.009354,15.188263,0.292812,-4.269422,29.359505,6.006235,11.816567,4.577737,6.326064,1.190713,23.335489,15.541958,4.421093,-10.994638,3.613979,-7.179249,-5.748504,1.661010,12.752998,-7.522678,11.402792,14.236645,11.049285,3.558932,9.556911,18.387009,15.593274,15.546369,0.000000,168.000000,4.000000,,,,0.000000,4.000000,4.000000,4.000000,4.000000,4.000000,4.000000,4.000000,4.000000,4.000000,4.000000,4.000000,4.000000,4.000000,4.000000,4.000000,4.000000,4.000000,4.000000,4.000000,4.000000,4.000000,4.000000,4.000000,4.000000,4.000000,4.000000,4.000000,4.000000,4.000000,4.000000,4.000000,4.000000,100.000000
1614412143.053050,20.000000,0.000000,0.237841,6.560611,21.599434,11.812989,-1.529117,15.173075,0.292519,-8.880537,26.766043,-1.692079,6.676545,2.009057,2.217173,-1.887401,11.517282,-1.396661,-2.762816,-13.547747,8.225750,-16.915659,-6.768396,2.172170,12.227425,-7.515155,9.340107,14.222408,11.551056,3.555373,9.547355,13.240417,18.141783,18.607746,0.000000,203.000000,4.000000,,,,0.000000,4.000000,4.000000,4.000000,4.000000,4.000000,4.000000,4.000000,4.000000,4.000000,4.000000,4.000000,4.000000,4.000000,4.000000,4.000000,4.000000,4.000000,4.000000,4.000000,4.000000,4.000000,4.000000,4.000000,4.000000,4.000000,4.000000,4.000000,4.000000,4.000000,4.000000,4.000000,4.000000,100.000000
1614412143.060699,21.000000,0.000000,-3.352140,6.554050,21.065014,10.775535,-1.527588,15.157902,0.292227,-8.871656,28.790560,-6.305771,0.516023,2.007048,1.702136,-2.398334,6.890380,-8.574752,-4.811335,-0.713686,21.038036,-15.360283,-6.248807,1.657177,11.189556,-7.507640,9.843588,14.208186,10.001043,3.551817,9.024987,11.688714,19.662104,25.255804,0.000000,181.000000,4.000000,,,,0.000000,4.000000,4.000000,4.000000,4.000000,4.000000,4.000000,4.000000,4.000000,4.000000,4.000000,4.000000,4.000000,4.000000,4.000000,4.000000,4.000000,4.000000,4.000000,4.000000,4.000000,4.000000,4.000000,4.000000,4.000000,4.000000,4.000000,4.000000,4.000000,4.000000,4.000000,4.000000,4.000000,100.000000
1614412143.068448,22.000000,0.000000,-3.348788,6.547496,27.710615,12.303221,-1.526060,15.142744,0.291934,-8.349964,31.325872,-4.248184,-0.510134,1.492221,2.213254,-3.934397,12.524515,1.690233,-3.780883,5.440874,25.632383,-4.575692,-2.139995,2.168340,9.127085,-7.500133,11.885026,14.193977,7.426939,3.035445,10.041603,12.702666,18.616800,28.307472,0.000000,221.000000,4.000000,,,,0.000000,4.000000,4.000000,4.000000,4.000000,4.000000,4.000000,4.000000,4.000000,4.000000,4.000000,4.000000,4.000000,4.000000,4.000000,4.000000,4.000000,4.000000,4.000000,4.000000,4.000000,4.000000,4.000000,4.000000,4.000000,4.000000,4.000000,4.000000,4.000000,4.000000,4.000000,4.000000,4.000000,100.000000
1614412143.076098,23.000000,0.000000,-2.832619,6.540948,35.888031,18.957584,-1.524534,15.127602,0.291642,-8.854435,30.781725,-2.705474,0.516017,2.516369,2.723861,-1.366361,15.588914,8.868030,-3.777102,5.435433,28.683674,-1.494193,0.426248,2.166172,8.092317,-7.492632,13.411603,14.692604,7.419513,4.058051,12.595664,12.689964,20.136644,29.304806,0.000000,199.000000,4.000000,,,,0.000000,4.000000,4.000000,4.000000,4.000000,4.000000,4.000000,4.000000,4.000000,4.000000,4.000000,4.000000,4.000000,4.000000,4.000000,4.000000,4.000000,4.000000,4.000000,4.000000,4.000000,4.000000,4.000000,4.000000,4.000000,4.000000,4.000000,4.000000,4.000000,4.000000,4.000000,4.000000,4.000000,100.000000
1614412143.083847,24.000000,0.000000,-3.342607,6.534408,37.390606,23.554012,-1.523010,15.112473,0.291351,-8.845580,30.750944,-3.215589,0.515501,4.565135,4.772419,3.763211,13.522042,7.833521,-4.286145,7.994100,15.321657,-4.056801,-5.215204,-0.912917,8.597045,-7.485140,12.885370,12.626630,7.412093,6.618095,13.608709,13.190095,25.244713,33.890884,0.000000,194.000000,4.000000,,,,0.000000,4.000000,4.000000,4.000000,4.000000,4.000000,4.000000,4.000000,4.000000,4.000000,4.000000,4.000000,4.000000,4.000000,4.000000,4.000000,4.000000,4.000000,4.000000,4.000000,4.000000,4.000000,4.000000,4.000000,4.000000,4.000000,4.000000,4.000000,4.000000,4.000000,4.000000,4.000000,4.000000,100.000000
1614412143.091496,25.000000,0.000000,-2.826444,6.015052,35.814754,21.479176,-1.008666,15.097362,0.291059,-8.323915,31.233013,-5.263655,0.514985,1.996467,6.306108,-0.343116,14.021341,4.748765,-3.769038,4.909183,-5.719306,-2.514283,-10.338194,-5.527389,8.588448,-7.477655,5.692998,10.562721,4.840579,7.637118,13.082280,9.587161,27.783571,34.882633,0.000000,204.000000,4.000000,,,,0.000000,4.000000,4.000000,4.000000,4.000000,4.000000,4.000000,4.000000,4.000000,4.000000,4.000000,4.000000,4.000000,4.000000,4.000000,4.000000,4.000000,4.000000,4.000000,4.000000,4.000000,4.000000,4.000000,4.000000,4.000000,4.000000,4.000000,4.000000,4.000000,4.000000,4.000000,4.000000,4.000000,100.000000
1614412143.099245,26.000000,0.000000,-2.823617,7.034678,36.804581,18.893593,-1.007657,15.082264,0.290768,-8.315590,31.201780,-9.360956,0.514470,-2.108093,5.786982,-9.573543,15.032961,1.154272,-3.765269,1.827351,7.106926,-1.998948,-9.815035,-6.034682,8.579859,-7.470177,-3.030644,11.064979,3.810097,7.629481,13.582018,4.962189,26.217325,31.770830,0.000000,203.000000,4.000000,,,,0.000000,4.000000,4.000000,4.000000,4.000000,4.000000,4.000000,4.000000,4.000000,4.000000,4.000000,4.000000,4.000000,4.000000,4.000000,4.000000,4.000000,4.000000,4.000000,4.000000,4.000000,4.000000,4.000000,4.000000,4.000000,4.000000,4.000000,4.000000,4.000000,4.000000,4.000000,4.000000,4.000000,100.000000
1614412143.106894,27.000000,0.000000,-2.820794,8.566105,37.793415,18.874701,-2.545111,14.554361,0.290478,-8.307275,30.657757,-10.890057,0.513956,-2.105985,5.781195,-11.102430,15.017928,0.640297,-2.735863,3.876805,26.074179,-4.048231,-9.292399,-5.003006,8.571280,-7.462707,0.049310,10.028273,3.806287,7.621851,13.055615,9.059791,26.703928,33.790340,0.000000,192.000000,4.000000,,,,0.000000,4.000000,4.000000,4.000000,4.000000,4.000000,4.000000,4.000000,4.000000,4.000000,4.000000,4.000000,4.000000,4.000000,4.000000,4.000000,4.000000,4.000000,4.000000,4.000000,4.000000,4.000000,4.000000,4.000000,4.000000,4.000000,4.000000,4.000000,4.000000,4.000000,4.000000,4.000000,4.000000,100.000000
1614412143.114643,28.000000,0.000000,-2.817973,10.096001,39.294086,19.368647,-1.004105,15.052628,0.290187,-8.298967,30.627100,-10.366345,1.539083,-1.078238,4.236952,-10.065687,13.977269,1.152478,-4.784409,-6.383482,2.971181,-7.121106,-10.821568,-6.023644,8.562708,-7.455244,8.767209,10.531065,1.238378,6.588589,13.555381,16.743038,30.266968,40.936039,0.000000,180.000000,4.000000,,,,0.000000,4.000000,4.000000,4.000000,4.000000,4.000000,4.000000,4.000000,4.000000,4.000000,4.000000,4.000000,4.000000,4.000000,4.000000,4.000000,4.000000,4.000000,4.000000,4.000000,4.000000,4.000000,4.000000,4.000000,4.000000,4.000000,4.000000,4.000000,4.000000,4.000000,4.000000,4.000000,4.000000,100.000000
1614412143.122292,29.000000,0.000000,-2.815155,11.111546,40.280430,18.836456,-1.515921,14.524755,0.289897,-8.803489,31.109293,-10.355979,-1.539379,-2.102801,2.181433,-10.568441,13.963291,-1.925598,-7.343728,-18.171970,-8.313841,-8.139626,-10.297927,-6.017621,8.554145,-7.447789,4.143057,14.110277,-0.301322,7.607641,13.541825,15.187835,29.211060,43.459206,0.000000,181.000000,4.000000,,,,0.000000,4.000000,4.000000,4.000000,4.000000,4.000000,4.000000,4.000000,4.000000,4.000000,4.000000,4.000000,4.000000,4.000000,4.000000,4.000000,4.000000,4.000000,4.000000,4.000000,4.000000,4.000000,4.000000,4.000000,4.000000,4.000000,4.000000,4.000000,4.000000,4.000000,4.000000,4.000000,4.000000,100.000000
1614412143.130041,30.000000,0.000000,-2.812340,8.536332,34.599125,16.253517,-10.745174,9.382025,0.802428,-8.281865,29.026901,-10.858444,-6.153224,-1.587878,1.666431,-10.045053,15.487790,-4.487775,-6.823563,-10.461491,20.925241,-5.567384,-9.774808,-4.985962,8.545591,-7.440341,-5.604675,11.019244,0.724620,8.625674,9.425719,4.916236,24.053644,35.210617,0.000000,203.000000,4.000000,,,,0.000000,4.000000,4.000000,4.000000,4.000000,4.000000,4.000000,4.000000,4.000000,4.000000,4.000000,4.000000,4.000000,4.000000,4.000000,4.000000,4.000000,4.000000,4.000000,4.000000,4.000000,4.000000,4.000000,4.000000,4.000000,4.000000,4.000000,4.000000,4.000000,4.000000,4.000000,4.000000,4.000000,100.000000
1614412143.137691,31.000000,0.000000,-2.809527,5.963693,33.026066,14.185982,-16.375454,7.321360,-1.249657,-8.786404,24.382490,-10.847586,-7.172712,-1.586290,1.664765,-15.163213,10.856917,-2.432005,-8.868022,-12.502311,14.237650,-8.638740,-13.867598,-7.545079,8.537045,-7.432901,-6.111891,1.777456,-1.840207,1.950382,5.313729,-2.268167,24.029591,30.047201,0.000000,162.000000,4.000000,,,,0.000000,4.000000,4.000000,4.000000,4.000000,4.000000,4.000000,4.000000,4.000000,4.000000,4.000000,4.000000,4.000000,4.000000,4.000000,4.000000,4.000000,4.000000,4.000000,4.000000,4.000000,4.000000,4.000000,4.000000,4.000000,4.000000,4.000000,4.000000,4.000000,4.000000,4.000000,4.000000,4.000000,100.000000
1614412143.145440,32.000000,0.000000,-2.806718,11.085935,46.326370,15.710258,-7.128310,13.980705,-3.812510,-8.777617,22.306826,-9.811097,-7.165540,-1.584703,2.175920,-17.712152,3.153753,-3.455214,-14.500179,-32.489807,-18.084280,-16.835228,-18.469114,-8.563174,8.015688,-9.989571,-4.567318,-0.275604,-2.864007,-2.666953,4.795595,-2.265899,30.672228,40.273563,8064.000000,0.000000,4.000000,,,,0.000000,4.000000,4.000000,4.000000,4.000000,4.000000,4.000000,4.000000,4.000000,4.000000,4.000000,4.000000,4.000000,4.000000,4.000000,4.000000,4.000000,4.000000,4.000000,4.000000,4.000000,4.000000,4.000000,4.000000,4.000000,4.000000,4.000000,4.000000,4.000000,4.000000,4.000000,4.000000,4.000000,100.000000
1614412143.153089,33.000000,0.000000,-2.803911,17.741514,58.587738,18.258650,2.622408,19.607750,-3.808697,-5.691916,22.797340,-5.698722,-6.645554,-1.583119,4.225027,-6.412389,7.253163,-4.477400,-9.357474,-25.790651,-8.322606,-12.203009,-10.245517,-4.452047,8.520493,-12.543684,-5.075571,3.827236,1.241421,3.489560,5.816441,-0.725172,34.231300,48.951241,8064.000000,0.000000,4.000000,,,,0.000000,4.000000,4.000000,4.000000,4.000000,4.000000,4.000000,4.000000,4.000000,4.000000,4.000000,4.000000,4.000000,4.000000,4.000000,4.000000,4.000000,4.000000,4.000000,4.000000,4.000000,4.000000,4.000000,4.000000,4.000000,4.000000,4.000000,4.000000,4.000000,4.000000,4.000000,4.000000,4.000000,100.000000
1614412143.160838,34.000000,0.000000,-2.801107,14.134030,58.016331,18.753212,2.619786,18.562502,-3.292068,-1.583660,24.313004,-2.616100,-6.638908,-1.581536,6.272084,5.388896,19.040781,8.347590,3.985217,5.004369,24.506229,5.757912,4.636523,-0.857852,9.024793,-8.941397,0.570530,3.823409,4.829923,7.075814,4.784983,-3.288549,33.171425,44.799725,8064.000000,0.000000,4.000000,,,,0.000000,4.000000,4.000000,4.000000,4.000000,4.000000,4.000000,4.000000,4.000000,4.000000,4.000000,4.000000,4.000000,4.000000,4.000000,4.000000,4.000000,4.000000,4.000000,4.000000,4.000000,4.000000,4.000000,4.000000,4.000000,4.000000,4.000000,4.000000,4.000000,4.000000,4.000000,4.000000,4.000000,100.000000
1614412143.168487,35.000000,0.000000,-3.311126,9.504511,56.932671,18.734459,1.078704,18.031118,-3.801596,-0.556436,26.339973,-3.126304,-7.657910,-1.579954,8.317094,5.383506,23.124306,21.159756,8.083796,15.255775,33.199673,11.393180,2.580605,-1.882635,7.990127,-2.265788,6.210985,2.281124,3.799452,3.991815,5.805839,-1.746799,33.138256,46.293385,8064.000000,0.000000,4.000000,,,,0.000000,4.000000,4.000000,4.000000,4.000000,4.000000,4.000000,4.000000,4.000000,4.000000,4.000000,4.000000,4.000000,4.000000,4.000000,4.000000,4.000000,4.000000,4.000000,4.000000,4.000000,4.000000,4.000000,4.000000,4.000000,4.000000,4.000000,4.000000,4.000000,4.000000,4.000000,4.000000,4.000000,100.000000
1614412143.176236,36.000000,0.000000,-2.794995,12.571930,57.901382,18.202904,2.616087,19.038729,-3.284974,-1.068700,26.313633,-3.123178,-5.598970,-2.091195,9.847239,3.839661,21.049898,12.933468,3.973148,6.009750,21.371601,-0.413085,-10.755309,-1.880752,8.494957,0.813401,4.666313,3.304483,3.282832,4.500644,10.415418,4.921615,34.130756,51.375298,8064.000000,0.000000,4.000000,,,,0.000000,4.000000,4.000000,4.000000,4.000000,4.000000,4.000000,4.000000,4.000000,4.000000,4.000000,4.000000,4.000000,4.000000,4.000000,4.000000,4.000000,4.000000,4.000000,4.000000,4.000000,4.000000,4.000000,4.000000,4.000000,4.000000,4.000000,4.000000,4.000000,4.000000,4.000000,4.000000,4.000000,100.000000
1614412143.183885,37.000000,0.000000,-0.740918,14.610640,53.228096,19.210342,2.613471,19.019690,0.820875,-1.067631,26.800140,-0.555952,1.073295,-1.063462,9.324571,5.374283,21.541670,4.715406,3.456354,3.952458,22.375870,-3.489595,-12.795836,-1.878872,13.614668,-0.213054,3.123185,3.813999,4.305190,8.085887,13.481926,3.891052,33.583805,45.682896,8064.000000,0.000000,4.000000,,,,0.000000,4.000000,4.000000,4.000000,4.000000,4.000000,4.000000,4.000000,4.000000,4.000000,4.000000,4.000000,4.000000,4.000000,4.000000,4.000000,4.000000,4.000000,4.000000,4.000000,4.000000,4.000000,4.000000,4.000000,4.000000,4.000000,4.000000,4.000000,4.000000,4.000000,4.000000,4.000000,4.000000,100.000000
1614412143.191634,38.000000,0.000000,1.311105,13.057568,49.585125,21.242414,2.098037,19.000669,3.896977,-0.553743,29.337442,0.983065,5.174786,1.501704,9.315246,5.368909,23.058590,15.992742,4.478539,12.666454,31.584263,6.257484,-5.603553,-1.364172,15.652335,-0.212841,3.120062,3.297365,4.300885,7.564981,13.468444,-5.856429,34.063042,44.098751,8064.000000,0.000000,4.000000,,,,0.000000,4.000000,4.000000,4.000000,4.000000,4.000000,4.000000,4.000000,4.000000,4.000000,4.000000,4.000000,4.000000,4.000000,4.000000,4.000000,4.000000,4.000000,4.000000,4.000000,4.000000,4.000000,4.000000,4.000000,4.000000,4.000000,4.000000,4.000000,4.000000,4.000000,4.000000,4.000000,4.000000,100.000000
1614412143.199284,39.000000,0.000000,0.796973,13.044510,50.048359,22.759632,2.095939,17.956028,4.405900,-0.553189,30.333746,0.982082,4.656791,2.525843,9.305930,4.337899,21.497068,17.002390,3.961240,11.628147,23.347551,0.610201,-5.085129,-1.875628,13.072580,0.813013,2.091301,3.294068,3.783763,6.531775,12.942155,-8.927495,33.516159,50.721321,8192.000000,0.000000,4.000000,,,,0.000000,4.000000,4.000000,4.000000,4.000000,4.000000,4.000000,4.000000,4.000000,4.000000,4.000000,4.000000,4.000000,4.000000,4.000000,4.000000,4.000000,4.000000,4.000000,4.000000,4.000000,4.000000,4.000000,4.000000,4.000000,4.000000,4.000000,4.000000,4.000000,4.000000,4.000000,4.000000,4.000000,100.000000
1614412143.207033,40.000000,0.000000,0.796176,13.544286,48.459850,22.224052,2.093843,18.450893,3.888674,-1.065457,30.816233,0.468280,4.139314,2.010497,9.296625,4.333561,17.885828,5.190516,2.931638,-0.691173,-0.265540,-16.826307,-6.618505,-3.412215,12.033866,0.299380,3.627671,5.342056,3.267159,7.038063,13.442033,-5.841645,32.969822,51.183418,8064.000000,0.000000,4.000000,,,,0.000000,4.000000,4.000000,4.000000,4.000000,4.000000,4.000000,4.000000,4.000000,4.000000,4.000000,4.000000,4.000000,4.000000,4.000000,4.000000,4.000000,4.000000,4.000000,4.000000,4.000000,4.000000,4.000000,4.000000,4.000000,4.000000,4.000000,4.000000,4.000000,4.000000,4.000000,4.000000,4.000000,100.000000
1614412143.214682,41.000000,0.000000,0.795380,13.530742,46.872929,22.201828,2.091749,21.509365,4.397606,-0.038750,33.862339,1.493452,5.160815,2.008486,9.287328,4.842048,18.380764,6.210966,3.441526,-0.690482,-3.855018,-12.706917,-5.586246,-3.408802,11.509012,-0.213740,1.572761,7.387996,4.289533,7.031025,12.915771,-11.476829,33.962494,50.106594,8064.000000,0.000000,4.000000,,,,0.000000,4.000000,4.000000,4.000000,4.000000,4.000000,4.000000,4.000000,4.000000,4.000000,4.000000,4.000000,4.000000,4.000000,4.000000,4.000000,4.000000,4.000000,4.000000,4.000000,4.000000,4.000000,4.000000,4.000000,4.000000,4.000000,4.000000,4.000000,4.000000,4.000000,4.000000,4.000000,4.000000,100.000000
1614412143.222531,42.000000,0.000000,0.794585,14.030031,45.287594,22.179626,2.089657,20.975035,3.880388,-1.064352,32.290016,0.466318,4.130013,2.006478,9.278041,2.273103,16.311100,1.589371,3.950905,1.874311,12.046272,-0.386517,-10.196044,-2.379752,8.420580,0.812114,-12.787786,7.380608,3.259603,7.023994,12.902855,-19.670481,32.902889,45.441105,8064.000000,0.000000,4.000000,,,,0.000000,4.000000,4.000000,4.000000,4.000000,4.000000,4.000000,4.000000,4.000000,4.000000,4.000000,4.000000,4.000000,4.000000,4.000000,4.000000,4.000000,4.000000,4.000000,4.000000,4.000000,4.000000,4.000000,4.000000,4.000000,4.000000,4.000000,4.000000,4.000000,4.000000,4.000000,4.000000,4.000000,100.000000
1614412143.230280,43.000000,0.000000,0.793790,12.990360,41.139740,22.157448,1.574747,15.313035,3.876507,-7.217134,27.129520,-2.611072,1.561781,2.004471,9.268763,-1.831734,7.576840,-20.463501,1.382852,-18.640385,3.829098,-9.104079,-18.903797,-3.915834,8.412159,-1.239980,-25.595510,7.373227,-0.333401,7.016970,13.402773,-21.189272,26.203321,32.062328,8064.000000,0.000000,4.000000,,,,0.000000,4.000000,4.000000,4.000000,4.000000,4.000000,4.000000,4.000000,4.000000,4.000000,4.000000,4.000000,4.000000,4.000000,4.000000,4.000000,4.000000,4.000000,4.000000,4.000000,4.000000,4.000000,4.000000,4.000000,4.000000,4.000000,4.000000,4.000000,4.000000,4.000000,4.000000,4.000000,4.000000,100.000000
1614412143.238129,44.000000,0.000000,0.792997,13.490191,38.021679,21.622469,2.598814,13.759260,3.872631,-12.338122,28.128033,-3.634102,0.021758,2.002467,9.259494,-3.368364,2.953879,-19.417397,-0.156992,-33.493538,-15.661910,-18.838566,-21.448996,-5.963201,8.403748,-7.392586,-21.467352,7.365854,1.205394,7.522774,12.876549,-19.116800,21.561733,25.876421,8064.000000,0.000000,4.000000,,,,0.000000,4.000000,4.000000,4.000000,4.000000,4.000000,4.000000,4.000000,4.000000,4.000000,4.000000,4.000000,4.000000,4.000000,4.000000,4.000000,4.000000,4.000000,4.000000,4.000000,4.000000,4.000000,4.000000,4.000000,4.000000,4.000000,4.000000,4.000000,4.000000,4.000000,4.000000,4.000000,4.000000,100.000000
1614412143.245878,45.000000,0.000000,0.792204,19.117725,40.547760,22.113667,4.647497,16.309603,3.868758,-12.325784,33.228107,-2.604826,0.534556,2.000464,9.250235,-2.852175,8.079130,1.627662,-0.156835,-13.972865,-6.415479,-12.153060,-18.863443,-5.444417,3.779959,-11.487758,-13.240756,7.358488,6.845214,7.515251,12.863672,-16.533581,23.591454,31.491570,8064.000000,0.000000,4.000000,,,,0.000000,4.000000,4.000000,4.000000,4.000000,4.000000,4.000000,4.000000,4.000000,4.000000,4.000000,4.000000,4.000000,4.000000,4.000000,4.000000,4.000000,4.000000,4.000000,4.000000,4.000000,4.000000,4.000000,4.000000,4.000000,4.000000,4.000000,4.000000,4.000000,4.000000,4.000000,4.000000,4.000000,100.000000
1614412143.253727,46.000000,0.000000,0.791411,20.124250,42.558495,22.091553,5.668490,18.344576,3.864889,-12.313458,34.220524,-6.704786,0.534022,1.998464,9.240984,-2.849323,11.147974,4.190137,-1.182320,4.502646,15.642219,-8.038342,-16.280478,-5.438972,0.186435,-10.963449,-12.201874,7.351130,6.325549,6.994915,13.363629,-12.414483,26.644785,34.537003,8064.000000,0.000000,4.000000,,,,0.000000,4.000000,4.000000,4.000000,4.000000,4.000000,4.000000,4.000000,4.000000,4.000000,4.000000,4.000000,4.000000,4.000000,4.000000,4.000000,4.000000,4.000000,4.000000,4.000000,4.000000,4.000000,4.000000,4.000000,4.000000,4.000000,4.000000,4.000000,4.000000,4.000000,4.000000,4.000000,4.000000,100.000000
1614412143.261476,47.000000,0.000000,0.790620,12.924638,42.003113,20.531000,5.662822,18.326231,3.861025,-11.788324,33.160660,-9.775004,0.533488,1.996465,9.231743,-3.359294,10.111185,1.621844,-3.745240,6.036605,28.447088,-10.594407,-14.212915,-5.433533,0.699069,-10.952486,-12.702493,4.779675,1.191018,7.500741,12.837445,-13.427710,24.566858,33.989643,8064.000000,0.000000,4.000000,,,,0.000000,4.000000,4.000000,4.000000,4.000000,4.000000,4.000000,4.000000,4.000000,4.000000,4.000000,4.000000,4.000000,4.000000,4.000000,4.000000,4.000000,4.000000,4.000000,4.000000,4.000000,4.000000,4.000000,4.000000,4.000000,4.000000,4.000000,4.000000,4.000000,4.000000,4.000000,4.000000,4.000000,100.000000
1614412143.269125,48.000000,0.000000,0.789829,8.809150,41.961113,17.946367,5.144339,17.795084,3.857163,-9.212434,33.640320,-5.662665,0.532954,1.994469,9.222511,-2.843114,10.101074,10.338171,-4.254315,7.569030,35.085308,-10.583813,-13.173061,-5.428100,1.211191,-10.941533,-12.176970,-0.353309,-0.348634,6.980420,8.722044,-18.542486,19.414087,25.237705,8064.000000,0.000000,4.000000,,,,0.000000,4.000000,4.000000,4.000000,4.000000,4.000000,4.000000,4.000000,4.000000,4.000000,4.000000,4.000000,4.000000,4.000000,4.000000,4.000000,4.000000,4.000000,4.000000,4.000000,4.000000,4.000000,4.000000,4.000000,4.000000,4.000000,4.000000,4.000000,4.000000,4.000000,4.000000,4.000000,4.000000,100.000000
1614412143.276874,49.000000,0.000000,0.789039,9.825981,42.431973,19.466883,6.677656,18.802931,3.853306,-8.690400,34.119499,-2.580079,0.532421,1.992474,9.213289,-2.840271,11.116614,10.840653,-3.737240,2.946076,26.845095,-10.573229,-12.647068,-7.473954,0.697159,-10.930592,-11.651972,-3.942699,0.677355,2.870875,5.123578,-18.011124,17.856211,12.904775,8064.000000,0.000000,4.000000,,,,0.000000,4.000000,4.000000,4.000000,4.000000,4.000000,4.000000,4.000000,4.000000,4.000000,4.000000,4.000000,4.000000,4.000000,4.000000,4.000000,4.000000,4.000000,4.000000,4.000000,4.000000,4.000000,4.000000,4.000000,4.000000,4.000000,4.000000,4.000000,4.000000,4.000000,4.000000,4.000000,4.000000,100.000000
1614412143.284524,50.000000,0.000000,0.788250,9.816155,41.876717,22.011518,10.773542,20.835409,3.849453,-7.143249,33.572559,-2.577499,0.531889,1.990482,9.204076,-2.837430,10.079856,4.163146,-4.246324,-4.749177,8.869532,-10.049835,-13.147242,-9.004941,0.696462,-12.458122,-9.589038,-4.964398,0.163857,-0.721739,5.118454,-12.864907,19.376816,21.609819,8064.000000,0.000000,4.000000,,,,0.000000,4.000000,4.000000,4.000000,4.000000,4.000000,4.000000,4.000000,4.000000,4.000000,4.000000,4.000000,4.000000,4.000000,4.000000,4.000000,4.000000,4.000000,4.000000,4.000000,4.000000,4.000000,4.000000,4.000000,4.000000,4.000000,4.000000,4.000000,4.000000,4.000000,4.000000,4.000000,4.000000,100.000000
1614412143.292273,51.000000,0.000000,0.787462,9.293519,42.347660,21.989506,13.326871,22.353035,3.845604,-4.572002,33.538986,-1.036460,0.531357,0.962850,8.682051,-3.347414,11.095418,5.184624,-4.242077,-2.180326,7.835021,-9.014144,-12.621274,-8.995936,0.695765,-14.496946,-5.476885,-0.856869,-0.349127,-0.721018,5.626157,-11.826402,21.408722,39.536926,8064.000000,0.000000,4.000000,,,,0.000000,4.000000,4.000000,4.000000,4.000000,4.000000,4.000000,4.000000,4.000000,4.000000,4.000000,4.000000,4.000000,4.000000,4.000000,4.000000,4.000000,4.000000,4.000000,4.000000,4.000000,4.000000,4.000000,4.000000,4.000000,4.000000,4.000000,4.000000,4.000000,4.000000,4.000000,4.000000,4.000000,100.000000
1614412143.299922,52.000000,0.000000,0.786675,9.284225,42.818134,21.967516,12.800724,21.817862,3.841758,-9.182816,33.505447,1.015859,0.530826,1.987528,9.186190,-3.344066,14.161245,8.769183,-3.725015,0.898778,11.929750,-12.082053,-13.121473,-8.986940,1.207890,-14.482450,-4.445767,4.785013,0.164043,-0.207476,5.107710,-12.840217,22.412954,35.907646,8064.000000,0.000000,4.000000,,,,0.000000,4.000000,4.000000,4.000000,4.000000,4.000000,4.000000,4.000000,4.000000,4.000000,4.000000,4.000000,4.000000,4.000000,4.000000,4.000000,4.000000,4.000000,4.000000,4.000000,4.000000,4.000000,4.000000,4.000000,4.000000,4.000000,4.000000,4.000000,4.000000,4.000000,4.000000,4.000000,4.000000,100.000000
1614412143.307671,53.000000,0.000000,0.785888,9.787762,41.236855,22.458370,13.300743,21.796043,3.837916,-15.327478,33.471943,0.502022,0.017474,3.011182,9.177003,-2.315081,14.659904,8.247594,-3.721290,0.897879,9.866539,-12.582791,-13.108352,-9.490774,2.232323,-14.467967,-4.954142,3.241767,0.163879,-0.207269,5.102602,-12.314555,22.390541,27.153790,8064.000000,0.000000,4.000000,,,,0.000000,4.000000,4.000000,4.000000,4.000000,4.000000,4.000000,4.000000,4.000000,4.000000,4.000000,4.000000,4.000000,4.000000,4.000000,4.000000,4.000000,4.000000,4.000000,4.000000,4.000000,4.000000,4.000000,4.000000,4.000000,4.000000,4.000000,4.000000,4.000000,4.000000,4.000000,4.000000,4.000000,100.000000
1614412143.315320,54.000000,0.000000,1.297923,10.290794,38.118694,20.897449,13.287443,21.774248,4.346899,-11.722407,33.438473,0.501520,0.017457,0.444068,8.655005,-3.851228,13.106783,6.188064,-4.230389,6.538006,20.625902,-1.800978,-13.095243,-7.430001,-0.334012,-14.453499,-4.436367,-3.428142,0.163715,-0.207061,5.610320,-11.789420,22.368151,25.588175,8064.000000,0.000000,4.000000,,,,0.000000,4.000000,4.000000,4.000000,4.000000,4.000000,4.000000,4.000000,4.000000,4.000000,4.000000,4.000000,4.000000,4.000000,4.000000,4.000000,4.000000,4.000000,4.000000,4.000000,4.000000,4.000000,4.000000,4.000000,4.000000,4.000000,4.000000,4.000000,4.000000,4.000000,4.000000,4.000000,4.000000,100.000000
1614412143.323069,55.000000,0.000000,0.270984,9.254862,39.106216,18.825270,12.761334,21.752474,3.316911,-7.608121,33.405033,-0.011802,2.068722,3.520547,10.184813,-2.821735,18.734701,6.181876,-0.636415,10.634032,29.323225,6.405951,-13.082148,-5.371289,2.743246,-14.439046,-4.431931,-5.475996,0.163551,-0.719675,5.604710,-13.316092,22.345781,21.460022,8064.000000,0.000000,4.000000,,,,0.000000,4.000000,4.000000,4.000000,4.000000,4.000000,4.000000,4.000000,4.000000,4.000000,4.000000,4.000000,4.000000,4.000000,4.000000,4.000000,4.000000,4.000000,4.000000,4.000000,4.000000,4.000000,4.000000,4.000000,4.000000,4.000000,4.000000,4.000000,4.000000,4.000000,4.000000,4.000000,4.000000,100.000000
1614412143.330718,56.000000,0.000000,1.296354,9.758428,38.554291,18.293625,13.261394,21.730721,3.826415,-8.113334,33.371628,1.013851,4.630755,15.311898,13.251551,6.924676,28.459557,12.329540,4.492427,10.110579,10.832364,1.784161,-13.069066,-4.853097,13.509733,-14.424606,-4.940320,-1.880776,0.163387,2.357968,5.599105,-10.738674,22.323437,21.951384,8064.000000,0.000000,4.000000,,,,0.000000,4.000000,4.000000,4.000000,4.000000,4.000000,4.000000,4.000000,4.000000,4.000000,4.000000,4.000000,4.000000,4.000000,4.000000,4.000000,4.000000,4.000000,4.000000,4.000000,4.000000,4.000000,4.000000,4.000000,4.000000,4.000000,4.000000,4.000000,4.000000,4.000000,4.000000,4.000000,4.000000,100.000000
1614412143.338467,57.000000,0.000000,1.295057,10.261490,30.823429,15.198408,12.735312,21.708990,4.335409,-7.592400,33.338257,4.089760,3.600483,13.758125,13.238299,16.148521,26.379816,11.804390,2.949473,8.562006,6.206147,-2.833008,-13.055997,-5.361065,10.932120,-14.410182,-4.935379,0.172387,0.163224,4.406892,5.593506,-5.599730,22.813934,28.083279,8064.000000,0.000000,4.000000,,,,0.000000,4.000000,4.000000,4.000000,4.000000,4.000000,4.000000,4.000000,4.000000,4.000000,4.000000,4.000000,4.000000,4.000000,4.000000,4.000000,4.000000,4.000000,4.000000,4.000000,4.000000,4.000000,4.000000,4.000000,4.000000,4.000000,4.000000,4.000000,4.000000,4.000000,4.000000,4.000000,4.000000,100.000000
1614412143.346117,58.000000,0.000000,-2.808802,6.148664,23.100298,11.080646,7.081551,20.148821,-0.284311,-9.636089,33.304916,2.547209,4.622524,-2.153069,9.635317,16.645193,17.122665,1.023355,-5.258605,7.014982,31.840967,-2.830175,-13.042941,-5.355704,-3.437786,-14.395772,-4.930444,-0.853427,-0.349760,-1.751361,6.100733,-4.055669,21.252659,21.901348,8064.000000,0.000000,4.000000,,,,0.000000,4.000000,4.000000,4.000000,4.000000,4.000000,4.000000,4.000000,4.000000,4.000000,4.000000,4.000000,4.000000,4.000000,4.000000,4.000000,4.000000,4.000000,4.000000,4.000000,4.000000,4.000000,4.000000,4.000000,4.000000,4.000000,4.000000,4.000000,4.000000,4.000000,4.000000,4.000000,4.000000,100.000000
1614412143.353866,59.000000,0.000000,-5.882916,2.039952,23.590017,11.069565,1.433444,18.590210,-3.360950,-11.164915,33.271614,0.493380,9.746107,-5.227839,11.676964,14.577266,19.669645,10.253100,-7.304628,16.238737,38.475792,-2.827345,-13.029898,-4.837527,-4.459989,-14.894197,-4.925513,-0.339753,0.163411,-6.877815,5.581812,-5.077254,18.667303,11.623037,8064.000000,0.000000,4.000000,,,,0.000000,4.000000,4.000000,4.000000,4.000000,4.000000,4.000000,4.000000,4.000000,4.000000,4.000000,4.000000,4.000000,4.000000,4.000000,4.000000,4.000000,4.000000,4.000000,4.000000,4.000000,4.000000,4.000000,4.000000,4.000000,4.000000,4.000000,4.000000,4.000000,4.000000,4.000000,4.000000,4.000000,100.000000
1614412143.361515,60.000000,0.000000,-3.825751,7.166117,25.104889,11.058495,1.432011,18.571619,0.744975,-3.461442,33.238342,4.595450,12.300463,6.059440,16.793491,16.613970,30.419207,33.319771,-2.681939,30.581472,23.052702,-2.311697,-13.016868,-3.294228,4.775240,-13.853662,-4.920588,4.275972,1.701709,-1.229911,6.089050,-3.020895,18.135815,12.124234,8064.000000,0.000000,4.000000,,,,0.000000,4.000000,4.000000,4.000000,4.000000,4.000000,4.000000,4.000000,4.000000,4.000000,4.000000,4.000000,4.000000,4.000000,4.000000,4.000000,4.000000,4.000000,4.000000,4.000000,4.000000,4.000000,4.000000,4.000000,4.000000,4.000000,4.000000,4.000000,4.000000,4.000000,4.000000,4.000000,4.000000,100.000000
1614412143.369264,61.000000,0.000000,-2.283464,13.825618,22.002861,11.047437,1.943399,18.040228,4.333973,-0.381058,33.717922,6.129316,11.775342,9.130303,13.699776,15.571715,28.850327,23.030041,0.397666,18.243198,17.901443,-6.411949,-10.952569,-1.239652,5.796106,-11.275705,-2.351565,7.861439,4.776930,4.412344,6.082962,-0.453772,18.630499,10.573648,8064.000000,0.000000,4.000000,,,,0.000000,4.000000,4.000000,4.000000,4.000000,4.000000,4.000000,4.000000,4.000000,4.000000,4.000000,4.000000,4.000000,4.000000,4.000000,4.000000,4.000000,4.000000,4.000000,4.000000,4.000000,4.000000,4.000000,4.000000,4.000000,4.000000,4.000000,4.000000,4.000000,4.000000,4.000000,4.000000,4.000000,100.000000
1614412143.376913,62.000000,0.000000,-3.306821,13.298971,18.391115,12.062030,1.428635,17.509367,4.329639,-8.072984,33.684204,-0.543480,11.250747,5.018610,5.993768,8.376657,16.513784,-7.762220,-0.115552,-13.057096,10.191234,-15.123487,-8.890334,-1.751233,3.739028,-10.238789,-0.297931,3.751014,4.259333,3.895111,2.999955,-3.017420,18.611870,5.947690,8064.000000,0.000000,4.000000,,,,0.000000,4.000000,4.000000,4.000000,4.000000,4.000000,4.000000,4.000000,4.000000,4.000000,4.000000,4.000000,4.000000,4.000000,4.000000,4.000000,4.000000,4.000000,4.000000,4.000000,4.000000,4.000000,4.000000,4.000000,4.000000,4.000000,4.000000,4.000000,4.000000,4.000000,4.000000,4.000000,4.000000,100.000000
1614412143.384662,63.000000,0.000000,-3.303514,8.157467,15.808621,8.460224,1.427207,13.902114,3.299669,-13.193116,31.599239,-4.645500,9.701034,5.013591,3.936492,3.240075,13.420347,-5.703176,-1.653898,-15.095321,1.975915,-12.544260,-9.394264,-2.262302,4.760930,-11.254190,-1.836094,-0.355301,2.203791,3.378396,-1.618429,-7.629787,18.080437,2.351999,8064.000000,0.000000,4.000000,,,,0.000000,4.000000,4.000000,4.000000,4.000000,4.000000,4.000000,4.000000,4.000000,4.000000,4.000000,4.000000,4.000000,4.000000,4.000000,4.000000,4.000000,4.000000,4.000000,4.000000,4.000000,4.000000,4.000000,4.000000,4.000000,4.000000,4.000000,4.000000,4.000000,4.000000,4.000000,4.000000,4.000000,100.000000
1614412143.392311,64.000000,0.000000,-2.787390,6.098028,9.638967,1.272277,1.938600,5.170263,2.270728,-11.128641,30.029179,-3.102393,7.640051,6.034218,6.496658,3.749655,21.612055,17.379450,1.424679,8.509518,16.332912,0.288797,-9.384871,-1.234399,5.268990,-10.730116,-0.808617,-0.354946,6.304152,3.887838,-1.616811,-12.237542,18.575176,-4.317019,0.000000,189.000000,4.000000,,,,0.000000,4.000000,4.000000,4.000000,4.000000,4.000000,4.000000,4.000000,4.000000,4.000000,4.000000,4.000000,4.000000,4.000000,4.000000,4.000000,4.000000,4.000000,4.000000,4.000000,4.000000,4.000000,4.000000,4.000000,4.000000,4.000000,4.000000,4.000000,4.000000,4.000000,4.000000,4.000000,4.000000,100.000000
1614412143.400060,65.000000,0.000000,-2.784603,6.091929,3.475482,-0.780277,1.936661,-0.988753,0.217175,-11.117513,28.973509,-3.099291,7.632411,6.028184,8.028624,4.258726,25.693007,16.849251,8.089921,16.193316,29.137093,5.929534,-9.375485,0.818118,4.750900,-8.155283,-0.294988,0.158229,10.913232,4.396770,-0.076732,-15.815048,18.556602,-9.953729,0.000000,192.000000,4.000000,,,,0.000000,4.000000,4.000000,4.000000,4.000000,4.000000,4.000000,4.000000,4.000000,4.000000,4.000000,4.000000,4.000000,4.000000,4.000000,4.000000,4.000000,4.000000,4.000000,4.000000,4.000000,4.000000,4.000000,4.000000,4.000000,4.000000,4.000000,4.000000,4.000000,4.000000,4.000000,4.000000,4.000000,100.000000
1614412143.407710,66.000000,0.000000,-2.781818,6.085838,1.933544,-1.292318,1.934724,-0.987765,0.216958,-12.132036,26.893253,-3.609012,7.624778,5.509336,8.533415,3.741647,24.128853,0.422145,11.671575,6.946353,25.518211,4.385143,-9.366110,2.355761,4.746149,-6.608666,-7.474181,-0.867570,4.235652,3.879553,-4.179220,-16.312054,18.538046,-9.943774,0.000000,187.000000,4.000000,,,,0.000000,4.000000,4.000000,4.000000,4.000000,4.000000,4.000000,4.000000,4.000000,4.000000,4.000000,4.000000,4.000000,4.000000,4.000000,4.000000,4.000000,4.000000,4.000000,4.000000,4.000000,4.000000,4.000000,4.000000,4.000000,4.000000,4.000000,4.000000,4.000000,4.000000,4.000000,4.000000,4.000000,100.000000
1614412143.415459,67.000000,0.000000,-2.779037,5.566931,0.905970,-3.342307,1.932790,-0.473956,0.216741,-12.119904,25.327898,-3.605403,7.104333,5.503826,9.037703,3.737905,24.104723,-1.629560,10.634262,7.452228,24.979874,4.380758,-9.356744,1.840585,4.228582,-7.114878,-12.082091,-0.866702,-3.973712,-1.252532,-10.328887,-16.295742,18.519506,-11.985113,0.000000,183.000000,4.000000,,,,0.000000,4.000000,4.000000,4.000000,4.000000,4.000000,4.000000,4.000000,4.000000,4.000000,4.000000,4.000000,4.000000,4.000000,4.000000,4.000000,4.000000,4.000000,4.000000,4.000000,4.000000,4.000000,4.000000,4.000000,4.000000,4.000000,4.000000,4.000000,4.000000,4.000000,4.000000,4.000000,4.000000,100.000000
1614412143.423108,68.000000,0.000000,-3.289078,6.074185,-1.146218,-4.364606,1.930857,-0.473482,0.216524,-12.107784,25.302570,-3.088977,7.610049,5.498322,9.028665,4.246988,25.619080,8.115660,10.623628,10.521699,17.775406,4.376377,-9.860208,1.838744,4.737175,-7.107763,-7.454624,0.159805,0.132826,-7.917946,-8.780096,-15.766625,18.500988,-16.588512,0.000000,182.000000,4.000000,,,,0.000000,4.000000,4.000000,4.000000,4.000000,4.000000,4.000000,4.000000,4.000000,4.000000,4.000000,4.000000,4.000000,4.000000,4.000000,4.000000,4.000000,4.000000,4.000000,4.000000,4.000000,4.000000,4.000000,4.000000,4.000000,4.000000,4.000000,4.000000,4.000000,4.000000,4.000000,4.000000,4.000000,100.000000
1614412143.430857,69.000000,0.000000,-2.772969,6.068111,-1.657892,-3.334600,1.928926,2.091094,0.216308,-11.582856,25.790089,-3.085888,7.602439,5.492824,8.506815,4.242741,23.542179,8.107544,10.613004,2.818869,6.475580,1.295077,-9.337526,2.349726,4.732437,-7.100656,-4.370246,-0.865995,2.183975,-8.422848,-7.745675,-15.238038,18.995308,-17.084743,0.000000,199.000000,4.000000,,,,0.000000,4.000000,4.000000,4.000000,4.000000,4.000000,4.000000,4.000000,4.000000,4.000000,4.000000,4.000000,4.000000,4.000000,4.000000,4.000000,4.000000,4.000000,4.000000,4.000000,4.000000,4.000000,4.000000,4.000000,4.000000,4.000000,4.000000,4.000000,4.000000,4.000000,4.000000,4.000000,4.000000,100.000000
1614412143.438506,70.000000,0.000000,-2.770195,6.062043,-1.143414,-3.331266,1.926997,4.140285,0.216092,-11.571273,25.764297,-4.108443,7.594837,5.487331,9.523950,4.238498,19.928894,5.535334,7.525468,2.816050,24.417822,0.268141,-6.251266,1.321735,2.676423,-7.093555,-5.391517,-4.454873,-3.972055,-6.875964,-15.943058,-16.248442,18.463491,-17.067659,0.000000,181.000000,4.000000,,,,0.000000,4.000000,4.000000,4.000000,4.000000,4.000000,4.000000,4.000000,4.000000,4.000000,4.000000,4.000000,4.000000,4.000000,4.000000,4.000000,4.000000,4.000000,4.000000,4.000000,4.000000,4.000000,4.000000,4.000000,4.000000,4.000000,4.000000,4.000000,4.000000,4.000000,4.000000,4.000000,4.000000,100.000000
1614412143.446255,71.000000,0.000000,-3.280246,6.055981,-1.142271,-3.327935,1.925070,3.623324,0.215876,-12.585342,25.738533,-2.565873,10.151344,4.456203,11.565707,4.234260,20.421785,14.760568,6.492301,15.120927,38.752380,0.780694,-2.655271,1.833234,1.135285,-7.599282,-2.822023,-2.911957,-1.403980,-7.894729,-18.491217,-15.206552,18.445028,-16.024950,0.000000,185.000000,4.000000,,,,0.000000,4.000000,4.000000,4.000000,4.000000,4.000000,4.000000,4.000000,4.000000,4.000000,4.000000,4.000000,4.000000,4.000000,4.000000,4.000000,4.000000,4.000000,4.000000,4.000000,4.000000,4.000000,4.000000,4.000000,4.000000,4.000000,4.000000,4.000000,4.000000,4.000000,4.000000,4.000000,4.000000,100.000000
1614412143.453904,72.000000,0.000000,-1.225684,6.049924,-1.141128,-3.324606,1.923145,3.619700,0.215660,-10.521475,25.712795,2.564898,13.730937,5.477387,12.579782,4.230025,23.991106,21.412474,6.998630,7.926319,13.072600,0.779913,-1.626975,3.882683,3.698252,-7.078862,-1.280740,4.783263,6.802552,-7.374013,-7.190675,-10.575961,19.452223,-11.393541,0.000000,199.000000,4.000000,,,,0.000000,4.000000,4.000000,4.000000,4.000000,4.000000,4.000000,4.000000,4.000000,4.000000,4.000000,4.000000,4.000000,4.000000,4.000000,4.000000,4.000000,4.000000,4.000000,4.000000,4.000000,4.000000,4.000000,4.000000,4.000000,4.000000,4.000000,4.000000,4.000000,4.000000,4.000000,4.000000,4.000000,100.000000
1614412143.461654,73.000000,0.000000,2.878106,6.043875,-1.139987,-3.321282,1.921222,3.616081,0.728265,-5.382749,25.687082,5.126435,13.717206,8.548833,12.567204,4.225795,22.941475,11.134651,6.991631,-12.081608,-1.299446,0.266313,-2.138169,5.417262,7.284297,-5.020501,-0.766638,7.855403,8.334211,-4.289717,0.508824,-10.052565,16.868670,-9.330866,0.000000,200.000000,4.000000,,,,0.000000,4.000000,4.000000,4.000000,4.000000,4.000000,4.000000,4.000000,4.000000,4.000000,4.000000,4.000000,4.000000,4.000000,4.000000,4.000000,4.000000,4.000000,4.000000,4.000000,4.000000,4.000000,4.000000,4.000000,4.000000,4.000000,4.000000,4.000000,4.000000,4.000000,4.000000,4.000000,4.000000,100.000000
1614412143.469303,74.000000,0.000000,4.926510,6.037831,-1.138847,-3.317961,1.919301,3.612465,-0.298105,-5.377366,25.661396,3.582847,11.139386,8.540284,12.554636,4.221570,19.841610,-0.671355,6.471818,-5.915680,20.240314,1.291687,-2.136030,5.411844,8.302654,-2.964199,3.849513,4.257804,6.787415,-3.259786,-3.081429,-15.170717,9.159492,-12.398458,0.000000,183.000000,4.000000,,,,0.000000,4.000000,4.000000,4.000000,4.000000,4.000000,4.000000,4.000000,4.000000,4.000000,4.000000,4.000000,4.000000,4.000000,4.000000,4.000000,4.000000,4.000000,4.000000,4.000000,4.000000,4.000000,4.000000,4.000000,4.000000,4.000000,4.000000,4.000000,4.000000,4.000000,4.000000,4.000000,4.000000,100.000000
1614412143.477152,75.000000,0.000000,4.408763,6.031793,-1.137708,-3.314643,1.917382,3.608852,0.727834,-7.423271,25.635735,5.117726,10.615426,9.044564,12.029261,4.217348,25.462793,3.944701,6.978168,19.218441,34.066227,4.367319,-1.108253,5.406433,7.781531,-3.474055,5.896945,2.715085,7.293448,-3.769346,-5.642450,-16.694008,4.022128,-13.411700,0.000000,189.000000,4.000000,,,,0.000000,4.000000,4.000000,4.000000,4.000000,4.000000,4.000000,4.000000,4.000000,4.000000,4.000000,4.000000,4.000000,4.000000,4.000000,4.000000,4.000000,4.000000,4.000000,4.000000,4.000000,4.000000,4.000000,4.000000,4.000000,4.000000,4.000000,4.000000,4.000000,4.000000,4.000000,4.000000,4.000000,100.000000
1614412143.484901,76.000000,0.000000,4.404355,6.025761,-1.136571,-3.824148,1.915464,3.605243,3.291209,-5.364565,25.610098,7.676711,11.117631,14.676546,13.042872,4.213130,33.129639,11.633064,6.971189,24.840248,30.442419,4.875772,0.944137,5.913846,8.799391,-3.470581,2.814125,3.738011,7.286155,-3.765577,-4.611166,-15.138852,3.505285,-12.372648,0.000000,196.000000,4.000000,,,,0.000000,4.000000,4.000000,4.000000,4.000000,4.000000,4.000000,4.000000,4.000000,4.000000,4.000000,4.000000,4.000000,4.000000,4.000000,4.000000,4.000000,4.000000,4.000000,4.000000,4.000000,4.000000,4.000000,4.000000,4.000000,4.000000,4.000000,4.000000,4.000000,4.000000,4.000000,4.000000,4.000000,100.000000
1614412143.492750,77.000000,0.000000,4.399950,6.019735,-1.135434,-3.307504,1.913549,3.601638,2.775097,-3.820739,25.584488,5.617752,11.106514,20.302895,15.593932,4.208917,29.506765,10.595790,5.938577,17.123100,27.335052,3.332435,1.456013,4.369471,11.354693,-1.415828,2.298491,3.734272,7.278869,-3.761811,-4.606555,-15.636534,2.476139,-12.873096,0.000000,187.000000,4.000000,,,,0.000000,4.000000,4.000000,4.000000,4.000000,4.000000,4.000000,4.000000,4.000000,4.000000,4.000000,4.000000,4.000000,4.000000,4.000000,4.000000,4.000000,4.000000,4.000000,4.000000,4.000000,4.000000,4.000000,4.000000,4.000000,4.000000,4.000000,4.000000,4.000000,4.000000,4.000000,4.000000,4.000000,100.000000
1614412143.500499,78.000000,0.000000,4.395550,6.013716,-1.134299,-3.817017,1.911635,3.598037,0.208220,-3.816918,25.558905,0.483929,11.095407,20.282593,16.091158,4.204709,27.938797,11.098015,8.496741,19.157259,30.384642,4.867564,1.454557,6.929204,13.394621,0.636870,1.783372,3.217718,6.758770,-3.758050,-5.114769,-16.133718,-0.090440,-12.860223,0.000000,188.000000,4.000000,,,,0.000000,4.000000,4.000000,4.000000,4.000000,4.000000,4.000000,4.000000,4.000000,4.000000,4.000000,4.000000,4.000000,4.000000,4.000000,4.000000,4.000000,4.000000,4.000000,4.000000,4.000000,4.000000,4.000000,4.000000,4.000000,4.000000,4.000000,4.000000,4.000000,4.000000,4.000000,4.000000,4.000000,100.000000
1614412143.508348,79.000000,0.000000,4.391154,6.007702,-1.133164,-3.813200,1.909723,3.594438,-0.304809,-1.761819,25.533344,-0.542196,10.571491,19.749489,16.587889,4.200504,34.577526,15.189481,13.103629,24.779127,39.585026,9.990901,1.453103,12.050480,15.432508,0.123412,-1.295335,2.701679,6.752010,-4.267112,-6.135295,-15.604764,-0.090349,-12.847363,0.000000,185.000000,4.000000,,,,0.000000,4.000000,4.000000,4.000000,4.000000,4.000000,4.000000,4.000000,4.000000,4.000000,4.000000,4.000000,4.000000,4.000000,4.000000,4.000000,4.000000,4.000000,4.000000,4.000000,4.000000,4.000000,4.000000,4.000000,4.000000,4.000000,4.000000,4.000000,4.000000,4.000000,4.000000,4.000000,4.000000,100.000000
1614412143.516097,80.000000,0.000000,3.873943,6.001694,-0.619211,-0.219643,1.907814,3.078023,0.721137,-0.221596,25.507811,0.996808,12.612202,20.242559,18.622581,4.196303,31.978846,15.174291,14.628986,19.113323,33.391594,11.519372,1.451650,12.038429,15.929896,0.123289,-0.781219,2.698978,9.822182,-3.750025,-4.590699,-13.537877,0.422562,-12.321694,0.000000,198.000000,4.000000,,,,0.000000,4.000000,4.000000,4.000000,4.000000,4.000000,4.000000,4.000000,4.000000,4.000000,4.000000,4.000000,4.000000,4.000000,4.000000,4.000000,4.000000,4.000000,4.000000,4.000000,4.000000,4.000000,4.000000,4.000000,4.000000,4.000000,4.000000,4.000000,4.000000,4.000000,4.000000,4.000000,4.000000,100.000000
1614412143.523946,81.000000,0.000000,4.895710,5.995693,-1.131412,3.883141,1.905906,4.100586,0.207595,-0.734195,25.482304,3.047093,17.214973,19.709497,19.629601,4.192107,24.254559,13.107835,14.101538,14.991645,11.306921,8.430929,1.450198,8.436647,15.401146,0.123166,1.783665,3.209099,14.427744,-3.746275,0.029277,-11.473057,0.422139,-9.745270,0.000000,188.000000,4.000000,,,,0.000000,4.000000,4.000000,4.000000,4.000000,4.000000,4.000000,4.000000,4.000000,4.000000,4.000000,4.000000,4.000000,4.000000,4.000000,4.000000,4.000000,4.000000,4.000000,4.000000,4.000000,4.000000,4.000000,4.000000,4.000000,4.000000,4.000000,4.000000,4.000000,4.000000,4.000000,4.000000,4.000000,100.000000
1614412143.531695,82.000000,0.000000,7.454917,5.989697,-1.130281,3.879257,1.904000,6.660588,0.207388,-0.733461,25.456821,4.069687,19.249041,20.202608,19.609972,4.187915,25.768766,16.684471,14.087436,25.745884,18.475101,7.396857,3.500030,10.992313,15.385745,0.123042,2.294702,2.693070,14.926137,-4.768169,2.593350,-11.974404,0.421717,-8.709884,0.000000,201.000000,4.000000,,,,0.000000,4.000000,4.000000,4.000000,4.000000,4.000000,4.000000,4.000000,4.000000,4.000000,4.000000,4.000000,4.000000,4.000000,4.000000,4.000000,4.000000,4.000000,4.000000,4.000000,4.000000,4.000000,4.000000,4.000000,4.000000,4.000000,4.000000,4.000000,4.000000,4.000000,4.000000,4.000000,4.000000,100.000000
1614412143.539344,83.000000,0.000000,8.473103,5.983707,-0.616330,4.388199,1.902096,7.166749,0.207180,-0.732727,25.431364,4.065618,16.152868,20.182405,19.590361,4.183727,27.281458,11.539581,14.586169,29.309881,39.995087,8.415102,5.034991,14.058245,15.370359,0.122919,2.292407,3.203197,14.398390,-2.712119,2.077936,-11.962430,0.421295,-9.213995,0.000000,175.000000,4.000000,,,,0.000000,4.000000,4.000000,4.000000,4.000000,4.000000,4.000000,4.000000,4.000000,4.000000,4.000000,4.000000,4.000000,4.000000,4.000000,4.000000,4.000000,4.000000,4.000000,4.000000,4.000000,4.000000,4.000000,4.000000,4.000000,4.000000,4.000000,4.000000,4.000000,4.000000,4.000000,4.000000,4.000000,100.000000
1614412143.547093,84.000000,0.000000,7.951809,6.490544,-1.128534,4.896631,1.900194,7.159582,0.206973,-0.731995,25.405933,4.061552,14.598255,16.059658,17.519489,3.666723,21.100330,-4.369395,14.058763,14.408777,25.083298,7.381045,5.029956,8.403160,15.354989,0.122796,1.777294,8.328199,14.896812,2.418798,4.127140,-11.437647,0.933694,-9.204781,0.000000,169.000000,4.000000,,,,0.000000,4.000000,4.000000,4.000000,4.000000,4.000000,4.000000,4.000000,4.000000,4.000000,4.000000,4.000000,4.000000,4.000000,4.000000,4.000000,4.000000,4.000000,4.000000,4.000000,4.000000,4.000000,4.000000,4.000000,4.000000,4.000000,4.000000,4.000000,4.000000,4.000000,4.000000,4.000000,4.000000,100.000000
1614412143.554742,85.000000,0.000000,7.943858,5.971233,-3.691508,-0.236471,1.898294,7.665243,0.206766,-0.731263,25.380527,3.544670,14.583656,11.941035,16.476328,5.201518,22.617693,-2.826564,14.044703,6.702061,7.622317,4.809562,5.024927,5.317834,15.339634,0.122674,2.288337,16.012178,14.369095,3.442020,6.174295,-12.451850,0.932761,-8.682755,0.000000,199.000000,4.000000,,,,0.000000,4.000000,4.000000,4.000000,4.000000,4.000000,4.000000,4.000000,4.000000,4.000000,4.000000,4.000000,4.000000,4.000000,4.000000,4.000000,4.000000,4.000000,4.000000,4.000000,4.000000,4.000000,4.000000,4.000000,4.000000,4.000000,4.000000,4.000000,4.000000,4.000000,4.000000,4.000000,4.000000,100.000000
1614412143.562491,86.000000,0.000000,7.935914,5.965261,-3.687817,-2.800337,1.896395,7.144757,0.206559,-1.243352,25.355146,4.566766,14.569073,11.929093,18.511133,7.760418,30.287382,16.150621,14.030659,10.285102,19.409567,3.779111,5.019901,10.953542,15.324294,-0.390270,8.439896,18.560268,14.354726,4.464220,6.168121,-11.926578,-0.093813,-8.674072,0.000000,218.000000,4.000000,,,,0.000000,4.000000,4.000000,4.000000,4.000000,4.000000,4.000000,4.000000,4.000000,4.000000,4.000000,4.000000,4.000000,4.000000,4.000000,4.000000,4.000000,4.000000,4.000000,4.000000,4.000000,4.000000,4.000000,4.000000,4.000000,4.000000,4.000000,4.000000,4.000000,4.000000,4.000000,4.000000,4.000000,100.000000
1614412143.570141,87.000000,0.000000,7.927978,6.984938,-1.120026,1.817848,1.894499,7.137612,0.206353,-0.216468,25.329792,7.126302,14.554503,12.429985,20.031084,8.265478,31.282736,23.313959,13.503807,10.274817,24.518362,3.775332,5.014882,11.455409,15.308969,0.635762,13.559660,16.490427,14.853191,7.023858,6.161952,-10.889010,0.931922,-8.665399,0.000000,180.000000,4.000000,,,,0.000000,4.000000,4.000000,4.000000,4.000000,4.000000,4.000000,4.000000,4.000000,4.000000,4.000000,4.000000,4.000000,4.000000,4.000000,4.000000,4.000000,4.000000,4.000000,4.000000,4.000000,4.000000,4.000000,4.000000,4.000000,4.000000,4.000000,4.000000,4.000000,4.000000,4.000000,4.000000,4.000000,100.000000
1614412143.577890,88.000000,0.000000,8.432870,4.926671,-0.606086,1.816030,1.892604,9.694577,0.206146,1.835031,25.304462,7.631996,14.539949,11.904735,18.985413,7.744392,32.789913,22.777824,13.490304,14.367106,28.596407,5.310019,5.009867,6.315749,15.293661,3.199229,11.494819,13.909834,11.248595,4.965552,5.130150,-14.467865,0.930990,-9.682374,0.000000,201.000000,4.000000,,,,0.000000,4.000000,4.000000,4.000000,4.000000,4.000000,4.000000,4.000000,4.000000,4.000000,4.000000,4.000000,4.000000,4.000000,4.000000,4.000000,4.000000,4.000000,4.000000,4.000000,4.000000,4.000000,4.000000,4.000000,4.000000,4.000000,4.000000,4.000000,4.000000,4.000000,4.000000,4.000000,4.000000,100.000000
1614412143.585539,89.000000,0.000000,6.885976,-1.744923,-1.118300,-3.313991,1.890712,10.197703,0.205940,3.371657,25.279158,8.137185,14.525410,11.892830,18.966427,7.736648,37.885330,27.370430,15.528095,23.070688,44.978069,7.355990,5.004857,8.360715,15.278367,4.221670,8.919221,13.895924,7.134782,0.858022,2.048096,-19.068781,-3.685326,-9.159871,0.000000,204.000000,4.000000,,,,0.000000,4.000000,4.000000,4.000000,4.000000,4.000000,4.000000,4.000000,4.000000,4.000000,4.000000,4.000000,4.000000,4.000000,4.000000,4.000000,4.000000,4.000000,4.000000,4.000000,4.000000,4.000000,4.000000,4.000000,4.000000,4.000000,4.000000,4.000000,4.000000,4.000000,4.000000,4.000000,4.000000,100.000000
1614412143.593288,90.000000,0.000000,8.930372,-5.845742,-1.117182,-4.336318,2.401642,7.623403,0.205734,2.855465,25.253878,10.693151,14.510884,12.393758,19.460281,6.703270,35.796162,23.240496,17.563848,19.457874,33.138218,6.322993,4.999852,12.967739,15.263089,3.704628,9.935943,13.882028,6.614827,2.395626,1.533228,-14.434328,-6.758564,-8.637891,0.000000,200.000000,4.000000,,,,0.000000,4.000000,4.000000,4.000000,4.000000,4.000000,4.000000,4.000000,4.000000,4.000000,4.000000,4.000000,4.000000,4.000000,4.000000,4.000000,4.000000,4.000000,4.000000,4.000000,4.000000,4.000000,4.000000,4.000000,4.000000,4.000000,4.000000,4.000000,4.000000,4.000000,4.000000,4.000000,4.000000,100.000000
1614412143.600937,91.000000,0.000000,11.485544,-5.327076,-0.603244,-2.793520,0.347958,6.590138,0.205529,2.852610,25.228624,8.118355,15.009193,12.381364,19.440821,7.722208,31.144981,20.653152,17.546286,14.310211,10.028156,3.239747,3.969211,11.416309,14.735005,3.700923,9.926007,13.868146,7.121033,3.931692,2.044515,-7.753227,-4.187702,-11.706176,0.000000,217.000000,4.000000,,,,0.000000,4.000000,4.000000,4.000000,4.000000,4.000000,4.000000,4.000000,4.000000,4.000000,4.000000,4.000000,4.000000,4.000000,4.000000,4.000000,4.000000,4.000000,4.000000,4.000000,4.000000,4.000000,4.000000,4.000000,4.000000,4.000000,4.000000,4.000000,4.000000,4.000000,4.000000,4.000000,4.000000,100.000000
1614412143.608686,92.000000,0.000000,8.909956,-4.808928,-1.115461,-3.303547,-1.703672,7.096369,-0.307498,3.362578,25.203396,3.494852,13.455723,12.368982,19.421379,7.714486,31.626657,25.247885,17.528740,19.424107,24.377102,4.774969,1.913960,13.456175,15.233090,3.697222,9.403260,12.828637,8.139552,3.414939,1.529650,-8.258294,-3.157874,-12.720111,0.000000,172.000000,4.000000,,,,0.000000,4.000000,4.000000,4.000000,4.000000,4.000000,4.000000,4.000000,4.000000,4.000000,4.000000,4.000000,4.000000,4.000000,4.000000,4.000000,4.000000,4.000000,4.000000,4.000000,4.000000,4.000000,4.000000,4.000000,4.000000,4.000000,4.000000,4.000000,4.000000,4.000000,4.000000,4.000000,4.000000,100.000000
1614412143.616335,93.000000,0.000000,4.285661,-4.291299,-0.601525,-1.761782,-2.214789,7.089272,0.205631,1.307933,25.178192,3.491357,11.390985,12.356613,19.401958,6.168310,28.005287,15.991867,17.511211,14.789297,34.096313,5.283015,0.886405,13.442719,15.730678,3.693525,9.393857,14.867090,10.182695,5.975627,2.040941,-7.737216,-3.154716,-7.579185,0.000000,193.000000,4.000000,,,,0.000000,4.000000,4.000000,4.000000,4.000000,4.000000,4.000000,4.000000,4.000000,4.000000,4.000000,4.000000,4.000000,4.000000,4.000000,4.000000,4.000000,4.000000,4.000000,4.000000,4.000000,4.000000,4.000000,4.000000,4.000000,4.000000,4.000000,4.000000,4.000000,4.000000,4.000000,4.000000,4.000000,100.000000
1614412143.624085,94.000000,0.000000,6.332658,-1.210084,-1.113744,0.291262,-1.699754,7.082183,2.769527,-0.744657,25.665834,4.000686,10.353953,12.344257,19.382557,11.290347,23.874718,8.283568,17.493700,6.569379,14.062219,1.687988,1.911160,2.147225,14.689306,4.202652,9.384463,19.467607,11.198153,7.508113,6.141464,-2.088453,1.976644,-1.417760,0.000000,194.000000,4.000000,,,,0.000000,4.000000,4.000000,4.000000,4.000000,4.000000,4.000000,4.000000,4.000000,4.000000,4.000000,4.000000,4.000000,4.000000,4.000000,4.000000,4.000000,4.000000,4.000000,4.000000,4.000000,4.000000,4.000000,4.000000,4.000000,4.000000,4.000000,4.000000,4.000000,4.000000,4.000000,4.000000,4.000000,100.000000
1614412143.631734,95.000000,0.000000,8.890428,-1.208874,-0.599810,0.290971,-1.698054,7.075101,4.305220,-1.256733,24.614529,3.483865,10.856420,12.331913,19.363174,23.586748,27.953407,19.557335,17.476206,18.870502,23.278927,4.763223,6.011812,5.222001,15.700258,3.685629,9.887899,22.525063,10.674134,7.500605,9.725066,0.477738,5.051590,-0.903522,0.000000,169.000000,4.000000,,,,0.000000,4.000000,4.000000,4.000000,4.000000,4.000000,4.000000,4.000000,4.000000,4.000000,4.000000,4.000000,4.000000,4.000000,4.000000,4.000000,4.000000,4.000000,4.000000,4.000000,4.000000,4.000000,4.000000,4.000000,4.000000,4.000000,4.000000,4.000000,4.000000,4.000000,4.000000,4.000000,4.000000,100.000000
1614412143.639483,96.000000,0.000000,7.855896,-1.207665,-0.599210,0.290680,0.354926,7.068026,3.788094,-0.742655,25.102734,5.531663,10.845563,12.319581,18.830990,26.127264,30.489555,19.537779,17.458729,29.108042,48.896671,13.989229,9.082724,21.627035,18.761480,4.707584,9.365191,21.476896,11.176281,7.493104,10.228162,-2.599663,0.431154,-0.902618,8064.000000,0.000000,4.000000,,,,0.000000,4.000000,4.000000,4.000000,4.000000,4.000000,4.000000,4.000000,4.000000,4.000000,4.000000,4.000000,4.000000,4.000000,4.000000,4.000000,4.000000,4.000000,4.000000,4.000000,4.000000,4.000000,4.000000,4.000000,4.000000,4.000000,4.000000,4.000000,4.000000,4.000000,4.000000,4.000000,4.000000,100.000000
1614412143.647132,97.000000,0.000000,7.335220,-0.180817,-2.649893,0.290389,2.405854,7.060957,4.297126,-0.741913,28.154554,7.577413,10.834718,12.307261,19.324980,19.947290,27.382143,8.236189,17.441271,17.284061,35.514442,11.923958,7.535180,16.477203,16.691437,7.779800,8.330185,16.840036,9.626643,2.870226,7.653831,-4.648345,-3.671841,-3.465818,8064.000000,0.000000,4.000000,,,,0.000000,4.000000,4.000000,4.000000,4.000000,4.000000,4.000000,4.000000,4.000000,4.000000,4.000000,4.000000,4.000000,4.000000,4.000000,4.000000,4.000000,4.000000,4.000000,4.000000,4.000000,4.000000,4.000000,4.000000,4.000000,4.000000,4.000000,4.000000,4.000000,4.000000,4.000000,4.000000,4.000000,100.000000
1614412143.654881,98.000000,0.000000,8.353526,-4.283200,-4.698525,0.290099,1.890627,7.053897,3.267188,-0.741171,27.100758,7.569836,10.311063,12.294954,19.818476,17.876062,27.867582,16.433081,15.372547,9.061650,19.581491,1.655624,4.963542,-0.975172,10.008080,7.259200,9.860316,13.746272,7.565734,-3.286490,4.056434,-4.643697,-3.155349,-8.077737,8064.000000,0.000000,4.000000,,,,0.000000,4.000000,4.000000,4.000000,4.000000,4.000000,4.000000,4.000000,4.000000,4.000000,4.000000,4.000000,4.000000,4.000000,4.000000,4.000000,4.000000,4.000000,4.000000,4.000000,4.000000,4.000000,4.000000,4.000000,4.000000,4.000000,4.000000,4.000000,4.000000,4.000000,4.000000,4.000000,4.000000,100.000000
1614412143.662530,99.000000,0.000000,6.293890,-7.868660,-5.206647,0.289809,1.888736,7.046843,0.699818,-0.740430,22.971094,7.562266,10.813572,12.282659,17.747375,18.883827,26.301252,21.032032,13.818713,14.180794,26.228577,-2.961416,-0.682447,-3.025478,7.946789,1.610915,9.337635,14.245347,7.045348,-4.308845,2.001095,-4.126233,-3.152193,-7.556839,8064.000000,0.000000,4.000000,,,,0.000000,4.000000,4.000000,4.000000,4.000000,4.000000,4.000000,4.000000,4.000000,4.000000,4.000000,4.000000,4.000000,4.000000,4.000000,4.000000,4.000000,4.000000,4.000000,4.000000,4.000000,4.000000,4.000000,4.000000,4.000000,4.000000,4.000000,4.000000,4.000000,4.000000,4.000000,4.000000,4.000000,100.000000
1614412143.670279,100.000000,0.000000,4.236314,-4.271048,-4.688620,0.289519,1.886848,7.039796,-0.326523,-0.739689,22.948122,7.554704,13.366860,12.270376,16.191166,18.352123,22.172388,11.780231,13.292074,15.705074,16.458759,-3.471276,-8.886893,-2.509632,6.913201,-5.570183,1.635990,10.641357,6.012662,-4.304535,1.999094,-4.634927,-3.149041,-11.651846,8064.000000,0.000000,4.000000,,,,0.000000,4.000000,4.000000,4.000000,4.000000,4.000000,4.000000,4.000000,4.000000,4.000000,4.000000,4.000000,4.000000,4.000000,4.000000,4.000000,4.000000,4.000000,4.000000,4.000000,4.000000,4.000000,4.000000,4.000000,4.000000,4.000000,4.000000,4.000000,4.000000,4.000000,4.000000,4.000000,4.000000,100.000000
1614412143.677928,101.000000,0.000000,3.719257,-0.164213,-4.683931,0.802050,1.884961,7.032756,0.186624,-0.738950,25.489277,7.547149,14.891955,12.258106,18.226257,17.820950,29.842524,19.460758,13.791602,17.227831,8.749992,-0.903702,-7.852365,-0.968661,8.444750,-8.641536,-1.442569,4.476870,7.545111,-3.787410,1.997095,-4.630292,-3.658713,-22.409426,8064.000000,0.000000,4.000000,,,,0.000000,4.000000,4.000000,4.000000,4.000000,4.000000,4.000000,4.000000,4.000000,4.000000,4.000000,4.000000,4.000000,4.000000,4.000000,4.000000,4.000000,4.000000,4.000000,4.000000,4.000000,4.000000,4.000000,4.000000,4.000000,4.000000,4.000000,4.000000,4.000000,4.000000,4.000000,4.000000,4.000000,100.000000
1614412143.685777,102.000000,0.000000,4.228359,-1.189690,-4.679247,0.288427,1.883076,7.025723,0.186438,-0.225390,24.950968,7.539602,14.364244,12.245848,19.746492,17.803129,36.992168,27.646427,13.777811,24.902910,37.459190,12.430535,4.976000,14.929744,16.128613,-5.043151,8.815284,12.164701,14.717052,2.370223,1.482277,-4.625661,-3.142233,-20.335733,8064.000000,0.000000,4.000000,,,,0.000000,4.000000,4.000000,4.000000,4.000000,4.000000,4.000000,4.000000,4.000000,4.000000,4.000000,4.000000,4.000000,4.000000,4.000000,4.000000,4.000000,4.000000,4.000000,4.000000,4.000000,4.000000,4.000000,4.000000,4.000000,4.000000,4.000000,4.000000,4.000000,4.000000,4.000000,4.000000,4.000000,100.000000
1614412143.693527,103.000000,0.000000,4.224130,-1.188500,-4.674568,-0.224682,1.881193,7.018698,0.186251,-1.763626,24.926016,7.532062,14.349879,12.233602,18.188284,18.298147,26.185944,14.285447,12.738392,23.339546,50.755066,22.674515,12.663332,22.094301,18.163767,6.243944,17.524418,23.434587,18.804899,7.496058,1.993616,-4.621036,-1.087809,-6.982065,8064.000000,0.000000,4.000000,,,,0.000000,4.000000,4.000000,4.000000,4.000000,4.000000,4.000000,4.000000,4.000000,4.000000,4.000000,4.000000,4.000000,4.000000,4.000000,4.000000,4.000000,4.000000,4.000000,4.000000,4.000000,4.000000,4.000000,4.000000,4.000000,4.000000,4.000000,4.000000,4.000000,4.000000,4.000000,4.000000,4.000000,100.000000
1614412143.701376,104.000000,0.000000,4.219906,-0.674491,-4.669894,0.801184,1.879312,7.011679,0.698886,-3.813145,23.875450,7.524530,14.848350,12.221369,16.631634,18.792669,15.903348,6.578854,10.674372,11.521335,18.396618,4.703123,5.984002,8.738873,10.966115,12.391545,15.455611,21.359871,16.221992,4.924459,1.991622,-4.616415,0.964561,-4.410980,8064.000000,0.000000,4.000000,,,,0.000000,4.000000,4.000000,4.000000,4.000000,4.000000,4.000000,4.000000,4.000000,4.000000,4.000000,4.000000,4.000000,4.000000,4.000000,4.000000,4.000000,4.000000,4.000000,4.000000,4.000000,4.000000,4.000000,4.000000,4.000000,4.000000,4.000000,4.000000,4.000000,4.000000,4.000000,4.000000,4.000000,100.000000
1614412143.709125,105.000000,0.000000,4.215686,-4.263560,-4.665224,-0.225258,1.877432,7.004667,-0.327454,-4.322152,21.287472,7.517005,14.320681,12.209147,14.050900,17.235415,17.425907,12.726121,9.638056,5.868788,-2.134599,-17.352863,-3.252752,-0.500635,6.852585,3.148385,10.311950,17.748768,13.641668,2.868253,1.989630,-5.124619,0.450776,-11.586056,8064.000000,0.000000,4.000000,,,,0.000000,4.000000,4.000000,4.000000,4.000000,4.000000,4.000000,4.000000,4.000000,4.000000,4.000000,4.000000,4.000000,4.000000,4.000000,4.000000,4.000000,4.000000,4.000000,4.000000,4.000000,4.000000,4.000000,4.000000,4.000000,4.000000,4.000000,4.000000,4.000000,4.000000,4.000000,4.000000,4.000000,100.000000
1614412143.716974,106.000000,0.000000,4.211471,-4.259297,-4.660559,-5.353238,1.875555,4.946381,-2.891229,-4.830650,20.753363,6.996668,14.306360,12.196938,11.985567,14.141256,19.972584,12.713395,10.141238,7.401381,22.482920,-7.079100,-6.326422,2.063968,7.871373,-7.623994,9.275997,23.884865,14.653667,3.891026,1.987641,-4.093853,0.450325,-13.112931,8064.000000,0.000000,4.000000,,,,0.000000,4.000000,4.000000,4.000000,4.000000,4.000000,4.000000,4.000000,4.000000,4.000000,4.000000,4.000000,4.000000,4.000000,4.000000,4.000000,4.000000,4.000000,4.000000,4.000000,4.000000,4.000000,4.000000,4.000000,4.000000,4.000000,4.000000,4.000000,4.000000,4.000000,4.000000,4.000000,4.000000,100.000000
1614412143.724723,107.000000,0.000000,4.207259,-1.690935,-4.655898,-7.399167,1.873679,3.402973,-3.913979,-4.312999,21.245430,7.502492,14.292053,12.184741,12.999223,15.152756,20.978252,11.675040,10.131098,7.906800,43.998898,8.312595,-5.294455,2.574725,8.376323,-5.052268,9.779542,24.886621,15.151834,3.887135,1.985653,-1.525657,0.449875,-11.561357,8064.000000,0.000000,4.000000,,,,0.000000,4.000000,4.000000,4.000000,4.000000,4.000000,4.000000,4.000000,4.000000,4.000000,4.000000,4.000000,4.000000,4.000000,4.000000,4.000000,4.000000,4.000000,4.000000,4.000000,4.000000,4.000000,4.000000,4.000000,4.000000,4.000000,4.000000,4.000000,4.000000,4.000000,4.000000,4.000000,4.000000,100.000000
1614412143.732572,108.000000,0.000000,3.690231,-3.227705,-4.651242,-3.802024,1.871806,3.399570,-3.910065,-4.308686,21.224184,7.494989,12.739300,12.172556,8.370839,15.137603,15.829068,7.560801,10.120966,3.283508,31.647207,-5.029051,-5.801980,0.520868,7.342305,0.080990,9.256942,16.656607,13.085401,2.857606,1.983667,-0.498490,0.449425,-12.062616,8064.000000,0.000000,4.000000,,,,0.000000,4.000000,4.000000,4.000000,4.000000,4.000000,4.000000,4.000000,4.000000,4.000000,4.000000,4.000000,4.000000,4.000000,4.000000,4.000000,4.000000,4.000000,4.000000,4.000000,4.000000,4.000000,4.000000,4.000000,4.000000,4.000000,4.000000,4.000000,4.000000,4.000000,4.000000,4.000000,4.000000,100.000000
1614412143.740321,109.000000,0.000000,4.199361,-4.762939,-4.646591,-3.798222,1.869934,3.396170,-3.906155,-6.355659,21.202961,6.974674,10.162458,12.160383,0.157340,8.455799,4.531188,-1.677529,9.598024,-1.335160,20.846331,-16.306074,-7.334640,0.007527,6.822142,0.080909,8.734864,12.537386,9.995392,3.367569,1.981684,-1.523633,0.448975,-12.563375,8064.000000,0.000000,4.000000,,,,0.000000,4.000000,4.000000,4.000000,4.000000,4.000000,4.000000,4.000000,4.000000,4.000000,4.000000,4.000000,4.000000,4.000000,4.000000,4.000000,4.000000,4.000000,4.000000,4.000000,4.000000,4.000000,4.000000,4.000000,4.000000,4.000000,4.000000,4.000000,4.000000,4.000000,4.000000,4.000000,4.000000,100.000000
1614412143.748170,110.000000,0.000000,4.195162,-2.194074,-4.641944,-6.871347,1.868064,3.392774,-3.902249,-7.374945,21.181757,7.480520,10.665116,11.635403,5.285388,3.319138,11.193323,6.016457,10.101247,0.717457,31.081894,-5.520536,-5.788844,1.033160,8.353782,-0.944813,9.238950,13.550489,10.498217,3.364202,1.979702,1.041993,0.448526,-12.550811,8064.000000,0.000000,4.000000,,,,0.000000,4.000000,4.000000,4.000000,4.000000,4.000000,4.000000,4.000000,4.000000,4.000000,4.000000,4.000000,4.000000,4.000000,4.000000,4.000000,4.000000,4.000000,4.000000,4.000000,4.000000,4.000000,4.000000,4.000000,4.000000,4.000000,4.000000,4.000000,4.000000,4.000000,4.000000,4.000000,4.000000,100.000000
1614412143.755919,111.000000,0.000000,3.678147,-1.679059,-4.637302,-7.890117,1.866196,3.389381,-3.898347,-3.265006,21.160576,10.037142,13.218554,12.136588,15.536512,5.879921,28.105207,21.907875,10.603967,6.357766,25.409786,-7.053477,-5.783055,2.057768,10.909531,0.081773,9.229711,13.536939,11.000539,2.848017,1.977722,3.092233,0.448078,-12.538260,8064.000000,0.000000,4.000000,,,,0.000000,4.000000,4.000000,4.000000,4.000000,4.000000,4.000000,4.000000,4.000000,4.000000,4.000000,4.000000,4.000000,4.000000,4.000000,4.000000,4.000000,4.000000,4.000000,4.000000,4.000000,4.000000,4.000000,4.000000,4.000000,4.000000,4.000000,4.000000,4.000000,4.000000,4.000000,4.000000,4.000000,100.000000
1614412143.763768,112.000000,0.000000,4.700109,0.373902,-4.632665,-6.343765,1.864330,3.385992,-3.381628,0.328003,21.139416,10.027104,14.743796,12.637272,12.444053,7.925323,27.051460,15.732121,8.542081,7.377049,8.461299,-18.328476,-10.905478,-1.534033,11.411442,0.081691,9.220481,13.010581,7.399795,4.383630,1.975745,0.525039,0.447630,-12.525722,8064.000000,0.000000,4.000000,,,,0.000000,4.000000,4.000000,4.000000,4.000000,4.000000,4.000000,4.000000,4.000000,4.000000,4.000000,4.000000,4.000000,4.000000,4.000000,4.000000,4.000000,4.000000,4.000000,4.000000,4.000000,4.000000,4.000000,4.000000,4.000000,4.000000,4.000000,4.000000,4.000000,4.000000,4.000000,4.000000,4.000000,100.000000
1614412143.771517,113.000000,0.000000,9.310794,5.501733,-4.628032,-4.798960,1.349645,3.382606,-0.301323,-0.697966,21.118277,7.452975,14.216232,11.598993,8.329044,6.891757,20.870564,2.383056,8.020718,8.908134,20.247709,-7.028095,-11.407393,0.005962,11.912850,0.081609,9.211261,12.997571,8.930857,6.430529,1.973769,-1.013948,0.447182,-12.513196,8064.000000,0.000000,4.000000,,,,0.000000,4.000000,4.000000,4.000000,4.000000,4.000000,4.000000,4.000000,4.000000,4.000000,4.000000,4.000000,4.000000,4.000000,4.000000,4.000000,4.000000,4.000000,4.000000,4.000000,4.000000,4.000000,4.000000,4.000000,4.000000,4.000000,4.000000,4.000000,4.000000,4.000000,4.000000,4.000000,4.000000,100.000000
1614412143.779166,114.000000,0.000000,11.865585,4.470591,-4.623405,-3.255699,1.861116,3.379223,3.288722,-1.210089,21.097158,9.496804,14.202016,12.613035,12.936100,7.397686,25.465076,5.457596,10.576799,13.001789,35.612076,10.927650,-3.190857,12.313648,18.567604,0.594348,10.740511,13.497394,15.588593,7.449739,1.971795,1.551169,0.446735,-12.500683,8064.000000,0.000000,4.000000,,,,0.000000,4.000000,4.000000,4.000000,4.000000,4.000000,4.000000,4.000000,4.000000,4.000000,4.000000,4.000000,4.000000,4.000000,4.000000,4.000000,4.000000,4.000000,4.000000,4.000000,4.000000,4.000000,4.000000,4.000000,4.000000,4.000000,4.000000,4.000000,4.000000,4.000000,4.000000,4.000000,4.000000,100.000000
1614412143.786915,115.000000,0.000000,11.853720,0.363556,-4.618781,-3.252444,3.910537,2.863024,4.311074,-0.183238,21.076061,11.538589,14.187814,15.677345,17.538549,9.954391,24.926792,10.580344,15.181607,14.527249,23.268774,12.968005,1.940539,20.506464,22.651602,2.645036,13.293873,13.483896,17.111465,6.929469,1.969823,3.088079,0.446288,-12.488182,8064.000000,0.000000,4.000000,,,,0.000000,4.000000,4.000000,4.000000,4.000000,4.000000,4.000000,4.000000,4.000000,4.000000,4.000000,4.000000,4.000000,4.000000,4.000000,4.000000,4.000000,4.000000,4.000000,4.000000,4.000000,4.000000,4.000000,4.000000,4.000000,4.000000,4.000000,4.000000,4.000000,4.000000,4.000000,4.000000,4.000000,100.000000
