title:01, start timestamp:1614560911.978106, stop timestamp:1614560957.789185, headset type:EPOCFLEX, headset serial:F00001ED, headset firmware:f12, subject name:s15, channels:75, sampling rate:128, samples:5913      , version:2.0
Timestamp,EEG.Counter,EEG.Interpolated,EEG.Cz,EEG.Fz,EEG.Fp1,EEG.F7,EEG.F3,EEG.FC1,EEG.C3,EEG.FC5,EEG.FT9,EEG.T7,EEG.TP9,EEG.CP5,EEG.CP1,EEG.P3,EEG.P7,EEG.O1,EEG.Pz,EEG.Oz,EEG.O2,EEG.P8,EEG.P4,EEG.CP2,EEG.CP6,EEG.TP10,EEG.T8,EEG.FT10,EEG.FC6,EEG.C4,EEG.FC2,EEG.F4,EEG.F8,EEG.Fp2,EEG.HighBitFlex,EEG.RawCq,EEG.Battery,MarkerIndex,MarkerType,MarkerValueInt,EEG.MarkerHardware,CQ.Cz,CQ.Fz,CQ.Fp1,CQ.F7,CQ.F3,CQ.FC1,CQ.C3,CQ.FC5,CQ.FT9,CQ.T7,CQ.TP9,CQ.CP5,CQ.CP1,CQ.P3,CQ.P7,CQ.O1,CQ.Pz,CQ.Oz,CQ.O2,CQ.P8,CQ.P4,CQ.CP2,CQ.CP6,CQ.TP10,CQ.T8,CQ.FT10,CQ.FC6,CQ.C4,CQ.FC2,CQ.F4,CQ.F8,CQ.Fp2,CQ.Overall
1614560911.978106,23.000000,0.000000,-12.664414,-3.189635,10.378821,-12.974011,-22.186308,-7.124479,-5.309863,-8.425294,-7.065827,-21.391619,-28.091759,-11.106007,-16.096581,-21.225643,-15.709062,-24.128756,-20.274866,-23.025591,-37.428284,-32.225807,-18.420496,-13.722992,-18.578337,-34.214767,-20.570892,-23.727407,-18.134159,-18.423681,-8.163469,-15.353857,-20.601784,-6.936681,0.000000,222.000000,4.000000,,,,0.000000,4.000000,4.000000,4.000000,4.000000,2.000000,4.000000,4.000000,4.000000,4.000000,4.000000,4.000000,4.000000,4.000000,4.000000,4.000000,4.000000,4.000000,4.000000,4.000000,4.000000,4.000000,4.000000,4.000000,4.000000,4.000000,4.000000,4.000000,4.000000,4.000000,4.000000,4.000000,4.000000,83.333336
1614560911.985755,24.000000,0.000000,-11.626109,5.531504,39.599213,19.859474,-18.574377,-5.066072,1.874934,3.890824,14.479701,-8.036894,-27.550846,-5.966696,-8.388176,-18.127495,-17.744635,-26.155909,-16.664848,-25.053846,-35.852394,-27.065376,-11.735408,-12.170807,-18.559759,-31.616449,-19.011860,-8.831884,-17.603205,-16.353975,-1.488639,-9.697477,-24.683746,19.224102,0.000000,197.000000,4.000000,,,,0.000000,4.000000,4.000000,4.000000,4.000000,2.000000,4.000000,4.000000,4.000000,4.000000,4.000000,4.000000,4.000000,4.000000,4.000000,4.000000,4.000000,4.000000,4.000000,4.000000,4.000000,4.000000,4.000000,4.000000,4.000000,4.000000,4.000000,4.000000,4.000000,4.000000,4.000000,4.000000,4.000000,83.333336
1614560911.993505,25.000000,0.000000,-11.101663,9.115716,55.457047,17.275513,-13.427598,-3.009724,5.975624,12.092062,24.721632,-1.875010,-29.061758,-3.909447,-1.200301,-9.391419,-12.085864,-24.078472,-9.468697,-18.874947,-29.149874,-20.884464,-7.108288,-5.491970,-18.028378,-21.841244,-13.864644,-7.284591,-17.585600,-16.850443,2.102593,-7.636497,-21.582140,28.948467,0.000000,191.000000,4.000000,,,,0.000000,4.000000,4.000000,4.000000,4.000000,2.000000,4.000000,4.000000,4.000000,4.000000,4.000000,4.000000,4.000000,4.000000,4.000000,4.000000,4.000000,4.000000,4.000000,4.000000,4.000000,4.000000,4.000000,4.000000,4.000000,4.000000,4.000000,4.000000,4.000000,4.000000,4.000000,4.000000,4.000000,83.333336
1614560912.001154,26.000000,0.000000,-5.962356,0.388651,25.658001,-9.408429,-15.465452,-3.519535,5.456828,6.951764,4.696909,-12.642366,-20.827568,-1.854256,-0.686280,-1.689720,-6.945573,-19.439009,0.797183,-13.215046,-24.505339,-8.555888,-3.511436,-0.871093,-15.959067,-9.511710,-12.825138,-17.020897,-17.568014,-16.833591,1.074849,-10.192964,-31.816967,1.227212,0.000000,198.000000,4.000000,,,,0.000000,4.000000,4.000000,4.000000,4.000000,2.000000,4.000000,4.000000,4.000000,4.000000,4.000000,4.000000,4.000000,4.000000,4.000000,4.000000,4.000000,4.000000,4.000000,4.000000,4.000000,4.000000,4.000000,4.000000,4.000000,4.000000,4.000000,4.000000,4.000000,4.000000,4.000000,4.000000,4.000000,83.333336
1614560912.008904,27.000000,0.000000,0.197453,-7.304045,0.504138,-2.732354,-20.578192,-3.516015,4.938550,1.816607,-9.666761,-16.219467,-7.986227,2.250163,-1.711235,-0.662389,-7.964269,-15.829825,5.924591,-14.227472,-25.506475,-1.880666,-1.969463,-1.383043,-13.891827,-5.912455,-15.889235,-17.003876,-17.550447,-16.303938,1.073774,-11.721232,-47.682587,-22.363760,0.000000,204.000000,4.000000,,,,0.000000,4.000000,4.000000,4.000000,4.000000,2.000000,4.000000,4.000000,4.000000,4.000000,4.000000,4.000000,4.000000,4.000000,4.000000,4.000000,4.000000,4.000000,4.000000,4.000000,4.000000,4.000000,4.000000,4.000000,4.000000,4.000000,4.000000,4.000000,4.000000,4.000000,4.000000,4.000000,4.000000,83.333336
1614560912.016553,28.000000,0.000000,0.710076,-7.296741,11.785686,11.629353,-18.506332,-3.512499,5.446432,2.840432,-4.016069,-13.126325,-5.414138,2.760733,-1.196703,-1.687368,-8.469125,-15.301175,4.380205,-14.726066,-25.993788,-3.930067,-2.993135,-1.894480,-13.877934,-7.445004,-16.898987,-14.935589,-17.532896,-16.800455,1.585521,-12.222332,-47.122082,-18.238831,0.000000,196.000000,4.000000,,,,0.000000,4.000000,4.000000,4.000000,4.000000,2.000000,4.000000,4.000000,4.000000,4.000000,4.000000,4.000000,4.000000,4.000000,4.000000,4.000000,4.000000,4.000000,4.000000,4.000000,4.000000,4.000000,4.000000,4.000000,4.000000,4.000000,4.000000,4.000000,4.000000,4.000000,4.000000,4.000000,4.000000,83.333336
1614560912.024302,29.000000,0.000000,0.196546,-6.263803,19.466208,0.335672,-13.359620,-3.508987,4.928165,2.837591,1.116152,-15.164480,-7.460006,-0.318951,-1.195506,-1.172860,-7.435015,-15.285874,4.888645,-13.685699,-19.813950,-3.413316,-1.964501,-1.379765,-14.376877,-6.924738,-16.369268,-15.946295,-17.515364,-15.758013,1.583936,-9.133186,-38.869831,-12.066746,0.000000,183.000000,4.000000,,,,0.000000,4.000000,4.000000,4.000000,4.000000,2.000000,4.000000,4.000000,4.000000,4.000000,4.000000,4.000000,4.000000,4.000000,4.000000,4.000000,4.000000,4.000000,4.000000,4.000000,4.000000,4.000000,4.000000,4.000000,4.000000,4.000000,4.000000,4.000000,4.000000,4.000000,4.000000,4.000000,4.000000,83.333336
1614560912.031952,30.000000,0.000000,1.221990,-7.283180,-0.040438,-3.254407,-12.833440,-3.505478,4.923237,1.809113,-1.449067,-11.559572,-6.426905,-0.318632,-0.681490,-0.658867,-7.940400,-12.193666,6.422218,-13.159192,-13.640288,-2.384262,1.627208,-0.352744,-13.849680,-5.892173,-16.352900,-15.930348,-16.985027,-13.178152,1.582352,-7.072771,-36.779682,-22.823910,0.000000,187.000000,4.000000,,,,0.000000,4.000000,4.000000,4.000000,4.000000,2.000000,4.000000,4.000000,4.000000,4.000000,4.000000,4.000000,4.000000,4.000000,4.000000,4.000000,4.000000,4.000000,4.000000,4.000000,4.000000,4.000000,4.000000,4.000000,4.000000,4.000000,4.000000,4.000000,4.000000,4.000000,4.000000,4.000000,4.000000,83.333336
1614560912.039701,31.000000,0.000000,-1.856155,-7.275897,-14.912192,7.518078,-13.333427,-3.501972,4.918314,1.807304,-1.447618,-4.881346,-10.523043,-0.318313,-1.193630,-1.683849,-7.419639,-10.643010,-2.814974,-14.171674,-13.626648,-4.433160,1.112760,-1.890853,-13.835830,-10.501665,-14.285264,-17.965700,-17.480864,-12.652153,1.067949,-14.758006,-37.768543,-36.647240,0.000000,178.000000,4.000000,,,,0.000000,4.000000,4.000000,4.000000,4.000000,2.000000,4.000000,4.000000,4.000000,4.000000,4.000000,4.000000,4.000000,4.000000,4.000000,4.000000,4.000000,4.000000,4.000000,4.000000,4.000000,4.000000,4.000000,4.000000,4.000000,4.000000,4.000000,4.000000,4.000000,4.000000,4.000000,4.000000,4.000000,83.333336
1614560912.047350,32.000000,0.000000,-3.905581,-6.755801,-14.897281,0.843893,-13.832914,-3.498471,4.913395,1.805496,-0.420529,-4.363645,-16.666367,-0.317995,-4.782179,-2.707806,-4.848117,-12.683649,-14.094210,-13.644682,-14.638662,-3.403085,-3.503738,-5.991526,-14.334815,-17.670650,-12.732517,-25.127222,-17.463383,-12.639502,1.066881,-21.922735,-36.705132,-41.738796,8064.000000,0.000000,4.000000,,,,0.000000,4.000000,4.000000,4.000000,4.000000,2.000000,4.000000,4.000000,4.000000,4.000000,4.000000,4.000000,4.000000,4.000000,4.000000,4.000000,4.000000,4.000000,4.000000,4.000000,4.000000,4.000000,4.000000,4.000000,4.000000,4.000000,4.000000,4.000000,4.000000,4.000000,4.000000,4.000000,4.000000,83.333336
1614560912.055200,33.000000,0.000000,-3.388855,-6.749045,-13.343922,-6.336438,-13.306261,-3.494972,4.908482,1.803691,-0.420109,-2.307999,-17.162519,2.246426,-4.777397,-0.653816,-3.817628,-4.978658,-14.080115,-11.066935,-13.598383,-4.425323,-5.551516,-8.036817,-14.320480,-23.294006,-12.206964,-27.666197,-16.420279,-12.114041,2.091455,-18.823889,-36.668427,-40.671417,8064.000000,0.000000,4.000000,,,,0.000000,4.000000,4.000000,4.000000,4.000000,2.000000,4.000000,4.000000,4.000000,4.000000,4.000000,4.000000,4.000000,4.000000,4.000000,4.000000,4.000000,4.000000,4.000000,4.000000,4.000000,4.000000,4.000000,4.000000,4.000000,4.000000,4.000000,4.000000,4.000000,4.000000,4.000000,4.000000,4.000000,83.333336
1614560912.062949,34.000000,0.000000,-7.488030,-6.742296,-10.253654,9.054514,-9.703211,-3.491477,4.903574,4.365990,0.093132,2.822514,-17.145357,3.269820,-5.798261,-2.191624,-4.326631,3.231449,-15.091677,-11.055867,-14.097605,-15.702950,-11.699811,-11.618524,-13.793339,-28.911737,-12.194757,-25.074429,-18.455139,-16.204491,-0.474739,-21.881989,-36.118938,-33.964081,8064.000000,0.000000,4.000000,,,,0.000000,4.000000,4.000000,4.000000,4.000000,2.000000,4.000000,4.000000,4.000000,4.000000,4.000000,4.000000,4.000000,4.000000,4.000000,4.000000,4.000000,4.000000,4.000000,4.000000,4.000000,4.000000,4.000000,4.000000,4.000000,4.000000,4.000000,4.000000,4.000000,4.000000,4.000000,4.000000,4.000000,83.333336
1614560912.070798,35.000000,0.000000,-15.172850,-6.735554,-11.269042,20.327511,-10.719149,-3.487986,4.898670,5.900085,-0.932602,1.794051,-18.153852,3.266551,-17.074514,-10.907381,-4.835125,-9.079474,-28.922739,-15.660196,-18.698893,-27.482119,-23.995804,-19.299213,-16.343649,-34.523849,-15.259485,-29.664738,-23.564890,-22.854954,-7.653751,-32.629337,-37.108459,-33.930115,8064.000000,0.000000,4.000000,,,,0.000000,4.000000,4.000000,4.000000,4.000000,2.000000,4.000000,4.000000,4.000000,4.000000,4.000000,4.000000,4.000000,4.000000,4.000000,4.000000,4.000000,4.000000,4.000000,4.000000,4.000000,4.000000,4.000000,4.000000,4.000000,4.000000,4.000000,4.000000,4.000000,4.000000,4.000000,4.000000,4.000000,83.333336
1614560912.078548,36.000000,0.000000,-13.619215,-6.728818,-18.950081,19.281542,-15.836635,-3.997318,4.893771,5.381365,-3.495772,-1.797487,-16.084417,6.340207,-21.160004,-10.896474,-4.830290,-21.890907,-34.022022,-18.208639,-22.269938,-27.454636,-25.510269,-21.331196,-20.429869,-35.002148,-16.782688,-38.865841,-25.079786,-24.883381,-10.723021,-34.647991,-41.686737,-50.819263,8064.000000,0.000000,4.000000,,,,0.000000,4.000000,4.000000,4.000000,4.000000,2.000000,4.000000,4.000000,4.000000,4.000000,4.000000,4.000000,4.000000,4.000000,4.000000,4.000000,4.000000,4.000000,4.000000,4.000000,4.000000,4.000000,4.000000,4.000000,4.000000,4.000000,4.000000,4.000000,4.000000,4.000000,4.000000,4.000000,4.000000,83.333336
1614560912.086397,37.000000,0.000000,-7.964571,-6.722089,-16.879848,18.236620,-14.282336,-3.480500,4.888877,8.452907,-4.005097,-1.282869,-19.145256,6.333867,-7.805510,-2.167628,-3.799818,-17.253632,-22.193127,-17.677608,-22.247667,-22.298977,-16.253990,-17.720121,-20.922260,-32.915863,-12.663341,-36.262875,-21.977783,-24.345676,-9.686657,-29.997957,-44.209152,-55.896648,8064.000000,0.000000,4.000000,,,,0.000000,4.000000,4.000000,4.000000,4.000000,2.000000,4.000000,4.000000,4.000000,4.000000,4.000000,4.000000,4.000000,4.000000,4.000000,4.000000,4.000000,4.000000,4.000000,4.000000,4.000000,4.000000,4.000000,4.000000,4.000000,4.000000,4.000000,4.000000,4.000000,4.000000,4.000000,4.000000,4.000000,83.333336
1614560912.094146,38.000000,0.000000,-7.443785,-6.715367,-10.709123,13.090178,-10.165490,-2.964199,4.883989,13.059838,-4.001091,-1.281586,-24.254316,3.250610,-0.105397,-5.755204,-5.334480,-18.262020,-17.555550,-19.198393,-22.738239,-21.251036,-13.673633,-17.702400,-16.798773,-34.934231,-8.548113,-30.585587,-21.442986,-23.808510,-9.676970,-29.455139,-44.164944,-43.533058,8192.000000,0.000000,4.000000,,,,0.000000,4.000000,4.000000,4.000000,4.000000,2.000000,4.000000,4.000000,4.000000,4.000000,4.000000,4.000000,4.000000,4.000000,4.000000,4.000000,4.000000,4.000000,4.000000,4.000000,4.000000,4.000000,4.000000,4.000000,4.000000,4.000000,4.000000,4.000000,4.000000,4.000000,4.000000,4.000000,4.000000,83.333336
1614560912.101995,39.000000,0.000000,-7.436342,-6.708652,-19.929182,7.948883,-13.745069,-4.499697,4.879105,12.533957,-7.586834,-1.280304,-14.999292,5.298641,-3.182215,-8.313552,-5.329145,-21.833502,-17.025173,-18.666374,-23.228321,-15.075939,-13.659959,-14.094954,-15.243513,-33.360832,-8.539565,-38.760128,-20.908722,-24.810343,-10.180114,-30.451324,-45.659241,-53.233116,8064.000000,0.000000,4.000000,,,,0.000000,4.000000,4.000000,4.000000,4.000000,2.000000,4.000000,4.000000,4.000000,4.000000,4.000000,4.000000,4.000000,4.000000,4.000000,4.000000,4.000000,4.000000,4.000000,4.000000,4.000000,4.000000,4.000000,4.000000,4.000000,4.000000,4.000000,4.000000,4.000000,4.000000,4.000000,4.000000,4.000000,83.333336
1614560912.109745,40.000000,0.000000,-3.839162,-6.701943,-32.216946,10.505036,-17.321066,-3.982376,7.438328,8.931681,-11.681811,0.772258,-0.112498,10.421548,5.026096,8.105019,3.906953,-6.427052,-2.649174,-9.929759,-14.999966,-2.240350,-3.902709,-0.234706,-14.715448,-16.917217,-9.043846,-48.464958,-17.810890,-24.785532,-9.657113,-29.395233,-48.177685,-74.718346,8064.000000,0.000000,4.000000,,,,0.000000,4.000000,4.000000,4.000000,4.000000,2.000000,4.000000,4.000000,4.000000,4.000000,4.000000,4.000000,4.000000,4.000000,4.000000,4.000000,4.000000,4.000000,4.000000,4.000000,4.000000,4.000000,4.000000,4.000000,4.000000,4.000000,4.000000,4.000000,4.000000,4.000000,4.000000,4.000000,4.000000,83.333336
1614560912.117594,41.000000,0.000000,-0.245579,-6.695241,-32.697548,7.417608,-16.278105,3.201093,8.969352,8.922749,-11.670130,2.822768,3.477358,10.923946,17.328762,17.327682,13.646636,8.451169,12.225270,-6.842906,-4.728555,6.992659,5.331963,7.970657,-7.008426,-0.490043,-8.521982,-48.929314,-17.280258,-17.581261,-9.647456,-28.853016,-48.129505,-68.489777,8064.000000,0.000000,4.000000,,,,0.000000,4.000000,4.000000,4.000000,4.000000,2.000000,4.000000,4.000000,4.000000,4.000000,4.000000,4.000000,4.000000,4.000000,4.000000,4.000000,4.000000,4.000000,4.000000,4.000000,4.000000,4.000000,4.000000,4.000000,4.000000,4.000000,4.000000,4.000000,4.000000,4.000000,4.000000,4.000000,4.000000,83.333336
1614560912.125343,42.000000,0.000000,0.267487,-6.688546,-31.639210,3.820447,-18.825930,2.685072,6.909100,9.939466,-11.145639,2.307124,0.909778,9.887382,12.696049,6.028304,14.658630,6.391436,13.238686,-8.374525,-4.211006,7.498487,5.326631,5.911404,3.254993,1.048908,-9.026280,-49.906025,-16.237337,-7.820089,-10.150629,-30.875446,-45.004452,-54.062317,8064.000000,0.000000,4.000000,,,,0.000000,4.000000,4.000000,4.000000,4.000000,2.000000,4.000000,4.000000,4.000000,4.000000,4.000000,4.000000,4.000000,4.000000,4.000000,4.000000,4.000000,4.000000,4.000000,4.000000,4.000000,4.000000,4.000000,4.000000,4.000000,4.000000,4.000000,4.000000,4.000000,4.000000,4.000000,4.000000,4.000000,83.333336
1614560912.133192,43.000000,0.000000,-0.245601,-4.630575,-30.069111,14.585857,-18.807104,-5.522742,4.850909,9.416707,-11.647314,2.304817,1.934510,10.390315,5.503865,0.381250,13.618330,2.795301,10.148524,1.890260,-2.155513,9.542271,4.295663,5.392673,5.303020,-0.490602,-9.530074,-43.702274,-11.092895,-4.222525,-9.114838,-28.280468,-40.344063,-52.982613,8064.000000,0.000000,4.000000,,,,0.000000,4.000000,4.000000,4.000000,4.000000,2.000000,4.000000,4.000000,4.000000,4.000000,4.000000,4.000000,4.000000,4.000000,4.000000,4.000000,4.000000,4.000000,4.000000,4.000000,4.000000,4.000000,4.000000,4.000000,4.000000,4.000000,4.000000,4.000000,4.000000,4.000000,4.000000,4.000000,4.000000,83.333336
1614560912.140942,44.000000,0.000000,-0.245355,-2.574663,-22.859554,21.237938,-14.172912,-2.953116,6.897340,8.894469,-11.635667,2.302513,3.471037,10.892745,9.088105,3.457792,14.630353,4.843788,9.112735,16.247343,11.692797,14.148113,5.317008,6.925741,3.759256,4.125273,-8.494904,-29.812418,-10.056161,-5.756764,-6.541620,-20.559879,-36.713978,-47.288605,8064.000000,0.000000,4.000000,,,,0.000000,4.000000,4.000000,4.000000,4.000000,2.000000,4.000000,4.000000,4.000000,4.000000,4.000000,4.000000,4.000000,4.000000,4.000000,4.000000,4.000000,4.000000,4.000000,4.000000,4.000000,4.000000,4.000000,4.000000,4.000000,4.000000,4.000000,4.000000,4.000000,4.000000,4.000000,4.000000,4.000000,83.333336
1614560912.148591,45.000000,0.000000,0.267711,-2.572088,-20.272591,13.524392,-17.235662,4.229324,8.941725,9.398396,-10.598390,2.813030,1.929104,10.369032,8.053376,0.890231,13.077261,4.326124,8.077981,15.205456,20.911873,14.646786,4.798871,4.867533,4.781137,5.659609,-9.512050,-28.756964,-13.123028,-5.238187,-5.509437,-19.513678,-36.164444,-43.138752,8064.000000,0.000000,4.000000,,,,0.000000,4.000000,4.000000,4.000000,4.000000,2.000000,4.000000,4.000000,4.000000,4.000000,4.000000,4.000000,4.000000,4.000000,4.000000,4.000000,4.000000,4.000000,4.000000,4.000000,4.000000,4.000000,4.000000,4.000000,4.000000,4.000000,4.000000,4.000000,4.000000,4.000000,4.000000,4.000000,4.000000,83.333336
1614560912.156340,46.000000,0.000000,-0.245378,-3.082337,-23.842062,11.972406,-24.397913,-0.903111,8.419962,9.388997,-11.613433,2.297397,1.414354,10.358663,1.891477,-2.187582,9.987261,5.347438,7.557082,11.600507,19.352499,11.042395,4.794072,1.785743,4.776356,3.089847,-8.476896,-36.933334,-14.135546,-5.745770,-7.042389,-21.545446,-36.128277,-49.762280,8064.000000,0.000000,4.000000,,,,0.000000,4.000000,4.000000,4.000000,4.000000,2.000000,4.000000,4.000000,4.000000,4.000000,4.000000,4.000000,4.000000,4.000000,4.000000,4.000000,4.000000,4.000000,4.000000,4.000000,4.000000,4.000000,4.000000,4.000000,4.000000,4.000000,4.000000,4.000000,4.000000,4.000000,4.000000,4.000000,4.000000,83.333336
1614560912.163990,47.000000,0.000000,-0.245132,-3.079254,-24.331041,13.498896,-23.860695,-1.927848,7.898722,9.379608,-11.088999,2.295099,2.951402,10.861125,1.376764,-2.185395,10.490094,8.419014,8.062346,16.204290,19.333147,10.005712,7.866201,1.271137,3.745939,4.625219,-3.340214,-32.281017,-13.095769,-5.740024,-4.471244,-14.344415,-36.092148,-45.609955,8064.000000,0.000000,4.000000,,,,0.000000,4.000000,4.000000,4.000000,4.000000,2.000000,4.000000,4.000000,4.000000,4.000000,4.000000,4.000000,4.000000,4.000000,4.000000,4.000000,4.000000,4.000000,4.000000,4.000000,4.000000,4.000000,4.000000,4.000000,4.000000,4.000000,4.000000,4.000000,4.000000,4.000000,4.000000,4.000000,4.000000,83.333336
1614560912.171739,48.000000,0.000000,-0.244887,-2.563354,-21.229786,4.767448,-20.759911,2.689464,8.403644,9.370229,-4.411243,2.805625,1.409989,9.311802,-1.188715,-3.208850,9.453963,6.872134,6.003001,11.572701,18.288172,11.021347,7.858335,1.782686,4.255013,3.594953,2.304151,-21.992325,-11.031391,-5.221463,2.199894,-6.637762,-36.056057,-32.231010,8064.000000,0.000000,4.000000,,,,0.000000,4.000000,4.000000,4.000000,4.000000,2.000000,4.000000,4.000000,4.000000,4.000000,4.000000,4.000000,4.000000,4.000000,4.000000,4.000000,4.000000,4.000000,4.000000,4.000000,4.000000,4.000000,4.000000,4.000000,4.000000,4.000000,4.000000,4.000000,4.000000,4.000000,4.000000,4.000000,4.000000,83.333336
1614560912.179389,49.000000,0.000000,-0.244642,-2.560791,-20.695736,0.147296,-19.713511,-3.467072,8.395240,9.360859,0.208553,0.751537,-8.847832,7.251208,-8.879834,-5.256923,2.265022,0.198595,-2.720951,-2.285025,3.398090,4.856479,1.696630,1.780903,3.225117,-9.229156,1.276206,-20.944693,-9.481898,-7.780344,6.300258,-6.118304,-36.020000,-30.147497,8064.000000,0.000000,4.000000,,,,0.000000,4.000000,4.000000,4.000000,4.000000,2.000000,4.000000,4.000000,4.000000,4.000000,4.000000,4.000000,4.000000,4.000000,4.000000,4.000000,4.000000,4.000000,4.000000,4.000000,4.000000,4.000000,4.000000,4.000000,4.000000,4.000000,4.000000,4.000000,4.000000,4.000000,4.000000,4.000000,4.000000,83.333336
1614560912.187138,50.000000,0.000000,-0.757218,-4.096692,-20.162220,4.762533,-20.206617,-10.130271,8.386845,9.351498,-3.894220,-3.351778,-17.556932,6.218316,-10.409415,-6.277308,-4.403910,-10.058014,-8.359255,-11.000689,-11.989923,-6.943249,-3.433271,1.779122,-1.393492,-22.553259,-3.340455,-24.513491,-9.985237,-8.798204,3.729855,-7.137826,-37.009621,-35.758377,8064.000000,0.000000,4.000000,,,,0.000000,4.000000,4.000000,4.000000,4.000000,2.000000,4.000000,4.000000,4.000000,4.000000,4.000000,4.000000,4.000000,4.000000,4.000000,4.000000,4.000000,4.000000,4.000000,4.000000,4.000000,4.000000,4.000000,4.000000,4.000000,4.000000,4.000000,4.000000,4.000000,4.000000,4.000000,4.000000,4.000000,83.333336
1614560912.194787,51.000000,0.000000,0.782001,-6.656698,-21.167700,7.321873,-21.724873,-5.504756,7.352817,9.342146,-7.992889,-5.399709,-17.026554,6.724918,-3.732339,-5.245389,-5.937967,-22.355648,-4.761152,-21.758919,-17.106138,-13.090152,-3.942659,1.777343,-4.469022,-23.556347,-5.388396,-28.078722,-9.975252,-2.635561,1.674843,-8.669150,-39.536716,-37.773899,8064.000000,0.000000,4.000000,,,,0.000000,4.000000,4.000000,4.000000,4.000000,2.000000,4.000000,4.000000,4.000000,4.000000,4.000000,4.000000,4.000000,4.000000,4.000000,4.000000,4.000000,4.000000,4.000000,4.000000,4.000000,4.000000,4.000000,4.000000,4.000000,4.000000,4.000000,4.000000,4.000000,4.000000,4.000000,4.000000,4.000000,83.333336
1614560912.202537,52.000000,0.000000,2.832501,-6.650041,-20.633711,6.801731,-17.600582,-2.422328,8.371105,8.819983,-7.472076,-5.394309,-20.086452,6.205373,1.399598,-5.752964,-5.419209,-30.538422,0.371814,-33.019211,-22.730059,-13.077062,-3.425896,1.775566,-3.438912,-23.532791,-5.383008,-30.101925,-9.452456,2.495280,1.160348,-13.275866,-40.009998,-37.736126,8064.000000,0.000000,4.000000,,,,0.000000,4.000000,4.000000,4.000000,4.000000,2.000000,4.000000,4.000000,4.000000,4.000000,4.000000,4.000000,4.000000,4.000000,4.000000,4.000000,4.000000,4.000000,4.000000,4.000000,4.000000,4.000000,4.000000,4.000000,4.000000,4.000000,4.000000,4.000000,4.000000,4.000000,4.000000,4.000000,4.000000,83.333336
1614560912.210186,53.000000,0.000000,3.855309,-6.130570,-15.997692,5.769288,-9.377854,-2.932727,12.978119,8.811164,-6.951784,-5.388915,-25.194571,6.199167,1.911019,-7.285673,-5.413790,-33.071983,0.371442,-30.934910,-28.861176,-13.063985,-1.371188,1.773790,-3.435473,-25.047720,-5.377625,-30.071823,-11.494286,1.467144,1.672008,-15.313872,-39.969990,-39.236851,8064.000000,0.000000,4.000000,,,,0.000000,4.000000,4.000000,4.000000,4.000000,2.000000,4.000000,4.000000,4.000000,4.000000,4.000000,4.000000,4.000000,4.000000,4.000000,4.000000,4.000000,4.000000,4.000000,4.000000,4.000000,4.000000,4.000000,4.000000,4.000000,4.000000,4.000000,4.000000,4.000000,4.000000,4.000000,4.000000,4.000000,83.333336
1614560912.217935,54.000000,0.000000,3.338634,-8.688542,-10.853490,7.301980,-13.983861,-4.468256,16.042063,9.315173,-7.970473,-4.870705,-16.964247,5.680148,1.909108,-4.714285,-5.921196,-28.936350,-0.141750,-22.186026,-21.652826,-10.486818,0.681466,1.772017,-4.457678,-16.817543,-5.885068,-30.554571,-13.534074,0.952856,1.670336,-15.811378,-40.955662,-41.248898,8064.000000,0.000000,4.000000,,,,0.000000,4.000000,4.000000,4.000000,4.000000,2.000000,4.000000,4.000000,4.000000,4.000000,4.000000,4.000000,4.000000,4.000000,4.000000,4.000000,4.000000,4.000000,4.000000,4.000000,4.000000,4.000000,4.000000,4.000000,4.000000,4.000000,4.000000,4.000000,4.000000,4.000000,4.000000,4.000000,4.000000,83.333336
1614560912.225585,55.000000,0.000000,3.335295,-10.731136,-9.816996,11.397243,-24.226288,-8.053531,16.026022,8.793037,-8.988143,-5.891476,-4.639591,5.674468,2.420019,1.444276,-0.787070,-16.599720,0.371212,-14.471533,-5.733737,-4.322485,0.167964,1.770244,-3.427580,-7.057136,-5.879183,-30.524017,-14.033360,1.977544,0.130204,-18.872490,-39.889065,-37.105083,7936.000000,0.000000,4.000000,,,,0.000000,4.000000,4.000000,4.000000,4.000000,2.000000,4.000000,4.000000,4.000000,4.000000,4.000000,4.000000,4.000000,4.000000,4.000000,4.000000,4.000000,4.000000,4.000000,4.000000,4.000000,4.000000,4.000000,4.000000,4.000000,4.000000,4.000000,4.000000,4.000000,4.000000,4.000000,4.000000,4.000000,83.333336
1614560912.233334,56.000000,0.000000,3.331959,-10.720405,-9.294357,13.437127,-21.637959,-3.430093,15.497175,8.271423,-7.440694,-5.372764,2.544536,9.258536,2.417599,6.571037,9.982947,2.391238,0.883662,0.414734,5.554048,5.425427,3.244719,1.768474,-3.936973,-1.921874,-5.873303,-29.980673,-13.506506,1.975567,-2.434029,-18.340797,-39.849174,-27.324389,8064.000000,0.000000,4.000000,,,,0.000000,4.000000,4.000000,4.000000,4.000000,2.000000,4.000000,4.000000,4.000000,4.000000,4.000000,4.000000,4.000000,4.000000,4.000000,4.000000,4.000000,4.000000,4.000000,4.000000,4.000000,4.000000,4.000000,4.000000,4.000000,4.000000,4.000000,4.000000,4.000000,4.000000,4.000000,4.000000,4.000000,83.333336
1614560912.240984,57.000000,0.000000,3.328628,-9.684043,-10.310704,14.962152,-15.462475,3.240004,15.994498,11.852896,-3.843509,2.324917,12.798402,12.839022,1.902361,12.718311,21.255016,22.901669,2.934060,18.363037,17.343365,18.240515,9.908141,1.766706,-3.933036,9.874920,-4.328969,-31.489153,-13.492999,1.460771,-2.944415,-15.758354,-41.347786,-24.732962,8064.000000,0.000000,4.000000,,,,0.000000,4.000000,4.000000,4.000000,4.000000,2.000000,4.000000,4.000000,4.000000,4.000000,4.000000,4.000000,4.000000,4.000000,4.000000,4.000000,4.000000,4.000000,4.000000,4.000000,4.000000,4.000000,4.000000,4.000000,4.000000,4.000000,4.000000,4.000000,4.000000,4.000000,4.000000,4.000000,4.000000,83.333336
1614560912.248733,58.000000,0.000000,3.325299,-10.700001,-8.761932,20.075396,-17.498295,-2.917082,15.465683,15.943607,-5.378128,9.502079,21.503551,15.390285,2.413279,20.910721,27.900427,35.699280,4.982408,33.216469,36.300381,24.888941,12.975156,2.277760,-0.339359,21.659916,-2.273358,-27.867920,-14.505148,1.459310,-2.941471,-15.229775,-34.126953,-22.656946,8192.000000,0.000000,4.000000,,,,0.000000,4.000000,4.000000,4.000000,4.000000,2.000000,4.000000,4.000000,4.000000,4.000000,4.000000,4.000000,4.000000,4.000000,4.000000,4.000000,4.000000,4.000000,4.000000,4.000000,4.000000,4.000000,4.000000,4.000000,4.000000,4.000000,4.000000,4.000000,4.000000,4.000000,4.000000,4.000000,4.000000,83.333336
1614560912.256382,59.000000,0.000000,3.321974,-10.689301,4.067343,19.542500,-14.403872,-3.939806,15.963038,16.440483,-1.270185,9.492578,20.969229,22.041561,1.898046,24.992374,33.000732,39.253323,3.951785,45.490944,53.187157,25.376873,11.936540,1.762661,3.763544,23.176718,-0.219802,-16.045181,-12.952181,1.970671,-2.425709,-10.599161,-19.733850,-11.352238,8192.000000,0.000000,4.000000,,,,0.000000,4.000000,4.000000,4.000000,4.000000,2.000000,4.000000,4.000000,4.000000,4.000000,4.000000,4.000000,4.000000,4.000000,4.000000,4.000000,4.000000,4.000000,4.000000,4.000000,4.000000,4.000000,4.000000,4.000000,4.000000,4.000000,4.000000,4.000000,4.000000,4.000000,4.000000,4.000000,4.000000,83.333336
1614560912.264132,60.000000,0.000000,3.318652,-5.037585,15.858147,15.933213,-6.697161,5.807724,14.408613,17.449684,13.090059,11.534367,21.461079,26.122084,1.896147,24.967382,33.480553,38.701248,4.460653,42.881351,52.108330,26.889957,11.411782,2.273719,4.272601,23.153542,1.318879,-9.875289,-8.323844,1.455880,-0.372001,-3.409074,-12.021809,-4.161398,8064.000000,0.000000,4.000000,,,,0.000000,4.000000,4.000000,4.000000,4.000000,2.000000,4.000000,4.000000,4.000000,4.000000,4.000000,4.000000,4.000000,4.000000,4.000000,4.000000,4.000000,4.000000,4.000000,4.000000,4.000000,4.000000,4.000000,4.000000,4.000000,4.000000,4.000000,4.000000,4.000000,4.000000,4.000000,4.000000,4.000000,83.333336
1614560912.271781,61.000000,0.000000,3.315333,1.121298,12.252545,20.019844,-5.664823,4.263454,8.753180,19.996338,18.205173,17.163858,19.901157,18.916475,2.407072,22.378313,29.857328,34.047165,4.456192,25.915394,28.979298,21.222042,10.887550,2.784266,4.268329,21.079105,2.343201,-11.916697,-5.751418,0.428783,1.166832,-3.405665,-12.522608,-4.670057,8064.000000,0.000000,4.000000,,,,0.000000,4.000000,4.000000,4.000000,4.000000,2.000000,4.000000,4.000000,4.000000,4.000000,4.000000,4.000000,4.000000,4.000000,4.000000,4.000000,4.000000,4.000000,4.000000,4.000000,4.000000,4.000000,4.000000,4.000000,4.000000,4.000000,4.000000,4.000000,4.000000,4.000000,4.000000,4.000000,4.000000,83.333336
1614560912.279530,62.000000,0.000000,3.312018,1.632998,8.137729,25.640850,-9.248901,-3.945937,3.616221,20.489161,9.981841,15.608232,5.522281,10.692430,-1.185079,13.637985,27.263369,18.628500,-3.240571,12.043324,1.770831,6.841845,4.722816,-1.321082,3.238419,4.134950,2.853679,-10.879138,-5.745666,-3.161389,1.678486,-2.889439,-17.638290,-6.716670,8064.000000,0.000000,4.000000,,,,0.000000,4.000000,4.000000,4.000000,4.000000,2.000000,4.000000,4.000000,4.000000,4.000000,4.000000,4.000000,4.000000,4.000000,4.000000,4.000000,4.000000,4.000000,4.000000,4.000000,4.000000,4.000000,4.000000,4.000000,4.000000,4.000000,4.000000,4.000000,4.000000,4.000000,4.000000,4.000000,4.000000,83.333336
1614560912.287180,63.000000,0.000000,3.308706,-0.419918,10.180873,27.153669,-9.752473,-2.403530,4.125425,19.955853,5.869295,9.951599,-7.816575,9.656096,-5.286458,3.880758,19.030977,-2.415769,-10.416818,-0.789232,-11.564273,-1.370125,-7.589599,-7.986428,-0.867383,-15.356364,-0.226098,-10.868259,-5.739921,-7.260792,1.163987,-2.886550,-26.338600,-15.940722,8064.000000,0.000000,4.000000,,,,0.000000,4.000000,4.000000,4.000000,4.000000,2.000000,4.000000,4.000000,4.000000,4.000000,4.000000,4.000000,4.000000,4.000000,4.000000,4.000000,4.000000,4.000000,4.000000,4.000000,4.000000,4.000000,4.000000,4.000000,4.000000,4.000000,4.000000,4.000000,4.000000,4.000000,4.000000,4.000000,4.000000,83.333336
1614560912.295029,64.000000,0.000000,3.305397,-1.957959,0.939923,22.511131,-8.717080,-0.862665,5.146941,19.423075,6.376246,8.916006,-12.936963,10.159261,-5.793992,0.799954,3.627330,-15.746686,-11.432042,-16.173058,-17.193735,-2.907217,-12.710215,-10.542544,-4.456259,-21.494854,-4.841257,-19.062519,-6.247001,-10.330454,-0.375638,-13.140074,-33.491749,-25.155550,0.000000,199.000000,4.000000,,,,0.000000,4.000000,4.000000,4.000000,4.000000,2.000000,4.000000,4.000000,4.000000,4.000000,4.000000,4.000000,4.000000,4.000000,4.000000,4.000000,4.000000,4.000000,4.000000,4.000000,4.000000,4.000000,4.000000,4.000000,4.000000,4.000000,4.000000,4.000000,4.000000,4.000000,4.000000,4.000000,4.000000,83.333336
1614560912.302778,65.000000,0.000000,3.302092,-2.981642,-11.368710,11.206570,-9.221183,0.676659,8.218717,19.403652,3.292947,9.932731,-13.949667,9.636281,-7.326659,0.286334,-3.555784,-17.782221,-11.420610,-22.310732,-21.279104,-5.468412,-3.466735,-9.506361,-3.938982,-20.447718,-5.862056,-22.633200,-6.240754,-9.294483,-2.426545,-22.357702,-32.432617,-24.104753,0.000000,161.000000,4.000000,,,,0.000000,4.000000,4.000000,4.000000,4.000000,2.000000,4.000000,4.000000,4.000000,4.000000,4.000000,4.000000,4.000000,4.000000,4.000000,4.000000,4.000000,4.000000,4.000000,4.000000,4.000000,4.000000,4.000000,4.000000,4.000000,4.000000,4.000000,4.000000,4.000000,4.000000,4.000000,4.000000,4.000000,83.333336
1614560912.310628,66.000000,0.000000,3.298790,-2.978661,-7.767597,7.605619,-9.211962,5.804188,17.441267,20.409889,2.776834,9.409978,-14.961359,9.113825,-2.703948,0.798868,-2.526587,-16.225977,-11.922009,-20.749960,-21.257826,-5.975764,7.305963,-7.958393,-4.447864,-17.350348,-5.343374,-19.020823,-5.721693,-4.669804,-2.936939,-18.232780,-31.887363,-21.516546,0.000000,197.000000,4.000000,,,,0.000000,4.000000,4.000000,4.000000,4.000000,2.000000,4.000000,4.000000,4.000000,4.000000,4.000000,4.000000,4.000000,4.000000,4.000000,4.000000,4.000000,4.000000,4.000000,4.000000,4.000000,4.000000,4.000000,4.000000,4.000000,4.000000,4.000000,4.000000,4.000000,4.000000,4.000000,4.000000,4.000000,83.333336
1614560912.318377,67.000000,0.000000,3.295491,-2.975682,-1.605983,13.239039,-9.202750,5.798384,24.090492,19.876659,3.799698,8.887748,-15.459218,9.617531,10.632089,2.849351,-3.549702,-18.261034,-6.269062,-19.703568,-21.236568,-6.482609,7.811477,-4.360691,-3.930596,-15.281715,-5.338030,-20.027443,-8.792894,-1.588211,-2.421181,-13.599163,-35.445221,-24.059132,0.000000,187.000000,4.000000,,,,0.000000,4.000000,4.000000,4.000000,4.000000,2.000000,4.000000,4.000000,4.000000,4.000000,4.000000,4.000000,4.000000,4.000000,4.000000,4.000000,4.000000,4.000000,4.000000,4.000000,4.000000,4.000000,4.000000,4.000000,4.000000,4.000000,4.000000,4.000000,4.000000,4.000000,4.000000,4.000000,4.000000,83.333336
1614560912.326226,68.000000,0.000000,3.292195,-2.972706,-6.732583,7.584774,-9.193547,5.792585,23.553581,18.831142,0.206154,9.391680,-11.854015,10.120734,17.288124,4.384963,5.171796,-16.191490,-3.185870,-14.042839,-17.625587,-10.065869,6.265204,-2.305048,-3.926665,-12.702331,-5.845513,-26.674084,-13.399486,-2.099443,-2.418760,-15.124025,-39.512337,-26.599176,0.000000,204.000000,4.000000,,,,0.000000,4.000000,4.000000,4.000000,4.000000,4.000000,4.000000,4.000000,4.000000,4.000000,4.000000,4.000000,4.000000,4.000000,4.000000,4.000000,4.000000,4.000000,4.000000,4.000000,4.000000,4.000000,4.000000,4.000000,4.000000,4.000000,4.000000,4.000000,4.000000,4.000000,4.000000,4.000000,4.000000,100.000000
1614560912.333975,69.000000,0.000000,3.288903,-2.969733,-3.648927,4.500267,-8.671534,7.325254,23.017208,23.940516,0.205948,9.895109,3.542454,12.161896,13.168271,10.021604,26.192266,0.234957,-4.208325,1.355819,4.443320,-3.389137,9.848682,-1.789922,-4.948380,1.156525,-5.839667,-27.160229,-13.898907,-2.097344,-2.416341,-15.108902,-39.985645,-24.008474,0.000000,183.000000,4.000000,,,,0.000000,4.000000,4.000000,4.000000,4.000000,4.000000,4.000000,4.000000,4.000000,4.000000,4.000000,4.000000,4.000000,4.000000,4.000000,4.000000,4.000000,4.000000,4.000000,4.000000,4.000000,4.000000,4.000000,4.000000,4.000000,4.000000,4.000000,4.000000,4.000000,4.000000,4.000000,4.000000,4.000000,100.000000
1614560912.341825,70.000000,0.000000,3.285614,-2.453943,10.200876,13.726536,-11.226964,-0.887199,24.019833,26.480679,3.795486,9.372394,22.000450,15.226657,13.667924,18.729530,36.422485,22.798824,2.975370,25.969849,35.720928,13.024508,17.531141,3.852893,1.210415,23.719471,-4.808187,-23.030504,-10.295264,-1.582426,-2.413925,-14.068151,-38.920021,-14.753696,0.000000,189.000000,4.000000,,,,0.000000,4.000000,4.000000,4.000000,4.000000,4.000000,4.000000,4.000000,4.000000,4.000000,4.000000,4.000000,4.000000,4.000000,4.000000,4.000000,4.000000,4.000000,4.000000,4.000000,4.000000,4.000000,4.000000,4.000000,4.000000,4.000000,4.000000,4.000000,4.000000,4.000000,4.000000,4.000000,4.000000,100.000000
1614560912.349574,71.000000,0.000000,2.769508,-3.989951,9.677855,9.610245,-15.831121,-6.014517,20.406069,15.172146,-1.336515,9.875841,31.209219,19.313993,16.731178,25.890289,36.386063,35.596539,18.869831,45.943878,49.018539,21.729433,22.128996,9.490066,12.491256,34.464981,-2.239276,-22.494654,-9.772149,-2.093664,-2.411511,-14.054084,-39.393921,-13.200481,0.000000,215.000000,4.000000,,,,0.000000,4.000000,4.000000,4.000000,4.000000,4.000000,4.000000,4.000000,4.000000,4.000000,4.000000,4.000000,4.000000,4.000000,4.000000,4.000000,4.000000,4.000000,4.000000,4.000000,4.000000,4.000000,4.000000,4.000000,4.000000,4.000000,4.000000,4.000000,4.000000,4.000000,4.000000,4.000000,4.000000,100.000000
1614560912.357423,72.000000,0.000000,3.792379,-6.037243,0.950228,-2.707057,-17.353752,1.683805,14.744637,9.003127,-7.489024,10.378786,36.306213,22.884424,17.227268,32.018246,36.862495,41.714787,28.594551,50.000500,49.482342,22.220524,22.619686,9.480576,16.581329,37.507442,-1.211396,-22.984980,-9.762377,-2.091570,-2.409100,-14.552850,-39.354527,-19.853947,0.000000,186.000000,4.000000,,,,0.000000,4.000000,4.000000,4.000000,4.000000,4.000000,4.000000,4.000000,4.000000,4.000000,4.000000,4.000000,4.000000,4.000000,4.000000,4.000000,4.000000,4.000000,4.000000,4.000000,4.000000,4.000000,4.000000,4.000000,4.000000,4.000000,4.000000,4.000000,4.000000,4.000000,4.000000,4.000000,4.000000,100.000000
1614560912.365172,73.000000,0.000000,6.352690,-6.544026,4.026201,1.398214,-15.797937,0.143660,10.627328,12.583868,-2.353330,7.291484,35.244267,20.297438,17.722862,30.447765,30.158966,44.237175,26.514673,50.463318,49.945679,20.659842,23.622707,8.958275,15.026286,37.469933,-0.697364,-20.910713,-9.239794,-1.576658,-2.406691,-14.538298,-38.802353,-14.705889,0.000000,194.000000,4.000000,,,,0.000000,4.000000,4.000000,4.000000,4.000000,4.000000,4.000000,4.000000,4.000000,4.000000,4.000000,4.000000,4.000000,4.000000,4.000000,4.000000,4.000000,4.000000,4.000000,4.000000,4.000000,4.000000,4.000000,4.000000,4.000000,4.000000,4.000000,4.000000,4.000000,4.000000,4.000000,4.000000,4.000000,100.000000
1614560912.373022,74.000000,0.000000,7.371978,-6.537482,9.663200,8.063482,-16.294960,-10.625714,4.462854,2.827694,-0.812515,0.617526,23.926971,12.072011,11.038472,15.032701,13.718551,29.321144,18.283031,44.259010,38.613682,11.921233,21.547804,9.974957,13.985619,21.535027,-0.183846,-18.325699,-9.743375,-3.113543,-2.404284,-14.523759,-38.763550,-2.383490,0.000000,188.000000,4.000000,,,,0.000000,4.000000,4.000000,4.000000,4.000000,4.000000,4.000000,4.000000,4.000000,4.000000,4.000000,4.000000,4.000000,4.000000,4.000000,4.000000,4.000000,4.000000,4.000000,4.000000,4.000000,4.000000,4.000000,4.000000,4.000000,4.000000,4.000000,4.000000,4.000000,4.000000,4.000000,4.000000,4.000000,100.000000
1614560912.380771,75.000000,0.000000,6.851786,-6.530945,8.627896,8.055419,-19.355587,-12.666371,-0.156993,-5.893082,-6.965549,-1.434373,16.723558,9.495836,0.771023,4.248438,7.550986,7.240541,11.598082,21.137827,12.934044,-0.911201,10.244205,8.426521,7.304966,2.026313,-3.260585,-18.307373,-9.220811,-5.161712,-2.401880,-14.509235,-38.724785,-8.022132,0.000000,211.000000,4.000000,,,,0.000000,4.000000,4.000000,4.000000,4.000000,4.000000,4.000000,4.000000,4.000000,4.000000,4.000000,4.000000,4.000000,4.000000,4.000000,4.000000,4.000000,4.000000,4.000000,4.000000,4.000000,4.000000,4.000000,4.000000,4.000000,4.000000,4.000000,4.000000,4.000000,4.000000,4.000000,4.000000,4.000000,100.000000
1614560912.388420,76.000000,0.000000,7.357754,-6.011593,9.132089,8.047363,-18.310591,-10.089602,5.997010,5.907683,-2.856019,0.105522,15.681193,13.588904,3.847175,8.346754,10.620358,3.130736,11.586483,1.629509,-2.976326,-6.038495,1.003191,5.341171,-3.984390,-0.539816,-4.282966,-18.289066,-9.211590,-6.182191,-2.399478,-14.494726,-38.686062,-17.244879,0.000000,220.000000,4.000000,,,,0.000000,4.000000,4.000000,4.000000,4.000000,4.000000,4.000000,4.000000,4.000000,4.000000,4.000000,4.000000,4.000000,4.000000,4.000000,4.000000,4.000000,4.000000,4.000000,4.000000,4.000000,4.000000,4.000000,4.000000,4.000000,4.000000,4.000000,4.000000,4.000000,4.000000,4.000000,4.000000,4.000000,100.000000
1614560912.396170,77.000000,0.000000,6.837576,-7.544043,6.046033,-1.704274,-15.728178,-10.592333,12.144859,11.542801,2.275042,-5.535609,3.357820,7.934290,9.997174,6.799945,5.481533,-0.462138,10.549256,-4.013146,-9.127195,-3.468354,1.002187,5.335830,-9.108611,-3.616199,-4.278683,-18.270777,-12.792122,-5.663188,-2.397078,-14.480231,-39.160194,-17.227634,0.000000,199.000000,4.000000,,,,0.000000,4.000000,4.000000,4.000000,4.000000,4.000000,4.000000,4.000000,4.000000,4.000000,4.000000,4.000000,4.000000,4.000000,4.000000,4.000000,4.000000,4.000000,4.000000,4.000000,4.000000,4.000000,4.000000,4.000000,4.000000,4.000000,4.000000,4.000000,4.000000,4.000000,4.000000,4.000000,4.000000,100.000000
1614560912.404019,78.000000,0.000000,2.215354,-9.587781,-4.729243,-18.112825,-18.789373,-11.094562,4.953227,-1.289255,-7.983644,-14.760842,-17.671179,-3.355695,-0.269233,-5.001726,-7.857282,-25.589882,3.359220,-22.470671,-25.528324,-8.593091,-2.075738,5.330494,-7.048220,-16.945917,-16.582096,-20.303789,-16.881893,-5.657525,-4.445963,-14.465751,-42.197956,-24.389894,0.000000,187.000000,4.000000,,,,0.000000,4.000000,4.000000,4.000000,4.000000,4.000000,4.000000,4.000000,4.000000,4.000000,4.000000,4.000000,4.000000,4.000000,4.000000,4.000000,4.000000,4.000000,4.000000,4.000000,4.000000,4.000000,4.000000,4.000000,4.000000,4.000000,4.000000,4.000000,4.000000,4.000000,4.000000,4.000000,4.000000,100.000000
1614560912.411768,79.000000,0.000000,-0.863785,-10.603834,-11.391181,-24.248560,-23.898788,-11.083467,-2.744034,-7.954632,-16.180788,-17.310184,-27.909918,-5.403622,-10.525374,-11.150571,-16.054552,-44.025829,-2.797986,-43.473843,-43.451515,-26.020395,-12.842893,3.273882,-8.066813,-24.621279,-32.975769,-22.334766,-17.377832,-5.651867,-6.492799,-14.451285,-45.745502,-31.032171,0.000000,201.000000,4.000000,,,,0.000000,4.000000,4.000000,4.000000,4.000000,4.000000,4.000000,4.000000,4.000000,4.000000,4.000000,4.000000,4.000000,4.000000,4.000000,4.000000,4.000000,4.000000,4.000000,4.000000,4.000000,4.000000,4.000000,4.000000,4.000000,4.000000,4.000000,4.000000,4.000000,4.000000,4.000000,4.000000,4.000000,100.000000
1614560912.419418,80.000000,0.000000,-0.350100,-10.080410,-8.302866,-22.173029,-21.823608,-8.508281,2.899736,-4.869755,-10.523582,-15.754413,-23.266623,-4.372577,-4.361003,-9.088138,-16.551319,-37.827957,-3.820829,-39.840626,-46.484985,-42.404633,-14.881332,1.732147,-19.853619,-23.058195,-32.942795,-22.312431,-16.334814,-5.646215,-5.460665,-14.436834,-45.699757,-20.231909,0.000000,195.000000,4.000000,,,,0.000000,4.000000,4.000000,4.000000,4.000000,4.000000,4.000000,4.000000,4.000000,4.000000,4.000000,4.000000,4.000000,4.000000,4.000000,4.000000,4.000000,4.000000,4.000000,4.000000,4.000000,4.000000,4.000000,4.000000,4.000000,4.000000,4.000000,4.000000,4.000000,4.000000,4.000000,4.000000,4.000000,100.000000
1614560912.427167,81.000000,0.000000,0.163070,-10.070330,-5.730461,-21.125216,-16.673578,-3.884388,9.050682,-4.864885,-3.846391,-15.738658,-12.986946,-4.368205,2.310025,-7.027768,-16.534767,-31.636284,-3.304188,-31.082834,-38.746193,-38.772484,-8.199784,1.730414,-27.526072,-22.522316,-24.704723,-21.777300,-16.831299,-5.640569,-2.891102,-14.422397,-42.577137,-8.929625,0.000000,182.000000,4.000000,,,,0.000000,4.000000,4.000000,4.000000,4.000000,4.000000,4.000000,4.000000,4.000000,4.000000,4.000000,4.000000,4.000000,4.000000,4.000000,4.000000,4.000000,4.000000,4.000000,4.000000,4.000000,4.000000,4.000000,4.000000,4.000000,4.000000,4.000000,4.000000,4.000000,4.000000,4.000000,4.000000,4.000000,100.000000
1614560912.434816,82.000000,0.000000,-0.862734,-10.060260,-7.263192,-20.078449,-15.631265,-3.367683,8.528811,-6.398481,-3.842545,-16.235741,-6.307293,-1.799734,2.307715,-4.456637,-17.543873,-26.476442,-3.813704,-28.487650,-25.374113,-21.810633,-5.627481,1.728684,-16.216496,-21.986975,-22.628736,-22.268343,-16.814468,-5.122108,-2.375391,-14.407974,-42.021736,-8.920695,0.000000,195.000000,4.000000,,,,0.000000,4.000000,4.000000,4.000000,4.000000,4.000000,4.000000,4.000000,4.000000,4.000000,4.000000,4.000000,4.000000,4.000000,4.000000,4.000000,4.000000,4.000000,4.000000,4.000000,4.000000,4.000000,4.000000,4.000000,4.000000,4.000000,4.000000,4.000000,4.000000,4.000000,4.000000,4.000000,4.000000,100.000000
1614560912.442566,83.000000,0.000000,-0.349051,-10.050200,-7.255929,-19.545549,-16.641273,-2.851495,6.981821,-5.879262,-4.351523,-17.245146,-6.300985,-2.823575,1.792587,-2.400899,-15.475048,-13.116632,-3.297070,-17.177111,-11.502585,-11.019592,-7.160316,2.239776,-0.302842,-19.400885,-21.580467,-22.246075,-16.797653,-6.142627,-2.373015,-13.880746,-41.979717,-9.937415,0.000000,187.000000,4.000000,,,,0.000000,4.000000,4.000000,4.000000,4.000000,4.000000,4.000000,4.000000,4.000000,4.000000,4.000000,4.000000,4.000000,4.000000,4.000000,4.000000,4.000000,4.000000,4.000000,4.000000,4.000000,4.000000,4.000000,4.000000,4.000000,4.000000,4.000000,4.000000,4.000000,4.000000,4.000000,4.000000,4.000000,100.000000
1614560912.450215,84.000000,0.000000,-0.348702,-10.040149,-1.607647,-20.038824,-16.111813,-3.361464,1.846634,-5.360563,-3.321530,-19.279182,-5.781864,-9.487418,-0.260488,-2.911319,-15.972393,-6.949670,-4.832234,-6.903523,-6.875699,-11.008573,-6.640335,1.211895,1.235922,-17.330202,-18.994783,-22.223827,-16.268036,-8.700587,-2.370642,-13.866865,-40.912094,-9.927478,0.000000,188.000000,4.000000,,,,0.000000,4.000000,4.000000,4.000000,4.000000,4.000000,4.000000,4.000000,4.000000,4.000000,4.000000,4.000000,4.000000,4.000000,4.000000,4.000000,4.000000,4.000000,4.000000,4.000000,4.000000,4.000000,4.000000,4.000000,4.000000,4.000000,4.000000,4.000000,4.000000,4.000000,4.000000,4.000000,4.000000,100.000000
1614560912.457964,85.000000,0.000000,-2.399635,-10.030108,6.599089,-23.095709,-16.095701,-10.537589,-8.411623,-5.868023,-3.318209,-19.259903,-4.750441,-12.042033,-4.875612,-4.959689,-16.982061,-9.506823,-6.365863,-5.358158,-6.356002,-10.997564,-6.120874,-1.866240,-2.355057,-15.261589,-18.975790,-22.201605,-16.251768,-11.255989,-2.368272,-14.365819,-39.332722,-5.814987,0.000000,196.000000,4.000000,,,,0.000000,4.000000,4.000000,4.000000,4.000000,4.000000,4.000000,4.000000,4.000000,4.000000,4.000000,4.000000,4.000000,4.000000,4.000000,4.000000,4.000000,4.000000,4.000000,4.000000,4.000000,4.000000,4.000000,4.000000,4.000000,4.000000,4.000000,4.000000,4.000000,4.000000,4.000000,4.000000,4.000000,100.000000
1614560912.465614,86.000000,0.000000,-3.935697,-10.020079,11.207874,-21.021332,-15.566784,-12.578334,-15.069879,-4.836514,-3.827711,-18.727823,-4.745691,-11.004350,-5.896378,-5.980371,-4.657388,-1.292187,-6.872318,3.365149,2.881123,-9.448105,-5.601933,-4.941297,-2.865523,-11.656584,-18.956814,-22.179403,-16.748337,-12.270374,-2.365903,-13.838633,-37.242107,4.960059,0.000000,190.000000,4.000000,,,,0.000000,4.000000,4.000000,4.000000,4.000000,4.000000,4.000000,4.000000,4.000000,4.000000,4.000000,4.000000,4.000000,4.000000,4.000000,4.000000,4.000000,4.000000,4.000000,4.000000,4.000000,4.000000,4.000000,4.000000,4.000000,4.000000,4.000000,4.000000,4.000000,4.000000,4.000000,4.000000,4.000000,100.000000
1614560912.473363,87.000000,0.000000,-4.444582,-10.010058,12.222307,-5.615694,-16.064037,-3.847807,-14.029167,-1.241934,-3.823884,-18.709095,-2.176842,-12.018987,-5.377661,-3.410288,9.706244,8.452695,-6.865446,11.566912,12.621832,-10.464297,-6.621972,-5.961997,-5.939580,-7.542363,-18.937857,-21.644403,-16.218767,-12.770925,-2.363537,-13.824794,-38.230507,5.980740,0.000000,194.000000,4.000000,,,,0.000000,4.000000,4.000000,4.000000,4.000000,4.000000,4.000000,4.000000,4.000000,4.000000,4.000000,4.000000,4.000000,4.000000,4.000000,4.000000,4.000000,4.000000,4.000000,4.000000,4.000000,4.000000,4.000000,4.000000,4.000000,4.000000,4.000000,4.000000,4.000000,4.000000,4.000000,4.000000,4.000000,100.000000
1614560912.481013,88.000000,0.000000,-3.927316,-10.000049,11.184443,-5.610078,-16.047974,1.284246,-8.886933,-1.240692,-3.820060,-19.203205,5.517642,-8.930045,-5.372283,3.772610,8.670897,7.418601,-6.858580,10.529704,10.557928,-9.941013,-6.615350,-5.443214,-9.523384,-3.432257,-20.970201,-22.135578,-16.715368,-12.758153,-2.361174,-17.400713,-45.884583,-6.332933,0.000000,197.000000,4.000000,,,,0.000000,4.000000,4.000000,4.000000,4.000000,4.000000,4.000000,4.000000,4.000000,4.000000,4.000000,4.000000,4.000000,4.000000,4.000000,4.000000,4.000000,4.000000,4.000000,4.000000,4.000000,4.000000,4.000000,4.000000,4.000000,4.000000,4.000000,4.000000,4.000000,4.000000,4.000000,4.000000,4.000000,100.000000
1614560912.488862,89.000000,0.000000,-3.923389,-9.990048,9.634798,-26.630110,-13.467824,1.282962,-3.237020,-5.342015,-3.816240,-18.158361,7.563406,-3.792910,-5.879731,7.871401,4.559662,6.385541,-6.338901,11.544815,0.803780,-12.495174,-5.070273,-4.924950,-10.539502,-2.916004,-23.000513,-22.626265,-19.775576,-12.232574,-2.358813,-21.485876,-53.531006,-12.480446,0.000000,168.000000,4.000000,,,,0.000000,4.000000,4.000000,4.000000,4.000000,4.000000,4.000000,4.000000,4.000000,4.000000,4.000000,4.000000,4.000000,4.000000,4.000000,4.000000,4.000000,4.000000,4.000000,4.000000,4.000000,4.000000,4.000000,4.000000,4.000000,4.000000,4.000000,4.000000,4.000000,4.000000,4.000000,4.000000,4.000000,100.000000
1614560912.496611,90.000000,0.000000,-3.919466,-9.980059,16.291830,-26.090658,-12.941535,0.768858,-1.695322,-3.798212,-4.325244,-18.140203,-2.700567,-7.891681,-5.361031,0.171222,2.503820,0.225309,-9.409486,1.276860,-11.504716,-25.816013,-9.167767,-6.458487,-13.605886,-11.118217,-22.977512,-19.526714,-22.832724,-12.220342,-1.843633,-21.977211,-51.426193,-2.211555,0.000000,177.000000,4.000000,,,,0.000000,4.000000,4.000000,4.000000,4.000000,4.000000,4.000000,4.000000,4.000000,4.000000,4.000000,4.000000,4.000000,4.000000,4.000000,4.000000,4.000000,4.000000,4.000000,4.000000,4.000000,4.000000,4.000000,4.000000,4.000000,4.000000,4.000000,4.000000,4.000000,4.000000,4.000000,4.000000,4.000000,100.000000
1614560912.504460,91.000000,0.000000,-3.915546,-9.970078,27.557589,-12.731235,-17.031158,-6.924218,-5.283370,-7.384157,-4.833739,-24.275909,-18.082481,-14.550456,-5.355670,-12.136642,-13.396119,-22.339018,-13.502640,-26.929544,-25.852186,-38.610710,-18.389368,-11.067413,-18.207664,-23.414791,-22.441715,-15.404624,-23.835533,-15.797865,-2.354610,-21.955235,-45.220921,13.688092,0.000000,220.000000,4.000000,,,,0.000000,4.000000,4.000000,4.000000,4.000000,4.000000,4.000000,4.000000,4.000000,4.000000,4.000000,4.000000,4.000000,4.000000,4.000000,4.000000,4.000000,4.000000,4.000000,4.000000,4.000000,4.000000,4.000000,4.000000,4.000000,4.000000,4.000000,4.000000,4.000000,4.000000,4.000000,4.000000,4.000000,100.000000
1614560912.512210,92.000000,0.000000,-3.911631,-9.960109,28.042852,-32.205685,-20.091049,-13.583961,-9.380651,-23.787029,-5.341726,-32.456760,-26.269527,-15.561546,-5.350314,-17.252710,-30.305799,-37.701294,-14.514778,-40.748768,-37.108383,-40.623383,-22.473543,-13.107628,-18.702276,-27.493940,-22.932093,-14.363578,-23.811697,-19.884632,-4.916358,-21.933279,-44.150059,21.879532,0.000000,196.000000,4.000000,,,,0.000000,4.000000,4.000000,4.000000,4.000000,4.000000,4.000000,4.000000,4.000000,4.000000,4.000000,4.000000,4.000000,4.000000,4.000000,4.000000,4.000000,4.000000,4.000000,4.000000,4.000000,4.000000,4.000000,4.000000,4.000000,4.000000,4.000000,4.000000,4.000000,4.000000,4.000000,4.000000,4.000000,100.000000
1614560912.520059,93.000000,0.000000,-3.907719,-9.950149,26.989168,-49.096554,-20.583778,-8.954992,-9.884090,-31.455549,-3.285102,-33.962765,-26.756079,-14.520344,-4.832143,-15.696996,-30.275494,-35.612312,-13.987443,-40.195198,-45.276405,-41.608398,-20.912607,-12.068879,-17.657934,-29.004908,-22.909161,-15.887676,-23.275064,-19.864746,-6.449903,-19.860064,-48.721294,22.883293,0.000000,174.000000,4.000000,,,,0.000000,4.000000,4.000000,4.000000,4.000000,4.000000,4.000000,4.000000,4.000000,4.000000,4.000000,4.000000,4.000000,4.000000,4.000000,4.000000,4.000000,4.000000,4.000000,4.000000,4.000000,4.000000,4.000000,4.000000,4.000000,4.000000,4.000000,4.000000,4.000000,4.000000,4.000000,4.000000,4.000000,100.000000
1614560912.527808,94.000000,0.000000,-3.903811,-9.940198,43.885258,-30.585918,-19.024734,-7.920396,-9.874207,-25.270248,-1.230535,-34.441624,-30.319067,-15.018644,-6.365773,-17.732580,-33.834961,-41.217724,-13.973455,-56.052441,-54.461899,-47.207817,-21.404516,-13.082451,-17.640276,-40.257954,-22.886251,-13.820506,-24.277430,-20.357702,-5.930633,-18.301741,-54.826420,22.860411,0.000000,170.000000,4.000000,,,,0.000000,4.000000,4.000000,4.000000,4.000000,4.000000,4.000000,4.000000,4.000000,4.000000,4.000000,4.000000,4.000000,4.000000,4.000000,4.000000,4.000000,4.000000,4.000000,4.000000,4.000000,4.000000,4.000000,4.000000,4.000000,4.000000,4.000000,4.000000,4.000000,4.000000,4.000000,4.000000,4.000000,100.000000
1614560912.535657,95.000000,0.000000,-3.899908,-10.443078,62.302910,-18.760462,-14.903145,-14.066321,-9.864332,-24.732157,2.873260,-37.484104,-35.929771,-16.542088,-8.923510,-23.868694,-46.108818,-55.022659,-14.472302,-66.252800,-53.381794,-48.699070,-20.870291,-16.146292,-17.622635,-46.884361,-22.863365,-9.191301,-27.842897,-23.414268,-5.924702,-16.232159,-56.822872,24.376011,0.000000,167.000000,4.000000,,,,0.000000,4.000000,4.000000,4.000000,4.000000,4.000000,4.000000,4.000000,4.000000,4.000000,4.000000,4.000000,4.000000,4.000000,4.000000,4.000000,4.000000,4.000000,4.000000,4.000000,4.000000,4.000000,4.000000,4.000000,4.000000,4.000000,4.000000,4.000000,4.000000,4.000000,4.000000,4.000000,4.000000,100.000000
1614560912.543407,96.000000,0.000000,-3.383187,-6.842892,76.599579,-19.254522,-12.324140,-13.539434,-10.367289,-19.579220,18.767822,-37.446621,-34.868202,-18.064007,-8.914586,-23.332005,-44.011429,-51.890717,-13.432189,-48.237827,-35.892517,-43.522163,-17.772497,-16.642965,-17.605013,-32.991325,-22.840502,-5.079545,-30.379156,-23.903675,-5.918777,-12.113361,-56.253231,37.684967,8064.000000,0.000000,4.000000,,,,0.000000,4.000000,4.000000,4.000000,4.000000,4.000000,4.000000,4.000000,4.000000,4.000000,4.000000,4.000000,4.000000,4.000000,4.000000,4.000000,4.000000,4.000000,4.000000,4.000000,4.000000,4.000000,4.000000,4.000000,4.000000,4.000000,4.000000,4.000000,4.000000,4.000000,4.000000,4.000000,4.000000,100.000000
1614560912.551256,97.000000,0.000000,-4.918266,-2.733485,102.164009,-8.978857,-11.798995,-9.423331,-9.844101,-5.713487,37.723415,-34.332253,-30.730770,-18.558764,-9.418492,-20.231750,-33.198189,-41.582413,-13.931578,-33.317795,-20.472008,-39.888901,-16.729084,-15.600682,-17.074587,-20.650640,-22.817661,-1.484722,-30.861597,-23.366951,-5.912859,-9.537146,-56.196976,58.672924,8064.000000,0.000000,4.000000,,,,0.000000,4.000000,4.000000,4.000000,4.000000,4.000000,4.000000,4.000000,4.000000,4.000000,4.000000,4.000000,4.000000,4.000000,4.000000,4.000000,4.000000,4.000000,4.000000,4.000000,4.000000,4.000000,4.000000,4.000000,4.000000,4.000000,4.000000,4.000000,4.000000,4.000000,4.000000,4.000000,4.000000,100.000000
1614560912.559005,98.000000,0.000000,-7.477450,-2.217931,108.215691,-12.046801,-11.274375,-10.439549,-9.834256,-9.297517,32.557484,-32.759457,-31.725679,-18.540203,-13.511638,-20.724339,-33.677811,-39.489552,-14.943287,-35.335758,-20.451536,-39.849010,-17.225176,-16.097902,-16.544693,-23.706913,-22.794844,-0.457597,-32.369198,-23.343584,-5.906946,-10.040429,-55.115139,55.024509,8064.000000,0.000000,4.000000,,,,0.000000,4.000000,4.000000,4.000000,4.000000,4.000000,4.000000,4.000000,4.000000,4.000000,4.000000,4.000000,4.000000,4.000000,4.000000,4.000000,4.000000,4.000000,4.000000,4.000000,4.000000,4.000000,4.000000,4.000000,4.000000,4.000000,4.000000,4.000000,4.000000,4.000000,4.000000,4.000000,4.000000,100.000000
1614560912.566855,99.000000,0.000000,-7.469973,-2.728533,75.799782,-23.316805,-15.878486,-10.941930,-10.337243,-23.647194,7.909543,-33.239517,-30.155493,-18.521664,-16.575048,-16.601049,-32.105671,-34.834675,-12.364242,-31.710680,-21.456724,-35.706596,-17.207951,-16.081804,-20.117891,-23.170385,-22.772049,-3.534062,-34.900932,-23.320240,-5.388218,-10.543209,-56.598484,26.764357,8064.000000,0.000000,4.000000,,,,0.000000,4.000000,4.000000,4.000000,4.000000,4.000000,4.000000,4.000000,4.000000,4.000000,4.000000,4.000000,4.000000,4.000000,4.000000,4.000000,4.000000,4.000000,4.000000,4.000000,4.000000,4.000000,4.000000,4.000000,4.000000,4.000000,4.000000,4.000000,4.000000,4.000000,4.000000,4.000000,4.000000,100.000000
1614560912.574604,100.000000,0.000000,-8.488144,-2.725805,69.057312,-12.524258,-15.862607,-9.905347,-9.814085,-19.520983,5.850351,-32.693459,-26.535593,-18.503141,-16.045654,-10.943423,-22.842794,-24.543430,-9.274954,-22.961020,-17.845524,-34.132431,-16.165102,-15.552901,-23.687517,-19.557472,-22.749277,-5.581810,-34.866032,-22.784100,-5.895651,-10.019845,-55.516247,28.276052,8064.000000,0.000000,4.000000,,,,0.000000,4.000000,4.000000,4.000000,4.000000,4.000000,4.000000,4.000000,4.000000,4.000000,4.000000,4.000000,4.000000,4.000000,4.000000,4.000000,4.000000,4.000000,4.000000,4.000000,4.000000,4.000000,4.000000,4.000000,4.000000,4.000000,4.000000,4.000000,4.000000,4.000000,4.000000,4.000000,4.000000,100.000000
1614560912.582453,101.000000,0.000000,-10.530937,-2.723079,101.808769,-10.973272,-8.154436,-10.408262,-9.804271,-8.219410,24.306040,-34.199226,-30.098801,-20.023100,-16.542429,-17.599146,-23.845592,-22.467606,-13.881063,-23.963699,-23.468704,-40.764965,-17.174578,-16.050169,-24.176649,-33.384068,-22.726528,0.577618,-34.318344,-22.761314,-8.453857,-10.522646,-45.717140,59.529827,8064.000000,0.000000,4.000000,,,,0.000000,4.000000,4.000000,4.000000,4.000000,4.000000,4.000000,4.000000,4.000000,4.000000,4.000000,4.000000,4.000000,4.000000,4.000000,4.000000,4.000000,4.000000,4.000000,4.000000,4.000000,4.000000,4.000000,4.000000,4.000000,4.000000,4.000000,4.000000,4.000000,4.000000,4.000000,4.000000,4.000000,100.000000
1614560912.590202,102.000000,0.000000,-11.546047,-2.720356,91.450554,-34.552044,-13.787308,-10.397854,-10.307287,-12.313755,20.179169,-36.729130,-31.094343,-22.054359,-16.013065,-20.658470,-28.437132,-23.983599,-16.944105,-29.580763,-31.137545,-41.237019,-19.721504,-19.623863,-28.767859,-43.094273,-22.703802,2.628322,-34.796844,-23.251373,-9.983866,-11.024944,-41.568859,58.444656,8064.000000,0.000000,4.000000,,,,0.000000,4.000000,4.000000,4.000000,4.000000,4.000000,4.000000,4.000000,4.000000,4.000000,4.000000,4.000000,4.000000,4.000000,4.000000,4.000000,4.000000,4.000000,4.000000,4.000000,4.000000,4.000000,4.000000,4.000000,4.000000,4.000000,4.000000,4.000000,4.000000,4.000000,4.000000,4.000000,4.000000,100.000000
1614560912.598052,103.000000,0.000000,-11.021681,-2.717635,59.051407,-36.055950,-24.542751,-8.336174,-8.245698,-17.429646,2.210272,-35.666759,-22.345301,-21.006664,-10.868847,-8.842940,-23.793310,-22.421154,-9.234854,-31.602463,-28.542303,-29.913731,-20.214603,-20.117060,-35.405758,-30.230667,-22.681097,-3.015332,-33.736408,-22.715302,-9.461061,-9.988277,-52.809341,30.693905,8192.000000,0.000000,4.000000,,,,0.000000,4.000000,4.000000,4.000000,4.000000,4.000000,4.000000,4.000000,4.000000,4.000000,4.000000,4.000000,4.000000,4.000000,4.000000,4.000000,4.000000,4.000000,4.000000,4.000000,4.000000,4.000000,4.000000,4.000000,4.000000,4.000000,4.000000,4.000000,4.000000,4.000000,4.000000,4.000000,4.000000,100.000000
1614560912.605801,104.000000,0.000000,-11.010659,-3.227738,73.864151,-12.430153,-11.697696,-6.276556,-3.622068,-11.771192,15.028575,-31.528530,-20.784494,-18.934376,-7.781055,-5.757174,-22.743876,-25.988476,-7.687158,-30.032400,-29.539402,-29.370996,-22.758492,-18.045660,-36.395992,-25.585051,-22.658417,-3.012316,-33.702671,-24.231049,-9.451600,-10.491110,-63.012943,34.765774,8064.000000,0.000000,4.000000,,,,0.000000,4.000000,4.000000,4.000000,4.000000,4.000000,4.000000,4.000000,4.000000,4.000000,4.000000,4.000000,4.000000,4.000000,4.000000,4.000000,4.000000,4.000000,4.000000,4.000000,4.000000,4.000000,4.000000,4.000000,4.000000,4.000000,4.000000,4.000000,4.000000,4.000000,4.000000,4.000000,4.000000,100.000000
1614560912.613550,105.000000,0.000000,-10.999649,-2.198870,106.610802,-0.110030,5.749899,-6.783100,-2.079984,-4.067112,41.167393,-28.420078,-31.020119,-18.915442,-10.337377,-13.443725,-27.336517,-32.116333,-17.935881,-32.053650,-43.868835,-45.751881,-29.402401,-23.668640,-34.821133,-45.046646,-22.635757,8.785567,-34.694611,-27.283741,-9.442148,-11.506260,-59.873005,67.551521,8064.000000,0.000000,4.000000,,,,0.000000,4.000000,4.000000,4.000000,4.000000,4.000000,4.000000,4.000000,4.000000,4.000000,4.000000,4.000000,4.000000,4.000000,4.000000,4.000000,4.000000,4.000000,4.000000,4.000000,4.000000,4.000000,4.000000,4.000000,4.000000,4.000000,4.000000,4.000000,4.000000,4.000000,4.000000,4.000000,4.000000,100.000000
1614560912.621300,106.000000,0.000000,-10.988649,-0.145389,130.606750,-2.161202,4.205688,-6.776317,-2.077904,-3.037404,47.792892,-28.391657,-34.578842,-17.358065,-12.378322,-17.020025,-28.847641,-36.186783,-22.533329,-45.867748,-57.671124,-57.501003,-35.014023,-30.311638,-35.299133,-56.796471,-22.613123,19.546013,-32.095814,-30.333380,-9.432706,-7.392190,-45.454159,93.637817,8064.000000,0.000000,4.000000,,,,0.000000,4.000000,4.000000,4.000000,4.000000,4.000000,4.000000,4.000000,4.000000,4.000000,4.000000,4.000000,4.000000,4.000000,4.000000,4.000000,4.000000,4.000000,4.000000,4.000000,4.000000,4.000000,4.000000,4.000000,4.000000,4.000000,4.000000,4.000000,4.000000,4.000000,4.000000,4.000000,4.000000,100.000000
1614560912.629149,107.000000,0.000000,-10.977660,1.393218,120.732559,-15.492374,-1.439543,-6.769540,-3.614288,-11.239495,43.642536,-34.517113,-38.134007,-19.391989,-12.365943,-19.054287,-40.100845,-46.919827,-21.485155,-65.821884,-63.767296,-58.469143,-36.517471,-27.204403,-35.776657,-54.175571,-22.590509,21.577749,-27.961153,-30.815866,-9.423273,-0.205310,-26.434345,102.262131,8064.000000,0.000000,4.000000,,,,0.000000,4.000000,4.000000,4.000000,4.000000,4.000000,4.000000,4.000000,4.000000,4.000000,4.000000,4.000000,4.000000,4.000000,4.000000,4.000000,4.000000,4.000000,4.000000,4.000000,4.000000,4.000000,4.000000,4.000000,4.000000,4.000000,4.000000,4.000000,4.000000,4.000000,4.000000,4.000000,4.000000,100.000000
1614560912.636898,108.000000,0.000000,-10.966682,0.879004,100.099007,-31.887138,-7.079129,-7.275591,-10.790160,-22.510307,36.932224,-43.713364,-48.352283,-29.629005,-12.353578,-23.137796,-54.932541,-61.744701,-21.976490,-76.012466,-67.293274,-57.385033,-34.942493,-19.484892,-35.740879,-54.634216,-22.055098,14.889504,-28.958832,-29.759409,-9.413850,0.820536,-33.074577,83.698326,8064.000000,0.000000,4.000000,,,,0.000000,4.000000,4.000000,4.000000,4.000000,4.000000,4.000000,4.000000,4.000000,4.000000,4.000000,4.000000,4.000000,4.000000,4.000000,4.000000,4.000000,4.000000,4.000000,4.000000,4.000000,4.000000,4.000000,4.000000,4.000000,4.000000,4.000000,4.000000,4.000000,4.000000,4.000000,4.000000,4.000000,100.000000
1614560912.644548,109.000000,0.000000,-10.955716,0.365305,86.152748,-27.752687,-11.174614,-6.755495,-13.856294,-22.487797,28.177345,-42.644009,-46.765469,-31.137838,-12.341224,-21.576197,-53.851967,-62.195778,-17.339128,-68.756973,-60.046494,-49.635338,-27.728062,-18.952585,-34.679497,-50.477020,-22.545864,8.207949,-34.570900,-27.678368,-9.404436,-3.795669,-62.272274,55.409500,7936.000000,0.000000,4.000000,,,,0.000000,4.000000,4.000000,4.000000,4.000000,4.000000,4.000000,4.000000,4.000000,4.000000,4.000000,4.000000,4.000000,4.000000,4.000000,4.000000,4.000000,4.000000,4.000000,4.000000,4.000000,4.000000,4.000000,4.000000,4.000000,4.000000,4.000000,4.000000,4.000000,4.000000,4.000000,4.000000,4.000000,100.000000
1614560912.652297,110.000000,0.000000,-10.944760,1.390581,109.656342,-13.878780,-3.471132,-7.261560,-8.714232,-15.285821,36.867115,-34.396236,-37.487934,-21.363111,-12.328882,-19.503340,-48.157089,-55.466915,-10.655124,-53.816418,-44.089012,-39.842113,-21.546488,-19.959274,-35.157639,-36.580387,-22.010498,15.379228,-35.049149,-26.625050,-9.395032,-3.279053,-57.081795,68.174606,8064.000000,0.000000,4.000000,,,,0.000000,4.000000,4.000000,4.000000,4.000000,4.000000,4.000000,4.000000,4.000000,4.000000,4.000000,4.000000,4.000000,4.000000,4.000000,4.000000,4.000000,4.000000,4.000000,4.000000,4.000000,4.000000,4.000000,4.000000,4.000000,4.000000,4.000000,4.000000,4.000000,4.000000,4.000000,4.000000,4.000000,100.000000
1614560912.659946,111.000000,0.000000,-10.933815,3.953293,138.777451,-16.429005,-0.390738,-7.254299,-6.141415,-13.732074,52.214863,-33.336201,-33.860703,-17.239183,-12.316553,-19.996656,-49.134571,-49.257603,-9.618827,-41.454910,-30.711588,-35.186886,-20.499300,-18.913673,-36.148121,-26.800217,-21.475666,28.184361,-27.834612,-25.572783,-9.385637,-1.737312,-24.204201,100.926941,8064.000000,0.000000,4.000000,,,,0.000000,4.000000,4.000000,4.000000,4.000000,4.000000,4.000000,4.000000,4.000000,4.000000,4.000000,4.000000,4.000000,4.000000,4.000000,4.000000,4.000000,4.000000,4.000000,4.000000,4.000000,4.000000,4.000000,4.000000,4.000000,4.000000,4.000000,4.000000,4.000000,4.000000,4.000000,4.000000,4.000000,100.000000
1614560912.667696,112.000000,0.000000,-8.871599,4.462160,134.023300,-5.130524,-6.031373,-3.657301,-5.109633,-7.051675,49.085728,-30.225941,-26.134535,-18.760406,-10.765776,-15.361275,-39.854668,-34.336548,-6.532285,-29.618584,-20.937286,-34.126060,-18.427519,-18.894760,-30.470947,-22.158033,-22.992653,26.104895,-22.678574,-22.983109,-9.376251,-5.325319,-29.308201,95.697807,8064.000000,0.000000,4.000000,,,,0.000000,4.000000,4.000000,4.000000,4.000000,4.000000,4.000000,4.000000,4.000000,4.000000,4.000000,4.000000,4.000000,4.000000,4.000000,4.000000,4.000000,4.000000,4.000000,4.000000,4.000000,4.000000,4.000000,4.000000,4.000000,4.000000,4.000000,4.000000,4.000000,4.000000,4.000000,4.000000,4.000000,100.000000
1614560912.675345,113.000000,0.000000,-7.324266,4.457698,150.812347,27.695120,3.205428,1.474562,1.562143,9.878453,55.190487,-17.888023,-13.287889,-14.126262,-8.703728,-8.679247,-23.404558,-15.840673,-2.423189,-18.306913,-11.685580,-31.527830,-13.280887,-19.388687,-21.209707,-16.494848,-25.533762,28.642893,-22.655895,-22.447304,-9.366875,-2.243070,-51.330173,86.884163,8064.000000,0.000000,4.000000,,,,0.000000,4.000000,4.000000,4.000000,4.000000,4.000000,4.000000,4.000000,4.000000,4.000000,4.000000,4.000000,4.000000,4.000000,4.000000,4.000000,4.000000,4.000000,4.000000,4.000000,4.000000,4.000000,4.000000,4.000000,4.000000,4.000000,4.000000,4.000000,4.000000,4.000000,4.000000,4.000000,4.000000,100.000000
1614560912.683094,114.000000,0.000000,-6.804121,7.530163,183.482040,36.385372,14.997094,5.062830,6.175966,19.612165,76.160934,-12.741930,-12.248960,-9.496751,-8.182203,-7.644927,-19.791409,-11.209449,-6.010509,-15.211683,-7.571331,-30.983482,-11.729144,-19.369297,-19.137215,-15.965533,-24.482588,45.024506,-21.607597,-22.424856,-9.357508,9.041224,-31.791666,112.951126,8064.000000,0.000000,4.000000,,,,0.000000,4.000000,4.000000,4.000000,4.000000,4.000000,4.000000,4.000000,4.000000,4.000000,4.000000,4.000000,4.000000,4.000000,4.000000,4.000000,4.000000,4.000000,4.000000,4.000000,4.000000,4.000000,4.000000,4.000000,4.000000,4.000000,4.000000,4.000000,4.000000,4.000000,4.000000,4.000000,4.000000,100.000000
1614560912.690744,115.000000,0.000000,-7.310138,8.548274,161.247284,4.041296,5.238507,5.057768,5.144149,14.464347,65.315544,-18.883034,-14.287992,-10.512895,-8.686842,-7.637282,-20.284439,-11.711060,-10.107063,-14.170831,-7.050939,-31.465319,-12.743056,-19.349928,-22.195002,-15.949568,-27.535028,38.825634,-23.124451,-22.402431,-9.348150,7.493721,-24.067566,106.684326,8064.000000,0.000000,4.000000,,,,0.000000,4.000000,4.000000,4.000000,4.000000,4.000000,4.000000,4.000000,4.000000,4.000000,4.000000,4.000000,4.000000,4.000000,4.000000,4.000000,4.000000,4.000000,4.000000,4.000000,4.000000,4.000000,4.000000,4.000000,4.000000,4.000000,4.000000,4.000000,4.000000,4.000000,4.000000,4.000000,4.000000,100.000000
1614560912.698493,116.000000,0.000000,-7.302828,8.026905,128.778336,-5.193515,-3.484680,4.027069,5.651825,8.808857,41.660488,-22.453896,-13.760884,-11.015203,-8.678155,-8.655286,-14.110308,-10.673707,-9.584135,-13.131019,-10.120811,-31.433853,-12.730313,-19.330578,-23.711267,-14.907977,-38.789543,16.735527,-31.819275,-23.918491,-9.338802,-1.231721,-49.684525,75.295593,8064.000000,0.000000,4.000000,,,,0.000000,4.000000,4.000000,4.000000,4.000000,4.000000,4.000000,4.000000,4.000000,4.000000,4.000000,4.000000,4.000000,4.000000,4.000000,4.000000,4.000000,4.000000,4.000000,4.000000,4.000000,4.000000,4.000000,4.000000,4.000000,4.000000,4.000000,4.000000,4.000000,4.000000,4.000000,4.000000,4.000000,100.000000
1614560912.706142,117.000000,0.000000,-7.295525,11.608622,161.470078,19.427063,3.185472,5.561503,5.133353,10.851331,58.541904,-20.892979,-21.439430,-9.978546,-8.669477,-11.210732,-15.121839,-18.868162,-12.651474,-24.399939,-22.931204,-31.402420,-12.717583,-19.311247,-23.687557,-23.098198,-38.750755,31.077766,-32.813099,-26.458675,-9.329464,6.974639,-33.224583,108.040810,8064.000000,0.000000,4.000000,,,,0.000000,4.000000,4.000000,4.000000,4.000000,4.000000,4.000000,4.000000,4.000000,4.000000,4.000000,4.000000,4.000000,4.000000,4.000000,4.000000,4.000000,4.000000,4.000000,4.000000,4.000000,4.000000,4.000000,4.000000,4.000000,4.000000,4.000000,4.000000,4.000000,4.000000,4.000000,4.000000,4.000000,100.000000
1614560912.713892,118.000000,0.000000,-7.288229,11.597013,194.129120,20.433277,6.772029,4.530301,-1.538447,11.353300,74.893616,-21.384907,-29.110298,-11.507030,-8.660808,-11.712342,-20.747742,-26.028780,-17.767029,-39.760155,-31.113400,-31.883839,-12.704865,-19.291937,-23.663870,-31.793049,-29.481234,50.533867,-29.190540,-26.432217,-9.320134,12.608690,-2.934948,140.753281,8064.000000,0.000000,4.000000,,,,0.000000,4.000000,4.000000,4.000000,4.000000,4.000000,4.000000,4.000000,4.000000,4.000000,4.000000,4.000000,4.000000,4.000000,4.000000,4.000000,4.000000,4.000000,4.000000,4.000000,4.000000,4.000000,4.000000,4.000000,4.000000,4.000000,4.000000,4.000000,4.000000,4.000000,4.000000,4.000000,4.000000,100.000000
1614560912.721541,119.000000,0.000000,-7.280941,0.303365,161.627304,-3.689720,2.149873,-3.679358,-6.665114,2.111177,46.613594,-21.363522,-27.542727,-14.059625,-8.652146,-12.213450,-20.726995,-27.028393,-17.749262,-42.284496,-30.569466,-31.851954,-12.692160,-18.759825,-23.127384,-30.735615,-37.656883,25.355129,-41.469044,-26.405785,-9.310814,-4.839816,-35.239704,108.304840,8192.000000,0.000000,4.000000,,,,0.000000,4.000000,4.000000,4.000000,4.000000,4.000000,4.000000,4.000000,4.000000,4.000000,4.000000,4.000000,4.000000,4.000000,4.000000,4.000000,4.000000,4.000000,4.000000,4.000000,4.000000,4.000000,4.000000,4.000000,4.000000,4.000000,4.000000,4.000000,4.000000,4.000000,4.000000,4.000000,4.000000,100.000000
1614560912.729390,120.000000,0.000000,-7.273660,-7.902067,131.209259,-8.814236,1.634903,-10.855165,-6.658449,-6.096062,32.208008,-21.854979,-32.643391,-14.045565,-8.130673,-17.842262,-24.296011,-37.770596,-16.705872,-43.780674,-38.231205,-31.820103,-16.269211,-19.766705,-26.181181,-36.858727,-43.773071,9.945159,-48.094238,-26.892199,-9.814323,-13.552925,-61.358311,75.888840,7936.000000,0.000000,4.000000,,,,0.000000,4.000000,4.000000,4.000000,4.000000,4.000000,4.000000,4.000000,4.000000,4.000000,4.000000,4.000000,4.000000,4.000000,4.000000,4.000000,4.000000,4.000000,4.000000,4.000000,4.000000,4.000000,4.000000,4.000000,4.000000,4.000000,4.000000,4.000000,4.000000,4.000000,4.000000,4.000000,4.000000,100.000000
1614560912.737140,121.000000,0.000000,-7.266387,-3.278780,163.898560,0.938168,2.658909,-10.844310,-6.138969,-4.551505,57.304005,-21.833124,-43.892799,-14.544340,-8.635364,-23.465446,-34.015305,-56.194363,-17.201984,-55.531765,-54.090408,-31.788282,-20.355507,-19.234118,-30.770384,-50.155201,-24.242119,37.114700,-24.456402,-25.839666,-8.778869,3.383705,-28.476440,108.633461,8064.000000,0.000000,4.000000,,,,0.000000,4.000000,4.000000,4.000000,4.000000,4.000000,4.000000,4.000000,4.000000,4.000000,4.000000,4.000000,4.000000,4.000000,4.000000,4.000000,4.000000,4.000000,4.000000,4.000000,4.000000,4.000000,4.000000,4.000000,4.000000,4.000000,4.000000,4.000000,4.000000,4.000000,4.000000,4.000000,4.000000,100.000000
1614560912.744989,122.000000,0.000000,-7.259120,1.339883,163.734665,-6.755078,2.143429,-10.320645,-6.645651,-7.111056,58.272343,-20.272829,-43.336082,-14.529796,-8.626728,-23.441980,-37.058212,-61.266373,-17.184784,-61.630081,-59.164524,-31.756495,-20.335152,-15.625140,-31.765255,-45.489658,-17.038389,38.616047,-11.098613,-23.249723,-6.205987,14.149551,-13.063350,124.422264,7936.000000,0.000000,4.000000,,,,0.000000,4.000000,4.000000,4.000000,4.000000,4.000000,4.000000,4.000000,4.000000,4.000000,4.000000,4.000000,4.000000,4.000000,4.000000,4.000000,4.000000,4.000000,4.000000,4.000000,4.000000,4.000000,4.000000,4.000000,4.000000,4.000000,4.000000,4.000000,4.000000,4.000000,4.000000,4.000000,4.000000,100.000000
1614560912.752738,123.000000,0.000000,-7.251861,0.312903,131.263245,-26.748323,1.628465,-10.823145,-4.074903,-16.847534,28.470480,-24.355120,-37.138901,-13.489625,-8.105281,-22.905718,-37.021156,-55.564083,-17.167599,-58.491528,-55.002796,-31.724737,-20.827637,-11.506951,-30.707848,-33.136478,-38.046993,6.782560,-28.523411,-22.200832,-5.174140,3.878992,-45.357979,91.990150,8064.000000,0.000000,4.000000,,,,0.000000,4.000000,4.000000,4.000000,4.000000,4.000000,4.000000,4.000000,4.000000,4.000000,4.000000,4.000000,4.000000,4.000000,4.000000,4.000000,4.000000,4.000000,4.000000,4.000000,4.000000,4.000000,4.000000,4.000000,4.000000,4.000000,4.000000,4.000000,4.000000,4.000000,4.000000,4.000000,4.000000,100.000000
1614560912.760588,124.000000,0.000000,-7.244609,-0.713051,117.798645,-31.849779,1.626837,-10.299501,-3.558007,-20.933250,20.236881,-34.074356,-37.614582,-17.065878,-9.635637,-23.908453,-42.112339,-53.970058,-17.150431,-56.381752,-53.922150,-31.693012,-20.806808,-10.982624,-31.189960,-38.231544,-45.701252,5.750136,-39.776939,-22.691452,-5.681787,-3.817195,-54.030567,76.000725,8064.000000,0.000000,4.000000,,,,0.000000,4.000000,4.000000,4.000000,4.000000,4.000000,4.000000,4.000000,4.000000,4.000000,4.000000,4.000000,4.000000,4.000000,4.000000,4.000000,4.000000,4.000000,4.000000,4.000000,4.000000,4.000000,4.000000,4.000000,4.000000,4.000000,4.000000,4.000000,4.000000,4.000000,4.000000,4.000000,4.000000,100.000000
1614560912.768337,125.000000,0.000000,-7.237365,-2.763620,137.168030,-21.048698,-2.990175,-11.827663,-5.605731,-17.835394,26.883310,-36.091564,-37.576969,-26.792402,-12.190104,-23.371725,-47.711250,-53.916088,-17.133280,-55.812550,-53.868229,-31.661320,-19.247540,-11.484462,-31.671591,-46.911263,-35.399139,24.718744,-33.583317,-22.668760,-5.163284,-2.787736,-27.309872,106.693954,8064.000000,0.000000,4.000000,,,,0.000000,4.000000,4.000000,4.000000,4.000000,4.000000,4.000000,4.000000,4.000000,4.000000,4.000000,4.000000,4.000000,4.000000,4.000000,4.000000,4.000000,4.000000,4.000000,4.000000,4.000000,4.000000,4.000000,4.000000,4.000000,4.000000,4.000000,4.000000,4.000000,4.000000,4.000000,4.000000,4.000000,100.000000
1614560912.776186,126.000000,0.000000,-7.230127,-2.248036,138.056503,-14.873804,-9.141030,-13.867118,-6.625767,-16.279099,25.830786,-32.978550,-37.026573,-29.842533,-12.690735,-22.835533,-49.714821,-54.374992,-17.628967,-57.808022,-53.814362,-32.142479,-25.382139,-13.011438,-31.127100,-47.377174,-37.415024,19.053001,-32.011272,-22.133272,-6.183762,-2.784949,-26.769741,106.074440,8064.000000,0.000000,4.000000,,,,0.000000,4.000000,4.000000,4.000000,4.000000,4.000000,4.000000,4.000000,4.000000,4.000000,4.000000,4.000000,4.000000,4.000000,4.000000,4.000000,4.000000,4.000000,4.000000,4.000000,4.000000,4.000000,4.000000,4.000000,4.000000,4.000000,4.000000,4.000000,4.000000,4.000000,4.000000,4.000000,4.000000,100.000000
1614560912.783935,127.000000,0.000000,-7.222897,1.343955,148.174850,-10.243546,-7.593428,-13.853251,-6.106320,-10.108973,39.138290,-33.458389,-38.528008,-24.684486,-11.652403,-23.838339,-42.998440,-53.294975,-17.098518,-55.698929,-54.786186,-31.597515,-32.536243,-16.588171,-31.095972,-46.816975,-40.967354,18.008307,-35.569004,-22.623959,-8.741680,-4.320625,-34.948101,102.378624,8064.000000,0.000000,4.000000,,,,0.000000,4.000000,4.000000,4.000000,4.000000,4.000000,4.000000,4.000000,4.000000,4.000000,4.000000,4.000000,4.000000,4.000000,4.000000,4.000000,4.000000,4.000000,4.000000,4.000000,4.000000,4.000000,4.000000,4.000000,4.000000,4.000000,4.000000,4.000000,4.000000,4.000000,4.000000,4.000000,4.000000,100.000000
1614560912.791785,0.000000,0.000000,-7.215674,5.445176,180.847183,9.253878,-1.431988,-13.839397,-6.100214,-2.919376,62.176075,-28.296726,-31.309992,-21.070057,-12.666391,-22.276037,-27.058006,-41.959629,-17.081419,-38.207333,-42.936531,-27.976175,-25.324221,-19.135685,-31.064877,-39.077850,-26.567410,38.503120,-30.918051,-22.601336,-9.758580,-1.239382,-16.451612,133.558289,0.000000,220.000000,4.000000,,,,0.000000,4.000000,4.000000,4.000000,4.000000,4.000000,4.000000,4.000000,4.000000,4.000000,4.000000,4.000000,4.000000,4.000000,4.000000,4.000000,4.000000,4.000000,4.000000,4.000000,4.000000,4.000000,4.000000,4.000000,4.000000,4.000000,4.000000,4.000000,4.000000,4.000000,4.000000,4.000000,4.000000,100.000000
1614560912.799534,1.000000,0.000000,-7.208459,5.439730,177.076599,17.962572,-3.994659,-13.825559,-6.094114,-7.019021,55.447231,-18.524839,-18.970989,-20.023346,-12.140904,-15.074275,-16.774538,-27.558695,-18.089979,-19.707588,-22.893593,-24.871275,-13.504025,-19.629370,-31.546631,-25.192619,-20.386997,37.951794,-25.246107,-22.578733,-9.236001,1.325960,-3.614649,144.193970,0.000000,162.000000,4.000000,,,,0.000000,4.000000,4.000000,4.000000,4.000000,4.000000,4.000000,4.000000,4.000000,4.000000,4.000000,4.000000,4.000000,4.000000,4.000000,4.000000,4.000000,4.000000,4.000000,4.000000,4.000000,4.000000,4.000000,4.000000,4.000000,4.000000,4.000000,4.000000,4.000000,4.000000,4.000000,4.000000,4.000000,100.000000
1614560912.807383,2.000000,0.000000,-7.201250,0.818906,144.591827,-3.081031,-9.631690,-11.760450,-6.088020,-7.524823,32.314861,-17.480675,-13.823812,-15.900759,-9.564661,-8.392534,-16.757765,-22.915751,-13.969325,-17.636599,-14.665571,-23.820763,-12.464879,-19.096920,-30.489445,-19.526400,-33.187122,16.375381,-25.733681,-22.556154,-9.226765,-5.342032,-23.611034,111.742081,0.000000,186.000000,4.000000,,,,0.000000,4.000000,4.000000,4.000000,4.000000,4.000000,4.000000,4.000000,4.000000,4.000000,4.000000,4.000000,4.000000,4.000000,4.000000,4.000000,4.000000,4.000000,4.000000,4.000000,4.000000,4.000000,4.000000,4.000000,4.000000,4.000000,4.000000,4.000000,4.000000,4.000000,4.000000,4.000000,4.000000,100.000000
1614560912.815132,3.000000,0.000000,-7.194049,-1.746015,142.395950,-7.693335,-5.519494,-9.697408,-6.081932,6.328856,39.462032,-16.437553,-12.271527,-13.320756,-8.016635,-7.358500,-14.689724,-20.841553,-5.237407,-17.106140,-15.163727,-20.207199,-11.939594,-16.513721,-27.894852,-13.353027,-34.692398,16.359007,-26.220768,-22.533598,-9.217538,-6.362331,-34.356655,100.348289,0.000000,189.000000,4.000000,,,,0.000000,4.000000,4.000000,4.000000,4.000000,4.000000,4.000000,4.000000,4.000000,4.000000,4.000000,4.000000,4.000000,4.000000,4.000000,4.000000,4.000000,4.000000,4.000000,4.000000,4.000000,4.000000,4.000000,4.000000,4.000000,4.000000,4.000000,4.000000,4.000000,4.000000,4.000000,4.000000,4.000000,100.000000
1614560912.822982,4.000000,0.000000,-7.186855,0.307013,175.074066,14.365641,-0.385770,-10.200531,-6.075850,13.502014,64.037956,-10.780089,-10.207973,-13.820255,-8.008618,-8.376783,-12.110931,-18.256609,-1.129606,-12.986470,-11.558819,-16.597248,-5.260988,-12.394643,-27.354137,-2.570444,-19.785910,32.240082,-20.553520,-22.511065,-9.208321,3.900441,-13.809477,129.478714,0.000000,177.000000,4.000000,,,,0.000000,4.000000,4.000000,4.000000,4.000000,4.000000,4.000000,4.000000,4.000000,4.000000,4.000000,4.000000,4.000000,4.000000,4.000000,4.000000,4.000000,4.000000,4.000000,4.000000,4.000000,4.000000,4.000000,4.000000,4.000000,4.000000,4.000000,4.000000,4.000000,4.000000,4.000000,4.000000,4.000000,100.000000
1614560912.830731,5.000000,0.000000,-7.179668,0.306706,171.822067,10.248711,-0.898204,-10.190331,-6.069774,4.770564,66.025200,-12.307771,-13.787510,-14.319256,-8.513430,-7.855586,-13.124462,-23.879379,-2.154117,-20.152971,-13.085722,-16.067831,-3.717265,-11.356607,-24.762680,-2.055053,-15.663560,32.207844,-17.456045,-22.488554,-9.199112,5.435002,-9.180283,138.067184,0.000000,164.000000,4.000000,,,,0.000000,4.000000,4.000000,4.000000,4.000000,4.000000,4.000000,4.000000,4.000000,4.000000,4.000000,4.000000,4.000000,4.000000,4.000000,4.000000,4.000000,4.000000,4.000000,4.000000,4.000000,4.000000,4.000000,4.000000,4.000000,4.000000,4.000000,4.000000,4.000000,4.000000,4.000000,4.000000,4.000000,100.000000
1614560912.838580,6.000000,0.000000,-7.172488,-2.770524,152.163071,-7.197435,-2.435768,-10.180140,-6.063704,0.663229,53.138660,-16.910847,-18.901928,-13.792116,-7.992096,-7.334909,-10.547235,-30.009346,-2.151963,-26.286665,-19.739304,-16.051764,-5.764830,-11.345250,-20.635353,-7.181203,-19.750460,26.021790,-21.028332,-22.466066,-9.189913,-2.262740,-29.171103,114.339371,0.000000,211.000000,4.000000,,,,0.000000,4.000000,4.000000,4.000000,4.000000,4.000000,4.000000,4.000000,4.000000,4.000000,4.000000,4.000000,4.000000,4.000000,4.000000,4.000000,4.000000,4.000000,4.000000,4.000000,4.000000,4.000000,4.000000,4.000000,4.000000,4.000000,4.000000,4.000000,4.000000,4.000000,4.000000,4.000000,4.000000,100.000000
1614560912.846329,7.000000,0.000000,-7.165316,-3.280574,164.831421,1.527711,-0.894870,-10.169960,-6.057641,4.252309,51.547062,-17.406757,-18.883026,-13.778324,-7.984104,-7.840395,-10.023867,-28.440874,-3.175452,-20.619352,-19.206743,-17.574173,-3.707783,-11.333905,-19.076256,-11.789407,-20.756351,27.534229,-21.520124,-19.879498,-9.180723,-1.747657,-29.654753,106.019897,0.000000,179.000000,4.000000,,,,0.000000,4.000000,4.000000,4.000000,4.000000,4.000000,4.000000,4.000000,4.000000,4.000000,4.000000,4.000000,4.000000,4.000000,4.000000,4.000000,4.000000,4.000000,4.000000,4.000000,4.000000,4.000000,4.000000,4.000000,4.000000,4.000000,4.000000,4.000000,4.000000,4.000000,4.000000,4.000000,4.000000,100.000000
1614560912.853979,8.000000,0.000000,-7.158151,-2.251652,171.333252,3.577465,-0.381155,-10.672611,-6.051583,0.145493,54.572437,-20.979094,-18.864141,-14.277366,-10.027402,-10.396657,-18.731792,-28.925255,-7.787661,-22.650015,-21.238819,-22.171984,-8.319460,-12.348212,-18.031540,-23.572489,-24.838160,28.532335,-18.421680,-18.321156,-9.171542,-1.745909,-14.240481,116.683113,0.000000,186.000000,4.000000,,,,0.000000,4.000000,4.000000,4.000000,4.000000,4.000000,4.000000,4.000000,4.000000,4.000000,4.000000,4.000000,4.000000,4.000000,4.000000,4.000000,4.000000,4.000000,4.000000,4.000000,4.000000,4.000000,4.000000,4.000000,4.000000,4.000000,4.000000,4.000000,4.000000,4.000000,4.000000,4.000000,4.000000,100.000000
1614560912.861728,9.000000,0.000000,-7.150992,-3.275042,154.238846,-4.631241,-4.996159,-10.149117,-6.045531,-5.495678,47.338379,-25.060678,-21.922201,-14.263089,-12.068657,-12.437543,-25.379726,-31.460432,-10.343976,-33.909416,-36.089375,-26.252375,-20.618834,-15.412787,-21.603251,-33.292507,-30.967167,26.965342,-19.941721,-19.328476,-9.162371,-6.359548,-10.636497,119.130531,0.000000,194.000000,4.000000,,,,0.000000,4.000000,4.000000,4.000000,4.000000,4.000000,4.000000,4.000000,4.000000,4.000000,4.000000,4.000000,4.000000,4.000000,4.000000,4.000000,4.000000,4.000000,4.000000,4.000000,4.000000,4.000000,4.000000,4.000000,4.000000,4.000000,4.000000,4.000000,4.000000,4.000000,4.000000,4.000000,4.000000,100.000000
1614560912.869378,10.000000,0.000000,-7.143841,-2.758946,153.058975,12.296468,-8.068086,-7.574866,-6.039486,-2.926080,43.701294,-22.984337,-23.438740,-14.248826,-12.056588,-11.912285,-25.354347,-27.839228,-10.333632,-29.260122,-42.719952,-27.764584,-25.213598,-16.423016,-34.402161,-32.233574,-32.474663,28.476837,-20.947420,-18.796328,-9.153209,-2.763445,-12.164323,119.524223,0.000000,196.000000,4.000000,,,,0.000000,4.000000,4.000000,4.000000,4.000000,4.000000,4.000000,4.000000,4.000000,4.000000,4.000000,4.000000,4.000000,4.000000,4.000000,4.000000,4.000000,4.000000,4.000000,4.000000,4.000000,4.000000,4.000000,4.000000,4.000000,4.000000,4.000000,4.000000,4.000000,4.000000,4.000000,4.000000,4.000000,100.000000
1614560912.877127,11.000000,0.000000,-7.136698,-0.192085,156.495651,14.848273,-6.008735,-6.028830,-6.033446,-0.359051,45.708878,-22.448532,-22.902481,-14.234577,-11.531711,-11.900373,-24.303352,-24.734465,-9.810478,-16.410349,-33.959282,-29.275282,-24.675564,-15.380952,-42.572887,-33.226978,-35.006290,25.371439,-22.977755,-18.777531,-9.144055,0.316242,-16.767544,112.738029,0.000000,180.000000,4.000000,,,,0.000000,4.000000,4.000000,4.000000,4.000000,4.000000,4.000000,4.000000,4.000000,4.000000,4.000000,4.000000,4.000000,4.000000,4.000000,4.000000,4.000000,4.000000,4.000000,4.000000,4.000000,4.000000,4.000000,4.000000,4.000000,4.000000,4.000000,4.000000,4.000000,4.000000,4.000000,4.000000,4.000000,100.000000
1614560912.884776,12.000000,0.000000,-7.129561,-0.191893,136.851974,-15.935805,-4.977086,-6.535621,-6.540234,-4.974077,36.945217,-27.554289,-22.366758,-16.271624,-12.545820,-12.914113,-25.817511,-23.684090,-10.313488,-15.881119,-31.874043,-29.246006,-26.189350,-16.391211,-40.479031,-32.168114,-43.176411,16.115297,-31.672726,-22.348495,-9.134912,-5.837921,-34.699493,91.086830,0.000000,181.000000,4.000000,,,,0.000000,4.000000,4.000000,4.000000,4.000000,4.000000,4.000000,4.000000,4.000000,4.000000,4.000000,4.000000,4.000000,4.000000,4.000000,4.000000,4.000000,4.000000,4.000000,4.000000,4.000000,4.000000,4.000000,4.000000,4.000000,4.000000,4.000000,4.000000,4.000000,4.000000,4.000000,4.000000,4.000000,100.000000
1614560912.892526,13.000000,0.000000,-7.122431,-2.755803,123.894615,-18.996792,-8.561852,-7.554727,-6.533693,-9.071667,24.087761,-29.578016,-19.780289,-16.768173,-12.020453,-9.311456,-25.791693,-19.045021,-10.815995,-15.352417,-31.329348,-27.678299,-17.958033,-15.862000,-39.412910,-19.315432,-44.671696,11.483797,-33.692333,-22.326147,-9.125776,-6.344903,-42.357101,83.303436,0.000000,200.000000,4.000000,,,,0.000000,4.000000,4.000000,4.000000,4.000000,4.000000,4.000000,4.000000,4.000000,4.000000,4.000000,4.000000,4.000000,4.000000,4.000000,4.000000,4.000000,4.000000,4.000000,4.000000,4.000000,4.000000,4.000000,4.000000,4.000000,4.000000,4.000000,4.000000,4.000000,4.000000,4.000000,4.000000,4.000000,100.000000
1614560912.900175,14.000000,0.000000,-7.115309,-3.265868,128.898926,-3.080360,-9.066111,-6.521531,-6.014339,-9.062595,25.089314,-28.522797,-11.042560,-15.212943,-9.957151,-2.122657,-23.201797,-16.974693,-7.215436,-8.157578,-14.374941,-26.624979,-3.068280,-8.666651,-36.809395,-6.988423,-38.473179,12.497954,-24.940695,-14.098694,-9.116651,-1.210353,-37.186539,87.835518,0.000000,201.000000,4.000000,,,,0.000000,4.000000,4.000000,4.000000,4.000000,4.000000,4.000000,4.000000,4.000000,4.000000,4.000000,4.000000,4.000000,4.000000,4.000000,4.000000,4.000000,4.000000,4.000000,4.000000,4.000000,4.000000,4.000000,4.000000,4.000000,4.000000,4.000000,4.000000,4.000000,4.000000,4.000000,4.000000,4.000000,100.000000
1614560912.907924,15.000000,0.000000,-7.621014,-2.236961,129.795670,-11.795228,-8.031404,-6.515009,-7.033966,-8.027891,30.705250,-28.494274,-2.313569,-15.197730,-7.895912,-0.069252,-19.588852,-15.419257,-3.105656,-3.534035,4.100973,-21.982969,3.088634,-0.965676,-28.054638,-2.366050,-35.870602,12.485456,-24.402933,-7.930748,-9.107534,-1.721964,-38.174995,80.055374,0.000000,203.000000,4.000000,,,,0.000000,4.000000,4.000000,4.000000,4.000000,4.000000,4.000000,4.000000,4.000000,4.000000,4.000000,4.000000,4.000000,4.000000,4.000000,4.000000,4.000000,4.000000,4.000000,4.000000,4.000000,4.000000,4.000000,4.000000,4.000000,4.000000,4.000000,4.000000,4.000000,4.000000,4.000000,4.000000,4.000000,100.000000
1614560912.915574,16.000000,0.000000,-7.100573,-2.747545,126.588943,-13.834715,-9.561833,-8.046956,-6.001291,-9.045505,29.136084,-28.978600,0.252847,-10.054328,-8.913657,-1.607644,-15.466700,-6.173069,-2.589730,3.136166,9.225077,-6.576371,8.213751,-0.451890,-22.898378,4.815803,-34.809090,12.472971,-24.378531,-7.409997,-9.098427,-1.207421,-33.521435,78.436859,0.000000,195.000000,4.000000,,,,0.000000,4.000000,4.000000,4.000000,4.000000,4.000000,4.000000,4.000000,4.000000,4.000000,4.000000,4.000000,4.000000,4.000000,4.000000,4.000000,4.000000,4.000000,4.000000,4.000000,4.000000,4.000000,4.000000,4.000000,4.000000,4.000000,4.000000,4.000000,4.000000,4.000000,4.000000,4.000000,4.000000,100.000000
1614560912.923323,17.000000,0.000000,-5.042190,-3.257618,126.975182,0.025273,-7.500990,-5.474806,0.158557,-9.036459,29.619768,-28.949621,0.252595,-0.813504,-8.391923,0.958066,-10.323028,3.063873,-1.048679,10.825337,12.292775,10.353282,16.923487,-0.451438,-16.208813,10.452013,-25.030691,15.024601,-15.123383,-4.325665,-7.038046,3.409171,-17.590477,89.640472,0.000000,197.000000,4.000000,,,,0.000000,4.000000,4.000000,4.000000,4.000000,4.000000,4.000000,4.000000,4.000000,4.000000,4.000000,4.000000,4.000000,4.000000,4.000000,4.000000,4.000000,4.000000,4.000000,4.000000,4.000000,4.000000,4.000000,4.000000,4.000000,4.000000,4.000000,4.000000,4.000000,4.000000,4.000000,4.000000,4.000000,100.000000
1614560912.930973,18.000000,0.000000,-2.985866,-1.715899,127.873840,-2.026034,-2.365283,3.761438,5.286603,-8.514603,33.692711,-24.818108,0.252342,1.751412,-3.255326,3.521210,-6.722961,1.522348,4.080575,7.737589,15.870226,14.958314,18.445024,2.625936,-3.884912,9.928741,-10.646687,16.548038,-11.005694,0.294046,-4.979726,4.944223,-11.419041,96.217499,0.000000,187.000000,4.000000,,,,0.000000,4.000000,4.000000,4.000000,4.000000,4.000000,4.000000,4.000000,4.000000,4.000000,4.000000,4.000000,4.000000,4.000000,4.000000,4.000000,4.000000,4.000000,4.000000,4.000000,4.000000,4.000000,4.000000,4.000000,4.000000,4.000000,4.000000,4.000000,4.000000,4.000000,4.000000,4.000000,4.000000,100.000000
1614560912.938722,19.000000,0.000000,-3.495700,0.849920,128.771606,-5.613751,-4.414200,9.398702,5.794137,-8.506087,35.197483,-18.639444,-0.260731,0.724020,-0.687968,3.004869,-6.716238,-2.068918,5.614956,-0.475277,13.290253,12.892074,17.913759,3.648952,0.734357,10.944452,-3.456553,18.069952,-8.430587,0.806572,-5.487566,4.426458,-8.330698,104.839226,0.000000,199.000000,4.000000,,,,0.000000,4.000000,4.000000,4.000000,4.000000,4.000000,4.000000,4.000000,4.000000,4.000000,4.000000,4.000000,4.000000,4.000000,4.000000,4.000000,4.000000,4.000000,4.000000,4.000000,4.000000,4.000000,4.000000,4.000000,4.000000,4.000000,4.000000,4.000000,4.000000,4.000000,4.000000,4.000000,4.000000,100.000000
1614560912.946371,20.000000,0.000000,-3.492205,1.361890,124.027458,2.084170,-8.512350,7.850842,4.762702,-8.497581,33.623821,-16.569523,0.252350,0.723296,-0.687280,2.489043,-3.632599,-0.528388,6.122162,-0.474802,12.251322,15.443284,17.383024,3.645303,-0.292018,7.343764,-6.530020,16.000599,-2.268310,-0.219875,-5.482079,4.934853,-5.245444,103.195930,0.000000,192.000000,4.000000,,,,0.000000,4.000000,4.000000,4.000000,4.000000,4.000000,4.000000,4.000000,4.000000,4.000000,4.000000,4.000000,4.000000,4.000000,4.000000,4.000000,4.000000,4.000000,4.000000,4.000000,4.000000,4.000000,4.000000,4.000000,4.000000,4.000000,4.000000,4.000000,4.000000,4.000000,4.000000,4.000000,4.000000,100.000000
1614560912.954121,21.000000,0.000000,-3.488713,0.847708,126.467529,1.569265,-4.401274,7.842991,5.270760,-8.489084,32.564556,-17.065773,-0.773543,1.235393,-0.686593,3.512195,1.499239,-3.091962,3.551937,-0.987147,8.649326,11.325276,6.083590,3.641657,1.246736,-4.458451,-11.138874,11.369214,-10.983990,-1.758117,-5.476597,2.365815,-16.522249,83.605553,0.000000,185.000000,4.000000,,,,0.000000,4.000000,4.000000,4.000000,4.000000,4.000000,4.000000,4.000000,4.000000,4.000000,4.000000,4.000000,4.000000,4.000000,4.000000,4.000000,4.000000,4.000000,4.000000,4.000000,4.000000,4.000000,4.000000,4.000000,4.000000,4.000000,4.000000,4.000000,4.000000,4.000000,4.000000,4.000000,4.000000,100.000000
1614560912.961770,22.000000,0.000000,-3.485224,0.846860,146.853882,-1.509227,-0.807129,8.860788,5.778309,-8.480595,35.608917,-17.048708,-8.977898,1.234157,-1.198727,-0.081060,-1.579184,-11.293998,-8.759307,-6.114365,-5.205476,-3.557844,-7.255827,-6.618395,-7.985281,-12.146300,-12.153377,16.486050,-21.742237,-6.371743,-5.471120,5.953193,-18.557011,92.752716,0.000000,212.000000,4.000000,,,,0.000000,4.000000,4.000000,4.000000,4.000000,4.000000,4.000000,4.000000,4.000000,4.000000,4.000000,4.000000,4.000000,4.000000,4.000000,4.000000,4.000000,4.000000,4.000000,4.000000,4.000000,4.000000,4.000000,4.000000,4.000000,4.000000,4.000000,4.000000,4.000000,4.000000,4.000000,4.000000,4.000000,100.000000
1614560912.969619,23.000000,0.000000,-3.481739,0.846013,142.091644,-3.046179,-4.908886,6.287826,3.721249,-7.959294,32.496384,-17.031658,-17.686869,-1.331179,-4.787271,-8.286108,-7.218630,-17.436550,-18.494137,-10.210815,-16.995142,-17.400440,-12.376777,-18.406649,-23.874731,-17.775179,-21.371992,20.059307,-18.130751,-14.057679,-5.465649,7.998522,-9.820504,108.557396,0.000000,225.000000,4.000000,,,,0.000000,4.000000,4.000000,4.000000,4.000000,4.000000,4.000000,4.000000,4.000000,4.000000,4.000000,4.000000,4.000000,4.000000,4.000000,4.000000,4.000000,4.000000,4.000000,4.000000,4.000000,4.000000,4.000000,4.000000,4.000000,4.000000,4.000000,4.000000,4.000000,4.000000,4.000000,4.000000,4.000000,100.000000
1614560912.977369,24.000000,0.000000,-3.478257,0.845167,109.641861,-5.607236,-9.006541,4.230256,0.640605,-8.976975,18.104914,-16.501806,-19.720463,-10.560617,-5.295305,-12.893206,-6.185771,-18.957575,-17.450003,-19.431374,-28.773020,-30.716373,-20.569529,-20.439524,-27.953421,-31.090738,-38.786518,2.090530,-28.369030,-22.761570,-5.460184,-7.394092,-32.374786,76.141151,0.000000,202.000000,4.000000,,,,0.000000,4.000000,4.000000,4.000000,4.000000,4.000000,4.000000,4.000000,4.000000,4.000000,4.000000,4.000000,4.000000,4.000000,4.000000,4.000000,4.000000,4.000000,4.000000,4.000000,4.000000,4.000000,4.000000,4.000000,4.000000,4.000000,4.000000,4.000000,4.000000,4.000000,4.000000,4.000000,4.000000,100.000000
1614560912.985218,25.000000,0.000000,-3.474779,0.844322,104.916832,-4.063167,-8.997535,3.713205,-1.924138,-8.455178,11.932962,-18.023766,-20.213564,-17.729544,-4.264369,-12.367493,-8.743688,-25.092464,-17.945374,-33.770916,-50.282707,-46.583092,-29.779728,-20.419085,-31.515211,-45.931442,-44.901577,-8.167971,-41.161175,-24.277271,-5.967544,-17.130287,-55.419334,56.577827,0.000000,201.000000,4.000000,,,,0.000000,4.000000,4.000000,4.000000,4.000000,4.000000,4.000000,4.000000,4.000000,4.000000,4.000000,4.000000,4.000000,4.000000,4.000000,4.000000,4.000000,4.000000,4.000000,4.000000,4.000000,4.000000,4.000000,4.000000,4.000000,4.000000,4.000000,4.000000,4.000000,4.000000,4.000000,4.000000,4.000000,100.000000
1614560912.992967,26.000000,0.000000,-3.471304,0.330657,134.555511,-10.725771,-8.988537,4.222312,-3.973496,-8.446723,20.126158,-25.698050,-19.680529,-18.737455,-7.337028,-12.867946,-22.068277,-30.708397,-18.440248,-35.275608,-56.386272,-47.562149,-21.544819,-18.347383,-42.765747,-43.834229,-36.651546,10.814556,-23.684116,-16.560686,-3.910294,-2.241363,-29.210070,89.341766,0.000000,215.000000,4.000000,,,,0.000000,4.000000,4.000000,4.000000,4.000000,4.000000,4.000000,4.000000,4.000000,4.000000,4.000000,4.000000,4.000000,4.000000,4.000000,4.000000,4.000000,4.000000,4.000000,4.000000,4.000000,4.000000,4.000000,4.000000,4.000000,4.000000,4.000000,4.000000,4.000000,4.000000,4.000000,4.000000,4.000000,100.000000
1614560913.000816,27.000000,0.000000,-3.467833,0.843147,127.754288,-26.099661,-7.953907,4.218090,-6.533625,-13.053660,22.157312,-29.262096,-11.968541,-19.231539,-7.329690,-12.855078,-30.251337,-18.882816,-6.626936,-17.291613,-32.740143,-29.565870,-2.036095,-4.482882,-37.081955,-24.303215,-30.973869,24.649897,-3.147611,-7.826176,-1.855102,9.042930,-6.103936,102.072937,0.000000,205.000000,4.000000,,,,0.000000,4.000000,4.000000,4.000000,4.000000,4.000000,4.000000,4.000000,4.000000,4.000000,4.000000,4.000000,4.000000,4.000000,4.000000,4.000000,4.000000,4.000000,4.000000,4.000000,4.000000,4.000000,4.000000,4.000000,4.000000,4.000000,4.000000,4.000000,4.000000,4.000000,4.000000,4.000000,4.000000,100.000000
1614560913.008566,28.000000,0.000000,-3.464365,0.842304,104.036789,-22.996637,-10.510056,4.213872,-6.527092,-15.091889,15.981310,-26.155910,-2.212983,-16.648205,-1.168514,-4.637094,-21.503138,-1.428036,5.174562,-1.889706,-8.092017,-15.690150,11.299274,9.367755,-14.993591,-1.714809,-34.532639,17.445759,-7.759848,-7.305529,-1.853247,3.905682,-20.969627,78.381119,0.000000,196.000000,4.000000,,,,0.000000,4.000000,4.000000,4.000000,4.000000,4.000000,4.000000,4.000000,4.000000,4.000000,4.000000,4.000000,4.000000,4.000000,4.000000,4.000000,4.000000,4.000000,4.000000,4.000000,4.000000,4.000000,4.000000,4.000000,4.000000,4.000000,4.000000,4.000000,4.000000,4.000000,4.000000,4.000000,4.000000,100.000000
1614560913.016415,29.000000,0.000000,-3.460900,-0.184179,101.368645,-15.794153,-13.063648,4.209658,-3.443641,-11.999874,13.401226,-25.616934,2.917435,-5.349505,2.935218,5.111133,-6.097018,5.752879,5.682209,3.753209,7.300691,-3.879588,17.954641,10.896849,-6.260649,10.594598,-33.472466,11.274467,-12.880294,-9.349505,-1.851394,2.363315,-25.564041,76.764275,0.000000,193.000000,4.000000,,,,0.000000,4.000000,4.000000,4.000000,4.000000,4.000000,4.000000,4.000000,4.000000,4.000000,4.000000,4.000000,4.000000,4.000000,4.000000,4.000000,4.000000,4.000000,4.000000,4.000000,4.000000,4.000000,4.000000,4.000000,4.000000,4.000000,4.000000,4.000000,4.000000,4.000000,4.000000,4.000000,4.000000,100.000000
1614560913.024164,30.000000,0.000000,-3.457439,1.867287,101.267281,-18.342463,-6.383918,4.205448,-0.876095,-7.372489,15.439107,-20.463112,8.555543,3.886614,3.957924,7.670124,9.293694,11.388151,4.138065,12.467404,24.729288,16.637112,21.013611,10.885952,-8.818491,15.712209,-17.541557,11.776012,-6.713567,-4.211951,-0.823901,7.489157,-12.205145,85.405464,0.000000,213.000000,4.000000,,,,0.000000,4.000000,4.000000,4.000000,4.000000,4.000000,4.000000,4.000000,4.000000,4.000000,4.000000,4.000000,4.000000,4.000000,4.000000,4.000000,4.000000,4.000000,4.000000,4.000000,4.000000,4.000000,4.000000,4.000000,4.000000,4.000000,4.000000,4.000000,4.000000,4.000000,4.000000,4.000000,4.000000,100.000000
1614560913.032013,31.000000,0.000000,-3.453982,6.480804,121.678833,5.265624,4.391696,4.201243,1.176063,5.968216,24.654436,-6.083674,12.649551,5.934009,5.492428,6.123992,18.515169,17.017790,5.672389,21.685707,32.909687,31.492270,20.479776,11.900707,-4.707108,17.747778,0.937522,21.507826,-0.040187,2.458927,-2.874359,11.071411,-0.910888,93.012360,0.000000,193.000000,4.000000,,,,0.000000,4.000000,4.000000,4.000000,4.000000,4.000000,4.000000,4.000000,4.000000,4.000000,4.000000,4.000000,4.000000,4.000000,4.000000,4.000000,4.000000,4.000000,4.000000,4.000000,4.000000,4.000000,4.000000,4.000000,4.000000,4.000000,4.000000,4.000000,4.000000,4.000000,4.000000,4.000000,4.000000,100.000000
1614560913.039763,32.000000,0.000000,-3.450528,9.038426,154.377670,33.465488,7.464228,4.197042,3.738989,22.885324,36.937473,2.127537,9.559979,7.466537,1.897192,5.092227,17.983833,14.436668,5.666716,18.587097,30.825495,34.537701,21.484938,3.683678,0.425804,16.191568,9.141713,37.896576,5.088058,3.994930,-1.333023,13.624442,16.525921,112.919350,8064.000000,0.000000,4.000000,,,,0.000000,4.000000,4.000000,4.000000,4.000000,4.000000,4.000000,4.000000,4.000000,4.000000,4.000000,4.000000,4.000000,4.000000,4.000000,4.000000,4.000000,4.000000,4.000000,4.000000,4.000000,4.000000,4.000000,4.000000,4.000000,4.000000,4.000000,4.000000,4.000000,4.000000,4.000000,4.000000,4.000000,100.000000
1614560913.047612,33.000000,0.000000,-3.447078,8.003747,138.325851,17.021765,5.918302,4.192844,5.273712,19.785517,34.849255,1.612589,4.422214,8.997532,-4.258552,3.548674,13.863286,9.806848,5.148229,11.389023,29.256207,31.939060,21.463451,-4.012313,-0.600263,14.124096,9.645391,35.807396,5.595791,3.990935,4.309335,14.636458,24.714523,109.216690,8064.000000,0.000000,4.000000,,,,0.000000,4.000000,4.000000,4.000000,4.000000,4.000000,4.000000,4.000000,4.000000,4.000000,4.000000,4.000000,4.000000,4.000000,4.000000,4.000000,4.000000,4.000000,4.000000,4.000000,4.000000,4.000000,4.000000,4.000000,4.000000,4.000000,4.000000,4.000000,4.000000,4.000000,4.000000,4.000000,4.000000,100.000000
1614560913.055361,34.000000,0.000000,-3.443630,7.995743,105.879837,-7.610641,4.373922,4.188652,5.268438,4.893936,24.557995,2.123797,3.392151,8.988534,-5.279934,3.032305,12.310961,9.797041,4.630260,9.839172,25.124388,21.650711,15.288142,-2.469839,-0.599663,12.571510,3.481900,17.822870,1.487631,1.935662,2.766564,14.621822,5.715449,81.927986,8064.000000,0.000000,4.000000,,,,0.000000,4.000000,4.000000,4.000000,4.000000,4.000000,4.000000,4.000000,4.000000,4.000000,4.000000,4.000000,4.000000,4.000000,4.000000,4.000000,4.000000,4.000000,4.000000,4.000000,4.000000,4.000000,4.000000,4.000000,4.000000,4.000000,4.000000,4.000000,4.000000,4.000000,4.000000,4.000000,4.000000,100.000000
1614560913.063211,35.000000,0.000000,-3.440187,8.500567,107.825233,-6.577390,2.831087,4.184463,5.263170,2.837760,24.020617,1.608853,2.875938,7.953905,-4.761834,2.516452,12.298650,9.274423,4.625630,9.829333,20.996698,12.398291,9.119008,-2.467370,-0.599063,11.020477,-8.316454,10.625561,-0.565139,-3.707299,-5.441330,14.607201,-9.674882,75.692207,8064.000000,0.000000,4.000000,,,,0.000000,4.000000,4.000000,4.000000,4.000000,4.000000,4.000000,4.000000,4.000000,4.000000,4.000000,4.000000,4.000000,4.000000,4.000000,4.000000,4.000000,4.000000,4.000000,4.000000,4.000000,4.000000,4.000000,4.000000,4.000000,4.000000,4.000000,4.000000,4.000000,4.000000,4.000000,4.000000,4.000000,100.000000
1614560913.070960,36.000000,0.000000,-3.436747,7.979247,128.230225,-2.468248,3.341076,4.180278,5.257906,6.937487,30.150442,1.607244,3.385883,7.945951,-5.269893,3.026756,12.799172,10.290790,5.646645,10.332325,19.950062,12.385893,7.058607,-5.029005,-4.701028,7.932533,-9.846599,13.691858,-0.051753,-8.318976,-5.948709,14.592593,-6.588284,82.283180,8192.000000,0.000000,4.000000,,,,0.000000,4.000000,4.000000,4.000000,4.000000,4.000000,4.000000,4.000000,4.000000,4.000000,4.000000,4.000000,4.000000,4.000000,4.000000,4.000000,4.000000,4.000000,4.000000,4.000000,4.000000,4.000000,4.000000,4.000000,4.000000,4.000000,4.000000,4.000000,4.000000,4.000000,4.000000,4.000000,4.000000,100.000000
1614560913.078809,37.000000,0.000000,-2.920489,7.971267,121.435333,8.303451,2.312094,4.176098,5.252649,6.417728,30.120293,4.682560,1.844035,7.938005,-4.238982,2.510908,10.222270,6.690755,3.076896,8.270710,3.519855,4.681199,0.384882,-5.023976,-10.337353,-3.870271,-5.734188,12.652526,-0.051701,-7.797837,-1.840197,14.578001,-4.017593,75.021416,8064.000000,0.000000,4.000000,,,,0.000000,4.000000,4.000000,4.000000,4.000000,4.000000,4.000000,4.000000,4.000000,4.000000,4.000000,4.000000,4.000000,4.000000,4.000000,4.000000,4.000000,4.000000,4.000000,4.000000,4.000000,4.000000,4.000000,4.000000,4.000000,4.000000,4.000000,4.000000,4.000000,4.000000,4.000000,4.000000,4.000000,100.000000
1614560913.086558,38.000000,0.000000,-4.456030,7.963296,110.544670,18.038736,-3.844064,4.171922,4.221755,5.898490,29.064531,-1.475969,-4.824475,0.237759,-7.824486,-2.619807,-5.685388,-9.726192,-4.618489,-9.686278,-23.150331,-15.836303,-10.384734,-7.070234,-14.429580,-22.840759,-14.446403,11.101412,-0.564470,-8.302859,-3.376818,14.563422,-6.064857,70.331009,8192.000000,0.000000,4.000000,,,,0.000000,4.000000,4.000000,4.000000,4.000000,4.000000,4.000000,4.000000,4.000000,4.000000,4.000000,4.000000,4.000000,4.000000,4.000000,4.000000,4.000000,4.000000,4.000000,4.000000,4.000000,4.000000,4.000000,4.000000,4.000000,4.000000,4.000000,4.000000,4.000000,4.000000,4.000000,4.000000,4.000000,100.000000
1614560913.094208,39.000000,0.000000,-6.502856,7.955333,109.408485,-2.492122,-5.378682,4.167750,0.627790,0.764387,29.548286,-17.371929,-11.486318,-16.685556,-11.919226,-8.258213,-22.089958,-23.562620,-10.254896,-28.138130,-35.434875,-28.640980,-15.502554,-8.088804,-21.081816,-31.023046,-25.201187,11.090310,-4.153649,-11.371480,-6.450365,14.548860,-9.648536,74.876060,8192.000000,0.000000,4.000000,,,,0.000000,4.000000,4.000000,4.000000,4.000000,4.000000,4.000000,4.000000,4.000000,4.000000,4.000000,4.000000,4.000000,4.000000,4.000000,4.000000,4.000000,4.000000,4.000000,4.000000,4.000000,4.000000,4.000000,4.000000,4.000000,4.000000,4.000000,4.000000,4.000000,4.000000,4.000000,4.000000,4.000000,100.000000
1614560913.101957,40.000000,0.000000,-7.521995,7.947378,111.863174,-19.925528,-4.860483,4.163582,-4.501043,-7.441506,26.441816,-23.508404,-13.526114,-23.848356,-9.343204,-9.275597,-23.093510,-26.103159,-10.244641,-26.058710,-33.860977,-24.509775,-12.922949,-3.978152,-28.240221,-23.812536,-21.586243,12.617682,-7.739239,-10.847288,-5.418273,14.534310,-12.202991,78.390930,8064.000000,0.000000,4.000000,,,,0.000000,4.000000,4.000000,4.000000,4.000000,4.000000,4.000000,4.000000,4.000000,4.000000,4.000000,4.000000,4.000000,4.000000,4.000000,4.000000,4.000000,4.000000,4.000000,4.000000,4.000000,4.000000,4.000000,4.000000,4.000000,4.000000,4.000000,4.000000,4.000000,4.000000,4.000000,4.000000,4.000000,100.000000
1614560913.109607,41.000000,0.000000,-7.001652,5.888148,105.597466,-13.238935,-11.522288,4.159419,-6.547824,-9.998167,22.312809,-20.920792,-10.948484,-15.106560,-5.231297,-8.753500,-22.044775,-21.461672,-9.721576,-16.289063,-22.032246,-8.075008,-2.653616,-1.410071,-27.186340,-9.429749,-17.462091,13.630705,-8.244320,-8.272338,-2.848752,14.519776,-13.216428,77.286896,8064.000000,0.000000,4.000000,,,,0.000000,4.000000,4.000000,4.000000,4.000000,4.000000,4.000000,4.000000,4.000000,4.000000,4.000000,4.000000,4.000000,4.000000,4.000000,4.000000,4.000000,4.000000,4.000000,4.000000,4.000000,4.000000,4.000000,4.000000,4.000000,4.000000,4.000000,4.000000,4.000000,4.000000,4.000000,4.000000,4.000000,100.000000
1614560913.117356,42.000000,0.000000,-6.994650,4.343798,83.440590,-21.943645,-16.638971,4.155260,-6.028456,-9.475348,21.777676,-21.925512,-3.245229,-6.886325,-3.687604,-5.155003,-23.561192,-8.619698,-10.224675,-7.042004,4.656454,7.317682,10.169551,-0.383020,-19.979668,6.477116,-18.470270,9.514510,-7.723256,-8.264066,-1.820262,14.505257,-14.228853,67.466019,8064.000000,0.000000,4.000000,,,,0.000000,4.000000,4.000000,4.000000,4.000000,4.000000,4.000000,4.000000,4.000000,4.000000,4.000000,4.000000,4.000000,4.000000,4.000000,4.000000,4.000000,4.000000,4.000000,4.000000,4.000000,4.000000,4.000000,4.000000,4.000000,4.000000,4.000000,4.000000,4.000000,4.000000,4.000000,4.000000,4.000000,100.000000
1614560913.125005,43.000000,0.000000,-6.987656,4.339455,82.331505,-28.588367,-11.494127,4.151104,-6.022428,-8.440232,22.268719,-21.390766,7.014427,-6.879439,-2.145455,2.029639,-11.742759,6.773538,-10.214450,10.913756,28.754362,13.464211,16.313227,4.232748,-12.780200,17.752689,-6.656929,11.043457,-8.228353,-5.178878,-1.818442,14.490751,-10.624881,67.398552,8064.000000,0.000000,4.000000,,,,0.000000,4.000000,4.000000,4.000000,4.000000,4.000000,4.000000,4.000000,4.000000,4.000000,4.000000,4.000000,4.000000,4.000000,4.000000,4.000000,4.000000,4.000000,4.000000,4.000000,4.000000,4.000000,4.000000,4.000000,4.000000,4.000000,4.000000,4.000000,4.000000,4.000000,4.000000,4.000000,4.000000,100.000000
1614560913.132755,44.000000,0.000000,-6.980668,4.335115,109.428665,-6.508498,-7.380069,4.146953,-6.529225,-6.893330,21.733629,-14.189888,11.622797,-7.898201,-0.604848,6.642994,13.910009,9.843687,-9.691415,24.748997,39.494839,20.117413,16.809734,6.279797,-6.613574,21.324680,9.759985,22.314465,-6.168842,1.492967,-2.329444,14.476260,0.154975,83.741409,8064.000000,0.000000,4.000000,,,,0.000000,4.000000,4.000000,4.000000,4.000000,4.000000,4.000000,4.000000,4.000000,4.000000,4.000000,4.000000,4.000000,4.000000,4.000000,4.000000,4.000000,4.000000,4.000000,4.000000,4.000000,4.000000,4.000000,4.000000,4.000000,4.000000,4.000000,4.000000,4.000000,4.000000,4.000000,4.000000,4.000000,100.000000
1614560913.140404,45.000000,0.000000,-7.486508,4.330780,111.883339,3.754421,-8.911151,4.142806,-6.522696,-5.860796,21.711897,-9.047493,11.098354,-6.351841,-0.604243,7.149172,30.819176,10.859485,-9.681724,26.262709,41.506626,27.789604,16.792925,3.709415,-4.555678,20.277716,13.852789,24.856253,-4.111392,4.055577,-1.301474,14.461784,5.795846,88.785873,8192.000000,0.000000,4.000000,,,,0.000000,4.000000,4.000000,4.000000,4.000000,4.000000,4.000000,4.000000,4.000000,4.000000,4.000000,4.000000,4.000000,4.000000,4.000000,4.000000,4.000000,4.000000,4.000000,4.000000,4.000000,4.000000,4.000000,4.000000,4.000000,4.000000,4.000000,4.000000,4.000000,4.000000,4.000000,4.000000,4.000000,100.000000
1614560913.148153,46.000000,0.000000,-6.966201,6.890552,98.438118,-4.454462,-7.876598,4.138663,-5.490532,-0.726730,22.715826,-8.525625,10.061615,-4.807027,-0.603639,7.142023,26.172972,17.002472,-9.672042,26.749268,34.285633,29.300276,16.263311,3.192885,-4.551123,16.154873,13.326116,18.164730,-3.594460,4.051521,1.263930,14.447322,3.225948,79.466324,8064.000000,0.000000,4.000000,,,,0.000000,4.000000,4.000000,4.000000,4.000000,4.000000,4.000000,4.000000,4.000000,4.000000,4.000000,4.000000,4.000000,4.000000,4.000000,4.000000,4.000000,4.000000,4.000000,4.000000,4.000000,4.000000,4.000000,4.000000,4.000000,4.000000,4.000000,4.000000,4.000000,4.000000,4.000000,4.000000,4.000000,100.000000
1614560913.155803,47.000000,0.000000,-6.959235,7.396482,102.442245,-6.501289,-4.791799,4.647345,-5.485042,6.453484,23.205931,-9.029921,7.487450,-6.853503,-2.654317,5.083599,10.762184,12.370084,-9.662370,22.107132,21.430834,28.758154,11.631663,0.112769,-3.008110,13.061795,10.235867,16.608105,-3.078044,1.483367,2.288307,14.945696,2.709901,78.361214,8064.000000,0.000000,4.000000,,,,0.000000,4.000000,4.000000,4.000000,4.000000,4.000000,4.000000,4.000000,4.000000,4.000000,4.000000,4.000000,4.000000,4.000000,4.000000,4.000000,4.000000,4.000000,4.000000,4.000000,4.000000,4.000000,4.000000,4.000000,4.000000,4.000000,4.000000,4.000000,4.000000,4.000000,4.000000,4.000000,4.000000,100.000000
1614560913.163552,48.000000,0.000000,-7.465096,4.824983,99.262878,-15.725557,-3.761366,4.129877,-6.505198,4.395749,21.644262,-10.559352,6.454322,-6.846649,-7.267047,2.514412,4.597576,3.126945,-10.678349,5.161949,14.229915,24.114012,5.466186,-7.579652,-5.056384,11.510272,2.533323,15.053034,-4.613428,-7.236065,1.260378,13.905108,1.681550,79.308495,8064.000000,0.000000,4.000000,,,,0.000000,4.000000,4.000000,4.000000,4.000000,4.000000,4.000000,4.000000,4.000000,4.000000,4.000000,4.000000,4.000000,4.000000,4.000000,4.000000,4.000000,4.000000,4.000000,4.000000,4.000000,4.000000,4.000000,4.000000,4.000000,4.000000,4.000000,4.000000,4.000000,4.000000,4.000000,4.000000,4.000000,100.000000
1614560913.171202,49.000000,0.000000,-4.893528,3.794517,87.881569,-14.684191,-4.783246,4.125747,-4.960231,2.340071,22.135439,-6.959049,6.960688,-0.173136,-8.798242,3.024718,6.644260,2.098177,-9.129209,-3.048342,9.087480,13.320667,3.922258,-8.597713,-10.692353,12.524403,0.992328,13.499519,-1.531891,-6.716009,1.771938,14.404024,-0.371413,79.229187,8064.000000,0.000000,4.000000,,,,0.000000,4.000000,4.000000,4.000000,4.000000,4.000000,4.000000,4.000000,4.000000,4.000000,4.000000,4.000000,4.000000,4.000000,4.000000,4.000000,4.000000,4.000000,4.000000,4.000000,4.000000,4.000000,4.000000,4.000000,4.000000,4.000000,4.000000,4.000000,4.000000,4.000000,4.000000,4.000000,4.000000,100.000000
1614560913.178951,50.000000,0.000000,-0.786071,4.816363,95.485992,7.894596,-4.778462,4.634442,-2.391169,6.953115,24.677406,-5.926449,1.825522,-1.711424,-8.276623,0.457591,-6.182897,-5.596229,-6.043156,-2.019652,-3.229300,3.050936,5.969618,-4.999372,-12.220122,11.999058,0.991336,19.639866,3.597846,3.034297,4.334269,15.415261,-0.883863,80.175598,8064.000000,0.000000,4.000000,,,,0.000000,4.000000,4.000000,4.000000,4.000000,4.000000,4.000000,4.000000,4.000000,4.000000,4.000000,4.000000,4.000000,4.000000,4.000000,4.000000,4.000000,4.000000,4.000000,4.000000,4.000000,4.000000,4.000000,4.000000,4.000000,4.000000,4.000000,4.000000,4.000000,4.000000,4.000000,4.000000,4.000000,100.000000
1614560913.186600,51.000000,0.000000,0.753177,4.298726,95.390503,-1.856888,-3.748043,2.578526,-7.004162,-2.797428,13.883498,-21.817959,-6.894252,-17.607149,-11.345269,-8.773636,-29.253637,-24.564991,-7.575575,-12.274043,-19.123507,-7.721345,-1.215839,-5.507193,-12.720722,1.217828,-13.368630,13.466380,-3.585239,-3.122583,5.868396,10.784461,-9.600927,66.762085,8064.000000,0.000000,4.000000,,,,0.000000,4.000000,4.000000,4.000000,4.000000,4.000000,4.000000,4.000000,4.000000,4.000000,4.000000,4.000000,4.000000,4.000000,4.000000,4.000000,4.000000,4.000000,4.000000,4.000000,4.000000,4.000000,4.000000,4.000000,4.000000,4.000000,4.000000,4.000000,4.000000,4.000000,4.000000,4.000000,4.000000,100.000000
1614560913.194449,52.000000,0.000000,0.239603,1.730325,73.243835,-34.162724,-6.308397,-1.526617,-13.663824,-20.743349,-4.079103,-35.129475,-9.964281,-25.794670,-12.359566,-14.405888,-34.352589,-29.668633,-9.106461,-19.954077,-28.847973,-18.482855,-10.445393,-3.963224,-19.374668,-10.065441,-29.252697,-6.547086,-16.914988,-18.504076,5.862528,4.107010,-21.899019,48.746609,8064.000000,0.000000,4.000000,,,,0.000000,4.000000,4.000000,4.000000,4.000000,4.000000,4.000000,4.000000,4.000000,4.000000,4.000000,4.000000,4.000000,4.000000,4.000000,4.000000,4.000000,4.000000,4.000000,4.000000,4.000000,4.000000,4.000000,4.000000,4.000000,4.000000,4.000000,4.000000,4.000000,4.000000,4.000000,4.000000,4.000000,100.000000
1614560913.202199,53.000000,0.000000,0.752184,0.190133,61.888538,-29.000357,-12.455935,-3.576372,-13.650161,-19.184143,-5.613486,-29.453318,-6.877393,-19.615028,-9.783103,-11.314559,-26.625929,-23.485117,-3.456329,-13.267455,-25.229382,-19.490013,-4.281101,1.681765,-24.483500,-8.004094,-28.710625,-11.668744,-19.974997,-16.434290,5.856665,3.077262,-24.954042,46.133759,8064.000000,0.000000,4.000000,,,,0.000000,4.000000,4.000000,4.000000,4.000000,4.000000,4.000000,4.000000,4.000000,4.000000,4.000000,4.000000,4.000000,4.000000,4.000000,4.000000,4.000000,4.000000,4.000000,4.000000,4.000000,4.000000,4.000000,4.000000,4.000000,4.000000,4.000000,4.000000,4.000000,4.000000,4.000000,4.000000,4.000000,100.000000
1614560913.209948,54.000000,0.000000,0.751432,0.702764,62.339470,-16.663664,-16.546043,-3.572796,-14.149331,-8.908549,3.622897,-23.782839,-6.357696,-17.544132,-8.234859,-7.200680,-26.086481,-20.897530,2.700974,-9.151624,-14.434921,-13.829497,7.518052,3.731365,-23.433374,-2.867884,-25.092171,-6.528870,-17.903738,-4.622984,5.337988,4.099826,-25.441910,44.036343,8064.000000,0.000000,4.000000,,,,0.000000,4.000000,4.000000,4.000000,4.000000,4.000000,4.000000,4.000000,4.000000,4.000000,4.000000,4.000000,4.000000,4.000000,4.000000,4.000000,4.000000,4.000000,4.000000,4.000000,4.000000,4.000000,4.000000,4.000000,4.000000,4.000000,4.000000,4.000000,4.000000,4.000000,4.000000,4.000000,4.000000,100.000000
1614560913.217598,55.000000,0.000000,0.237860,0.702061,62.789951,-23.826487,-16.016676,-3.056403,-13.622361,-8.899640,4.132094,-24.271877,-3.274415,-17.013767,-7.200983,-4.629377,-25.547575,-14.722786,1.159811,-6.578370,-1.599973,-7.661822,9.561816,3.214813,-20.845839,-2.352196,-26.092718,-8.060803,-18.911476,-3.592720,5.332650,2.557265,-21.826723,40.402561,8064.000000,0.000000,4.000000,,,,0.000000,4.000000,4.000000,4.000000,4.000000,4.000000,4.000000,4.000000,4.000000,4.000000,4.000000,4.000000,4.000000,4.000000,4.000000,4.000000,4.000000,4.000000,4.000000,4.000000,4.000000,4.000000,4.000000,4.000000,4.000000,4.000000,4.000000,4.000000,4.000000,4.000000,4.000000,4.000000,4.000000,100.000000
1614560913.225447,56.000000,0.000000,0.750443,0.701359,70.419472,-14.571891,-15.487840,-0.489244,-4.377970,-4.275356,2.589501,-19.632221,6.472449,-8.278805,-5.655320,-0.522183,-14.239976,-0.349088,1.671472,4.710260,13.273421,1.576609,11.603536,6.288521,-14.671146,1.239900,-22.989702,-8.052742,-17.354103,-4.614768,5.840138,4.093169,-13.086948,43.439083,8064.000000,0.000000,4.000000,,,,0.000000,4.000000,4.000000,4.000000,4.000000,4.000000,4.000000,4.000000,4.000000,4.000000,4.000000,4.000000,4.000000,4.000000,4.000000,4.000000,4.000000,4.000000,4.000000,4.000000,4.000000,4.000000,4.000000,4.000000,4.000000,4.000000,4.000000,4.000000,4.000000,4.000000,4.000000,4.000000,4.000000,100.000000
1614560913.233196,57.000000,0.000000,0.749692,0.700657,69.323410,-6.352191,-16.497993,1.049707,5.882819,4.959689,4.125373,-16.022844,11.594182,-1.603859,-4.111203,3.580903,-5.507787,7.343568,2.695441,11.372216,21.465277,8.754519,17.745779,7.307874,-5.938527,5.341224,-17.838509,-8.044689,-14.772646,-3.584512,3.270195,3.576255,-12.561041,38.267437,8064.000000,0.000000,4.000000,,,,0.000000,4.000000,4.000000,4.000000,4.000000,4.000000,4.000000,4.000000,4.000000,4.000000,4.000000,4.000000,4.000000,4.000000,4.000000,4.000000,4.000000,4.000000,4.000000,4.000000,4.000000,4.000000,4.000000,4.000000,4.000000,4.000000,4.000000,4.000000,4.000000,4.000000,4.000000,4.000000,4.000000,100.000000
1614560913.241045,58.000000,0.000000,-1.815160,0.699957,57.459213,-19.679173,-15.455853,0.023016,5.876936,4.441908,3.608427,-17.032463,7.992844,-2.627896,-4.107092,3.577322,-7.040741,5.797763,-3.461100,9.822383,20.418171,6.694483,14.651110,1.659540,-3.881306,3.797421,-16.795029,-12.139209,-15.270694,-9.221953,-0.835639,-3.606808,-15.112582,34.639427,8064.000000,0.000000,4.000000,,,,0.000000,4.000000,4.000000,4.000000,4.000000,4.000000,4.000000,4.000000,4.000000,4.000000,4.000000,4.000000,4.000000,4.000000,4.000000,4.000000,4.000000,4.000000,4.000000,4.000000,4.000000,4.000000,4.000000,4.000000,4.000000,4.000000,4.000000,4.000000,4.000000,4.000000,4.000000,4.000000,4.000000,100.000000
1614560913.248795,59.000000,0.000000,-3.351806,0.699257,65.606880,-11.967185,-10.825013,1.561455,4.845418,5.463108,6.168921,-11.887225,6.446390,-3.138089,-5.641447,2.548104,-2.931136,5.791965,-9.611485,10.325380,18.346470,-0.491698,6.944151,-4.495965,-9.005630,1.742342,-13.701310,-5.460403,-14.742603,-15.366578,-2.886086,-5.141663,-6.379521,48.450943,8064.000000,0.000000,4.000000,,,,0.000000,4.000000,4.000000,4.000000,4.000000,4.000000,4.000000,4.000000,4.000000,4.000000,4.000000,4.000000,4.000000,4.000000,4.000000,4.000000,4.000000,4.000000,4.000000,4.000000,4.000000,4.000000,4.000000,4.000000,4.000000,4.000000,4.000000,4.000000,4.000000,4.000000,4.000000,4.000000,4.000000,100.000000
1614560913.256644,60.000000,0.000000,-3.348454,0.698557,86.566917,7.531961,-7.737265,4.123996,6.379034,9.560208,12.829419,-5.208672,7.465585,-0.058028,-7.687087,4.084017,7.841026,7.837455,-9.601873,8.263773,11.661457,-2.542489,4.373105,-5.004290,-12.073547,-1.849144,-9.585045,4.801468,-14.727860,-13.299929,-1.857558,1.530145,-0.219295,54.043518,8064.000000,0.000000,4.000000,,,,0.000000,4.000000,4.000000,4.000000,4.000000,4.000000,4.000000,4.000000,4.000000,4.000000,4.000000,4.000000,4.000000,4.000000,4.000000,4.000000,4.000000,4.000000,4.000000,4.000000,4.000000,4.000000,4.000000,4.000000,4.000000,4.000000,4.000000,4.000000,4.000000,4.000000,4.000000,4.000000,4.000000,100.000000
1614560913.264393,61.000000,0.000000,-4.370747,0.697859,91.608559,-2.219160,-7.729528,4.632692,4.321373,6.986546,15.893513,-5.716283,2.842734,0.454851,-8.705041,1.003010,7.833185,3.727054,-12.156374,3.127304,-0.145076,-2.027126,0.778988,-4.486465,-11.548654,-11.590885,-9.575460,5.309487,-16.251595,-11.235347,-1.855701,4.092718,-1.757538,52.451012,8064.000000,0.000000,4.000000,,,,0.000000,4.000000,4.000000,4.000000,4.000000,4.000000,4.000000,4.000000,4.000000,4.000000,4.000000,4.000000,4.000000,4.000000,4.000000,4.000000,4.000000,4.000000,4.000000,4.000000,4.000000,4.000000,4.000000,4.000000,4.000000,4.000000,4.000000,4.000000,4.000000,4.000000,4.000000,4.000000,4.000000,100.000000
1614560913.272242,62.000000,0.000000,-6.930479,0.697161,90.491302,-9.909248,-8.234619,4.115239,1.752949,9.030841,14.851977,-9.300311,-3.313955,-4.160989,-8.183516,-5.664660,-0.379777,-1.404878,-17.272423,2.098536,-2.196213,-2.025099,-2.811535,-4.994799,-11.537105,-14.656217,-8.540244,10.432383,-11.107138,-10.711291,-2.366666,4.088625,2.859604,65.731895,8064.000000,0.000000,4.000000,,,,0.000000,4.000000,4.000000,4.000000,4.000000,4.000000,4.000000,4.000000,4.000000,4.000000,4.000000,4.000000,4.000000,4.000000,4.000000,4.000000,4.000000,4.000000,4.000000,4.000000,4.000000,4.000000,4.000000,4.000000,4.000000,4.000000,4.000000,4.000000,4.000000,4.000000,4.000000,4.000000,4.000000,100.000000
