title:10, start timestamp:1614561605.650247, stop timestamp:1614561650.788347, headset type:EPOCFLEX, headset serial:F00001ED, headset firmware:f12, subject name:s15, channels:75, sampling rate:128, samples:5826      , version:2.0
Timestamp,EEG.Counter,EEG.Interpolated,EEG.Cz,EEG.Fz,EEG.Fp1,EEG.F7,EEG.F3,EEG.FC1,EEG.C3,EEG.FC5,EEG.FT9,EEG.T7,EEG.TP9,EEG.CP5,EEG.CP1,EEG.P3,EEG.P7,EEG.O1,EEG.Pz,EEG.Oz,EEG.O2,EEG.P8,EEG.P4,EEG.CP2,EEG.CP6,EEG.TP10,EEG.T8,EEG.FT10,EEG.FC6,EEG.C4,EEG.FC2,EEG.F4,EEG.F8,EEG.Fp2,EEG.HighBitFlex,EEG.RawCq,EEG.Battery,MarkerIndex,MarkerType,MarkerValueInt,EEG.MarkerHardware,CQ.Cz,CQ.Fz,CQ.Fp1,CQ.F7,CQ.F3,CQ.FC1,CQ.C3,CQ.FC5,CQ.FT9,CQ.T7,CQ.TP9,CQ.CP5,CQ.CP1,CQ.P3,CQ.P7,CQ.O1,CQ.Pz,CQ.Oz,CQ.O2,CQ.P8,CQ.P4,CQ.CP2,CQ.CP6,CQ.TP10,CQ.T8,CQ.FT10,CQ.FC6,CQ.C4,CQ.FC2,CQ.F4,CQ.F8,CQ.Fp2,CQ.Overall
1614561605.650247,69.000000,0.000000,1.358830,-2.371494,-32.787209,-15.827176,-11.467817,-7.076961,1.268052,4.014816,-6.913234,-6.264502,-10.892858,2.306435,4.958000,-3.744417,-12.065922,-10.565283,5.929911,1.515262,6.131757,0.005136,0.119510,0.798769,-7.081980,-3.404099,-4.179720,-0.725191,1.453324,3.125158,-1.415662,-1.853731,4.054285,-10.609868,0.000000,174.000000,4.000000,,,,0.000000,4.000000,4.000000,4.000000,4.000000,4.000000,4.000000,4.000000,4.000000,4.000000,4.000000,4.000000,4.000000,4.000000,4.000000,4.000000,4.000000,4.000000,4.000000,4.000000,4.000000,4.000000,4.000000,4.000000,4.000000,4.000000,4.000000,4.000000,4.000000,4.000000,4.000000,4.000000,4.000000,100.000000
1614561605.658096,70.000000,0.000000,2.383112,-2.369122,-30.190321,-16.324169,-11.969170,-7.069884,4.856528,1.446698,-7.419141,-6.258237,-2.164016,1.278487,5.465862,-2.202211,-5.900010,4.317077,5.411160,5.103491,10.228189,-1.020511,0.632211,2.336432,-7.587719,3.265972,-4.688361,1.839637,2.477512,2.609213,-0.388605,2.763508,4.050231,-3.932592,0.000000,195.000000,4.000000,,,,0.000000,4.000000,4.000000,4.000000,4.000000,4.000000,4.000000,4.000000,4.000000,4.000000,4.000000,4.000000,4.000000,4.000000,4.000000,4.000000,4.000000,4.000000,4.000000,4.000000,4.000000,4.000000,4.000000,4.000000,4.000000,4.000000,4.000000,4.000000,4.000000,4.000000,4.000000,4.000000,4.000000,100.000000
1614561605.665845,71.000000,0.000000,1.355088,-2.879574,-19.903721,-14.769383,-10.418739,-7.062814,4.851671,-1.118851,-6.386081,-7.277620,5.017635,1.790030,5.460396,-0.661548,3.336659,19.184555,5.405749,9.713772,14.833345,0.006151,-0.394062,3.359736,-7.580131,8.903731,-4.683672,2.863439,1.962214,2.606603,-0.388217,3.786385,4.046180,-0.338916,0.000000,208.000000,4.000000,,,,0.000000,4.000000,4.000000,4.000000,4.000000,4.000000,4.000000,4.000000,4.000000,4.000000,4.000000,4.000000,4.000000,4.000000,4.000000,4.000000,4.000000,4.000000,4.000000,4.000000,4.000000,4.000000,4.000000,4.000000,4.000000,4.000000,4.000000,4.000000,4.000000,4.000000,4.000000,4.000000,4.000000,100.000000
1614561605.673494,72.000000,0.000000,1.866554,-2.363873,-7.063303,-9.626410,-8.357038,-7.055751,4.333999,-0.092091,-1.251490,-2.142137,6.038259,2.301060,4.942116,1.390396,9.999990,23.780754,5.913164,14.832263,14.305692,0.006145,0.631973,3.356377,-8.085372,7.869186,-4.678989,2.860575,1.960252,2.603997,-0.387828,3.269778,4.042134,0.687064,0.000000,198.000000,4.000000,,,,0.000000,4.000000,4.000000,4.000000,4.000000,4.000000,4.000000,4.000000,4.000000,4.000000,4.000000,4.000000,4.000000,4.000000,4.000000,4.000000,4.000000,4.000000,4.000000,4.000000,4.000000,4.000000,4.000000,4.000000,4.000000,4.000000,4.000000,4.000000,4.000000,4.000000,4.000000,4.000000,4.000000,100.000000
1614561605.681243,73.000000,0.000000,2.377508,-0.310228,-2.440856,-8.078321,-7.323040,-7.048695,4.842485,-0.091999,0.801044,8.629236,10.134785,4.862862,5.449994,1.389006,16.143835,25.808256,4.881610,23.535379,14.291386,-0.506682,0.631341,3.353020,-8.077286,6.835676,-4.674310,2.857715,1.958292,2.601393,-0.387441,3.779329,4.038092,4.788941,0.000000,195.000000,4.000000,,,,0.000000,4.000000,4.000000,4.000000,4.000000,4.000000,4.000000,4.000000,4.000000,4.000000,4.000000,4.000000,4.000000,4.000000,4.000000,4.000000,4.000000,4.000000,4.000000,4.000000,4.000000,4.000000,4.000000,4.000000,4.000000,4.000000,4.000000,4.000000,4.000000,4.000000,4.000000,4.000000,4.000000,100.000000
1614561605.688892,74.000000,0.000000,0.836669,1.741365,-2.438415,-7.044602,-8.341358,-7.041646,4.324822,-1.117548,0.800242,12.210350,11.150290,8.960563,4.931724,0.874796,22.794359,34.500397,1.799805,28.127230,16.841196,-0.506175,-2.446213,-0.240076,-7.556388,7.341661,-4.669635,2.854857,1.956333,2.598791,-0.387053,3.775550,4.034054,7.348255,0.000000,193.000000,4.000000,,,,0.000000,4.000000,4.000000,4.000000,4.000000,4.000000,4.000000,4.000000,4.000000,4.000000,4.000000,4.000000,4.000000,4.000000,4.000000,4.000000,4.000000,4.000000,4.000000,4.000000,4.000000,4.000000,4.000000,4.000000,4.000000,4.000000,4.000000,4.000000,4.000000,4.000000,4.000000,4.000000,4.000000,100.000000
1614561605.696641,75.000000,0.000000,-1.728271,1.226803,1.153767,-2.422173,-7.820197,-7.034605,4.320498,-0.603610,4.389186,9.121217,5.498115,9.464422,1.849869,1.386742,23.284384,36.517178,-1.278918,28.611921,18.362818,-0.505669,-2.956588,-4.855221,-8.061652,7.334320,-4.664966,3.364823,1.954377,2.083372,2.177437,3.258954,4.030020,6.315266,0.000000,215.000000,4.000000,,,,0.000000,4.000000,4.000000,4.000000,4.000000,4.000000,4.000000,4.000000,4.000000,4.000000,4.000000,4.000000,4.000000,4.000000,4.000000,4.000000,4.000000,4.000000,4.000000,4.000000,4.000000,4.000000,4.000000,4.000000,4.000000,4.000000,4.000000,4.000000,4.000000,4.000000,4.000000,4.000000,4.000000,100.000000
1614561605.704290,76.000000,0.000000,-2.752183,1.225576,5.255177,-0.368469,-5.761094,-7.027570,4.316177,1.961096,7.974540,9.112096,3.441335,8.942138,2.360839,1.385355,19.158537,20.583225,-0.764818,26.019207,14.241890,-0.505163,1.661754,-4.337545,-8.053591,6.814165,-4.660301,5.412740,1.952422,3.619750,3.713721,3.768515,4.025990,6.821771,0.000000,201.000000,4.000000,,,,0.000000,4.000000,4.000000,4.000000,4.000000,4.000000,4.000000,4.000000,4.000000,4.000000,4.000000,4.000000,4.000000,4.000000,4.000000,4.000000,4.000000,4.000000,4.000000,4.000000,4.000000,4.000000,4.000000,4.000000,4.000000,4.000000,4.000000,4.000000,4.000000,4.000000,4.000000,4.000000,4.000000,100.000000
1614561605.712040,77.000000,0.000000,-2.236611,1.224350,5.249923,-1.393741,-4.216872,-7.020543,4.311861,2.471956,7.966566,9.102983,4.463534,8.933196,6.461042,0.871149,15.036814,2.101104,1.800049,13.172675,7.560982,-0.504658,4.224195,-0.743464,-2.917332,6.807351,-4.655641,6.945788,1.950470,7.718695,3.197186,2.739106,4.021964,7.327769,0.000000,196.000000,4.000000,,,,0.000000,4.000000,4.000000,4.000000,4.000000,4.000000,4.000000,4.000000,4.000000,4.000000,4.000000,4.000000,4.000000,4.000000,4.000000,4.000000,4.000000,4.000000,4.000000,4.000000,4.000000,4.000000,4.000000,4.000000,4.000000,4.000000,4.000000,4.000000,4.000000,4.000000,4.000000,4.000000,4.000000,100.000000
1614561605.719689,78.000000,0.000000,-2.747195,1.223126,3.706211,-1.392347,-3.699834,-7.013522,4.307549,2.982304,7.445779,8.581060,3.946250,8.924262,9.018684,0.357458,12.457674,1.073362,4.362352,3.928734,4.989318,-0.504154,4.219970,1.821382,2.213790,6.800543,-4.650985,6.426023,2.461340,10.275079,3.193989,-0.340557,4.017942,5.781980,0.000000,221.000000,4.000000,,,,0.000000,4.000000,4.000000,4.000000,4.000000,4.000000,4.000000,4.000000,4.000000,4.000000,4.000000,4.000000,4.000000,4.000000,4.000000,4.000000,4.000000,4.000000,4.000000,4.000000,4.000000,4.000000,4.000000,4.000000,4.000000,4.000000,4.000000,4.000000,4.000000,4.000000,4.000000,4.000000,4.000000,100.000000
1614561605.727438,79.000000,0.000000,-2.231627,1.221903,4.728146,-0.878135,-4.208955,-7.006509,4.303242,4.517783,7.438333,11.649403,3.942304,9.428159,9.522486,1.895562,12.445216,10.303058,8.973374,7.514549,6.009970,-0.503649,7.292673,3.358022,3.750038,7.306563,-4.133513,6.419596,2.971699,10.777624,3.190795,-0.853036,4.013924,9.365942,0.000000,198.000000,4.000000,,,,0.000000,4.000000,4.000000,4.000000,4.000000,4.000000,4.000000,4.000000,4.000000,4.000000,4.000000,4.000000,4.000000,4.000000,4.000000,4.000000,4.000000,4.000000,4.000000,4.000000,4.000000,4.000000,4.000000,4.000000,4.000000,4.000000,4.000000,4.000000,4.000000,4.000000,4.000000,4.000000,4.000000,100.000000
1614561605.735087,80.000000,0.000000,-2.229395,1.220681,4.723418,-0.877256,-4.204746,-6.999502,4.298938,-0.614940,7.943715,10.099291,4.451182,8.905910,12.589887,0.868025,10.381489,5.164549,9.990042,3.917290,6.003960,0.009675,7.285380,3.354664,5.797570,6.273615,-4.129380,6.413177,0.917446,10.254025,3.187604,0.173458,4.009910,16.023243,0.000000,191.000000,4.000000,,,,0.000000,4.000000,4.000000,4.000000,4.000000,4.000000,4.000000,4.000000,4.000000,4.000000,4.000000,4.000000,4.000000,4.000000,4.000000,4.000000,4.000000,4.000000,4.000000,4.000000,4.000000,4.000000,4.000000,4.000000,4.000000,4.000000,4.000000,4.000000,4.000000,4.000000,4.000000,4.000000,4.000000,100.000000
1614561605.742836,81.000000,0.000000,-2.739986,1.219460,1.641771,-1.902020,-4.200541,-7.505323,4.294640,-7.793812,7.422951,2.909705,2.395449,6.332901,12.577296,-3.748228,2.678800,-9.199590,5.877488,-6.855858,4.972315,-0.503155,4.201172,2.838489,8.355875,2.677598,-4.638071,6.406764,-0.621933,6.141208,3.184417,-1.877998,4.005900,9.853374,0.000000,216.000000,4.000000,,,,0.000000,4.000000,4.000000,4.000000,4.000000,4.000000,4.000000,4.000000,4.000000,4.000000,4.000000,4.000000,4.000000,4.000000,4.000000,4.000000,4.000000,4.000000,4.000000,4.000000,4.000000,4.000000,4.000000,4.000000,4.000000,4.000000,4.000000,4.000000,4.000000,4.000000,4.000000,4.000000,4.000000,100.000000
1614561605.750485,82.000000,0.000000,-1.711605,1.218241,-2.462435,-3.951400,-3.683520,-6.472177,4.803165,-1.632172,5.877066,0.342692,-0.683869,4.788107,12.564719,-0.667556,-2.452084,-3.549365,6.384430,-1.720797,7.018625,-0.502652,4.196971,3.861292,7.321878,4.213382,-4.633433,6.400357,-1.646953,3.058143,3.181232,-3.927402,4.001894,-2.464173,0.000000,196.000000,4.000000,,,,0.000000,4.000000,4.000000,4.000000,4.000000,4.000000,4.000000,4.000000,4.000000,4.000000,4.000000,4.000000,4.000000,4.000000,4.000000,4.000000,4.000000,4.000000,4.000000,4.000000,4.000000,4.000000,4.000000,4.000000,4.000000,4.000000,4.000000,4.000000,4.000000,4.000000,4.000000,4.000000,4.000000,100.000000
1614561605.758334,83.000000,0.000000,1.367029,0.704202,-4.511254,-5.485910,-6.243939,-4.414423,6.849644,2.472024,3.307087,1.367991,0.855276,5.296140,14.090616,8.051060,0.114471,13.377262,4.839584,11.101437,11.114170,0.523491,3.679954,2.831789,7.827377,7.798913,-3.603158,6.393956,-6.773511,3.567906,3.178051,-4.436295,3.997892,-7.077093,0.000000,199.000000,4.000000,,,,0.000000,4.000000,4.000000,4.000000,4.000000,4.000000,4.000000,4.000000,4.000000,4.000000,4.000000,4.000000,4.000000,4.000000,4.000000,4.000000,4.000000,4.000000,4.000000,4.000000,4.000000,4.000000,4.000000,4.000000,4.000000,4.000000,4.000000,4.000000,4.000000,4.000000,4.000000,4.000000,4.000000,100.000000
1614561605.766084,84.000000,0.000000,1.365662,1.216318,-4.506743,-5.993245,-8.288978,-2.871547,8.894076,-7.274037,2.790959,1.366623,0.854421,5.290843,6.384218,2.401983,0.627177,10.799782,-7.985768,13.141618,13.154338,-2.553955,-0.939111,-3.837709,7.819550,1.637267,-9.240582,6.387562,-12.920584,-2.589508,3.687694,-3.919038,3.993895,-5.018734,0.000000,221.000000,4.000000,,,,0.000000,4.000000,4.000000,4.000000,4.000000,4.000000,4.000000,4.000000,4.000000,4.000000,4.000000,4.000000,4.000000,4.000000,4.000000,4.000000,4.000000,4.000000,4.000000,4.000000,4.000000,4.000000,4.000000,4.000000,4.000000,4.000000,4.000000,4.000000,4.000000,4.000000,4.000000,4.000000,4.000000,100.000000
1614561605.773833,85.000000,0.000000,-3.251088,1.215102,-1.425313,-4.961611,-5.203765,-3.381496,6.833900,-8.805224,4.326630,0.852436,-5.813100,5.285553,-7.468320,-12.985034,-2.963194,1.045392,-20.285475,8.513091,10.577082,-9.730888,-4.527915,-10.500538,-0.906219,-9.133600,-18.462111,5.868354,-12.907662,-12.330508,2.145544,-3.915119,3.989901,-1.423972,0.000000,205.000000,4.000000,,,,0.000000,4.000000,4.000000,4.000000,4.000000,4.000000,4.000000,4.000000,4.000000,4.000000,4.000000,4.000000,4.000000,4.000000,4.000000,4.000000,4.000000,4.000000,4.000000,4.000000,4.000000,4.000000,4.000000,4.000000,4.000000,4.000000,4.000000,4.000000,4.000000,4.000000,4.000000,4.000000,4.000000,100.000000
1614561605.781482,86.000000,0.000000,-6.324760,0.188246,1.653035,-3.418188,-1.095997,-3.378114,1.698861,-1.104112,3.809483,1.364404,-9.909851,5.280267,-11.563416,-15.536152,-1.421769,7.711014,-22.829292,7.478937,9.028043,-12.798080,-4.010567,-12.028500,-10.648902,-12.714211,-18.956469,6.375307,-12.894755,-12.830998,0.092117,-3.911204,3.985911,3.705657,0.000000,200.000000,4.000000,,,,0.000000,4.000000,4.000000,4.000000,4.000000,4.000000,4.000000,4.000000,4.000000,4.000000,4.000000,4.000000,4.000000,4.000000,4.000000,4.000000,4.000000,4.000000,4.000000,4.000000,4.000000,4.000000,4.000000,4.000000,4.000000,4.000000,4.000000,4.000000,4.000000,4.000000,4.000000,4.000000,4.000000,100.000000
1614561605.789331,87.000000,0.000000,-6.318435,1.726519,-2.451182,-7.004513,-0.582081,-3.374736,0.158701,-4.179931,1.754391,1.363039,-4.771737,5.274987,-10.013391,-10.392410,4.220678,15.395611,-20.755180,11.061202,9.531836,-11.246821,-2.980916,-13.042111,-12.176715,-11.163034,-13.809306,7.907393,-12.881861,-8.715604,-0.933616,-3.907293,3.981925,4.214772,0.000000,205.000000,4.000000,,,,0.000000,4.000000,4.000000,4.000000,4.000000,4.000000,4.000000,4.000000,4.000000,4.000000,4.000000,4.000000,4.000000,4.000000,4.000000,4.000000,4.000000,4.000000,4.000000,4.000000,4.000000,4.000000,4.000000,4.000000,4.000000,4.000000,4.000000,4.000000,4.000000,4.000000,4.000000,4.000000,4.000000,100.000000
1614561605.797080,88.000000,0.000000,-6.312117,6.340178,4.217936,-4.433406,0.444142,-3.371361,0.671363,-6.739853,9.444944,1.361676,-2.715683,5.269711,-10.516198,-10.382018,5.242098,12.303291,-15.093399,11.050140,9.522304,-8.671472,-4.516396,-10.977788,-10.626077,-11.664692,-11.744215,9.437947,-8.253593,-8.194067,-0.419862,-3.903386,3.977943,8.825942,0.000000,198.000000,4.000000,,,,0.000000,4.000000,4.000000,4.000000,4.000000,4.000000,4.000000,4.000000,4.000000,4.000000,4.000000,4.000000,4.000000,4.000000,4.000000,4.000000,4.000000,4.000000,4.000000,4.000000,4.000000,4.000000,4.000000,4.000000,4.000000,4.000000,4.000000,4.000000,4.000000,4.000000,4.000000,4.000000,4.000000,100.000000
1614561605.804929,89.000000,0.000000,-5.280164,8.897940,26.264999,8.391541,3.007801,-3.367990,0.157871,3.010476,21.230371,1.360315,-4.764249,5.264442,-8.454400,-9.345995,4.211215,8.701244,-6.873178,4.885244,8.999961,-8.149980,-3.486239,-1.223220,-11.641091,-12.678669,-7.629907,11.992612,-4.142776,-8.698694,-0.419442,-3.899482,3.973965,23.688911,0.000000,223.000000,4.000000,,,,0.000000,4.000000,4.000000,4.000000,4.000000,4.000000,4.000000,4.000000,4.000000,4.000000,4.000000,4.000000,4.000000,4.000000,4.000000,4.000000,4.000000,4.000000,4.000000,4.000000,4.000000,4.000000,4.000000,4.000000,4.000000,4.000000,4.000000,4.000000,4.000000,4.000000,4.000000,4.000000,4.000000,100.000000
1614561605.812678,90.000000,0.000000,-3.223602,8.376222,26.238735,3.254944,3.517613,-3.364622,0.670534,8.135671,20.183500,1.358954,0.881541,5.259178,-1.779279,-2.669982,4.719825,9.718184,-4.815022,0.777795,8.990960,-8.141829,1.132632,6.983131,-11.629451,-10.101888,-1.468431,14.544722,-5.164274,-8.177175,-0.419023,-3.895583,3.969991,27.767786,0.000000,217.000000,4.000000,,,,0.000000,4.000000,4.000000,4.000000,4.000000,4.000000,4.000000,4.000000,4.000000,4.000000,4.000000,4.000000,4.000000,4.000000,4.000000,4.000000,4.000000,4.000000,4.000000,4.000000,4.000000,4.000000,4.000000,4.000000,4.000000,4.000000,4.000000,4.000000,4.000000,4.000000,4.000000,4.000000,4.000000,100.000000
1614561605.820527,91.000000,0.000000,-1.681916,8.367846,0.571471,-18.286774,3.001275,-3.361257,3.233966,4.024971,10.932547,1.357595,8.572967,5.253918,3.863526,4.512175,5.227925,10.221287,-5.835848,4.366761,9.494790,-7.108047,4.721243,7.488969,-11.105000,-4.450760,-0.441321,12.991715,-5.159110,-7.656177,-0.418604,-3.891687,3.966021,17.483608,0.000000,181.000000,4.000000,,,,0.000000,4.000000,4.000000,4.000000,4.000000,4.000000,4.000000,4.000000,4.000000,4.000000,4.000000,4.000000,4.000000,4.000000,4.000000,4.000000,4.000000,4.000000,4.000000,4.000000,4.000000,4.000000,4.000000,4.000000,4.000000,4.000000,4.000000,4.000000,4.000000,4.000000,4.000000,4.000000,4.000000,100.000000
1614561605.828276,92.000000,0.000000,0.371048,8.872298,4.673463,-16.730024,2.998274,-3.357896,4.256373,2.482484,9.895973,1.356238,6.513112,5.248664,6.936585,9.123048,5.222697,10.211065,-5.317192,5.388035,8.972475,-5.049657,4.716522,6.968659,-11.093896,-0.343745,0.071941,14.517185,-0.025746,-8.161342,-0.418185,-3.887795,3.962055,23.107151,0.000000,198.000000,4.000000,,,,0.000000,4.000000,4.000000,4.000000,4.000000,4.000000,4.000000,4.000000,4.000000,4.000000,4.000000,4.000000,4.000000,4.000000,4.000000,4.000000,4.000000,4.000000,4.000000,4.000000,4.000000,4.000000,4.000000,4.000000,4.000000,4.000000,4.000000,4.000000,4.000000,4.000000,4.000000,4.000000,4.000000,100.000000
1614561605.836125,93.000000,0.000000,1.909138,8.350605,35.438019,0.722603,2.995276,-3.354538,6.816219,3.505643,14.501462,1.354882,3.942496,5.243416,8.468110,8.088284,4.704654,9.175214,-5.311875,3.844186,8.963502,-2.993325,3.686164,7.474511,-11.082802,-0.343401,5.712894,22.707796,3.051203,-8.153180,-0.417767,-3.883908,3.958093,43.596863,0.000000,180.000000,4.000000,,,,0.000000,4.000000,4.000000,4.000000,4.000000,4.000000,4.000000,4.000000,4.000000,4.000000,4.000000,4.000000,4.000000,4.000000,4.000000,4.000000,4.000000,4.000000,4.000000,4.000000,4.000000,4.000000,4.000000,4.000000,4.000000,4.000000,4.000000,4.000000,4.000000,4.000000,4.000000,4.000000,4.000000,100.000000
1614561605.843875,94.000000,0.000000,1.907229,8.342255,34.376942,2.260342,3.505101,-3.351184,9.373506,3.502137,11.410038,1.353527,10.092400,5.750993,9.485284,9.105836,5.212770,9.166039,-5.819384,8.455726,12.031462,-0.939050,4.195299,7.467037,-11.071719,0.169763,6.732822,23.710730,1.509690,-8.145027,-0.417349,-3.880024,3.954135,44.066086,0.000000,200.000000,4.000000,,,,0.000000,4.000000,4.000000,4.000000,4.000000,4.000000,4.000000,4.000000,4.000000,4.000000,4.000000,4.000000,4.000000,4.000000,4.000000,4.000000,4.000000,4.000000,4.000000,4.000000,4.000000,4.000000,4.000000,4.000000,4.000000,4.000000,4.000000,4.000000,4.000000,4.000000,4.000000,4.000000,4.000000,100.000000
1614561605.851723,95.000000,0.000000,1.392501,8.333912,9.214359,-2.357303,1.963134,-2.835012,5.774388,2.985815,4.219141,1.352173,12.133590,5.232421,9.475799,9.609550,5.207557,11.208155,-5.813564,11.011373,16.121994,-0.425290,4.191103,7.459569,-11.060647,0.682413,2.110705,14.456249,-1.568743,-8.649702,-0.416932,-4.388964,3.950181,26.586124,0.000000,208.000000,4.000000,,,,0.000000,4.000000,4.000000,4.000000,4.000000,4.000000,4.000000,4.000000,4.000000,4.000000,4.000000,4.000000,4.000000,4.000000,4.000000,4.000000,4.000000,4.000000,4.000000,4.000000,4.000000,4.000000,4.000000,4.000000,4.000000,4.000000,4.000000,4.000000,4.000000,4.000000,4.000000,4.000000,4.000000,100.000000
1614561605.859473,96.000000,0.000000,1.391109,8.325579,4.076940,-3.380587,-0.602931,-3.344997,-1.923694,-1.119735,1.650819,1.350821,3.403507,1.637445,6.389400,0.881992,0.586965,5.555921,-5.807751,6.384977,17.131514,-0.424865,0.084348,2.323905,-11.562407,-3.420833,-1.481149,9.826408,-2.592815,-8.128232,-0.416515,-4.384575,2.407769,18.354410,8064.000000,0.000000,4.000000,,,,0.000000,4.000000,4.000000,4.000000,4.000000,4.000000,4.000000,4.000000,4.000000,4.000000,4.000000,4.000000,4.000000,4.000000,4.000000,4.000000,4.000000,4.000000,4.000000,4.000000,4.000000,4.000000,4.000000,4.000000,4.000000,4.000000,4.000000,4.000000,4.000000,4.000000,4.000000,4.000000,4.000000,100.000000
1614561605.867322,97.000000,0.000000,1.902538,8.317253,14.329273,-8.505411,-1.115149,-3.341652,-3.973052,-4.195539,4.213270,1.349470,-5.830666,-1.953936,1.767625,-9.888121,-3.003366,-4.706046,-5.801943,5.352951,17.627203,0.088381,-10.172147,-5.883547,-11.038024,-7.519977,-0.966848,12.893505,-1.564581,-8.120104,-0.416099,-1.303268,0.354079,20.387337,8064.000000,0.000000,4.000000,,,,0.000000,4.000000,4.000000,4.000000,4.000000,4.000000,4.000000,4.000000,4.000000,4.000000,4.000000,4.000000,4.000000,4.000000,4.000000,4.000000,4.000000,4.000000,4.000000,4.000000,4.000000,4.000000,4.000000,4.000000,4.000000,4.000000,4.000000,4.000000,4.000000,4.000000,4.000000,4.000000,4.000000,100.000000
1614561605.875071,98.000000,0.000000,1.900636,8.308935,14.827765,-3.368701,-0.601213,-0.261388,-2.430618,-2.140061,6.773160,1.348121,-7.363297,-2.464802,-1.311065,-11.416694,-3.000362,-3.162878,-5.796141,8.937342,18.635216,-0.937349,-16.315821,-8.954587,-11.539806,-6.999636,-0.453060,12.880611,-1.050196,-8.624804,-0.415682,-0.276323,-0.671916,20.366949,8064.000000,0.000000,4.000000,,,,0.000000,4.000000,4.000000,4.000000,4.000000,4.000000,4.000000,4.000000,4.000000,4.000000,4.000000,4.000000,4.000000,4.000000,4.000000,4.000000,4.000000,4.000000,4.000000,4.000000,4.000000,4.000000,4.000000,4.000000,4.000000,4.000000,4.000000,4.000000,4.000000,4.000000,4.000000,4.000000,4.000000,100.000000
1614561605.882920,99.000000,0.000000,-0.152547,8.300627,13.274475,7.403899,-0.600612,0.764515,-4.479469,-0.086639,6.766387,1.346773,-6.843112,-1.949517,-2.335395,-9.353995,-2.997362,4.532592,-5.790345,8.928404,16.565300,0.089230,-11.171300,-7.919991,-12.041087,-7.505457,-1.478248,13.380551,-3.100428,-5.539256,-0.415267,-1.301688,1.380038,25.987608,8064.000000,0.000000,4.000000,,,,0.000000,4.000000,4.000000,4.000000,4.000000,4.000000,4.000000,4.000000,4.000000,4.000000,4.000000,4.000000,4.000000,4.000000,4.000000,4.000000,4.000000,4.000000,4.000000,4.000000,4.000000,4.000000,4.000000,4.000000,4.000000,4.000000,4.000000,4.000000,4.000000,4.000000,4.000000,4.000000,4.000000,100.000000
1614561605.890669,100.000000,0.000000,-2.203677,8.292326,20.953508,4.832392,-0.600011,-3.338814,-7.551913,-1.112193,7.272440,1.345426,-7.861910,-2.460388,-3.358701,-10.883102,-2.994365,6.579342,-5.784554,10.457937,17.061554,6.755807,-2.442179,-8.424891,-8.439302,-8.523592,-1.476770,19.521017,0.492416,-1.431153,-0.414851,2.289357,6.506863,37.243671,8064.000000,0.000000,4.000000,,,,0.000000,4.000000,4.000000,4.000000,4.000000,4.000000,4.000000,4.000000,4.000000,4.000000,4.000000,4.000000,4.000000,4.000000,4.000000,4.000000,4.000000,4.000000,4.000000,4.000000,4.000000,4.000000,4.000000,4.000000,4.000000,4.000000,4.000000,4.000000,4.000000,4.000000,4.000000,4.000000,4.000000,100.000000
1614561605.898518,101.000000,0.000000,-2.714293,8.284034,30.163324,5.340380,-0.599411,-7.438039,-7.544361,-0.598261,9.316450,1.344080,-7.854049,-2.457927,-2.842522,-10.872219,1.624015,6.572762,-5.778770,14.037223,17.557314,11.364436,0.124365,-8.929287,-2.789838,-6.976607,2.114450,24.629702,10.235514,-0.404081,-0.414437,8.953734,11.115741,43.873096,8064.000000,0.000000,4.000000,,,,0.000000,4.000000,4.000000,4.000000,4.000000,4.000000,4.000000,4.000000,4.000000,4.000000,4.000000,4.000000,4.000000,4.000000,4.000000,4.000000,4.000000,4.000000,4.000000,4.000000,4.000000,4.000000,4.000000,4.000000,4.000000,4.000000,4.000000,4.000000,4.000000,4.000000,4.000000,4.000000,4.000000,100.000000
1614561605.906267,102.000000,0.000000,-2.198759,8.275749,29.620340,15.078629,-0.598812,-6.917781,-6.511176,0.427979,11.358416,1.342736,-6.820553,-2.455470,-2.326859,-9.835706,5.212134,2.976446,-5.772991,4.792417,-0.408962,9.301789,0.124241,-8.407537,3.366798,-9.533733,6.214900,24.605072,13.815022,-0.916497,-0.414022,11.508883,12.643086,42.290760,8192.000000,0.000000,4.000000,,,,0.000000,4.000000,4.000000,4.000000,4.000000,4.000000,4.000000,4.000000,4.000000,4.000000,4.000000,4.000000,4.000000,4.000000,4.000000,4.000000,4.000000,4.000000,4.000000,4.000000,4.000000,4.000000,4.000000,4.000000,4.000000,4.000000,4.000000,4.000000,4.000000,4.000000,4.000000,4.000000,4.000000,100.000000
1614561605.914116,103.000000,0.000000,-2.196560,8.267474,24.462515,12.499449,-0.598213,-6.910863,-7.017485,-0.598090,10.834237,1.341393,-8.352195,-1.427373,-5.401455,-10.338691,5.206922,-8.821402,-6.280039,-13.673915,-25.536758,6.728385,0.124117,-7.886309,9.004457,-19.780609,6.721506,24.580467,8.673001,-0.915581,-0.413608,10.471733,9.040700,35.068981,8192.000000,0.000000,4.000000,,,,0.000000,4.000000,4.000000,4.000000,4.000000,4.000000,4.000000,4.000000,4.000000,4.000000,4.000000,4.000000,4.000000,4.000000,4.000000,4.000000,4.000000,4.000000,4.000000,4.000000,4.000000,4.000000,4.000000,4.000000,4.000000,4.000000,4.000000,4.000000,4.000000,4.000000,4.000000,4.000000,4.000000,100.000000
1614561605.921865,104.000000,0.000000,-2.194363,8.259206,21.873949,7.358744,-0.597615,-7.416772,-7.523288,0.940969,10.823402,2.365693,-10.907945,0.112516,-4.370412,-9.815532,4.688895,-14.453607,-5.248117,-17.249985,-26.536863,6.721657,-0.388828,-7.878423,11.559555,-22.324932,6.201963,23.530245,5.587405,-0.401845,-0.926015,10.461262,2.364993,27.854427,8064.000000,0.000000,4.000000,,,,0.000000,4.000000,4.000000,4.000000,4.000000,4.000000,4.000000,4.000000,4.000000,4.000000,4.000000,4.000000,4.000000,4.000000,4.000000,4.000000,4.000000,4.000000,4.000000,4.000000,4.000000,4.000000,4.000000,4.000000,4.000000,4.000000,4.000000,4.000000,4.000000,4.000000,4.000000,4.000000,4.000000,100.000000
1614561605.929514,105.000000,0.000000,-2.192169,8.250947,21.852076,14.530872,-0.597017,-7.409356,-3.413200,7.093874,10.812579,4.927430,-7.307293,2.676506,3.839086,-5.190331,5.197026,-6.234025,-2.678767,-7.489144,-9.074429,7.740576,3.201304,-5.306442,11.035175,-9.482094,6.708582,20.942612,6.094638,2.162660,-0.412269,10.963621,-0.714295,26.288111,8064.000000,0.000000,4.000000,,,,0.000000,4.000000,4.000000,4.000000,4.000000,4.000000,4.000000,4.000000,4.000000,4.000000,4.000000,4.000000,4.000000,4.000000,4.000000,4.000000,4.000000,4.000000,4.000000,4.000000,4.000000,4.000000,4.000000,4.000000,4.000000,4.000000,4.000000,4.000000,4.000000,4.000000,4.000000,4.000000,4.000000,100.000000
1614561605.937263,106.000000,0.000000,-2.189977,8.242696,20.804583,9.388136,-0.596420,-6.889126,3.256879,6.573960,10.801766,5.435323,-1.146140,5.237932,9.989093,0.455884,4.679008,1.977338,-1.650447,-2.866271,-0.347405,9.784118,9.864770,1.365531,13.075422,2.835081,6.189053,20.408850,5.575723,6.263061,1.639426,10.952658,0.312060,26.774643,8064.000000,0.000000,4.000000,,,,0.000000,4.000000,4.000000,4.000000,4.000000,4.000000,4.000000,4.000000,4.000000,4.000000,4.000000,4.000000,4.000000,4.000000,4.000000,4.000000,4.000000,4.000000,4.000000,4.000000,4.000000,4.000000,4.000000,4.000000,4.000000,4.000000,4.000000,4.000000,4.000000,4.000000,4.000000,4.000000,4.000000,100.000000
1614561605.944912,107.000000,0.000000,-2.187787,8.234453,21.296598,-10.621252,-0.595824,-6.882237,5.304904,-7.278768,10.790965,1.840144,0.906288,4.719873,8.953463,1.993890,4.674330,2.488181,-2.161617,-3.376225,-0.859878,10.287154,10.880546,6.492371,15.626450,3.857887,6.182864,19.362799,5.570148,6.769619,3.689068,10.428885,0.311748,26.235048,8064.000000,0.000000,4.000000,,,,0.000000,4.000000,4.000000,4.000000,4.000000,4.000000,4.000000,4.000000,4.000000,4.000000,4.000000,4.000000,4.000000,4.000000,4.000000,4.000000,4.000000,4.000000,4.000000,4.000000,4.000000,4.000000,4.000000,4.000000,4.000000,4.000000,4.000000,4.000000,4.000000,4.000000,4.000000,4.000000,4.000000,100.000000
1614561605.952661,108.000000,0.000000,-2.185599,8.226219,22.300943,-19.328579,-0.082408,-6.875354,4.273959,-15.476617,10.780174,-1.751440,1.418203,1.125410,8.431689,0.453435,4.669655,2.485693,-1.646635,-2.860028,2.730725,10.276867,6.767101,4.947417,13.559541,3.341208,6.176681,16.779333,5.564578,4.198747,3.172559,8.367173,-0.201384,26.721634,8064.000000,0.000000,4.000000,,,,0.000000,4.000000,4.000000,4.000000,4.000000,4.000000,4.000000,4.000000,4.000000,4.000000,4.000000,4.000000,4.000000,4.000000,4.000000,4.000000,4.000000,4.000000,4.000000,4.000000,4.000000,4.000000,4.000000,4.000000,4.000000,4.000000,4.000000,4.000000,4.000000,4.000000,4.000000,4.000000,4.000000,100.000000
1614561605.960311,109.000000,0.000000,-2.183414,8.217993,18.688898,-16.232328,-0.082325,-6.868479,4.269685,-8.281653,10.256574,-2.775329,-0.121677,-1.952639,7.910437,-1.598301,4.664986,2.996028,-2.157809,-2.344348,8.881841,10.266590,2.657770,2.891187,8.417776,4.363508,4.119222,16.249735,3.507731,0.604804,3.169386,6.820344,0.311637,25.669271,8064.000000,0.000000,4.000000,,,,0.000000,4.000000,4.000000,4.000000,4.000000,4.000000,4.000000,4.000000,4.000000,4.000000,4.000000,4.000000,4.000000,4.000000,4.000000,4.000000,4.000000,4.000000,4.000000,4.000000,4.000000,4.000000,4.000000,4.000000,4.000000,4.000000,4.000000,4.000000,4.000000,4.000000,4.000000,4.000000,4.000000,100.000000
1614561605.968060,110.000000,0.000000,-2.181230,8.209775,19.183031,-10.575069,-1.620704,-6.861611,4.778235,-2.632346,10.246317,-1.746913,-7.813863,-1.950686,2.261501,-4.160805,4.660321,2.480211,-6.771036,-0.290721,9.898600,10.256323,0.603830,3.401117,6.358076,3.846324,2.576642,16.746305,1.965762,-0.934262,3.166217,6.300704,0.311326,27.694883,8064.000000,0.000000,4.000000,,,,0.000000,4.000000,4.000000,4.000000,4.000000,4.000000,4.000000,4.000000,4.000000,4.000000,4.000000,4.000000,4.000000,4.000000,4.000000,4.000000,4.000000,4.000000,4.000000,4.000000,4.000000,4.000000,4.000000,4.000000,4.000000,4.000000,4.000000,4.000000,4.000000,4.000000,4.000000,4.000000,4.000000,100.000000
1614561605.975709,111.000000,0.000000,-1.666228,8.201565,26.856155,-3.897828,-0.080622,-7.367569,4.260637,-5.193816,10.748891,-2.257986,-10.370152,-2.461556,-4.407427,-6.207926,4.655660,5.554654,-10.354009,6.889057,12.452804,10.246067,-0.422415,3.397716,6.864539,4.868119,2.061244,16.729559,1.450975,-0.933328,3.163051,6.807223,0.311014,32.795395,8064.000000,0.000000,4.000000,,,,0.000000,4.000000,4.000000,4.000000,4.000000,4.000000,4.000000,4.000000,4.000000,4.000000,4.000000,4.000000,4.000000,4.000000,4.000000,4.000000,4.000000,4.000000,4.000000,4.000000,4.000000,4.000000,4.000000,4.000000,4.000000,4.000000,4.000000,4.000000,4.000000,4.000000,4.000000,4.000000,4.000000,100.000000
1614561605.983458,112.000000,0.000000,-2.690203,8.193363,25.290836,-1.842648,-0.593362,-6.847382,4.256376,-5.188622,10.225322,-4.307011,-4.205935,-2.459094,-6.967123,-6.714539,4.651005,10.164484,-10.856475,13.036014,18.081377,10.235821,0.090828,2.881497,6.857674,6.914533,2.572004,16.200008,1.962345,-1.445215,3.159888,6.287596,0.310703,32.249779,8064.000000,0.000000,4.000000,,,,0.000000,4.000000,4.000000,4.000000,4.000000,4.000000,4.000000,4.000000,4.000000,4.000000,4.000000,4.000000,4.000000,4.000000,4.000000,4.000000,4.000000,4.000000,4.000000,4.000000,4.000000,4.000000,4.000000,4.000000,4.000000,4.000000,4.000000,4.000000,4.000000,4.000000,4.000000,4.000000,4.000000,100.000000
1614561605.991107,113.000000,0.000000,-5.764436,8.185170,18.086060,-0.815164,-8.797897,-6.840534,4.252120,-3.644972,10.727917,-5.841165,-3.176089,-2.456635,-6.447335,-6.195004,4.646354,10.154320,-7.768695,13.535798,14.473552,10.225585,-0.422083,2.878616,5.825175,5.881977,2.569432,16.696629,1.960382,-1.443770,3.156728,6.281308,0.310393,30.679066,8064.000000,0.000000,4.000000,,,,0.000000,4.000000,4.000000,4.000000,4.000000,4.000000,4.000000,4.000000,4.000000,4.000000,4.000000,4.000000,4.000000,4.000000,4.000000,4.000000,4.000000,4.000000,4.000000,4.000000,4.000000,4.000000,4.000000,4.000000,4.000000,4.000000,4.000000,4.000000,4.000000,4.000000,4.000000,4.000000,4.000000,100.000000
1614561605.998856,114.000000,0.000000,-5.245851,8.176985,22.683357,2.775394,-11.866022,-7.859334,4.247868,-4.666968,12.768471,-6.348145,-6.762656,-2.454178,-6.953708,-6.701630,5.154528,7.580062,-6.735286,11.470981,-1.951178,10.215360,-0.421661,2.875737,6.844991,3.824813,2.566862,16.679932,1.445602,-0.929506,3.153571,6.787848,0.822903,35.776592,8064.000000,0.000000,4.000000,,,,0.000000,4.000000,4.000000,4.000000,4.000000,4.000000,4.000000,4.000000,4.000000,4.000000,4.000000,4.000000,4.000000,4.000000,4.000000,4.000000,4.000000,4.000000,4.000000,4.000000,4.000000,4.000000,4.000000,4.000000,4.000000,4.000000,4.000000,4.000000,4.000000,4.000000,4.000000,4.000000,4.000000,100.000000
1614561606.006505,115.000000,0.000000,-2.676502,7.655987,29.840162,0.721337,-1.084925,-5.287373,3.730799,-3.636660,14.806984,-5.828976,-5.217432,-1.426083,-6.946754,-6.182107,4.636553,5.521201,-5.190089,8.895407,-10.154355,10.717964,0.604402,2.872861,7.350967,3.308167,2.564295,16.150433,1.956977,-1.441397,2.637597,6.268239,0.309259,36.766457,8064.000000,0.000000,4.000000,,,,0.000000,4.000000,4.000000,4.000000,4.000000,4.000000,4.000000,4.000000,4.000000,4.000000,4.000000,4.000000,4.000000,4.000000,4.000000,4.000000,4.000000,4.000000,4.000000,4.000000,4.000000,4.000000,4.000000,4.000000,4.000000,4.000000,4.000000,4.000000,4.000000,4.000000,4.000000,4.000000,4.000000,100.000000
1614561606.014254,116.000000,0.000000,-1.648185,8.673972,24.682116,-0.817846,7.634108,1.897402,4.239889,0.982361,14.792177,-5.823147,-2.648112,1.139445,-1.298782,-3.611823,5.144737,6.541320,3.533050,8.886512,-3.990355,10.194427,2.655079,2.869988,5.805154,3.304859,2.561731,16.647102,6.570404,-0.927135,3.147780,6.774791,0.821771,34.165588,8064.000000,0.000000,4.000000,,,,0.000000,4.000000,4.000000,4.000000,4.000000,4.000000,4.000000,4.000000,4.000000,4.000000,4.000000,4.000000,4.000000,4.000000,4.000000,4.000000,4.000000,4.000000,4.000000,4.000000,4.000000,4.000000,4.000000,4.000000,4.000000,4.000000,4.000000,4.000000,4.000000,4.000000,4.000000,4.000000,4.000000,100.000000
1614561606.021904,117.000000,0.000000,-2.672178,11.229401,20.042049,5.849638,6.600833,4.972427,6.799752,3.545481,14.264565,-5.817324,-2.645464,1.651127,7.420465,-2.069749,5.139592,7.047599,14.811568,10.416086,-0.909441,10.184232,4.190886,2.867119,8.363452,3.814375,2.559169,19.194557,10.153578,2.150716,5.195914,9.332119,3.385051,40.285267,8064.000000,0.000000,4.000000,,,,0.000000,4.000000,4.000000,4.000000,4.000000,4.000000,4.000000,4.000000,4.000000,4.000000,4.000000,4.000000,4.000000,4.000000,4.000000,4.000000,4.000000,4.000000,4.000000,4.000000,4.000000,4.000000,4.000000,4.000000,4.000000,4.000000,4.000000,4.000000,4.000000,4.000000,4.000000,4.000000,4.000000,100.000000
1614561606.029753,118.000000,0.000000,-2.156685,10.705351,23.611752,2.766866,6.594233,4.454635,8.331413,3.029115,14.250300,-5.811506,-3.155639,1.649475,9.464327,-2.580500,1.544709,1.399526,17.873680,0.662081,-5.523916,10.686868,3.673875,2.864251,15.021755,3.297740,2.556610,20.713825,8.604962,3.174206,7.242000,10.348428,4.407308,43.834728,8064.000000,0.000000,4.000000,,,,0.000000,4.000000,4.000000,4.000000,4.000000,4.000000,4.000000,4.000000,4.000000,4.000000,4.000000,4.000000,4.000000,4.000000,4.000000,4.000000,4.000000,4.000000,4.000000,4.000000,4.000000,4.000000,4.000000,4.000000,4.000000,4.000000,4.000000,4.000000,4.000000,4.000000,4.000000,4.000000,4.000000,100.000000
1614561606.037502,119.000000,0.000000,-2.154528,8.130543,25.639421,-14.671799,5.049177,4.450180,8.323082,3.026086,14.748870,-5.805695,-5.203765,4.211928,8.429222,-2.577919,-4.610682,-7.319822,16.317345,-15.748837,-8.595316,8.112079,3.670201,3.374208,17.058016,-1.833763,2.554054,19.154650,5.519434,1.119750,6.721938,8.286798,0.813157,33.021660,8192.000000,0.000000,4.000000,,,,0.000000,4.000000,4.000000,4.000000,4.000000,4.000000,4.000000,4.000000,4.000000,4.000000,4.000000,4.000000,4.000000,4.000000,4.000000,4.000000,4.000000,4.000000,4.000000,4.000000,4.000000,4.000000,4.000000,4.000000,4.000000,4.000000,4.000000,4.000000,4.000000,4.000000,4.000000,4.000000,4.000000,100.000000
1614561606.045351,120.000000,0.000000,-2.152374,7.609592,22.024038,-19.785332,-0.084078,4.445730,10.366041,3.535881,13.195660,-5.799889,-6.224203,5.746178,10.984895,-2.575342,-7.170174,-9.363784,16.813848,-18.297192,-10.125182,3.488582,3.666530,2.858013,12.938393,-7.472955,2.551500,16.571392,5.513915,-0.932652,6.715216,6.227229,-3.803041,21.706589,8064.000000,0.000000,4.000000,,,,0.000000,4.000000,4.000000,4.000000,4.000000,4.000000,4.000000,4.000000,4.000000,4.000000,4.000000,4.000000,4.000000,4.000000,4.000000,4.000000,4.000000,4.000000,4.000000,4.000000,4.000000,4.000000,4.000000,4.000000,4.000000,4.000000,4.000000,4.000000,4.000000,4.000000,4.000000,4.000000,4.000000,100.000000
1614561606.053100,121.000000,0.000000,-2.150222,8.114803,19.437912,-8.483495,0.941647,4.441284,12.919778,3.532345,10.618361,-5.794089,-7.756440,5.227612,13.538013,-2.059946,-6.137362,-9.354421,16.797033,-12.637869,-8.063775,2.459452,3.662864,2.855155,10.361352,-9.003943,2.548948,15.529180,5.508401,-0.931720,6.708500,6.733822,-2.773597,20.659241,8064.000000,0.000000,4.000000,,,,0.000000,4.000000,4.000000,4.000000,4.000000,4.000000,4.000000,4.000000,4.000000,4.000000,4.000000,4.000000,4.000000,4.000000,4.000000,4.000000,4.000000,4.000000,4.000000,4.000000,4.000000,4.000000,4.000000,4.000000,4.000000,4.000000,4.000000,4.000000,4.000000,4.000000,4.000000,4.000000,4.000000,100.000000
1614561606.060949,122.000000,0.000000,-2.148071,8.106688,24.546679,-3.859627,5.556090,3.924022,10.342755,3.015992,10.094923,-6.301116,-9.799966,5.222384,9.934731,-3.596347,-6.644046,-8.832246,14.728955,-9.035487,4.764802,3.482634,3.659201,3.877941,9.838170,-5.918016,3.059220,17.052113,6.015713,-0.930788,6.701792,7.239909,4.921484,30.382172,8064.000000,0.000000,4.000000,,,,0.000000,4.000000,4.000000,4.000000,4.000000,4.000000,4.000000,4.000000,4.000000,4.000000,4.000000,4.000000,4.000000,4.000000,4.000000,4.000000,4.000000,4.000000,4.000000,4.000000,4.000000,4.000000,4.000000,4.000000,4.000000,4.000000,4.000000,4.000000,4.000000,4.000000,4.000000,4.000000,4.000000,100.000000
1614561606.068698,123.000000,0.000000,-2.145923,8.098581,32.214439,-5.394229,7.088996,-2.746568,2.127284,3.012976,10.597649,-5.269174,-10.302986,5.217161,4.283771,-5.644033,-6.124581,-1.643926,9.586020,-0.821324,18.606192,3.479151,3.655542,0.797140,10.853973,-2.322355,3.056160,20.111982,6.009697,-0.929857,6.695090,6.719848,9.019127,41.633839,8064.000000,0.000000,4.000000,,,,0.000000,4.000000,4.000000,4.000000,4.000000,4.000000,4.000000,4.000000,4.000000,4.000000,4.000000,4.000000,4.000000,4.000000,4.000000,4.000000,4.000000,4.000000,4.000000,4.000000,4.000000,4.000000,4.000000,4.000000,4.000000,4.000000,4.000000,4.000000,4.000000,4.000000,4.000000,4.000000,4.000000,100.000000
1614561606.076547,124.000000,0.000000,-2.143777,8.090483,31.156584,-2.824732,6.569086,-9.923309,-6.079971,3.009963,10.587050,-3.212622,-8.241401,5.211944,-0.335898,-6.664030,-3.554354,6.050025,2.396948,8.410267,20.638866,2.450031,3.651886,-6.383144,13.407222,-0.268750,2.027463,18.040588,4.978046,-0.928927,6.688395,6.713128,4.394723,40.053745,8064.000000,0.000000,4.000000,,,,0.000000,4.000000,4.000000,4.000000,4.000000,4.000000,4.000000,4.000000,4.000000,4.000000,4.000000,4.000000,4.000000,4.000000,4.000000,4.000000,4.000000,4.000000,4.000000,4.000000,4.000000,4.000000,4.000000,4.000000,4.000000,4.000000,4.000000,4.000000,4.000000,4.000000,4.000000,4.000000,4.000000,100.000000
1614561606.084296,125.000000,0.000000,-2.141634,8.082393,24.971582,-0.257805,6.049696,-9.913385,-7.099532,0.955671,10.063643,-1.670948,-5.669057,5.206732,-2.386844,-6.144546,-2.012338,6.556796,-2.220834,9.940318,18.566946,3.473222,3.648234,-8.940864,11.342532,0.244339,3.563897,15.971266,6.511530,-0.927998,6.681707,6.706415,0.287764,34.372665,8064.000000,0.000000,4.000000,,,,0.000000,4.000000,4.000000,4.000000,4.000000,4.000000,4.000000,4.000000,4.000000,4.000000,4.000000,4.000000,4.000000,4.000000,4.000000,4.000000,4.000000,4.000000,4.000000,4.000000,4.000000,4.000000,4.000000,4.000000,4.000000,4.000000,4.000000,4.000000,4.000000,4.000000,4.000000,4.000000,4.000000,100.000000
1614561606.092145,126.000000,0.000000,-2.139492,8.074310,24.433790,-0.770368,7.069288,-4.775267,-4.528330,-0.583746,10.566401,-2.182098,-1.560824,5.201526,-2.897277,-6.138401,-2.010326,9.627162,-2.731434,9.930378,17.522738,3.982569,3.644586,-7.906282,7.228626,0.244095,3.047513,20.057859,5.992198,-0.927070,6.675025,7.212529,1.825938,35.876755,8064.000000,0.000000,4.000000,,,,0.000000,4.000000,4.000000,4.000000,4.000000,4.000000,4.000000,4.000000,4.000000,4.000000,4.000000,4.000000,4.000000,4.000000,4.000000,4.000000,4.000000,4.000000,4.000000,4.000000,4.000000,4.000000,4.000000,4.000000,4.000000,4.000000,4.000000,4.000000,4.000000,4.000000,4.000000,4.000000,4.000000,100.000000
1614561606.099894,127.000000,0.000000,-2.137352,8.066236,24.922176,-0.769597,7.575039,-1.180748,-4.010982,-0.070342,10.555834,-1.667095,1.517660,5.709145,-3.407201,-6.132263,-2.521136,9.617536,-2.728702,7.356345,7.761626,-3.200900,3.640942,-7.898376,6.195756,-2.833072,-7.724765,16.960878,-2.218922,-0.926143,6.668350,4.641214,-2.791273,27.635750,8064.000000,0.000000,4.000000,,,,0.000000,4.000000,4.000000,4.000000,4.000000,4.000000,4.000000,4.000000,4.000000,4.000000,4.000000,4.000000,4.000000,4.000000,4.000000,4.000000,4.000000,4.000000,4.000000,4.000000,4.000000,4.000000,4.000000,4.000000,4.000000,4.000000,4.000000,4.000000,4.000000,4.000000,4.000000,4.000000,4.000000,100.000000
1614561606.107743,0.000000,0.000000,-2.135215,7.545349,19.256229,-1.281648,3.464900,0.358894,-2.468509,-0.583092,10.545278,-1.665428,0.490501,5.190615,-2.890973,-6.126130,-2.518615,0.889969,-2.725974,-0.343319,-4.553828,-12.428469,3.637301,-8.916119,5.163919,-7.958445,-16.434990,8.738789,-9.909011,-0.925217,6.661682,0.021188,-9.967969,19.402985,0.000000,220.000000,4.000000,,,,0.000000,4.000000,4.000000,4.000000,4.000000,4.000000,4.000000,4.000000,4.000000,4.000000,4.000000,4.000000,4.000000,4.000000,4.000000,4.000000,4.000000,4.000000,4.000000,4.000000,4.000000,4.000000,4.000000,4.000000,4.000000,4.000000,4.000000,4.000000,4.000000,4.000000,4.000000,4.000000,4.000000,100.000000
1614561606.115492,1.000000,0.000000,-2.133080,8.050624,17.698511,-0.767546,-0.641129,0.358535,2.662165,-0.582509,10.534733,-2.176583,1.002831,5.185424,-0.323979,-6.120004,0.560827,0.889079,-2.723248,-3.419899,-7.113377,-11.390399,3.633663,-7.881561,2.594653,-8.463306,-14.367272,14.371076,-5.796538,-0.924292,6.655020,-1.517294,-4.829795,34.255379,0.000000,198.000000,4.000000,,,,0.000000,4.000000,4.000000,4.000000,4.000000,4.000000,4.000000,4.000000,4.000000,4.000000,4.000000,4.000000,4.000000,4.000000,4.000000,4.000000,4.000000,4.000000,4.000000,4.000000,4.000000,4.000000,4.000000,4.000000,4.000000,4.000000,4.000000,4.000000,4.000000,4.000000,4.000000,4.000000,4.000000,100.000000
1614561606.123341,2.000000,0.000000,-2.130947,8.555394,20.244915,-0.253958,1.410794,0.870997,5.736426,0.443714,10.524198,-1.661586,0.489008,6.205880,1.727627,-6.113884,0.047445,4.990754,-2.720524,-1.878017,-5.054982,-5.737983,3.630030,-7.873680,2.592058,-7.429202,-12.301623,21.536192,-1.175357,-0.410547,6.648365,-0.490136,0.303240,42.939072,0.000000,224.000000,4.000000,,,,0.000000,4.000000,4.000000,4.000000,4.000000,4.000000,4.000000,4.000000,4.000000,4.000000,4.000000,4.000000,4.000000,4.000000,4.000000,4.000000,4.000000,4.000000,4.000000,4.000000,4.000000,4.000000,4.000000,4.000000,4.000000,4.000000,4.000000,4.000000,4.000000,4.000000,4.000000,4.000000,4.000000,100.000000
1614561606.131090,3.000000,0.000000,-2.128816,5.982736,19.199028,-4.356268,2.435024,0.870126,4.192228,-2.633652,10.513674,-3.198386,-5.665327,3.122751,1.213078,-6.107770,-7.132089,-5.270647,-2.204983,-8.029985,-12.742234,-6.245066,3.113579,-7.865806,3.102287,-9.473055,-16.391886,14.847989,-5.276746,-2.461419,6.641716,-0.489646,-8.927833,26.485876,0.000000,198.000000,4.000000,,,,0.000000,4.000000,4.000000,4.000000,4.000000,4.000000,4.000000,4.000000,4.000000,4.000000,4.000000,4.000000,4.000000,4.000000,4.000000,4.000000,4.000000,4.000000,4.000000,4.000000,4.000000,4.000000,4.000000,4.000000,4.000000,4.000000,4.000000,4.000000,4.000000,4.000000,4.000000,4.000000,4.000000,100.000000
1614561606.138739,4.000000,0.000000,-2.126687,4.438292,17.128548,-9.480117,-0.644334,0.356435,4.700856,-10.323326,9.990339,-7.297751,-6.685303,-3.547039,1.211865,-6.101663,-11.227521,-12.957685,0.361324,-15.201443,-19.908979,-8.290103,3.110466,-5.293838,2.073543,-11.002044,-16.888313,13.807500,-10.399674,-5.023060,6.635075,-1.514797,-15.585571,18.254261,0.000000,200.000000,4.000000,,,,0.000000,4.000000,4.000000,4.000000,4.000000,4.000000,4.000000,4.000000,4.000000,4.000000,4.000000,4.000000,4.000000,4.000000,4.000000,4.000000,4.000000,4.000000,4.000000,4.000000,4.000000,4.000000,4.000000,4.000000,4.000000,4.000000,4.000000,4.000000,4.000000,4.000000,4.000000,4.000000,4.000000,100.000000
1614561606.146488,5.000000,0.000000,-2.124560,6.485136,16.085779,-8.957816,-0.643689,0.356079,5.208976,-12.364285,9.980350,-9.341736,-4.114515,-6.620415,1.723474,-6.095561,-9.677833,-5.252419,2.412245,-11.596498,-8.094198,-8.794633,3.620176,-1.698800,2.584290,-7.914118,-15.332964,18.921898,-9.363633,-5.018037,6.628440,-1.000462,-11.467422,22.338572,0.000000,194.000000,4.000000,,,,0.000000,4.000000,4.000000,4.000000,4.000000,4.000000,4.000000,4.000000,4.000000,4.000000,4.000000,4.000000,4.000000,4.000000,4.000000,4.000000,4.000000,4.000000,4.000000,4.000000,4.000000,4.000000,4.000000,4.000000,4.000000,4.000000,4.000000,4.000000,4.000000,4.000000,4.000000,4.000000,4.000000,100.000000
1614561606.154137,6.000000,0.000000,-2.122436,8.017112,9.403026,-10.487320,-1.155866,0.868543,0.588382,-11.326280,10.483190,-9.332394,-6.161683,-5.588153,1.721751,-6.089465,-10.180975,-1.144602,1.384192,-3.379773,12.939537,-8.273018,2.590914,-0.158640,3.094527,-0.213897,-16.343273,13.261950,-8.841449,-4.500198,6.621811,-0.486641,-9.917493,16.675207,0.000000,196.000000,4.000000,,,,0.000000,4.000000,4.000000,4.000000,4.000000,4.000000,4.000000,4.000000,4.000000,4.000000,4.000000,4.000000,4.000000,4.000000,4.000000,4.000000,4.000000,4.000000,4.000000,4.000000,4.000000,4.000000,4.000000,4.000000,4.000000,4.000000,4.000000,4.000000,4.000000,4.000000,4.000000,4.000000,4.000000,100.000000
1614561606.161887,7.000000,0.000000,-2.120313,8.009095,3.752597,-16.117859,-6.795736,-1.183607,-3.001950,-12.853415,9.447065,-9.835882,-1.540136,-6.608206,1.207208,-7.109017,-10.683615,-0.117817,0.869987,6.367197,23.183008,-1.085258,5.152426,-0.671302,2.065791,11.581189,-13.762827,9.658944,-10.371069,-5.521339,6.615190,-0.998975,-11.446037,19.222633,0.000000,202.000000,4.000000,,,,0.000000,4.000000,4.000000,4.000000,4.000000,4.000000,4.000000,4.000000,4.000000,4.000000,4.000000,4.000000,4.000000,4.000000,4.000000,4.000000,4.000000,4.000000,4.000000,4.000000,4.000000,4.000000,4.000000,4.000000,4.000000,4.000000,4.000000,4.000000,4.000000,4.000000,4.000000,4.000000,4.000000,100.000000
1614561606.169536,8.000000,0.000000,-2.118193,10.052368,11.953973,-9.435074,-5.763299,-3.233706,-3.511768,-8.225177,11.488900,-9.313226,11.794737,-6.088777,1.718822,-5.563447,-6.057546,12.702814,4.458860,21.745445,27.775209,10.197879,13.865222,-0.670630,3.602187,24.390121,-4.518294,19.392876,-6.258134,-2.438895,6.608574,-0.997976,-5.280745,35.613667,0.000000,189.000000,4.000000,,,,0.000000,4.000000,4.000000,4.000000,4.000000,4.000000,4.000000,4.000000,4.000000,4.000000,4.000000,4.000000,4.000000,4.000000,4.000000,4.000000,4.000000,4.000000,4.000000,4.000000,4.000000,4.000000,4.000000,4.000000,4.000000,4.000000,4.000000,4.000000,4.000000,4.000000,4.000000,4.000000,4.000000,100.000000
1614561606.177285,9.000000,0.000000,-2.116075,12.093597,27.326633,9.035900,1.421951,-3.743293,-6.585180,3.577920,18.656898,-6.739810,16.911148,-5.569868,1.204282,-2.993780,-1.948925,22.946522,5.992863,29.416006,33.901279,11.726142,20.518024,0.355681,12.829353,27.442654,2.665711,25.527328,4.004534,5.255852,6.601966,4.644048,3.442484,43.270363,0.000000,216.000000,4.000000,,,,0.000000,4.000000,4.000000,4.000000,4.000000,4.000000,4.000000,4.000000,4.000000,4.000000,4.000000,4.000000,4.000000,4.000000,4.000000,4.000000,4.000000,4.000000,4.000000,4.000000,4.000000,4.000000,4.000000,4.000000,4.000000,4.000000,4.000000,4.000000,4.000000,4.000000,4.000000,4.000000,4.000000,100.000000
1614561606.184934,10.000000,0.000000,-2.113959,11.568684,33.453156,15.693531,1.933350,-3.739549,-11.193979,8.189727,22.740805,-5.194609,10.740391,-7.102760,-2.899486,-2.477966,-2.972617,20.872293,-0.166976,22.207104,29.764814,10.688775,18.959044,-0.670316,18.970371,15.620339,3.175866,23.450520,10.154376,7.814699,6.595364,10.793250,6.003145,41.175808,0.000000,218.000000,4.000000,,,,0.000000,4.000000,4.000000,4.000000,4.000000,4.000000,4.000000,4.000000,4.000000,4.000000,4.000000,4.000000,4.000000,4.000000,4.000000,4.000000,4.000000,4.000000,4.000000,4.000000,4.000000,4.000000,4.000000,4.000000,4.000000,4.000000,4.000000,4.000000,4.000000,4.000000,4.000000,4.000000,4.000000,100.000000
1614561606.192683,11.000000,0.000000,-2.111845,11.557115,31.881239,12.600914,-0.119865,-2.710169,-10.669965,4.078973,19.641142,-5.702235,8.678368,-2.993093,-6.486330,-1.449847,-0.918362,17.261677,-5.807835,17.056692,19.478640,13.242189,15.350342,-0.669645,17.412939,5.348309,3.172690,22.914248,9.118581,6.268423,6.588768,10.782456,3.433039,38.057709,0.000000,189.000000,4.000000,,,,0.000000,4.000000,4.000000,4.000000,4.000000,4.000000,4.000000,4.000000,4.000000,4.000000,4.000000,4.000000,4.000000,4.000000,4.000000,4.000000,4.000000,4.000000,4.000000,4.000000,4.000000,4.000000,4.000000,4.000000,4.000000,4.000000,4.000000,4.000000,4.000000,4.000000,4.000000,4.000000,4.000000,100.000000
1614561606.200332,12.000000,0.000000,-2.109733,12.058378,32.362179,14.639595,2.957177,-0.143356,-6.043910,3.562073,18.083038,-5.696532,9.695331,6.240670,-6.479844,3.679808,6.262043,18.270056,-6.314847,17.552456,12.792494,3.998178,8.668324,0.869486,18.933987,-0.298065,4.195158,23.916975,10.135103,6.774975,6.582180,10.258854,4.968067,38.532475,0.000000,202.000000,4.000000,,,,0.000000,4.000000,4.000000,4.000000,4.000000,4.000000,4.000000,4.000000,4.000000,4.000000,4.000000,4.000000,4.000000,4.000000,4.000000,4.000000,4.000000,4.000000,4.000000,4.000000,4.000000,4.000000,4.000000,4.000000,4.000000,4.000000,4.000000,4.000000,4.000000,4.000000,4.000000,4.000000,4.000000,100.000000
1614561606.208081,13.000000,0.000000,-2.107623,11.533500,33.868279,13.086493,2.954220,0.882428,-3.473764,4.584152,18.577776,-5.178015,7.121533,10.336993,-5.960544,4.188949,9.845525,18.251787,-7.334173,9.329775,-1.066452,-12.928898,-2.622395,-3.233948,18.402233,-11.579819,2.139681,24.405878,10.124968,4.716918,6.575598,11.274236,9.065663,43.109325,0.000000,199.000000,4.000000,,,,0.000000,4.000000,4.000000,4.000000,4.000000,4.000000,4.000000,4.000000,4.000000,4.000000,4.000000,4.000000,4.000000,4.000000,4.000000,4.000000,4.000000,4.000000,4.000000,4.000000,4.000000,4.000000,4.000000,4.000000,4.000000,4.000000,4.000000,4.000000,4.000000,4.000000,4.000000,4.000000,4.000000,100.000000
1614561606.215730,14.000000,0.000000,-2.105516,11.521966,28.706203,-0.259926,-0.638478,0.368726,-2.957469,2.015465,13.430993,-5.172837,5.575950,9.813835,-5.954583,2.646298,8.810039,12.079688,-10.916583,-2.987247,-17.988462,-17.018532,-11.850542,-12.974303,6.076138,-21.824650,-1.965023,22.330191,1.909715,-1.441646,6.569022,10.750141,2.902752,39.476471,0.000000,188.000000,4.000000,,,,0.000000,4.000000,4.000000,4.000000,4.000000,4.000000,4.000000,4.000000,4.000000,4.000000,4.000000,4.000000,4.000000,4.000000,4.000000,4.000000,4.000000,4.000000,4.000000,4.000000,4.000000,4.000000,4.000000,4.000000,4.000000,4.000000,4.000000,4.000000,4.000000,4.000000,4.000000,4.000000,4.000000,100.000000
1614561606.223480,15.000000,0.000000,-1.590590,12.536085,19.959549,-9.490436,0.387802,1.393998,-1.928871,0.474988,10.340639,-6.706126,1.980630,9.291202,-5.948628,-0.433271,3.673023,-3.317007,-9.880025,-8.112465,-22.073038,-15.975873,-13.889974,-16.551073,-5.211989,-23.341286,-4.527160,18.205296,-5.784503,-5.029947,7.075274,10.226570,-8.895023,31.231869,0.000000,201.000000,4.000000,,,,0.000000,4.000000,4.000000,4.000000,4.000000,4.000000,4.000000,4.000000,4.000000,4.000000,4.000000,4.000000,4.000000,4.000000,4.000000,4.000000,4.000000,4.000000,4.000000,4.000000,4.000000,4.000000,4.000000,4.000000,4.000000,4.000000,4.000000,4.000000,4.000000,4.000000,4.000000,4.000000,4.000000,100.000000
1614561606.231129,16.000000,0.000000,-2.614640,9.446626,16.349846,-8.968124,-3.202329,-1.684319,-5.003865,-1.063948,10.330298,-8.237882,-12.893146,2.102423,-7.481141,-11.202068,-8.638342,-17.672665,-9.357325,-14.258199,-21.538145,-24.165026,-15.414545,-14.996060,-5.206777,-24.856405,-5.548274,16.135809,-6.291539,-4.512097,6.042557,11.241984,-10.937410,30.687815,0.000000,183.000000,4.000000,,,,0.000000,4.000000,4.000000,4.000000,4.000000,4.000000,4.000000,4.000000,4.000000,4.000000,4.000000,4.000000,4.000000,4.000000,4.000000,4.000000,4.000000,4.000000,4.000000,4.000000,4.000000,4.000000,4.000000,4.000000,4.000000,4.000000,4.000000,4.000000,4.000000,4.000000,4.000000,4.000000,4.000000,100.000000
1614561606.238878,17.000000,0.000000,-5.176128,2.770512,15.820676,-7.933515,-11.404255,-10.913404,-12.691169,-6.703910,3.653302,-10.280926,-26.213585,-7.643270,-9.524942,-22.472918,-19.911755,-22.270376,-10.373609,-18.346504,-18.952503,-26.704964,-16.424772,-16.006704,-4.688750,-25.857191,-7.594008,15.094032,-5.259606,-5.020405,3.985233,8.153820,-10.413652,22.452000,0.000000,186.000000,4.000000,,,,0.000000,4.000000,4.000000,4.000000,4.000000,4.000000,4.000000,4.000000,4.000000,4.000000,4.000000,4.000000,4.000000,4.000000,4.000000,4.000000,4.000000,4.000000,4.000000,4.000000,4.000000,4.000000,4.000000,4.000000,4.000000,4.000000,4.000000,4.000000,4.000000,4.000000,4.000000,4.000000,4.000000,100.000000
1614561606.246527,18.000000,0.000000,-6.196593,-0.309181,12.215112,-9.464043,-10.880031,-14.492234,-14.729760,-12.338231,-0.965736,-12.834747,-23.110449,-9.686908,-9.515417,-18.347881,-19.379023,-17.119900,-1.645286,-9.610209,-5.600218,-18.473129,-7.690398,-10.862494,-5.196882,-17.113384,-8.612055,13.027656,-5.767167,-5.015385,2.442786,1.478999,-12.454520,11.660316,0.000000,200.000000,4.000000,,,,0.000000,4.000000,4.000000,4.000000,4.000000,4.000000,4.000000,4.000000,4.000000,4.000000,4.000000,4.000000,4.000000,4.000000,4.000000,4.000000,4.000000,4.000000,4.000000,4.000000,4.000000,4.000000,4.000000,4.000000,4.000000,4.000000,4.000000,4.000000,4.000000,4.000000,4.000000,4.000000,4.000000,100.000000
1614561606.254376,19.000000,0.000000,-5.677576,0.716769,9.125974,-7.916118,-7.792227,-11.400819,-10.612466,-11.813073,1.599332,-12.821913,-14.369390,-9.677221,-9.505901,-8.073123,-14.231439,-11.461755,14.253796,2.707093,8.251535,-11.275169,5.137805,3.507344,0.962161,-4.275759,-6.039340,11.988987,-5.761400,-0.394985,2.953163,-1.599403,-2.698476,25.494810,0.000000,186.000000,4.000000,,,,0.000000,4.000000,4.000000,4.000000,4.000000,4.000000,4.000000,4.000000,4.000000,4.000000,4.000000,4.000000,4.000000,4.000000,4.000000,4.000000,4.000000,4.000000,4.000000,4.000000,4.000000,4.000000,4.000000,4.000000,4.000000,4.000000,4.000000,4.000000,4.000000,4.000000,4.000000,4.000000,4.000000,100.000000
1614561606.262125,20.000000,0.000000,-5.671898,0.716052,8.091207,-9.446663,-12.912641,-10.363777,-10.601853,-12.314080,1.084912,-12.809091,-13.842200,-14.282928,-9.496396,-4.988127,-17.294130,-8.373370,17.829285,6.294129,12.345848,-7.674151,8.209591,7.606400,7.627866,1.369543,-3.469198,11.464178,-5.242818,3.707974,2.950210,-0.572162,3.970889,35.212906,0.000000,168.000000,4.000000,,,,0.000000,4.000000,4.000000,4.000000,4.000000,4.000000,4.000000,4.000000,4.000000,4.000000,4.000000,4.000000,4.000000,4.000000,4.000000,4.000000,4.000000,4.000000,4.000000,4.000000,4.000000,4.000000,4.000000,4.000000,4.000000,4.000000,4.000000,4.000000,4.000000,4.000000,4.000000,4.000000,4.000000,100.000000
1614561606.269974,21.000000,0.000000,-5.666226,0.202516,8.595936,-16.103884,-13.412548,-9.840593,-13.668175,-15.891510,-1.480275,-19.462948,-14.853999,-17.345570,-9.486899,-7.547241,-23.943502,-8.364997,9.093507,5.262194,8.743759,-8.179297,5.124458,-1.631975,7.620238,-0.170288,-5.517011,8.888611,-5.237575,1.140164,2.947260,-0.571590,-11.417697,19.793077,0.000000,204.000000,4.000000,,,,0.000000,4.000000,4.000000,4.000000,4.000000,4.000000,4.000000,4.000000,4.000000,4.000000,4.000000,4.000000,4.000000,4.000000,4.000000,4.000000,4.000000,4.000000,4.000000,4.000000,4.000000,4.000000,4.000000,4.000000,4.000000,4.000000,4.000000,4.000000,4.000000,4.000000,4.000000,4.000000,4.000000,100.000000
1614561606.277723,22.000000,0.000000,-5.660560,0.715134,10.125801,-20.190344,-4.681187,-7.266650,-14.167327,-14.849977,3.649410,-24.571690,-13.300683,-16.815403,-9.477412,-9.078156,-25.970840,-8.869452,4.981850,0.128727,1.042708,-16.376245,3.580872,-8.809831,6.586977,-3.759861,-10.126879,8.879723,-5.232337,-0.912259,2.944313,-1.083839,-21.149870,18.234823,0.000000,205.000000,4.000000,,,,0.000000,4.000000,4.000000,4.000000,4.000000,4.000000,4.000000,4.000000,4.000000,4.000000,4.000000,4.000000,4.000000,4.000000,4.000000,4.000000,4.000000,4.000000,4.000000,4.000000,4.000000,4.000000,4.000000,4.000000,4.000000,4.000000,4.000000,4.000000,4.000000,4.000000,4.000000,4.000000,4.000000,100.000000
1614561606.285572,23.000000,0.000000,-5.654900,0.714419,7.551573,-20.682974,-3.650865,-7.259383,-13.127519,-9.706923,6.722684,-20.444555,-12.774562,-16.285767,-8.955114,-9.069077,-19.791023,-5.270839,6.002509,-3.973966,-5.112181,-21.488075,4.090112,-7.262559,7.093210,-6.320204,-12.168034,11.434945,-5.227105,0.114295,2.941369,-1.082755,-12.923592,31.037100,0.000000,179.000000,4.000000,,,,0.000000,4.000000,4.000000,4.000000,4.000000,4.000000,4.000000,4.000000,4.000000,4.000000,4.000000,4.000000,4.000000,4.000000,4.000000,4.000000,4.000000,4.000000,4.000000,4.000000,4.000000,4.000000,4.000000,4.000000,4.000000,4.000000,4.000000,4.000000,4.000000,4.000000,4.000000,4.000000,4.000000,100.000000
1614561606.293321,24.000000,0.000000,-5.649245,0.713704,8.569662,-19.636650,-8.262598,-10.329047,-13.627212,-7.133112,5.177500,-15.808725,-13.274608,-16.782301,-9.458980,-9.060008,-14.130207,-1.163004,3.945224,-0.380248,-5.107069,-19.415304,4.086021,-6.742476,7.086117,-8.877987,-11.643045,11.936331,-5.221878,-3.988384,2.938427,-1.081673,-9.320924,27.929140,0.000000,198.000000,4.000000,,,,0.000000,4.000000,4.000000,4.000000,4.000000,4.000000,4.000000,4.000000,4.000000,4.000000,4.000000,4.000000,4.000000,4.000000,4.000000,4.000000,4.000000,4.000000,4.000000,4.000000,4.000000,4.000000,4.000000,4.000000,4.000000,4.000000,4.000000,4.000000,4.000000,4.000000,4.000000,4.000000,4.000000,100.000000
1614561606.301170,25.000000,0.000000,-5.643595,0.712990,22.920067,-12.950346,-1.587669,-10.318718,-13.613585,-7.638800,13.890271,-16.305737,-11.210052,-16.252699,-9.449521,-9.563768,-12.577616,-0.649021,0.864356,2.184234,-4.589141,-17.857428,3.569115,-10.325477,5.540569,-10.920391,-11.631402,12.437215,-5.216656,-13.727985,2.935489,-0.567770,-10.337244,29.439672,0.000000,207.000000,4.000000,,,,0.000000,4.000000,4.000000,4.000000,4.000000,4.000000,4.000000,4.000000,4.000000,4.000000,4.000000,4.000000,4.000000,4.000000,4.000000,4.000000,4.000000,4.000000,4.000000,4.000000,4.000000,4.000000,4.000000,4.000000,4.000000,4.000000,4.000000,4.000000,4.000000,4.000000,4.000000,4.000000,4.000000,100.000000
1614561606.308919,26.000000,0.000000,-5.637952,0.712277,35.204838,-8.834831,7.644688,-9.795579,-11.035869,-7.631161,21.055868,-16.802252,-7.096277,-13.159523,-7.388790,-9.554205,-13.590679,-1.161192,0.863491,-0.382052,-7.148655,-19.890852,3.052725,-12.366434,2.458106,-11.935111,-12.132591,11.911957,-5.724260,-17.304001,2.932553,-1.080023,-3.660240,40.692284,0.000000,202.000000,4.000000,,,,0.000000,4.000000,4.000000,4.000000,4.000000,4.000000,4.000000,4.000000,4.000000,4.000000,4.000000,4.000000,4.000000,4.000000,4.000000,4.000000,4.000000,4.000000,4.000000,4.000000,4.000000,4.000000,4.000000,4.000000,4.000000,4.000000,4.000000,4.000000,4.000000,4.000000,4.000000,4.000000,4.000000,100.000000
1614561606.316768,27.000000,0.000000,-5.632314,0.198745,33.631172,-9.338818,4.560120,-10.298603,-9.486371,-7.623530,15.906607,-16.785450,-5.550719,-7.505338,-6.355760,-9.544651,-13.064268,-1.160031,-0.163013,2.695253,-5.603045,-19.870962,3.562493,-11.328426,-0.108455,-11.923176,-12.120459,11.387225,-3.667254,-15.235415,2.929621,-0.566123,0.958805,42.702873,0.000000,176.000000,4.000000,,,,0.000000,4.000000,4.000000,4.000000,4.000000,4.000000,4.000000,4.000000,4.000000,4.000000,4.000000,4.000000,4.000000,4.000000,4.000000,4.000000,4.000000,4.000000,4.000000,4.000000,4.000000,4.000000,4.000000,4.000000,4.000000,4.000000,4.000000,4.000000,4.000000,4.000000,4.000000,4.000000,4.000000,100.000000
1614561606.324517,28.000000,0.000000,-5.626681,0.711366,39.238567,1.439752,-1.598286,-10.801126,-9.989705,-7.615907,15.890700,-15.743023,-11.699015,-4.933730,-7.375045,-9.535106,-12.025562,-4.748615,-3.239773,-3.461289,-4.058980,-18.312630,3.558931,-11.317098,-1.646808,-10.885612,-12.108338,18.555325,-1.612305,-13.168898,2.926691,3.537008,3.521948,52.916580,0.000000,172.000000,4.000000,,,,0.000000,4.000000,4.000000,4.000000,4.000000,4.000000,4.000000,4.000000,4.000000,4.000000,4.000000,4.000000,4.000000,4.000000,4.000000,4.000000,4.000000,4.000000,4.000000,4.000000,4.000000,4.000000,4.000000,4.000000,4.000000,4.000000,4.000000,4.000000,4.000000,4.000000,4.000000,4.000000,4.000000,100.000000
1614561606.332366,29.000000,0.000000,-5.621055,0.710655,52.532661,10.156261,0.967414,-10.277504,-9.979715,-7.608291,23.054296,-16.240101,-23.995008,-4.928796,-9.418952,-9.525571,-14.064819,-11.923353,-6.826277,-23.457827,-11.747229,-19.319958,3.042551,-11.305780,-1.132341,-11.900368,-11.583409,28.793180,-1.610692,-12.130087,2.923764,7.123214,4.544067,68.248283,0.000000,195.000000,4.000000,,,,0.000000,4.000000,4.000000,4.000000,4.000000,4.000000,4.000000,4.000000,4.000000,4.000000,4.000000,4.000000,4.000000,4.000000,4.000000,4.000000,4.000000,4.000000,4.000000,4.000000,4.000000,4.000000,4.000000,4.000000,4.000000,4.000000,4.000000,4.000000,4.000000,4.000000,4.000000,4.000000,4.000000,100.000000
1614561606.340115,30.000000,0.000000,-5.615434,-0.315697,49.916027,-2.674408,3.530550,-10.780046,-9.456915,-9.139144,19.954319,-17.762321,-26.022295,-5.436688,-10.947994,-10.028866,-13.537934,-13.962712,-7.332271,-25.485651,-15.325225,-18.787817,4.065150,-7.704731,-1.131208,-11.375647,-11.571826,30.302849,-1.609082,-7.502573,2.920841,6.603271,-1.101502,59.462082,0.000000,207.000000,4.000000,,,,0.000000,4.000000,4.000000,4.000000,4.000000,4.000000,4.000000,4.000000,4.000000,4.000000,4.000000,4.000000,4.000000,4.000000,4.000000,4.000000,4.000000,4.000000,4.000000,4.000000,4.000000,4.000000,4.000000,4.000000,4.000000,4.000000,4.000000,4.000000,4.000000,4.000000,4.000000,4.000000,4.000000,100.000000
1614561606.347964,31.000000,0.000000,-5.609818,1.223081,49.866112,-8.312759,2.501378,-10.769267,-10.985920,-6.053082,15.831801,-11.590714,-12.150119,-5.431251,-7.347303,-8.480375,-5.319268,-6.256442,-0.658272,-6.485807,-0.438105,-5.435696,7.650828,-2.568821,-1.642898,-0.595040,-12.585896,25.657160,-1.094652,-2.879685,2.917920,6.083847,0.438061,51.710312,0.000000,159.000000,4.000000,,,,0.000000,4.000000,4.000000,4.000000,4.000000,4.000000,4.000000,4.000000,4.000000,4.000000,4.000000,4.000000,4.000000,4.000000,4.000000,4.000000,4.000000,4.000000,4.000000,4.000000,4.000000,4.000000,4.000000,4.000000,4.000000,4.000000,4.000000,4.000000,4.000000,4.000000,4.000000,4.000000,4.000000,100.000000
1614561606.355713,32.000000,0.000000,-5.604208,6.862883,72.893166,8.618630,4.550159,-9.732857,-9.436472,2.158100,22.995457,0.215749,0.682544,-3.374538,1.377993,-5.907793,1.865539,1.954943,11.137258,3.777089,14.434128,11.492817,11.232921,0.510670,1.435668,13.764529,-6.419463,27.682785,-1.606378,-0.312703,2.915002,8.129045,12.745315,73.197067,8064.000000,0.000000,4.000000,,,,0.000000,4.000000,4.000000,4.000000,4.000000,4.000000,4.000000,4.000000,4.000000,4.000000,4.000000,4.000000,4.000000,4.000000,4.000000,4.000000,4.000000,4.000000,4.000000,4.000000,4.000000,4.000000,4.000000,4.000000,4.000000,4.000000,4.000000,4.000000,4.000000,4.000000,4.000000,4.000000,4.000000,100.000000
1614561606.363462,33.000000,0.000000,-5.598604,8.907302,85.640785,20.404884,9.673814,-7.671842,-4.811651,4.720044,29.126307,3.805277,2.220323,-1.319881,6.504820,-5.901885,2.376494,3.491450,13.177402,2.747671,14.419694,16.609529,12.247329,0.510160,8.100900,16.314867,1.279264,32.270489,-1.091951,-0.312390,2.912087,10.172198,16.835135,87.482841,8064.000000,0.000000,4.000000,,,,0.000000,4.000000,4.000000,4.000000,4.000000,4.000000,4.000000,4.000000,4.000000,4.000000,4.000000,4.000000,4.000000,4.000000,4.000000,4.000000,4.000000,4.000000,4.000000,4.000000,4.000000,4.000000,4.000000,4.000000,4.000000,4.000000,4.000000,4.000000,4.000000,4.000000,4.000000,4.000000,4.000000,100.000000
1614561606.371212,34.000000,0.000000,-5.593006,6.847113,71.196175,16.281916,10.689781,-4.074426,-2.242737,2.151222,28.584360,1.750189,0.166821,-2.344203,5.472674,-5.895983,1.861297,2.462317,6.497559,4.796206,12.353992,16.080099,9.670979,-3.080094,13.733824,10.144707,3.842087,34.289497,0.960423,-0.312078,2.909175,10.162025,14.767016,80.215874,8064.000000,0.000000,4.000000,,,,0.000000,4.000000,4.000000,4.000000,4.000000,4.000000,4.000000,4.000000,4.000000,4.000000,4.000000,4.000000,4.000000,4.000000,4.000000,4.000000,4.000000,4.000000,4.000000,4.000000,4.000000,4.000000,4.000000,4.000000,4.000000,4.000000,4.000000,4.000000,4.000000,4.000000,4.000000,4.000000,4.000000,100.000000
1614561606.378861,35.000000,0.000000,-5.587413,10.430010,66.509590,17.804094,10.166270,0.032212,-2.240494,5.738814,30.607058,2.261260,1.705115,-0.290576,4.954381,-2.813164,1.859435,2.972676,4.952600,6.329871,15.418561,14.012736,5.045923,-6.666758,14.745731,9.108920,4.351066,36.819313,3.010745,-1.850227,2.906265,9.639043,16.290710,78.597191,8064.000000,0.000000,4.000000,,,,0.000000,4.000000,4.000000,4.000000,4.000000,4.000000,4.000000,4.000000,4.000000,4.000000,4.000000,4.000000,4.000000,4.000000,4.000000,4.000000,4.000000,4.000000,4.000000,4.000000,4.000000,4.000000,4.000000,4.000000,4.000000,4.000000,4.000000,4.000000,4.000000,4.000000,4.000000,4.000000,4.000000,100.000000
1614561606.386610,36.000000,0.000000,-5.581825,15.547785,75.673851,22.914495,10.668925,1.570642,0.838669,11.374101,32.627731,2.771819,3.241872,5.863561,5.975068,-0.759068,2.370396,3.482523,6.486108,6.323541,11.813399,1.178211,0.425493,-8.198552,12.679704,6.022889,1.269791,37.295315,0.956452,-5.438121,2.903359,10.655046,10.120574,78.005775,8192.000000,0.000000,4.000000,,,,0.000000,4.000000,4.000000,4.000000,4.000000,4.000000,4.000000,4.000000,4.000000,4.000000,4.000000,4.000000,4.000000,4.000000,4.000000,4.000000,4.000000,4.000000,4.000000,4.000000,4.000000,4.000000,4.000000,4.000000,4.000000,4.000000,4.000000,4.000000,4.000000,4.000000,4.000000,4.000000,4.000000,100.000000
1614561606.394259,37.000000,0.000000,-5.576243,11.942493,66.367409,14.686453,8.094153,0.030610,1.863472,8.285804,30.031002,0.204945,-0.863934,3.293594,5.969093,-2.809592,2.368026,2.453400,0.838597,3.240294,0.519534,-18.822968,-6.754420,-9.215995,7.538819,-8.854929,-11.551991,26.488787,-6.223992,-7.996785,2.900456,8.593108,-4.248521,62.543156,8064.000000,0.000000,4.000000,,,,0.000000,4.000000,4.000000,4.000000,4.000000,4.000000,4.000000,4.000000,4.000000,4.000000,4.000000,4.000000,4.000000,4.000000,4.000000,4.000000,4.000000,4.000000,4.000000,4.000000,4.000000,4.000000,4.000000,4.000000,4.000000,4.000000,4.000000,4.000000,4.000000,4.000000,4.000000,4.000000,4.000000,100.000000
1614561606.402008,38.000000,0.000000,-5.570667,7.827987,55.018990,-1.225670,3.470675,-2.533524,-0.189674,0.072389,27.436869,-1.846542,-8.042558,-4.914827,5.450303,-5.370884,-2.249727,2.963767,-7.880191,-3.429613,-9.737395,-30.086195,-16.491255,-11.770882,0.351793,-24.230690,-23.335312,16.718708,-12.371614,-8.501609,2.897556,3.456310,-8.859657,54.788303,8064.000000,0.000000,4.000000,,,,0.000000,4.000000,4.000000,4.000000,4.000000,4.000000,4.000000,4.000000,4.000000,4.000000,4.000000,4.000000,4.000000,4.000000,4.000000,4.000000,4.000000,4.000000,4.000000,4.000000,4.000000,4.000000,4.000000,4.000000,4.000000,4.000000,4.000000,4.000000,4.000000,4.000000,4.000000,4.000000,4.000000,100.000000
1614561606.409657,39.000000,0.000000,-5.565096,9.871441,66.758842,-6.865469,1.928742,-3.043811,-1.727946,0.072317,26.896612,-1.844696,-10.085797,-4.909913,3.906391,-6.903975,-8.914144,2.960803,-10.436413,-5.990285,-12.804582,-30.568930,-18.013226,-11.759110,-4.776764,-26.770561,-23.311975,22.343016,-10.820781,-8.493108,2.894658,3.452853,-4.235413,63.451466,8192.000000,0.000000,4.000000,,,,0.000000,4.000000,4.000000,4.000000,4.000000,4.000000,4.000000,4.000000,4.000000,4.000000,4.000000,4.000000,4.000000,4.000000,4.000000,4.000000,4.000000,4.000000,4.000000,4.000000,4.000000,4.000000,4.000000,4.000000,4.000000,4.000000,4.000000,4.000000,4.000000,4.000000,4.000000,4.000000,4.000000,100.000000
1614561606.417406,40.000000,0.000000,-5.559531,12.425672,79.512596,-1.217578,2.952455,-3.040767,-4.803141,3.661988,28.408176,-1.330031,-9.050070,-5.417823,2.364023,-10.486814,-9.930870,-1.657542,-9.400335,-5.984295,-12.791777,-29.512720,-12.867007,-11.234530,-4.771987,-25.205330,-19.698919,32.064262,-6.194575,-6.433332,2.891763,8.577606,-2.692716,68.516220,8064.000000,0.000000,4.000000,,,,0.000000,4.000000,4.000000,4.000000,4.000000,4.000000,4.000000,4.000000,4.000000,4.000000,4.000000,4.000000,4.000000,4.000000,4.000000,4.000000,4.000000,4.000000,4.000000,4.000000,4.000000,4.000000,4.000000,4.000000,4.000000,4.000000,4.000000,4.000000,4.000000,4.000000,4.000000,4.000000,4.000000,100.000000
1614561606.425056,41.000000,0.000000,-5.553972,10.874784,74.304878,2.373383,2.949502,-3.037726,-10.952184,-2.495520,26.841307,-1.841521,-14.682046,-16.694456,-1.228084,-16.630175,-8.382478,-7.296910,-9.390935,-8.542414,-12.778985,-30.508848,-10.290037,-11.223296,-4.254395,-26.205765,-19.679222,34.083481,-7.214022,-4.375617,2.888872,10.620310,-5.254126,66.396423,8064.000000,0.000000,4.000000,,,,0.000000,4.000000,4.000000,4.000000,4.000000,4.000000,4.000000,4.000000,4.000000,4.000000,4.000000,4.000000,4.000000,4.000000,4.000000,4.000000,4.000000,4.000000,4.000000,4.000000,4.000000,4.000000,4.000000,4.000000,4.000000,4.000000,4.000000,4.000000,4.000000,4.000000,4.000000,4.000000,4.000000,100.000000
1614561606.432805,42.000000,0.000000,-5.548418,10.863910,67.563904,0.319727,2.433732,-3.034688,-14.018155,-11.723793,26.814466,-1.839680,-21.334030,-24.882891,-8.919164,-20.716108,-10.425378,-7.802434,-9.894365,-10.072332,-12.766206,-30.478338,-11.305388,-11.212073,-4.762961,-26.179560,-19.146721,32.510937,-9.258090,-3.858421,2.885983,9.584049,-7.300153,66.330025,8064.000000,0.000000,4.000000,,,,0.000000,4.000000,4.000000,4.000000,4.000000,4.000000,4.000000,4.000000,4.000000,4.000000,4.000000,4.000000,4.000000,4.000000,4.000000,4.000000,4.000000,4.000000,4.000000,4.000000,4.000000,4.000000,4.000000,4.000000,4.000000,4.000000,4.000000,4.000000,4.000000,4.000000,4.000000,4.000000,4.000000,100.000000
1614561606.440454,43.000000,0.000000,-5.542870,11.365867,72.624550,2.370690,2.431298,-3.031654,-14.516957,-12.737711,33.454319,-1.325019,-20.799875,-21.268265,-13.525629,-20.695393,-15.030336,-9.845914,-9.371650,-10.575081,-12.240620,-26.345297,-10.268442,-11.200861,-4.758198,-23.076456,-18.101934,33.504066,-8.736012,-4.367383,2.883097,10.087285,-6.267212,67.802155,8064.000000,0.000000,4.000000,,,,0.000000,4.000000,4.000000,4.000000,4.000000,4.000000,4.000000,4.000000,4.000000,4.000000,4.000000,4.000000,4.000000,4.000000,4.000000,4.000000,4.000000,4.000000,4.000000,4.000000,4.000000,4.000000,4.000000,4.000000,4.000000,4.000000,4.000000,4.000000,4.000000,4.000000,4.000000,4.000000,4.000000,100.000000
1614561606.448203,44.000000,0.000000,-5.537327,11.354501,75.116028,2.368319,2.941688,-3.028622,-17.066544,-10.673691,38.036247,-4.400618,-22.830359,-19.195713,-13.512104,-20.161877,-19.630692,-15.989914,-9.362278,-15.692711,-12.228378,-22.216387,-10.770994,-11.189660,-4.240620,-21.514919,-20.647934,33.983383,-8.727275,-4.363016,2.880213,10.590018,-5.748125,67.734352,8064.000000,0.000000,4.000000,,,,0.000000,4.000000,4.000000,4.000000,4.000000,4.000000,4.000000,4.000000,4.000000,4.000000,4.000000,4.000000,4.000000,4.000000,4.000000,4.000000,4.000000,4.000000,4.000000,4.000000,4.000000,4.000000,4.000000,4.000000,4.000000,4.000000,4.000000,4.000000,4.000000,4.000000,4.000000,4.000000,4.000000,100.000000
1614561606.455852,45.000000,0.000000,-5.531789,11.343146,65.297318,-5.839178,2.938746,-3.025593,-17.562296,-12.201479,31.844366,-9.011601,-27.935732,-20.714979,-14.011412,-20.654535,-24.739265,-20.076488,-9.352916,-20.805223,-12.216150,-21.168530,-13.837146,-11.178471,-4.236379,-20.980583,-21.140106,33.436577,-8.718548,-4.358653,2.877333,10.066608,-8.819300,66.128159,8064.000000,0.000000,4.000000,,,,0.000000,4.000000,4.000000,4.000000,4.000000,4.000000,4.000000,4.000000,4.000000,4.000000,4.000000,4.000000,4.000000,4.000000,4.000000,4.000000,4.000000,4.000000,4.000000,4.000000,4.000000,4.000000,4.000000,4.000000,4.000000,4.000000,4.000000,4.000000,4.000000,4.000000,4.000000,4.000000,4.000000,100.000000
1614561606.463601,46.000000,0.000000,-5.526258,11.331803,53.949970,-6.346159,2.422987,-3.022568,-15.493452,-10.650816,27.197136,-9.515410,-29.446259,-19.668623,-12.971760,-20.633881,-28.304270,-20.056412,-8.830743,-21.297239,-12.203934,-21.147362,-13.823309,-11.167292,-4.232142,-19.421141,-16.503582,32.890320,-4.094445,-3.841473,2.874456,10.056541,-4.707916,69.138954,8064.000000,0.000000,4.000000,,,,0.000000,4.000000,4.000000,4.000000,4.000000,4.000000,4.000000,4.000000,4.000000,4.000000,4.000000,4.000000,4.000000,4.000000,4.000000,4.000000,4.000000,4.000000,4.000000,4.000000,4.000000,4.000000,4.000000,4.000000,4.000000,4.000000,4.000000,4.000000,4.000000,4.000000,4.000000,4.000000,4.000000,100.000000
1614561606.471250,47.000000,0.000000,-5.520731,11.320471,55.434483,6.993521,3.446205,-3.019545,-12.913857,-6.024780,30.246862,-8.993074,-28.391171,-16.572031,-7.830583,-20.613247,-27.763145,-19.523535,-9.334732,-21.275942,-12.704551,-19.074932,-15.347947,-11.156125,-4.227911,-17.350437,-13.922976,32.857430,-0.500607,-4.863273,2.871582,10.046485,3.501920,75.736481,8064.000000,0.000000,4.000000,,,,0.000000,4.000000,4.000000,4.000000,4.000000,4.000000,4.000000,4.000000,4.000000,4.000000,4.000000,4.000000,4.000000,4.000000,4.000000,4.000000,4.000000,4.000000,4.000000,4.000000,4.000000,4.000000,4.000000,4.000000,4.000000,4.000000,4.000000,4.000000,4.000000,4.000000,4.000000,4.000000,4.000000,100.000000
1614561606.478999,48.000000,0.000000,-5.515211,11.821971,61.532894,15.191655,5.494040,-2.503705,-8.798378,-3.454653,31.755077,-9.496902,-27.849960,-15.529819,-4.745829,-20.079813,-24.658459,-16.939909,-11.376679,-20.741844,-12.179026,-17.004576,-19.435163,-11.144968,-3.710862,-17.333088,-14.934694,33.337395,-4.602670,-7.422512,2.868710,10.036439,-2.655428,76.686386,8064.000000,0.000000,4.000000,,,,0.000000,4.000000,4.000000,4.000000,4.000000,4.000000,4.000000,4.000000,4.000000,4.000000,4.000000,4.000000,4.000000,4.000000,4.000000,4.000000,4.000000,4.000000,4.000000,4.000000,4.000000,4.000000,4.000000,4.000000,4.000000,4.000000,4.000000,4.000000,4.000000,4.000000,4.000000,4.000000,4.000000,100.000000
1614561606.486649,49.000000,0.000000,-5.509696,10.271688,62.497002,13.638002,7.027008,-2.501201,-5.712657,-2.938378,30.697681,-8.461764,-28.847750,-16.027109,-5.253904,-20.059732,-21.556877,-15.897327,-12.903765,-20.208282,-12.166846,-17.500391,-21.979832,-11.133823,-4.219972,-17.828575,-14.919760,33.816875,-9.213452,-8.440731,2.865841,10.539223,-14.447644,74.558418,8064.000000,0.000000,4.000000,,,,0.000000,4.000000,4.000000,4.000000,4.000000,4.000000,4.000000,4.000000,4.000000,4.000000,4.000000,4.000000,4.000000,4.000000,4.000000,4.000000,4.000000,4.000000,4.000000,4.000000,4.000000,4.000000,4.000000,4.000000,4.000000,4.000000,4.000000,4.000000,4.000000,4.000000,4.000000,4.000000,4.000000,100.000000
1614561606.494498,50.000000,0.000000,-5.504186,8.210134,61.408867,13.111544,6.507161,-3.524341,-5.706944,-4.473901,31.179804,-9.478943,-28.818903,-16.523903,-5.761470,-21.065313,-18.971218,-14.855789,-13.916502,-21.213715,-12.667500,-17.995710,-21.957851,-11.122689,-5.754213,-17.810747,-14.392019,32.757420,-8.691419,-7.919469,2.862975,8.477402,-10.330632,74.483856,8064.000000,0.000000,4.000000,,,,0.000000,4.000000,4.000000,4.000000,4.000000,4.000000,4.000000,4.000000,4.000000,4.000000,4.000000,4.000000,4.000000,4.000000,4.000000,4.000000,4.000000,4.000000,4.000000,4.000000,4.000000,4.000000,4.000000,4.000000,4.000000,4.000000,4.000000,4.000000,4.000000,4.000000,4.000000,4.000000,4.000000,100.000000
1614561606.502247,51.000000,0.000000,-5.498682,7.176283,61.860275,13.611253,6.500653,-3.007996,-5.701237,-4.469427,31.148624,-9.469464,-18.533674,-15.994558,-5.755709,-17.967325,-13.824041,-7.148626,-11.851303,-14.525835,-11.629191,-17.464895,-21.423073,-11.111567,-7.799741,-16.767294,-14.377627,33.237480,-8.169907,-7.911550,2.860112,6.930462,-2.115174,74.922195,8064.000000,0.000000,4.000000,,,,0.000000,4.000000,4.000000,4.000000,4.000000,4.000000,4.000000,4.000000,4.000000,4.000000,4.000000,4.000000,4.000000,4.000000,4.000000,4.000000,4.000000,4.000000,4.000000,4.000000,4.000000,4.000000,4.000000,4.000000,4.000000,4.000000,4.000000,4.000000,4.000000,4.000000,4.000000,4.000000,4.000000,100.000000
1614561606.510096,52.000000,0.000000,-5.493183,7.681927,62.824059,14.623282,6.494153,-1.979347,-9.285279,1.688888,31.630297,-3.818969,-4.156166,-11.875999,-5.237133,-10.769871,-6.117910,5.166215,-7.224067,2.411768,-7.002178,-17.447430,-17.299086,-10.587635,-7.791941,-14.186425,-13.850429,34.229885,-8.674557,-7.903638,2.857252,6.410711,-4.164340,74.847275,8192.000000,0.000000,4.000000,,,,0.000000,4.000000,4.000000,4.000000,4.000000,4.000000,4.000000,4.000000,4.000000,4.000000,4.000000,4.000000,4.000000,4.000000,4.000000,4.000000,4.000000,4.000000,4.000000,4.000000,4.000000,4.000000,4.000000,4.000000,4.000000,4.000000,4.000000,4.000000,4.000000,4.000000,4.000000,4.000000,4.000000,100.000000
1614561606.517845,53.000000,0.000000,-5.487689,7.674245,61.735592,13.070197,6.487659,-8.131214,-17.481123,4.251302,31.085846,-1.251048,-0.049445,-9.300021,-7.283178,-7.682178,-3.034869,9.776434,-4.652741,11.640125,-3.918253,-17.429983,-13.692042,-10.577047,-7.271329,-13.659418,-15.375040,29.580271,-8.153062,-7.382914,2.854395,4.865839,-6.724279,73.233963,8064.000000,0.000000,4.000000,,,,0.000000,4.000000,4.000000,4.000000,4.000000,4.000000,4.000000,4.000000,4.000000,4.000000,4.000000,4.000000,4.000000,4.000000,4.000000,4.000000,4.000000,4.000000,4.000000,4.000000,4.000000,4.000000,4.000000,4.000000,4.000000,4.000000,4.000000,4.000000,4.000000,4.000000,4.000000,4.000000,4.000000,100.000000
1614561606.525694,54.000000,0.000000,-5.482202,7.666571,52.955910,3.313538,6.993991,-18.379494,-22.079025,-6.522180,25.926554,-7.916463,-2.613498,-12.880465,-10.352818,-9.212957,-9.698501,4.638452,-5.673729,2.910536,-4.427155,-17.925373,-13.678350,-11.592112,-6.751237,-13.645759,-16.898127,22.371202,-8.657729,-7.888352,2.851541,2.296871,-7.230375,64.955605,8064.000000,0.000000,4.000000,,,,0.000000,4.000000,4.000000,4.000000,4.000000,4.000000,4.000000,4.000000,4.000000,4.000000,4.000000,4.000000,4.000000,4.000000,4.000000,4.000000,4.000000,4.000000,4.000000,4.000000,4.000000,4.000000,4.000000,4.000000,4.000000,4.000000,4.000000,4.000000,4.000000,4.000000,4.000000,4.000000,4.000000,100.000000
1614561606.533443,55.000000,0.000000,-5.476720,7.658904,44.185005,-5.407725,5.961357,-16.822653,-18.467203,-12.156683,19.746782,-13.549572,-1.585244,-12.354764,-8.804003,-9.716565,-12.252905,-1.007212,-6.180876,-5.810323,-5.448369,-17.907448,-14.177493,-11.067698,-8.282948,-14.144933,-19.958151,20.810369,-8.136251,-7.880464,2.848689,2.294574,-11.838530,53.608593,8192.000000,0.000000,4.000000,,,,0.000000,4.000000,4.000000,4.000000,4.000000,4.000000,4.000000,4.000000,4.000000,4.000000,4.000000,4.000000,4.000000,4.000000,4.000000,4.000000,4.000000,4.000000,4.000000,4.000000,4.000000,4.000000,4.000000,4.000000,4.000000,4.000000,4.000000,4.000000,4.000000,4.000000,4.000000,4.000000,4.000000,100.000000
1614561606.541292,56.000000,0.000000,-5.471243,7.651245,43.115177,-3.351035,6.468215,-6.036599,-10.243608,-4.965040,18.701393,-11.997561,-1.070838,-4.650101,-3.666994,-8.168386,-6.086805,1.045077,-4.636233,-4.778872,-5.955741,-18.402361,-14.676136,-10.030990,-8.274664,-18.233353,-25.066399,22.328022,-8.128115,-6.846942,3.358661,3.317920,-16.442076,46.375500,8064.000000,0.000000,4.000000,,,,0.000000,4.000000,4.000000,4.000000,4.000000,4.000000,4.000000,4.000000,4.000000,4.000000,4.000000,4.000000,4.000000,4.000000,4.000000,4.000000,4.000000,4.000000,4.000000,4.000000,4.000000,4.000000,4.000000,4.000000,4.000000,4.000000,4.000000,4.000000,4.000000,4.000000,4.000000,4.000000,4.000000,100.000000
1614561606.549041,57.000000,0.000000,-5.465772,7.643594,42.559242,-2.322043,7.487389,-1.927998,-5.617980,-5.985715,20.221153,-14.036846,-6.710793,-9.260836,-1.612045,-9.698680,-10.696103,-4.084173,-7.195700,-7.338195,-11.077991,-24.024984,-19.276844,-15.661984,-6.215107,-23.856144,-30.169537,19.741590,-12.735372,-10.429838,2.842482,1.776141,-23.092300,44.277840,8064.000000,0.000000,4.000000,,,,0.000000,4.000000,4.000000,4.000000,4.000000,4.000000,4.000000,4.000000,4.000000,4.000000,4.000000,4.000000,4.000000,4.000000,4.000000,4.000000,4.000000,4.000000,4.000000,4.000000,4.000000,4.000000,4.000000,4.000000,4.000000,4.000000,4.000000,4.000000,4.000000,4.000000,4.000000,4.000000,4.000000,100.000000
1614561606.556890,58.000000,0.000000,-5.973126,7.635951,39.439758,-12.063311,3.377337,-3.977352,-7.150824,-15.723319,19.175291,-19.151014,-13.370749,-18.995165,-3.148895,-15.330007,-26.070023,-23.567268,-12.316710,-15.535985,-17.220758,-30.667625,-26.437056,-22.312990,-13.388380,-26.909212,-31.165009,17.157747,-20.414944,-19.650179,0.275537,-0.789738,-31.787157,44.233562,8064.000000,0.000000,4.000000,,,,0.000000,4.000000,4.000000,4.000000,4.000000,4.000000,4.000000,4.000000,4.000000,4.000000,4.000000,4.000000,4.000000,4.000000,4.000000,4.000000,4.000000,4.000000,4.000000,4.000000,4.000000,4.000000,4.000000,4.000000,4.000000,4.000000,4.000000,4.000000,4.000000,4.000000,4.000000,4.000000,4.000000,100.000000
1614561606.564639,59.000000,0.000000,-4.941512,7.628314,39.400318,-17.179453,-0.728604,-2.434913,-4.066750,-10.066570,19.156116,-20.670324,-15.408660,-12.309503,-1.094464,-14.801856,-26.043953,-30.723188,-10.765931,-16.546091,-14.126615,-26.534393,-23.846516,-17.675291,-28.759607,-24.318199,-27.544100,18.679050,-20.394529,-22.194630,-1.263200,-1.301769,-31.242548,43.676510,8064.000000,0.000000,4.000000,,,,0.000000,4.000000,4.000000,4.000000,4.000000,4.000000,4.000000,4.000000,4.000000,4.000000,4.000000,4.000000,4.000000,4.000000,4.000000,4.000000,4.000000,4.000000,4.000000,4.000000,4.000000,4.000000,4.000000,4.000000,4.000000,4.000000,4.000000,4.000000,4.000000,4.000000,4.000000,4.000000,4.000000,100.000000
1614561606.572488,60.000000,0.000000,-2.372468,7.620686,42.950665,-12.034068,3.887509,1.157265,8.757830,4.815291,23.752344,-20.136833,-11.290688,2.061781,4.034836,-7.607567,-12.171755,-17.359131,-4.088498,-12.426980,-4.881719,-15.225808,-12.540617,-10.990950,-27.705206,-15.063112,-21.875530,23.275757,-14.220288,-18.069872,-0.749117,-0.787646,-19.929255,44.145653,8064.000000,0.000000,4.000000,,,,0.000000,4.000000,4.000000,4.000000,4.000000,4.000000,4.000000,4.000000,4.000000,4.000000,4.000000,4.000000,4.000000,4.000000,4.000000,4.000000,4.000000,4.000000,4.000000,4.000000,4.000000,4.000000,4.000000,4.000000,4.000000,4.000000,4.000000,4.000000,4.000000,4.000000,4.000000,4.000000,4.000000,100.000000
1614561606.580237,61.000000,0.000000,-1.344455,7.613065,43.933353,-7.919470,6.447724,1.668929,14.390098,8.400219,27.318336,-17.552595,-8.202474,3.085360,6.082083,-5.035857,-8.057019,-9.649465,-1.007487,-11.388912,-2.312735,-10.082377,-7.399871,-12.005600,-10.241603,-6.842921,-17.238270,26.329403,-12.667606,-16.000519,-0.748367,-1.299679,-12.729838,46.665611,8064.000000,0.000000,4.000000,,,,0.000000,4.000000,4.000000,4.000000,4.000000,4.000000,4.000000,4.000000,4.000000,4.000000,4.000000,4.000000,4.000000,4.000000,4.000000,4.000000,4.000000,4.000000,4.000000,4.000000,4.000000,4.000000,4.000000,4.000000,4.000000,4.000000,4.000000,4.000000,4.000000,4.000000,4.000000,4.000000,4.000000,100.000000
1614561606.588086,62.000000,0.000000,-2.368751,7.605453,43.376598,-9.450011,-0.225391,0.128798,9.760324,6.853357,27.291018,-13.432478,-7.168630,0.518172,5.050360,-6.056462,-10.100244,-7.075713,-3.057761,-5.736497,0.766501,-10.072295,-6.879651,-8.403851,-3.051875,-6.323257,-13.631289,25.790253,-11.629297,-12.907597,-0.747619,-1.298380,-11.178647,48.670227,8064.000000,0.000000,4.000000,,,,0.000000,4.000000,4.000000,4.000000,4.000000,4.000000,4.000000,4.000000,4.000000,4.000000,4.000000,4.000000,4.000000,4.000000,4.000000,4.000000,4.000000,4.000000,4.000000,4.000000,4.000000,4.000000,4.000000,4.000000,4.000000,4.000000,4.000000,4.000000,4.000000,4.000000,4.000000,4.000000,4.000000,100.000000
1614561606.595835,63.000000,0.000000,-2.366383,7.597847,43.333221,-3.799536,-1.250806,1.667131,9.237742,6.333683,26.750906,-11.880584,-0.494795,3.594577,5.045310,-5.537585,-5.474759,4.726234,-2.029063,7.602572,10.509324,-7.498120,0.819536,2.373784,-4.074464,-6.316935,-10.540734,25.251642,-7.002284,-4.176740,-0.746871,-0.784261,-10.141828,47.595917,8064.000000,0.000000,4.000000,,,,0.000000,4.000000,4.000000,4.000000,4.000000,4.000000,4.000000,4.000000,4.000000,4.000000,4.000000,4.000000,4.000000,4.000000,4.000000,4.000000,4.000000,4.000000,4.000000,4.000000,4.000000,4.000000,4.000000,4.000000,4.000000,4.000000,4.000000,4.000000,4.000000,4.000000,4.000000,4.000000,4.000000,100.000000
1614561606.603684,64.000000,0.000000,-0.825555,7.590249,43.289890,5.947853,-0.736735,0.127002,8.202864,2.224786,27.236977,-11.868703,6.685187,0.001239,6.065906,-5.532048,-0.341079,11.388175,-1.001392,14.261637,16.139841,-4.926519,1.331537,2.371410,2.083457,-5.284976,-10.017373,26.252031,-3.405538,-3.146922,-0.746125,-1.296297,-9.618865,48.061138,0.000000,211.000000,4.000000,,,,0.000000,4.000000,4.000000,4.000000,4.000000,4.000000,4.000000,4.000000,4.000000,4.000000,4.000000,4.000000,4.000000,4.000000,4.000000,4.000000,4.000000,4.000000,4.000000,4.000000,4.000000,4.000000,4.000000,4.000000,4.000000,4.000000,4.000000,4.000000,4.000000,4.000000,4.000000,4.000000,4.000000,100.000000
1614561606.611433,65.000000,0.000000,-2.876011,7.582659,43.246601,2.864982,-9.453947,-7.052612,-8.215595,-4.444106,27.209740,-12.369655,4.627220,-9.742352,4.008557,-5.013695,-1.366379,10.863966,-2.538853,12.708913,13.559599,-6.460054,-8.926205,-2.759166,4.645476,-6.818153,-11.032996,25.200140,-4.940594,-8.784801,-0.745378,-1.295001,-8.583605,52.628464,0.000000,180.000000,4.000000,,,,0.000000,4.000000,4.000000,4.000000,4.000000,4.000000,4.000000,4.000000,4.000000,4.000000,4.000000,4.000000,4.000000,4.000000,4.000000,4.000000,4.000000,4.000000,4.000000,4.000000,4.000000,4.000000,4.000000,4.000000,4.000000,4.000000,4.000000,4.000000,4.000000,4.000000,4.000000,4.000000,4.000000,100.000000
1614561606.619082,66.000000,0.000000,-2.360315,7.062256,43.203354,-4.830190,-8.418852,-10.122482,-18.976610,-5.978123,26.669708,-12.357285,6.161054,-6.655686,2.466087,1.145164,-0.852192,21.622334,0.540609,14.747486,14.571680,-6.453594,-1.737791,1.346157,-0.487375,-0.657489,-10.509143,25.174938,-4.935653,-2.109349,-0.744633,1.270397,-6.523739,56.165577,0.000000,176.000000,4.000000,,,,0.000000,4.000000,4.000000,4.000000,4.000000,4.000000,4.000000,4.000000,4.000000,4.000000,4.000000,4.000000,4.000000,4.000000,4.000000,4.000000,4.000000,4.000000,4.000000,4.000000,4.000000,4.000000,4.000000,4.000000,4.000000,4.000000,4.000000,4.000000,4.000000,4.000000,4.000000,4.000000,4.000000,100.000000
1614561606.626831,67.000000,0.000000,8.411277,7.055193,42.647331,-0.722796,5.435721,-4.984155,-7.675583,-0.843940,26.643040,-9.780826,15.385662,6.171482,4.002083,6.785045,2.738404,29.805840,7.206736,18.322483,13.531467,-5.934320,11.597280,9.549939,3.615677,7.548297,-10.498633,27.201046,-1.340974,10.713273,-0.743888,5.371691,-6.004395,55.596592,0.000000,192.000000,4.000000,,,,0.000000,4.000000,4.000000,4.000000,4.000000,4.000000,4.000000,4.000000,4.000000,4.000000,4.000000,4.000000,4.000000,4.000000,4.000000,4.000000,4.000000,4.000000,4.000000,4.000000,4.000000,4.000000,4.000000,4.000000,4.000000,4.000000,4.000000,4.000000,4.000000,4.000000,4.000000,4.000000,4.000000,100.000000
1614561606.634481,68.000000,0.000000,16.607994,7.560959,43.117504,3.893311,10.558490,-1.902248,5.152606,5.310750,26.616396,-8.745403,10.754892,7.703772,5.536542,5.239799,2.735665,13.365777,9.250811,13.175955,0.697423,-10.030951,-2.260471,8.514748,6.688984,-1.690020,-11.000956,29.225126,-2.878094,6.599996,-0.743145,6.391960,-6.511211,55.028175,0.000000,220.000000,4.000000,,,,0.000000,4.000000,4.000000,4.000000,4.000000,4.000000,4.000000,4.000000,4.000000,4.000000,4.000000,4.000000,4.000000,4.000000,4.000000,4.000000,4.000000,4.000000,4.000000,4.000000,4.000000,4.000000,4.000000,4.000000,4.000000,4.000000,4.000000,4.000000,4.000000,4.000000,4.000000,4.000000,4.000000,100.000000
1614561606.642230,69.000000,0.000000,10.950359,7.040577,43.074387,-0.213146,5.932547,-3.438807,4.634632,7.356721,26.589779,-14.890504,-7.717402,0.516581,5.018185,-0.406467,-2.395276,-6.134768,3.600534,2.393548,-11.610967,-16.174765,-23.796673,-0.211715,-3.574115,-19.124228,-10.989955,29.195902,-8.516242,-5.714297,-0.742401,6.385568,-6.504700,55.485970,0.000000,154.000000,4.000000,,,,0.000000,4.000000,4.000000,4.000000,4.000000,4.000000,4.000000,4.000000,4.000000,4.000000,4.000000,4.000000,4.000000,4.000000,4.000000,4.000000,4.000000,4.000000,4.000000,4.000000,4.000000,4.000000,4.000000,4.000000,4.000000,4.000000,4.000000,4.000000,4.000000,4.000000,4.000000,4.000000,4.000000,100.000000
1614561606.649879,70.000000,0.000000,4.272743,7.546357,42.518490,0.812708,5.413794,-3.435368,3.604357,6.323724,26.563190,-15.388434,-15.401992,-2.048038,5.013167,-2.457343,-5.982624,-11.256839,-2.044092,-3.249871,-13.137817,-18.722692,-26.849798,-7.390991,-12.801310,-22.694847,-10.978965,28.141066,-9.020546,-8.785505,-1.254480,6.379182,-4.959734,54.917660,0.000000,214.000000,4.000000,,,,0.000000,4.000000,4.000000,4.000000,4.000000,4.000000,4.000000,4.000000,4.000000,4.000000,4.000000,4.000000,4.000000,4.000000,4.000000,4.000000,4.000000,4.000000,4.000000,4.000000,4.000000,4.000000,4.000000,4.000000,4.000000,4.000000,4.000000,4.000000,4.000000,4.000000,4.000000,4.000000,4.000000,100.000000
1614561606.657628,71.000000,0.000000,5.294111,12.667016,45.040073,8.504203,7.459662,-2.406292,5.139214,7.343041,28.587908,-7.680738,-14.360949,-1.020349,5.008154,-2.454885,-5.976642,-13.809685,-5.631792,-3.759442,-13.124680,-17.165508,-26.310129,-8.409241,-12.275688,-22.672152,-10.967986,31.189848,-5.934603,-7.238258,0.798057,6.372803,-2.903492,55.375565,0.000000,219.000000,4.000000,,,,0.000000,4.000000,4.000000,4.000000,4.000000,4.000000,4.000000,4.000000,4.000000,4.000000,4.000000,4.000000,4.000000,4.000000,4.000000,4.000000,4.000000,4.000000,4.000000,4.000000,4.000000,4.000000,4.000000,4.000000,4.000000,4.000000,4.000000,4.000000,4.000000,4.000000,4.000000,4.000000,4.000000,100.000000
1614561606.665277,72.000000,0.000000,5.801638,18.295374,49.097599,11.059801,7.965023,-2.916706,5.646895,9.899800,32.149063,-4.596134,-15.372229,-1.532149,4.490325,-1.939610,-5.970665,-12.257413,-7.164621,-3.242862,-15.162837,-14.584241,-22.694075,-7.888011,-11.237772,-22.136660,-11.469838,35.261223,-5.415848,-8.256661,2.848541,6.879251,-2.900589,55.320190,0.000000,167.000000,4.000000,,,,0.000000,4.000000,4.000000,4.000000,4.000000,4.000000,4.000000,4.000000,4.000000,4.000000,4.000000,4.000000,4.000000,4.000000,4.000000,4.000000,4.000000,4.000000,4.000000,4.000000,4.000000,4.000000,4.000000,4.000000,4.000000,4.000000,4.000000,4.000000,4.000000,4.000000,4.000000,4.000000,4.000000,100.000000
1614561606.673026,73.000000,0.000000,4.770195,18.789900,50.586964,8.997459,9.495520,-2.913789,7.179710,10.915542,34.168198,-5.104359,-10.228651,-2.043437,4.998655,-2.963311,-5.964694,-4.040028,-5.618995,0.862945,-8.481008,-10.979913,-7.799586,-7.367302,-9.688072,-9.294010,-11.458368,36.764423,-3.359150,-8.248405,3.358513,8.923654,-2.897688,53.726406,0.000000,176.000000,4.000000,,,,0.000000,4.000000,4.000000,4.000000,4.000000,4.000000,4.000000,4.000000,4.000000,4.000000,4.000000,4.000000,4.000000,4.000000,4.000000,4.000000,4.000000,4.000000,4.000000,4.000000,4.000000,4.000000,4.000000,4.000000,4.000000,4.000000,4.000000,4.000000,4.000000,4.000000,4.000000,4.000000,4.000000,100.000000
1614561606.680675,74.000000,0.000000,4.765425,18.258289,50.536377,9.501283,9.998845,-2.910875,8.710992,10.904626,34.134029,-2.535152,-3.551756,-2.554214,4.993657,-1.934707,-5.958729,-1.984706,-3.562094,3.426185,-0.267398,-10.456113,1.951804,-5.308653,-5.575820,4.048617,-8.882808,36.214836,2.285235,-9.265798,2.842334,9.940372,-2.894790,55.723961,0.000000,179.000000,4.000000,,,,0.000000,4.000000,4.000000,4.000000,4.000000,4.000000,4.000000,4.000000,4.000000,4.000000,4.000000,4.000000,4.000000,4.000000,4.000000,4.000000,4.000000,4.000000,4.000000,4.000000,4.000000,4.000000,4.000000,4.000000,4.000000,4.000000,4.000000,4.000000,4.000000,4.000000,4.000000,4.000000,4.000000,100.000000
1614561606.688424,75.000000,0.000000,4.760659,18.752851,49.460197,10.004601,9.988846,-2.907964,8.702281,9.868081,34.099895,-0.994155,-2.522563,-1.013199,5.501483,3.195433,-3.901489,0.581382,2.595314,4.448400,1.271331,-10.445657,0.924211,-2.739242,-3.006142,5.583030,-6.822643,35.152981,1.257309,-6.179608,2.839492,9.930430,-3.404716,55.155418,0.000000,200.000000,4.000000,,,,0.000000,4.000000,4.000000,4.000000,4.000000,4.000000,4.000000,4.000000,4.000000,4.000000,4.000000,4.000000,4.000000,4.000000,4.000000,4.000000,4.000000,4.000000,4.000000,4.000000,4.000000,4.000000,4.000000,4.000000,4.000000,4.000000,4.000000,4.000000,4.000000,4.000000,4.000000,4.000000,4.000000,100.000000
1614561606.696074,76.000000,0.000000,5.781539,18.734098,45.308174,9.994597,9.978857,-3.417877,8.180758,10.883854,34.065796,-4.070084,10.813293,4.116020,7.547264,6.781981,1.743438,15.965416,11.823488,17.777285,11.013649,-6.332647,4.000210,0.853241,-1.977494,11.731293,-7.328640,33.066547,-4.897795,3.057340,2.836652,9.920501,-2.888491,47.920776,0.000000,202.000000,4.000000,,,,0.000000,4.000000,4.000000,4.000000,4.000000,4.000000,4.000000,4.000000,4.000000,4.000000,4.000000,4.000000,4.000000,4.000000,4.000000,4.000000,4.000000,4.000000,4.000000,4.000000,4.000000,4.000000,4.000000,4.000000,4.000000,4.000000,4.000000,4.000000,4.000000,4.000000,4.000000,4.000000,4.000000,100.000000
1614561606.703823,77.000000,0.000000,7.827040,18.202543,41.673122,9.471782,9.968878,-2.388818,7.659757,10.360149,34.031731,-5.604475,31.828121,6.163186,11.642282,11.390584,7.382720,28.769962,18.991152,35.708225,32.028278,1.878814,11.175696,7.006234,0.588586,23.514433,-6.295671,32.007839,-4.380076,7.669668,2.833816,9.397759,-0.834320,45.821571,0.000000,188.000000,4.000000,,,,0.000000,4.000000,4.000000,4.000000,4.000000,4.000000,4.000000,4.000000,4.000000,4.000000,4.000000,4.000000,4.000000,4.000000,4.000000,4.000000,4.000000,4.000000,4.000000,4.000000,4.000000,4.000000,4.000000,4.000000,4.000000,4.000000,4.000000,4.000000,4.000000,4.000000,4.000000,4.000000,4.000000,100.000000
1614561606.711472,78.000000,0.000000,9.357675,18.184341,42.144268,8.436669,9.958909,-0.335147,8.677738,6.247225,33.484879,-5.086051,35.898857,6.157022,14.707561,16.507399,10.452261,30.279655,23.074724,37.723801,40.714195,6.492320,16.292727,12.127433,4.690561,21.952457,-1.673991,31.975830,1.265329,7.149178,2.830982,10.414002,1.217796,52.442417,0.000000,201.000000,4.000000,,,,0.000000,4.000000,4.000000,4.000000,4.000000,4.000000,4.000000,4.000000,4.000000,4.000000,4.000000,4.000000,4.000000,4.000000,4.000000,4.000000,4.000000,4.000000,4.000000,4.000000,4.000000,4.000000,4.000000,4.000000,4.000000,4.000000,4.000000,4.000000,4.000000,4.000000,4.000000,4.000000,4.000000,100.000000
1614561606.719221,79.000000,0.000000,9.348317,18.166157,45.691868,9.966694,9.948951,1.203649,7.130599,2.651234,33.451393,-5.080965,24.068087,6.663686,10.077470,13.413968,10.441809,27.685272,18.436266,28.968126,28.878611,3.408905,15.250793,9.551203,7.762794,7.058710,0.891786,31.943855,3.315346,7.654849,2.828151,12.454870,3.267860,55.466900,0.000000,201.000000,4.000000,,,,0.000000,4.000000,4.000000,4.000000,4.000000,4.000000,4.000000,4.000000,4.000000,4.000000,4.000000,4.000000,4.000000,4.000000,4.000000,4.000000,4.000000,4.000000,4.000000,4.000000,4.000000,4.000000,4.000000,4.000000,4.000000,4.000000,4.000000,4.000000,4.000000,4.000000,4.000000,4.000000,4.000000,100.000000
1614561606.726870,80.000000,0.000000,7.800507,18.660812,44.620537,10.469548,9.939001,0.689625,-2.107301,2.648583,34.443581,-5.075883,7.120941,0.503176,-2.240300,3.656964,4.790341,16.888357,2.520393,20.221210,10.901014,-6.338094,1.902208,-3.278862,6.216569,-11.922708,-1.673208,32.424732,1.773569,3.031809,2.825323,11.929595,4.803054,53.872971,0.000000,177.000000,4.000000,,,,0.000000,4.000000,4.000000,4.000000,4.000000,4.000000,4.000000,4.000000,4.000000,4.000000,4.000000,4.000000,4.000000,4.000000,4.000000,4.000000,4.000000,4.000000,4.000000,4.000000,4.000000,4.000000,4.000000,4.000000,4.000000,4.000000,4.000000,4.000000,4.000000,4.000000,4.000000,4.000000,4.000000,100.000000
1614561606.734719,81.000000,0.000000,4.202963,18.642151,36.883606,2.766771,9.929063,0.688936,-8.771861,3.158755,32.357857,-8.147731,-12.886180,-8.728096,-10.443188,0.063563,-3.419577,-2.102891,-10.302640,7.893296,-3.981682,-17.100986,-18.099693,-17.121737,-0.969134,-28.833862,-5.774099,32.392307,-0.792307,-6.201992,2.822497,9.866384,4.285430,54.844738,0.000000,198.000000,4.000000,,,,0.000000,4.000000,4.000000,4.000000,4.000000,4.000000,4.000000,4.000000,4.000000,4.000000,4.000000,4.000000,4.000000,4.000000,4.000000,4.000000,4.000000,4.000000,4.000000,4.000000,4.000000,4.000000,4.000000,4.000000,4.000000,4.000000,4.000000,4.000000,4.000000,4.000000,4.000000,4.000000,4.000000,100.000000
1614561606.742468,82.000000,0.000000,1.121837,17.085047,35.308262,0.712722,9.919133,0.688247,-1.583602,2.642776,27.197294,-9.165224,-22.616884,-8.206548,-9.919925,2.114782,-6.493081,-9.793096,-10.805158,-0.319725,-10.644366,-20.673630,-24.235441,-20.181538,-7.122012,-30.343489,-6.793966,31.847094,-1.817156,-8.247071,2.819675,9.343697,4.281145,53.764252,0.000000,176.000000,4.000000,,,,0.000000,4.000000,4.000000,4.000000,4.000000,4.000000,4.000000,4.000000,4.000000,4.000000,4.000000,4.000000,4.000000,4.000000,4.000000,4.000000,4.000000,4.000000,4.000000,4.000000,4.000000,4.000000,4.000000,4.000000,4.000000,4.000000,4.000000,4.000000,4.000000,4.000000,4.000000,4.000000,4.000000,100.000000
1614561606.750317,83.000000,0.000000,1.633536,18.606424,45.016544,9.942779,9.909214,0.687558,10.212853,2.640133,26.657276,-5.053494,-16.440420,-2.044495,-9.397183,1.599847,-5.460947,-6.193559,-10.281532,2.244697,-6.018338,-12.960648,-14.467615,-14.007510,-9.166171,-15.441351,-4.735890,32.328068,-0.276877,-4.649081,3.329675,9.847174,6.840966,55.248951,0.000000,176.000000,4.000000,,,,0.000000,4.000000,4.000000,4.000000,4.000000,4.000000,4.000000,4.000000,4.000000,4.000000,4.000000,4.000000,4.000000,4.000000,4.000000,4.000000,4.000000,4.000000,4.000000,4.000000,4.000000,4.000000,4.000000,4.000000,4.000000,4.000000,4.000000,4.000000,4.000000,4.000000,4.000000,4.000000,4.000000,100.000000
1614561606.758066,84.000000,0.000000,1.631902,18.587816,51.125374,9.420015,9.899305,0.686871,12.766744,3.150313,30.220362,-0.945877,-8.731672,-1.016810,-10.413427,0.572606,-5.968306,-5.161725,-8.219969,3.780914,0.141527,-2.178457,-2.145455,-5.788374,-5.054441,-3.631038,-3.192693,32.295738,2.287503,-5.157252,2.813525,9.837326,8.372587,61.347546,0.000000,217.000000,4.000000,,,,0.000000,4.000000,4.000000,4.000000,4.000000,4.000000,4.000000,4.000000,4.000000,4.000000,4.000000,4.000000,4.000000,4.000000,4.000000,4.000000,4.000000,4.000000,4.000000,4.000000,4.000000,4.000000,4.000000,4.000000,4.000000,4.000000,4.000000,4.000000,4.000000,4.000000,4.000000,4.000000,4.000000,100.000000
1614561606.765915,85.000000,0.000000,1.117450,11.389742,49.535786,1.718287,9.889405,0.686184,11.728335,5.198445,26.600397,-0.944931,-6.671659,-2.041434,-9.890194,1.597674,-5.962338,-5.669383,-1.545082,4.289954,1.679847,1.413465,2.984895,-1.167201,0.591639,-3.114586,-3.702321,28.673700,2.285215,-3.100813,0.759430,9.827489,8.364214,57.696457,0.000000,220.000000,4.000000,,,,0.000000,4.000000,4.000000,4.000000,4.000000,4.000000,4.000000,4.000000,4.000000,4.000000,4.000000,4.000000,4.000000,4.000000,4.000000,4.000000,4.000000,4.000000,4.000000,4.000000,4.000000,4.000000,4.000000,4.000000,4.000000,4.000000,4.000000,4.000000,4.000000,4.000000,4.000000,4.000000,4.000000,100.000000
1614561606.773664,86.000000,0.000000,1.629153,7.788609,49.486252,5.306313,9.879517,1.198318,12.742249,7.244528,23.496874,-1.456807,-3.588064,-1.013751,-9.367483,2.108897,-5.443555,-4.638073,2.046207,5.824125,2.703808,0.899231,3.494731,-0.140393,3.155150,-3.111472,-3.185798,25.055283,2.795750,5.107416,-0.779791,9.817661,7.330209,47.382347,0.000000,178.000000,4.000000,,,,0.000000,4.000000,4.000000,4.000000,4.000000,4.000000,4.000000,4.000000,4.000000,4.000000,4.000000,4.000000,4.000000,4.000000,4.000000,4.000000,4.000000,4.000000,4.000000,4.000000,4.000000,4.000000,4.000000,4.000000,4.000000,4.000000,4.000000,4.000000,4.000000,4.000000,4.000000,4.000000,4.000000,100.000000
1614561606.781513,87.000000,0.000000,1.627523,14.447487,50.975227,9.403570,9.869637,0.684299,11.191045,6.724463,27.575941,-0.942529,-1.533194,-1.012738,-9.358115,2.106788,-4.925291,-3.607794,3.069802,1.202916,3.213925,0.898332,6.568159,0.885388,3.664815,-2.082719,-3.695432,24.517406,4.844237,9.204872,-0.779011,9.807844,7.835700,48.360607,0.000000,203.000000,4.000000,,,,0.000000,4.000000,4.000000,4.000000,4.000000,4.000000,4.000000,4.000000,4.000000,4.000000,4.000000,4.000000,4.000000,4.000000,4.000000,4.000000,4.000000,4.000000,4.000000,4.000000,4.000000,4.000000,4.000000,4.000000,4.000000,4.000000,4.000000,4.000000,4.000000,4.000000,4.000000,4.000000,4.000000,100.000000
1614561606.789262,88.000000,0.000000,1.625896,19.048424,46.821686,3.753141,9.859767,0.170795,8.615751,6.717739,30.112469,-0.941587,-2.044481,-2.037366,-9.348758,1.591861,-5.946007,-5.142648,7.169296,-5.464953,1.672249,0.384613,9.125693,3.961426,7.250894,-2.080637,-3.178916,25.005711,6.377854,6.631565,-0.778232,9.798036,10.904787,54.466091,0.000000,213.000000,4.000000,,,,0.000000,4.000000,4.000000,4.000000,4.000000,4.000000,4.000000,4.000000,4.000000,4.000000,4.000000,4.000000,4.000000,4.000000,4.000000,4.000000,4.000000,4.000000,4.000000,4.000000,4.000000,4.000000,4.000000,4.000000,4.000000,4.000000,4.000000,4.000000,4.000000,4.000000,4.000000,4.000000,4.000000,100.000000
1614561606.797111,89.000000,0.000000,1.624270,18.003735,42.672302,0.672465,10.362728,0.683444,7.581494,7.736662,30.082355,-1.453466,-1.529616,-1.009687,-9.339409,2.103090,-5.940061,-4.111864,10.751870,-1.356924,3.721859,-1.154233,8.090927,4.983106,11.859028,-2.078556,-3.175738,24.980703,6.371476,7.137754,-0.777454,9.788238,9.355420,52.360344,0.000000,206.000000,4.000000,,,,0.000000,4.000000,4.000000,4.000000,4.000000,4.000000,4.000000,4.000000,4.000000,4.000000,4.000000,4.000000,4.000000,4.000000,4.000000,4.000000,4.000000,4.000000,4.000000,4.000000,4.000000,4.000000,4.000000,4.000000,4.000000,4.000000,4.000000,4.000000,4.000000,4.000000,4.000000,4.000000,4.000000,100.000000
1614561606.804860,90.000000,0.000000,1.622646,18.498550,42.629627,2.723075,9.326724,1.195581,1.932887,6.190464,30.565094,-1.452012,-2.553728,-2.034319,-9.330070,2.613807,-3.882838,-4.107752,8.689837,1.721356,2.692496,-5.255642,9.621298,1.901199,11.847169,-4.640580,-8.813587,24.955723,3.801002,8.669078,-0.776677,9.778450,3.192219,47.692600,0.000000,199.000000,4.000000,,,,0.000000,4.000000,4.000000,4.000000,4.000000,4.000000,4.000000,4.000000,4.000000,4.000000,4.000000,4.000000,4.000000,4.000000,4.000000,4.000000,4.000000,4.000000,4.000000,4.000000,4.000000,4.000000,4.000000,4.000000,4.000000,4.000000,4.000000,4.000000,4.000000,4.000000,4.000000,4.000000,4.000000,100.000000
1614561606.812709,91.000000,0.000000,1.621023,16.428770,39.510075,1.694711,6.753295,-3.933819,-7.812635,1.056069,26.431965,-1.450560,-10.243482,-9.211772,-9.320739,-3.029833,-9.007161,-12.821593,0.476018,-9.049597,-11.669170,-13.968336,5.509112,-2.716086,4.143014,-10.789785,-17.009903,22.366665,-1.843825,2.506563,-2.827182,10.281492,-1.426358,44.567986,0.000000,202.000000,4.000000,,,,0.000000,4.000000,4.000000,4.000000,4.000000,4.000000,4.000000,4.000000,4.000000,4.000000,4.000000,4.000000,4.000000,4.000000,4.000000,4.000000,4.000000,4.000000,4.000000,4.000000,4.000000,4.000000,4.000000,4.000000,4.000000,4.000000,4.000000,4.000000,4.000000,4.000000,4.000000,4.000000,4.000000,100.000000
1614561606.820458,92.000000,0.000000,1.619402,11.284137,39.470566,1.693016,5.720901,-8.545270,-11.907387,-1.509090,22.302969,-1.449110,-17.412725,-13.817945,-9.311419,-11.744751,-17.203281,-21.526720,-8.755227,-15.194393,-20.888271,-19.082573,-10.393833,-7.841576,-3.553437,-14.368739,-18.531353,20.293016,-4.406083,-8.265175,-4.362816,9.758389,1.651991,43.497776,0.000000,209.000000,4.000000,,,,0.000000,4.000000,4.000000,4.000000,4.000000,4.000000,4.000000,4.000000,4.000000,4.000000,4.000000,4.000000,4.000000,4.000000,4.000000,4.000000,4.000000,4.000000,4.000000,4.000000,4.000000,4.000000,4.000000,4.000000,4.000000,4.000000,4.000000,4.000000,4.000000,4.000000,4.000000,4.000000,4.000000,100.000000
1614561606.828307,93.000000,0.000000,1.617783,10.247211,52.251610,11.434913,6.228000,-1.870058,-7.280095,-0.994761,29.972973,-1.960481,-17.908133,-7.650280,-9.814927,-11.733006,-12.057874,-18.428270,-9.259293,-3.897147,-11.636613,-18.037849,-22.691132,-10.910657,-7.652448,-15.892832,-15.435900,22.836826,-1.324754,-13.385115,-4.358454,10.261452,9.342648,46.531200,0.000000,209.000000,4.000000,,,,0.000000,4.000000,4.000000,4.000000,4.000000,4.000000,4.000000,4.000000,4.000000,4.000000,4.000000,4.000000,4.000000,4.000000,4.000000,4.000000,4.000000,4.000000,4.000000,4.000000,4.000000,4.000000,4.000000,4.000000,4.000000,4.000000,4.000000,4.000000,4.000000,4.000000,4.000000,4.000000,4.000000,100.000000
1614561606.836057,94.000000,0.000000,2.128985,11.262606,56.814739,19.628607,6.221772,6.849761,-0.093328,-0.480945,36.096848,-1.445700,-16.351763,-0.975963,-9.292293,-8.644351,-2.815046,-14.307278,-9.762854,3.799058,-10.086515,-17.506990,-22.668440,-11.412567,-7.644795,-19.466682,-14.394822,23.839630,-1.836250,-11.320448,-4.354095,11.276832,4.205100,45.971848,0.000000,200.000000,4.000000,,,,0.000000,4.000000,4.000000,4.000000,4.000000,4.000000,4.000000,4.000000,4.000000,4.000000,4.000000,4.000000,4.000000,4.000000,4.000000,4.000000,4.000000,4.000000,4.000000,4.000000,4.000000,4.000000,4.000000,4.000000,4.000000,4.000000,4.000000,4.000000,4.000000,4.000000,4.000000,4.000000,4.000000,100.000000
1614561606.843706,95.000000,0.000000,0.588395,9.200061,42.398952,8.839746,5.702730,6.842911,1.445227,-0.993285,30.419724,-1.444255,-17.361053,-1.487808,-9.283000,-12.738271,-7.427616,-17.369894,-19.496681,-4.922690,-19.307198,-20.566406,-22.132952,-11.913975,-8.149971,-23.549780,-14.893249,19.713226,-9.526721,-11.821948,-4.349741,5.624529,-14.773464,36.182289,0.000000,187.000000,4.000000,,,,0.000000,4.000000,4.000000,4.000000,4.000000,4.000000,4.000000,4.000000,4.000000,4.000000,4.000000,4.000000,4.000000,4.000000,4.000000,4.000000,4.000000,4.000000,4.000000,4.000000,4.000000,4.000000,4.000000,4.000000,4.000000,4.000000,4.000000,4.000000,4.000000,4.000000,4.000000,4.000000,4.000000,100.000000
1614561606.851455,96.000000,0.000000,-1.976296,6.626758,34.151424,-3.476785,6.209847,3.759145,-0.607500,-0.479471,25.261099,-1.442810,-17.343691,-3.024782,-9.786537,-16.828096,-13.574035,-14.788422,-22.554108,-10.045973,-13.646865,-22.084301,-19.033895,-10.363599,-10.705923,-19.936487,-14.878355,17.129410,-13.106938,-12.322947,-4.345391,-0.534942,-20.399717,32.043541,8064.000000,0.000000,4.000000,,,,0.000000,4.000000,4.000000,4.000000,4.000000,4.000000,4.000000,4.000000,4.000000,4.000000,4.000000,4.000000,4.000000,4.000000,4.000000,4.000000,4.000000,4.000000,4.000000,4.000000,4.000000,4.000000,4.000000,4.000000,4.000000,4.000000,4.000000,4.000000,4.000000,4.000000,4.000000,4.000000,4.000000,100.000000
1614561606.859104,97.000000,0.000000,-0.435858,6.620131,39.245480,9.347204,8.254920,4.268206,4.008492,-0.991812,26.261478,1.635556,-15.275066,1.080807,-7.212648,-13.221524,-9.457896,-2.465940,-10.736681,-1.830798,1.238577,-18.985294,-6.707169,-3.686569,-11.208038,-10.685781,-13.325015,17.625101,-12.068191,-8.720880,-4.341046,-1.047227,-12.174189,33.037140,8064.000000,0.000000,4.000000,,,,0.000000,4.000000,4.000000,4.000000,4.000000,4.000000,4.000000,4.000000,4.000000,4.000000,4.000000,4.000000,4.000000,4.000000,4.000000,4.000000,4.000000,4.000000,4.000000,4.000000,4.000000,4.000000,4.000000,4.000000,4.000000,4.000000,4.000000,4.000000,4.000000,4.000000,4.000000,4.000000,4.000000,100.000000
1614561606.866853,98.000000,0.000000,1.615860,7.126332,36.642132,27.799395,9.785127,5.289579,11.183970,1.573282,26.748037,4.710843,-12.695688,5.695111,-0.538769,-9.105739,-4.320233,4.203192,-1.495175,2.786417,2.775800,-12.812463,1.504666,1.445323,-3.504522,-5.034070,-11.260407,16.581835,-12.056122,-4.096774,-4.336705,-3.097462,-13.187655,25.824614,8064.000000,0.000000,4.000000,,,,0.000000,4.000000,4.000000,4.000000,4.000000,4.000000,4.000000,4.000000,4.000000,4.000000,4.000000,4.000000,4.000000,4.000000,4.000000,4.000000,4.000000,4.000000,4.000000,4.000000,4.000000,4.000000,4.000000,4.000000,4.000000,4.000000,4.000000,4.000000,4.000000,4.000000,4.000000,4.000000,4.000000,100.000000
1614561606.874502,99.000000,0.000000,1.614244,7.119205,34.041386,24.694674,9.775341,4.258648,11.685607,5.674273,25.182829,6.757414,-12.682993,6.715057,2.538693,-8.583813,-1.238990,3.173348,-1.493680,-0.806113,-1.329540,-9.722728,1.503162,0.418236,4.191290,-5.541856,-10.223507,14.001151,-12.556887,-3.579857,-4.332368,-8.735391,-18.815495,21.183405,8064.000000,0.000000,4.000000,,,,0.000000,4.000000,4.000000,4.000000,4.000000,4.000000,4.000000,4.000000,4.000000,4.000000,4.000000,4.000000,4.000000,4.000000,4.000000,4.000000,4.000000,4.000000,4.000000,4.000000,4.000000,4.000000,4.000000,4.000000,4.000000,4.000000,4.000000,4.000000,4.000000,4.000000,4.000000,4.000000,4.000000,100.000000
1614561606.882251,100.000000,0.000000,1.612630,7.112086,42.212471,15.952029,9.765566,4.254390,8.596998,6.181419,25.670465,6.237836,-13.183130,5.682701,1.510513,-9.088049,1.839172,3.682995,-2.005007,-3.369410,-1.328210,-9.713005,1.501658,-0.095002,3.674278,-7.074776,-10.213283,13.474329,-11.518688,-4.089097,-4.328036,-6.162552,-17.771038,25.264786,8192.000000,0.000000,4.000000,,,,0.000000,4.000000,4.000000,4.000000,4.000000,4.000000,4.000000,4.000000,4.000000,4.000000,4.000000,4.000000,4.000000,4.000000,4.000000,4.000000,4.000000,4.000000,4.000000,4.000000,4.000000,4.000000,4.000000,4.000000,4.000000,4.000000,4.000000,4.000000,4.000000,4.000000,4.000000,4.000000,4.000000,100.000000
1614561606.889900,101.000000,0.000000,2.123837,7.104974,33.965134,16.448898,9.755800,4.250135,8.075581,3.611135,24.619154,1.103393,-12.657126,6.702659,2.021823,-9.078961,0.811692,2.653671,-2.003002,-2.340399,0.211579,-8.677650,0.474516,1.443554,3.157783,-5.529240,-10.715890,13.973676,-12.019990,-3.572188,-4.323708,-2.053826,-16.727625,18.060034,8064.000000,0.000000,4.000000,,,,0.000000,4.000000,4.000000,4.000000,4.000000,4.000000,4.000000,4.000000,4.000000,4.000000,4.000000,4.000000,4.000000,4.000000,4.000000,4.000000,4.000000,4.000000,4.000000,4.000000,4.000000,4.000000,4.000000,4.000000,4.000000,4.000000,4.000000,4.000000,4.000000,4.000000,4.000000,4.000000,4.000000,100.000000
1614561606.897650,102.000000,0.000000,1.608893,7.097869,11.367064,13.868346,9.746044,4.245885,4.477762,2.581883,22.030434,-4.538735,-12.644469,4.131854,2.532622,-8.557062,0.298060,-3.502829,-0.975358,-1.825238,-0.301453,-11.233075,-1.577241,-1.121992,4.693087,-5.010890,-10.192354,13.959702,-12.520791,-4.594257,-4.319384,-4.615874,-16.198076,6.759922,8192.000000,0.000000,4.000000,,,,0.000000,4.000000,4.000000,4.000000,4.000000,4.000000,4.000000,4.000000,4.000000,4.000000,4.000000,4.000000,4.000000,4.000000,4.000000,4.000000,4.000000,4.000000,4.000000,4.000000,4.000000,4.000000,4.000000,4.000000,4.000000,4.000000,4.000000,4.000000,4.000000,4.000000,4.000000,4.000000,4.000000,100.000000
1614561606.905299,103.000000,0.000000,1.607284,7.090771,12.894158,9.239094,9.736299,4.241640,0.370720,3.092122,22.008402,-5.559838,-14.683107,-2.538945,-1.572475,-8.548505,-2.266341,-7.089069,-0.974382,-1.310592,-4.403716,-20.965433,-2.601305,-8.300357,1.611471,-9.621264,-9.669341,13.945743,-8.405706,-7.153765,-4.315065,-4.098438,-13.104956,15.471111,8192.000000,0.000000,4.000000,,,,0.000000,4.000000,4.000000,4.000000,4.000000,4.000000,4.000000,4.000000,4.000000,4.000000,4.000000,4.000000,4.000000,4.000000,4.000000,4.000000,4.000000,4.000000,4.000000,4.000000,4.000000,4.000000,4.000000,4.000000,4.000000,4.000000,4.000000,4.000000,4.000000,4.000000,4.000000,4.000000,4.000000,100.000000
1614561606.913048,104.000000,0.000000,2.118497,7.083681,30.829983,10.768316,9.726563,4.237398,0.370349,3.089030,25.063318,-5.041458,-16.719706,-6.126149,-5.673467,-10.591238,-9.443562,-8.620442,-6.614433,-2.847743,-10.553158,-28.636774,-7.214088,-14.445903,-5.056808,-16.791130,-13.249415,13.931796,-8.397301,-8.172253,-4.310750,-1.530237,-16.168774,25.712049,8064.000000,0.000000,4.000000,,,,0.000000,4.000000,4.000000,4.000000,4.000000,4.000000,4.000000,4.000000,4.000000,4.000000,4.000000,4.000000,4.000000,4.000000,4.000000,4.000000,4.000000,4.000000,4.000000,4.000000,4.000000,4.000000,4.000000,4.000000,4.000000,4.000000,4.000000,4.000000,4.000000,4.000000,4.000000,4.000000,4.000000,100.000000
1614561606.920697,105.000000,0.000000,0.065097,7.076597,27.722229,11.783189,9.716836,4.233160,0.882799,3.085941,26.576715,-5.036416,-16.190166,-5.094382,-6.180614,-12.631929,-5.331554,-8.099001,-8.659101,-1.819255,-13.619528,-28.608137,-13.873541,-14.944278,-8.641494,-17.799978,-17.851551,13.917865,-18.645313,-7.651259,-4.306439,-3.579989,-23.332092,15.942748,8064.000000,0.000000,4.000000,,,,0.000000,4.000000,4.000000,4.000000,4.000000,4.000000,4.000000,4.000000,4.000000,4.000000,4.000000,4.000000,4.000000,4.000000,4.000000,4.000000,4.000000,4.000000,4.000000,4.000000,4.000000,4.000000,4.000000,4.000000,4.000000,4.000000,4.000000,4.000000,4.000000,4.000000,4.000000,4.000000,4.000000,100.000000
1614561606.928446,106.000000,0.000000,-1.986250,7.069520,14.873994,9.720123,9.707119,4.228927,0.369096,3.082855,25.524498,-2.467277,-14.635514,-5.089288,-5.661613,-12.619297,4.930188,-1.424235,-1.470955,6.387693,-11.041806,-28.579529,-14.885308,-14.416512,-7.607212,-14.192435,-18.346519,14.416767,-21.703590,-7.643608,-4.302133,-4.089229,-24.334402,8.234498,8064.000000,0.000000,4.000000,,,,0.000000,4.000000,4.000000,4.000000,4.000000,4.000000,4.000000,4.000000,4.000000,4.000000,4.000000,4.000000,4.000000,4.000000,4.000000,4.000000,4.000000,4.000000,4.000000,4.000000,4.000000,4.000000,4.000000,4.000000,4.000000,4.000000,4.000000,4.000000,4.000000,4.000000,4.000000,4.000000,4.000000,100.000000
1614561606.936095,107.000000,0.000000,-2.497084,7.062451,16.397581,9.197583,9.184591,4.224698,2.932830,3.079772,26.011793,-2.464810,-12.569596,-5.597019,-6.168771,-12.606678,-0.715768,-4.499734,-0.443843,7.406946,-8.979482,-29.063770,-14.357602,-14.914917,-7.599604,-14.178244,-17.302532,13.889530,-13.989580,-8.148786,-4.297830,-1.521037,-24.822887,11.816007,8064.000000,0.000000,4.000000,,,,0.000000,4.000000,4.000000,4.000000,4.000000,4.000000,4.000000,4.000000,4.000000,4.000000,4.000000,4.000000,4.000000,4.000000,4.000000,4.000000,4.000000,4.000000,4.000000,4.000000,4.000000,4.000000,4.000000,4.000000,4.000000,4.000000,4.000000,4.000000,4.000000,4.000000,4.000000,4.000000,4.000000,100.000000
1614561606.943844,108.000000,0.000000,-2.494587,7.055388,17.406826,4.573000,9.175406,4.220474,4.981179,3.076692,25.985783,-7.590550,-13.069847,-5.591422,-6.162602,-13.106892,-13.022745,-21.931131,-8.648527,-6.446615,-12.560246,-28.009066,-15.368886,-15.412823,-8.617646,-16.215347,-20.362152,11.824359,-13.462770,-8.140636,-4.293532,-3.570798,-31.977552,9.240088,8064.000000,0.000000,4.000000,,,,0.000000,4.000000,4.000000,4.000000,4.000000,4.000000,4.000000,4.000000,4.000000,4.000000,4.000000,4.000000,4.000000,4.000000,4.000000,4.000000,4.000000,4.000000,4.000000,4.000000,4.000000,4.000000,4.000000,4.000000,4.000000,4.000000,4.000000,4.000000,4.000000,4.000000,4.000000,4.000000,4.000000,100.000000
1614561606.951494,109.000000,0.000000,-1.466452,7.048333,8.671470,2.004325,10.191873,4.216253,4.463377,3.073616,21.857233,-9.121421,-18.697803,-5.073010,-5.643620,-12.580964,-13.522543,-31.139971,-10.178340,-14.645296,-17.675890,-29.006699,-17.404799,-14.371769,-8.096208,-17.737593,-21.880251,10.274073,-19.090332,-7.106855,-3.776418,-5.105689,-36.048138,3.077002,8064.000000,0.000000,4.000000,,,,0.000000,4.000000,4.000000,4.000000,4.000000,4.000000,4.000000,4.000000,4.000000,4.000000,4.000000,4.000000,4.000000,4.000000,4.000000,4.000000,4.000000,4.000000,4.000000,4.000000,4.000000,4.000000,4.000000,4.000000,4.000000,4.000000,4.000000,4.000000,4.000000,4.000000,4.000000,4.000000,4.000000,100.000000
1614561606.959343,110.000000,0.000000,-1.464985,7.554105,4.047414,8.156167,8.643219,4.212037,4.458914,3.070542,18.758451,-8.599479,-24.832951,-5.067937,-5.637976,-12.568383,-14.021840,-31.108829,-9.142521,-12.579369,-20.222317,-27.439230,-19.438677,-13.844576,-7.575291,-18.232676,-21.345551,7.699696,-19.071241,-7.099748,-5.311103,-4.074943,-35.499271,3.073925,8064.000000,0.000000,4.000000,,,,0.000000,4.000000,4.000000,4.000000,4.000000,4.000000,4.000000,4.000000,4.000000,4.000000,4.000000,4.000000,4.000000,4.000000,4.000000,4.000000,4.000000,4.000000,4.000000,4.000000,4.000000,4.000000,4.000000,4.000000,4.000000,4.000000,4.000000,4.000000,4.000000,4.000000,4.000000,4.000000,4.000000,100.000000
1614561606.967092,111.000000,0.000000,-5.053264,5.495269,6.094648,7.635190,6.070473,3.695004,4.454455,3.067471,18.226873,-9.103701,-22.756836,-5.575689,-5.632338,-13.068635,-17.084742,-31.590542,-9.646199,-13.592430,-19.176455,-20.232304,-14.291032,-15.882013,-7.567716,-14.111879,-21.324205,3.589432,-19.564991,-9.143930,-7.869895,-9.711893,-35.976589,3.070851,8064.000000,0.000000,4.000000,,,,0.000000,4.000000,4.000000,4.000000,4.000000,4.000000,4.000000,4.000000,4.000000,4.000000,4.000000,4.000000,4.000000,4.000000,4.000000,4.000000,4.000000,4.000000,4.000000,4.000000,4.000000,4.000000,4.000000,4.000000,4.000000,4.000000,4.000000,4.000000,4.000000,4.000000,4.000000,4.000000,4.000000,100.000000
