title:18, start timestamp:1614562225.258218, stop timestamp:1614562270.691163, headset type:EPOCFLEX, headset serial:F00001ED, headset firmware:f12, subject name:s15, channels:75, sampling rate:128, samples:5862      , version:2.0
Timestamp,EEG.Counter,EEG.Interpolated,EEG.Cz,EEG.Fz,EEG.Fp1,EEG.F7,EEG.F3,EEG.FC1,EEG.C3,EEG.FC5,EEG.FT9,EEG.T7,EEG.TP9,EEG.CP5,EEG.CP1,EEG.P3,EEG.P7,EEG.O1,EEG.Pz,EEG.Oz,EEG.O2,EEG.P8,EEG.P4,EEG.CP2,EEG.CP6,EEG.TP10,EEG.T8,EEG.FT10,EEG.FC6,EEG.C4,EEG.FC2,EEG.F4,EEG.F8,EEG.Fp2,EEG.HighBitFlex,EEG.RawCq,EEG.Battery,MarkerIndex,MarkerType,MarkerValueInt,EEG.MarkerHardware,CQ.Cz,CQ.Fz,CQ.Fp1,CQ.F7,CQ.F3,CQ.FC1,CQ.C3,CQ.FC5,CQ.FT9,CQ.T7,CQ.TP9,CQ.CP5,CQ.CP1,CQ.P3,CQ.P7,CQ.O1,CQ.Pz,CQ.Oz,CQ.O2,CQ.P8,CQ.P4,CQ.CP2,CQ.CP6,CQ.TP10,CQ.T8,CQ.FT10,CQ.FC6,CQ.C4,CQ.FC2,CQ.F4,CQ.F8,CQ.Fp2,CQ.Overall
1614562225.258218,32.000000,0.000000,9.382581,7.959714,-51.782833,-1.776818,0.970835,1.194942,12.589117,9.932381,-12.796994,7.025345,22.551105,10.926405,22.314337,22.815754,16.620861,29.585712,18.066288,37.943027,46.409145,30.286880,35.771412,8.963470,34.112400,42.522591,-2.407380,22.335526,0.337678,12.498114,4.541314,9.406007,-1.378958,51.833290,8064.000000,0.000000,4.000000,,,,0.000000,4.000000,4.000000,4.000000,4.000000,4.000000,4.000000,4.000000,4.000000,4.000000,4.000000,4.000000,4.000000,4.000000,4.000000,4.000000,4.000000,4.000000,4.000000,4.000000,4.000000,4.000000,4.000000,4.000000,4.000000,4.000000,4.000000,4.000000,4.000000,4.000000,4.000000,4.000000,4.000000,100.000000
1614562225.265867,33.000000,0.000000,10.911659,8.464575,-53.269512,-9.467349,-0.568597,3.245029,12.063707,8.383986,-15.348299,6.505499,27.143938,13.992402,25.881765,30.485245,16.604240,28.530487,22.663607,32.776878,44.311451,30.256594,41.376667,9.980147,36.642391,43.505711,1.184771,15.133702,1.362981,12.998436,8.126516,10.422242,-3.941682,47.166073,8064.000000,0.000000,4.000000,,,,0.000000,4.000000,4.000000,4.000000,4.000000,4.000000,4.000000,4.000000,4.000000,4.000000,4.000000,4.000000,4.000000,4.000000,4.000000,4.000000,4.000000,4.000000,4.000000,4.000000,4.000000,4.000000,4.000000,4.000000,4.000000,4.000000,4.000000,4.000000,4.000000,4.000000,4.000000,4.000000,4.000000,100.000000
1614562225.273616,34.000000,0.000000,8.336645,6.917648,-55.780346,-21.252754,-2.619311,5.293066,12.564465,8.375603,-16.358593,8.037456,29.680897,17.055332,25.855885,28.916298,16.587635,30.040417,21.615303,29.154360,42.215858,30.226337,33.642982,9.457347,37.631390,41.410923,-1.893337,10.503184,0.335977,12.985438,7.605569,8.360538,-9.065946,43.529163,8064.000000,0.000000,4.000000,,,,0.000000,4.000000,4.000000,4.000000,4.000000,4.000000,4.000000,4.000000,4.000000,4.000000,4.000000,4.000000,4.000000,4.000000,4.000000,4.000000,4.000000,4.000000,4.000000,4.000000,4.000000,4.000000,4.000000,4.000000,4.000000,4.000000,4.000000,4.000000,4.000000,4.000000,4.000000,4.000000,4.000000,100.000000
1614562225.281265,35.000000,0.000000,1.148821,4.346628,-58.288670,-23.282784,-3.642333,2.723670,9.474977,6.828765,-16.342234,3.926854,25.035831,4.217764,19.676182,10.938663,17.083868,25.394993,10.311636,26.561102,31.917233,29.170469,19.250364,-0.295700,30.414268,27.523357,-11.122212,10.492681,-6.331026,10.408350,7.085143,7.326536,-15.723546,41.947174,8064.000000,0.000000,4.000000,,,,0.000000,4.000000,4.000000,4.000000,4.000000,4.000000,4.000000,4.000000,4.000000,4.000000,4.000000,4.000000,4.000000,4.000000,4.000000,4.000000,4.000000,4.000000,4.000000,4.000000,4.000000,4.000000,4.000000,4.000000,4.000000,4.000000,4.000000,4.000000,4.000000,4.000000,4.000000,4.000000,4.000000,100.000000
1614562225.289114,36.000000,0.000000,-4.493353,3.829461,-61.820122,-20.695398,-3.125870,-2.407259,3.311656,-3.434474,-17.864353,-7.359125,9.626181,-8.094146,4.784711,-3.431249,10.912938,8.959341,-3.032009,11.149926,10.859675,18.884890,10.000345,-9.526174,21.665907,5.957372,-22.905962,5.353983,-18.119566,3.731275,6.052417,2.191005,-25.964233,27.033432,8064.000000,0.000000,4.000000,,,,0.000000,4.000000,4.000000,4.000000,4.000000,4.000000,4.000000,4.000000,4.000000,4.000000,4.000000,4.000000,4.000000,4.000000,4.000000,4.000000,4.000000,4.000000,4.000000,4.000000,4.000000,4.000000,4.000000,4.000000,4.000000,4.000000,4.000000,4.000000,4.000000,4.000000,4.000000,4.000000,4.000000,100.000000
1614562225.296863,37.000000,0.000000,-5.514501,4.851273,-64.835228,-23.751625,-3.122744,-3.430492,-1.307041,-11.636168,-20.410591,-13.505611,-8.332164,-6.547590,-8.040586,-4.453459,-0.892846,-6.434234,-11.746926,-6.297121,-8.125544,-0.621175,0.246755,-11.055109,13.439113,-8.920381,-29.549723,-0.805217,-25.280933,-2.426302,3.482262,-5.503494,-33.117756,12.134604,8064.000000,0.000000,4.000000,,,,0.000000,4.000000,4.000000,4.000000,4.000000,4.000000,4.000000,4.000000,4.000000,4.000000,4.000000,4.000000,4.000000,4.000000,4.000000,4.000000,4.000000,4.000000,4.000000,4.000000,4.000000,4.000000,4.000000,4.000000,4.000000,4.000000,4.000000,4.000000,4.000000,4.000000,4.000000,4.000000,4.000000,100.000000
1614562225.304712,38.000000,0.000000,-4.996166,3.820781,-67.334496,-26.291977,-3.119621,-2.914241,-2.844195,-9.573249,-20.390181,-11.440824,-16.016140,-11.156427,-9.058187,-4.961826,-6.532979,-10.017543,-14.299281,-10.906209,-13.758444,-14.466707,-10.522722,-8.992772,5.220545,-14.039665,-29.007353,-0.804412,-25.768473,-2.936697,3.478779,-5.497991,-34.110279,14.173751,8064.000000,0.000000,4.000000,,,,0.000000,4.000000,4.000000,4.000000,4.000000,4.000000,4.000000,4.000000,4.000000,4.000000,4.000000,4.000000,4.000000,4.000000,4.000000,4.000000,4.000000,4.000000,4.000000,4.000000,4.000000,4.000000,4.000000,4.000000,4.000000,4.000000,4.000000,4.000000,4.000000,4.000000,4.000000,4.000000,4.000000,100.000000
1614562225.312461,39.000000,0.000000,-6.016811,4.329780,-67.779976,-25.752863,-3.116501,-2.911327,-3.866992,-6.999573,-20.882610,-11.429383,-17.025764,-23.965784,-8.536308,-9.572248,-6.013626,-9.494705,-15.310623,-10.382482,-13.744685,-18.041985,-16.153225,-10.522241,1.112760,-18.128189,-28.978346,0.222034,-23.691423,-2.420939,3.475301,0.148533,-32.024887,19.800602,8064.000000,0.000000,4.000000,,,,0.000000,4.000000,4.000000,4.000000,4.000000,4.000000,4.000000,4.000000,4.000000,4.000000,4.000000,4.000000,4.000000,4.000000,4.000000,4.000000,4.000000,4.000000,4.000000,4.000000,4.000000,4.000000,4.000000,4.000000,4.000000,4.000000,4.000000,4.000000,4.000000,4.000000,4.000000,4.000000,4.000000,100.000000
1614562225.320310,40.000000,0.000000,-5.497973,4.838271,-62.583996,-24.701469,-3.113385,-3.421236,-3.863125,-7.505394,-19.323267,-12.956415,-17.521559,-16.249510,-10.579054,-9.562676,-6.007612,-9.485210,-15.808133,-11.397740,-14.243761,-15.972660,-15.624251,-11.537359,1.111648,-19.135702,-29.462187,-0.291009,-21.616449,-2.418519,3.471825,2.712487,-26.864656,20.806442,8064.000000,0.000000,4.000000,,,,0.000000,4.000000,4.000000,4.000000,4.000000,4.000000,4.000000,4.000000,4.000000,4.000000,4.000000,4.000000,4.000000,4.000000,4.000000,4.000000,4.000000,4.000000,4.000000,4.000000,4.000000,4.000000,4.000000,4.000000,4.000000,4.000000,4.000000,4.000000,4.000000,4.000000,4.000000,4.000000,4.000000,100.000000
1614562225.328059,41.000000,0.000000,-4.979655,2.782151,-59.957310,-25.702410,-3.110271,-2.904994,-2.833621,-7.497889,-17.252661,-11.404997,-10.837371,0.689816,-5.953090,-6.476191,-6.514425,-5.373161,-10.151299,-9.847881,-13.203876,-15.956688,-10.480422,-6.397617,1.110536,-12.449901,-28.919905,-0.290718,-21.594833,-2.416100,3.468354,1.684134,-26.837791,20.272816,8064.000000,0.000000,4.000000,,,,0.000000,4.000000,4.000000,4.000000,4.000000,4.000000,4.000000,4.000000,4.000000,4.000000,4.000000,4.000000,4.000000,4.000000,4.000000,4.000000,4.000000,4.000000,4.000000,4.000000,4.000000,4.000000,4.000000,4.000000,4.000000,4.000000,4.000000,4.000000,4.000000,4.000000,4.000000,4.000000,4.000000,100.000000
1614562225.335908,42.000000,0.000000,-6.000316,0.728086,-61.435814,-26.189528,-3.107161,-2.902089,-3.343608,-8.003211,-16.722588,-8.829490,-4.672687,-3.926258,0.719529,-8.520996,-5.995090,-3.829326,-3.474481,-10.350854,-8.575288,-18.504833,-7.393019,1.813909,2.135067,-6.283604,-28.890985,0.222393,-22.086060,-2.926505,3.464885,2.195270,-32.451981,19.226902,8064.000000,0.000000,4.000000,,,,0.000000,4.000000,4.000000,4.000000,4.000000,4.000000,4.000000,4.000000,4.000000,4.000000,4.000000,4.000000,4.000000,4.000000,4.000000,4.000000,4.000000,4.000000,4.000000,4.000000,4.000000,4.000000,4.000000,4.000000,4.000000,4.000000,4.000000,4.000000,4.000000,4.000000,4.000000,4.000000,4.000000,100.000000
1614562225.343657,43.000000,0.000000,-3.943034,2.265820,-53.169247,-23.599236,-3.104054,-2.899187,-3.853085,-5.431106,-14.654584,-7.282199,-5.180835,-12.127460,2.770092,-7.486835,-7.014736,-1.774215,-1.932545,-10.340503,3.740980,-7.204278,-5.334343,10.017223,5.209855,0.902167,-26.810812,1.760633,-16.935768,0.153345,3.461420,2.705895,-29.342604,24.335880,8064.000000,0.000000,4.000000,,,,0.000000,4.000000,4.000000,4.000000,4.000000,4.000000,4.000000,4.000000,4.000000,4.000000,4.000000,4.000000,4.000000,4.000000,4.000000,4.000000,4.000000,4.000000,4.000000,4.000000,4.000000,4.000000,4.000000,4.000000,4.000000,4.000000,4.000000,4.000000,4.000000,4.000000,4.000000,4.000000,4.000000,100.000000
1614562225.351506,44.000000,0.000000,2.727576,4.827657,-41.834026,-21.524355,-3.100950,-2.896288,0.766153,-0.810290,-9.511724,-8.300557,7.132038,0.192360,11.485271,10.469370,-5.469260,15.150637,8.838618,5.567274,28.352623,19.469593,15.183811,18.212334,9.307209,26.029470,-23.194258,6.374257,-10.764985,7.332679,3.457959,2.190369,-19.056852,36.106415,8064.000000,0.000000,4.000000,,,,0.000000,4.000000,4.000000,4.000000,4.000000,4.000000,4.000000,4.000000,4.000000,4.000000,4.000000,4.000000,4.000000,4.000000,4.000000,4.000000,4.000000,4.000000,4.000000,4.000000,4.000000,4.000000,4.000000,4.000000,4.000000,4.000000,4.000000,4.000000,4.000000,4.000000,4.000000,4.000000,4.000000,100.000000
1614562225.359255,45.000000,0.000000,6.827412,4.310009,-41.279373,-22.528471,-3.097849,-2.893392,7.432054,0.216162,-8.476571,-7.779437,32.765930,13.012680,25.319939,31.997362,3.766979,37.186768,26.778498,31.202732,49.862732,35.860382,41.322475,25.886429,20.579952,50.618824,-20.606960,10.470447,-9.215759,13.479193,3.454501,2.188178,-18.524975,39.660053,8064.000000,0.000000,4.000000,,,,0.000000,4.000000,4.000000,4.000000,4.000000,4.000000,4.000000,4.000000,4.000000,4.000000,4.000000,4.000000,4.000000,4.000000,4.000000,4.000000,4.000000,4.000000,4.000000,4.000000,4.000000,4.000000,4.000000,4.000000,4.000000,4.000000,4.000000,4.000000,4.000000,4.000000,4.000000,4.000000,4.000000,100.000000
1614562225.367104,46.000000,0.000000,6.307765,3.792878,-38.673992,-19.429020,-3.094751,-2.890498,8.963083,-0.296875,-10.006557,-4.694734,38.374191,11.974027,23.243338,31.452545,8.891417,42.790607,24.187616,36.299736,53.402615,32.747597,38.717049,24.322083,34.918346,43.388718,-21.099174,10.972796,-10.232184,13.465714,3.963867,2.185990,-25.173117,37.569111,8064.000000,0.000000,4.000000,,,,0.000000,4.000000,4.000000,4.000000,4.000000,4.000000,4.000000,4.000000,4.000000,4.000000,4.000000,4.000000,4.000000,4.000000,4.000000,4.000000,4.000000,4.000000,4.000000,4.000000,4.000000,4.000000,4.000000,4.000000,4.000000,4.000000,4.000000,4.000000,4.000000,4.000000,4.000000,4.000000,4.000000,100.000000
1614562225.374853,47.000000,0.000000,4.762995,4.301906,-24.276342,-10.691642,-3.604477,-2.887608,7.928479,3.805986,-6.919626,-4.177219,23.464022,9.910770,11.938043,20.139040,8.369705,32.491405,8.265993,25.494204,48.733826,25.535362,17.139870,14.041349,34.370609,25.396612,-21.078075,10.961823,-9.709131,9.349684,3.447083,2.183804,-25.660763,48.300774,8064.000000,0.000000,4.000000,,,,0.000000,4.000000,4.000000,4.000000,4.000000,4.000000,4.000000,4.000000,4.000000,4.000000,4.000000,4.000000,4.000000,4.000000,4.000000,4.000000,4.000000,4.000000,4.000000,4.000000,4.000000,4.000000,4.000000,4.000000,4.000000,4.000000,4.000000,4.000000,4.000000,4.000000,4.000000,4.000000,4.000000,100.000000
1614562225.382702,48.000000,0.000000,3.219771,3.784783,-17.072578,-6.578386,-3.088052,-2.884720,7.920550,6.879103,-2.297322,-5.198682,17.799534,11.952142,10.387643,18.580441,20.669027,28.869171,4.155163,26.494350,49.197914,23.458544,11.481705,8.386282,18.438801,25.884035,-20.544176,10.950862,-10.725063,5.237770,1.392353,2.181620,-24.096642,61.072987,8064.000000,0.000000,4.000000,,,,0.000000,4.000000,4.000000,4.000000,4.000000,4.000000,4.000000,4.000000,4.000000,4.000000,4.000000,4.000000,4.000000,4.000000,4.000000,4.000000,4.000000,4.000000,4.000000,4.000000,4.000000,4.000000,4.000000,4.000000,4.000000,4.000000,4.000000,4.000000,4.000000,4.000000,4.000000,4.000000,4.000000,100.000000
1614562225.390451,49.000000,0.000000,2.190910,4.293819,-19.106789,-7.084628,-0.008041,-2.881836,8.938271,7.385045,-1.269384,-0.065279,19.833015,11.940189,11.402896,19.074680,37.058617,33.455685,5.176649,31.596062,45.046150,22.922266,15.059966,9.403537,8.163953,26.370972,-21.036453,10.427091,-13.278441,5.232532,-0.147501,2.179439,-25.611006,55.883705,8064.000000,0.000000,4.000000,,,,0.000000,4.000000,4.000000,4.000000,4.000000,4.000000,4.000000,4.000000,4.000000,4.000000,4.000000,4.000000,4.000000,4.000000,4.000000,4.000000,4.000000,4.000000,4.000000,4.000000,4.000000,4.000000,4.000000,4.000000,4.000000,4.000000,4.000000,4.000000,4.000000,4.000000,4.000000,4.000000,4.000000,100.000000
1614562225.398300,50.000000,0.000000,2.701539,7.366448,-19.600502,-4.513441,4.094531,-2.878954,7.903692,10.967402,0.270347,8.139915,9.556772,9.876967,7.801750,11.363297,33.431812,26.755564,-3.546477,19.256773,32.693413,17.771137,9.916701,7.342852,12.258353,11.985627,-21.015417,14.006407,-14.290804,5.740120,-0.660174,2.177259,-23.534113,50.699619,8064.000000,0.000000,4.000000,,,,0.000000,4.000000,4.000000,4.000000,4.000000,4.000000,4.000000,4.000000,4.000000,4.000000,4.000000,4.000000,4.000000,4.000000,4.000000,4.000000,4.000000,4.000000,4.000000,4.000000,4.000000,4.000000,4.000000,4.000000,4.000000,4.000000,4.000000,4.000000,4.000000,4.000000,4.000000,4.000000,4.000000,100.000000
1614562225.406050,51.000000,0.000000,1.673197,8.897543,-18.555262,1.132098,4.603257,-2.876075,3.793224,15.059000,2.321359,10.183057,-6.350221,7.302988,1.640102,-0.955758,21.090689,9.292911,-11.235238,3.852901,22.404308,9.548239,1.188836,0.668842,14.297377,2.230052,-20.994400,20.659067,-13.763692,3.170277,-0.146693,2.175082,-17.869553,60.392509,8064.000000,0.000000,4.000000,,,,0.000000,4.000000,4.000000,4.000000,4.000000,4.000000,4.000000,4.000000,4.000000,4.000000,4.000000,4.000000,4.000000,4.000000,4.000000,4.000000,4.000000,4.000000,4.000000,4.000000,4.000000,4.000000,4.000000,4.000000,4.000000,4.000000,4.000000,4.000000,4.000000,4.000000,4.000000,4.000000,4.000000,100.000000
1614562225.413699,52.000000,0.000000,-0.892579,7.350184,-19.049526,3.182248,3.573013,-2.873199,-0.825954,14.531120,1.806217,10.172873,-9.933614,6.270044,-3.489743,-6.595828,18.505495,2.616951,-11.736823,5.387509,22.894724,5.948947,-0.350814,-3.434391,8.642054,3.253463,-20.973406,22.689690,-13.237108,0.603004,-0.146546,2.172907,-16.826042,64.947502,8192.000000,0.000000,4.000000,,,,0.000000,4.000000,4.000000,4.000000,4.000000,4.000000,4.000000,4.000000,4.000000,4.000000,4.000000,4.000000,4.000000,4.000000,4.000000,4.000000,4.000000,4.000000,4.000000,4.000000,4.000000,4.000000,4.000000,4.000000,4.000000,4.000000,4.000000,4.000000,4.000000,4.000000,4.000000,4.000000,4.000000,100.000000
1614562225.421448,53.000000,0.000000,-1.917327,8.368475,-19.030478,3.691887,5.107902,-3.383146,1.226154,16.055050,3.342872,14.265265,-0.692911,8.315056,-3.999074,0.590255,21.051092,10.819463,-10.186625,14.612891,25.948753,7.481460,1.700818,-2.405316,5.043668,4.788671,-20.952433,21.641359,-11.685410,2.140863,-0.146400,2.170734,-17.322037,60.779987,8064.000000,0.000000,4.000000,,,,0.000000,4.000000,4.000000,4.000000,4.000000,4.000000,4.000000,4.000000,4.000000,4.000000,4.000000,4.000000,4.000000,4.000000,4.000000,4.000000,4.000000,4.000000,4.000000,4.000000,4.000000,4.000000,4.000000,4.000000,4.000000,4.000000,4.000000,4.000000,4.000000,4.000000,4.000000,4.000000,4.000000,100.000000
1614562225.429097,54.000000,0.000000,-1.402590,13.488312,-19.011446,8.816400,7.666896,-2.866942,4.301851,21.167200,11.544658,18.353563,6.487269,10.870843,-1.430972,11.871716,23.081324,16.962490,-9.663618,17.162380,14.127933,4.909875,1.699118,-1.890090,9.654009,3.758241,-20.418661,21.619719,-9.622442,4.702825,-0.146253,2.168563,-16.279074,62.770493,8064.000000,0.000000,4.000000,,,,0.000000,4.000000,4.000000,4.000000,4.000000,4.000000,4.000000,4.000000,4.000000,4.000000,4.000000,4.000000,4.000000,4.000000,4.000000,4.000000,4.000000,4.000000,4.000000,4.000000,4.000000,4.000000,4.000000,4.000000,4.000000,4.000000,4.000000,4.000000,4.000000,4.000000,4.000000,4.000000,4.000000,100.000000
1614562225.436846,55.000000,0.000000,-2.939649,13.987644,-18.992435,12.397327,8.172050,-2.864075,-0.317835,22.171675,16.661318,17.822390,6.480782,11.372793,-1.429541,12.885486,23.058243,14.894245,-11.705236,10.478552,-3.834913,-0.736060,0.158957,-3.426661,13.746919,2.728842,-20.398241,22.623739,-9.612820,5.210942,-0.146107,2.166395,-19.852539,63.733360,8192.000000,0.000000,4.000000,,,,0.000000,4.000000,4.000000,4.000000,4.000000,4.000000,4.000000,4.000000,4.000000,4.000000,4.000000,4.000000,4.000000,4.000000,4.000000,4.000000,4.000000,4.000000,4.000000,4.000000,4.000000,4.000000,4.000000,4.000000,4.000000,4.000000,4.000000,4.000000,4.000000,4.000000,4.000000,4.000000,4.000000,100.000000
1614562225.444495,56.000000,0.000000,-6.013632,7.306990,-19.999083,6.231083,7.138237,-3.374032,-3.394441,21.636683,11.516452,16.778927,6.474301,10.848599,1.135991,11.334139,15.855697,12.315248,-9.129429,3.288586,-1.266976,-4.325068,2.210080,-1.371952,13.733172,6.315856,-21.403484,20.549833,-11.141668,5.205731,-0.145961,2.677049,-30.089096,54.951679,8064.000000,0.000000,4.000000,,,,0.000000,4.000000,4.000000,4.000000,4.000000,4.000000,4.000000,4.000000,4.000000,4.000000,4.000000,4.000000,4.000000,4.000000,4.000000,4.000000,4.000000,4.000000,4.000000,4.000000,4.000000,4.000000,4.000000,4.000000,4.000000,4.000000,4.000000,4.000000,4.000000,4.000000,4.000000,4.000000,4.000000,100.000000
1614562225.452244,57.000000,0.000000,-4.981977,3.709939,-23.056007,-0.954635,6.618278,-2.857837,2.762800,21.615046,5.351089,17.274967,11.083211,10.837751,8.314342,15.938190,8.660354,13.328573,5.238675,9.439143,16.170189,-4.320743,7.336075,6.321727,13.206618,15.027490,-19.330799,15.913899,-13.181808,5.200526,-0.145815,0.623090,-36.725674,46.691601,8064.000000,0.000000,4.000000,,,,0.000000,4.000000,4.000000,4.000000,4.000000,4.000000,4.000000,4.000000,4.000000,4.000000,4.000000,4.000000,4.000000,4.000000,4.000000,4.000000,4.000000,4.000000,4.000000,4.000000,4.000000,4.000000,4.000000,4.000000,4.000000,4.000000,4.000000,4.000000,4.000000,4.000000,4.000000,4.000000,4.000000,100.000000
1614562225.459894,58.000000,0.000000,-1.900072,4.219049,-27.648336,-0.440859,8.150121,1.760405,8.913883,21.593430,4.832917,17.257692,15.174692,11.339734,11.895771,18.486353,8.651693,13.828066,16.515488,19.173294,22.307865,-3.290781,9.892841,10.417970,13.193412,21.679129,-21.362751,11.795422,-13.681447,5.708146,0.367151,-1.428815,-36.176128,43.055164,8064.000000,0.000000,4.000000,,,,0.000000,4.000000,4.000000,4.000000,4.000000,4.000000,4.000000,4.000000,4.000000,4.000000,4.000000,4.000000,4.000000,4.000000,4.000000,4.000000,4.000000,4.000000,4.000000,4.000000,4.000000,4.000000,4.000000,4.000000,4.000000,4.000000,4.000000,4.000000,4.000000,4.000000,4.000000,4.000000,4.000000,100.000000
1614562225.467643,59.000000,0.000000,-0.872531,4.214830,-30.697611,-0.440419,7.629150,4.835568,8.392149,21.571836,5.853725,17.240435,15.159517,9.789932,10.858234,15.390944,6.078939,13.301417,14.447690,16.077198,19.721455,-3.800310,9.370129,9.381910,13.693039,20.631809,-31.084976,9.219523,-13.154945,5.702437,-1.171677,-1.940207,-35.627132,40.960827,8064.000000,0.000000,4.000000,,,,0.000000,4.000000,4.000000,4.000000,4.000000,4.000000,4.000000,4.000000,4.000000,4.000000,4.000000,4.000000,4.000000,4.000000,4.000000,4.000000,4.000000,4.000000,4.000000,4.000000,4.000000,4.000000,4.000000,4.000000,4.000000,4.000000,4.000000,4.000000,4.000000,4.000000,4.000000,4.000000,4.000000,100.000000
1614562225.475292,60.000000,0.000000,-1.384479,3.697795,-30.666914,-0.952799,6.083060,4.830732,7.358116,21.550264,4.822231,17.223194,14.118717,7.728861,10.847376,14.862733,0.431835,13.288116,11.356319,12.471377,20.727373,-4.309330,9.360758,9.372529,13.679346,15.995792,-35.156456,7.159021,-13.654611,5.183915,-3.221788,-1.425446,-36.104324,40.919865,8064.000000,0.000000,4.000000,,,,0.000000,4.000000,4.000000,4.000000,4.000000,4.000000,4.000000,4.000000,4.000000,4.000000,4.000000,4.000000,4.000000,4.000000,4.000000,4.000000,4.000000,4.000000,4.000000,4.000000,4.000000,4.000000,4.000000,4.000000,4.000000,4.000000,4.000000,4.000000,4.000000,4.000000,4.000000,4.000000,4.000000,100.000000
1614562225.483041,61.000000,0.000000,-1.383095,4.206918,-30.123426,4.176359,10.692362,4.313081,8.376399,21.528715,4.817409,17.205973,15.130239,7.208311,9.810887,14.847870,0.431403,15.838930,12.370605,19.638393,22.245108,1.848825,7.812936,8.850336,11.614385,13.928514,-28.967453,6.126222,-13.640956,5.691551,-4.244207,-1.424021,-35.555401,41.391766,8064.000000,0.000000,4.000000,,,,0.000000,4.000000,4.000000,4.000000,4.000000,4.000000,4.000000,4.000000,4.000000,4.000000,4.000000,4.000000,4.000000,4.000000,4.000000,4.000000,4.000000,4.000000,4.000000,4.000000,4.000000,4.000000,4.000000,4.000000,4.000000,4.000000,4.000000,4.000000,4.000000,4.000000,4.000000,4.000000,4.000000,100.000000
1614562225.490690,62.000000,0.000000,-0.356071,4.202711,-30.093302,10.326029,20.938080,4.821589,8.880843,22.020006,5.325412,17.701586,12.551006,7.201103,7.749794,13.807381,5.046356,20.438477,5.691567,25.259781,21.710043,5.436719,1.138456,3.713280,9.551488,11.863303,-29.451307,7.145736,-13.627316,5.173039,-3.727142,-1.422597,-35.519844,42.376015,8064.000000,0.000000,4.000000,,,,0.000000,4.000000,4.000000,4.000000,4.000000,4.000000,4.000000,4.000000,4.000000,4.000000,4.000000,4.000000,4.000000,4.000000,4.000000,4.000000,4.000000,4.000000,4.000000,4.000000,4.000000,4.000000,4.000000,4.000000,4.000000,4.000000,4.000000,4.000000,4.000000,4.000000,4.000000,4.000000,4.000000,100.000000
1614562225.498439,63.000000,0.000000,-2.406996,4.198508,-30.063210,11.341344,21.942781,4.303946,6.820680,20.459526,5.320086,18.196705,7.923071,7.706722,5.177942,16.357676,9.143873,20.418037,-5.596176,22.670418,20.149870,-3.799486,-7.580631,-0.905818,9.541937,0.569389,-35.575703,7.138591,-15.152149,-0.473160,-3.723415,-0.908354,-35.484325,41.820820,8064.000000,0.000000,4.000000,,,,0.000000,4.000000,4.000000,4.000000,4.000000,4.000000,4.000000,4.000000,4.000000,4.000000,4.000000,4.000000,4.000000,4.000000,4.000000,4.000000,4.000000,4.000000,4.000000,4.000000,4.000000,4.000000,4.000000,4.000000,4.000000,4.000000,4.000000,4.000000,4.000000,4.000000,4.000000,4.000000,4.000000,100.000000
1614562225.506088,64.000000,0.000000,-4.455872,4.194310,-30.033146,11.330003,18.331097,4.299643,2.711295,18.900604,5.314766,15.101585,4.325404,7.699016,1.583021,9.161831,10.673191,15.782234,-11.231606,18.545183,16.539978,-14.564918,-12.701256,-2.443373,9.019574,-10.713232,-35.540127,6.618631,-17.188280,-5.600892,-3.719692,-1.420266,-35.448841,40.753357,0.000000,199.000000,4.000000,,,,0.000000,4.000000,4.000000,4.000000,4.000000,4.000000,4.000000,4.000000,4.000000,4.000000,4.000000,4.000000,4.000000,4.000000,4.000000,4.000000,4.000000,4.000000,4.000000,4.000000,4.000000,4.000000,4.000000,4.000000,4.000000,4.000000,4.000000,4.000000,4.000000,4.000000,4.000000,4.000000,4.000000,100.000000
1614562225.513837,65.000000,0.000000,-4.964236,4.190115,-29.490292,9.780211,19.338406,4.295343,0.657302,18.368883,4.796631,12.009561,-1.832767,3.075932,-0.982665,-7.770407,6.559954,11.151068,-10.194733,14.424074,14.984976,-15.575994,-13.201375,-2.440930,6.446452,-11.215339,-34.478943,7.637654,-17.171091,-6.108111,-3.715972,-0.906025,-34.900570,45.840809,0.000000,181.000000,4.000000,,,,0.000000,4.000000,4.000000,4.000000,4.000000,4.000000,4.000000,4.000000,4.000000,4.000000,4.000000,4.000000,4.000000,4.000000,4.000000,4.000000,4.000000,4.000000,4.000000,4.000000,4.000000,4.000000,4.000000,4.000000,4.000000,4.000000,4.000000,4.000000,4.000000,4.000000,4.000000,4.000000,4.000000,100.000000
1614562225.521487,66.000000,0.000000,-6.497734,4.185925,-28.947981,5.667867,16.242144,4.291048,-0.881817,16.299232,5.304655,10.459089,-7.984781,-5.132272,-0.981682,-11.352381,2.450830,6.524532,-10.184538,11.845548,11.380247,-14.021956,-10.111250,-1.925669,5.414364,-9.665662,-34.444466,7.630016,-16.641100,-5.076362,-3.712256,-0.905119,-34.865669,43.743687,0.000000,196.000000,4.000000,,,,0.000000,4.000000,4.000000,4.000000,4.000000,4.000000,4.000000,4.000000,4.000000,4.000000,4.000000,4.000000,4.000000,4.000000,4.000000,4.000000,4.000000,4.000000,4.000000,4.000000,4.000000,4.000000,4.000000,4.000000,4.000000,4.000000,4.000000,4.000000,4.000000,4.000000,4.000000,4.000000,4.000000,100.000000
1614562225.529236,67.000000,0.000000,-8.542518,4.181739,-33.021599,2.585276,8.533594,4.286757,-3.445038,14.231650,5.812171,7.371707,-6.438334,-8.204062,-0.467880,-2.623080,2.961200,3.441084,-11.199994,13.372164,4.702200,-15.033575,-8.049857,-2.949384,5.921771,-11.194458,-32.358738,5.058284,-16.624458,-6.096927,-3.708544,-4.493958,-35.343624,26.776865,0.000000,198.000000,4.000000,,,,0.000000,4.000000,4.000000,4.000000,4.000000,4.000000,4.000000,4.000000,4.000000,4.000000,4.000000,4.000000,4.000000,4.000000,4.000000,4.000000,4.000000,4.000000,4.000000,4.000000,4.000000,4.000000,4.000000,4.000000,4.000000,4.000000,4.000000,4.000000,4.000000,4.000000,4.000000,4.000000,4.000000,100.000000
1614562225.536885,68.000000,0.000000,-9.046796,4.177557,-37.603962,3.095511,6.473779,4.282470,-3.441593,14.217420,2.729435,0.697669,0.234771,-7.170218,-0.980233,0.456467,-2.682787,0.360720,-6.060589,9.769048,2.646216,-15.531363,-5.477705,-1.920794,5.915849,-7.080699,-34.890484,3.514764,-17.120655,-6.090830,-3.704835,-10.643310,-34.795460,19.057781,0.000000,199.000000,4.000000,,,,0.000000,4.000000,4.000000,4.000000,4.000000,4.000000,4.000000,4.000000,4.000000,4.000000,4.000000,4.000000,4.000000,4.000000,4.000000,4.000000,4.000000,4.000000,4.000000,4.000000,4.000000,4.000000,4.000000,4.000000,4.000000,4.000000,4.000000,4.000000,4.000000,4.000000,4.000000,4.000000,4.000000,100.000000
1614562225.544734,69.000000,0.000000,-8.524928,4.173380,-36.540714,4.630877,6.467305,4.278187,-0.361228,10.100637,-1.888679,-6.995336,-1.816746,-7.163048,-0.466432,-1.595272,-17.039080,-5.280666,1.124959,1.041330,-0.433353,-15.003011,-2.908124,3.209332,5.909933,-2.458234,-38.445335,3.511249,-17.103535,-5.571918,-3.701130,-12.683949,-34.760666,27.243853,0.000000,182.000000,4.000000,,,,0.000000,4.000000,4.000000,4.000000,4.000000,4.000000,4.000000,4.000000,4.000000,4.000000,4.000000,4.000000,4.000000,4.000000,4.000000,4.000000,4.000000,4.000000,4.000000,4.000000,4.000000,4.000000,4.000000,4.000000,4.000000,4.000000,4.000000,4.000000,4.000000,4.000000,4.000000,4.000000,4.000000,100.000000
1614562225.552483,70.000000,0.000000,-8.516403,4.169207,-38.555458,0.010862,3.896735,4.273909,1.177595,3.936691,-2.912431,-12.629367,-8.481596,-7.155885,-0.465965,-0.055215,-24.714348,-9.890770,1.636654,-4.600737,-6.073946,-14.475186,-1.366755,6.795866,5.904023,-1.942955,-37.894070,1.456456,-16.573610,-5.566347,-3.697429,-12.158444,-38.828468,32.344814,0.000000,209.000000,4.000000,,,,0.000000,4.000000,4.000000,4.000000,4.000000,4.000000,4.000000,4.000000,4.000000,4.000000,4.000000,4.000000,4.000000,4.000000,4.000000,4.000000,4.000000,4.000000,4.000000,4.000000,4.000000,4.000000,4.000000,4.000000,4.000000,4.000000,4.000000,4.000000,4.000000,4.000000,4.000000,4.000000,4.000000,100.000000
1614562225.560332,71.000000,0.000000,-8.507887,3.652217,-47.234852,-8.194278,2.867198,4.269635,0.663596,1.881472,-1.883878,-13.129558,-6.934653,-8.687190,-0.465499,-0.055160,-22.638351,-8.855238,1.635017,-2.032034,-2.990949,-14.973532,-1.365388,3.712148,5.898119,-1.428192,-40.420280,-0.596283,-18.608318,-5.560781,-3.693732,-12.659106,-42.892204,29.748365,0.000000,180.000000,4.000000,,,,0.000000,4.000000,4.000000,4.000000,4.000000,4.000000,4.000000,4.000000,4.000000,4.000000,4.000000,4.000000,4.000000,4.000000,4.000000,4.000000,4.000000,4.000000,4.000000,4.000000,4.000000,4.000000,4.000000,4.000000,4.000000,4.000000,4.000000,4.000000,4.000000,4.000000,4.000000,4.000000,4.000000,100.000000
1614562225.568081,72.000000,0.000000,-8.499379,4.161385,-47.700436,-7.160442,3.889971,4.265365,0.662933,4.443693,-2.394814,-12.090787,-1.286693,-6.114400,-0.465034,0.457716,-21.077251,-5.256639,5.223126,2.585383,6.242812,-15.471379,-1.364022,1.657153,5.892221,1.137339,-44.995243,-1.108507,-23.717915,-5.555220,-3.690038,-13.672088,-43.362133,29.205797,0.000000,173.000000,4.000000,,,,0.000000,4.000000,4.000000,4.000000,4.000000,4.000000,4.000000,4.000000,4.000000,4.000000,4.000000,4.000000,4.000000,4.000000,4.000000,4.000000,4.000000,4.000000,4.000000,4.000000,4.000000,4.000000,4.000000,4.000000,4.000000,4.000000,4.000000,4.000000,4.000000,4.000000,4.000000,4.000000,4.000000,100.000000
1614562225.575930,73.000000,0.000000,-8.490880,4.157224,-38.421967,2.077487,3.886081,4.261100,1.687911,6.490531,-2.392420,-13.104338,0.253055,-2.518543,-0.464569,5.585463,-20.543354,-1.148819,2.140980,3.608438,9.826312,-10.840523,-2.388299,2.168317,5.886329,1.136202,-38.796402,-0.594578,-26.258299,-6.062485,-3.686348,-12.632775,-43.318771,30.202232,0.000000,195.000000,4.000000,,,,0.000000,4.000000,4.000000,4.000000,4.000000,4.000000,4.000000,4.000000,4.000000,4.000000,4.000000,4.000000,4.000000,4.000000,4.000000,4.000000,4.000000,4.000000,4.000000,4.000000,4.000000,4.000000,4.000000,4.000000,4.000000,4.000000,4.000000,4.000000,4.000000,4.000000,4.000000,4.000000,4.000000,100.000000
1614562225.583679,74.000000,0.000000,-8.482389,3.640246,-35.306622,4.126692,3.882195,4.256839,-1.390700,6.484041,-2.390027,-8.475848,-0.772839,-9.695511,-0.464104,5.067057,-22.574093,6.544638,-7.604751,5.656112,15.970332,-4.163016,-1.873091,-2.962057,5.367622,1.135065,-30.552477,-0.081163,-23.667938,-5.543602,-3.682662,-11.594501,-41.736992,31.710491,0.000000,199.000000,4.000000,,,,0.000000,4.000000,4.000000,4.000000,4.000000,4.000000,4.000000,4.000000,4.000000,4.000000,4.000000,4.000000,4.000000,4.000000,4.000000,4.000000,4.000000,4.000000,4.000000,4.000000,4.000000,4.000000,4.000000,4.000000,4.000000,4.000000,4.000000,4.000000,4.000000,4.000000,4.000000,4.000000,4.000000,100.000000
1614562225.591528,75.000000,0.000000,-8.473907,5.175067,-37.322598,3.096924,3.878313,4.252582,-7.030335,6.990377,-1.361996,1.789038,-0.259245,-18.403765,-0.463640,0.959426,-18.448954,13.717581,-10.674069,11.291482,26.210772,-3.646032,-0.845577,-9.112941,6.387895,2.159571,-31.034744,5.559944,-21.592989,-5.538058,-3.678979,-10.557265,-36.567047,30.653139,0.000000,181.000000,4.000000,,,,0.000000,4.000000,4.000000,4.000000,4.000000,4.000000,4.000000,4.000000,4.000000,4.000000,4.000000,4.000000,4.000000,4.000000,4.000000,4.000000,4.000000,4.000000,4.000000,4.000000,4.000000,4.000000,4.000000,4.000000,4.000000,4.000000,4.000000,4.000000,4.000000,4.000000,4.000000,4.000000,4.000000,100.000000
1614562225.599277,76.000000,0.000000,-8.465433,9.785277,-31.644249,9.760494,4.387255,4.761150,-7.023304,9.547490,1.203469,7.941095,0.766655,-11.205873,-0.463177,-0.067174,2.082316,15.242325,-9.637754,13.844293,25.671741,-2.103925,-4.434474,-10.129469,5.868687,0.618950,-28.952429,13.759512,-21.571396,-6.045341,-3.675300,-3.880042,-27.299711,29.596846,0.000000,203.000000,4.000000,,,,0.000000,4.000000,4.000000,4.000000,4.000000,4.000000,4.000000,4.000000,4.000000,4.000000,4.000000,4.000000,4.000000,4.000000,4.000000,4.000000,4.000000,4.000000,4.000000,4.000000,4.000000,4.000000,4.000000,4.000000,4.000000,4.000000,4.000000,4.000000,4.000000,4.000000,4.000000,4.000000,4.000000,100.000000
1614562225.607126,77.000000,0.000000,-8.456967,11.826774,-22.894655,15.391759,4.382868,2.705107,-5.477820,11.589224,2.740727,7.420333,-0.259753,-1.451078,-0.462713,-1.092748,20.541771,14.201441,-10.140937,13.317628,25.646069,5.077666,-4.942861,-9.606519,5.349998,3.695254,-21.231169,20.925240,-11.293414,-4.500834,-3.671625,8.944351,-14.451900,43.413403,0.000000,183.000000,4.000000,,,,0.000000,4.000000,4.000000,4.000000,4.000000,4.000000,4.000000,4.000000,4.000000,4.000000,4.000000,4.000000,4.000000,4.000000,4.000000,4.000000,4.000000,4.000000,4.000000,4.000000,4.000000,4.000000,4.000000,4.000000,4.000000,4.000000,4.000000,4.000000,4.000000,4.000000,4.000000,4.000000,4.000000,100.000000
1614562225.614875,78.000000,0.000000,-8.961330,12.327767,-20.307657,14.350726,3.352844,0.651120,-12.139009,10.551994,1.712345,6.387272,-0.259493,-3.500909,-0.462251,-3.142937,21.546871,19.828266,-8.079514,22.022259,33.825550,11.739255,5.318492,-8.058451,8.934391,13.435149,-15.056091,22.955597,3.589674,0.119052,-3.667953,15.602074,-6.232319,59.780247,0.000000,183.000000,4.000000,,,,0.000000,4.000000,4.000000,4.000000,4.000000,4.000000,4.000000,4.000000,4.000000,4.000000,4.000000,4.000000,4.000000,4.000000,4.000000,4.000000,4.000000,4.000000,4.000000,4.000000,4.000000,4.000000,4.000000,4.000000,4.000000,4.000000,4.000000,4.000000,4.000000,4.000000,4.000000,4.000000,4.000000,100.000000
1614562225.622724,79.000000,0.000000,-8.439549,11.289799,-26.441196,11.772273,4.375132,0.137648,-12.639690,10.541442,1.197812,8.432167,3.330510,-1.446126,-0.461788,0.962770,21.012505,24.423822,-2.943229,27.128443,27.637880,14.291618,11.467020,-3.947828,13.540841,17.524279,-14.528214,20.368538,2.560443,2.683035,-3.664285,9.432626,-12.892754,51.515339,0.000000,210.000000,4.000000,,,,0.000000,4.000000,4.000000,4.000000,4.000000,4.000000,4.000000,4.000000,4.000000,4.000000,4.000000,4.000000,4.000000,4.000000,4.000000,4.000000,4.000000,4.000000,4.000000,4.000000,4.000000,4.000000,4.000000,4.000000,4.000000,4.000000,4.000000,4.000000,4.000000,4.000000,4.000000,4.000000,4.000000,100.000000
1614562225.630473,80.000000,0.000000,-7.918289,3.586201,-38.722446,4.068193,4.883578,0.650331,-2.370640,11.556541,-0.854668,4.833991,1.788718,2.145064,-0.461327,3.013089,20.478670,10.553244,-1.401825,10.691057,1.969216,6.072199,1.199143,-1.892598,13.014480,7.250343,-23.744455,14.707145,-10.775451,2.167532,-3.147800,3.269346,-26.726015,34.027924,0.000000,199.000000,4.000000,,,,0.000000,4.000000,4.000000,4.000000,4.000000,4.000000,4.000000,4.000000,4.000000,4.000000,4.000000,4.000000,4.000000,4.000000,4.000000,4.000000,4.000000,4.000000,4.000000,4.000000,4.000000,4.000000,4.000000,4.000000,4.000000,4.000000,4.000000,4.000000,4.000000,4.000000,4.000000,4.000000,4.000000,100.000000
1614562225.638322,81.000000,0.000000,-9.448833,-3.596872,-48.427315,-7.217926,0.263309,0.649680,0.195833,8.980883,-8.546121,-5.427253,-4.879737,-6.575030,-0.460865,-3.656591,3.022295,-14.585514,-2.938884,-8.293993,-14.443009,-12.908233,-10.084107,-0.352244,10.950184,-8.141522,-35.515583,8.025770,-16.918522,2.165364,-4.170293,2.753257,-31.827494,30.404154,0.000000,182.000000,4.000000,,,,0.000000,4.000000,4.000000,4.000000,4.000000,4.000000,4.000000,4.000000,4.000000,4.000000,4.000000,4.000000,4.000000,4.000000,4.000000,4.000000,4.000000,4.000000,4.000000,4.000000,4.000000,4.000000,4.000000,4.000000,4.000000,4.000000,4.000000,4.000000,4.000000,4.000000,4.000000,4.000000,4.000000,100.000000
1614562225.646071,82.000000,0.000000,-7.388101,-4.106096,-49.917351,-11.826093,-3.326697,0.649031,-5.445388,4.869338,-16.229883,-12.088492,-8.464602,-17.850506,-0.460404,-8.268319,-16.980728,-25.340160,-1.910304,-11.362622,-13.915747,-23.664555,-8.022741,3.237852,8.375131,-13.261586,-39.582630,3.402360,-16.388783,2.163199,-3.653303,2.750503,-31.282846,27.296825,0.000000,191.000000,4.000000,,,,0.000000,4.000000,4.000000,4.000000,4.000000,4.000000,4.000000,4.000000,4.000000,4.000000,4.000000,4.000000,4.000000,4.000000,4.000000,4.000000,4.000000,4.000000,4.000000,4.000000,4.000000,4.000000,4.000000,4.000000,4.000000,4.000000,4.000000,4.000000,4.000000,4.000000,4.000000,4.000000,4.000000,100.000000
1614562225.653820,83.000000,0.000000,1.850056,-3.076349,-53.969997,-11.814267,-0.759268,0.648382,-2.363020,2.813186,-17.239294,-12.076405,-7.430495,-19.371117,0.052876,-7.234410,-19.015030,-23.263538,1.168529,-14.941003,-12.363369,-23.128069,-3.912154,7.337178,6.315474,-10.684222,-38.004585,3.398958,-16.885214,3.186677,-1.085547,2.234932,-31.764383,20.090042,0.000000,195.000000,4.000000,,,,0.000000,4.000000,4.000000,4.000000,4.000000,4.000000,4.000000,4.000000,4.000000,4.000000,4.000000,4.000000,4.000000,4.000000,4.000000,4.000000,4.000000,4.000000,4.000000,4.000000,4.000000,4.000000,4.000000,4.000000,4.000000,4.000000,4.000000,4.000000,4.000000,4.000000,4.000000,4.000000,4.000000,100.000000
1614562225.661569,84.000000,0.000000,8.002052,-3.586093,-64.685257,-15.392196,-0.758509,0.647733,0.716266,2.297552,-15.683593,-14.628430,-7.423065,-17.813284,-0.972817,-7.227175,-17.970373,-26.317198,-1.396742,-22.618370,-15.427929,-23.104942,-10.062088,5.791379,6.821979,-13.750461,-38.479404,1.344277,-17.893970,-0.406254,-0.571641,0.694236,-32.245441,18.018669,0.000000,203.000000,4.000000,,,,0.000000,4.000000,4.000000,4.000000,4.000000,4.000000,4.000000,4.000000,4.000000,4.000000,4.000000,4.000000,4.000000,4.000000,4.000000,4.000000,4.000000,4.000000,4.000000,4.000000,4.000000,4.000000,4.000000,4.000000,4.000000,4.000000,4.000000,4.000000,4.000000,4.000000,4.000000,4.000000,4.000000,100.000000
1614562225.669219,85.000000,0.000000,5.942768,-3.582507,-70.261597,-18.966547,-5.373135,1.159906,-4.412655,-0.268848,-17.719191,-19.229187,-8.441283,-18.308292,-3.023127,-7.732769,-18.978045,-21.675495,-8.062012,-17.467546,-13.874040,-22.569016,-16.718693,-2.932361,2.712593,-17.839275,-38.953743,-6.349375,-17.363255,-8.098155,-3.135172,-2.383381,-32.213196,15.949368,0.000000,204.000000,4.000000,,,,0.000000,4.000000,4.000000,4.000000,4.000000,4.000000,4.000000,4.000000,4.000000,4.000000,4.000000,4.000000,4.000000,4.000000,4.000000,4.000000,4.000000,4.000000,4.000000,4.000000,4.000000,4.000000,4.000000,4.000000,4.000000,4.000000,4.000000,4.000000,4.000000,4.000000,4.000000,4.000000,4.000000,100.000000
1614562225.676968,86.000000,0.000000,3.885543,-3.066104,-67.627235,-19.460402,-5.880582,-0.379715,-6.459525,-1.294220,-20.265575,-19.209957,-6.894380,-18.802803,-4.558565,-7.212215,-11.266758,-1.140999,-10.105232,-6.168027,-4.629396,-22.546448,-16.701975,-9.596095,-5.495248,-14.231691,-38.401970,-8.907128,-17.345892,-13.218262,-3.644857,-4.945101,-31.668161,11.318035,0.000000,200.000000,4.000000,,,,0.000000,4.000000,4.000000,4.000000,4.000000,4.000000,4.000000,4.000000,4.000000,4.000000,4.000000,4.000000,4.000000,4.000000,4.000000,4.000000,4.000000,4.000000,4.000000,4.000000,4.000000,4.000000,4.000000,4.000000,4.000000,4.000000,4.000000,4.000000,4.000000,4.000000,4.000000,4.000000,4.000000,100.000000
1614562225.684617,87.000000,0.000000,2.856017,-3.063038,-64.482681,-18.415300,-3.823420,-2.943438,-8.504347,-0.780105,-20.758129,-16.626644,-4.836204,-19.809643,-4.554007,-8.230644,-3.050363,9.629373,-10.095127,0.504807,5.631644,-23.549541,-16.685272,-9.586499,-9.592318,-12.678998,-37.850746,-3.770016,-16.302904,-14.230685,-3.128392,-5.452976,-26.508287,14.896461,0.000000,189.000000,4.000000,,,,0.000000,4.000000,4.000000,4.000000,4.000000,4.000000,4.000000,4.000000,4.000000,4.000000,4.000000,4.000000,4.000000,4.000000,4.000000,4.000000,4.000000,4.000000,4.000000,4.000000,4.000000,4.000000,4.000000,4.000000,4.000000,4.000000,4.000000,4.000000,4.000000,4.000000,4.000000,4.000000,4.000000,100.000000
1614562225.692366,88.000000,0.000000,2.340340,-3.059975,-64.418198,-12.755859,-3.306776,-3.453315,-12.598407,-1.292146,-19.198910,-12.507454,-2.267265,-14.148807,-4.549452,-6.171132,4.132174,11.158205,-10.085032,17.940201,19.984987,-7.628556,-15.130126,-10.089733,-10.095546,-7.025294,-33.197514,0.336318,-14.235320,-12.677993,-4.150904,-4.421882,-20.327932,19.496948,0.000000,197.000000,4.000000,,,,0.000000,4.000000,4.000000,4.000000,4.000000,4.000000,4.000000,4.000000,4.000000,4.000000,4.000000,4.000000,4.000000,4.000000,4.000000,4.000000,4.000000,4.000000,4.000000,4.000000,4.000000,4.000000,4.000000,4.000000,4.000000,4.000000,4.000000,4.000000,4.000000,4.000000,4.000000,4.000000,4.000000,100.000000
1614562225.700015,89.000000,0.000000,2.850820,-3.056915,-66.405067,-7.102077,1.824736,-2.937041,-12.072989,-0.265212,-17.641249,-5.315460,4.914489,-3.365427,-4.032083,-0.011114,21.563940,25.506021,-8.023664,39.460720,40.477821,13.917534,-7.935508,-9.566823,-8.034167,13.494552,-24.446365,-0.176839,-12.682623,-8.049930,-3.633933,-2.366178,-19.281963,18.964632,0.000000,226.000000,4.000000,,,,0.000000,4.000000,4.000000,4.000000,4.000000,4.000000,4.000000,4.000000,4.000000,4.000000,4.000000,4.000000,4.000000,4.000000,4.000000,4.000000,4.000000,4.000000,4.000000,4.000000,4.000000,4.000000,4.000000,4.000000,4.000000,4.000000,4.000000,4.000000,4.000000,4.000000,4.000000,4.000000,4.000000,100.000000
1614562225.707764,90.000000,0.000000,2.335149,-3.053858,-63.261734,-7.607796,7.976758,-2.934104,-11.548095,1.273514,-15.572326,-0.181939,7.986498,-2.336421,-4.540871,-0.523924,31.798786,32.147182,-7.502820,32.754593,38.386063,12.877975,-3.825009,-9.044436,1.717456,17.583622,-19.293715,-0.689483,-13.182761,-5.477777,-3.117479,-1.338171,-17.211399,22.535410,0.000000,172.000000,4.000000,,,,0.000000,4.000000,4.000000,4.000000,4.000000,4.000000,4.000000,4.000000,4.000000,4.000000,4.000000,4.000000,4.000000,4.000000,4.000000,4.000000,4.000000,4.000000,4.000000,4.000000,4.000000,4.000000,4.000000,4.000000,4.000000,4.000000,4.000000,4.000000,4.000000,4.000000,4.000000,4.000000,4.000000,100.000000
1614562225.715413,91.000000,0.000000,-2.282571,-3.050804,-52.942062,-2.984804,7.455960,-2.931170,-14.100649,3.323523,-13.505472,-0.694578,0.286204,-6.949469,-4.536330,-5.138784,23.049038,14.166316,-9.546599,11.696198,14.245112,-1.493877,-4.846825,-11.086673,10.433687,-3.459603,-18.761600,0.336848,-13.169579,-5.472300,-7.216925,-1.336833,-12.578804,26.615438,0.000000,216.000000,4.000000,,,,0.000000,4.000000,4.000000,4.000000,4.000000,4.000000,4.000000,4.000000,4.000000,4.000000,4.000000,4.000000,4.000000,4.000000,4.000000,4.000000,4.000000,4.000000,4.000000,4.000000,4.000000,4.000000,4.000000,4.000000,4.000000,4.000000,4.000000,4.000000,4.000000,4.000000,4.000000,4.000000,4.000000,100.000000
1614562225.723162,92.000000,0.000000,-4.844391,-3.047753,-49.812199,6.761771,7.448504,-2.928239,-6.907061,11.012507,-11.953505,0.331758,-2.278185,1.262609,-0.942050,1.533021,22.513168,6.972663,-6.972950,11.171681,11.153944,-3.543665,-5.354798,-5.434561,7.859151,-4.481784,-19.768480,0.336511,-13.156408,-1.877084,-10.799452,-0.822675,-14.104687,20.947798,0.000000,197.000000,4.000000,,,,0.000000,4.000000,4.000000,4.000000,4.000000,4.000000,4.000000,4.000000,4.000000,4.000000,4.000000,4.000000,4.000000,4.000000,4.000000,4.000000,4.000000,4.000000,4.000000,4.000000,4.000000,4.000000,4.000000,4.000000,4.000000,4.000000,4.000000,4.000000,4.000000,4.000000,4.000000,4.000000,4.000000,100.000000
1614562225.730812,93.000000,0.000000,-2.788264,-3.044705,-57.454693,5.729368,11.030799,-2.925311,5.920359,19.206623,-12.454371,3.408349,5.929222,12.543397,3.161456,11.787898,27.106041,13.632357,-2.350593,14.750254,20.373560,-1.488840,-4.323802,8.929848,6.312830,11.932954,-18.723070,-0.176646,-12.630432,2.227357,-8.224549,-1.847494,-21.270069,15.285825,0.000000,197.000000,4.000000,,,,0.000000,4.000000,4.000000,4.000000,4.000000,4.000000,4.000000,4.000000,4.000000,4.000000,4.000000,4.000000,4.000000,4.000000,4.000000,4.000000,4.000000,4.000000,4.000000,4.000000,4.000000,4.000000,4.000000,4.000000,4.000000,4.000000,4.000000,4.000000,4.000000,4.000000,4.000000,4.000000,4.000000,100.000000
1614562225.738561,94.000000,0.000000,-0.734194,-3.041661,-61.499802,-1.968669,8.968487,-2.922385,7.452900,19.700237,-12.441917,3.404941,4.384831,6.377008,3.671115,7.673546,12.719960,1.311032,-2.861063,0.889349,4.455750,-3.538633,-5.345120,13.536303,9.896261,7.818457,-18.704348,-0.176469,-12.617802,2.225130,-7.190684,-4.409749,-24.325722,15.783359,0.000000,212.000000,4.000000,,,,0.000000,4.000000,4.000000,4.000000,4.000000,4.000000,4.000000,4.000000,4.000000,4.000000,4.000000,4.000000,4.000000,4.000000,4.000000,4.000000,4.000000,4.000000,4.000000,4.000000,4.000000,4.000000,4.000000,4.000000,4.000000,4.000000,4.000000,4.000000,4.000000,4.000000,4.000000,4.000000,4.000000,100.000000
1614562225.746210,95.000000,0.000000,-1.759101,-3.038619,-58.874203,-4.017982,4.344133,-2.919463,3.855703,13.013869,-12.429476,2.888716,-6.901605,-5.937062,3.154624,-0.539255,0.912368,-13.049253,0.731542,-11.419232,-10.420501,-3.535094,-4.826954,9.933022,10.399185,-3.984234,-22.788206,0.336528,-14.656466,1.710084,-10.260417,-5.430980,-23.788576,15.767575,0.000000,167.000000,4.000000,,,,0.000000,4.000000,4.000000,4.000000,4.000000,4.000000,4.000000,4.000000,4.000000,4.000000,4.000000,4.000000,4.000000,4.000000,4.000000,4.000000,4.000000,4.000000,4.000000,4.000000,4.000000,4.000000,4.000000,4.000000,4.000000,4.000000,4.000000,4.000000,4.000000,4.000000,4.000000,4.000000,4.000000,100.000000
1614562225.753959,96.000000,0.000000,-1.757342,-3.548401,-61.379429,-3.501144,5.365430,-2.916544,5.903130,10.949574,-12.417046,3.398647,-8.945986,-5.418304,6.228392,-0.025895,2.962738,-10.984921,4.320554,-12.433455,-7.333158,-4.557200,-5.334948,9.410270,9.363145,-3.980249,-26.867983,-0.176629,-16.693090,2.221195,-9.224515,-4.912728,-23.764788,12.162065,8064.000000,0.000000,4.000000,,,,0.000000,4.000000,4.000000,4.000000,4.000000,4.000000,4.000000,4.000000,4.000000,4.000000,4.000000,4.000000,4.000000,4.000000,4.000000,4.000000,4.000000,4.000000,4.000000,4.000000,4.000000,4.000000,4.000000,4.000000,4.000000,4.000000,4.000000,4.000000,4.000000,4.000000,4.000000,4.000000,4.000000,100.000000
1614562225.761608,97.000000,0.000000,-1.242764,-2.519212,-60.292408,-2.984822,7.924168,-2.913627,8.974150,14.015548,-12.404629,2.369608,-7.911399,-2.335963,7.247805,-1.051511,-2.681250,-17.640604,-1.324792,-18.062046,-16.043774,-13.783412,-7.380895,5.811116,9.353782,-7.566012,-27.353935,-0.176453,-16.676397,1.706153,-6.651188,-4.907816,-24.253843,10.611441,8064.000000,0.000000,4.000000,,,,0.000000,4.000000,4.000000,4.000000,4.000000,4.000000,4.000000,4.000000,4.000000,4.000000,4.000000,4.000000,4.000000,4.000000,4.000000,4.000000,4.000000,4.000000,4.000000,4.000000,4.000000,4.000000,4.000000,4.000000,4.000000,4.000000,4.000000,4.000000,4.000000,4.000000,4.000000,4.000000,4.000000,100.000000
1614562225.769457,98.000000,0.000000,-1.241521,0.047410,-55.616734,-2.981838,7.403423,-2.910713,8.452355,11.950250,-12.392224,-0.196864,-8.929129,-8.487473,4.676454,-7.204305,-10.883698,-27.879374,-5.938852,-21.633728,-21.155935,-21.974756,-8.911976,-1.887003,8.831608,-13.712293,-26.300940,2.387826,-16.659721,1.704447,-6.644537,-4.902908,-23.716768,14.190573,8064.000000,0.000000,4.000000,,,,0.000000,4.000000,4.000000,4.000000,4.000000,4.000000,4.000000,4.000000,4.000000,4.000000,4.000000,4.000000,4.000000,4.000000,4.000000,4.000000,4.000000,4.000000,4.000000,4.000000,4.000000,4.000000,4.000000,4.000000,4.000000,4.000000,4.000000,4.000000,4.000000,4.000000,4.000000,4.000000,4.000000,100.000000
1614562225.777206,99.000000,0.000000,-1.240280,1.073004,-62.227783,-8.107060,6.883199,-2.907803,7.418262,3.733171,-12.379832,-1.222309,-1.740712,-11.043088,2.620496,-7.197101,-6.770249,-15.030981,-3.881631,-14.432607,-3.186060,-22.465603,-9.928704,-2.910757,6.258674,-12.672939,-26.787460,3.923900,-16.643063,1.702742,-7.150713,-4.385185,-23.180231,15.714844,8064.000000,0.000000,4.000000,,,,0.000000,4.000000,4.000000,4.000000,4.000000,4.000000,4.000000,4.000000,4.000000,4.000000,4.000000,4.000000,4.000000,4.000000,4.000000,4.000000,4.000000,4.000000,4.000000,4.000000,4.000000,4.000000,4.000000,4.000000,4.000000,4.000000,4.000000,4.000000,4.000000,4.000000,4.000000,4.000000,4.000000,100.000000
1614562225.785055,100.000000,0.000000,-2.264680,0.559110,-72.934784,-13.739980,7.389136,-3.417716,7.923664,1.678156,-12.367453,-0.708266,8.004619,-4.878199,2.105055,-2.574519,-3.173736,6.009691,-2.852109,-1.084841,8.611998,-16.289291,-9.405955,-0.856565,5.226774,-6.506420,-26.760672,-0.182588,-16.626419,1.188219,-6.630742,-4.893620,-23.669872,11.083744,8064.000000,0.000000,4.000000,,,,0.000000,4.000000,4.000000,4.000000,4.000000,4.000000,4.000000,4.000000,4.000000,4.000000,4.000000,4.000000,4.000000,4.000000,4.000000,4.000000,4.000000,4.000000,4.000000,4.000000,4.000000,4.000000,4.000000,4.000000,4.000000,4.000000,4.000000,4.000000,4.000000,4.000000,4.000000,4.000000,4.000000,100.000000
1614562225.792804,101.000000,0.000000,-0.211134,0.558551,-70.297745,-9.623675,7.381747,-2.901477,7.915740,5.779042,-12.355084,-0.707558,13.124819,-2.309218,3.128591,2.556260,1.444823,19.337015,1.253308,20.967525,17.834154,-4.478130,-2.729883,1.195574,5.221547,6.833419,-26.733912,-4.284969,-16.609793,2.725492,-7.136931,-4.375906,-22.620562,7.995738,8064.000000,0.000000,4.000000,,,,0.000000,4.000000,4.000000,4.000000,4.000000,4.000000,4.000000,4.000000,4.000000,4.000000,4.000000,4.000000,4.000000,4.000000,4.000000,4.000000,4.000000,4.000000,4.000000,4.000000,4.000000,4.000000,4.000000,4.000000,4.000000,4.000000,4.000000,4.000000,4.000000,4.000000,4.000000,4.000000,4.000000,100.000000
1614562225.800653,102.000000,0.000000,4.917283,0.557993,-63.047962,-7.049949,7.374365,-2.898576,7.907825,6.798904,-12.342730,-0.706850,20.804001,-3.332550,5.689565,9.733191,16.827993,32.138191,7.918721,44.023483,37.816322,4.757117,4.965155,7.348225,8.806069,22.724022,-26.194357,-3.767864,-16.593184,4.774049,-7.129795,-3.858709,-23.623581,8.500563,8064.000000,0.000000,4.000000,,,,0.000000,4.000000,4.000000,4.000000,4.000000,4.000000,4.000000,4.000000,4.000000,4.000000,4.000000,4.000000,4.000000,4.000000,4.000000,4.000000,4.000000,4.000000,4.000000,4.000000,4.000000,4.000000,4.000000,4.000000,4.000000,4.000000,4.000000,4.000000,4.000000,4.000000,4.000000,4.000000,4.000000,100.000000
1614562225.808402,103.000000,0.000000,6.963647,0.557435,-62.984913,-10.632643,7.366991,-3.921318,7.899917,6.279284,-11.817567,-0.706143,27.449865,-3.329217,6.709516,14.338842,25.529114,38.772720,8.936443,43.466637,38.804146,4.752360,5.985831,12.469082,10.335725,25.265400,-26.168163,-4.276917,-16.576590,5.794916,-6.609844,-9.495876,-27.702522,6.953600,8064.000000,0.000000,4.000000,,,,0.000000,4.000000,4.000000,4.000000,4.000000,4.000000,4.000000,4.000000,4.000000,4.000000,4.000000,4.000000,4.000000,4.000000,4.000000,4.000000,4.000000,4.000000,4.000000,4.000000,4.000000,4.000000,4.000000,4.000000,4.000000,4.000000,4.000000,4.000000,4.000000,4.000000,4.000000,4.000000,4.000000,100.000000
1614562225.816251,104.000000,0.000000,4.905402,0.556877,-64.460388,-9.596369,7.359624,-2.378935,7.892017,6.785826,-13.344211,-0.192616,26.396774,-2.813067,8.754088,14.837324,24.477943,37.708305,9.440328,33.166759,24.919188,4.234787,7.518307,14.507895,8.274107,23.701674,-26.141994,-7.349563,-16.560013,5.789121,-8.654516,-15.640226,-29.726101,4.382544,8064.000000,0.000000,4.000000,,,,0.000000,4.000000,4.000000,4.000000,4.000000,4.000000,4.000000,4.000000,4.000000,4.000000,4.000000,4.000000,4.000000,4.000000,4.000000,4.000000,4.000000,4.000000,4.000000,4.000000,4.000000,4.000000,4.000000,4.000000,4.000000,4.000000,4.000000,4.000000,4.000000,4.000000,4.000000,4.000000,4.000000,100.000000
1614562225.824000,105.000000,0.000000,7.977419,0.556320,-66.960030,-5.997029,7.352264,2.238828,7.884125,6.779040,-16.920610,-0.705244,27.396017,-1.784613,17.976103,18.412231,25.479107,37.670597,15.071913,33.133595,21.817345,5.769014,12.638993,21.160053,12.881217,26.754894,-25.603031,-7.855034,-16.543453,5.783332,-10.184323,-16.650227,-30.209196,4.378161,8064.000000,0.000000,4.000000,,,,0.000000,4.000000,4.000000,4.000000,4.000000,4.000000,4.000000,4.000000,4.000000,4.000000,4.000000,4.000000,4.000000,4.000000,4.000000,4.000000,4.000000,4.000000,4.000000,4.000000,4.000000,4.000000,4.000000,4.000000,4.000000,4.000000,4.000000,4.000000,4.000000,4.000000,4.000000,4.000000,4.000000,100.000000
1614562225.831849,106.000000,0.000000,13.610468,0.555764,-70.482819,-9.067955,7.344912,5.313512,9.414702,6.772261,-15.878048,-0.191719,24.804520,-3.321290,22.573513,17.880999,19.812603,33.017540,17.108122,25.920973,15.128860,-0.390601,12.626354,24.215816,16.970900,19.035831,-27.628712,-7.847178,-16.526909,3.213446,-8.122857,-15.607936,-35.820011,4.373784,8064.000000,0.000000,4.000000,,,,0.000000,4.000000,4.000000,4.000000,4.000000,4.000000,4.000000,4.000000,4.000000,4.000000,4.000000,4.000000,4.000000,4.000000,4.000000,4.000000,4.000000,4.000000,4.000000,4.000000,4.000000,4.000000,4.000000,4.000000,4.000000,4.000000,4.000000,4.000000,4.000000,4.000000,4.000000,4.000000,4.000000,100.000000
1614562225.839598,107.000000,0.000000,13.596857,1.068029,-68.873871,-9.571708,7.337567,4.282558,8.379646,6.765489,-9.708323,0.321294,8.882278,-9.984635,15.884272,7.093886,5.946636,16.574268,12.475630,7.433514,0.754758,-10.646621,6.459882,18.037754,6.697519,2.093719,-32.216469,-7.326511,-16.510382,-0.892331,-6.576272,-16.105148,-41.938038,4.882230,8064.000000,0.000000,4.000000,,,,0.000000,4.000000,4.000000,4.000000,4.000000,4.000000,4.000000,4.000000,4.000000,4.000000,4.000000,4.000000,4.000000,4.000000,4.000000,4.000000,4.000000,4.000000,4.000000,4.000000,4.000000,4.000000,4.000000,4.000000,4.000000,4.000000,4.000000,4.000000,4.000000,4.000000,4.000000,4.000000,4.000000,100.000000
1614562225.847447,108.000000,0.000000,9.993517,-0.471501,-66.240898,-6.485213,7.330229,4.278275,3.243062,6.758723,-10.724257,-4.294412,-9.075321,-14.077215,11.253003,-1.631156,-5.341362,-6.006409,5.283667,-6.420074,-6.938305,-14.738538,-4.315809,10.327409,-5.616870,-9.190426,-36.799637,-7.319184,-16.493872,-3.455542,-7.082517,-16.089043,-42.408920,4.877348,8064.000000,0.000000,4.000000,,,,0.000000,4.000000,4.000000,4.000000,4.000000,4.000000,4.000000,4.000000,4.000000,4.000000,4.000000,4.000000,4.000000,4.000000,4.000000,4.000000,4.000000,4.000000,4.000000,4.000000,4.000000,4.000000,4.000000,4.000000,4.000000,4.000000,4.000000,4.000000,4.000000,4.000000,4.000000,4.000000,4.000000,100.000000
1614562225.855197,109.000000,0.000000,9.983523,-2.522311,-67.713120,-12.119753,7.322899,4.786818,0.675716,6.751965,-15.328917,-10.443964,-18.297016,-14.575958,9.190468,-5.732090,-13.541149,-28.564505,-1.388283,-22.823910,-23.854443,-14.723800,-19.183289,4.163235,-6.124074,-18.412004,-40.352577,-7.824686,-16.477379,-4.990548,-7.075434,-16.072954,-42.366512,3.846830,8064.000000,0.000000,4.000000,,,,0.000000,4.000000,4.000000,4.000000,4.000000,4.000000,4.000000,4.000000,4.000000,4.000000,4.000000,4.000000,4.000000,4.000000,4.000000,4.000000,4.000000,4.000000,4.000000,4.000000,4.000000,4.000000,4.000000,4.000000,4.000000,4.000000,4.000000,4.000000,4.000000,4.000000,4.000000,4.000000,4.000000,100.000000
1614562225.863046,110.000000,0.000000,8.435078,-3.545430,-66.619766,-16.723019,7.315577,2.730749,-0.863421,6.745213,-13.262306,-12.484802,-24.945385,-20.715229,-1.075133,-13.931485,-18.142992,-39.305172,-6.515100,-35.621597,-39.728024,-18.298819,-25.317951,-1.994774,-5.092309,-29.675644,-41.850689,-7.304040,-16.460901,-6.011198,-7.068359,-15.031240,-39.760044,6.407085,8064.000000,0.000000,4.000000,,,,0.000000,4.000000,4.000000,4.000000,4.000000,4.000000,4.000000,4.000000,4.000000,4.000000,4.000000,4.000000,4.000000,4.000000,4.000000,4.000000,4.000000,4.000000,4.000000,4.000000,4.000000,4.000000,4.000000,4.000000,4.000000,4.000000,4.000000,4.000000,4.000000,4.000000,4.000000,4.000000,4.000000,100.000000
1614562225.870795,111.000000,0.000000,1.759976,-3.029064,-61.424938,-8.501167,7.308261,0.163915,-12.144609,6.738467,-8.633659,-11.446676,-27.997362,-26.848360,-9.279185,-20.071400,-18.124849,-36.188942,-8.047047,-27.380850,-24.816502,-17.767700,-18.625967,-3.531241,-5.087217,-31.184429,-41.296017,-2.681352,-16.444441,-5.492366,-7.061291,-12.452106,-30.489513,13.580166,8064.000000,0.000000,4.000000,,,,0.000000,4.000000,4.000000,4.000000,4.000000,4.000000,4.000000,4.000000,4.000000,4.000000,4.000000,4.000000,4.000000,4.000000,4.000000,4.000000,4.000000,4.000000,4.000000,4.000000,4.000000,4.000000,4.000000,4.000000,4.000000,4.000000,4.000000,4.000000,4.000000,4.000000,4.000000,4.000000,4.000000,100.000000
1614562225.878544,112.000000,0.000000,-2.857168,-3.026035,-58.286591,-1.313179,7.300952,0.163752,-24.952978,6.731729,-8.112205,-11.948050,-28.995007,-25.795870,-8.757086,-20.564150,-20.670828,-34.101471,-7.013358,-16.584238,1.362161,-9.031983,-14.504776,-3.527709,-1.492386,-17.307091,-37.152157,0.398252,-16.427996,-5.999695,-7.054229,-11.926834,-22.766716,16.643509,8064.000000,0.000000,4.000000,,,,0.000000,4.000000,4.000000,4.000000,4.000000,4.000000,4.000000,4.000000,4.000000,4.000000,4.000000,4.000000,4.000000,4.000000,4.000000,4.000000,4.000000,4.000000,4.000000,4.000000,4.000000,4.000000,4.000000,4.000000,4.000000,4.000000,4.000000,4.000000,4.000000,4.000000,4.000000,4.000000,4.000000,100.000000
1614562225.886293,113.000000,0.000000,-1.828670,-3.023009,-59.253944,-5.414430,7.293652,0.676408,-19.799820,6.724997,-9.129734,-12.448922,-27.427549,-25.257254,-10.799611,-19.517944,-21.162977,-29.451986,-5.980704,-14.003551,8.540286,-2.356285,-9.874887,-2.498541,2.611670,-1.905169,-33.525261,0.397854,-15.898747,-5.993695,-7.047175,-11.914907,-22.743950,13.037121,8064.000000,0.000000,4.000000,,,,0.000000,4.000000,4.000000,4.000000,4.000000,4.000000,4.000000,4.000000,4.000000,4.000000,4.000000,4.000000,4.000000,4.000000,4.000000,4.000000,4.000000,4.000000,4.000000,4.000000,4.000000,4.000000,4.000000,4.000000,4.000000,4.000000,4.000000,4.000000,4.000000,4.000000,4.000000,4.000000,4.000000,100.000000
1614562225.894142,114.000000,0.000000,-1.314021,-3.532806,-59.707512,-7.973117,7.286358,-0.349909,-1.318481,6.718272,-8.607783,-10.385192,-16.118071,-25.231997,-5.147786,-11.806118,-14.475147,-14.037919,-8.026006,-6.297240,8.018925,-2.353929,-0.634243,2.632163,2.609059,4.763403,-32.978916,-0.115364,-16.395668,-4.449240,-7.040128,-9.851710,-25.285309,11.485622,8064.000000,0.000000,4.000000,,,,0.000000,4.000000,4.000000,4.000000,4.000000,4.000000,4.000000,4.000000,4.000000,4.000000,4.000000,4.000000,4.000000,4.000000,4.000000,4.000000,4.000000,4.000000,4.000000,4.000000,4.000000,4.000000,4.000000,4.000000,4.000000,4.000000,4.000000,4.000000,4.000000,4.000000,4.000000,4.000000,4.000000,100.000000
1614562225.901891,115.000000,0.000000,-2.338348,-2.503633,-58.622162,-6.426683,7.279071,1.701723,12.016171,7.224374,-8.086355,-8.323524,2.359586,-15.463175,11.267618,1.539021,-10.358108,-0.690548,-5.453876,2.939827,14.677572,-2.351575,1.417674,7.244915,1.067988,5.784281,-32.945938,0.397572,-15.866452,-5.983252,-4.981806,-7.277756,-25.772842,13.012599,8064.000000,0.000000,4.000000,,,,0.000000,4.000000,4.000000,4.000000,4.000000,4.000000,4.000000,4.000000,4.000000,4.000000,4.000000,4.000000,4.000000,4.000000,4.000000,4.000000,4.000000,4.000000,4.000000,4.000000,4.000000,4.000000,4.000000,4.000000,4.000000,4.000000,4.000000,4.000000,4.000000,4.000000,4.000000,4.000000,4.000000,100.000000
1614562225.909540,116.000000,0.000000,-1.823189,0.062974,-58.563541,-6.420256,7.271792,7.853867,17.645180,7.217150,-8.591089,-6.776739,17.741842,1.475365,18.948658,13.845174,0.421481,13.669117,6.859270,15.244579,30.560331,3.291802,8.595743,10.827414,4.143843,12.445163,-30.348888,-0.115646,-15.337766,-4.438807,-2.925542,-8.296120,-26.259892,11.461124,8064.000000,0.000000,4.000000,,,,0.000000,4.000000,4.000000,4.000000,4.000000,4.000000,4.000000,4.000000,4.000000,4.000000,4.000000,4.000000,4.000000,4.000000,4.000000,4.000000,4.000000,4.000000,4.000000,4.000000,4.000000,4.000000,4.000000,4.000000,4.000000,4.000000,4.000000,4.000000,4.000000,4.000000,4.000000,4.000000,4.000000,100.000000
1614562225.917289,117.000000,0.000000,0.742737,0.575731,-61.581898,-7.439477,7.264521,11.948578,19.165997,6.184292,-8.582499,-3.180219,33.621536,12.243121,19.955351,27.677483,25.036444,42.886219,17.108820,41.896000,47.452847,12.006459,26.023045,20.560177,11.319186,26.791693,-28.267258,-0.628351,-17.886530,5.822042,-3.435437,-9.313464,-26.746452,7.859920,8064.000000,0.000000,4.000000,,,,0.000000,4.000000,4.000000,4.000000,4.000000,4.000000,4.000000,4.000000,4.000000,4.000000,4.000000,4.000000,4.000000,4.000000,4.000000,4.000000,4.000000,4.000000,4.000000,4.000000,4.000000,4.000000,4.000000,4.000000,4.000000,4.000000,4.000000,4.000000,4.000000,4.000000,4.000000,4.000000,4.000000,100.000000
1614562225.924938,118.000000,0.000000,2.793276,0.575155,-63.058781,-7.432037,7.257256,11.936629,20.172472,7.716569,-8.573915,0.925525,39.741760,13.256518,27.627703,35.854935,35.267818,57.202305,17.604532,52.623337,43.302830,12.507274,25.997023,28.744745,17.461714,33.431568,-30.803093,-1.140543,-19.407106,10.944425,-3.432001,-7.765689,-26.206884,6.826419,8064.000000,0.000000,4.000000,,,,0.000000,4.000000,4.000000,4.000000,4.000000,4.000000,4.000000,4.000000,4.000000,4.000000,4.000000,4.000000,4.000000,4.000000,4.000000,4.000000,4.000000,4.000000,4.000000,4.000000,4.000000,4.000000,4.000000,4.000000,4.000000,4.000000,4.000000,4.000000,4.000000,4.000000,4.000000,4.000000,4.000000,100.000000
1614562225.932687,119.000000,0.000000,2.790483,0.574580,-62.995720,-6.911785,7.249999,10.386230,20.665119,6.683211,-10.103804,-0.101041,27.907146,9.653519,28.625717,27.613951,21.899218,35.606640,14.510005,26.416866,16.080040,-4.941131,4.432563,24.613436,17.957073,16.475060,-36.926136,0.399059,-20.413340,2.728352,-3.428569,-8.270744,-27.719139,8.358054,8064.000000,0.000000,4.000000,,,,0.000000,4.000000,4.000000,4.000000,4.000000,4.000000,4.000000,4.000000,4.000000,4.000000,4.000000,4.000000,4.000000,4.000000,4.000000,4.000000,4.000000,4.000000,4.000000,4.000000,4.000000,4.000000,4.000000,4.000000,4.000000,4.000000,4.000000,4.000000,4.000000,4.000000,4.000000,4.000000,4.000000,100.000000
1614562225.940337,120.000000,0.000000,1.762051,0.061185,-66.009651,-7.417694,7.242749,8.324562,16.541891,0.009862,-12.144981,-6.767607,13.520265,4.002840,19.879143,16.304285,8.543984,8.904368,13.469853,0.749424,-9.577065,-22.372087,-6.853920,15.358053,11.785269,-10.208083,-40.991772,-0.626981,-26.546772,-5.479504,-3.425141,-13.390678,-30.255522,7.836875,8064.000000,0.000000,4.000000,,,,0.000000,4.000000,4.000000,4.000000,4.000000,4.000000,4.000000,4.000000,4.000000,4.000000,4.000000,4.000000,4.000000,4.000000,4.000000,4.000000,4.000000,4.000000,4.000000,4.000000,4.000000,4.000000,4.000000,4.000000,4.000000,4.000000,4.000000,4.000000,4.000000,4.000000,4.000000,4.000000,4.000000,100.000000
1614562225.948086,121.000000,0.000000,2.785930,1.086765,-66.969276,-7.410276,7.235506,7.803417,5.243298,-5.118353,-12.645658,-11.889045,2.224693,-4.719112,13.705417,7.570032,-2.233791,2.228797,8.840999,-3.866710,-20.336720,-26.965099,-7.872708,9.188848,-0.534208,-21.992746,-42.489243,-2.164816,-32.161251,-5.986845,-3.421716,-9.274724,-28.173985,6.290577,8064.000000,0.000000,4.000000,,,,0.000000,4.000000,4.000000,4.000000,4.000000,4.000000,4.000000,4.000000,4.000000,4.000000,4.000000,4.000000,4.000000,4.000000,4.000000,4.000000,4.000000,4.000000,4.000000,4.000000,4.000000,4.000000,4.000000,4.000000,4.000000,4.000000,4.000000,4.000000,4.000000,4.000000,4.000000,4.000000,4.000000,100.000000
1614562225.955735,122.000000,0.000000,3.295965,5.188242,-57.671539,-5.351583,7.228271,8.308434,-0.915792,-2.036312,-10.068909,-12.389976,-15.726250,-19.586187,0.871199,-10.386255,-14.539249,-2.388816,0.627030,-6.426946,-24.418945,-26.425314,-12.480220,4.564275,-7.200341,-22.996395,-37.831367,9.632220,-26.488064,-4.442397,-3.418294,6.119166,-23.530426,16.540697,8064.000000,0.000000,4.000000,,,,0.000000,4.000000,4.000000,4.000000,4.000000,4.000000,4.000000,4.000000,4.000000,4.000000,4.000000,4.000000,4.000000,4.000000,4.000000,4.000000,4.000000,4.000000,4.000000,4.000000,4.000000,4.000000,4.000000,4.000000,4.000000,4.000000,4.000000,4.000000,4.000000,4.000000,4.000000,4.000000,4.000000,100.000000
1614562225.963484,123.000000,0.000000,-0.809895,8.259977,-47.357460,-3.294950,7.221043,6.248844,0.110765,0.017006,-6.469097,-11.351945,-29.556677,-31.874294,-18.616852,-27.811768,-19.652916,-16.232580,-7.065905,-12.574365,-26.958630,-22.296326,-14.519021,0.457147,-0.526474,-26.050322,-26.511486,25.007204,-14.153884,-3.412313,-3.414876,15.343817,-22.481255,33.960052,8064.000000,0.000000,4.000000,,,,0.000000,4.000000,4.000000,4.000000,4.000000,4.000000,4.000000,4.000000,4.000000,4.000000,4.000000,4.000000,4.000000,4.000000,4.000000,4.000000,4.000000,4.000000,4.000000,4.000000,4.000000,4.000000,4.000000,4.000000,4.000000,4.000000,4.000000,4.000000,4.000000,4.000000,4.000000,4.000000,4.000000,100.000000
1614562225.971133,124.000000,0.000000,-5.424470,8.251718,-47.310101,-3.291655,6.701001,3.678493,0.623474,-2.547113,-4.924166,-11.853414,-28.501478,-25.688574,-23.726440,-28.296776,-19.633263,-24.421476,-10.135762,-10.510509,-23.341928,-11.504798,-11.427579,-0.056131,7.679181,-27.049911,-15.715744,22.930914,-8.498704,-2.383260,-3.411461,13.790011,-23.484415,36.490196,8064.000000,0.000000,4.000000,,,,0.000000,4.000000,4.000000,4.000000,4.000000,4.000000,4.000000,4.000000,4.000000,4.000000,4.000000,4.000000,4.000000,4.000000,4.000000,4.000000,4.000000,4.000000,4.000000,4.000000,4.000000,4.000000,4.000000,4.000000,4.000000,4.000000,4.000000,4.000000,4.000000,4.000000,4.000000,4.000000,4.000000,100.000000
1614562225.978882,125.000000,0.000000,-3.367764,7.730645,-48.801254,-3.801184,7.207120,3.674814,-0.915610,1.557998,-4.919242,-12.354381,-27.447336,-13.355193,-19.087330,-23.653093,-17.049526,-21.320131,-10.125627,-6.397434,-16.651918,-5.339447,-8.852049,0.969566,8.184322,-25.484402,-14.161567,14.702855,-8.490206,-1.355236,-3.408049,13.776221,-22.948111,30.299860,8064.000000,0.000000,4.000000,,,,0.000000,4.000000,4.000000,4.000000,4.000000,4.000000,4.000000,4.000000,4.000000,4.000000,4.000000,4.000000,4.000000,4.000000,4.000000,4.000000,4.000000,4.000000,4.000000,4.000000,4.000000,4.000000,4.000000,4.000000,4.000000,4.000000,4.000000,4.000000,4.000000,4.000000,4.000000,4.000000,4.000000,100.000000
1614562225.986531,126.000000,0.000000,-0.800293,8.235735,-46.188351,-0.207639,10.276836,4.183960,0.623767,12.838491,-4.914322,-9.777924,-27.932711,-11.290555,-15.991319,-21.065338,-8.314528,-22.324453,-10.628321,-8.442319,-18.173729,-8.923851,-9.356017,0.968597,11.765882,-26.484558,-15.173046,15.200974,-8.481715,-1.866701,-3.404641,14.275266,-22.925161,31.295200,8064.000000,0.000000,4.000000,,,,0.000000,4.000000,4.000000,4.000000,4.000000,4.000000,4.000000,4.000000,4.000000,4.000000,4.000000,4.000000,4.000000,4.000000,4.000000,4.000000,4.000000,4.000000,4.000000,4.000000,4.000000,4.000000,4.000000,4.000000,4.000000,4.000000,4.000000,4.000000,4.000000,4.000000,4.000000,4.000000,4.000000,100.000000
1614562225.994380,127.000000,0.000000,-1.825134,7.714679,-47.680622,5.946414,10.266560,3.666955,3.187245,18.979500,-4.909408,-2.588658,-15.084264,-3.586957,-6.231738,-8.223761,5.027120,-19.738026,-9.592052,-5.356953,-15.078631,-3.786722,-10.372303,0.454808,16.882320,-20.817047,-14.132233,11.596028,-7.960413,-2.377655,-3.401237,9.645606,-23.415056,27.674162,8064.000000,0.000000,4.000000,,,,0.000000,4.000000,4.000000,4.000000,4.000000,4.000000,4.000000,4.000000,4.000000,4.000000,4.000000,4.000000,4.000000,4.000000,4.000000,4.000000,4.000000,4.000000,4.000000,4.000000,4.000000,4.000000,4.000000,4.000000,4.000000,4.000000,4.000000,4.000000,4.000000,4.000000,4.000000,4.000000,4.000000,100.000000
1614562226.002129,0.000000,0.000000,-1.310488,7.706964,-54.299610,8.504571,6.666549,5.714571,4.209699,17.934879,-4.904499,3.567776,6.469282,15.903810,5.056545,11.784463,18.868246,4.384276,-4.967075,12.084301,9.551831,11.601680,-2.156802,2.505635,16.352617,-3.873153,-14.630920,3.379304,-8.465273,0.188825,-3.910656,5.533396,-20.314718,19.441359,0.000000,199.000000,4.000000,,,,0.000000,4.000000,4.000000,4.000000,4.000000,4.000000,4.000000,4.000000,4.000000,4.000000,4.000000,4.000000,4.000000,4.000000,4.000000,4.000000,4.000000,4.000000,4.000000,4.000000,4.000000,4.000000,4.000000,4.000000,4.000000,4.000000,4.000000,4.000000,4.000000,4.000000,4.000000,4.000000,4.000000,100.000000
1614562226.009978,1.000000,0.000000,1.767745,7.699257,-53.732487,6.957605,7.685524,7.760138,7.282413,16.891302,-4.899594,3.051388,21.847427,25.631495,8.128411,23.567551,31.157070,32.585018,-1.372365,29.508114,34.670486,19.282387,11.178688,7.118514,18.387547,13.566617,-15.129110,4.401566,-8.456808,5.316842,-3.393925,5.527863,-14.653378,24.550123,0.000000,196.000000,4.000000,,,,0.000000,4.000000,4.000000,4.000000,4.000000,4.000000,4.000000,4.000000,4.000000,4.000000,4.000000,4.000000,4.000000,4.000000,4.000000,4.000000,4.000000,4.000000,4.000000,4.000000,4.000000,4.000000,4.000000,4.000000,4.000000,4.000000,4.000000,4.000000,4.000000,4.000000,4.000000,4.000000,4.000000,100.000000
1614562226.017727,2.000000,0.000000,2.791619,7.691558,-47.012089,6.950647,11.267582,7.752378,11.377694,19.438515,-5.407515,7.150901,26.953785,23.554581,12.222847,23.031162,38.305401,46.398590,-1.883813,38.709377,40.789661,20.288744,14.757253,9.675498,29.138390,24.835102,-15.113981,6.448447,-9.986813,4.798704,-2.877710,6.035155,-11.561802,28.628138,0.000000,171.000000,4.000000,,,,0.000000,4.000000,4.000000,4.000000,4.000000,4.000000,4.000000,4.000000,4.000000,4.000000,4.000000,4.000000,4.000000,4.000000,4.000000,4.000000,4.000000,4.000000,4.000000,4.000000,4.000000,4.000000,4.000000,4.000000,4.000000,4.000000,4.000000,4.000000,4.000000,4.000000,4.000000,4.000000,4.000000,100.000000
1614562226.025576,3.000000,0.000000,2.276006,7.683866,-51.580460,8.994979,8.179391,7.744626,12.904778,21.983177,-5.402108,17.400160,30.516575,22.505386,18.877291,21.982491,41.856838,54.044498,-2.907570,47.901436,45.364254,23.345379,13.716855,8.640182,29.109253,32.502575,-15.098867,1.826613,-12.540929,1.716982,-5.438935,5.516299,-11.550241,16.291817,0.000000,198.000000,4.000000,,,,0.000000,4.000000,4.000000,4.000000,4.000000,4.000000,4.000000,4.000000,4.000000,4.000000,4.000000,4.000000,4.000000,4.000000,4.000000,4.000000,4.000000,4.000000,4.000000,4.000000,4.000000,4.000000,4.000000,4.000000,4.000000,4.000000,4.000000,4.000000,4.000000,4.000000,4.000000,4.000000,4.000000,100.000000
1614562226.033325,4.000000,0.000000,2.273731,7.676182,-63.836575,3.344958,3.555827,7.224060,9.814950,19.909912,-4.371065,16.357119,32.024521,24.021341,17.832773,24.524611,43.866264,51.939171,-1.879021,47.340714,45.831711,17.681007,13.703137,8.631541,18.823732,30.931610,-14.570948,-0.739316,-12.528388,1.715266,-5.946317,6.023604,-11.538691,7.557576,0.000000,199.000000,4.000000,,,,0.000000,4.000000,4.000000,4.000000,4.000000,4.000000,4.000000,4.000000,4.000000,4.000000,4.000000,4.000000,4.000000,4.000000,4.000000,4.000000,4.000000,4.000000,4.000000,4.000000,4.000000,4.000000,4.000000,4.000000,4.000000,4.000000,4.000000,4.000000,4.000000,4.000000,4.000000,4.000000,4.000000,100.000000
1614562226.041174,5.000000,0.000000,2.271457,8.181327,-64.285561,-4.350695,3.039451,4.652734,5.189751,14.248977,-5.392334,6.084352,23.787367,20.407578,13.712376,19.884701,34.078808,30.348770,-1.877142,27.806192,24.247419,2.791532,4.971486,9.135730,15.215165,17.054525,-14.556376,-0.738576,-12.003038,2.226371,-1.837806,6.017580,-11.527151,9.088480,0.000000,177.000000,4.000000,,,,0.000000,4.000000,4.000000,4.000000,4.000000,4.000000,4.000000,4.000000,4.000000,4.000000,4.000000,4.000000,4.000000,4.000000,4.000000,4.000000,4.000000,4.000000,4.000000,4.000000,4.000000,4.000000,4.000000,4.000000,4.000000,4.000000,4.000000,4.000000,4.000000,4.000000,4.000000,4.000000,4.000000,100.000000
1614562226.048924,6.000000,0.000000,2.269185,7.660325,-54.477680,1.294682,4.062052,3.622440,3.646099,12.696266,-4.874122,1.975703,8.891785,5.515375,12.160202,6.018663,16.608831,12.882524,-3.926547,13.932233,3.197530,-5.416388,-7.853998,8.613774,15.199950,3.704137,-16.593102,0.287803,-12.503856,1.711324,-1.323148,6.011562,-11.515624,12.156315,0.000000,179.000000,4.000000,,,,0.000000,4.000000,4.000000,4.000000,4.000000,4.000000,4.000000,4.000000,4.000000,4.000000,4.000000,4.000000,4.000000,4.000000,4.000000,4.000000,4.000000,4.000000,4.000000,4.000000,4.000000,4.000000,4.000000,4.000000,4.000000,4.000000,4.000000,4.000000,4.000000,4.000000,4.000000,4.000000,4.000000,100.000000
1614562226.056773,7.000000,0.000000,2.266916,7.652665,-47.756538,14.113899,3.545170,3.618817,3.642453,13.709211,0.771778,3.512189,1.190586,-10.900397,10.096760,-1.679664,9.925556,13.382463,-6.486723,15.969583,2.681512,-6.436613,-10.923067,8.092340,11.082186,-0.402131,-18.627790,5.415720,-11.978532,1.709613,-3.373107,7.031192,-10.478468,22.913389,0.000000,176.000000,4.000000,,,,0.000000,4.000000,4.000000,4.000000,4.000000,4.000000,4.000000,4.000000,4.000000,4.000000,4.000000,4.000000,4.000000,4.000000,4.000000,4.000000,4.000000,4.000000,4.000000,4.000000,4.000000,4.000000,4.000000,4.000000,4.000000,4.000000,4.000000,4.000000,4.000000,4.000000,4.000000,4.000000,4.000000,100.000000
1614562226.064522,8.000000,0.000000,1.751829,8.670652,-51.811344,12.561324,3.541625,4.640840,3.638811,13.695502,4.360750,3.508677,2.215036,-10.889497,9.573843,-1.165163,11.966913,15.420362,-5.454596,18.004896,4.730113,-11.045561,-9.886503,8.597068,7.994181,0.623912,-18.096342,6.948766,-11.966554,1.707903,-3.369734,5.485699,-12.006451,30.582783,0.000000,189.000000,4.000000,,,,0.000000,4.000000,4.000000,4.000000,4.000000,4.000000,4.000000,4.000000,4.000000,4.000000,4.000000,4.000000,4.000000,4.000000,4.000000,4.000000,4.000000,4.000000,4.000000,4.000000,4.000000,4.000000,4.000000,4.000000,4.000000,4.000000,4.000000,4.000000,4.000000,4.000000,4.000000,4.000000,4.000000,100.000000
1614562226.072371,9.000000,0.000000,2.262897,6.610700,-61.503124,1.779532,3.538083,6.687481,3.635172,12.656165,-2.823098,1.966707,1.700001,-4.211940,10.077089,-2.702460,5.801100,14.892121,-3.397859,17.986891,4.212562,-16.675541,-9.363796,8.588470,8.499007,0.110468,-20.642349,1.300792,-16.569971,1.706195,-5.417646,1.377649,-14.558547,16.193226,0.000000,201.000000,4.000000,,,,0.000000,4.000000,4.000000,4.000000,4.000000,4.000000,4.000000,4.000000,4.000000,4.000000,4.000000,4.000000,4.000000,4.000000,4.000000,4.000000,4.000000,4.000000,4.000000,4.000000,4.000000,4.000000,4.000000,4.000000,4.000000,4.000000,4.000000,4.000000,4.000000,4.000000,4.000000,4.000000,4.000000,100.000000
1614562226.080120,10.000000,0.000000,2.260634,-0.575398,-66.057007,-1.299170,3.534545,8.219254,3.631537,13.156330,-9.486941,2.477560,1.185480,-8.823113,9.554192,-4.751040,-6.512393,12.825947,-6.471384,17.456083,1.131426,-19.222967,-10.380074,8.067061,9.003328,-4.505027,-27.288374,-0.238970,-20.655966,1.704489,-6.950690,-2.726292,-16.595270,3.356520,0.000000,197.000000,4.000000,,,,0.000000,4.000000,4.000000,4.000000,4.000000,4.000000,4.000000,4.000000,4.000000,4.000000,4.000000,4.000000,4.000000,4.000000,4.000000,4.000000,4.000000,4.000000,4.000000,4.000000,4.000000,4.000000,4.000000,4.000000,4.000000,4.000000,4.000000,4.000000,4.000000,4.000000,4.000000,4.000000,4.000000,100.000000
1614562226.087969,11.000000,0.000000,1.745553,-4.164566,-64.965309,0.240590,4.043831,7.698215,3.627905,13.655994,-6.913352,2.987903,2.722756,-11.378392,9.544638,-2.182186,-11.121265,4.095172,-7.490554,9.233499,-11.177398,-19.203745,-10.882514,9.084636,8.481504,-7.064625,-30.338009,-1.777193,-19.609669,1.702784,-3.866816,-4.774848,-22.732521,4.891625,0.000000,200.000000,4.000000,,,,0.000000,4.000000,4.000000,4.000000,4.000000,4.000000,4.000000,4.000000,4.000000,4.000000,4.000000,4.000000,4.000000,4.000000,4.000000,4.000000,4.000000,4.000000,4.000000,4.000000,4.000000,4.000000,4.000000,4.000000,4.000000,4.000000,4.000000,4.000000,4.000000,4.000000,4.000000,4.000000,4.000000,100.000000
1614562226.095718,12.000000,0.000000,4.820731,-2.621940,-71.567009,-4.375035,1.475685,7.690517,7.726841,13.129518,-12.547464,1.446454,4.258495,1.966319,12.612016,3.973843,0.684727,8.193642,-0.303576,9.737086,-10.140579,-18.158899,-4.204965,13.178115,7.960203,-2.954996,-30.820490,-11.006185,-21.641340,1.188261,-5.401411,-7.334176,-35.530300,-5.882497,0.000000,210.000000,4.000000,,,,0.000000,4.000000,4.000000,4.000000,4.000000,4.000000,4.000000,4.000000,4.000000,4.000000,4.000000,4.000000,4.000000,4.000000,4.000000,4.000000,4.000000,4.000000,4.000000,4.000000,4.000000,4.000000,4.000000,4.000000,4.000000,4.000000,4.000000,4.000000,4.000000,4.000000,4.000000,4.000000,4.000000,100.000000
1614562226.103367,13.000000,0.000000,8.918474,-6.209062,-78.162109,-8.473224,-0.577073,7.682827,11.821679,13.116388,-23.816969,-1.119095,12.972185,9.656660,13.625045,13.200638,19.658401,31.775190,8.414677,27.163246,14.997766,-10.961254,9.132573,16.241859,8.977883,6.278728,-29.251209,-16.636204,-23.670982,1.699893,-10.524215,-9.378123,-39.597336,-19.722769,0.000000,194.000000,4.000000,,,,0.000000,4.000000,4.000000,4.000000,4.000000,4.000000,4.000000,4.000000,4.000000,4.000000,4.000000,4.000000,4.000000,4.000000,4.000000,4.000000,4.000000,4.000000,4.000000,4.000000,4.000000,4.000000,4.000000,4.000000,4.000000,4.000000,4.000000,4.000000,4.000000,4.000000,4.000000,4.000000,4.000000,100.000000
1614562226.111116,14.000000,0.000000,9.935197,-6.202852,-62.186508,-3.336546,0.961965,7.675144,11.809857,17.205835,-15.075202,-1.117976,28.343828,6.570081,12.585779,19.854103,25.792589,46.102390,8.919083,39.443775,34.982769,6.998425,13.738826,15.712798,11.020187,16.016039,-17.939907,-9.952902,-14.416541,3.749475,-7.949588,-6.291822,-25.711584,0.296954,0.000000,199.000000,4.000000,,,,0.000000,4.000000,4.000000,4.000000,4.000000,4.000000,4.000000,4.000000,4.000000,4.000000,4.000000,4.000000,4.000000,4.000000,4.000000,4.000000,4.000000,4.000000,4.000000,4.000000,4.000000,4.000000,4.000000,4.000000,4.000000,4.000000,4.000000,4.000000,4.000000,4.000000,4.000000,4.000000,4.000000,100.000000
1614562226.118965,15.000000,0.000000,9.412441,3.546940,-40.585861,5.384739,4.037927,7.667469,10.772407,21.804014,1.862950,3.498527,37.033432,16.307100,15.137296,22.398352,29.869360,50.671673,7.884522,45.558178,49.819580,25.452965,14.237907,14.671444,11.521988,25.743612,-5.101453,-1.225000,-2.607253,5.284187,-2.813433,-0.131684,-8.762795,30.553068,0.000000,192.000000,4.000000,,,,0.000000,4.000000,4.000000,4.000000,4.000000,4.000000,4.000000,4.000000,4.000000,4.000000,4.000000,4.000000,4.000000,4.000000,4.000000,4.000000,4.000000,4.000000,4.000000,4.000000,4.000000,4.000000,4.000000,4.000000,4.000000,4.000000,4.000000,4.000000,4.000000,4.000000,4.000000,4.000000,4.000000,100.000000
1614562226.126714,16.000000,0.000000,9.403028,7.133137,-44.135021,4.866534,4.033889,7.659801,11.274454,19.730928,-2.241477,7.084772,37.509220,27.060024,19.737543,27.504160,47.275391,63.441513,10.953561,62.435696,71.821045,31.581358,21.915977,17.220875,16.125851,30.846075,-2.532249,0.314687,-0.553364,5.278903,-2.810620,1.406909,-4.138648,27.958412,0.000000,179.000000,4.000000,,,,0.000000,4.000000,4.000000,4.000000,4.000000,4.000000,4.000000,4.000000,4.000000,4.000000,4.000000,4.000000,4.000000,4.000000,4.000000,4.000000,4.000000,4.000000,4.000000,4.000000,4.000000,4.000000,4.000000,4.000000,4.000000,4.000000,4.000000,4.000000,4.000000,4.000000,4.000000,4.000000,4.000000,100.000000
1614562226.134363,17.000000,0.000000,9.906446,1.484978,-64.090881,-0.266537,1.465752,7.652141,11.263180,14.070172,-15.572569,6.564867,35.933250,14.725272,21.769087,29.527937,56.458881,65.429352,13.506710,67.501465,73.800507,30.524136,25.483805,19.767757,25.340494,31.328049,-3.555358,-2.249731,-1.578451,5.273624,-3.833450,-1.158601,-6.698612,9.468915,0.000000,219.000000,4.000000,,,,0.000000,4.000000,4.000000,4.000000,4.000000,4.000000,4.000000,4.000000,4.000000,4.000000,4.000000,4.000000,4.000000,4.000000,4.000000,4.000000,4.000000,4.000000,4.000000,4.000000,4.000000,4.000000,4.000000,4.000000,4.000000,4.000000,4.000000,4.000000,4.000000,4.000000,4.000000,4.000000,4.000000,100.000000
1614562226.142112,18.000000,0.000000,9.383719,-0.567789,-71.719101,-0.266271,0.438645,7.644489,11.251917,13.030460,-16.582638,6.558301,36.410137,-0.674069,20.721678,23.344563,41.017807,46.902386,11.441921,49.998066,54.752346,29.980791,20.330116,18.722347,27.879255,30.783899,-3.038982,-4.298763,-1.064052,4.755530,-2.803976,-1.670263,-7.717555,8.946626,0.000000,221.000000,4.000000,,,,0.000000,4.000000,4.000000,4.000000,4.000000,4.000000,4.000000,4.000000,4.000000,4.000000,4.000000,4.000000,4.000000,4.000000,4.000000,4.000000,4.000000,4.000000,4.000000,4.000000,4.000000,4.000000,4.000000,4.000000,4.000000,4.000000,4.000000,4.000000,4.000000,4.000000,4.000000,4.000000,4.000000,100.000000
1614562226.149761,19.000000,0.000000,9.374335,0.971240,-68.570457,0.759636,2.489489,7.636845,11.240664,13.530251,-14.514773,7.064564,37.399368,2.403528,20.700956,20.757116,29.694738,38.650356,12.456120,41.230122,45.466824,30.463631,20.822605,19.729267,23.748814,29.727476,-2.523123,-2.756003,-0.037347,5.776416,-2.801172,-0.642951,-7.197017,17.142807,0.000000,176.000000,4.000000,,,,0.000000,4.000000,4.000000,4.000000,4.000000,4.000000,4.000000,4.000000,4.000000,4.000000,4.000000,4.000000,4.000000,4.000000,4.000000,4.000000,4.000000,4.000000,4.000000,4.000000,4.000000,4.000000,4.000000,4.000000,4.000000,4.000000,4.000000,4.000000,4.000000,4.000000,4.000000,4.000000,4.000000,100.000000
1614562226.157511,20.000000,0.000000,9.364961,0.970269,-67.989067,0.758877,4.025461,7.629208,11.229424,13.516721,-16.038719,7.057499,32.233765,10.093432,21.193075,22.787642,31.716326,35.021961,17.059048,38.111965,37.216228,27.869064,19.776142,24.837742,23.725063,24.056723,-2.007779,-3.266067,-0.037310,8.334742,-3.311191,-0.642308,-6.676999,16.100023,0.000000,203.000000,4.000000,,,,0.000000,4.000000,4.000000,4.000000,4.000000,4.000000,4.000000,4.000000,4.000000,4.000000,4.000000,4.000000,4.000000,4.000000,4.000000,4.000000,4.000000,4.000000,4.000000,4.000000,4.000000,4.000000,4.000000,4.000000,4.000000,4.000000,4.000000,4.000000,4.000000,4.000000,4.000000,4.000000,4.000000,100.000000
1614562226.165160,21.000000,0.000000,9.355597,0.456478,-68.433899,0.758118,3.508615,7.621579,11.218195,12.990383,-14.484220,6.537621,16.304094,4.442313,19.633421,10.457161,21.428200,14.474119,11.400964,16.535393,15.127730,18.097607,8.987136,23.787264,24.214159,12.750614,-6.621156,-4.801263,-1.575734,9.352048,-3.307880,-1.154487,-8.208783,14.032641,0.000000,223.000000,4.000000,,,,0.000000,4.000000,4.000000,4.000000,4.000000,4.000000,4.000000,4.000000,4.000000,4.000000,4.000000,4.000000,4.000000,4.000000,4.000000,4.000000,4.000000,4.000000,4.000000,4.000000,4.000000,4.000000,4.000000,4.000000,4.000000,4.000000,4.000000,4.000000,4.000000,4.000000,4.000000,4.000000,4.000000,100.000000
1614562226.172909,22.000000,0.000000,9.346241,0.456022,-68.365463,-0.268281,3.505106,7.613957,11.206977,12.977393,-11.905633,6.531084,3.980097,-2.228796,17.049685,-1.860989,6.534977,-2.463432,0.620332,0.108602,3.830551,8.335919,5.901226,19.148092,19.574560,6.071197,-13.281201,-1.206718,-1.061338,8.829876,-3.304572,-1.153332,-8.200575,15.557071,0.000000,200.000000,4.000000,,,,0.000000,4.000000,4.000000,4.000000,4.000000,4.000000,4.000000,4.000000,4.000000,4.000000,4.000000,4.000000,4.000000,4.000000,4.000000,4.000000,4.000000,4.000000,4.000000,4.000000,4.000000,4.000000,4.000000,4.000000,4.000000,4.000000,4.000000,4.000000,4.000000,4.000000,4.000000,4.000000,4.000000,100.000000
1614562226.180558,23.000000,0.000000,9.336894,0.455566,-68.297104,1.783269,3.501601,7.606343,11.195769,13.477236,-11.380906,6.524552,7.565861,5.978561,16.519814,7.371642,9.092545,5.744160,3.183814,12.416185,9.467746,6.789122,14.613273,18.616123,15.452422,8.116407,-13.780741,3.409873,0.478185,9.333866,-3.301267,1.924744,-6.653913,15.028693,0.000000,202.000000,4.000000,,,,0.000000,4.000000,4.000000,4.000000,4.000000,4.000000,4.000000,4.000000,4.000000,4.000000,4.000000,4.000000,4.000000,4.000000,4.000000,4.000000,4.000000,4.000000,4.000000,4.000000,4.000000,4.000000,4.000000,4.000000,4.000000,4.000000,4.000000,4.000000,4.000000,4.000000,4.000000,4.000000,4.000000,100.000000
1614562226.188307,24.000000,0.000000,9.327558,0.967931,-70.280083,0.243024,3.498100,7.598737,11.184574,13.463758,-11.882346,6.518028,12.686500,17.254635,17.016115,19.159142,13.698836,15.994826,9.334476,18.557615,11.509561,1.654127,11.521736,19.623148,15.949790,6.569829,-17.356705,-2.234562,-7.727421,9.324533,-3.297966,2.435640,-10.237002,8.346997,0.000000,197.000000,4.000000,,,,0.000000,4.000000,4.000000,4.000000,4.000000,4.000000,4.000000,4.000000,4.000000,4.000000,4.000000,4.000000,4.000000,4.000000,4.000000,4.000000,4.000000,4.000000,4.000000,4.000000,4.000000,4.000000,4.000000,4.000000,4.000000,4.000000,4.000000,4.000000,4.000000,4.000000,4.000000,4.000000,4.000000,100.000000
1614562226.195956,25.000000,0.000000,9.318230,-0.571499,-73.799545,-12.064911,3.494601,7.591138,11.173389,11.911834,-13.408925,3.947407,12.160993,14.160457,16.999100,15.037418,3.941548,13.927549,4.709758,0.590340,5.344205,-10.655219,1.253804,19.090704,14.908199,-1.129048,-30.672680,-10.437455,-22.078669,4.699823,-3.294668,-3.720642,-19.970354,1.671984,0.000000,226.000000,4.000000,,,,0.000000,4.000000,4.000000,4.000000,4.000000,4.000000,4.000000,4.000000,4.000000,4.000000,4.000000,4.000000,4.000000,4.000000,4.000000,4.000000,4.000000,4.000000,4.000000,4.000000,4.000000,4.000000,4.000000,4.000000,4.000000,4.000000,4.000000,4.000000,4.000000,4.000000,4.000000,4.000000,4.000000,100.000000
1614562226.203705,26.000000,0.000000,9.308911,-2.622209,-77.828316,-22.822077,3.491107,7.583547,11.162216,9.848639,-15.446798,0.353716,15.225755,10.556552,16.469280,13.483919,-0.677778,16.477724,7.269150,-4.025635,7.902963,-13.721487,3.303833,18.558794,12.329188,6.564389,-37.821495,-11.965480,-28.210436,1.105380,-3.291373,-8.845126,-26.617052,-0.380970,0.000000,214.000000,4.000000,,,,0.000000,4.000000,4.000000,4.000000,4.000000,4.000000,4.000000,4.000000,4.000000,4.000000,4.000000,4.000000,4.000000,4.000000,4.000000,4.000000,4.000000,4.000000,4.000000,4.000000,4.000000,4.000000,4.000000,4.000000,4.000000,4.000000,4.000000,4.000000,4.000000,4.000000,4.000000,4.000000,4.000000,100.000000
1614562226.211355,27.000000,0.000000,9.299603,-3.645228,-79.288948,-21.773613,3.487616,7.575963,11.151053,9.325971,-15.944172,-1.185099,24.954119,12.597278,16.965631,22.701204,6.502387,26.204836,21.108036,17.004032,28.407881,-4.476996,9.967196,19.053055,11.804039,25.532183,-35.219570,-10.927874,-27.669405,1.104275,-3.288082,-8.323461,-27.103254,0.132231,0.000000,198.000000,4.000000,,,,0.000000,4.000000,4.000000,4.000000,4.000000,4.000000,4.000000,4.000000,4.000000,4.000000,4.000000,4.000000,4.000000,4.000000,4.000000,4.000000,4.000000,4.000000,4.000000,4.000000,4.000000,4.000000,4.000000,4.000000,4.000000,4.000000,4.000000,4.000000,4.000000,4.000000,4.000000,4.000000,4.000000,100.000000
1614562226.219104,28.000000,0.000000,9.290303,-3.128762,-78.184013,-17.649277,3.484128,7.568387,11.139902,9.829465,-15.415407,-0.671093,29.544550,4.379552,16.948666,26.781067,8.547167,31.819656,22.112568,30.833181,43.764088,0.655686,9.444407,19.034002,12.305056,29.609215,-33.133068,-10.916945,-25.590454,1.103170,-3.797615,-7.802317,-26.050510,0.644919,0.000000,199.000000,4.000000,,,,0.000000,4.000000,4.000000,4.000000,4.000000,4.000000,4.000000,4.000000,4.000000,4.000000,4.000000,4.000000,4.000000,4.000000,4.000000,4.000000,4.000000,4.000000,4.000000,4.000000,4.000000,4.000000,4.000000,4.000000,4.000000,4.000000,4.000000,4.000000,4.000000,4.000000,4.000000,4.000000,4.000000,100.000000
1614562226.226753,29.000000,0.000000,9.281013,-3.125634,-78.105835,-18.144447,3.480644,7.560819,11.128762,9.819635,-15.912812,-0.670422,27.976543,-2.291494,16.931717,24.703005,8.025799,31.275017,12.859686,25.674143,33.976734,-1.909072,7.896502,19.014969,11.779930,22.912939,-30.535833,-8.341926,-21.975119,1.614888,-1.742535,-8.820155,-23.973179,0.131454,0.000000,205.000000,4.000000,,,,0.000000,4.000000,4.000000,4.000000,4.000000,4.000000,4.000000,4.000000,4.000000,4.000000,4.000000,4.000000,4.000000,4.000000,4.000000,4.000000,4.000000,4.000000,4.000000,4.000000,4.000000,4.000000,4.000000,4.000000,4.000000,4.000000,4.000000,4.000000,4.000000,4.000000,4.000000,4.000000,4.000000,100.000000
1614562226.234602,30.000000,0.000000,9.271731,-3.122508,-78.540550,-18.126303,3.477163,8.066078,11.117634,9.809816,-14.871259,-0.669752,28.974207,6.941567,16.914785,24.678301,13.145978,30.730921,10.282724,22.058725,23.173527,1.169760,8.914247,18.995953,11.768149,22.377207,-24.351452,-7.307943,-18.876221,3.664555,0.310490,-8.298514,-22.923563,0.131323,0.000000,192.000000,4.000000,,,,0.000000,4.000000,4.000000,4.000000,4.000000,4.000000,4.000000,4.000000,4.000000,4.000000,4.000000,4.000000,4.000000,4.000000,4.000000,4.000000,4.000000,4.000000,4.000000,4.000000,4.000000,4.000000,4.000000,4.000000,4.000000,4.000000,4.000000,4.000000,4.000000,4.000000,4.000000,4.000000,4.000000,100.000000
1614562226.242351,31.000000,0.000000,9.262460,-3.119385,-77.949188,-17.595356,3.473686,7.032372,11.106516,9.800006,-15.882029,-0.669082,28.945234,8.473087,16.897869,25.166445,16.209755,31.213011,12.836544,23.575129,30.329840,14.501924,9.418153,18.976957,12.269202,21.842009,-20.737356,-7.300635,-19.370165,5.199352,-1.228282,-8.290216,-22.387819,4.233756,0.000000,190.000000,4.000000,,,,0.000000,4.000000,4.000000,4.000000,4.000000,4.000000,4.000000,4.000000,4.000000,4.000000,4.000000,4.000000,4.000000,4.000000,4.000000,4.000000,4.000000,4.000000,4.000000,4.000000,4.000000,4.000000,4.000000,4.000000,4.000000,4.000000,4.000000,4.000000,4.000000,4.000000,4.000000,4.000000,4.000000,100.000000
1614562226.250200,32.000000,0.000000,9.253198,-3.116266,-78.384056,-17.577761,3.470212,3.948416,10.582589,9.790206,-15.353326,-0.668413,21.736801,0.259486,16.880972,23.089994,15.680725,31.181799,11.798066,23.038733,35.427715,23.205370,11.460016,18.957979,11.744112,19.768885,-17.126875,-5.242052,-19.350796,5.706973,-3.278336,-8.281926,-19.288509,10.896189,8064.000000,0.000000,4.000000,,,,0.000000,4.000000,4.000000,4.000000,4.000000,4.000000,4.000000,4.000000,4.000000,4.000000,4.000000,4.000000,4.000000,4.000000,4.000000,4.000000,4.000000,4.000000,4.000000,4.000000,4.000000,4.000000,4.000000,4.000000,4.000000,4.000000,4.000000,4.000000,4.000000,4.000000,4.000000,4.000000,4.000000,100.000000
1614562226.257949,33.000000,0.000000,9.243944,-3.113150,-77.280029,-17.560183,3.466742,3.431647,11.597648,9.780416,-10.209767,0.357896,17.099680,4.874611,16.864092,19.989983,16.177864,30.124975,11.273448,23.015694,33.341007,22.156525,12.987019,18.939022,14.809292,21.800398,-13.520005,-3.185528,-19.331444,8.265368,-3.275058,-8.273644,-14.653835,11.910933,8064.000000,0.000000,4.000000,,,,0.000000,4.000000,4.000000,4.000000,4.000000,4.000000,4.000000,4.000000,4.000000,4.000000,4.000000,4.000000,4.000000,4.000000,4.000000,4.000000,4.000000,4.000000,4.000000,4.000000,4.000000,4.000000,4.000000,4.000000,4.000000,4.000000,4.000000,4.000000,4.000000,4.000000,4.000000,4.000000,4.000000,100.000000
1614562226.265798,34.000000,0.000000,9.234700,-3.110037,-77.202751,-17.542624,3.976096,3.941036,11.073230,9.770636,-7.635455,-1.693744,15.031298,10.510761,16.847227,17.405890,12.059123,22.402542,11.262175,19.402935,34.333305,21.621546,11.948390,18.407263,23.512430,20.752956,-15.557767,-3.695163,-18.799294,9.282744,-3.271783,-8.265370,-14.126361,7.283638,8064.000000,0.000000,4.000000,,,,0.000000,4.000000,4.000000,4.000000,4.000000,4.000000,4.000000,4.000000,4.000000,4.000000,4.000000,4.000000,4.000000,4.000000,4.000000,4.000000,4.000000,4.000000,4.000000,4.000000,4.000000,4.000000,4.000000,4.000000,4.000000,4.000000,4.000000,4.000000,4.000000,4.000000,4.000000,4.000000,4.000000,100.000000
1614562226.273547,35.000000,0.000000,9.225466,-3.106927,-79.689651,-17.525080,2.433658,1.885813,6.959592,9.760865,-12.756025,-6.820255,10.913703,3.320764,16.317558,16.362843,4.867577,10.072448,11.250912,7.588660,27.632305,22.625566,12.449263,18.388855,25.540201,18.168100,-18.619133,-4.204288,-16.729212,8.760641,-3.781331,-9.282746,-17.189157,2.660969,8064.000000,0.000000,4.000000,,,,0.000000,4.000000,4.000000,4.000000,4.000000,4.000000,4.000000,4.000000,4.000000,4.000000,4.000000,4.000000,4.000000,4.000000,4.000000,4.000000,4.000000,4.000000,4.000000,4.000000,4.000000,4.000000,4.000000,4.000000,4.000000,4.000000,4.000000,4.000000,4.000000,4.000000,4.000000,4.000000,4.000000,100.000000
1614562226.281396,36.000000,0.000000,9.216240,-3.103820,-75.507401,-17.507555,0.379943,0.345465,3.875710,9.751104,-15.307371,-8.864717,8.851507,-0.272301,14.762780,16.859301,3.324247,2.882888,11.752481,-0.111237,10.168777,22.090120,12.436813,19.396107,20.386456,18.149933,-18.087692,-4.200084,-15.686841,8.751881,-3.264729,-6.196540,-13.582225,4.196770,8064.000000,0.000000,4.000000,,,,0.000000,4.000000,4.000000,4.000000,4.000000,4.000000,4.000000,4.000000,4.000000,4.000000,4.000000,4.000000,4.000000,4.000000,4.000000,4.000000,4.000000,4.000000,4.000000,4.000000,4.000000,4.000000,4.000000,4.000000,4.000000,4.000000,4.000000,4.000000,4.000000,4.000000,4.000000,4.000000,4.000000,100.000000
1614562226.289145,37.000000,0.000000,9.207024,-3.613536,-69.790863,-17.490047,-0.133258,-0.167701,2.846193,9.741353,-11.702320,-7.317390,9.355475,-1.810490,12.696735,17.355261,3.320923,3.905646,10.715088,-1.649587,9.645787,22.068029,11.911555,18.351070,20.366068,17.106142,-17.556786,-3.170243,-14.645514,8.743129,-3.774285,-1.062139,-3.312233,9.833599,8064.000000,0.000000,4.000000,,,,0.000000,4.000000,4.000000,4.000000,4.000000,4.000000,4.000000,4.000000,4.000000,4.000000,4.000000,4.000000,4.000000,4.000000,4.000000,4.000000,4.000000,4.000000,4.000000,4.000000,4.000000,4.000000,4.000000,4.000000,4.000000,4.000000,4.000000,4.000000,4.000000,4.000000,4.000000,4.000000,4.000000,100.000000
1614562226.296994,38.000000,0.000000,9.197817,-2.071461,-77.413383,-17.472557,-0.645945,0.345288,3.356167,10.244432,-12.716259,-8.848535,8.320479,-3.859961,12.171218,16.312265,3.317602,4.414561,10.704373,-0.622296,22.969475,21.533142,13.950926,17.819899,23.422626,19.653137,-18.564869,-4.705534,-13.605227,8.221564,-3.257690,-1.061076,-1.257638,11.362226,8064.000000,0.000000,4.000000,,,,0.000000,4.000000,4.000000,4.000000,4.000000,4.000000,4.000000,4.000000,4.000000,4.000000,4.000000,4.000000,4.000000,4.000000,4.000000,4.000000,4.000000,4.000000,4.000000,4.000000,4.000000,4.000000,4.000000,4.000000,4.000000,4.000000,4.000000,4.000000,4.000000,4.000000,4.000000,4.000000,4.000000,100.000000
1614562226.304743,39.000000,0.000000,9.188620,-0.018108,-84.002632,-17.455086,-0.645299,4.447506,10.019478,9.721367,-15.267646,-6.275584,12.927544,6.400309,16.261610,17.834415,10.493772,5.435788,16.334694,10.660378,28.074711,20.998787,20.090822,24.981565,21.860741,30.402716,-14.956560,-3.675188,-10.001878,11.290266,-1.203151,-0.034374,-4.333304,11.863685,8064.000000,0.000000,4.000000,,,,0.000000,4.000000,4.000000,4.000000,4.000000,4.000000,4.000000,4.000000,4.000000,4.000000,4.000000,4.000000,4.000000,4.000000,4.000000,4.000000,4.000000,4.000000,4.000000,4.000000,4.000000,4.000000,4.000000,4.000000,4.000000,4.000000,4.000000,4.000000,4.000000,4.000000,4.000000,4.000000,4.000000,100.000000
1614562226.312592,40.000000,0.000000,9.179431,1.007551,-71.098122,-17.437630,3.970731,10.596905,18.727407,10.224466,-10.124173,1.935820,25.222309,13.060575,22.912016,23.457605,19.201227,14.148300,22.985025,27.572794,34.200481,22.003429,24.686115,33.674534,26.454266,39.090263,-5.710835,4.533616,-5.376492,15.894361,0.849334,7.657968,3.876158,19.031309,8192.000000,0.000000,4.000000,,,,0.000000,4.000000,4.000000,4.000000,4.000000,4.000000,4.000000,4.000000,4.000000,4.000000,4.000000,4.000000,4.000000,4.000000,4.000000,4.000000,4.000000,4.000000,4.000000,4.000000,4.000000,4.000000,4.000000,4.000000,4.000000,4.000000,4.000000,4.000000,4.000000,4.000000,4.000000,4.000000,4.000000,100.000000
1614562226.320341,41.000000,0.000000,9.170251,1.006544,-61.283432,-17.420193,7.043683,9.560667,17.170218,10.214242,-8.062766,3.472346,27.248367,6.893669,24.940386,24.972610,20.207666,25.416203,23.474861,31.647785,46.986794,21.981426,23.635788,32.102398,36.684223,36.487068,-1.602560,11.708570,-3.832653,15.365645,0.335665,11.240053,8.487666,21.063559,8064.000000,0.000000,4.000000,,,,0.000000,4.000000,4.000000,4.000000,4.000000,4.000000,4.000000,4.000000,4.000000,4.000000,4.000000,4.000000,4.000000,4.000000,4.000000,4.000000,4.000000,4.000000,4.000000,4.000000,4.000000,4.000000,4.000000,4.000000,4.000000,4.000000,4.000000,4.000000,4.000000,4.000000,4.000000,4.000000,4.000000,100.000000
1614562226.328190,42.000000,0.000000,9.161081,-0.532924,-72.504204,-17.402771,4.472537,4.422902,11.512022,6.614284,-16.772652,-3.197793,22.092915,9.450877,23.376984,22.896355,19.161818,27.954889,22.425745,29.564856,47.965446,17.344061,19.509588,26.429270,35.621895,30.809555,-10.318906,9.132758,-6.905744,12.273357,0.335329,4.049326,-5.366975,10.273265,8064.000000,0.000000,4.000000,,,,0.000000,4.000000,4.000000,4.000000,4.000000,4.000000,4.000000,4.000000,4.000000,4.000000,4.000000,4.000000,4.000000,4.000000,4.000000,4.000000,4.000000,4.000000,4.000000,4.000000,4.000000,4.000000,4.000000,4.000000,4.000000,4.000000,4.000000,4.000000,4.000000,4.000000,4.000000,4.000000,4.000000,100.000000
1614562226.335939,43.000000,0.000000,9.151919,-2.583673,-82.175285,-17.385368,2.929603,3.392838,11.500510,2.505105,-22.909725,-7.809980,21.045181,12.005529,24.892069,21.334997,17.604195,28.952576,23.428961,31.586573,43.814919,14.249793,17.438797,25.890018,27.381145,31.804388,-18.000895,4.508241,-8.437300,12.261084,0.334994,-2.108569,-11.515454,2.570684,8064.000000,0.000000,4.000000,,,,0.000000,4.000000,4.000000,4.000000,4.000000,4.000000,4.000000,4.000000,4.000000,4.000000,4.000000,4.000000,4.000000,4.000000,4.000000,4.000000,4.000000,4.000000,4.000000,4.000000,4.000000,4.000000,4.000000,4.000000,4.000000,4.000000,4.000000,4.000000,4.000000,4.000000,4.000000,4.000000,4.000000,100.000000
1614562226.343588,44.000000,0.000000,9.142768,-3.606731,-80.554649,-17.367983,3.952314,4.415086,8.412086,1.989780,-22.373995,-7.802170,15.895930,-5.955194,23.841536,18.236740,15.022488,26.359520,23.405533,28.478064,42.232643,15.261185,16.395716,26.376949,25.815304,29.721300,-15.931612,3.990912,-7.916042,12.761643,0.334659,-1.080820,-0.221888,4.106575,8064.000000,0.000000,4.000000,,,,0.000000,4.000000,4.000000,4.000000,4.000000,4.000000,4.000000,4.000000,4.000000,4.000000,4.000000,4.000000,4.000000,4.000000,4.000000,4.000000,4.000000,4.000000,4.000000,4.000000,4.000000,4.000000,4.000000,4.000000,4.000000,4.000000,4.000000,4.000000,4.000000,4.000000,4.000000,4.000000,4.000000,100.000000
1614562226.351337,45.000000,0.000000,9.133625,-3.090303,-79.961273,-16.837795,3.948362,3.897850,-0.827095,2.500611,-25.428545,-7.281547,4.597983,-20.308214,17.151028,11.551836,11.930542,8.897264,16.715460,15.629072,26.805794,11.656180,12.276757,25.837751,27.327950,17.896708,-14.377218,1.422818,-8.933766,12.236061,0.334324,-0.566918,0.803975,4.615289,8064.000000,0.000000,4.000000,,,,0.000000,4.000000,4.000000,4.000000,4.000000,4.000000,4.000000,4.000000,4.000000,4.000000,4.000000,4.000000,4.000000,4.000000,4.000000,4.000000,4.000000,4.000000,4.000000,4.000000,4.000000,4.000000,4.000000,4.000000,4.000000,4.000000,4.000000,4.000000,4.000000,4.000000,4.000000,4.000000,4.000000,100.000000
1614562226.358987,46.000000,0.000000,9.124492,-3.087213,-81.419777,-18.872240,3.431593,3.381132,-4.928832,2.498110,-31.044142,-7.787086,-0.022000,-19.262264,11.492850,6.412079,3.200663,-7.521890,6.955155,3.305751,7.804629,6.003498,9.187557,25.299093,25.249340,8.648042,-17.952585,-3.706810,-12.001756,12.736646,0.333990,-2.104813,-10.991701,2.559391,8064.000000,0.000000,4.000000,,,,0.000000,4.000000,4.000000,4.000000,4.000000,4.000000,4.000000,4.000000,4.000000,4.000000,4.000000,4.000000,4.000000,4.000000,4.000000,4.000000,4.000000,4.000000,4.000000,4.000000,4.000000,4.000000,4.000000,4.000000,4.000000,4.000000,4.000000,4.000000,4.000000,4.000000,4.000000,4.000000,4.000000,100.000000
1614562226.366736,47.000000,0.000000,9.115367,-3.084126,-80.825531,-20.904650,3.428162,3.377751,-3.898262,1.982791,-28.961815,-9.830581,1.003664,-18.217361,12.506999,4.867205,-3.982025,-7.514368,4.384097,-5.928324,2.155799,2.920572,7.127088,22.709692,23.172808,6.588112,-18.960274,-4.728744,-12.502575,12.211088,0.333656,-0.051426,-13.544811,3.582473,8064.000000,0.000000,4.000000,,,,0.000000,4.000000,4.000000,4.000000,4.000000,4.000000,4.000000,4.000000,4.000000,4.000000,4.000000,4.000000,4.000000,4.000000,4.000000,4.000000,4.000000,4.000000,4.000000,4.000000,4.000000,4.000000,4.000000,4.000000,4.000000,4.000000,4.000000,4.000000,4.000000,4.000000,4.000000,4.000000,4.000000,100.000000
1614562226.374385,48.000000,0.000000,9.106252,-3.081042,-80.231888,-20.883745,3.424733,3.887193,-3.381543,2.493629,-23.291828,-11.359212,2.028301,-15.635041,13.520133,5.887979,-1.413940,-9.558136,2.841252,-14.127524,-10.666869,-3.236195,-2.623630,17.558777,19.559893,-5.726169,-17.915672,-2.159912,-11.977252,8.096313,0.333322,2.512728,-8.403062,6.655814,8064.000000,0.000000,4.000000,,,,0.000000,4.000000,4.000000,4.000000,4.000000,4.000000,4.000000,4.000000,4.000000,4.000000,4.000000,4.000000,4.000000,4.000000,4.000000,4.000000,4.000000,4.000000,4.000000,4.000000,4.000000,4.000000,4.000000,4.000000,4.000000,4.000000,4.000000,4.000000,4.000000,4.000000,4.000000,4.000000,4.000000,100.000000
1614562226.382134,49.000000,0.000000,8.584325,-3.077961,-80.151657,-20.862862,3.934129,4.396127,-4.403803,2.491136,-20.191614,-11.347853,0.487811,-12.029662,10.429689,5.369270,-0.899706,-17.240885,-5.879539,-16.677500,-26.553638,-11.438087,-11.851775,12.413013,15.437768,-17.002493,-18.410578,0.406350,-12.478095,3.985653,0.332989,2.510215,-8.394659,6.649158,8064.000000,0.000000,4.000000,,,,0.000000,4.000000,4.000000,4.000000,4.000000,4.000000,4.000000,4.000000,4.000000,4.000000,4.000000,4.000000,4.000000,4.000000,4.000000,4.000000,4.000000,4.000000,4.000000,4.000000,4.000000,4.000000,4.000000,4.000000,4.000000,4.000000,4.000000,4.000000,4.000000,4.000000,4.000000,4.000000,4.000000,100.000000
1614562226.389783,50.000000,0.000000,9.088561,-3.074883,-81.097145,-20.841997,3.417375,1.827628,-3.886579,2.488644,-18.632959,-11.336505,0.487323,-10.991992,8.367978,4.338260,-0.898806,-6.454413,-6.899300,-15.635180,-17.296316,-12.452291,-9.788641,10.349319,14.396689,-9.293183,-18.904987,2.457226,-12.465617,4.494487,0.332656,1.994884,-9.411905,7.668149,8064.000000,0.000000,4.000000,,,,0.000000,4.000000,4.000000,4.000000,4.000000,4.000000,4.000000,4.000000,4.000000,4.000000,4.000000,4.000000,4.000000,4.000000,4.000000,4.000000,4.000000,4.000000,4.000000,4.000000,4.000000,4.000000,4.000000,4.000000,4.000000,4.000000,4.000000,4.000000,4.000000,4.000000,4.000000,4.000000,4.000000,100.000000
1614562226.397532,51.000000,0.000000,9.079473,-3.071808,-79.990410,-20.821156,1.362675,0.800159,-3.369871,2.486156,-18.614326,-11.837989,11.768888,-2.775872,10.923713,10.487768,10.896964,12.526400,5.415292,-10.491341,-0.868763,-10.901377,-0.548083,16.492815,14.895113,0.459699,-18.373260,2.967589,-9.376228,5.002813,0.332323,2.505710,-8.376852,13.814327,8064.000000,0.000000,4.000000,,,,0.000000,4.000000,4.000000,4.000000,4.000000,4.000000,4.000000,4.000000,4.000000,4.000000,4.000000,4.000000,4.000000,4.000000,4.000000,4.000000,4.000000,4.000000,4.000000,4.000000,4.000000,4.000000,4.000000,4.000000,4.000000,4.000000,4.000000,4.000000,4.000000,4.000000,4.000000,4.000000,4.000000,100.000000
1614562226.405181,52.000000,0.000000,8.557572,-3.068736,-79.910416,-20.800335,-0.689970,2.850641,-3.879322,1.970849,-18.595713,-9.262049,28.167376,3.893571,12.964071,23.810614,22.168119,21.231823,11.563723,9.006330,8.875695,-7.813552,10.734516,21.604528,14.880218,6.100266,-18.867708,3.477442,-8.341211,3.459349,0.331991,2.503204,-8.368475,18.415897,8064.000000,0.000000,4.000000,,,,0.000000,4.000000,4.000000,4.000000,4.000000,4.000000,4.000000,4.000000,4.000000,4.000000,4.000000,4.000000,4.000000,4.000000,4.000000,4.000000,4.000000,4.000000,4.000000,4.000000,4.000000,4.000000,4.000000,4.000000,4.000000,4.000000,4.000000,4.000000,4.000000,4.000000,4.000000,4.000000,4.000000,100.000000
1614562226.412931,53.000000,0.000000,9.061835,-3.578488,-81.368965,-21.292355,-0.176459,3.873432,-3.875443,1.968878,-18.064297,-7.201504,33.267414,1.325575,12.438286,29.427828,23.684412,33.005463,12.577800,37.715271,36.046307,8.091698,20.980192,22.095743,16.916620,26.094166,-15.771917,2.961144,-8.845690,6.532813,0.331659,1.475060,-5.283184,17.884661,8064.000000,0.000000,4.000000,,,,0.000000,4.000000,4.000000,4.000000,4.000000,4.000000,4.000000,4.000000,4.000000,4.000000,4.000000,4.000000,4.000000,4.000000,4.000000,4.000000,4.000000,4.000000,4.000000,4.000000,4.000000,4.000000,4.000000,4.000000,4.000000,4.000000,4.000000,4.000000,4.000000,4.000000,4.000000,4.000000,4.000000,100.000000
1614562226.420580,54.000000,0.000000,11.616877,-3.062089,-76.159393,-18.706961,-1.201924,3.869558,0.743817,4.531012,-19.071873,-8.219944,31.695684,4.401172,11.913028,28.372761,28.788933,49.382713,19.744709,53.062172,63.702568,27.057964,27.625877,27.201853,23.053549,46.580891,-6.012556,2.958183,-3.708639,13.705768,0.331327,4.037688,6.516971,24.020622,8064.000000,0.000000,4.000000,,,,0.000000,4.000000,4.000000,4.000000,4.000000,4.000000,4.000000,4.000000,4.000000,4.000000,4.000000,4.000000,4.000000,4.000000,4.000000,4.000000,4.000000,4.000000,4.000000,4.000000,4.000000,4.000000,4.000000,4.000000,4.000000,4.000000,4.000000,4.000000,4.000000,4.000000,4.000000,4.000000,4.000000,100.000000
1614562226.428329,55.000000,0.000000,12.630900,-0.494924,-66.339645,-16.636971,0.337740,3.865689,4.845638,6.577763,-18.539982,-7.698904,32.689629,11.576259,15.490858,28.857208,33.888348,49.333332,21.263426,49.932186,55.433739,31.133471,29.136713,33.841316,28.671520,39.867645,2.711405,8.083429,6.551479,17.281805,0.330996,9.674676,19.330967,34.253014,8064.000000,0.000000,4.000000,,,,0.000000,4.000000,4.000000,4.000000,4.000000,4.000000,4.000000,4.000000,4.000000,4.000000,4.000000,4.000000,4.000000,4.000000,4.000000,4.000000,4.000000,4.000000,4.000000,4.000000,4.000000,4.000000,4.000000,4.000000,4.000000,4.000000,4.000000,4.000000,4.000000,4.000000,4.000000,4.000000,4.000000,100.000000
1614562226.435978,56.000000,0.000000,12.618270,0.531212,-64.222023,-17.645975,4.952786,3.861823,3.302330,5.032723,-13.906056,-2.050179,29.067196,7.462118,19.065111,27.802710,29.239077,41.078869,16.113958,44.241230,42.557793,29.563875,26.030655,32.269016,30.694132,28.545725,4.759976,15.767654,11.160313,15.726062,0.330665,13.254745,22.388559,37.295681,8192.000000,0.000000,4.000000,,,,0.000000,4.000000,4.000000,4.000000,4.000000,4.000000,4.000000,4.000000,4.000000,4.000000,4.000000,4.000000,4.000000,4.000000,4.000000,4.000000,4.000000,4.000000,4.000000,4.000000,4.000000,4.000000,4.000000,4.000000,4.000000,4.000000,4.000000,4.000000,4.000000,4.000000,4.000000,4.000000,4.000000,100.000000
1614562226.443727,57.000000,0.000000,14.656933,0.530680,-64.670624,-16.089869,6.486295,4.370781,4.324669,7.591794,-10.815228,4.105718,25.448385,5.403374,20.584507,25.210804,28.184196,42.576252,18.149126,42.658527,48.669079,30.559954,24.466162,30.185465,29.637796,32.106922,3.729575,18.828810,10.123511,15.710336,0.330334,13.754311,20.827709,37.258389,8064.000000,0.000000,4.000000,,,,0.000000,4.000000,4.000000,4.000000,4.000000,4.000000,4.000000,4.000000,4.000000,4.000000,4.000000,4.000000,4.000000,4.000000,4.000000,4.000000,4.000000,4.000000,4.000000,4.000000,4.000000,4.000000,4.000000,4.000000,4.000000,4.000000,4.000000,4.000000,4.000000,4.000000,4.000000,4.000000,4.000000,100.000000
1614562226.451376,58.000000,0.000000,16.693558,4.632714,-62.041847,-11.971213,3.915706,6.930513,12.525473,15.789330,-10.291592,4.614432,23.884476,12.577457,20.051102,24.672773,29.181652,39.969574,16.592514,34.923561,41.953743,27.452471,24.441696,29.129637,30.120979,26.433790,4.751486,18.297161,9.600567,16.207445,0.330004,13.227736,21.832523,41.323692,8192.000000,0.000000,4.000000,,,,0.000000,4.000000,4.000000,4.000000,4.000000,4.000000,4.000000,4.000000,4.000000,4.000000,4.000000,4.000000,4.000000,4.000000,4.000000,4.000000,4.000000,4.000000,4.000000,4.000000,4.000000,4.000000,4.000000,4.000000,4.000000,4.000000,4.000000,4.000000,4.000000,4.000000,4.000000,4.000000,4.000000,100.000000
1614562226.459225,59.000000,0.000000,16.164043,8.730645,-71.210579,-16.061806,3.398970,7.949224,14.564229,18.337643,-10.281300,1.532895,15.655462,15.128983,20.031052,20.545536,21.460163,26.596270,4.781051,20.016842,18.834867,19.219889,12.622382,18.331278,30.603680,4.868895,4.746735,18.278864,10.616608,15.165597,0.329674,13.727328,22.323511,37.692627,8064.000000,0.000000,4.000000,,,,0.000000,4.000000,4.000000,4.000000,4.000000,4.000000,4.000000,4.000000,4.000000,4.000000,4.000000,4.000000,4.000000,4.000000,4.000000,4.000000,4.000000,4.000000,4.000000,4.000000,4.000000,4.000000,4.000000,4.000000,4.000000,4.000000,4.000000,4.000000,4.000000,4.000000,4.000000,4.000000,4.000000,100.000000
1614562226.466974,60.000000,0.000000,16.147881,7.696273,-83.959877,-21.686771,3.395571,7.428454,8.908639,17.293665,-11.809480,-0.007100,6.409038,12.036931,20.523840,12.319862,18.361780,13.749161,-1.377577,5.125031,6.508340,9.969900,-4.826138,7.543715,28.008972,-8.469307,3.716347,17.747763,10.093171,11.047868,0.329344,13.713601,20.249905,28.424164,8064.000000,0.000000,4.000000,,,,0.000000,4.000000,4.000000,4.000000,4.000000,4.000000,4.000000,4.000000,4.000000,4.000000,4.000000,4.000000,4.000000,4.000000,4.000000,4.000000,4.000000,4.000000,4.000000,4.000000,4.000000,4.000000,4.000000,4.000000,4.000000,4.000000,4.000000,4.000000,4.000000,4.000000,4.000000,4.000000,4.000000,100.000000
1614562226.474823,61.000000,0.000000,16.131733,8.714218,-79.260536,-14.998417,3.904996,7.933846,7.361269,18.814833,-10.259209,0.505728,3.838526,9.460792,19.990496,8.717799,17.317778,6.043104,0.675083,-5.649325,-1.703297,2.267623,-7.898234,5.484890,23.878399,-8.460838,4.738272,18.755657,7.518975,7.447076,0.329015,13.699887,21.255297,29.934200,8064.000000,0.000000,4.000000,,,,0.000000,4.000000,4.000000,4.000000,4.000000,4.000000,4.000000,4.000000,4.000000,4.000000,4.000000,4.000000,4.000000,4.000000,4.000000,4.000000,4.000000,4.000000,4.000000,4.000000,4.000000,4.000000,4.000000,4.000000,4.000000,4.000000,4.000000,4.000000,4.000000,4.000000,4.000000,4.000000,4.000000,100.000000
1614562226.482572,62.000000,0.000000,16.115601,8.192683,-77.129990,-14.983418,3.901091,6.900271,6.328267,11.616530,-10.248950,-0.520419,2.296226,2.784664,18.432045,8.709081,5.505588,-0.116785,0.674408,-13.335983,-12.470824,-1.324389,-4.300593,7.017866,21.803240,-7.939557,2.682251,18.736900,6.485815,8.978090,0.328686,12.147726,21.746861,29.391447,8064.000000,0.000000,4.000000,,,,0.000000,4.000000,4.000000,4.000000,4.000000,4.000000,4.000000,4.000000,4.000000,4.000000,4.000000,4.000000,4.000000,4.000000,4.000000,4.000000,4.000000,4.000000,4.000000,4.000000,4.000000,4.000000,4.000000,4.000000,4.000000,4.000000,4.000000,4.000000,4.000000,4.000000,4.000000,4.000000,4.000000,100.000000
1614562226.490421,63.000000,0.000000,16.099485,-0.020637,-99.104141,-35.481255,-2.769476,2.277987,-1.370369,-5.830984,-23.572035,-7.186565,0.755468,-3.884788,16.362329,9.213192,-4.756328,-1.655130,-0.351907,-12.809827,-12.971174,-1.323064,-3.783472,10.087771,22.294256,-6.905976,-4.499918,10.513036,5.453688,14.097318,0.328357,9.571476,11.981524,9.362055,8064.000000,0.000000,4.000000,,,,0.000000,4.000000,4.000000,4.000000,4.000000,4.000000,4.000000,4.000000,4.000000,4.000000,4.000000,4.000000,4.000000,4.000000,4.000000,4.000000,4.000000,4.000000,4.000000,4.000000,4.000000,4.000000,4.000000,4.000000,4.000000,4.000000,4.000000,4.000000,4.000000,4.000000,4.000000,4.000000,4.000000,100.000000
1614562226.498170,64.000000,0.000000,16.083385,-3.097540,-113.364014,-48.266289,-7.382092,-0.288394,-4.958742,-13.517461,-37.394615,-12.307584,2.805995,-4.393723,15.833147,9.203979,-5.264392,-0.115014,0.161265,-11.771377,-11.932562,-1.321741,2.886979,17.257170,22.271961,-1.258044,-11.162085,3.323036,2.884132,16.134502,0.328029,9.049084,0.687492,-2.442179,0.000000,214.000000,4.000000,,,,0.000000,4.000000,4.000000,4.000000,4.000000,4.000000,4.000000,4.000000,4.000000,4.000000,4.000000,4.000000,4.000000,4.000000,4.000000,4.000000,4.000000,4.000000,4.000000,4.000000,4.000000,4.000000,4.000000,4.000000,4.000000,4.000000,4.000000,4.000000,4.000000,4.000000,4.000000,4.000000,4.000000,100.000000
1614562226.506019,65.000000,0.000000,16.067303,3.059404,-99.404495,-42.576996,-3.272146,0.224715,-1.364040,-9.401379,-31.716196,-11.782455,4.341650,-4.389329,16.330135,8.681954,-3.720666,-1.653360,0.673924,-13.298066,-11.920630,-0.294778,12.114861,19.804016,22.249689,0.281675,-11.150923,5.370995,1.855607,15.605547,0.327701,10.578496,4.789369,12.944879,0.000000,160.000000,4.000000,,,,0.000000,4.000000,4.000000,4.000000,4.000000,4.000000,4.000000,4.000000,4.000000,4.000000,4.000000,4.000000,4.000000,4.000000,4.000000,4.000000,4.000000,4.000000,4.000000,4.000000,4.000000,4.000000,4.000000,4.000000,4.000000,4.000000,4.000000,4.000000,4.000000,4.000000,4.000000,4.000000,4.000000,100.000000
1614562226.513768,66.000000,0.000000,16.051235,1.517883,-88.023041,-37.406212,-0.704771,0.224490,0.688606,-8.366337,-25.530634,-11.257853,9.465514,-1.820838,16.313805,9.698914,5.001003,3.989319,0.673250,-4.053999,3.988727,1.756799,11.589926,17.732929,22.227440,-1.257068,-10.626951,6.391265,2.366572,16.102762,0.327373,8.003815,14.015348,22.162703,0.000000,195.000000,4.000000,,,,0.000000,4.000000,4.000000,4.000000,4.000000,4.000000,4.000000,4.000000,4.000000,4.000000,4.000000,4.000000,4.000000,4.000000,4.000000,4.000000,4.000000,4.000000,4.000000,4.000000,4.000000,4.000000,4.000000,4.000000,4.000000,4.000000,4.000000,4.000000,4.000000,4.000000,4.000000,4.000000,4.000000,100.000000
1614562226.521617,67.000000,0.000000,16.035183,-8.227224,-95.627327,-39.420090,-3.780989,0.737086,-0.337723,-9.383611,-30.120487,-11.759416,20.225279,4.847650,15.784670,15.843061,21.406258,22.446869,0.672577,13.898773,29.625765,3.806324,8.501412,19.253658,22.205214,4.898035,-10.616324,0.743848,-0.712718,15.061019,0.327046,3.380426,8.360308,6.755925,0.000000,212.000000,4.000000,,,,0.000000,4.000000,4.000000,4.000000,4.000000,4.000000,4.000000,4.000000,4.000000,4.000000,4.000000,4.000000,4.000000,4.000000,4.000000,4.000000,4.000000,4.000000,4.000000,4.000000,4.000000,4.000000,4.000000,4.000000,4.000000,4.000000,4.000000,4.000000,4.000000,4.000000,4.000000,4.000000,4.000000,100.000000
1614562226.529367,68.000000,0.000000,16.019148,-11.808741,-101.172722,-38.867847,-4.802849,-0.802113,0.175435,-8.861407,-27.013445,-11.234836,26.358900,8.432546,16.281706,21.468243,29.077160,36.783394,0.671904,22.602823,41.903831,4.828158,10.031373,19.747225,22.695827,15.149548,-10.605708,-0.282537,-3.788929,11.456214,0.839539,1.838585,-1.391643,0.082502,0.000000,199.000000,4.000000,,,,0.000000,4.000000,4.000000,4.000000,4.000000,4.000000,4.000000,4.000000,4.000000,4.000000,4.000000,4.000000,4.000000,4.000000,4.000000,4.000000,4.000000,4.000000,4.000000,4.000000,4.000000,4.000000,4.000000,4.000000,4.000000,4.000000,4.000000,4.000000,4.000000,4.000000,4.000000,4.000000,4.000000,100.000000
1614562226.537216,69.000000,0.000000,16.003130,-9.745650,-99.533089,-37.290520,-3.259585,-5.416695,0.175259,-7.826905,-21.858225,-10.710780,25.819721,8.424113,16.265425,21.446775,23.919878,34.695332,1.696874,19.503298,38.785004,3.284869,8.482880,13.573632,21.134670,17.185680,-10.595102,2.794669,-4.810781,8.367835,0.325879,2.862387,-1.903072,9.826010,0.000000,194.000000,4.000000,,,,0.000000,4.000000,4.000000,4.000000,4.000000,4.000000,4.000000,4.000000,4.000000,4.000000,4.000000,4.000000,4.000000,4.000000,4.000000,4.000000,4.000000,4.000000,4.000000,4.000000,4.000000,4.000000,4.000000,4.000000,4.000000,4.000000,4.000000,4.000000,4.000000,4.000000,4.000000,4.000000,4.000000,100.000000
1614562226.544965,70.000000,0.000000,15.987126,-10.761545,-98.920731,-38.278870,-3.769146,-7.975381,0.175084,-7.819077,-31.579956,-11.212890,24.768259,6.877227,14.197877,20.912508,18.767754,30.558071,0.669536,19.483793,38.746220,5.332866,4.884653,6.893392,18.549433,14.604392,-10.071687,3.304695,-4.805970,6.308185,-0.187267,2.346704,0.150114,10.841825,0.000000,215.000000,4.000000,,,,0.000000,4.000000,4.000000,4.000000,4.000000,4.000000,4.000000,4.000000,4.000000,4.000000,4.000000,4.000000,4.000000,4.000000,4.000000,4.000000,4.000000,4.000000,4.000000,4.000000,4.000000,4.000000,4.000000,4.000000,4.000000,4.000000,4.000000,4.000000,4.000000,4.000000,4.000000,4.000000,4.000000,100.000000
1614562226.552814,71.000000,0.000000,15.971139,-10.750784,-99.847458,-37.214951,-3.765377,-4.890482,0.174909,-5.759976,-34.625301,-11.201676,23.717850,4.306248,12.132397,21.404415,20.287447,32.578796,0.156046,28.695080,43.835678,11.994200,5.905409,6.373678,18.530884,16.641069,-9.548795,3.814210,-4.801164,4.763415,0.838561,1.831537,-1.388498,6.728418,0.000000,185.000000,4.000000,,,,0.000000,4.000000,4.000000,4.000000,4.000000,4.000000,4.000000,4.000000,4.000000,4.000000,4.000000,4.000000,4.000000,4.000000,4.000000,4.000000,4.000000,4.000000,4.000000,4.000000,4.000000,4.000000,4.000000,4.000000,4.000000,4.000000,4.000000,4.000000,4.000000,4.000000,4.000000,4.000000,4.000000,100.000000
1614562226.560563,72.000000,0.000000,15.955168,-10.227213,-99.747604,-34.100811,-3.761611,-2.834310,0.174734,-3.702935,-25.872726,-10.164834,21.130030,4.814762,12.120264,19.844549,19.754339,27.418011,2.207172,27.640743,35.073895,6.854001,1.796940,6.880125,19.537994,14.060326,-14.667451,3.297576,-4.796362,4.245831,0.324902,2.855346,-1.387110,9.798614,0.000000,201.000000,4.000000,,,,0.000000,4.000000,4.000000,4.000000,4.000000,4.000000,4.000000,4.000000,4.000000,4.000000,4.000000,4.000000,4.000000,4.000000,4.000000,4.000000,4.000000,4.000000,4.000000,4.000000,4.000000,4.000000,4.000000,4.000000,4.000000,4.000000,4.000000,4.000000,4.000000,4.000000,4.000000,4.000000,4.000000,100.000000
1614562226.568412,73.000000,0.000000,15.939213,-10.729806,-100.673500,-34.579533,-3.757849,-3.857117,0.174559,-5.750514,-29.949417,-13.231592,7.775567,3.271486,12.620965,13.158039,3.324328,3.288029,-1.384779,0.946436,6.320871,-14.178494,-8.461267,2.770680,17.467175,-3.902452,-21.319450,-3.372389,-8.381310,0.139021,-7.367731,0.801209,-1.385723,5.686251,0.000000,195.000000,4.000000,,,,0.000000,4.000000,4.000000,4.000000,4.000000,4.000000,4.000000,4.000000,4.000000,4.000000,4.000000,4.000000,4.000000,4.000000,4.000000,4.000000,4.000000,4.000000,4.000000,4.000000,4.000000,4.000000,4.000000,4.000000,4.000000,4.000000,4.000000,4.000000,4.000000,4.000000,4.000000,4.000000,4.000000,100.000000
1614562226.576161,74.000000,0.000000,15.923273,-9.693436,-104.162567,-39.673157,-3.754092,-3.340439,0.174385,-10.360147,-39.150238,-18.859386,-17.873234,-7.501017,12.095523,1.862830,-17.704638,-27.484489,-11.126985,-31.362204,-23.941860,-28.523291,-14.606652,-1.334654,11.808681,-24.411371,-22.323772,-7.984401,-14.526774,-3.450861,-11.462927,-4.327797,-0.871516,-6.114307,0.000000,192.000000,4.000000,,,,0.000000,4.000000,4.000000,4.000000,4.000000,4.000000,4.000000,4.000000,4.000000,4.000000,4.000000,4.000000,4.000000,4.000000,4.000000,4.000000,4.000000,4.000000,4.000000,4.000000,4.000000,4.000000,4.000000,4.000000,4.000000,4.000000,4.000000,4.000000,4.000000,4.000000,4.000000,4.000000,4.000000,100.000000
