title:21, start timestamp:1614562898.080405, stop timestamp:1614562943.877044, headset type:EPOCFLEX, headset serial:F00001ED, headset firmware:f12, subject name:s15, channels:75, sampling rate:128, samples:5911      , version:2.0
Timestamp,EEG.Counter,EEG.Interpolated,EEG.Cz,EEG.Fz,EEG.Fp1,EEG.F7,EEG.F3,EEG.FC1,EEG.C3,EEG.FC5,EEG.FT9,EEG.T7,EEG.TP9,EEG.CP5,EEG.CP1,EEG.P3,EEG.P7,EEG.O1,EEG.Pz,EEG.Oz,EEG.O2,EEG.P8,EEG.P4,EEG.CP2,EEG.CP6,EEG.TP10,EEG.T8,EEG.FT10,EEG.FC6,EEG.C4,EEG.FC2,EEG.F4,EEG.F8,EEG.Fp2,EEG.HighBitFlex,EEG.RawCq,EEG.Battery,MarkerIndex,MarkerType,MarkerValueInt,EEG.MarkerHardware,CQ.Cz,CQ.Fz,CQ.Fp1,CQ.F7,CQ.F3,CQ.FC1,CQ.C3,CQ.FC5,CQ.FT9,CQ.T7,CQ.TP9,CQ.CP5,CQ.CP1,CQ.P3,CQ.P7,CQ.O1,CQ.Pz,CQ.Oz,CQ.O2,CQ.P8,CQ.P4,CQ.CP2,CQ.CP6,CQ.TP10,CQ.T8,CQ.FT10,CQ.FC6,CQ.C4,CQ.FC2,CQ.F4,CQ.F8,CQ.Fp2,CQ.Overall
1614562898.080405,12.000000,0.000000,1.311711,-2.753742,-8.986348,-13.504085,-9.146037,0.885098,3.862374,-4.204935,-0.184541,-0.459801,-10.602498,-11.419628,-4.058500,-9.908486,-20.760700,-19.699675,-6.068040,-4.737939,1.613123,-5.240735,-0.741205,-11.430896,-22.605572,13.918608,-5.663973,-9.710824,-6.479907,-2.056494,-2.983963,-10.657826,-27.186455,-5.200790,0.000000,201.000000,4.000000,,,,0.000000,4.000000,4.000000,4.000000,4.000000,2.000000,4.000000,4.000000,4.000000,4.000000,4.000000,4.000000,4.000000,4.000000,4.000000,4.000000,4.000000,4.000000,4.000000,4.000000,4.000000,4.000000,4.000000,4.000000,4.000000,4.000000,4.000000,4.000000,4.000000,4.000000,4.000000,4.000000,4.000000,83.333336
1614562898.088255,13.000000,0.000000,-0.228062,-3.263808,-11.028645,-12.977760,-9.136890,0.371393,3.858511,-4.200729,-1.209998,-0.459341,-5.463690,-11.408208,-4.567262,-8.872936,-20.739941,-12.500488,-1.959408,7.574491,16.483305,1.943993,-0.740463,-4.239977,-11.813736,25.699560,-2.068566,-10.213934,-5.960606,0.509665,-2.980979,-10.647168,-26.133627,-3.657128,0.000000,213.000000,4.000000,,,,0.000000,4.000000,4.000000,4.000000,4.000000,2.000000,4.000000,4.000000,4.000000,4.000000,4.000000,4.000000,4.000000,4.000000,4.000000,4.000000,4.000000,4.000000,4.000000,4.000000,4.000000,4.000000,4.000000,4.000000,4.000000,4.000000,4.000000,4.000000,4.000000,4.000000,4.000000,4.000000,4.000000,83.333336
1614562898.096004,14.000000,0.000000,-1.766296,-2.747724,-8.966333,-12.964783,-8.614933,0.883842,4.367474,-4.196529,1.355315,0.053939,2.234081,-10.883980,-4.049874,-6.299961,-17.129457,0.332525,1.632295,19.361788,16.979641,2.967690,-1.252543,-2.697276,-3.596794,24.135401,-14.374189,-10.203720,-5.954646,1.534797,-2.977998,-10.636521,-26.620314,-0.063727,0.000000,201.000000,4.000000,,,,0.000000,4.000000,4.000000,4.000000,4.000000,2.000000,4.000000,4.000000,4.000000,4.000000,4.000000,4.000000,4.000000,4.000000,4.000000,4.000000,4.000000,4.000000,4.000000,4.000000,4.000000,4.000000,4.000000,4.000000,4.000000,4.000000,4.000000,4.000000,4.000000,4.000000,4.000000,4.000000,4.000000,83.333336
1614562898.103654,15.000000,0.000000,-3.815812,-2.744976,-10.495829,-12.438997,-9.631959,1.395779,4.363106,-4.192332,1.866780,-0.458935,6.334411,-10.873096,-1.994542,1.398647,-14.548224,4.434756,3.169124,20.880888,16.449842,1.939081,0.287171,-1.156117,-3.593197,24.111265,-17.436739,-10.193516,-5.948691,1.020441,-2.975021,-10.625885,-26.593693,-1.602125,0.000000,200.000000,4.000000,,,,0.000000,4.000000,4.000000,4.000000,4.000000,2.000000,4.000000,4.000000,4.000000,4.000000,4.000000,4.000000,4.000000,4.000000,4.000000,4.000000,4.000000,4.000000,4.000000,4.000000,4.000000,4.000000,4.000000,4.000000,4.000000,4.000000,4.000000,4.000000,4.000000,4.000000,4.000000,4.000000,4.000000,83.333336
1614562898.111404,16.000000,0.000000,-4.324816,-2.742231,-8.946872,-8.836815,-9.622328,0.881562,3.845922,-3.675319,2.890554,-0.971297,6.328077,-11.375043,0.058734,8.063914,-12.482394,3.404680,5.217237,20.347187,16.433392,2.449963,4.902268,3.973244,-4.615245,24.087152,-2.547507,-10.183323,-5.942742,1.019421,-2.972045,-10.615259,-21.438894,1.989221,0.000000,196.000000,4.000000,,,,0.000000,4.000000,4.000000,4.000000,4.000000,2.000000,4.000000,4.000000,4.000000,4.000000,4.000000,4.000000,4.000000,4.000000,4.000000,4.000000,4.000000,4.000000,4.000000,4.000000,4.000000,4.000000,4.000000,4.000000,4.000000,4.000000,4.000000,4.000000,4.000000,4.000000,4.000000,4.000000,4.000000,83.333336
1614562898.119054,17.000000,0.000000,-4.320491,-2.739489,3.882588,-3.699773,-4.997321,0.367860,4.354897,-0.594721,12.118433,3.645059,7.347390,-10.338027,0.058675,8.055851,-8.880168,2.888455,6.750481,17.249916,5.647727,1.934692,7.974289,3.969271,-3.584989,15.345118,2.583246,-10.173140,-5.936800,1.531222,-2.969074,-10.604644,-15.263610,17.884666,0.000000,209.000000,4.000000,,,,0.000000,4.000000,4.000000,4.000000,4.000000,2.000000,4.000000,4.000000,4.000000,4.000000,4.000000,4.000000,4.000000,4.000000,4.000000,4.000000,4.000000,4.000000,4.000000,4.000000,4.000000,4.000000,4.000000,4.000000,4.000000,4.000000,4.000000,4.000000,4.000000,4.000000,4.000000,4.000000,4.000000,83.333336
1614562898.126804,18.000000,0.000000,-4.828991,-2.736749,10.545372,-0.619150,-1.402580,5.495697,6.401824,3.508438,18.772982,9.795260,5.288760,-7.763586,-0.454204,8.560616,-5.281545,-5.832382,5.205269,0.822410,-12.306638,-0.118525,4.889391,-0.650083,-5.119865,4.560542,-5.111645,-10.162966,-5.930862,-1.034412,-2.966105,-10.594039,-18.838089,19.405245,0.000000,205.000000,4.000000,,,,0.000000,4.000000,4.000000,4.000000,4.000000,2.000000,4.000000,4.000000,4.000000,4.000000,4.000000,4.000000,4.000000,4.000000,4.000000,4.000000,4.000000,4.000000,4.000000,4.000000,4.000000,4.000000,4.000000,4.000000,4.000000,4.000000,4.000000,4.000000,4.000000,4.000000,4.000000,4.000000,4.000000,83.333336
1614562898.134454,19.000000,0.000000,-3.285701,-2.734013,0.278417,-2.156992,-3.452459,9.592766,7.933884,4.017750,14.651644,11.323926,-2.921657,-6.730182,0.059071,8.552054,-4.763443,-17.621422,1.610320,-19.691233,-26.653305,-3.708150,0.781938,-2.700715,-7.678848,-7.751711,-3.568072,-10.152803,-5.924932,-3.084659,-2.963138,-10.583445,-25.485918,0.411480,0.000000,200.000000,4.000000,,,,0.000000,4.000000,4.000000,4.000000,4.000000,2.000000,4.000000,4.000000,4.000000,4.000000,4.000000,4.000000,4.000000,4.000000,4.000000,4.000000,4.000000,4.000000,4.000000,4.000000,4.000000,4.000000,4.000000,4.000000,4.000000,4.000000,4.000000,4.000000,4.000000,4.000000,4.000000,4.000000,4.000000,83.333336
1614562898.142203,20.000000,0.000000,-5.333697,-2.731279,-10.491093,-5.744579,-6.013109,3.429327,7.925950,3.500911,9.508787,10.799782,-9.585402,-7.749093,-0.453809,0.338375,-6.297141,-22.219185,-0.955392,-28.902311,-30.729216,-5.755723,-1.270126,-4.236476,-9.722451,-18.000370,-5.102965,-9.629829,-5.406186,-2.568754,-2.960175,-10.060040,-26.486074,-9.845342,0.000000,199.000000,4.000000,,,,0.000000,4.000000,4.000000,4.000000,4.000000,2.000000,4.000000,4.000000,4.000000,4.000000,4.000000,4.000000,4.000000,4.000000,4.000000,4.000000,4.000000,4.000000,4.000000,4.000000,4.000000,4.000000,4.000000,4.000000,4.000000,4.000000,4.000000,4.000000,4.000000,4.000000,4.000000,4.000000,4.000000,83.333336
1614562898.149853,21.000000,0.000000,-13.020672,-2.215727,-7.916499,-3.174731,-5.494276,-3.240769,7.918024,4.010231,9.499279,11.814623,-10.088636,-7.228523,-2.504637,-6.328630,-5.265203,-18.094400,-1.980078,-20.155460,-21.467718,-1.647404,-2.294497,-6.796342,-11.764010,-18.495190,-20.482477,-9.620200,-5.913600,-2.566185,-2.957215,-9.537160,-26.459587,-5.732932,0.000000,203.000000,4.000000,,,,0.000000,4.000000,4.000000,4.000000,4.000000,2.000000,4.000000,4.000000,4.000000,4.000000,4.000000,4.000000,4.000000,4.000000,4.000000,4.000000,4.000000,4.000000,4.000000,4.000000,4.000000,4.000000,4.000000,4.000000,4.000000,4.000000,4.000000,4.000000,4.000000,4.000000,4.000000,4.000000,4.000000,83.333336
1614562898.157603,22.000000,0.000000,-14.546112,-2.726332,-5.344480,1.956648,-4.975961,0.352215,7.910106,4.006221,11.028241,10.264347,-9.565727,-4.657192,-4.553414,-5.296661,0.381088,-5.768614,-1.465278,0.377516,-7.087276,5.020910,-0.240920,-6.789546,-12.265067,-12.835670,-14.820970,-10.636221,-6.420507,-3.076440,-2.954258,-10.553265,-25.920307,-7.265661,0.000000,216.000000,4.000000,,,,0.000000,4.000000,4.000000,4.000000,4.000000,2.000000,4.000000,4.000000,4.000000,4.000000,4.000000,4.000000,4.000000,4.000000,4.000000,4.000000,4.000000,4.000000,4.000000,4.000000,4.000000,4.000000,4.000000,4.000000,4.000000,4.000000,4.000000,4.000000,4.000000,4.000000,4.000000,4.000000,4.000000,83.333336
1614562898.165253,23.000000,0.000000,-6.839259,-2.723605,-6.877597,-0.609411,-5.483805,5.480068,7.902196,3.489394,8.965931,6.151519,-9.556162,-4.139714,-4.548861,-3.240082,1.406348,-1.660282,-1.463812,3.966882,-2.977625,3.990248,1.810603,-6.782756,-12.252802,-10.258731,9.296415,-9.599943,-3.337164,-2.560543,-2.951303,-10.542711,-23.330284,-8.796857,0.000000,202.000000,4.000000,,,,0.000000,4.000000,4.000000,4.000000,4.000000,2.000000,4.000000,4.000000,4.000000,4.000000,4.000000,4.000000,4.000000,4.000000,4.000000,4.000000,4.000000,4.000000,4.000000,4.000000,4.000000,4.000000,4.000000,4.000000,4.000000,4.000000,4.000000,4.000000,4.000000,4.000000,4.000000,4.000000,4.000000,83.333336
1614562898.173003,24.000000,0.000000,-3.242676,-2.208061,-5.845078,-6.249827,-5.478322,4.448947,7.894294,1.947443,0.751836,7.171008,-10.059426,-3.622754,-4.031491,-4.262483,-8.338648,-15.504775,-2.487989,-16.037085,-8.102852,-2.167588,1.295972,-6.775973,-12.753370,-11.786934,9.287119,-9.590343,-2.821006,0.006120,-2.948352,-10.019348,-25.358236,-4.172675,0.000000,197.000000,4.000000,,,,0.000000,4.000000,4.000000,4.000000,4.000000,2.000000,4.000000,4.000000,4.000000,4.000000,4.000000,4.000000,4.000000,4.000000,4.000000,4.000000,4.000000,4.000000,4.000000,4.000000,4.000000,4.000000,4.000000,4.000000,4.000000,4.000000,4.000000,4.000000,4.000000,4.000000,4.000000,4.000000,4.000000,83.333336
1614562898.180653,25.000000,0.000000,-4.777894,-5.282776,-7.890515,-5.217937,-5.472843,3.931678,7.373579,0.919855,-5.915582,6.138196,-9.536547,-3.619131,-4.540280,-4.771041,-13.971334,-19.591835,-1.459860,-18.072329,-7.581929,-2.165421,4.884419,-2.153813,-11.714975,-9.211044,-8.670886,-15.221779,-6.407929,1.544576,-3.458224,-16.163174,-29.948263,-4.681323,0.000000,223.000000,4.000000,,,,0.000000,4.000000,4.000000,4.000000,4.000000,2.000000,4.000000,4.000000,4.000000,4.000000,4.000000,4.000000,4.000000,4.000000,4.000000,4.000000,4.000000,4.000000,4.000000,4.000000,4.000000,4.000000,4.000000,4.000000,4.000000,4.000000,4.000000,4.000000,4.000000,4.000000,4.000000,4.000000,4.000000,83.333336
1614562898.188402,26.000000,0.000000,-4.773117,-9.892879,-19.164677,-10.340923,-5.467370,4.440567,7.879026,-2.670809,-6.935308,-5.149993,0.216580,-5.666794,-5.048561,-3.227808,-9.341979,-1.623525,5.721087,9.638051,8.323089,-1.650434,16.161587,5.540649,-12.216082,5.669961,-13.277600,-21.360403,-9.991264,0.517390,-3.454766,-25.377781,-30.431135,-13.907411,0.000000,198.000000,4.000000,,,,0.000000,4.000000,4.000000,4.000000,4.000000,2.000000,4.000000,4.000000,4.000000,4.000000,4.000000,4.000000,4.000000,4.000000,4.000000,4.000000,4.000000,4.000000,4.000000,4.000000,4.000000,4.000000,4.000000,4.000000,4.000000,4.000000,4.000000,4.000000,4.000000,4.000000,4.000000,4.000000,4.000000,83.333336
1614562898.196052,27.000000,0.000000,-4.255523,-10.395805,-21.709614,-17.510069,-5.974723,3.923306,7.358326,-7.796343,-5.389911,-7.708946,14.575337,-2.071384,-2.479409,1.903624,-6.255714,12.224253,13.407673,27.577131,24.725023,-3.187246,21.273630,8.612031,-12.716685,23.613010,-11.725861,-19.800581,-10.494094,0.516873,-2.938491,-25.865223,-31.426344,-14.919145,0.000000,204.000000,4.000000,,,,0.000000,4.000000,4.000000,4.000000,4.000000,2.000000,4.000000,4.000000,4.000000,4.000000,4.000000,4.000000,4.000000,4.000000,4.000000,4.000000,4.000000,4.000000,4.000000,4.000000,4.000000,4.000000,4.000000,4.000000,4.000000,4.000000,4.000000,4.000000,4.000000,4.000000,4.000000,4.000000,4.000000,83.333336
1614562898.203802,28.000000,0.000000,-3.738447,-10.898231,-10.405853,-8.261790,-5.455928,4.945023,7.350968,-4.198803,-1.794777,8.196198,22.765890,6.135816,3.676916,11.645310,1.955670,15.801772,17.496830,26.011091,26.238758,4.508249,21.252356,8.603419,-5.524482,31.281704,-7.611571,-13.626935,-5.355394,5.644561,-3.961193,-18.147051,-27.292355,-0.545251,0.000000,204.000000,4.000000,,,,0.000000,4.000000,4.000000,4.000000,4.000000,2.000000,4.000000,4.000000,4.000000,4.000000,4.000000,4.000000,4.000000,4.000000,4.000000,4.000000,4.000000,4.000000,4.000000,4.000000,4.000000,4.000000,4.000000,4.000000,4.000000,4.000000,4.000000,4.000000,4.000000,4.000000,4.000000,4.000000,4.000000,83.333336
1614562898.211452,29.000000,0.000000,-4.247529,-9.348870,-0.651857,8.669548,-5.450472,6.991360,9.907720,3.497704,2.822402,19.470055,28.384150,11.770706,6.750162,21.377254,24.517817,22.965458,20.043436,27.523542,28.263802,19.888357,27.897770,10.133277,5.250274,30.224781,8.293477,-6.433821,4.906371,11.792763,-1.905950,-8.898134,-13.418908,10.737346,0.000000,190.000000,4.000000,,,,0.000000,4.000000,4.000000,4.000000,4.000000,2.000000,4.000000,4.000000,4.000000,4.000000,4.000000,4.000000,4.000000,4.000000,4.000000,4.000000,4.000000,4.000000,4.000000,4.000000,4.000000,4.000000,4.000000,4.000000,4.000000,4.000000,4.000000,4.000000,4.000000,4.000000,4.000000,4.000000,4.000000,83.333336
1614562898.219202,30.000000,0.000000,-5.781743,-1.647214,6.528282,16.866007,-6.983483,7.497190,13.487556,7.083950,7.434965,24.065969,34.509613,15.348679,7.256233,25.971262,40.903557,30.634800,24.125956,33.137043,33.876564,25.509493,31.459616,12.174426,7.296305,30.707376,19.054415,-0.273541,12.593773,12.293791,5.275443,-2.222569,-3.661900,12.265070,0.000000,200.000000,4.000000,,,,0.000000,4.000000,4.000000,4.000000,4.000000,2.000000,4.000000,4.000000,4.000000,4.000000,4.000000,4.000000,4.000000,4.000000,4.000000,4.000000,4.000000,4.000000,4.000000,4.000000,4.000000,4.000000,4.000000,4.000000,4.000000,4.000000,4.000000,4.000000,4.000000,4.000000,4.000000,4.000000,4.000000,83.333336
1614562898.226852,31.000000,0.000000,-2.186218,5.533920,16.265343,19.926064,-3.386756,11.079435,15.525350,13.230712,14.094196,30.708569,32.936642,21.487177,8.787437,26.458111,36.247269,24.963139,25.640291,29.001343,23.586277,19.842958,24.761490,12.162251,6.263368,29.138208,15.958436,1.778015,12.581179,11.255856,11.424014,0.856576,-4.171058,13.791266,0.000000,185.000000,4.000000,,,,0.000000,4.000000,4.000000,4.000000,4.000000,2.000000,4.000000,4.000000,4.000000,4.000000,4.000000,4.000000,4.000000,4.000000,4.000000,4.000000,4.000000,4.000000,4.000000,4.000000,4.000000,4.000000,4.000000,4.000000,4.000000,4.000000,4.000000,4.000000,4.000000,4.000000,4.000000,4.000000,4.000000,83.333336
1614562898.234702,32.000000,0.000000,6.021097,5.015566,20.351643,20.418959,3.796118,15.683741,14.997004,21.935429,17.669846,29.139399,25.211397,23.516972,10.829932,24.893192,24.416149,6.989458,23.563370,17.690290,7.152434,16.746193,20.121344,10.098807,6.257104,22.955225,15.429657,0.750596,12.055777,12.270241,11.925410,1.368540,-4.166887,16.341578,8064.000000,0.000000,4.000000,,,,0.000000,4.000000,4.000000,4.000000,4.000000,2.000000,4.000000,4.000000,4.000000,4.000000,4.000000,4.000000,4.000000,4.000000,4.000000,4.000000,4.000000,4.000000,4.000000,4.000000,4.000000,4.000000,4.000000,4.000000,4.000000,4.000000,4.000000,4.000000,4.000000,4.000000,4.000000,4.000000,4.000000,83.333336
1614562898.242452,33.000000,0.000000,4.989435,4.497730,16.741547,20.398539,5.843604,13.103954,14.469187,20.887854,17.139355,22.443594,17.493877,18.365250,10.819102,21.791376,19.263527,-3.273942,19.437243,8.954652,6.119641,16.729446,18.049940,8.037426,3.686745,18.829704,13.875766,1.262666,12.556541,11.745150,11.913485,0.854351,-3.649900,15.299595,8192.000000,0.000000,4.000000,,,,0.000000,4.000000,4.000000,4.000000,4.000000,2.000000,4.000000,4.000000,4.000000,4.000000,4.000000,4.000000,4.000000,4.000000,4.000000,4.000000,4.000000,4.000000,4.000000,4.000000,4.000000,4.000000,4.000000,4.000000,4.000000,4.000000,4.000000,4.000000,4.000000,4.000000,4.000000,4.000000,4.000000,83.333336
1614562898.250302,34.000000,0.000000,-0.656580,5.006052,15.699164,24.480705,5.837760,12.065209,14.967538,18.815683,17.635036,27.036533,12.860999,14.757140,10.295463,18.692661,20.782724,4.421640,16.340881,10.484159,10.216085,15.687076,15.980608,7.516569,3.683058,17.785234,9.759326,1.261403,12.031164,11.220584,11.901571,0.340676,-4.159070,14.771475,8064.000000,0.000000,4.000000,,,,0.000000,4.000000,4.000000,4.000000,4.000000,2.000000,4.000000,4.000000,4.000000,4.000000,4.000000,4.000000,4.000000,4.000000,4.000000,4.000000,4.000000,4.000000,4.000000,4.000000,4.000000,4.000000,4.000000,4.000000,4.000000,4.000000,4.000000,4.000000,4.000000,4.000000,4.000000,4.000000,4.000000,83.333336
1614562898.258052,35.000000,0.000000,3.959461,5.001047,17.221926,30.097250,8.908845,17.694170,19.055134,25.976355,20.694324,33.163345,11.822497,13.716742,10.285168,17.648327,22.300404,16.212090,16.837360,23.807007,12.257152,18.748312,23.144115,8.534693,10.858862,19.305910,21.031618,0.747321,14.070415,15.824748,11.376849,2.391618,-0.052347,16.295164,8192.000000,0.000000,4.000000,,,,0.000000,4.000000,4.000000,4.000000,4.000000,2.000000,4.000000,4.000000,4.000000,4.000000,4.000000,4.000000,4.000000,4.000000,4.000000,4.000000,4.000000,4.000000,4.000000,4.000000,4.000000,4.000000,4.000000,4.000000,4.000000,4.000000,4.000000,4.000000,4.000000,4.000000,4.000000,4.000000,4.000000,83.333336
1614562898.265902,36.000000,0.000000,11.647809,6.534507,14.127782,30.579973,7.874296,18.189297,23.138643,30.565763,20.673630,32.617359,12.323495,14.215846,10.274882,18.143499,21.765284,19.272800,17.333344,35.065250,20.962843,25.396231,33.377380,11.090261,16.489029,22.876348,35.882381,0.746574,16.107628,19.398666,11.878293,4.440508,2.511808,10.637844,8064.000000,0.000000,4.000000,,,,0.000000,4.000000,4.000000,4.000000,4.000000,2.000000,4.000000,4.000000,4.000000,4.000000,4.000000,4.000000,4.000000,4.000000,4.000000,4.000000,4.000000,4.000000,4.000000,4.000000,4.000000,4.000000,4.000000,4.000000,4.000000,4.000000,4.000000,4.000000,4.000000,4.000000,4.000000,4.000000,4.000000,83.333336
1614562898.273652,37.000000,0.000000,9.584879,6.527973,8.985449,27.472469,2.225395,12.530082,21.577044,25.919813,18.088854,33.097565,12.311172,14.201630,10.777428,17.612535,22.769159,19.766348,14.751908,37.081470,29.659828,24.858013,35.908108,12.104812,18.523823,26.443214,29.179832,1.258648,15.578699,19.379269,11.353594,3.410427,-4.670191,0.883616,8064.000000,0.000000,4.000000,,,,0.000000,4.000000,4.000000,4.000000,4.000000,2.000000,4.000000,4.000000,4.000000,4.000000,4.000000,4.000000,4.000000,4.000000,4.000000,4.000000,4.000000,4.000000,4.000000,4.000000,4.000000,4.000000,4.000000,4.000000,4.000000,4.000000,4.000000,4.000000,4.000000,4.000000,4.000000,4.000000,4.000000,83.333336
1614562898.281502,38.000000,0.000000,6.498371,4.470162,5.899540,21.803972,0.684709,10.979090,19.504185,19.227226,16.532303,27.936260,12.811681,13.674607,10.766650,15.543641,22.746389,21.797865,13.198695,37.557209,31.681452,19.704950,36.385017,12.092707,17.479658,27.955233,15.817319,-0.281072,12.486197,19.359890,6.726856,1.355734,-12.357829,-4.245472,8192.000000,0.000000,4.000000,,,,0.000000,4.000000,4.000000,4.000000,4.000000,2.000000,4.000000,4.000000,4.000000,4.000000,4.000000,4.000000,4.000000,4.000000,4.000000,4.000000,4.000000,4.000000,4.000000,4.000000,4.000000,4.000000,4.000000,4.000000,4.000000,4.000000,4.000000,4.000000,4.000000,4.000000,4.000000,4.000000,4.000000,83.333336
1614562898.289252,39.000000,0.000000,7.004694,3.952872,4.868000,15.115501,2.222486,11.993752,18.459040,18.182358,16.515772,16.626272,12.798869,14.173754,9.730243,14.502457,16.056976,21.263247,13.185496,37.519650,30.624128,20.710886,35.322994,12.080614,11.821152,26.901638,12.724579,-2.844894,11.448070,18.827709,3.643206,0.328737,-11.832650,-6.292509,8064.000000,0.000000,4.000000,,,,0.000000,4.000000,4.000000,4.000000,4.000000,2.000000,4.000000,4.000000,4.000000,4.000000,4.000000,4.000000,4.000000,4.000000,4.000000,4.000000,4.000000,4.000000,4.000000,4.000000,4.000000,4.000000,4.000000,4.000000,4.000000,4.000000,4.000000,4.000000,4.000000,4.000000,4.000000,4.000000,4.000000,83.333336
1614562898.297102,40.000000,0.000000,6.997689,4.974560,4.350311,12.536283,1.707442,11.468938,17.414938,18.164175,16.499256,12.507082,13.298891,15.698041,11.771794,14.487954,12.451176,21.241983,13.685131,37.482132,30.080685,18.126074,29.646645,11.555713,7.193946,26.361916,7.070829,-3.354869,13.487904,16.757599,3.639563,-1.722873,-10.795177,-7.311858,8064.000000,0.000000,4.000000,,,,0.000000,4.000000,4.000000,4.000000,4.000000,2.000000,4.000000,4.000000,4.000000,4.000000,4.000000,4.000000,4.000000,4.000000,4.000000,4.000000,4.000000,4.000000,4.000000,4.000000,4.000000,4.000000,4.000000,4.000000,4.000000,4.000000,4.000000,4.000000,4.000000,4.000000,4.000000,4.000000,4.000000,83.333336
1614562898.304852,41.000000,0.000000,6.990691,4.456765,4.858781,9.959644,1.192914,11.457469,15.346242,16.094728,16.995577,14.545857,15.849695,12.605420,9.708741,15.499107,18.079750,24.297665,13.158626,38.983109,31.589066,8.364357,29.104177,11.031337,5.648291,28.386835,2.448373,-2.325873,10.397493,15.202380,4.148744,-3.259612,-13.348484,-5.253263,8064.000000,0.000000,4.000000,,,,0.000000,4.000000,4.000000,4.000000,4.000000,2.000000,4.000000,4.000000,4.000000,4.000000,4.000000,4.000000,4.000000,4.000000,4.000000,4.000000,4.000000,4.000000,4.000000,4.000000,4.000000,4.000000,4.000000,4.000000,4.000000,4.000000,4.000000,4.000000,4.000000,4.000000,4.000000,4.000000,4.000000,83.333336
1614562898.312702,42.000000,0.000000,6.470880,4.452308,2.289820,2.770198,1.704542,9.907550,10.202690,12.488891,14.414478,10.941567,16.346666,5.413328,0.468263,13.432326,17.548851,19.145161,13.145467,28.687717,26.429270,3.227788,25.998150,8.456203,1.027258,21.178961,2.958745,-4.374830,-1.407776,12.623075,3.631774,-3.256352,-14.873597,-5.760831,8192.000000,0.000000,4.000000,,,,0.000000,4.000000,4.000000,4.000000,4.000000,2.000000,4.000000,4.000000,4.000000,4.000000,4.000000,4.000000,4.000000,4.000000,4.000000,4.000000,4.000000,4.000000,4.000000,4.000000,4.000000,4.000000,4.000000,4.000000,4.000000,4.000000,4.000000,4.000000,4.000000,4.000000,4.000000,4.000000,4.000000,83.333336
1614562898.320452,43.000000,0.000000,1.849024,4.447856,-4.379137,-3.386419,1.702838,5.795078,4.551462,7.861017,7.733397,5.802421,11.714934,3.356632,-5.173231,9.829150,9.838994,5.792683,11.081039,5.582106,3.325918,4.763021,7.510613,2.293900,-4.614795,-0.893500,-11.916008,-8.473019,-10.637137,6.969426,4.140963,-6.842840,-18.448467,-11.396095,8064.000000,0.000000,4.000000,,,,0.000000,4.000000,4.000000,4.000000,4.000000,2.000000,4.000000,4.000000,4.000000,4.000000,4.000000,4.000000,4.000000,4.000000,4.000000,4.000000,4.000000,4.000000,4.000000,4.000000,4.000000,4.000000,4.000000,4.000000,4.000000,4.000000,4.000000,4.000000,4.000000,4.000000,4.000000,4.000000,4.000000,83.333336
1614562898.328301,44.000000,0.000000,-4.306671,4.443408,-6.938860,-3.383032,1.701135,3.738001,3.008449,1.699310,5.161561,5.796619,4.010911,1.814814,-4.142417,4.691116,8.803514,-5.495162,3.890471,-10.833733,-20.779972,5.271079,-8.907154,-2.836599,-11.276847,-22.943888,-26.263067,-10.515828,-11.652142,3.885534,4.136822,-10.425740,-26.122326,-11.384700,8064.000000,0.000000,4.000000,,,,0.000000,4.000000,4.000000,4.000000,4.000000,2.000000,4.000000,4.000000,4.000000,4.000000,4.000000,4.000000,4.000000,4.000000,4.000000,4.000000,4.000000,4.000000,4.000000,4.000000,4.000000,4.000000,4.000000,4.000000,4.000000,4.000000,4.000000,4.000000,4.000000,4.000000,4.000000,4.000000,4.000000,83.333336
1614562898.336051,45.000000,0.000000,-5.328005,4.438964,-6.419101,-2.354008,1.699434,4.247083,4.031082,-1.379312,4.643579,6.303643,-5.223868,-3.828026,-5.163916,-2.493062,4.179326,-16.258898,-1.754445,-18.002386,-28.964319,4.240167,-10.436708,-3.859403,-19.470697,-27.536329,-16.493214,-11.018132,-8.050746,3.881648,4.132685,-10.928135,-27.121845,-9.834853,8064.000000,0.000000,4.000000,,,,0.000000,4.000000,4.000000,4.000000,4.000000,2.000000,4.000000,4.000000,4.000000,4.000000,4.000000,4.000000,4.000000,4.000000,4.000000,4.000000,4.000000,4.000000,4.000000,4.000000,4.000000,4.000000,4.000000,4.000000,4.000000,4.000000,4.000000,4.000000,4.000000,4.000000,4.000000,4.000000,4.000000,83.333336
1614562898.343901,46.000000,0.000000,-4.297036,4.434525,-6.925502,-2.864475,2.210555,4.242836,4.027050,-0.865112,5.151756,6.297339,-10.859671,-8.439583,-8.235675,-8.131596,-7.619726,-24.960587,-2.265511,-25.163870,-27.396894,4.748747,-9.400631,-5.394005,-18.425587,-20.329306,-6.733131,-8.955832,-2.401670,4.390587,4.128552,-11.430028,-18.376774,-8.799377,8064.000000,0.000000,4.000000,,,,0.000000,4.000000,4.000000,4.000000,4.000000,2.000000,4.000000,4.000000,4.000000,4.000000,4.000000,4.000000,4.000000,4.000000,4.000000,4.000000,4.000000,4.000000,4.000000,4.000000,4.000000,4.000000,4.000000,4.000000,4.000000,4.000000,4.000000,4.000000,4.000000,4.000000,4.000000,4.000000,4.000000,83.333336
1614562898.351651,47.000000,0.000000,-4.805560,4.430091,-1.790371,1.753774,1.695524,3.725773,3.510203,0.161394,9.761990,8.855145,-6.233426,-7.405502,-8.227439,-5.046540,-8.637747,-19.807421,-1.237604,-17.959219,-16.600266,6.795280,-7.339948,-7.439893,-9.689212,-10.565387,-8.777679,-2.793031,1.703296,3.873376,4.124424,-8.854495,-9.640449,3.517114,8064.000000,0.000000,4.000000,,,,0.000000,4.000000,4.000000,4.000000,4.000000,2.000000,4.000000,4.000000,4.000000,4.000000,4.000000,4.000000,4.000000,4.000000,4.000000,4.000000,4.000000,4.000000,4.000000,4.000000,4.000000,4.000000,4.000000,4.000000,4.000000,4.000000,4.000000,4.000000,4.000000,4.000000,4.000000,4.000000,4.000000,83.333336
1614562898.359300,48.000000,0.000000,-4.800754,5.964122,14.621675,12.008430,1.693828,4.234868,4.019513,4.776617,15.906074,13.461674,3.516397,-4.833994,-7.706391,2.137993,1.627301,-6.454280,-1.749187,3.597201,4.954795,9.352588,2.410982,-6.919633,-8.141062,-0.811231,-0.050953,1.825147,1.188772,4.382323,4.120300,-2.178974,-7.066706,21.462315,8064.000000,0.000000,4.000000,,,,0.000000,4.000000,4.000000,4.000000,4.000000,2.000000,4.000000,4.000000,4.000000,4.000000,4.000000,4.000000,4.000000,4.000000,4.000000,4.000000,4.000000,4.000000,4.000000,4.000000,4.000000,4.000000,4.000000,4.000000,4.000000,4.000000,4.000000,4.000000,4.000000,4.000000,4.000000,4.000000,4.000000,83.333336
1614562898.367050,49.000000,0.000000,-4.283133,8.009440,25.376284,20.201551,2.717775,4.230633,3.502673,12.976969,17.428629,14.473853,6.076983,-1.239417,-7.698685,3.674317,6.241058,-0.806800,-1.747438,15.388475,19.308815,8.830415,10.100879,-6.912713,-8.645741,6.369067,12.256790,1.310502,1.187584,4.377941,4.116179,1.412949,-6.546819,28.620340,8064.000000,0.000000,4.000000,,,,0.000000,4.000000,4.000000,4.000000,4.000000,2.000000,4.000000,4.000000,4.000000,4.000000,4.000000,4.000000,4.000000,4.000000,4.000000,4.000000,4.000000,4.000000,4.000000,4.000000,4.000000,4.000000,4.000000,4.000000,4.000000,4.000000,4.000000,4.000000,4.000000,4.000000,4.000000,4.000000,4.000000,83.333336
1614562898.374700,50.000000,0.000000,-4.278850,8.001431,19.197062,20.181349,0.150955,4.226402,1.447888,13.476812,16.385559,13.946559,5.045265,-1.238177,-8.203807,3.157822,4.183535,-1.318814,-1.745691,15.373087,20.315147,9.847225,10.090777,-5.880159,-3.508890,10.978083,8.654790,0.796371,1.699217,4.373563,4.112063,0.385895,-9.617195,25.514797,8064.000000,0.000000,4.000000,,,,0.000000,4.000000,4.000000,4.000000,4.000000,2.000000,4.000000,4.000000,4.000000,4.000000,4.000000,4.000000,4.000000,4.000000,4.000000,4.000000,4.000000,4.000000,4.000000,4.000000,4.000000,4.000000,4.000000,4.000000,4.000000,4.000000,4.000000,4.000000,4.000000,4.000000,4.000000,4.000000,4.000000,83.333336
1614562898.382450,51.000000,0.000000,-4.274571,7.993430,10.459916,16.058603,-4.977401,4.222176,-0.604841,5.771028,15.856353,13.932612,6.065861,-6.365144,-8.708424,4.180305,-1.974494,-1.317495,-1.231125,14.844893,19.782011,10.350199,9.567866,-3.310177,0.084362,11.992745,1.979468,0.795574,0.671876,4.882010,4.107951,-0.127312,-11.146039,23.950821,8064.000000,0.000000,4.000000,,,,0.000000,4.000000,4.000000,4.000000,4.000000,2.000000,4.000000,4.000000,4.000000,4.000000,4.000000,4.000000,4.000000,4.000000,4.000000,4.000000,4.000000,4.000000,4.000000,4.000000,4.000000,4.000000,4.000000,4.000000,4.000000,4.000000,4.000000,4.000000,4.000000,4.000000,4.000000,4.000000,4.000000,83.333336
1614562898.390100,52.000000,0.000000,-4.270297,7.985436,14.039200,12.452802,-7.023706,4.217954,-0.604237,2.175513,15.840497,14.431500,6.059795,-7.384420,-7.161253,3.663304,-10.177649,-0.803357,-1.229893,15.855690,19.762230,1.109079,10.071119,-2.281225,-0.428542,11.980753,3.515950,-0.230862,0.671205,2.825846,4.103843,-0.127184,-5.493867,26.490973,8064.000000,0.000000,4.000000,,,,0.000000,4.000000,4.000000,4.000000,4.000000,2.000000,4.000000,4.000000,4.000000,4.000000,4.000000,4.000000,4.000000,4.000000,4.000000,4.000000,4.000000,4.000000,4.000000,4.000000,4.000000,4.000000,4.000000,4.000000,4.000000,4.000000,4.000000,4.000000,4.000000,4.000000,4.000000,4.000000,4.000000,83.333336
1614562898.397850,53.000000,0.000000,-4.266026,7.977451,18.127726,8.850605,-4.965400,4.213736,2.473291,4.737440,17.875938,13.391428,6.566556,-2.248831,-5.102810,4.685282,-13.757214,0.735908,-2.254304,16.352655,18.716825,-8.635620,9.548227,-2.791765,-1.453755,13.507234,0.948332,1.307830,1.183354,0.771738,4.099740,1.411404,-6.514015,25.438839,8064.000000,0.000000,4.000000,,,,0.000000,4.000000,4.000000,4.000000,4.000000,2.000000,4.000000,4.000000,4.000000,4.000000,4.000000,4.000000,4.000000,4.000000,4.000000,4.000000,4.000000,4.000000,4.000000,4.000000,4.000000,4.000000,4.000000,4.000000,4.000000,4.000000,4.000000,4.000000,4.000000,4.000000,4.000000,4.000000,4.000000,83.333336
1614562898.405500,54.000000,0.000000,-4.774580,7.969473,4.776264,3.200729,-4.960434,4.209522,5.034920,3.707062,12.729857,10.301113,8.611272,0.830341,-4.072066,9.295981,-13.743457,1.760813,-0.713589,12.746558,13.057084,-10.165445,9.538679,-2.788973,-2.477942,8.878342,-14.437232,1.306522,0.156529,0.258146,4.095640,0.897173,-21.892117,9.003144,8064.000000,0.000000,4.000000,,,,0.000000,4.000000,4.000000,4.000000,4.000000,2.000000,4.000000,4.000000,4.000000,4.000000,4.000000,4.000000,4.000000,4.000000,4.000000,4.000000,4.000000,4.000000,4.000000,4.000000,4.000000,4.000000,4.000000,4.000000,4.000000,4.000000,4.000000,4.000000,4.000000,4.000000,4.000000,4.000000,4.000000,83.333336
1614562898.413249,55.000000,0.000000,-3.744165,7.961504,-6.510564,0.120605,-8.032397,4.718133,7.081167,1.652073,2.460717,9.265171,7.064198,-0.708951,2.085852,11.337968,-15.780995,0.220590,3.902509,2.990222,-1.827768,-16.821947,9.529140,-2.786184,-4.013926,-4.976690,-25.704845,-2.284528,1.182014,0.257887,4.091544,-1.667827,-26.998428,-4.339192,8064.000000,0.000000,4.000000,,,,0.000000,4.000000,4.000000,4.000000,4.000000,2.000000,4.000000,4.000000,4.000000,4.000000,4.000000,4.000000,4.000000,4.000000,4.000000,4.000000,4.000000,4.000000,4.000000,4.000000,4.000000,4.000000,4.000000,4.000000,4.000000,4.000000,4.000000,4.000000,4.000000,4.000000,4.000000,4.000000,4.000000,83.333336
1614562898.420899,56.000000,0.000000,-1.176318,9.492003,14.008767,8.325613,-1.357698,6.764697,14.253573,9.342729,11.689026,12.845650,6.031494,2.881502,12.852997,11.326630,-8.585728,-1.830912,6.462709,-1.628153,-13.107991,-21.420509,9.006791,-2.783398,-6.061194,-11.125560,-15.422731,9.512629,9.385961,1.796091,5.625914,8.077431,-6.971431,18.742071,8064.000000,0.000000,4.000000,,,,0.000000,4.000000,4.000000,4.000000,4.000000,2.000000,4.000000,4.000000,4.000000,4.000000,4.000000,4.000000,4.000000,4.000000,4.000000,4.000000,4.000000,4.000000,4.000000,4.000000,4.000000,4.000000,4.000000,4.000000,4.000000,4.000000,4.000000,4.000000,4.000000,4.000000,4.000000,4.000000,4.000000,83.333336
1614562898.428649,57.000000,0.000000,-0.149501,12.046615,37.071682,14.471133,7.874429,8.296393,21.931627,14.461591,30.651695,12.832804,6.025462,5.442723,14.891426,11.828123,3.730551,-1.316261,5.943427,-0.088063,-11.043602,-6.527294,10.023425,-2.780614,-4.516671,-3.422127,6.131153,29.503117,19.120163,5.896859,7.671570,23.453968,13.548361,46.928455,8064.000000,0.000000,4.000000,,,,0.000000,4.000000,4.000000,4.000000,4.000000,2.000000,4.000000,4.000000,4.000000,4.000000,4.000000,4.000000,4.000000,4.000000,4.000000,4.000000,4.000000,4.000000,4.000000,4.000000,4.000000,4.000000,4.000000,4.000000,4.000000,4.000000,4.000000,4.000000,4.000000,4.000000,4.000000,4.000000,4.000000,83.333336
1614562898.436299,58.000000,0.000000,-0.662172,11.521748,14.470508,-0.927953,1.712708,7.262456,18.319952,-0.424666,17.287710,7.178945,0.378411,-2.255027,8.722689,8.226552,3.726820,-1.314945,5.937483,-0.600795,-9.494097,9.376669,12.064684,-2.777834,2.154512,0.683860,14.842971,22.806946,21.152327,7.942245,7.663898,16.763847,7.380967,29.445631,8064.000000,0.000000,4.000000,,,,0.000000,4.000000,4.000000,4.000000,4.000000,2.000000,4.000000,4.000000,4.000000,4.000000,4.000000,4.000000,4.000000,4.000000,4.000000,4.000000,4.000000,4.000000,4.000000,4.000000,4.000000,4.000000,4.000000,4.000000,4.000000,4.000000,4.000000,4.000000,4.000000,4.000000,4.000000,4.000000,4.000000,83.333336
1614562898.444049,59.000000,0.000000,-0.661510,7.407661,-16.313194,-13.747539,-9.058235,4.691091,9.070863,-12.731934,-5.806500,6.146125,-4.237352,-7.380978,6.149863,1.551658,2.697452,-1.313630,6.957187,-0.600195,-8.971782,9.880113,13.591081,-2.775056,5.229280,0.683176,9.187102,1.758498,16.515789,8.447123,7.656235,-1.201634,-9.036671,4.287980,8064.000000,0.000000,4.000000,,,,0.000000,4.000000,4.000000,4.000000,4.000000,2.000000,4.000000,4.000000,4.000000,4.000000,4.000000,4.000000,4.000000,4.000000,4.000000,4.000000,4.000000,4.000000,4.000000,4.000000,4.000000,4.000000,4.000000,4.000000,4.000000,4.000000,4.000000,4.000000,4.000000,4.000000,4.000000,4.000000,4.000000,83.333336
1614562898.451699,60.000000,0.000000,-0.660848,3.810510,0.626196,1.138004,-4.946613,4.173580,7.523331,-1.437150,7.019819,10.755363,-0.130551,-1.732571,3.066790,0.011645,10.899883,1.251787,6.437409,6.067072,4.370523,9.870233,13.577489,-2.772281,3.172769,6.323518,7.639453,7.397765,12.909530,10.489958,7.648579,3.414952,-4.412250,24.796513,8064.000000,0.000000,4.000000,,,,0.000000,4.000000,4.000000,4.000000,4.000000,2.000000,4.000000,4.000000,4.000000,4.000000,4.000000,4.000000,4.000000,4.000000,4.000000,4.000000,4.000000,4.000000,4.000000,4.000000,4.000000,4.000000,4.000000,4.000000,4.000000,4.000000,4.000000,4.000000,4.000000,4.000000,4.000000,4.000000,4.000000,83.333336
1614562898.459549,61.000000,0.000000,-0.660187,4.319520,21.651211,14.983020,2.750641,4.169406,8.541449,7.282236,26.499979,9.718967,2.433682,-1.730838,-4.115764,-0.501187,12.427444,2.788996,5.918151,11.189210,19.237947,18.065491,13.051091,-2.769509,5.733699,8.881297,16.862583,21.749342,11.870979,12.017929,7.640930,18.283333,7.387035,43.746075,8064.000000,0.000000,4.000000,,,,0.000000,4.000000,4.000000,4.000000,4.000000,2.000000,4.000000,4.000000,4.000000,4.000000,4.000000,4.000000,4.000000,4.000000,4.000000,4.000000,4.000000,4.000000,4.000000,4.000000,4.000000,4.000000,4.000000,4.000000,4.000000,4.000000,4.000000,4.000000,4.000000,4.000000,4.000000,4.000000,4.000000,83.333336
1614562898.467299,62.000000,0.000000,-0.659527,4.315201,5.219303,10.352653,2.235070,4.165236,6.481625,-1.442995,17.755529,5.606684,2.944069,-9.934236,-8.214212,-2.551968,9.338095,3.299028,6.937874,10.665200,19.731529,23.688452,13.550860,-2.766739,10.856171,8.872416,22.486746,17.112207,11.346288,12.518732,7.633289,19.290689,3.277084,26.779251,8064.000000,0.000000,4.000000,,,,0.000000,4.000000,4.000000,4.000000,4.000000,2.000000,4.000000,4.000000,4.000000,4.000000,4.000000,4.000000,4.000000,4.000000,4.000000,4.000000,4.000000,4.000000,4.000000,4.000000,4.000000,4.000000,4.000000,4.000000,4.000000,4.000000,4.000000,4.000000,4.000000,4.000000,4.000000,4.000000,4.000000,83.333336
1614562898.475148,63.000000,0.000000,-0.658868,3.798065,3.162802,10.342299,1.207194,4.161071,1.859758,-5.031296,13.122390,8.165180,2.941125,-9.924301,-8.718819,-3.575057,10.354397,2.782908,5.392474,8.090433,19.198978,19.562199,15.075771,-2.251152,10.332494,11.940467,20.412977,18.633556,12.873403,11.993392,8.138476,18.245758,4.812268,27.265293,8064.000000,0.000000,4.000000,,,,0.000000,4.000000,4.000000,4.000000,4.000000,2.000000,4.000000,4.000000,4.000000,4.000000,4.000000,4.000000,4.000000,4.000000,4.000000,4.000000,4.000000,4.000000,4.000000,4.000000,4.000000,4.000000,4.000000,4.000000,4.000000,4.000000,4.000000,4.000000,4.000000,4.000000,4.000000,4.000000,4.000000,83.333336
1614562898.482899,64.000000,0.000000,-0.658209,4.307087,15.980152,5.203753,1.718807,3.131269,-4.808768,-2.974983,17.724651,2.515989,-6.292585,-13.504121,-10.761381,-7.674046,-1.963650,-4.912182,-3.330867,5.005419,21.743881,7.747765,9.419670,-2.761721,7.758059,9.877244,18.854103,22.204666,12.860529,8.391656,7.617517,17.714691,7.371558,39.032898,0.000000,203.000000,4.000000,,,,0.000000,4.000000,4.000000,4.000000,4.000000,2.000000,4.000000,4.000000,4.000000,4.000000,4.000000,4.000000,4.000000,4.000000,4.000000,4.000000,4.000000,4.000000,4.000000,4.000000,4.000000,4.000000,4.000000,4.000000,4.000000,4.000000,4.000000,4.000000,4.000000,4.000000,4.000000,4.000000,4.000000,83.333336
1614562898.490748,65.000000,0.000000,-0.144730,4.302780,-5.061469,-13.262990,-1.359835,1.076856,-10.444984,-9.638675,4.886415,-16.460886,-18.593985,-27.336771,-12.289082,-16.384321,-23.500147,-15.676501,-9.481382,-1.666253,8.388804,-1.490753,0.179481,-2.758960,2.109275,-0.901864,14.219865,2.182462,5.155361,4.280700,7.609900,9.491849,-15.712736,8.224636,0.000000,167.000000,4.000000,,,,0.000000,4.000000,4.000000,4.000000,4.000000,2.000000,4.000000,4.000000,4.000000,4.000000,4.000000,4.000000,4.000000,4.000000,4.000000,4.000000,4.000000,4.000000,4.000000,4.000000,4.000000,4.000000,4.000000,4.000000,4.000000,4.000000,4.000000,4.000000,4.000000,4.000000,4.000000,4.000000,4.000000,83.333336
1614562898.498498,66.000000,0.000000,-1.683047,4.298478,-11.723074,-2.993317,-2.384116,0.050138,-11.973001,-8.090574,4.368708,-20.546989,-21.139494,-23.719690,-11.763972,-19.444859,-30.656134,-20.276209,-8.959081,-7.305612,-9.568302,-4.566185,-1.871980,-1.730560,-8.149244,-8.593269,5.487696,-2.947925,0.534821,4.276419,8.115110,3.841331,-25.440613,-4.091281,0.000000,172.000000,4.000000,,,,0.000000,4.000000,4.000000,4.000000,4.000000,2.000000,4.000000,4.000000,4.000000,4.000000,4.000000,4.000000,4.000000,4.000000,4.000000,4.000000,4.000000,4.000000,4.000000,4.000000,4.000000,4.000000,4.000000,4.000000,4.000000,4.000000,4.000000,4.000000,4.000000,4.000000,4.000000,4.000000,4.000000,83.333336
1614562898.506348,67.000000,0.000000,-3.732646,4.294179,21.109161,21.625061,-0.843270,0.050088,-9.909746,1.148286,25.902800,-5.654647,-19.579893,-10.875458,-11.239388,-17.886953,-27.548555,-19.230291,-8.437301,-7.298306,-11.097196,-9.689824,-2.382929,-4.292932,-12.243659,-10.123138,3.943747,21.670408,7.713773,2.220860,5.542892,5.888772,1.764314,28.733324,0.000000,197.000000,4.000000,,,,0.000000,4.000000,4.000000,4.000000,4.000000,2.000000,4.000000,4.000000,4.000000,4.000000,4.000000,4.000000,4.000000,4.000000,4.000000,4.000000,4.000000,4.000000,4.000000,4.000000,4.000000,4.000000,4.000000,4.000000,4.000000,4.000000,4.000000,4.000000,4.000000,4.000000,4.000000,4.000000,4.000000,83.333336
1614562898.514098,68.000000,0.000000,-4.754554,4.289885,20.062412,6.218821,-4.432170,1.075679,-8.874195,-1.416965,18.697411,-0.520787,-20.073133,-15.992787,-11.228148,-18.894707,-28.546648,-18.698240,-9.454504,-5.752547,-12.111739,-18.910904,-7.508751,-8.904023,-11.205774,-10.113015,0.862880,20.110275,2.577855,-2.909565,0.921965,4.344422,3.301012,32.807156,0.000000,210.000000,4.000000,,,,0.000000,4.000000,4.000000,4.000000,4.000000,2.000000,4.000000,4.000000,4.000000,4.000000,4.000000,4.000000,4.000000,4.000000,4.000000,4.000000,4.000000,4.000000,4.000000,4.000000,4.000000,4.000000,4.000000,4.000000,4.000000,4.000000,4.000000,4.000000,4.000000,4.000000,4.000000,4.000000,4.000000,83.333336
1614562898.521948,69.000000,0.000000,-4.236979,4.285595,-12.265344,-11.736116,-8.530302,3.125885,-6.814039,-7.056574,-4.911030,-5.135651,-18.001778,-20.079359,-11.729740,-14.260427,-26.466820,-20.218004,-7.393768,-10.874999,-26.458601,-25.558659,-10.065345,-10.433580,-15.297132,-10.615723,-12.471316,-5.038040,-13.834980,-3.932297,-0.617418,-0.788128,-27.984341,0.466654,0.000000,173.000000,4.000000,,,,0.000000,4.000000,4.000000,4.000000,4.000000,4.000000,4.000000,4.000000,4.000000,4.000000,4.000000,4.000000,4.000000,4.000000,4.000000,4.000000,4.000000,4.000000,4.000000,4.000000,4.000000,4.000000,4.000000,4.000000,4.000000,4.000000,4.000000,4.000000,4.000000,4.000000,4.000000,4.000000,4.000000,100.000000
1614562898.529698,70.000000,0.000000,-4.232742,4.281310,-11.740257,5.198697,-7.496131,4.661221,-0.140559,-0.895671,2.786188,-1.027951,-16.958136,-9.802869,-10.692369,-5.015398,-21.312147,-20.197786,-4.822271,-15.992330,-35.662914,-28.610023,-8.516818,-9.910327,-19.384399,-10.605106,-21.176794,-1.956079,-12.282683,-2.902724,0.408840,-0.787340,-24.879433,1.491829,0.000000,195.000000,4.000000,,,,0.000000,4.000000,4.000000,4.000000,4.000000,4.000000,4.000000,4.000000,4.000000,4.000000,4.000000,4.000000,4.000000,4.000000,4.000000,4.000000,4.000000,4.000000,4.000000,4.000000,4.000000,4.000000,4.000000,4.000000,4.000000,4.000000,4.000000,4.000000,4.000000,4.000000,4.000000,4.000000,4.000000,100.000000
1614562898.537548,71.000000,0.000000,-4.228509,4.277028,11.348406,5.706319,-4.924532,4.143739,4.987787,4.746250,10.475710,3.075641,-15.402716,-7.228963,-8.117575,-2.446280,-20.265194,-17.613485,-4.304629,-13.412234,-33.063148,-28.068592,-9.021122,-9.900416,-19.365015,-10.081681,-19.104336,12.917672,-2.526811,-2.899821,0.408431,0.239089,-8.444298,26.105722,0.000000,217.000000,4.000000,,,,0.000000,4.000000,4.000000,4.000000,4.000000,4.000000,4.000000,4.000000,4.000000,4.000000,4.000000,4.000000,4.000000,4.000000,4.000000,4.000000,4.000000,4.000000,4.000000,4.000000,4.000000,4.000000,4.000000,4.000000,4.000000,4.000000,4.000000,4.000000,4.000000,4.000000,4.000000,4.000000,4.000000,100.000000
1614562898.545298,72.000000,0.000000,-4.224281,3.759931,-1.996276,-11.735285,-5.432428,4.139596,4.469979,3.203043,-2.868099,-1.542819,-12.823210,-14.401221,-7.083816,-6.033577,-20.244928,-23.749718,-4.813145,-19.039848,-31.491623,-28.040524,-8.499280,-10.403337,-20.884111,-9.558779,-20.623692,5.725267,-8.678130,-3.409742,-0.104798,-0.786791,-22.794827,9.156539,0.000000,188.000000,4.000000,,,,0.000000,4.000000,4.000000,4.000000,4.000000,4.000000,4.000000,4.000000,4.000000,4.000000,4.000000,4.000000,4.000000,4.000000,4.000000,4.000000,4.000000,4.000000,4.000000,4.000000,4.000000,4.000000,4.000000,4.000000,4.000000,4.000000,4.000000,4.000000,4.000000,4.000000,4.000000,4.000000,4.000000,100.000000
1614562898.553148,73.000000,0.000000,-4.220057,4.268991,-5.071203,-4.544063,-5.939816,4.135456,3.952688,3.199839,-1.326770,-3.079738,-15.374490,-15.925282,-7.589553,-7.053185,-21.250324,-37.572124,-4.808331,-35.431065,-34.537052,-29.038124,-5.926678,-9.880113,-21.888868,-13.138964,-19.064608,-1.972766,-14.823298,-2.893511,-0.104693,-0.786005,-26.361776,7.608921,0.000000,209.000000,4.000000,,,,0.000000,4.000000,4.000000,4.000000,4.000000,4.000000,4.000000,4.000000,4.000000,4.000000,4.000000,4.000000,4.000000,4.000000,4.000000,4.000000,4.000000,4.000000,4.000000,4.000000,4.000000,4.000000,4.000000,4.000000,4.000000,4.000000,4.000000,4.000000,4.000000,4.000000,4.000000,4.000000,4.000000,100.000000
1614562898.560897,74.000000,0.000000,-4.215837,4.777543,9.805663,1.614328,-5.421056,4.131320,4.461556,3.196640,8.418147,-0.512556,-15.359115,-13.345254,-7.581964,-6.533311,-18.664972,-33.944805,-4.803523,-31.293070,-31.425594,-25.419344,-4.382290,-9.870233,-20.328518,-17.741209,-8.276312,1.106130,-11.731552,-2.890618,0.921053,0.753243,-11.463619,30.678234,0.000000,186.000000,4.000000,,,,0.000000,4.000000,4.000000,4.000000,4.000000,4.000000,4.000000,4.000000,4.000000,4.000000,4.000000,4.000000,4.000000,4.000000,4.000000,4.000000,4.000000,4.000000,4.000000,4.000000,4.000000,4.000000,4.000000,4.000000,4.000000,4.000000,4.000000,4.000000,4.000000,4.000000,4.000000,4.000000,4.000000,100.000000
1614562898.568547,75.000000,0.000000,-4.211621,4.259944,-4.050296,-8.130877,-4.389994,4.640009,4.457095,4.219084,4.307165,0.000777,-5.600166,-12.306268,-7.061561,-6.526778,-8.389896,-14.423682,-4.798719,-9.723314,-19.086475,-16.163155,-4.890728,-9.860362,-18.769728,-17.723469,-3.139830,-0.946258,-9.668538,-3.400548,0.407311,-0.273151,-18.631643,17.827044,0.000000,190.000000,4.000000,,,,0.000000,4.000000,4.000000,4.000000,4.000000,4.000000,4.000000,4.000000,4.000000,4.000000,4.000000,4.000000,4.000000,4.000000,4.000000,4.000000,4.000000,4.000000,4.000000,4.000000,4.000000,4.000000,4.000000,4.000000,4.000000,4.000000,4.000000,4.000000,4.000000,4.000000,4.000000,4.000000,4.000000,100.000000
1614562898.576297,76.000000,0.000000,-4.207409,4.768505,-10.200092,-1.968899,-2.847142,3.609729,3.939817,8.830250,4.815678,2.052058,-0.979181,-10.755500,-7.567320,-7.545892,-1.202020,-6.716951,-5.306741,-1.508463,-10.349441,-6.916222,-4.885838,-10.363322,-15.674036,-15.654463,-3.649511,2.131611,-1.966562,-2.371506,-1.131558,0.239942,-17.587370,4.988704,0.000000,201.000000,4.000000,,,,0.000000,4.000000,4.000000,4.000000,4.000000,4.000000,4.000000,4.000000,4.000000,4.000000,4.000000,4.000000,4.000000,4.000000,4.000000,4.000000,4.000000,4.000000,4.000000,4.000000,4.000000,4.000000,4.000000,4.000000,4.000000,4.000000,4.000000,4.000000,4.000000,4.000000,4.000000,4.000000,4.000000,100.000000
1614562898.583947,77.000000,0.000000,-4.203202,9.379121,18.528057,8.802300,-1.305834,3.606119,3.935877,8.821419,14.554452,5.639750,-5.080766,-10.231924,-8.072573,-7.538346,-1.713638,-7.735876,-5.814255,-3.045416,-9.313450,0.270181,-4.880952,-10.352959,-9.504516,-13.587526,5.584908,20.591019,10.855917,0.194968,3.997779,13.060215,12.686627,35.240128,0.000000,200.000000,4.000000,,,,0.000000,4.000000,4.000000,4.000000,4.000000,4.000000,4.000000,4.000000,4.000000,4.000000,4.000000,4.000000,4.000000,4.000000,4.000000,4.000000,4.000000,4.000000,4.000000,4.000000,4.000000,4.000000,4.000000,4.000000,4.000000,4.000000,4.000000,4.000000,4.000000,4.000000,4.000000,4.000000,4.000000,100.000000
1614562898.591697,78.000000,0.000000,-4.198998,11.421024,26.201836,5.203754,-0.791707,5.140974,3.931941,4.197213,17.104000,7.172572,-4.050045,-10.734512,-7.551680,-4.453885,1.877819,-3.625575,-4.269979,0.547373,-6.227214,3.346834,-2.824789,-9.316965,-6.930908,-11.009836,12.758810,27.237093,9.819421,1.220414,8.096345,24.842028,19.340607,45.974117,0.000000,180.000000,4.000000,,,,0.000000,4.000000,4.000000,4.000000,4.000000,4.000000,4.000000,4.000000,4.000000,4.000000,4.000000,4.000000,4.000000,4.000000,4.000000,4.000000,4.000000,4.000000,4.000000,4.000000,4.000000,4.000000,4.000000,4.000000,4.000000,4.000000,4.000000,4.000000,4.000000,4.000000,4.000000,4.000000,4.000000,100.000000
1614562898.599347,79.000000,0.000000,-4.194799,7.307039,4.124352,1.095987,-3.867839,2.571731,3.415189,3.167375,12.984332,7.678220,0.569390,-10.210958,-8.056949,-3.936610,0.850300,-4.134770,-4.778530,0.546825,-4.169704,1.292205,-1.283502,-10.333289,-7.436798,-8.947544,5.566564,11.312421,0.066011,0.193553,1.421582,16.099236,-4.268477,16.697372,0.000000,201.000000,4.000000,,,,0.000000,4.000000,4.000000,4.000000,4.000000,4.000000,4.000000,4.000000,4.000000,4.000000,4.000000,4.000000,4.000000,4.000000,4.000000,4.000000,4.000000,4.000000,4.000000,4.000000,4.000000,4.000000,4.000000,4.000000,4.000000,4.000000,4.000000,4.000000,4.000000,4.000000,4.000000,4.000000,4.000000,100.000000
1614562898.607096,80.000000,0.000000,-4.190605,3.709988,-4.597721,-4.033314,-7.966535,-3.584687,4.437415,-1.451177,4.253399,4.593618,-2.508102,-10.200747,-8.048892,-7.522417,-14.535166,-12.335764,-6.312213,-5.607568,-7.755278,-0.760369,-1.795039,-9.297315,-7.429361,-9.451417,-4.695413,-3.057866,-3.010978,0.706180,-3.195224,1.211342,-14.007798,1.808881,0.000000,185.000000,4.000000,,,,0.000000,4.000000,4.000000,4.000000,4.000000,4.000000,4.000000,4.000000,4.000000,4.000000,4.000000,4.000000,4.000000,4.000000,4.000000,4.000000,4.000000,4.000000,4.000000,4.000000,4.000000,4.000000,4.000000,4.000000,4.000000,4.000000,4.000000,4.000000,4.000000,4.000000,4.000000,4.000000,4.000000,100.000000
1614562898.614746,81.000000,0.000000,-4.186414,4.219099,-0.490559,-8.131845,-10.009851,-1.529820,6.484259,-8.116392,-1.391880,0.486461,-5.069697,-11.216187,-3.425458,-4.437972,-24.264219,-16.425993,2.924869,-7.653242,-8.773164,-1.272429,1.283679,0.968393,-7.421932,-9.954786,-4.177896,-3.567629,-1.982326,2.756755,3.474638,-1.353972,-9.891227,6.935277,0.000000,209.000000,4.000000,,,,0.000000,4.000000,4.000000,4.000000,4.000000,4.000000,4.000000,4.000000,4.000000,4.000000,4.000000,4.000000,4.000000,4.000000,4.000000,4.000000,4.000000,4.000000,4.000000,4.000000,4.000000,4.000000,4.000000,4.000000,4.000000,4.000000,4.000000,4.000000,4.000000,4.000000,4.000000,4.000000,4.000000,100.000000
1614562898.622496,82.000000,0.000000,-2.643766,4.727700,-0.490068,-6.072431,-8.974199,7.189658,8.016236,-5.544174,3.737717,0.998795,-1.987704,-10.179330,3.244634,2.745953,-19.624571,-15.383925,16.255278,-7.132768,-11.328493,-7.937823,2.820857,9.172552,-7.414510,-8.919190,-3.660898,-0.487138,-3.518805,4.292460,9.112189,1.211485,-11.419797,6.415521,0.000000,187.000000,4.000000,,,,0.000000,4.000000,4.000000,4.000000,4.000000,4.000000,4.000000,4.000000,4.000000,4.000000,4.000000,4.000000,4.000000,4.000000,4.000000,4.000000,4.000000,4.000000,4.000000,4.000000,4.000000,4.000000,4.000000,4.000000,4.000000,4.000000,4.000000,4.000000,4.000000,4.000000,4.000000,4.000000,4.000000,100.000000
1614562898.630146,83.000000,0.000000,-0.589840,3.697332,-0.489578,-13.758667,-9.478046,7.695289,7.495400,0.102396,3.733979,3.561898,-3.011357,-8.117868,4.267030,1.717566,-15.502382,-15.368541,16.751842,-10.202559,-29.265882,-17.160654,-6.412734,3.522354,-7.919916,-11.987194,-10.323904,-0.486651,-4.028107,4.288168,7.564615,-1.353830,-13.972480,3.332183,0.000000,194.000000,4.000000,,,,0.000000,4.000000,4.000000,4.000000,4.000000,4.000000,4.000000,4.000000,4.000000,4.000000,4.000000,4.000000,4.000000,4.000000,4.000000,4.000000,4.000000,4.000000,4.000000,4.000000,4.000000,4.000000,4.000000,4.000000,4.000000,4.000000,4.000000,4.000000,4.000000,4.000000,4.000000,4.000000,4.000000,100.000000
1614562898.637896,84.000000,0.000000,-0.589251,3.693634,1.049373,-18.360292,-9.468568,4.097850,7.487905,-0.923347,-4.474883,3.045516,-9.162192,-6.571289,3.237122,-3.925177,-18.050983,-16.378813,8.017141,-20.448767,-50.775078,-19.707596,-13.585808,-3.147835,-12.014560,-21.718798,-16.980247,-0.486164,-2.485617,4.283880,7.044230,-0.326835,-11.394404,4.867312,0.000000,203.000000,4.000000,,,,0.000000,4.000000,4.000000,4.000000,4.000000,4.000000,4.000000,4.000000,4.000000,4.000000,4.000000,4.000000,4.000000,4.000000,4.000000,4.000000,4.000000,4.000000,4.000000,4.000000,4.000000,4.000000,4.000000,4.000000,4.000000,4.000000,4.000000,4.000000,4.000000,4.000000,4.000000,4.000000,4.000000,100.000000
1614562898.645546,85.000000,0.000000,-0.588661,4.202761,4.125247,-3.982958,-7.407817,5.632214,7.480416,0.103217,0.144977,2.529650,-10.178671,-7.590359,3.746706,-3.921252,-18.545752,-16.362434,5.445022,-28.633446,-53.801228,-20.713530,-10.495299,-2.631866,-15.079469,-25.799643,-15.424805,0.539963,-3.508772,4.279596,8.062827,5.314518,-11.383010,5.375265,0.000000,204.000000,4.000000,,,,0.000000,4.000000,4.000000,4.000000,4.000000,4.000000,4.000000,4.000000,4.000000,4.000000,4.000000,4.000000,4.000000,4.000000,4.000000,4.000000,4.000000,4.000000,4.000000,4.000000,4.000000,4.000000,4.000000,4.000000,4.000000,4.000000,4.000000,4.000000,4.000000,4.000000,4.000000,4.000000,4.000000,100.000000
1614562898.653296,86.000000,0.000000,-0.588073,3.685738,7.710865,3.713333,-5.349127,8.190684,7.472936,5.231319,11.939703,2.527120,-7.604390,-8.095589,3.742959,-3.404510,-16.475924,-15.833252,6.465218,-23.476606,-40.926914,-17.103073,-9.971983,-2.116414,-16.602850,-20.645638,-11.819636,-0.486218,-2.992443,4.275316,7.541944,7.873306,-12.910089,3.831428,0.000000,188.000000,4.000000,,,,0.000000,4.000000,4.000000,4.000000,4.000000,4.000000,4.000000,4.000000,4.000000,4.000000,4.000000,4.000000,4.000000,4.000000,4.000000,4.000000,4.000000,4.000000,4.000000,4.000000,4.000000,4.000000,4.000000,4.000000,4.000000,4.000000,4.000000,4.000000,4.000000,4.000000,4.000000,4.000000,4.000000,100.000000
1614562898.660945,87.000000,0.000000,-0.587485,4.194873,9.754436,-3.469868,-4.830958,7.669673,7.465463,6.251729,13.466226,2.011773,-13.750631,-7.061852,3.226395,-4.426746,-17.485090,-16.330238,5.945932,-19.350567,-30.116755,0.349928,-7.397909,-3.139939,-16.586248,-19.086531,-4.115510,1.052730,6.754139,7.860785,7.534402,7.352612,-4.179230,9.981443,0.000000,206.000000,4.000000,,,,0.000000,4.000000,4.000000,4.000000,4.000000,4.000000,4.000000,4.000000,4.000000,4.000000,4.000000,4.000000,4.000000,4.000000,4.000000,4.000000,4.000000,4.000000,4.000000,4.000000,4.000000,4.000000,4.000000,4.000000,4.000000,4.000000,4.000000,4.000000,4.000000,4.000000,4.000000,4.000000,4.000000,100.000000
1614562898.668695,88.000000,0.000000,-0.586897,6.754780,11.283143,-1.927936,-5.338947,7.149183,6.945177,3.168554,12.427118,4.573864,-17.839445,-7.567611,3.223169,-4.422320,-18.493246,-16.313910,5.427166,-21.382498,-20.855869,21.888039,5.430002,-3.136799,-7.851713,-16.503342,9.734760,5.667062,15.978154,11.442667,7.526867,9.396542,8.645462,17.663769,0.000000,197.000000,4.000000,,,,0.000000,4.000000,4.000000,4.000000,4.000000,4.000000,4.000000,4.000000,4.000000,4.000000,4.000000,4.000000,4.000000,4.000000,4.000000,4.000000,4.000000,4.000000,4.000000,4.000000,4.000000,4.000000,4.000000,4.000000,4.000000,4.000000,4.000000,4.000000,4.000000,4.000000,4.000000,4.000000,4.000000,100.000000
1614562898.676345,89.000000,0.000000,-0.586310,7.773666,10.759040,1.663735,-5.333609,7.654854,7.451053,2.652565,10.876229,5.594931,-5.513913,-8.585684,3.219946,-3.392256,-6.167060,-9.118108,5.421739,-7.002141,-0.322192,29.558458,14.142521,-2.620841,4.463831,-2.127863,19.468615,7.199856,15.962176,11.944045,7.519341,11.438427,7.098355,17.646105,0.000000,192.000000,4.000000,,,,0.000000,4.000000,4.000000,4.000000,4.000000,4.000000,4.000000,4.000000,4.000000,4.000000,4.000000,4.000000,4.000000,4.000000,4.000000,4.000000,4.000000,4.000000,4.000000,4.000000,4.000000,4.000000,4.000000,4.000000,4.000000,4.000000,4.000000,4.000000,4.000000,4.000000,4.000000,4.000000,4.000000,100.000000
1614562898.684195,90.000000,0.000000,-1.098544,7.765893,13.312384,2.687712,-5.328275,7.647199,7.443602,3.675553,6.249969,6.102156,8.337754,-0.884791,2.703905,-0.824762,15.377569,5.249985,5.929137,18.133066,23.780693,29.016079,14.641199,-2.618221,7.023470,8.643496,22.526070,8.218297,16.459034,11.419280,7.511821,11.426989,4.527154,27.884871,0.000000,198.000000,4.000000,,,,0.000000,4.000000,4.000000,4.000000,4.000000,4.000000,4.000000,4.000000,4.000000,4.000000,4.000000,4.000000,4.000000,4.000000,4.000000,4.000000,4.000000,4.000000,4.000000,4.000000,4.000000,4.000000,4.000000,4.000000,4.000000,4.000000,4.000000,4.000000,4.000000,4.000000,4.000000,4.000000,4.000000,100.000000
1614562898.691945,91.000000,0.000000,-0.584625,8.270947,19.452917,8.838871,-5.322947,7.639552,6.410517,2.646237,8.807821,13.788362,9.867878,15.526350,3.726842,6.355550,28.182705,17.039606,8.487310,28.371344,29.910759,28.987064,19.241941,-0.564320,8.554908,9.660493,24.554825,11.799823,15.929755,11.920682,7.504309,11.415562,5.548268,39.139034,0.000000,190.000000,4.000000,,,,0.000000,4.000000,4.000000,4.000000,4.000000,4.000000,4.000000,4.000000,4.000000,4.000000,4.000000,4.000000,4.000000,4.000000,4.000000,4.000000,4.000000,4.000000,4.000000,4.000000,4.000000,4.000000,4.000000,4.000000,4.000000,4.000000,4.000000,4.000000,4.000000,4.000000,4.000000,4.000000,4.000000,100.000000
1614562898.699795,92.000000,0.000000,2.492882,7.237036,12.766797,8.317211,-5.830444,8.144732,8.455388,3.669232,9.311833,24.543804,14.473395,25.254414,6.800039,17.631247,29.692984,20.099489,10.530106,31.419895,28.342386,29.470898,23.838085,1.487526,16.751482,17.343140,13.248219,10.249561,6.170235,11.395941,7.496805,11.404146,-7.790613,26.279385,0.000000,185.000000,4.000000,,,,0.000000,4.000000,4.000000,4.000000,4.000000,4.000000,4.000000,4.000000,4.000000,4.000000,4.000000,4.000000,4.000000,4.000000,4.000000,4.000000,4.000000,4.000000,4.000000,4.000000,4.000000,4.000000,4.000000,4.000000,4.000000,4.000000,4.000000,4.000000,4.000000,4.000000,4.000000,4.000000,4.000000,100.000000
1614562898.707545,93.000000,0.000000,3.516031,4.152875,11.728390,13.437099,-4.798973,7.623768,13.062318,6.229665,7.251240,25.544901,21.638409,21.639416,7.306059,21.203358,26.586367,18.540930,10.006755,33.952579,30.365326,29.441425,21.250145,1.486039,18.786013,23.992464,-3.175285,12.290594,0.523039,11.384544,7.489308,10.879921,-12.398208,22.663361,0.000000,194.000000,4.000000,,,,0.000000,4.000000,4.000000,4.000000,4.000000,4.000000,4.000000,4.000000,4.000000,4.000000,4.000000,4.000000,4.000000,4.000000,4.000000,4.000000,4.000000,4.000000,4.000000,4.000000,4.000000,4.000000,4.000000,4.000000,4.000000,4.000000,4.000000,4.000000,4.000000,4.000000,4.000000,4.000000,4.000000,100.000000
1614562898.715395,94.000000,0.000000,2.999694,6.200005,33.767944,29.833920,-2.742892,7.616144,15.100537,7.249076,15.961937,20.391151,19.052668,15.463930,6.785933,13.489847,21.944395,16.471106,8.971107,25.713497,23.155474,25.309422,20.716074,0.458912,12.613379,15.763343,7.084301,20.483431,7.189183,11.373160,7.481819,11.894683,8.127011,48.281723,0.000000,177.000000,4.000000,,,,0.000000,4.000000,4.000000,4.000000,4.000000,4.000000,4.000000,4.000000,4.000000,4.000000,4.000000,4.000000,4.000000,4.000000,4.000000,4.000000,4.000000,4.000000,4.000000,4.000000,4.000000,4.000000,4.000000,4.000000,4.000000,4.000000,4.000000,4.000000,4.000000,4.000000,4.000000,4.000000,4.000000,100.000000
1614562898.723145,95.000000,0.000000,4.022336,8.245087,33.221355,26.214342,-1.201687,8.634169,15.598257,6.729007,16.458796,21.909222,15.956692,11.858723,8.830429,9.886614,16.794247,8.249507,10.500598,18.508297,5.696421,7.848214,21.720999,2.509735,9.523843,7.542451,24.000294,16.360384,6.669173,9.823325,7.987157,10.344326,4.016320,42.079597,0.000000,189.000000,4.000000,,,,0.000000,4.000000,4.000000,4.000000,4.000000,4.000000,4.000000,4.000000,4.000000,4.000000,4.000000,4.000000,4.000000,4.000000,4.000000,4.000000,4.000000,4.000000,4.000000,4.000000,4.000000,4.000000,4.000000,4.000000,4.000000,4.000000,4.000000,4.000000,4.000000,4.000000,4.000000,4.000000,4.000000,100.000000
1614562898.730995,96.000000,0.000000,1.454210,4.647098,12.162493,11.829152,-1.200485,6.574253,15.069839,6.722278,4.647465,22.400133,11.325351,2.103274,4.206213,6.286984,1.392837,-11.758743,11.002917,8.233377,-11.745173,-15.749378,9.904406,-0.056878,3.873294,0.868242,6.027575,1.985049,-7.696470,7.762220,6.440709,4.180136,-22.141542,15.883670,8064.000000,0.000000,4.000000,,,,0.000000,4.000000,4.000000,4.000000,4.000000,4.000000,4.000000,4.000000,4.000000,4.000000,4.000000,4.000000,4.000000,4.000000,4.000000,4.000000,4.000000,4.000000,4.000000,4.000000,4.000000,4.000000,4.000000,4.000000,4.000000,4.000000,4.000000,4.000000,4.000000,4.000000,4.000000,4.000000,4.000000,100.000000
1614562898.738745,97.000000,0.000000,-6.239552,0.027066,30.611868,14.894246,-2.224926,-0.098988,8.900923,6.715555,10.283844,8.531579,-6.121872,-10.719342,-9.131326,-13.206483,-25.275223,-33.798267,2.273966,-17.928701,-29.682146,-29.066961,-10.618320,-7.236308,-9.463913,-16.055702,-19.106659,0.957423,-15.381082,7.754457,3.870166,-0.439429,-19.555298,33.303684,8064.000000,0.000000,4.000000,,,,0.000000,4.000000,4.000000,4.000000,4.000000,4.000000,4.000000,4.000000,4.000000,4.000000,4.000000,4.000000,4.000000,4.000000,4.000000,4.000000,4.000000,4.000000,4.000000,4.000000,4.000000,4.000000,4.000000,4.000000,4.000000,4.000000,4.000000,4.000000,4.000000,4.000000,4.000000,4.000000,4.000000,100.000000
1614562898.746595,98.000000,0.000000,-8.284594,-0.485781,52.119717,12.828071,-4.786804,-4.201454,3.763816,6.196019,20.017149,-6.861568,-18.423443,-14.298367,-16.814503,-30.629173,-37.557640,-42.995235,-5.420616,-29.705645,-44.524258,-34.166100,-19.325649,-9.793174,-21.249321,-29.885801,-17.036270,7.110312,-13.827239,7.746703,3.353475,-0.438990,-14.407537,48.142174,8064.000000,0.000000,4.000000,,,,0.000000,4.000000,4.000000,4.000000,4.000000,4.000000,4.000000,4.000000,4.000000,4.000000,4.000000,4.000000,4.000000,4.000000,4.000000,4.000000,4.000000,4.000000,4.000000,4.000000,4.000000,4.000000,4.000000,4.000000,4.000000,4.000000,4.000000,4.000000,4.000000,4.000000,4.000000,4.000000,4.000000,100.000000
1614562898.754345,99.000000,0.000000,-3.148104,0.540346,33.606060,2.558832,-5.807658,-3.684432,5.811335,6.189823,11.792004,-0.188040,-17.379377,-10.181503,-15.259226,-28.547262,-28.802134,-40.900959,-4.902375,-22.496452,-46.531017,-33.619114,-13.665298,-6.706458,-24.304995,-30.881556,-7.275643,7.103201,-14.326232,7.226136,3.862942,0.074270,-26.188002,27.581213,8064.000000,0.000000,4.000000,,,,0.000000,4.000000,4.000000,4.000000,4.000000,4.000000,4.000000,4.000000,4.000000,4.000000,4.000000,4.000000,4.000000,4.000000,4.000000,4.000000,4.000000,4.000000,4.000000,4.000000,4.000000,4.000000,4.000000,4.000000,4.000000,4.000000,4.000000,4.000000,4.000000,4.000000,4.000000,4.000000,4.000000,100.000000
1614562898.762195,100.000000,0.000000,-1.606495,1.052626,29.469891,10.761401,-5.289030,-3.167927,5.805523,6.696454,13.318674,9.042917,-26.592768,-16.837990,-15.243967,-28.005894,-28.773331,-40.347237,-9.000036,-32.730366,-46.997307,-28.970110,-10.061890,-6.186931,-19.665304,-29.825033,-7.781188,9.660201,-10.209342,7.731730,3.859079,-0.438625,-16.418224,34.733120,8064.000000,0.000000,4.000000,,,,0.000000,4.000000,4.000000,4.000000,4.000000,4.000000,4.000000,4.000000,4.000000,4.000000,4.000000,4.000000,4.000000,4.000000,4.000000,4.000000,4.000000,4.000000,4.000000,4.000000,4.000000,4.000000,4.000000,4.000000,4.000000,4.000000,4.000000,4.000000,4.000000,4.000000,4.000000,4.000000,4.000000,100.000000
1614562898.769945,101.000000,0.000000,-4.168991,-0.999709,39.696831,11.776280,-5.796561,-3.677579,2.209974,5.664116,20.484842,-1.735356,-40.412331,-24.513458,-16.767185,-33.618916,-35.411224,-39.794071,-18.734627,-38.338661,-45.924667,-26.377037,-10.564649,-7.206385,-15.543076,-30.308029,-10.337509,9.650540,-4.045286,6.185537,3.855220,-0.951007,-6.658216,51.108643,8064.000000,0.000000,4.000000,,,,0.000000,4.000000,4.000000,4.000000,4.000000,4.000000,4.000000,4.000000,4.000000,4.000000,4.000000,4.000000,4.000000,4.000000,4.000000,4.000000,4.000000,4.000000,4.000000,4.000000,4.000000,4.000000,4.000000,4.000000,4.000000,4.000000,4.000000,4.000000,4.000000,4.000000,4.000000,4.000000,4.000000,100.000000
1614562898.777795,102.000000,0.000000,-4.677642,0.539752,28.375082,5.610659,-5.277944,-3.673902,4.259047,6.171273,18.413074,-4.297723,-33.192429,-11.155612,-14.699136,-25.892988,-23.068121,-29.497866,-21.279993,-16.761862,-27.417204,-21.222454,-7.477160,-6.173538,-18.604456,-27.200798,-9.814351,6.051147,-4.554061,4.128069,3.851365,-0.950056,-19.472071,34.647278,8064.000000,0.000000,4.000000,,,,0.000000,4.000000,4.000000,4.000000,4.000000,4.000000,4.000000,4.000000,4.000000,4.000000,4.000000,4.000000,4.000000,4.000000,4.000000,4.000000,4.000000,4.000000,4.000000,4.000000,4.000000,4.000000,4.000000,4.000000,4.000000,4.000000,4.000000,4.000000,4.000000,4.000000,4.000000,4.000000,4.000000,100.000000
1614562898.785544,103.000000,0.000000,-3.647324,9.769981,38.603119,25.605047,-2.708564,-2.644587,6.306069,13.344589,32.753635,16.732216,-9.056673,10.394006,-13.145975,-10.482479,4.647254,-6.904266,-17.668970,-1.360484,-2.774402,0.337229,1.761086,-6.680184,-18.585852,-13.840264,0.451873,17.327147,-3.011046,7.200865,3.847513,2.640638,-8.683368,38.202374,8192.000000,0.000000,4.000000,,,,0.000000,4.000000,4.000000,4.000000,4.000000,4.000000,4.000000,4.000000,4.000000,4.000000,4.000000,4.000000,4.000000,4.000000,4.000000,4.000000,4.000000,4.000000,4.000000,4.000000,4.000000,4.000000,4.000000,4.000000,4.000000,4.000000,4.000000,4.000000,4.000000,4.000000,4.000000,4.000000,4.000000,100.000000
1614562898.793394,104.000000,0.000000,-4.156497,14.375596,65.744003,37.887135,-1.167394,-0.077839,7.325404,18.972269,45.028576,29.535995,17.106230,19.614380,-11.081547,6.451080,33.873375,21.307766,-9.958994,15.563953,21.330936,28.542021,15.605478,-5.647863,-9.336496,12.327422,13.271934,28.591871,4.171453,11.296227,4.356486,7.253382,11.838136,60.728271,8064.000000,0.000000,4.000000,,,,0.000000,4.000000,4.000000,4.000000,4.000000,4.000000,4.000000,4.000000,4.000000,4.000000,4.000000,4.000000,4.000000,4.000000,4.000000,4.000000,4.000000,4.000000,4.000000,4.000000,4.000000,4.000000,4.000000,4.000000,4.000000,4.000000,4.000000,4.000000,4.000000,4.000000,4.000000,4.000000,4.000000,100.000000
1614562898.801144,105.000000,0.000000,-4.152340,9.233016,55.421848,25.028734,-1.679047,0.947879,15.010386,16.389194,27.547649,29.506460,37.089123,27.287073,-4.403799,24.393347,58.967709,48.978767,5.435581,48.368904,49.001915,41.846813,25.846283,0.511631,-0.609211,34.879196,14.284303,20.358150,5.705742,11.797752,3.326489,6.220488,3.108349,51.949596,8064.000000,0.000000,4.000000,,,,0.000000,4.000000,4.000000,4.000000,4.000000,4.000000,4.000000,4.000000,4.000000,4.000000,4.000000,4.000000,4.000000,4.000000,4.000000,4.000000,4.000000,4.000000,4.000000,4.000000,4.000000,4.000000,4.000000,4.000000,4.000000,4.000000,4.000000,4.000000,4.000000,4.000000,4.000000,4.000000,4.000000,100.000000
1614562898.808894,106.000000,0.000000,-4.148188,6.659680,51.776680,28.593451,-1.677368,0.434111,22.174864,19.449728,24.955999,36.143620,44.231522,36.490555,3.292913,31.035620,65.575409,58.160557,16.199375,63.705151,64.337524,43.343426,27.871719,7.177786,3.493963,39.459702,17.346941,19.312151,5.700037,10.760313,3.835983,9.291190,6.182164,54.974571,8192.000000,0.000000,4.000000,,,,0.000000,4.000000,4.000000,4.000000,4.000000,4.000000,4.000000,4.000000,4.000000,4.000000,4.000000,4.000000,4.000000,4.000000,4.000000,4.000000,4.000000,4.000000,4.000000,4.000000,4.000000,4.000000,4.000000,4.000000,4.000000,4.000000,4.000000,4.000000,4.000000,4.000000,4.000000,4.000000,4.000000,100.000000
1614562898.816644,107.000000,0.000000,-4.144040,8.191482,76.340286,40.359730,-1.675690,0.433677,22.665508,28.148228,41.341301,38.158760,44.700111,37.479706,4.315261,31.517405,55.766243,48.358807,18.234459,46.718369,60.170624,45.351364,29.382309,8.709069,8.105853,39.933064,28.611647,32.113354,10.309721,11.775194,6.396249,20.051130,24.637520,77.483696,8192.000000,0.000000,4.000000,,,,0.000000,4.000000,4.000000,4.000000,4.000000,4.000000,4.000000,4.000000,4.000000,4.000000,4.000000,4.000000,4.000000,4.000000,4.000000,4.000000,4.000000,4.000000,4.000000,4.000000,4.000000,4.000000,4.000000,4.000000,4.000000,4.000000,4.000000,4.000000,4.000000,4.000000,4.000000,4.000000,4.000000,100.000000
1614562898.824293,108.000000,0.000000,-4.139895,7.670470,64.469078,25.960394,-1.674015,0.433243,22.130024,24.017515,30.017906,29.915472,44.655411,34.878124,3.285305,34.562809,50.069450,40.618141,21.293148,42.569084,47.802761,42.229092,27.814465,9.213181,13.738773,39.380310,24.993292,26.953033,9.786591,11.763419,6.902674,21.569540,10.766728,59.970318,8192.000000,0.000000,4.000000,,,,0.000000,4.000000,4.000000,4.000000,4.000000,4.000000,4.000000,4.000000,4.000000,4.000000,4.000000,4.000000,4.000000,4.000000,4.000000,4.000000,4.000000,4.000000,4.000000,4.000000,4.000000,4.000000,4.000000,4.000000,4.000000,4.000000,4.000000,4.000000,4.000000,4.000000,4.000000,4.000000,4.000000,100.000000
1614562898.832043,109.000000,0.000000,-4.135756,7.149979,39.789223,13.113921,-1.672341,0.432810,21.595072,14.249908,11.526350,23.218889,32.303062,26.125298,4.307661,26.323120,37.198868,31.859573,20.246212,35.347027,29.293421,26.289425,13.940497,7.665506,10.648111,23.956314,8.558042,14.105568,3.622958,7.649091,4.331668,11.291560,-10.269679,36.833424,8192.000000,0.000000,4.000000,,,,0.000000,4.000000,4.000000,4.000000,4.000000,4.000000,4.000000,4.000000,4.000000,4.000000,4.000000,4.000000,4.000000,4.000000,4.000000,4.000000,4.000000,4.000000,4.000000,4.000000,4.000000,4.000000,4.000000,4.000000,4.000000,4.000000,4.000000,4.000000,4.000000,4.000000,4.000000,4.000000,4.000000,100.000000
1614562898.839693,110.000000,0.000000,-4.131620,7.655650,50.518665,14.639269,-1.670668,-0.080443,16.958094,13.210017,15.617388,13.452081,11.245119,7.637634,3.790532,11.425002,6.905259,5.161047,15.097761,8.645015,10.802589,12.416982,1.618864,3.555277,-4.747152,6.496461,2.395637,13.065822,-0.483229,3.538878,3.301696,5.639243,-12.823512,47.565819,8064.000000,0.000000,4.000000,,,,0.000000,4.000000,4.000000,4.000000,4.000000,4.000000,4.000000,4.000000,4.000000,4.000000,4.000000,4.000000,4.000000,4.000000,4.000000,4.000000,4.000000,4.000000,4.000000,4.000000,4.000000,4.000000,4.000000,4.000000,4.000000,4.000000,4.000000,4.000000,4.000000,4.000000,4.000000,4.000000,4.000000,100.000000
1614562898.847443,111.000000,0.000000,-4.127488,7.647994,54.570709,10.009245,-1.668998,0.432458,13.351391,12.683987,17.653053,3.182219,3.028746,-1.600773,3.273921,7.823833,-12.076005,-19.459499,14.057023,-6.748246,1.048197,6.763539,0.591604,0.474798,-16.537277,2.900221,-2.734964,12.539935,-6.636592,3.535339,3.811214,7.684886,-19.477356,44.441330,8064.000000,0.000000,4.000000,,,,0.000000,4.000000,4.000000,4.000000,4.000000,4.000000,4.000000,4.000000,4.000000,4.000000,4.000000,4.000000,4.000000,4.000000,4.000000,4.000000,4.000000,4.000000,4.000000,4.000000,4.000000,4.000000,4.000000,4.000000,4.000000,4.000000,4.000000,4.000000,4.000000,4.000000,4.000000,4.000000,4.000000,100.000000
1614562898.855093,112.000000,0.000000,-4.123361,7.127525,42.721268,9.999235,-1.667328,1.970487,13.850861,10.107201,19.686682,3.691857,6.102640,0.964930,4.296288,0.636522,-11.551109,-21.491322,10.966043,-9.818420,-11.773364,-3.499634,1.616654,0.474323,-16.007919,-1.718064,-10.424537,12.014574,-10.219699,3.531804,3.807403,7.164381,-22.021980,33.627659,8064.000000,0.000000,4.000000,,,,0.000000,4.000000,4.000000,4.000000,4.000000,4.000000,4.000000,4.000000,4.000000,4.000000,4.000000,4.000000,4.000000,4.000000,4.000000,4.000000,4.000000,4.000000,4.000000,4.000000,4.000000,4.000000,4.000000,4.000000,4.000000,4.000000,4.000000,4.000000,4.000000,4.000000,4.000000,4.000000,4.000000,100.000000
1614562898.862843,113.000000,0.000000,-4.119237,8.658859,55.499062,20.245647,-2.178482,4.019798,14.349830,14.712478,33.000328,4.713806,1.481153,-10.318086,1.215069,-18.338474,-18.206224,-24.546753,1.211487,-20.577833,-27.659027,-12.214084,0.076575,0.986670,-15.479091,-9.921474,-1.183343,21.233330,-5.594094,3.015452,5.854878,6.644396,-9.179445,53.594032,8064.000000,0.000000,4.000000,,,,0.000000,4.000000,4.000000,4.000000,4.000000,4.000000,4.000000,4.000000,4.000000,4.000000,4.000000,4.000000,4.000000,4.000000,4.000000,4.000000,4.000000,4.000000,4.000000,4.000000,4.000000,4.000000,4.000000,4.000000,4.000000,4.000000,4.000000,4.000000,4.000000,4.000000,4.000000,4.000000,4.000000,100.000000
1614562898.870493,114.000000,0.000000,-4.115119,11.214303,68.264076,18.174118,-1.663483,6.579881,13.822659,16.749048,37.069893,-0.419113,-9.802380,-26.205204,-3.401531,-25.499622,-34.598274,-41.445282,-4.430750,-29.275204,-31.733932,-10.663408,1.102140,0.472862,-17.514894,-12.988476,9.074251,27.365942,0.565346,7.115000,7.387485,9.201854,-8.144625,63.284027,8064.000000,0.000000,4.000000,,,,0.000000,4.000000,4.000000,4.000000,4.000000,4.000000,4.000000,4.000000,4.000000,4.000000,4.000000,4.000000,4.000000,4.000000,4.000000,4.000000,4.000000,4.000000,4.000000,4.000000,4.000000,4.000000,4.000000,4.000000,4.000000,4.000000,4.000000,4.000000,4.000000,4.000000,4.000000,4.000000,4.000000,100.000000
1614562898.878242,115.000000,0.000000,-4.111003,11.715909,55.375298,8.925176,-1.661819,8.111763,14.321657,8.014350,30.878977,-2.469976,-15.946424,-22.076435,-4.423770,-22.910019,-39.691883,-40.378197,-1.862217,-29.245928,-29.138096,-12.191206,0.075397,0.472390,-12.369174,-12.975488,1.372869,23.748833,1.077601,11.210449,7.380097,11.243934,-19.418531,41.169460,8064.000000,0.000000,4.000000,,,,0.000000,4.000000,4.000000,4.000000,4.000000,4.000000,4.000000,4.000000,4.000000,4.000000,4.000000,4.000000,4.000000,4.000000,4.000000,4.000000,4.000000,4.000000,4.000000,4.000000,4.000000,4.000000,4.000000,4.000000,4.000000,4.000000,4.000000,4.000000,4.000000,4.000000,4.000000,4.000000,4.000000,100.000000
1614562898.885892,116.000000,0.000000,-4.106892,11.191373,45.063511,6.864968,-3.198619,7.590830,14.307336,1.852489,28.283995,-0.929044,-12.853554,-12.823589,-3.906526,-22.887110,-27.344498,-19.312178,-1.860355,-18.447453,-18.339727,-9.102092,2.639424,0.471917,-8.254240,-5.270204,0.858676,21.160980,0.563703,10.173598,7.372717,10.207049,-18.886293,34.974445,8064.000000,0.000000,4.000000,,,,0.000000,4.000000,4.000000,4.000000,4.000000,4.000000,4.000000,4.000000,4.000000,4.000000,4.000000,4.000000,4.000000,4.000000,4.000000,4.000000,4.000000,4.000000,4.000000,4.000000,4.000000,4.000000,4.000000,4.000000,4.000000,4.000000,4.000000,4.000000,4.000000,4.000000,4.000000,4.000000,4.000000,100.000000
1614562898.893742,117.000000,0.000000,-4.102785,11.180182,47.069729,8.909386,-3.708241,7.583240,14.293029,4.927559,26.717249,6.764193,-3.097111,-10.759483,-4.415440,-14.146274,-4.753050,-0.318506,-3.396956,9.263303,9.883741,14.496754,15.970118,1.497086,-8.758807,12.170963,16.242432,22.678282,1.075960,13.240347,7.365345,11.222483,-9.123816,50.836906,8064.000000,0.000000,4.000000,,,,0.000000,4.000000,4.000000,4.000000,4.000000,4.000000,4.000000,4.000000,4.000000,4.000000,4.000000,4.000000,4.000000,4.000000,4.000000,4.000000,4.000000,4.000000,4.000000,4.000000,4.000000,4.000000,4.000000,4.000000,4.000000,4.000000,4.000000,4.000000,4.000000,4.000000,4.000000,4.000000,4.000000,100.000000
1614562898.901492,118.000000,0.000000,-4.098682,11.169002,52.663685,10.951758,-1.653251,8.088477,14.278735,9.538016,28.228994,20.090761,13.829063,-1.517955,-3.385383,1.252488,17.302984,20.194633,3.273108,34.895065,37.053345,34.995079,27.236198,3.034051,-0.544920,26.517767,23.405678,24.706884,5.690269,20.919415,7.870800,13.775363,-1.935206,58.478378,8064.000000,0.000000,4.000000,,,,0.000000,4.000000,4.000000,4.000000,4.000000,4.000000,4.000000,4.000000,4.000000,4.000000,4.000000,4.000000,4.000000,4.000000,4.000000,4.000000,4.000000,4.000000,4.000000,4.000000,4.000000,4.000000,4.000000,4.000000,4.000000,4.000000,4.000000,4.000000,4.000000,4.000000,4.000000,4.000000,4.000000,100.000000
1614562898.909342,119.000000,0.000000,-4.094584,11.157832,58.764870,13.504909,-1.138777,6.029106,14.264457,9.528479,32.303329,24.173235,30.225491,10.278435,-0.817895,9.969184,29.593374,44.277000,15.064707,44.090939,48.298344,35.472904,28.234604,5.595119,13.814600,34.696377,20.818169,25.195000,11.325603,22.949778,7.350108,14.274408,-0.394809,57.394257,8192.000000,0.000000,4.000000,,,,0.000000,4.000000,4.000000,4.000000,4.000000,4.000000,4.000000,4.000000,4.000000,4.000000,4.000000,4.000000,4.000000,4.000000,4.000000,4.000000,4.000000,4.000000,4.000000,4.000000,4.000000,4.000000,4.000000,4.000000,4.000000,4.000000,4.000000,4.000000,4.000000,4.000000,4.000000,4.000000,4.000000,100.000000
1614562898.917092,120.000000,0.000000,-4.090489,11.146674,61.270206,16.055506,-1.650459,3.971795,14.250193,9.518950,29.706923,20.559319,36.349110,12.832259,-0.304257,16.113060,33.666344,51.925034,21.716309,50.713516,55.942352,39.027172,30.257650,11.230550,18.928989,44.405270,21.310171,24.656984,12.339919,21.901186,6.829937,14.260134,0.118407,57.336864,8192.000000,0.000000,4.000000,,,,0.000000,4.000000,4.000000,4.000000,4.000000,4.000000,4.000000,4.000000,4.000000,4.000000,4.000000,4.000000,4.000000,4.000000,4.000000,4.000000,4.000000,4.000000,4.000000,4.000000,4.000000,4.000000,4.000000,4.000000,4.000000,4.000000,4.000000,4.000000,4.000000,4.000000,4.000000,4.000000,4.000000,100.000000
1614562898.924942,121.000000,0.000000,-4.086399,11.135528,59.157654,18.603554,-1.648808,3.455003,14.235942,14.637636,26.087473,23.615683,36.825584,15.896350,-0.303953,22.763615,37.222424,47.770542,20.668951,54.252544,55.373589,48.218918,31.765856,15.834703,18.910061,48.463428,18.211939,25.145147,9.250656,22.904926,7.848749,14.758695,1.143929,55.741066,8064.000000,0.000000,4.000000,,,,0.000000,4.000000,4.000000,4.000000,4.000000,4.000000,4.000000,4.000000,4.000000,4.000000,4.000000,4.000000,4.000000,4.000000,4.000000,4.000000,4.000000,4.000000,4.000000,4.000000,4.000000,4.000000,4.000000,4.000000,4.000000,4.000000,4.000000,4.000000,4.000000,4.000000,4.000000,4.000000,4.000000,100.000000
1614562898.932692,122.000000,0.000000,-4.082312,11.124393,50.380547,18.584949,-2.159980,3.964368,14.221706,15.648640,25.548565,22.566425,36.275936,19.470198,-0.303649,23.766491,37.185200,45.671490,20.135462,44.967525,39.933601,37.401466,26.093063,12.741946,17.865511,40.209839,12.039880,24.607182,7.190124,18.266636,7.328079,12.692654,-4.498240,52.608402,8192.000000,0.000000,4.000000,,,,0.000000,4.000000,4.000000,4.000000,4.000000,4.000000,4.000000,4.000000,4.000000,4.000000,4.000000,4.000000,4.000000,4.000000,4.000000,4.000000,4.000000,4.000000,4.000000,4.000000,4.000000,4.000000,4.000000,4.000000,4.000000,4.000000,4.000000,4.000000,4.000000,4.000000,4.000000,4.000000,4.000000,100.000000
1614562898.940542,123.000000,0.000000,-4.591051,11.113268,45.714783,20.104826,-1.132179,3.960404,14.207484,9.479145,21.933271,12.800269,32.137096,18.937906,-0.816166,22.717085,29.455708,33.830948,21.140966,33.127686,30.662897,19.928167,19.400305,8.113819,7.591234,31.964500,10.489378,23.044113,6.157292,11.068883,0.654085,7.551755,-12.186049,52.555794,8192.000000,0.000000,4.000000,,,,0.000000,4.000000,4.000000,4.000000,4.000000,4.000000,4.000000,4.000000,4.000000,4.000000,4.000000,4.000000,4.000000,4.000000,4.000000,4.000000,4.000000,4.000000,4.000000,4.000000,4.000000,4.000000,4.000000,4.000000,4.000000,4.000000,4.000000,4.000000,4.000000,4.000000,4.000000,4.000000,4.000000,100.000000
1614562898.948292,124.000000,0.000000,-3.560818,11.102155,52.335735,24.700106,-1.131047,3.956444,14.193276,6.392743,21.398518,8.684905,23.899832,19.431789,0.723112,21.668726,24.298046,18.412502,19.068544,24.889429,28.580952,15.805676,19.893724,8.105705,-3.185588,29.368433,9.966068,21.995428,5.125494,13.621917,-2.936313,6.518563,-12.686685,53.016056,8064.000000,0.000000,4.000000,,,,0.000000,4.000000,4.000000,4.000000,4.000000,4.000000,4.000000,4.000000,4.000000,4.000000,4.000000,4.000000,4.000000,4.000000,4.000000,4.000000,4.000000,4.000000,4.000000,4.000000,4.000000,4.000000,4.000000,4.000000,4.000000,4.000000,4.000000,4.000000,4.000000,4.000000,4.000000,4.000000,4.000000,100.000000
1614562898.956142,125.000000,0.000000,-1.505976,10.578232,48.693653,21.085663,-3.181198,3.952487,14.179084,8.950453,22.915581,9.189040,12.081059,16.335434,2.773671,13.954750,22.735287,9.163320,16.485373,5.890180,6.501090,10.148844,21.412292,8.610420,-2.156761,18.569834,9.956102,19.922150,3.581907,18.223679,3.220469,9.076147,-12.673998,46.296375,8064.000000,0.000000,4.000000,,,,0.000000,4.000000,4.000000,4.000000,4.000000,4.000000,4.000000,4.000000,4.000000,4.000000,4.000000,4.000000,4.000000,4.000000,4.000000,4.000000,4.000000,4.000000,4.000000,4.000000,4.000000,4.000000,4.000000,4.000000,4.000000,4.000000,4.000000,4.000000,4.000000,4.000000,4.000000,4.000000,4.000000,100.000000
1614562898.963892,126.000000,0.000000,-0.478829,11.080474,36.337269,17.474833,-0.101093,3.948535,14.164905,10.479963,23.918306,9.179852,-0.751534,4.524227,3.283718,3.684385,9.379218,-10.845843,15.443247,-21.808018,-25.813105,-2.168997,14.724213,7.576169,-1.641784,-2.474377,10.458967,21.953510,4.091146,18.205456,7.832633,10.605533,-10.610042,44.711617,8064.000000,0.000000,4.000000,,,,0.000000,4.000000,4.000000,4.000000,4.000000,4.000000,4.000000,4.000000,4.000000,4.000000,4.000000,4.000000,4.000000,4.000000,4.000000,4.000000,4.000000,4.000000,4.000000,4.000000,4.000000,4.000000,4.000000,4.000000,4.000000,4.000000,4.000000,4.000000,4.000000,4.000000,4.000000,4.000000,4.000000,100.000000
1614562898.971742,127.000000,0.000000,0.034471,11.582214,35.788109,17.457359,5.540033,3.944586,14.663560,11.495125,25.432850,11.734774,-6.904629,-4.198246,4.306075,-0.934684,-13.707085,-38.014484,16.453444,-35.632362,-38.094982,-11.397597,4.453079,7.568593,-6.768347,-13.241134,-0.320723,22.957197,5.112695,18.700071,7.311980,10.594927,-9.060970,45.692547,8064.000000,0.000000,4.000000,,,,0.000000,4.000000,4.000000,4.000000,4.000000,4.000000,4.000000,4.000000,4.000000,4.000000,4.000000,4.000000,4.000000,4.000000,4.000000,4.000000,4.000000,4.000000,4.000000,4.000000,4.000000,4.000000,4.000000,4.000000,4.000000,4.000000,4.000000,4.000000,4.000000,4.000000,4.000000,4.000000,4.000000,100.000000
1614562898.979492,0.000000,0.000000,2.085718,7.468068,16.777964,-0.508817,0.919109,3.940642,14.648896,7.381065,12.074083,3.005090,-7.410545,-4.706868,6.865872,-0.420929,-23.436968,-42.079033,17.462631,-34.058270,-37.031246,-25.232353,0.346061,8.586665,-8.812860,-11.176611,-20.320402,3.959881,-4.123187,16.117268,7.304668,1.353563,-30.077551,15.390444,0.000000,199.000000,4.000000,,,,0.000000,4.000000,4.000000,4.000000,4.000000,4.000000,4.000000,4.000000,4.000000,4.000000,4.000000,4.000000,4.000000,4.000000,4.000000,4.000000,4.000000,4.000000,4.000000,4.000000,4.000000,4.000000,4.000000,4.000000,4.000000,4.000000,4.000000,4.000000,4.000000,4.000000,4.000000,4.000000,4.000000,100.000000
1614562898.987342,1.000000,0.000000,3.622094,2.845215,-8.879840,-14.867282,-4.722836,2.911060,12.582966,-2.369905,-5.373888,-11.356889,-7.403134,-4.702161,6.346185,-0.933329,-20.336607,-27.677980,14.368246,-32.998569,-41.096779,-33.412251,0.345715,7.552438,-10.342509,-13.729536,-26.966749,-11.428694,-16.426756,8.921663,6.271723,-5.827278,-50.560291,-12.317254,0.000000,178.000000,4.000000,,,,0.000000,4.000000,4.000000,4.000000,4.000000,4.000000,4.000000,4.000000,4.000000,4.000000,4.000000,4.000000,4.000000,4.000000,4.000000,4.000000,4.000000,4.000000,4.000000,4.000000,4.000000,4.000000,4.000000,4.000000,4.000000,4.000000,4.000000,4.000000,4.000000,4.000000,4.000000,4.000000,4.000000,100.000000
1614562898.995092,2.000000,0.000000,3.105652,8.996216,21.898270,6.173226,2.461374,3.933790,14.621665,-2.880356,10.528922,-4.678865,-3.293167,-4.697459,7.365480,-1.958036,-18.264988,-14.316970,12.815416,-24.247623,-35.927479,-21.071146,1.883831,8.057706,-14.947552,-11.664525,-12.067986,10.634017,-6.153919,10.964024,8.316733,5.460600,-25.381527,20.515575,0.000000,193.000000,4.000000,,,,0.000000,4.000000,4.000000,4.000000,4.000000,4.000000,4.000000,4.000000,4.000000,4.000000,4.000000,4.000000,4.000000,4.000000,4.000000,4.000000,4.000000,4.000000,4.000000,4.000000,4.000000,4.000000,4.000000,4.000000,4.000000,4.000000,4.000000,4.000000,4.000000,4.000000,4.000000,4.000000,4.000000,100.000000
1614562899.002942,3.000000,0.000000,3.102546,15.653887,53.671246,16.423464,7.074297,4.442677,14.094222,-1.339014,28.467112,6.095044,1.838331,-5.205582,7.358115,-0.417617,-18.246723,-4.046243,17.930807,-0.120811,-10.250525,-6.178279,7.522973,10.613750,-12.368502,5.270216,-0.773867,27.546459,10.775312,18.132547,16.000725,17.250011,0.797700,49.213009,0.000000,198.000000,4.000000,,,,0.000000,4.000000,4.000000,4.000000,4.000000,4.000000,4.000000,4.000000,4.000000,4.000000,4.000000,4.000000,4.000000,4.000000,4.000000,4.000000,4.000000,4.000000,4.000000,4.000000,4.000000,4.000000,4.000000,4.000000,4.000000,4.000000,4.000000,4.000000,4.000000,4.000000,4.000000,4.000000,4.000000,100.000000
1614562899.010692,4.000000,0.000000,3.099443,10.510028,21.309881,-7.695525,-0.112264,0.335670,0.746795,-12.619726,9.977105,-3.141820,0.298031,-8.790120,-2.905654,-0.417199,-19.766939,-1.990914,18.425695,11.161361,9.246905,1.520207,9.053911,9.064675,-5.176646,14.495715,-2.311555,3.929170,5.123511,16.575953,17.010365,6.976351,-20.228739,16.856104,0.000000,200.000000,4.000000,,,,0.000000,4.000000,4.000000,4.000000,4.000000,4.000000,4.000000,4.000000,4.000000,4.000000,4.000000,4.000000,4.000000,4.000000,4.000000,4.000000,4.000000,4.000000,4.000000,4.000000,4.000000,4.000000,4.000000,4.000000,4.000000,4.000000,4.000000,4.000000,4.000000,4.000000,4.000000,4.000000,4.000000,100.000000
1614562899.018542,5.000000,0.000000,3.096344,8.448236,-0.762711,-6.662188,-1.137793,1.873796,-7.971900,-13.119927,4.838923,-5.702781,3.887477,-6.217227,-7.518133,-1.442423,-14.618966,-0.963282,10.202142,11.150199,16.417145,14.852020,7.506396,4.440226,-5.684290,16.019682,0.254859,-6.331170,-2.573920,14.508095,14.942072,-0.722933,-31.490561,-6.237676,0.000000,167.000000,4.000000,,,,0.000000,4.000000,4.000000,4.000000,4.000000,4.000000,4.000000,4.000000,4.000000,4.000000,4.000000,4.000000,4.000000,4.000000,4.000000,4.000000,4.000000,4.000000,4.000000,4.000000,4.000000,4.000000,4.000000,4.000000,4.000000,4.000000,4.000000,4.000000,4.000000,4.000000,4.000000,4.000000,4.000000,100.000000
1614562899.026291,6.000000,0.000000,4.631709,17.157736,32.058563,22.575243,5.017191,11.615512,5.882225,6.893193,26.372545,12.764461,21.832308,6.096682,6.335539,8.815430,5.908473,18.524860,12.243222,30.626228,36.400726,28.170502,16.729658,6.487068,-8.242708,33.952381,13.075117,17.777725,7.685064,20.134613,18.004053,11.072662,-7.869327,26.589075,0.000000,195.000000,4.000000,,,,0.000000,4.000000,4.000000,4.000000,4.000000,4.000000,4.000000,4.000000,4.000000,4.000000,4.000000,4.000000,4.000000,4.000000,4.000000,4.000000,4.000000,4.000000,4.000000,4.000000,4.000000,4.000000,4.000000,4.000000,4.000000,4.000000,4.000000,4.000000,4.000000,4.000000,4.000000,4.000000,4.000000,100.000000
1614562899.033941,7.000000,0.000000,6.678360,18.166220,32.539326,26.142412,6.550635,14.167998,21.773779,15.604248,19.679506,23.520927,36.169449,14.808535,15.559973,23.165588,26.928205,36.455055,22.487389,51.621243,56.877148,29.680792,30.046263,12.121607,-2.080619,52.379967,14.600503,19.298409,11.779943,23.191401,15.934767,13.625692,-5.297355,27.075306,0.000000,210.000000,4.000000,,,,0.000000,4.000000,4.000000,4.000000,4.000000,4.000000,4.000000,4.000000,4.000000,4.000000,4.000000,4.000000,4.000000,4.000000,4.000000,4.000000,4.000000,4.000000,4.000000,4.000000,4.000000,4.000000,4.000000,4.000000,4.000000,4.000000,4.000000,4.000000,4.000000,4.000000,4.000000,4.000000,4.000000,100.000000
1614562899.041691,8.000000,0.000000,7.184502,7.891643,6.352941,14.321398,5.005623,8.512805,21.752005,10.460439,-0.340173,21.446123,35.620461,14.793726,7.339285,25.706526,28.439739,29.751932,22.977722,47.979877,54.256168,27.599829,28.990576,12.109485,4.588128,48.225021,4.842313,-2.772171,3.563035,22.142569,2.585499,1.817194,-19.138212,-5.259461,0.000000,180.000000,4.000000,,,,0.000000,4.000000,4.000000,4.000000,4.000000,4.000000,4.000000,4.000000,4.000000,4.000000,4.000000,4.000000,4.000000,4.000000,4.000000,4.000000,4.000000,4.000000,4.000000,4.000000,4.000000,4.000000,4.000000,4.000000,4.000000,4.000000,4.000000,4.000000,4.000000,4.000000,4.000000,4.000000,4.000000,100.000000
1614562899.049341,9.000000,0.000000,6.664496,2.242726,19.679920,19.948101,5.513438,6.965831,20.704613,11.988441,2.737090,20.399036,33.020737,14.266111,1.690920,22.603895,23.795916,21.004230,19.877821,41.778053,46.509605,28.085051,23.320559,11.071734,4.070719,40.997311,5.350291,-1.743758,2.021011,21.094786,-1.006830,-2.287187,-11.426765,5.515029,0.000000,195.000000,4.000000,,,,0.000000,4.000000,4.000000,4.000000,4.000000,4.000000,4.000000,4.000000,4.000000,4.000000,4.000000,4.000000,4.000000,4.000000,4.000000,4.000000,4.000000,4.000000,4.000000,4.000000,4.000000,4.000000,4.000000,4.000000,4.000000,4.000000,4.000000,4.000000,4.000000,4.000000,4.000000,4.000000,4.000000,100.000000
1614562899.057091,10.000000,0.000000,6.657832,3.778944,34.019215,25.056358,6.020745,8.497326,22.735189,15.053374,7.349738,20.891459,30.423613,15.277486,4.253332,22.068472,25.310581,19.444765,20.370764,36.095249,42.873352,28.056965,24.322880,12.599124,3.041008,39.417850,14.062890,7.488755,4.583092,22.099331,5.660843,0.279203,-3.723031,23.971052,0.000000,211.000000,4.000000,,,,0.000000,4.000000,4.000000,4.000000,4.000000,4.000000,4.000000,4.000000,4.000000,4.000000,4.000000,4.000000,4.000000,4.000000,4.000000,4.000000,4.000000,4.000000,4.000000,4.000000,4.000000,4.000000,4.000000,4.000000,4.000000,4.000000,4.000000,4.000000,4.000000,4.000000,4.000000,4.000000,4.000000,100.000000
1614562899.064741,11.000000,0.000000,6.651174,3.775165,21.164684,18.877457,5.501904,7.463188,18.609890,14.525501,5.291106,22.409029,17.572678,14.749389,2.710617,16.405378,19.131424,2.502244,11.632444,8.879666,21.292017,24.439165,20.195993,10.022423,4.576428,22.968176,12.510365,-0.723862,5.604150,22.077232,7.706464,-0.233897,-11.924437,8.049645,0.000000,192.000000,4.000000,,,,0.000000,4.000000,4.000000,4.000000,4.000000,4.000000,4.000000,4.000000,4.000000,4.000000,4.000000,4.000000,4.000000,4.000000,4.000000,4.000000,4.000000,4.000000,4.000000,4.000000,4.000000,4.000000,4.000000,4.000000,4.000000,4.000000,4.000000,4.000000,4.000000,4.000000,4.000000,4.000000,4.000000,100.000000
1614562899.072491,12.000000,0.000000,6.644523,3.258570,17.553776,14.756015,6.009223,7.968545,13.975896,15.023796,6.824276,20.335337,0.632027,14.734639,-0.881838,6.645382,4.753318,-16.987438,-1.712521,-14.718957,-7.960045,10.568571,8.893745,4.884195,2.007749,2.432388,-1.861119,-5.851343,5.085725,18.465412,6.160296,-1.259304,-14.989435,-1.701994,0.000000,219.000000,4.000000,,,,0.000000,4.000000,4.000000,4.000000,4.000000,4.000000,4.000000,4.000000,4.000000,4.000000,4.000000,4.000000,4.000000,4.000000,4.000000,4.000000,4.000000,4.000000,4.000000,4.000000,4.000000,4.000000,4.000000,4.000000,4.000000,4.000000,4.000000,4.000000,4.000000,4.000000,4.000000,4.000000,4.000000,100.000000
1614562899.080140,13.000000,0.000000,6.637878,3.255311,17.536221,13.715618,6.003213,6.934936,13.961920,9.367746,0.150786,5.956028,-4.496810,13.694263,-0.880956,2.536173,-1.405282,-16.970451,-3.762091,-10.601674,-17.182854,-7.390715,3.756646,3.853670,-7.225028,-2.698250,-13.654130,-4.819851,-3.637309,12.293099,7.179777,-0.232404,-17.538548,3.427913,0.000000,199.000000,4.000000,,,,0.000000,4.000000,4.000000,4.000000,4.000000,4.000000,4.000000,4.000000,4.000000,4.000000,4.000000,4.000000,4.000000,4.000000,4.000000,4.000000,4.000000,4.000000,4.000000,4.000000,4.000000,4.000000,4.000000,4.000000,4.000000,4.000000,4.000000,4.000000,4.000000,4.000000,4.000000,4.000000,4.000000,100.000000
1614562899.087890,14.000000,0.000000,6.631241,3.764876,8.287916,9.086517,2.407466,1.799796,12.409496,0.127609,-4.977571,-0.203775,0.123072,10.603646,-0.367254,3.046457,1.160226,-13.363736,1.369876,-4.950047,-16.140030,-15.075632,4.778531,4.362637,-15.935751,-0.644270,-11.589194,-6.866313,-9.787518,9.716704,7.172597,-0.232171,-22.649216,0.347562,0.000000,170.000000,4.000000,,,,0.000000,4.000000,4.000000,4.000000,4.000000,4.000000,4.000000,4.000000,4.000000,4.000000,4.000000,4.000000,4.000000,4.000000,4.000000,4.000000,4.000000,4.000000,4.000000,4.000000,4.000000,4.000000,4.000000,4.000000,4.000000,4.000000,4.000000,4.000000,4.000000,4.000000,4.000000,4.000000,4.000000,100.000000
1614562899.095540,15.000000,0.000000,7.137430,3.761111,12.895013,6.513329,-2.210326,1.797996,10.345805,-1.923800,7.335100,6.975916,4.225513,7.516119,-0.366887,3.043411,1.159066,-13.350373,5.471071,-2.893814,-16.123890,-11.470813,4.773752,4.358274,-19.509560,0.894836,-3.885297,-3.269703,-1.059782,10.219808,7.678245,-0.231939,-14.934258,2.398497,0.000000,201.000000,4.000000,,,,0.000000,4.000000,4.000000,4.000000,4.000000,4.000000,4.000000,4.000000,4.000000,4.000000,4.000000,4.000000,4.000000,4.000000,4.000000,4.000000,4.000000,4.000000,4.000000,4.000000,4.000000,4.000000,4.000000,4.000000,4.000000,4.000000,4.000000,4.000000,4.000000,4.000000,4.000000,4.000000,4.000000,100.000000
1614562899.103290,16.000000,0.000000,7.643113,3.757350,20.574425,8.045277,-2.208115,3.847480,9.822639,-1.409056,17.071354,5.943299,6.785389,6.995782,-0.366520,3.040367,0.132266,-4.619074,8.542522,7.878310,-8.415459,-7.356778,4.256158,3.841095,-19.490049,4.996506,-1.317309,3.400233,5.095124,10.209588,10.234670,-0.231707,-10.816759,12.652509,0.000000,218.000000,4.000000,,,,0.000000,4.000000,4.000000,4.000000,4.000000,4.000000,4.000000,4.000000,4.000000,4.000000,4.000000,4.000000,4.000000,4.000000,4.000000,4.000000,4.000000,4.000000,4.000000,4.000000,4.000000,4.000000,4.000000,4.000000,4.000000,4.000000,4.000000,4.000000,4.000000,4.000000,4.000000,4.000000,4.000000,100.000000
1614562899.110940,17.000000,0.000000,6.097008,3.753593,14.912826,7.524411,-1.693087,-0.771752,6.223072,-3.971750,10.387616,-2.267772,8.317066,6.988787,-0.366154,3.550148,0.644954,5.641955,9.559621,17.614021,2.362188,-7.349421,4.251902,4.350074,-18.957739,7.042791,-1.828812,3.909653,-3.627919,10.199378,9.711615,-0.231475,-18.498251,11.614215,0.000000,177.000000,4.000000,,,,0.000000,4.000000,4.000000,4.000000,4.000000,4.000000,4.000000,4.000000,4.000000,4.000000,4.000000,4.000000,4.000000,4.000000,4.000000,4.000000,4.000000,4.000000,4.000000,4.000000,4.000000,4.000000,4.000000,4.000000,4.000000,4.000000,4.000000,4.000000,4.000000,4.000000,4.000000,4.000000,4.000000,100.000000
1614562899.118690,18.000000,0.000000,6.603732,3.749840,9.769708,3.927143,-2.204214,-4.873545,3.139926,-4.993419,6.274664,-0.727043,9.847210,4.930516,-0.365787,3.546597,1.157130,7.174775,9.037241,15.545126,5.436749,-6.829251,5.786111,4.345725,-19.964422,8.574210,-0.801343,3.392923,-7.726856,9.676358,7.137800,-0.231244,-18.992573,3.910293,0.000000,194.000000,4.000000,,,,0.000000,4.000000,4.000000,4.000000,4.000000,4.000000,4.000000,4.000000,4.000000,4.000000,4.000000,4.000000,4.000000,4.000000,4.000000,4.000000,4.000000,4.000000,4.000000,4.000000,4.000000,4.000000,4.000000,4.000000,4.000000,4.000000,4.000000,4.000000,4.000000,4.000000,4.000000,4.000000,4.000000,100.000000
1614562899.126339,19.000000,0.000000,8.135590,3.746090,8.221476,4.436036,-2.202010,-1.791748,5.188068,-5.501246,8.319672,2.863428,13.427107,2.874303,-0.365422,4.055871,1.155973,10.244523,9.541024,13.478298,6.456953,0.869886,8.857248,4.341379,-18.918818,13.693841,1.763561,3.902351,-4.129385,10.692323,6.617842,-0.231013,-12.306913,2.880742,0.000000,200.000000,4.000000,,,,0.000000,4.000000,4.000000,4.000000,4.000000,4.000000,4.000000,4.000000,4.000000,4.000000,4.000000,4.000000,4.000000,4.000000,4.000000,4.000000,4.000000,4.000000,4.000000,4.000000,4.000000,4.000000,4.000000,4.000000,4.000000,4.000000,4.000000,4.000000,4.000000,4.000000,4.000000,4.000000,4.000000,100.000000
1614562899.134089,20.000000,0.000000,1.973608,3.742343,11.290177,9.559805,-1.686987,0.774146,6.721342,-3.957283,8.311352,2.347744,16.490602,2.871429,-0.877877,3.026175,1.154817,21.003510,9.018662,21.669949,14.655624,14.202350,11.925314,4.337037,-13.771693,20.346813,7.915644,3.385628,-2.073974,15.297015,7.636865,-0.230782,-7.679222,8.518887,0.000000,203.000000,4.000000,,,,0.000000,4.000000,4.000000,4.000000,4.000000,4.000000,4.000000,4.000000,4.000000,4.000000,4.000000,4.000000,4.000000,4.000000,4.000000,4.000000,4.000000,4.000000,4.000000,4.000000,4.000000,4.000000,4.000000,4.000000,4.000000,4.000000,4.000000,4.000000,4.000000,4.000000,4.000000,4.000000,4.000000,100.000000
1614562899.141739,21.000000,0.000000,-7.259135,3.738601,25.125042,12.627169,-1.685300,0.260552,7.227441,3.738982,7.277400,5.935140,16.986933,3.381378,-0.364178,3.535969,1.153662,21.495327,9.009645,26.263662,22.846096,24.444557,15.503133,6.383982,-5.039973,23.403389,16.625677,4.920704,1.005023,18.358641,7.116408,-0.230551,-0.492056,16.715496,0.000000,184.000000,4.000000,,,,0.000000,4.000000,4.000000,4.000000,4.000000,4.000000,4.000000,4.000000,4.000000,4.000000,4.000000,4.000000,4.000000,4.000000,4.000000,4.000000,4.000000,4.000000,4.000000,4.000000,4.000000,4.000000,4.000000,4.000000,4.000000,4.000000,4.000000,4.000000,4.000000,4.000000,4.000000,4.000000,4.000000,100.000000
1614562899.149489,22.000000,0.000000,-6.739055,3.734863,30.740942,11.076080,-1.683615,-0.252529,9.271496,6.812166,7.270123,10.031769,13.380202,3.377997,-0.363814,4.558074,1.152508,3.525113,9.000634,15.468168,19.233507,24.932934,17.026091,8.428881,2.144555,20.815884,17.121872,6.454245,3.568121,17.827463,7.109291,-0.230320,2.585360,17.724421,0.000000,188.000000,4.000000,,,,0.000000,4.000000,4.000000,4.000000,4.000000,4.000000,4.000000,4.000000,4.000000,4.000000,4.000000,4.000000,4.000000,4.000000,4.000000,4.000000,4.000000,4.000000,4.000000,4.000000,4.000000,4.000000,4.000000,4.000000,4.000000,4.000000,4.000000,4.000000,4.000000,4.000000,4.000000,4.000000,4.000000,100.000000
1614562899.157139,23.000000,0.000000,-1.091291,3.731128,21.479431,9.526543,-1.681931,0.260544,8.749403,1.677149,7.775673,10.021737,6.700155,3.887439,-3.440373,0.963772,1.151356,-11.863028,8.991633,0.580905,6.906581,20.292616,12.906501,7.907631,4.193692,12.589940,10.950904,0.806765,-0.025191,17.809635,7.102182,-0.230090,-1.519790,6.937466,0.000000,207.000000,4.000000,,,,0.000000,4.000000,4.000000,4.000000,4.000000,4.000000,4.000000,4.000000,4.000000,4.000000,4.000000,4.000000,4.000000,4.000000,4.000000,4.000000,4.000000,4.000000,4.000000,4.000000,4.000000,4.000000,4.000000,4.000000,4.000000,4.000000,4.000000,4.000000,4.000000,4.000000,4.000000,4.000000,4.000000,100.000000
1614562899.164989,24.000000,0.000000,-1.090199,3.727396,18.381029,6.952913,-1.680250,2.311565,7.202192,-0.888631,7.767897,10.011715,3.616532,3.370731,-3.436933,-2.626935,1.150204,-10.312702,8.469822,-1.983778,0.233008,17.195400,9.816671,7.899724,4.189498,6.936324,7.350209,-4.322247,-2.589268,18.304646,7.095080,-0.229860,-2.543911,-1.274599,0.000000,209.000000,4.000000,,,,0.000000,4.000000,4.000000,4.000000,4.000000,4.000000,4.000000,4.000000,4.000000,4.000000,4.000000,4.000000,4.000000,4.000000,4.000000,4.000000,4.000000,4.000000,4.000000,4.000000,4.000000,4.000000,4.000000,4.000000,4.000000,4.000000,4.000000,4.000000,4.000000,4.000000,4.000000,4.000000,4.000000,100.000000
1614562899.172739,25.000000,0.000000,-0.063468,4.236490,20.413931,5.407499,-1.678569,4.360536,9.246272,-1.400563,7.760129,8.976063,7.715479,3.367361,1.694709,0.452615,1.149054,-2.610082,8.974173,2.120770,0.232775,14.101281,11.345316,8.404644,4.185309,6.929388,2.727474,-4.317925,-2.586679,17.773521,7.087985,-0.229630,-8.182393,-0.247684,0.000000,181.000000,4.000000,,,,0.000000,4.000000,4.000000,4.000000,4.000000,4.000000,4.000000,4.000000,4.000000,4.000000,4.000000,4.000000,4.000000,4.000000,4.000000,4.000000,4.000000,4.000000,4.000000,4.000000,4.000000,4.000000,4.000000,4.000000,4.000000,4.000000,4.000000,4.000000,4.000000,4.000000,4.000000,4.000000,4.000000,100.000000
1614562899.180589,26.000000,0.000000,3.013519,2.693792,13.214029,4.376450,-1.676891,4.356175,9.237026,-6.014547,7.752369,6.915804,11.297507,3.876814,3.744296,4.041906,1.147905,-1.581831,8.965199,3.144290,-0.793099,7.933334,10.821150,6.344957,2.129842,6.922459,-1.377817,-5.339248,-3.096913,17.755747,7.080897,-0.229400,-17.404980,0.265384,0.000000,199.000000,4.000000,,,,0.000000,4.000000,4.000000,4.000000,4.000000,4.000000,4.000000,4.000000,4.000000,4.000000,4.000000,4.000000,4.000000,4.000000,4.000000,4.000000,4.000000,4.000000,4.000000,4.000000,4.000000,4.000000,4.000000,4.000000,4.000000,4.000000,4.000000,4.000000,4.000000,4.000000,4.000000,4.000000,4.000000,100.000000
1614562899.188339,27.000000,0.000000,3.010505,0.639816,8.585430,1.295151,-3.726496,2.300537,6.150866,-9.085456,8.257437,5.883247,11.799030,1.308834,3.227731,2.499402,0.633937,-2.093070,7.930592,1.089864,0.233335,1.258734,7.220585,3.774510,-5.564596,6.402716,4.777407,-7.898011,-1.042534,17.737991,7.073816,-0.229171,-11.233728,-0.760522,0.000000,210.000000,4.000000,,,,0.000000,4.000000,4.000000,4.000000,4.000000,4.000000,4.000000,4.000000,4.000000,4.000000,4.000000,4.000000,4.000000,4.000000,4.000000,4.000000,4.000000,4.000000,4.000000,4.000000,4.000000,4.000000,4.000000,4.000000,4.000000,4.000000,4.000000,4.000000,4.000000,4.000000,4.000000,4.000000,4.000000,100.000000
1614562899.196189,28.000000,0.000000,3.520315,-0.386465,10.115307,-2.808709,-5.261231,0.246954,6.144715,-8.050729,7.223539,2.287621,12.300052,-3.307859,3.224504,4.548185,1.146123,0.473126,9.461123,3.652876,4.848486,-1.306627,9.264647,4.283556,-12.738519,9.473236,8.875194,-5.838831,3.573893,17.207434,7.066742,-0.228942,-4.555828,-0.246941,0.000000,174.000000,4.000000,,,,0.000000,4.000000,4.000000,4.000000,4.000000,4.000000,4.000000,4.000000,4.000000,4.000000,4.000000,4.000000,4.000000,4.000000,4.000000,4.000000,4.000000,4.000000,4.000000,4.000000,4.000000,4.000000,4.000000,4.000000,4.000000,4.000000,4.000000,4.000000,4.000000,4.000000,4.000000,4.000000,4.000000,100.000000
1614562899.203939,29.000000,0.000000,6.080897,-1.411720,8.566730,-3.831541,-5.255970,-0.266113,6.138570,-8.555499,4.652213,-0.791590,14.851854,-5.355833,2.708459,10.184663,1.144977,3.036755,15.092688,13.392814,8.433381,1.258782,12.845126,3.766452,-11.700139,12.027865,3.738113,-3.268890,1.006217,17.703047,7.059675,0.284108,-13.782042,-0.246694,0.000000,198.000000,4.000000,,,,0.000000,4.000000,4.000000,4.000000,4.000000,4.000000,4.000000,4.000000,4.000000,4.000000,4.000000,4.000000,4.000000,4.000000,4.000000,4.000000,4.000000,4.000000,4.000000,4.000000,4.000000,4.000000,4.000000,4.000000,4.000000,4.000000,4.000000,4.000000,4.000000,4.000000,4.000000,4.000000,4.000000,100.000000
1614562899.211789,30.000000,0.000000,6.587637,-3.461590,6.506881,-2.802068,-4.737893,0.246974,6.645252,-8.546944,3.621919,0.747663,16.888285,-1.247913,3.731391,11.200119,0.631012,8.161923,16.616056,19.020447,8.937769,0.744703,11.806640,3.249865,-5.534593,10.990196,4.760016,-3.265621,-2.071712,17.685343,7.052616,-1.767459,-19.922106,0.266373,0.000000,181.000000,4.000000,,,,0.000000,4.000000,4.000000,4.000000,4.000000,4.000000,4.000000,4.000000,4.000000,4.000000,4.000000,4.000000,4.000000,4.000000,4.000000,4.000000,4.000000,4.000000,4.000000,4.000000,4.000000,4.000000,4.000000,4.000000,4.000000,4.000000,4.000000,4.000000,4.000000,4.000000,4.000000,4.000000,4.000000,100.000000
1614562899.219539,31.000000,0.000000,7.093870,-3.970949,4.449092,-3.312087,-5.758796,-0.266094,10.741171,-6.487114,4.131118,1.772556,18.922678,2.855899,8.343044,11.701739,2.681663,13.281967,15.573799,18.488605,6.364728,-0.794504,12.820474,12.477385,-4.503417,13.030488,8.857821,-3.775176,-0.018359,17.154837,7.045563,-3.816973,-14.773978,0.266107,0.000000,170.000000,4.000000,,,,0.000000,4.000000,4.000000,4.000000,4.000000,4.000000,4.000000,4.000000,4.000000,4.000000,4.000000,4.000000,4.000000,4.000000,4.000000,4.000000,4.000000,4.000000,4.000000,4.000000,4.000000,4.000000,4.000000,4.000000,4.000000,4.000000,4.000000,4.000000,4.000000,4.000000,4.000000,4.000000,4.000000,100.000000
1614562899.227388,32.000000,0.000000,9.650879,-3.454157,-0.170742,-2.795954,-5.753037,0.246993,14.320173,-4.429345,4.126987,3.309245,19.929398,3.878684,10.898804,14.766960,7.294365,14.807146,20.686430,24.623962,11.999390,11.513983,21.012781,24.772598,-3.986093,22.248226,5.772039,-5.309862,1.520121,18.163322,7.038517,-4.325977,-13.220743,-2.811082,8064.000000,0.000000,4.000000,,,,0.000000,4.000000,4.000000,4.000000,4.000000,4.000000,4.000000,4.000000,4.000000,4.000000,4.000000,4.000000,4.000000,4.000000,4.000000,4.000000,4.000000,4.000000,4.000000,4.000000,4.000000,4.000000,4.000000,4.000000,4.000000,4.000000,4.000000,4.000000,4.000000,4.000000,4.000000,4.000000,4.000000,100.000000
1614562899.235138,33.000000,0.000000,10.666868,-3.450703,-1.709032,-0.229056,-4.721643,2.298028,14.305854,-3.399275,3.097219,8.434141,19.909468,4.387626,10.887905,13.213732,9.851173,14.792339,27.845232,31.778826,23.269442,29.964008,29.709717,27.824749,4.735842,29.405466,4.740626,-7.355834,1.005780,20.709263,7.031479,-3.808830,-14.745984,-4.859553,8064.000000,0.000000,4.000000,,,,0.000000,4.000000,4.000000,4.000000,4.000000,4.000000,4.000000,4.000000,4.000000,4.000000,4.000000,4.000000,4.000000,4.000000,4.000000,4.000000,4.000000,4.000000,4.000000,4.000000,4.000000,4.000000,4.000000,4.000000,4.000000,4.000000,4.000000,4.000000,4.000000,4.000000,4.000000,4.000000,4.000000,100.000000
1614562899.242988,34.000000,0.000000,10.656201,-3.447253,-0.681682,1.309635,-6.768204,4.347012,14.291548,-4.421516,1.555660,8.425707,18.863916,3.357597,11.389838,8.585134,7.790040,8.110880,24.740463,21.490637,17.092325,28.395582,27.115906,24.720001,11.910593,21.170933,6.274347,-7.348478,2.030416,22.227015,7.024447,-3.805021,-14.218417,-3.829053,8064.000000,0.000000,4.000000,,,,0.000000,4.000000,4.000000,4.000000,4.000000,4.000000,4.000000,4.000000,4.000000,4.000000,4.000000,4.000000,4.000000,4.000000,4.000000,4.000000,4.000000,4.000000,4.000000,4.000000,4.000000,4.000000,4.000000,4.000000,4.000000,4.000000,4.000000,4.000000,4.000000,4.000000,4.000000,4.000000,4.000000,100.000000
1614562899.250738,35.000000,0.000000,10.132725,-3.956626,-2.732283,0.795505,-8.299897,3.829844,13.764436,-4.929915,0.528463,3.289076,12.691207,0.277316,9.839987,6.525267,1.115584,-6.256205,16.510593,1.981967,-4.976049,12.469750,16.319559,21.105537,9.847401,3.201043,3.703970,-7.341130,-2.074179,21.179146,7.017423,-3.801216,-14.204199,-4.850865,8064.000000,0.000000,4.000000,,,,0.000000,4.000000,4.000000,4.000000,4.000000,4.000000,4.000000,4.000000,4.000000,4.000000,4.000000,4.000000,4.000000,4.000000,4.000000,4.000000,4.000000,4.000000,4.000000,4.000000,4.000000,4.000000,4.000000,4.000000,4.000000,4.000000,4.000000,4.000000,4.000000,4.000000,4.000000,4.000000,4.000000,100.000000
1614562899.258388,36.000000,0.000000,10.122592,-3.439849,3.424296,0.794709,-4.701854,3.826015,13.750671,-0.309601,-0.497706,1.234505,2.422105,-0.748602,7.778864,6.005921,-2.988096,-13.429436,15.468443,-8.789246,-12.663381,7.841896,13.739137,19.033150,7.786271,-5.007286,6.777189,-7.333789,-5.661848,21.670788,7.010406,-3.797415,-13.164353,-4.846014,8064.000000,0.000000,4.000000,,,,0.000000,4.000000,4.000000,4.000000,4.000000,4.000000,4.000000,4.000000,4.000000,4.000000,4.000000,4.000000,4.000000,4.000000,4.000000,4.000000,4.000000,4.000000,4.000000,4.000000,4.000000,4.000000,4.000000,4.000000,4.000000,4.000000,4.000000,4.000000,4.000000,4.000000,4.000000,4.000000,4.000000,100.000000
1614562899.266137,37.000000,0.000000,10.625290,-0.872306,19.318308,0.793915,-1.107408,3.822188,14.762562,1.229170,2.579715,2.771732,1.394042,0.277788,6.745445,8.564017,-1.446646,-12.903186,16.991436,-8.267636,-12.137897,7.834054,10.648475,20.039759,3.675920,-4.489458,9.847335,-7.326455,-1.040802,21.649117,7.003395,-3.793618,-11.099907,3.876781,8064.000000,0.000000,4.000000,,,,0.000000,4.000000,4.000000,4.000000,4.000000,4.000000,4.000000,4.000000,4.000000,4.000000,4.000000,4.000000,4.000000,4.000000,4.000000,4.000000,4.000000,4.000000,4.000000,4.000000,4.000000,4.000000,4.000000,4.000000,4.000000,4.000000,4.000000,4.000000,4.000000,4.000000,4.000000,4.000000,4.000000,100.000000
1614562899.273787,38.000000,0.000000,10.101845,0.667028,25.452835,1.818762,-1.106301,3.818366,10.645235,-7.490008,8.218161,2.256140,-1.684275,-8.440439,2.123315,3.940069,-6.573405,-19.044128,11.333419,-7.233727,-19.818066,0.133913,-3.721148,15.917154,-8.635448,-7.049071,0.093898,-7.319129,1.524342,14.960801,6.996392,-3.789824,-10.063167,14.642135,8064.000000,0.000000,4.000000,,,,0.000000,4.000000,4.000000,4.000000,4.000000,4.000000,4.000000,4.000000,4.000000,4.000000,4.000000,4.000000,4.000000,4.000000,4.000000,4.000000,4.000000,4.000000,4.000000,4.000000,4.000000,4.000000,4.000000,4.000000,4.000000,4.000000,4.000000,4.000000,4.000000,4.000000,4.000000,4.000000,4.000000,100.000000
1614562899.281537,39.000000,0.000000,5.476358,0.153540,19.273537,0.278481,-1.618015,3.814548,1.403820,-16.200466,4.107378,1.741063,-19.631308,-19.201229,-3.519835,-13.499769,-21.438625,-30.819956,4.142598,-14.405981,-24.413633,-7.045709,-14.999478,4.106366,-18.370401,-12.683048,-8.624145,-7.311810,-3.605388,5.202251,6.989395,-3.786034,-10.565924,15.653133,8064.000000,0.000000,4.000000,,,,0.000000,4.000000,4.000000,4.000000,4.000000,4.000000,4.000000,4.000000,4.000000,4.000000,4.000000,4.000000,4.000000,4.000000,4.000000,4.000000,4.000000,4.000000,4.000000,4.000000,4.000000,4.000000,4.000000,4.000000,4.000000,4.000000,4.000000,4.000000,4.000000,4.000000,4.000000,4.000000,4.000000,100.000000
1614562899.289187,40.000000,0.000000,2.393959,0.153387,15.151698,-3.824361,-1.616397,3.810733,-0.648866,-14.645804,-3.076216,2.252143,-21.662960,-15.592284,-4.541955,-15.537551,-27.058212,-29.250675,4.651276,-19.519779,-19.261015,-7.038663,-14.984479,-1.025946,-19.377672,-13.696006,-6.564238,-7.304498,-7.191526,1.607305,4.931124,-3.782248,-11.068178,13.586199,8064.000000,0.000000,4.000000,,,,0.000000,4.000000,4.000000,4.000000,4.000000,4.000000,4.000000,4.000000,4.000000,4.000000,4.000000,4.000000,4.000000,4.000000,4.000000,4.000000,4.000000,4.000000,4.000000,4.000000,4.000000,4.000000,4.000000,4.000000,4.000000,4.000000,4.000000,4.000000,4.000000,4.000000,4.000000,4.000000,4.000000,100.000000
1614562899.296937,41.000000,0.000000,2.391565,0.153233,17.700649,-3.307716,-1.614781,3.806922,4.479989,-8.477312,2.567886,2.249891,0.922806,-4.294641,-5.050234,3.965166,-18.826027,-10.247066,9.262010,-6.166927,-11.036625,-6.518804,-12.918213,3.077644,-18.845474,-4.964361,-5.019212,-7.810014,-6.158693,3.144159,3.387731,-3.778466,-11.057110,14.598253,8064.000000,0.000000,4.000000,,,,0.000000,4.000000,4.000000,4.000000,4.000000,4.000000,4.000000,4.000000,4.000000,4.000000,4.000000,4.000000,4.000000,4.000000,4.000000,4.000000,4.000000,4.000000,4.000000,4.000000,4.000000,4.000000,4.000000,4.000000,4.000000,4.000000,4.000000,4.000000,4.000000,4.000000,4.000000,4.000000,4.000000,100.000000
1614562899.304587,42.000000,0.000000,2.901994,0.153080,19.734230,-1.253127,-1.100345,3.803116,6.013970,-2.827810,7.180702,2.247641,15.793678,-1.213423,-2.993902,15.243252,-8.550791,14.378567,11.304029,13.839240,5.897489,-4.461003,-4.187346,4.613028,-19.339449,10.425219,-8.603937,-7.289383,-6.152535,2.115374,3.384344,-3.774688,-10.533233,14.583655,8064.000000,0.000000,4.000000,,,,0.000000,4.000000,4.000000,4.000000,4.000000,4.000000,4.000000,4.000000,4.000000,4.000000,4.000000,4.000000,4.000000,4.000000,4.000000,4.000000,4.000000,4.000000,4.000000,4.000000,4.000000,4.000000,4.000000,4.000000,4.000000,4.000000,4.000000,4.000000,4.000000,4.000000,4.000000,4.000000,4.000000,100.000000
1614562899.312336,43.000000,0.000000,2.386271,0.152927,10.996548,-10.995463,-3.150527,3.799313,7.033597,-0.260879,-0.005965,2.245393,19.367628,1.864713,4.188579,15.740829,-1.362752,30.261623,13.344007,21.517708,25.891592,-2.405260,11.714277,3.069954,-18.807289,20.158382,-10.133795,-6.769273,-6.146382,2.626079,3.380959,-3.770913,-11.035520,10.466507,8064.000000,0.000000,4.000000,,,,0.000000,4.000000,4.000000,4.000000,4.000000,4.000000,4.000000,4.000000,4.000000,4.000000,4.000000,4.000000,4.000000,4.000000,4.000000,4.000000,4.000000,4.000000,4.000000,4.000000,4.000000,4.000000,4.000000,4.000000,4.000000,4.000000,4.000000,4.000000,4.000000,4.000000,4.000000,4.000000,4.000000,100.000000
1614562899.319986,44.000000,0.000000,2.896705,0.152774,5.857346,-17.651134,-5.711479,3.795513,9.590666,-0.773439,-4.108523,2.243148,23.963646,6.991054,5.722852,18.289190,1.715533,25.103157,16.920406,18.419268,27.916981,-2.915675,18.369230,3.579704,-18.788483,19.112583,-7.046738,-8.813787,-7.165877,6.726017,3.377578,-4.279963,-11.537305,5.327836,8064.000000,0.000000,4.000000,,,,0.000000,4.000000,4.000000,4.000000,4.000000,4.000000,4.000000,4.000000,4.000000,4.000000,4.000000,4.000000,4.000000,4.000000,4.000000,4.000000,4.000000,4.000000,4.000000,4.000000,4.000000,4.000000,4.000000,4.000000,4.000000,4.000000,4.000000,4.000000,4.000000,4.000000,4.000000,4.000000,4.000000,100.000000
1614562899.327736,45.000000,0.000000,2.893809,0.152621,22.261745,-3.787329,-4.167306,3.791718,8.042614,-0.259845,-0.514672,2.240905,15.734553,4.932781,0.588924,12.629876,2.226638,7.129336,15.365026,6.093156,13.530090,-1.374298,14.761117,4.601766,-17.744053,16.529369,-2.424306,-5.728049,-6.133070,10.309035,3.887021,-4.788503,-5.884742,6.348149,8064.000000,0.000000,4.000000,,,,0.000000,4.000000,4.000000,4.000000,4.000000,4.000000,4.000000,4.000000,4.000000,4.000000,4.000000,4.000000,4.000000,4.000000,4.000000,4.000000,4.000000,4.000000,4.000000,4.000000,4.000000,4.000000,4.000000,4.000000,4.000000,4.000000,4.000000,4.000000,4.000000,4.000000,4.000000,4.000000,4.000000,100.000000
1614562899.335386,46.000000,0.000000,2.890915,0.152469,37.111279,10.575432,-1.599036,4.300746,8.547392,0.253236,2.049946,2.238664,3.923947,0.825284,-0.950126,4.412118,3.250053,-4.159845,9.708634,-2.118065,5.311432,4.780923,12.695074,4.597164,-12.085283,16.512838,-0.883420,5.046910,-2.024373,10.811546,1.831852,-1.706791,6.428835,20.700775,8064.000000,0.000000,4.000000,,,,0.000000,4.000000,4.000000,4.000000,4.000000,4.000000,4.000000,4.000000,4.000000,4.000000,4.000000,4.000000,4.000000,4.000000,4.000000,4.000000,4.000000,4.000000,4.000000,4.000000,4.000000,4.000000,4.000000,4.000000,4.000000,4.000000,4.000000,4.000000,4.000000,4.000000,4.000000,4.000000,4.000000,100.000000
1614562899.343136,47.000000,0.000000,2.888024,0.152316,26.304935,5.949472,-1.084617,3.783625,13.154229,-0.772659,2.047896,2.749245,6.996946,2.362920,0.076465,5.433347,4.785264,-3.642864,8.673285,3.012258,3.254838,5.801783,13.708020,4.079746,-7.970634,15.983506,-0.369716,8.631606,1.054575,10.287914,-0.221262,1.371838,13.089073,27.346741,8064.000000,0.000000,4.000000,,,,0.000000,4.000000,4.000000,4.000000,4.000000,4.000000,4.000000,4.000000,4.000000,4.000000,4.000000,4.000000,4.000000,4.000000,4.000000,4.000000,4.000000,4.000000,4.000000,4.000000,4.000000,4.000000,4.000000,4.000000,4.000000,4.000000,4.000000,4.000000,4.000000,4.000000,4.000000,4.000000,4.000000,100.000000
1614562899.350786,48.000000,0.000000,2.885136,0.152164,11.406837,0.302497,-2.109173,3.779842,13.653895,-0.771886,-1.031075,1.720855,5.451488,4.924660,0.076388,6.966375,5.806120,-4.664863,8.151791,0.957964,-3.415083,4.770340,13.181492,4.588487,-6.424201,11.352138,1.681935,2.981949,2.079161,10.277626,1.830241,-1.706457,9.999061,12.447599,8064.000000,0.000000,4.000000,,,,0.000000,4.000000,4.000000,4.000000,4.000000,4.000000,4.000000,4.000000,4.000000,4.000000,4.000000,4.000000,4.000000,4.000000,4.000000,4.000000,4.000000,4.000000,4.000000,4.000000,4.000000,4.000000,4.000000,4.000000,4.000000,4.000000,4.000000,4.000000,4.000000,4.000000,4.000000,4.000000,4.000000,100.000000
1614562899.358636,49.000000,0.000000,2.882251,-0.360809,12.933891,6.456041,-1.081423,4.801703,11.076138,-0.258294,0.508417,2.744775,-5.323195,1.842812,-0.436508,4.395307,4.774673,-11.839685,3.528255,-11.863507,-12.642437,7.329672,10.091387,5.096719,-6.417778,2.110016,2.705894,5.030249,3.615543,10.780169,3.879693,0.346532,12.553164,7.306947,8064.000000,0.000000,4.000000,,,,0.000000,4.000000,4.000000,4.000000,4.000000,4.000000,4.000000,4.000000,4.000000,4.000000,4.000000,4.000000,4.000000,4.000000,4.000000,4.000000,4.000000,4.000000,4.000000,4.000000,4.000000,4.000000,4.000000,4.000000,4.000000,4.000000,4.000000,4.000000,4.000000,4.000000,4.000000,4.000000,4.000000,100.000000
1614562899.366386,50.000000,0.000000,2.879368,0.152372,16.510700,9.526507,-1.593162,0.694337,6.962499,-2.822138,7.687396,3.254851,-6.856333,-5.338518,-2.487354,2.339629,-5.999332,-22.084255,0.447803,-14.928567,-27.501589,-0.882786,1.363347,-0.036583,-8.462642,-9.686965,3.216009,14.768808,5.150390,10.769389,3.362993,12.141057,22.284201,26.786819,8064.000000,0.000000,4.000000,,,,0.000000,4.000000,4.000000,4.000000,4.000000,4.000000,4.000000,4.000000,4.000000,4.000000,4.000000,4.000000,4.000000,4.000000,4.000000,4.000000,4.000000,4.000000,4.000000,4.000000,4.000000,4.000000,4.000000,4.000000,4.000000,4.000000,4.000000,4.000000,4.000000,4.000000,4.000000,4.000000,4.000000,100.000000
1614562899.374236,51.000000,0.000000,2.876489,0.152220,3.160857,-1.252249,-3.642851,-5.973024,-1.249592,-6.921880,-1.038240,-1.876609,-10.439220,-10.974205,-6.074610,-4.329377,-25.480513,-35.395504,-0.065465,-19.016203,-50.551010,-22.420364,-7.355965,-6.703213,-14.095204,-23.010612,2.699973,11.164296,4.632419,7.681696,3.359630,12.128916,18.159353,25.734392,8064.000000,0.000000,4.000000,,,,0.000000,4.000000,4.000000,4.000000,4.000000,4.000000,4.000000,4.000000,4.000000,4.000000,4.000000,4.000000,4.000000,4.000000,4.000000,4.000000,4.000000,4.000000,4.000000,4.000000,4.000000,4.000000,4.000000,4.000000,4.000000,4.000000,4.000000,4.000000,4.000000,4.000000,4.000000,4.000000,4.000000,100.000000
1614562899.381986,52.000000,0.000000,2.873613,-1.899214,-22.996151,-16.122791,-5.690490,-8.531154,-5.863727,-8.966240,-23.088484,-8.028579,-16.582626,-11.476051,-8.119818,-10.478894,-33.660160,-40.488316,0.447421,-31.304878,-56.654305,-30.603073,-11.451174,-7.722151,-19.722136,-30.167088,-3.456573,-4.231483,4.627786,3.058630,3.356271,-1.216546,2.756578,-4.547753,8064.000000,0.000000,4.000000,,,,0.000000,4.000000,4.000000,4.000000,4.000000,4.000000,4.000000,4.000000,4.000000,4.000000,4.000000,4.000000,4.000000,4.000000,4.000000,4.000000,4.000000,4.000000,4.000000,4.000000,4.000000,4.000000,4.000000,4.000000,4.000000,4.000000,4.000000,4.000000,4.000000,4.000000,4.000000,4.000000,4.000000,100.000000
1614562899.389836,53.000000,0.000000,2.870739,-2.410136,-29.127001,-18.157951,-5.171979,-6.984161,-1.242479,-8.957273,-20.501293,-7.507730,-7.848096,-11.977396,-8.624518,-4.827390,-21.831629,-30.191416,5.575179,-26.145369,-37.110474,-22.367340,-11.439722,-7.714429,-23.292156,-22.957434,-3.965938,-8.842636,4.110338,2.542751,2.840094,-2.753791,-0.835922,-11.722692,8064.000000,0.000000,4.000000,,,,0.000000,4.000000,4.000000,4.000000,4.000000,4.000000,4.000000,4.000000,4.000000,4.000000,4.000000,4.000000,4.000000,4.000000,4.000000,4.000000,4.000000,4.000000,4.000000,4.000000,4.000000,4.000000,4.000000,4.000000,4.000000,4.000000,4.000000,4.000000,4.000000,4.000000,4.000000,4.000000,4.000000,100.000000
1614562899.397586,54.000000,0.000000,2.355048,-0.356443,-8.585052,-11.985948,-5.166807,-4.925895,2.861328,-6.897035,-1.506432,-4.423298,4.467444,-12.478239,-8.103073,2.869745,-9.502105,-17.340712,10.697808,-6.632044,-19.637465,-15.165486,-6.812898,-7.193894,-21.730402,-10.626784,5.781618,-0.628666,5.131868,2.540208,3.862895,6.992552,4.293119,5.212107,8064.000000,0.000000,4.000000,,,,0.000000,4.000000,4.000000,4.000000,4.000000,4.000000,4.000000,4.000000,4.000000,4.000000,4.000000,4.000000,4.000000,4.000000,4.000000,4.000000,4.000000,4.000000,4.000000,4.000000,4.000000,4.000000,4.000000,4.000000,4.000000,4.000000,4.000000,4.000000,4.000000,4.000000,4.000000,4.000000,4.000000,100.000000
1614562899.405436,55.000000,0.000000,3.378334,0.156734,1.167122,-10.435500,-5.161640,-2.869687,5.935390,-5.351676,0.546356,-6.470157,6.001439,-8.876018,-6.043688,3.892517,-10.518244,-15.784909,12.738393,-2.010027,-12.951160,-10.534936,-1.677880,1.531249,-19.144569,-2.923850,9.878401,3.474527,7.178019,3.050489,3.346211,8.011201,2.750364,3.155613,8064.000000,0.000000,4.000000,,,,0.000000,4.000000,4.000000,4.000000,4.000000,4.000000,4.000000,4.000000,4.000000,4.000000,4.000000,4.000000,4.000000,4.000000,4.000000,4.000000,4.000000,4.000000,4.000000,4.000000,4.000000,4.000000,4.000000,4.000000,4.000000,4.000000,4.000000,4.000000,4.000000,4.000000,4.000000,4.000000,4.000000,100.000000
