title:24, start timestamp:1614563129.108219, stop timestamp:1614563174.842738, headset type:EPOCFLEX, headset serial:F00001ED, headset firmware:f12, subject name:s15, channels:75, sampling rate:128, samples:5910      , version:2.0
Timestamp,EEG.Counter,EEG.Interpolated,EEG.Cz,EEG.Fz,EEG.Fp1,EEG.F7,EEG.F3,EEG.FC1,EEG.C3,EEG.FC5,EEG.FT9,EEG.T7,EEG.TP9,EEG.CP5,EEG.CP1,EEG.P3,EEG.P7,EEG.O1,EEG.Pz,EEG.Oz,EEG.O2,EEG.P8,EEG.P4,EEG.CP2,EEG.CP6,EEG.TP10,EEG.T8,EEG.FT10,EEG.FC6,EEG.C4,EEG.FC2,EEG.F4,EEG.F8,EEG.Fp2,EEG.HighBitFlex,EEG.RawCq,EEG.Battery,MarkerIndex,MarkerType,MarkerValueInt,EEG.MarkerHardware,CQ.Cz,CQ.Fz,CQ.Fp1,CQ.F7,CQ.F3,CQ.FC1,CQ.C3,CQ.FC5,CQ.FT9,CQ.T7,CQ.TP9,CQ.CP5,CQ.CP1,CQ.P3,CQ.P7,CQ.O1,CQ.Pz,CQ.Oz,CQ.O2,CQ.P8,CQ.P4,CQ.CP2,CQ.CP6,CQ.TP10,CQ.T8,CQ.FT10,CQ.FC6,CQ.C4,CQ.FC2,CQ.F4,CQ.F8,CQ.Fp2,CQ.Overall
1614563129.108219,125.000000,0.000000,1.904942,0.152527,-68.282600,-25.913078,-7.311372,-1.384367,-2.952833,-16.850031,-24.935061,-2.908847,-2.085601,-1.047933,2.973776,0.437183,4.408339,0.222010,5.099212,-2.234698,-7.526489,-2.987542,-6.337685,-0.228144,2.261060,4.333866,-11.142905,-7.019906,1.067599,-1.042339,3.730394,-2.882971,-5.402345,-10.403500,8064.000000,0.000000,4.000000,,,,0.000000,4.000000,4.000000,4.000000,4.000000,4.000000,4.000000,4.000000,4.000000,4.000000,4.000000,4.000000,4.000000,4.000000,4.000000,4.000000,4.000000,4.000000,4.000000,4.000000,4.000000,4.000000,4.000000,4.000000,4.000000,4.000000,4.000000,4.000000,4.000000,4.000000,4.000000,4.000000,4.000000,100.000000
1614563129.116069,126.000000,0.000000,1.903037,0.152375,-68.727135,-26.399986,-7.304060,-3.434265,-3.975521,-15.807540,-23.884485,-3.931579,-11.827105,-2.072526,2.970802,-6.742741,-8.929403,-16.701288,3.042831,-21.206821,-29.057425,-8.625580,-14.023655,-0.740736,-5.433508,-7.465340,-21.900993,-8.038527,-0.984751,-3.092579,3.726664,-2.880088,-6.422584,-11.931558,8064.000000,0.000000,4.000000,,,,0.000000,4.000000,4.000000,4.000000,4.000000,4.000000,4.000000,4.000000,4.000000,4.000000,4.000000,4.000000,4.000000,4.000000,4.000000,4.000000,4.000000,4.000000,4.000000,4.000000,4.000000,4.000000,4.000000,4.000000,4.000000,4.000000,4.000000,4.000000,4.000000,4.000000,4.000000,4.000000,4.000000,100.000000
1614563129.123819,127.000000,0.000000,1.901134,0.152222,-70.709694,-26.373587,-7.296756,-3.943651,-2.945904,-17.330194,-24.886242,-5.978930,-17.969124,-4.121736,2.967831,-6.735998,-11.997396,-24.376896,0.988506,-27.339462,-36.720673,-10.668237,-14.522452,-0.227175,-13.633204,-14.124541,-23.417553,-8.030489,-0.983766,-4.627948,4.235757,-2.877208,-10.005905,-16.022190,8064.000000,0.000000,4.000000,,,,0.000000,4.000000,4.000000,4.000000,4.000000,4.000000,4.000000,4.000000,4.000000,4.000000,4.000000,4.000000,4.000000,4.000000,4.000000,4.000000,4.000000,4.000000,4.000000,4.000000,4.000000,4.000000,4.000000,4.000000,4.000000,4.000000,4.000000,4.000000,4.000000,4.000000,4.000000,4.000000,4.000000,100.000000
1614563129.131669,0.000000,0.000000,1.899233,0.152070,-69.100517,-25.321571,-7.289460,-3.426887,-3.455779,-16.800043,-24.348536,-9.049874,-17.951155,-4.630435,2.964864,-6.216442,-18.139246,-25.378160,0.987518,-37.055714,-42.324978,-29.119106,-18.097673,-0.739768,-13.106750,-17.700161,-26.983879,-7.509638,-3.546885,-8.213063,3.205881,-2.874331,-9.995899,-19.083092,0.000000,213.000000,4.000000,,,,0.000000,4.000000,4.000000,4.000000,4.000000,4.000000,4.000000,4.000000,4.000000,4.000000,4.000000,4.000000,4.000000,4.000000,4.000000,4.000000,4.000000,4.000000,4.000000,4.000000,4.000000,4.000000,4.000000,4.000000,4.000000,4.000000,4.000000,4.000000,4.000000,4.000000,4.000000,4.000000,4.000000,100.000000
1614563129.139419,1.000000,0.000000,1.897334,0.151918,-68.005775,-26.834711,-7.282170,-3.423460,-6.016426,-16.783243,-23.298546,-11.092106,-17.933203,-4.112984,2.961899,-10.312790,-22.223671,-26.891243,1.499351,-42.146862,-53.051884,-45.500244,-25.771883,-2.790310,-21.811592,-24.861948,-36.187664,-6.989307,-10.210005,-15.384337,0.638572,-2.871456,-11.011544,-18.551188,0.000000,186.000000,4.000000,,,,0.000000,4.000000,4.000000,4.000000,4.000000,4.000000,4.000000,4.000000,4.000000,4.000000,4.000000,4.000000,4.000000,4.000000,4.000000,4.000000,4.000000,4.000000,4.000000,4.000000,4.000000,4.000000,4.000000,4.000000,4.000000,4.000000,4.000000,4.000000,4.000000,4.000000,4.000000,4.000000,4.000000,100.000000
1614563129.147269,2.000000,0.000000,1.895437,0.151766,-71.014694,-34.500183,-9.838990,-3.420037,-7.036050,-22.407486,-26.864990,-14.157937,-13.812706,-4.108871,2.958937,-9.276835,-19.124523,-16.607941,0.985031,-24.668818,-41.203960,-33.147053,-17.540983,-2.787520,-38.200035,-23.811445,-29.484810,-7.495139,-12.763898,-13.830492,-0.387707,-2.868585,-13.564635,-24.173662,0.000000,186.000000,4.000000,,,,0.000000,4.000000,4.000000,4.000000,4.000000,4.000000,4.000000,4.000000,4.000000,4.000000,4.000000,4.000000,4.000000,4.000000,4.000000,4.000000,4.000000,4.000000,4.000000,4.000000,4.000000,4.000000,4.000000,4.000000,4.000000,4.000000,4.000000,4.000000,4.000000,4.000000,4.000000,4.000000,4.000000,100.000000
1614563129.155019,3.000000,0.000000,1.893541,0.151615,-74.020607,-39.081070,-11.367613,-3.416616,-6.516194,-25.974823,-28.376587,-18.246344,-5.593765,-4.104762,2.955978,-2.088072,-20.643860,-5.309282,4.060969,-9.259533,-15.008911,-10.036982,-1.626006,0.805011,-33.546452,-5.326095,-17.147635,-8.513285,-8.648569,-4.073071,0.638321,-2.865716,-14.063890,-34.918720,0.000000,207.000000,4.000000,,,,0.000000,4.000000,4.000000,4.000000,4.000000,4.000000,4.000000,4.000000,4.000000,4.000000,4.000000,4.000000,4.000000,4.000000,4.000000,4.000000,4.000000,4.000000,4.000000,4.000000,4.000000,4.000000,4.000000,4.000000,4.000000,4.000000,4.000000,4.000000,4.000000,4.000000,4.000000,4.000000,4.000000,100.000000
1614563129.162869,4.000000,0.000000,1.891648,0.151463,-71.382484,-36.990707,-10.843425,-3.413200,-6.509678,-22.871923,-26.809750,-18.740917,-0.459966,-4.100657,3.465842,2.529401,-20.623217,-1.714229,8.672293,-4.634889,0.390713,1.255107,3.503825,3.368309,-9.410341,11.089488,-14.053563,-6.966310,-5.050177,0.033566,0.124862,-2.862851,-13.024186,-35.909443,0.000000,224.000000,4.000000,,,,0.000000,4.000000,4.000000,4.000000,4.000000,4.000000,4.000000,4.000000,4.000000,4.000000,4.000000,4.000000,4.000000,4.000000,4.000000,4.000000,4.000000,4.000000,4.000000,4.000000,4.000000,4.000000,4.000000,4.000000,4.000000,4.000000,4.000000,4.000000,4.000000,4.000000,4.000000,4.000000,4.000000,100.000000
1614563129.170619,5.000000,0.000000,1.889756,0.151311,-75.926483,-37.979355,-10.832582,-2.896966,-6.503168,-25.925976,-32.936787,-19.234997,5.694340,-4.096556,2.949556,2.014051,-3.679517,11.620818,9.689261,13.831285,14.749297,6.894877,2.987500,4.390581,2.906762,13.642501,-11.475407,-6.959343,-4.532307,-1.504929,-3.465006,-2.859988,-13.523982,-31.770967,0.000000,167.000000,4.000000,,,,0.000000,4.000000,4.000000,4.000000,4.000000,4.000000,4.000000,4.000000,4.000000,4.000000,4.000000,4.000000,4.000000,4.000000,4.000000,4.000000,4.000000,4.000000,4.000000,4.000000,4.000000,4.000000,4.000000,4.000000,4.000000,4.000000,4.000000,4.000000,4.000000,4.000000,4.000000,4.000000,4.000000,100.000000
1614563129.178469,6.000000,0.000000,1.887866,0.151160,-83.542862,-38.454197,-10.821749,-3.406890,-6.496665,-29.489794,-40.083336,-18.190121,11.329671,-4.092460,2.946607,2.012037,11.708778,23.916889,9.166752,28.689249,26.529419,13.554649,5.548615,3.360550,1.365393,12.090397,-7.874188,-12.080589,-4.527774,-0.990604,-7.564105,-2.857128,-14.023279,-30.713556,0.000000,195.000000,4.000000,,,,0.000000,4.000000,4.000000,4.000000,4.000000,4.000000,4.000000,4.000000,4.000000,4.000000,4.000000,4.000000,4.000000,4.000000,4.000000,4.000000,4.000000,4.000000,4.000000,4.000000,4.000000,4.000000,4.000000,4.000000,4.000000,4.000000,4.000000,4.000000,4.000000,4.000000,4.000000,4.000000,4.000000,100.000000
1614563129.186219,7.000000,0.000000,1.885978,0.151009,-69.613167,-23.031128,-10.810927,-2.890662,-6.490168,-14.075687,-28.248381,-9.453982,7.728598,-4.088367,3.969301,1.497205,3.491941,16.200665,8.131944,20.455431,25.477249,15.592377,6.568708,4.382830,1.876848,13.616768,-5.815032,-8.991586,-4.010426,-0.476793,-7.556541,-2.854271,-7.342589,-24.016176,0.000000,219.000000,4.000000,,,,0.000000,4.000000,4.000000,4.000000,4.000000,4.000000,4.000000,4.000000,4.000000,4.000000,4.000000,4.000000,4.000000,4.000000,4.000000,4.000000,4.000000,4.000000,4.000000,4.000000,4.000000,4.000000,4.000000,4.000000,4.000000,4.000000,4.000000,4.000000,4.000000,4.000000,4.000000,4.000000,4.000000,100.000000
1614563129.194068,8.000000,0.000000,1.884092,0.150858,-46.466633,-5.572199,-10.800117,-2.887772,-6.483678,5.938388,-10.271415,-0.726580,4.131125,-4.084279,0.888409,-2.606857,-4.203858,8.492157,4.021247,17.358053,23.400490,16.602425,5.536498,4.891268,2.900613,14.115972,1.370271,5.889201,-4.006415,-0.989137,-7.036164,-2.851416,3.433985,-13.735749,0.000000,190.000000,4.000000,,,,0.000000,4.000000,4.000000,4.000000,4.000000,4.000000,4.000000,4.000000,4.000000,4.000000,4.000000,4.000000,4.000000,4.000000,4.000000,4.000000,4.000000,4.000000,4.000000,4.000000,4.000000,4.000000,4.000000,4.000000,4.000000,4.000000,4.000000,4.000000,4.000000,4.000000,4.000000,4.000000,4.000000,100.000000
1614563129.201819,9.000000,0.000000,1.882208,0.150707,-41.804779,-3.515345,-10.789316,-5.961807,-6.477194,1.317065,-8.209861,-1.751494,0.537251,-4.080194,-5.779147,-5.681173,4.518294,7.970844,-3.675081,19.391975,17.736063,18.124285,0.402757,-2.293111,2.897712,7.948009,7.522747,11.011517,-5.028050,-0.988147,-7.029128,-2.848565,9.584396,-9.619450,0.000000,188.000000,4.000000,,,,0.000000,4.000000,4.000000,4.000000,4.000000,4.000000,4.000000,4.000000,4.000000,4.000000,4.000000,4.000000,4.000000,4.000000,4.000000,4.000000,4.000000,4.000000,4.000000,4.000000,4.000000,4.000000,4.000000,4.000000,4.000000,4.000000,4.000000,4.000000,4.000000,4.000000,4.000000,4.000000,4.000000,100.000000
1614563129.209469,10.000000,0.000000,1.880326,0.150556,-46.891182,-7.614394,-10.778527,-10.571230,-6.470717,-13.556047,-13.329856,-6.365127,-14.335081,-4.076115,-9.363111,-7.213953,6.052238,-2.293537,-9.312432,1.936687,-0.230391,12.977955,-5.238672,-11.008766,2.381994,-4.880451,6.489583,0.231275,-3.997381,-1.499980,-7.022099,-2.845716,9.574812,-10.635471,0.000000,190.000000,4.000000,,,,0.000000,4.000000,4.000000,4.000000,4.000000,4.000000,4.000000,4.000000,4.000000,4.000000,4.000000,4.000000,4.000000,4.000000,4.000000,4.000000,4.000000,4.000000,4.000000,4.000000,4.000000,4.000000,4.000000,4.000000,4.000000,4.000000,4.000000,4.000000,4.000000,4.000000,4.000000,4.000000,4.000000,100.000000
1614563129.217219,11.000000,0.000000,1.878446,0.663226,-46.844292,-6.581139,-10.767749,-11.073479,-6.464246,-13.542491,-12.803706,-6.871583,-25.602798,-4.584859,-8.328107,-9.770842,-5.748686,-11.009192,-9.815940,-12.937045,-16.640417,2.195746,-6.771895,-12.023398,-2.748593,-14.106340,8.021555,-7.461265,-3.993384,-0.985659,-7.015077,-2.842871,7.001135,-16.265862,0.000000,216.000000,4.000000,,,,0.000000,4.000000,4.000000,4.000000,4.000000,4.000000,4.000000,4.000000,4.000000,4.000000,4.000000,4.000000,4.000000,4.000000,4.000000,4.000000,4.000000,4.000000,4.000000,4.000000,4.000000,4.000000,4.000000,4.000000,4.000000,4.000000,4.000000,4.000000,4.000000,4.000000,4.000000,4.000000,4.000000,100.000000
1614563129.224869,12.000000,0.000000,1.876567,0.662563,-47.823086,-7.087378,-10.756981,-10.549585,-6.457782,-5.836641,-11.252440,-6.864711,-22.500271,-4.067453,-7.806958,-9.761071,-10.358322,-13.562285,-10.318945,-18.565134,-35.085316,-7.037219,-10.867687,-11.498554,-9.412512,-19.733259,5.449430,-6.428162,-8.604775,-0.984674,-7.008061,-2.327207,3.917211,-21.377800,0.000000,225.000000,4.000000,,,,0.000000,4.000000,4.000000,4.000000,4.000000,4.000000,4.000000,4.000000,4.000000,4.000000,4.000000,4.000000,4.000000,4.000000,4.000000,4.000000,4.000000,4.000000,4.000000,4.000000,4.000000,4.000000,4.000000,4.000000,4.000000,4.000000,4.000000,4.000000,4.000000,4.000000,4.000000,4.000000,4.000000,100.000000
1614563129.232619,13.000000,0.000000,1.361870,0.149080,-48.800903,-10.670034,-10.746223,-10.539036,-6.451324,-4.292343,-12.266829,-7.370667,-21.964951,-4.063386,-8.824792,-10.776951,-7.783862,-22.266672,-13.898369,-35.982464,-53.511768,-9.081464,-17.010666,-11.999877,-10.428740,-27.918653,-7.376532,-6.934555,-10.134632,-2.009330,-7.001053,-2.837701,1.862011,-19.305141,0.000000,186.000000,4.000000,,,,0.000000,4.000000,4.000000,4.000000,4.000000,4.000000,4.000000,4.000000,4.000000,4.000000,4.000000,4.000000,4.000000,4.000000,4.000000,4.000000,4.000000,4.000000,4.000000,4.000000,4.000000,4.000000,4.000000,4.000000,4.000000,4.000000,4.000000,4.000000,4.000000,4.000000,4.000000,4.000000,4.000000,100.000000
1614563129.240269,14.000000,0.000000,2.386149,0.661751,-50.290565,-11.685005,-10.735477,-11.041317,-6.444873,-7.877794,-13.280203,-7.363296,-26.045549,-4.572143,-7.277506,-13.843097,-8.801719,-29.936712,-12.858829,-47.228535,-49.868511,-10.610844,-19.557756,-6.346851,-9.392670,-30.454838,-11.471719,-7.440441,-6.021933,0.556782,-7.506873,-2.834863,1.347329,-22.362759,0.000000,201.000000,4.000000,,,,0.000000,4.000000,4.000000,4.000000,4.000000,4.000000,4.000000,4.000000,4.000000,4.000000,4.000000,4.000000,4.000000,4.000000,4.000000,4.000000,4.000000,4.000000,4.000000,4.000000,4.000000,4.000000,4.000000,4.000000,4.000000,4.000000,4.000000,4.000000,4.000000,4.000000,4.000000,4.000000,4.000000,100.000000
1614563129.248019,15.000000,0.000000,4.435045,1.173910,-55.368481,-13.211782,-10.724742,-10.517455,-6.438428,-8.895557,-14.292564,-7.868753,-15.763094,-3.541930,-3.167664,-11.777972,-8.280096,-23.240110,-6.179304,-31.283871,-29.818644,-11.113053,-17.486917,1.864624,-9.383278,-22.219255,-1.716658,-7.433000,-3.451808,5.171610,-6.986546,-1.806387,0.320341,-28.494242,0.000000,203.000000,4.000000,,,,0.000000,4.000000,4.000000,4.000000,4.000000,4.000000,4.000000,4.000000,4.000000,4.000000,4.000000,4.000000,4.000000,4.000000,4.000000,4.000000,4.000000,4.000000,4.000000,4.000000,4.000000,4.000000,4.000000,4.000000,4.000000,4.000000,4.000000,4.000000,4.000000,4.000000,4.000000,4.000000,4.000000,100.000000
1614563129.255669,16.000000,0.000000,5.969072,-6.006751,-58.390034,-18.326775,-10.714017,-10.506938,-5.919169,-8.886662,-15.816733,-10.424987,2.201387,1.076997,1.963709,-2.022604,-3.656432,-7.319434,-1.557740,-8.688483,-9.276005,0.692931,-5.674559,4.426862,-7.322612,-8.350882,4.438905,-15.117875,-4.986818,7.217720,-6.466738,-4.881504,-1.731262,-30.004210,0.000000,182.000000,4.000000,,,,0.000000,4.000000,4.000000,4.000000,4.000000,4.000000,4.000000,4.000000,4.000000,4.000000,4.000000,4.000000,4.000000,4.000000,4.000000,4.000000,4.000000,4.000000,4.000000,4.000000,4.000000,4.000000,4.000000,4.000000,4.000000,4.000000,4.000000,4.000000,4.000000,4.000000,4.000000,4.000000,4.000000,100.000000
1614563129.263419,17.000000,0.000000,5.450282,-16.257154,-66.023949,-25.487936,-10.703303,-9.983610,-6.938891,-14.005980,-24.518866,-11.440203,13.481236,3.640022,5.038668,5.158906,-0.575852,14.226347,-0.017721,11.320205,15.348656,17.102495,10.741372,6.473717,-5.264008,9.093367,2.383184,-25.359167,-4.981832,6.697682,-7.998733,-9.492007,-4.806454,-39.717796,0.000000,200.000000,4.000000,,,,0.000000,4.000000,4.000000,4.000000,4.000000,4.000000,4.000000,4.000000,4.000000,4.000000,4.000000,4.000000,4.000000,4.000000,4.000000,4.000000,4.000000,4.000000,4.000000,4.000000,4.000000,4.000000,4.000000,4.000000,4.000000,4.000000,4.000000,4.000000,4.000000,4.000000,4.000000,4.000000,4.000000,100.000000
1614563129.271069,18.000000,0.000000,5.444832,-18.292179,-76.727158,-30.077831,-10.692600,-10.999268,-5.906311,-20.145821,-35.776398,-10.915942,17.057499,3.123562,7.084911,5.666567,1.476006,29.083916,2.033579,27.719141,33.282024,22.213598,17.910118,7.492885,-3.207461,22.417606,2.380801,-25.333809,-4.464029,6.178164,-4.913811,-10.508156,-8.904211,-48.396027,0.000000,166.000000,4.000000,,,,0.000000,4.000000,4.000000,4.000000,4.000000,4.000000,4.000000,4.000000,4.000000,4.000000,4.000000,4.000000,4.000000,4.000000,4.000000,4.000000,4.000000,4.000000,4.000000,4.000000,4.000000,4.000000,4.000000,4.000000,4.000000,4.000000,4.000000,4.000000,4.000000,4.000000,4.000000,4.000000,4.000000,100.000000
1614563129.278819,19.000000,0.000000,5.439387,-14.684143,-69.983765,-29.022114,-10.681908,-10.475448,-2.823482,-20.638494,-33.689339,-10.905026,17.553263,3.633259,6.565006,5.660901,2.500171,24.952269,2.031545,23.076036,34.787205,20.652922,16.353746,7.998212,-1.665792,24.959291,3.916882,-19.154629,-3.946744,6.684806,2.783410,-9.984827,-9.920948,-31.937372,0.000000,185.000000,4.000000,,,,0.000000,4.000000,4.000000,4.000000,4.000000,4.000000,4.000000,4.000000,4.000000,4.000000,4.000000,4.000000,4.000000,4.000000,4.000000,4.000000,4.000000,4.000000,4.000000,4.000000,4.000000,4.000000,4.000000,4.000000,4.000000,4.000000,4.000000,4.000000,4.000000,4.000000,4.000000,4.000000,4.000000,100.000000
1614563129.286470,20.000000,0.000000,5.946768,-14.156639,-58.631729,-25.916168,-10.671226,-9.439331,-5.384761,-20.105036,-25.450521,-10.894121,14.971606,3.629625,4.507159,5.655240,3.523312,16.209368,2.029514,13.309372,34.752419,20.632269,15.824573,7.990214,-1.664127,23.908691,3.400144,-18.109833,-3.942798,7.190942,2.780627,-9.974842,-9.398207,-15.495179,0.000000,197.000000,4.000000,,,,0.000000,4.000000,4.000000,4.000000,4.000000,4.000000,4.000000,4.000000,4.000000,4.000000,4.000000,4.000000,4.000000,4.000000,4.000000,4.000000,4.000000,4.000000,4.000000,4.000000,4.000000,4.000000,4.000000,4.000000,4.000000,4.000000,4.000000,4.000000,4.000000,4.000000,4.000000,4.000000,4.000000,100.000000
1614563129.294220,21.000000,0.000000,4.402360,-15.168123,-67.803871,-25.890251,-10.660554,-13.019635,-12.046042,-20.597752,-26.450712,-10.883227,9.315609,3.113175,1.938549,3.598302,6.083891,16.705978,2.027484,18.424267,30.102280,21.124458,17.347210,4.392480,-1.662462,24.910423,3.396744,-18.604544,-4.964496,4.106828,-2.863180,-10.477688,-9.901628,-20.607889,0.000000,198.000000,4.000000,,,,0.000000,4.000000,4.000000,4.000000,4.000000,4.000000,4.000000,4.000000,4.000000,4.000000,4.000000,4.000000,4.000000,4.000000,4.000000,4.000000,4.000000,4.000000,4.000000,4.000000,4.000000,4.000000,4.000000,4.000000,4.000000,4.000000,4.000000,4.000000,4.000000,4.000000,4.000000,4.000000,4.000000,100.000000
1614563129.301870,22.000000,0.000000,1.833855,-14.640135,-75.428368,-26.377182,-10.649894,-17.109180,-14.598100,-16.474590,-26.937082,-10.872344,0.588345,3.622883,-0.114672,1.543422,6.590628,10.535426,-0.025825,14.303279,11.097819,21.616154,16.304220,-4.329861,-1.660800,15.654743,3.393347,-15.509015,-3.421070,-0.512664,-3.885957,-9.954390,-9.378907,-22.638563,0.000000,165.000000,4.000000,,,,0.000000,4.000000,4.000000,4.000000,4.000000,4.000000,4.000000,4.000000,4.000000,4.000000,4.000000,4.000000,4.000000,4.000000,4.000000,4.000000,4.000000,4.000000,4.000000,4.000000,4.000000,4.000000,4.000000,4.000000,4.000000,4.000000,4.000000,4.000000,4.000000,4.000000,4.000000,4.000000,4.000000,100.000000
1614563129.309720,23.000000,0.000000,1.319201,-13.599854,-64.070892,-25.837984,-10.639244,-14.527968,-13.557860,-13.381192,-21.269119,-10.348651,-6.078910,2.080798,-1.140198,0.516237,2.481473,-3.834084,-2.077082,-6.223845,-4.810715,16.979153,6.544327,-8.428096,-2.171960,0.254474,3.389954,-13.442225,-0.853546,-2.050612,-2.856431,-9.944435,-8.856708,-23.641565,0.000000,206.000000,4.000000,,,,0.000000,4.000000,4.000000,4.000000,4.000000,4.000000,4.000000,4.000000,4.000000,4.000000,4.000000,4.000000,4.000000,4.000000,4.000000,4.000000,4.000000,4.000000,4.000000,4.000000,4.000000,4.000000,4.000000,4.000000,4.000000,4.000000,4.000000,4.000000,4.000000,4.000000,4.000000,4.000000,4.000000,100.000000
1614563129.317470,24.000000,0.000000,1.830702,-14.099074,-58.878616,-25.812147,-10.628605,-9.385235,-13.544302,-16.957554,-21.760670,-11.876764,-6.585652,-2.536667,-0.626237,-3.074022,2.478991,-9.471275,-2.587825,-16.474031,-16.600775,4.654481,-4.744269,-7.906847,-1.144147,-8.463730,2.360923,-13.941603,-4.955257,-1.022921,-3.366395,-9.934491,-10.386312,-33.361515,0.000000,203.000000,4.000000,,,,0.000000,4.000000,4.000000,4.000000,4.000000,4.000000,4.000000,4.000000,4.000000,4.000000,4.000000,4.000000,4.000000,4.000000,4.000000,4.000000,4.000000,4.000000,4.000000,4.000000,4.000000,4.000000,4.000000,4.000000,4.000000,4.000000,4.000000,4.000000,4.000000,4.000000,4.000000,4.000000,4.000000,100.000000
1614563129.325320,25.000000,0.000000,1.316051,-14.597795,-60.358200,-25.786335,-10.617976,-11.427132,-14.043578,-19.504700,-27.379936,-13.916169,-6.579066,-5.098233,-1.138431,-5.635051,4.014974,-6.897702,-2.072417,-13.893455,-30.943150,-3.555301,-7.816448,-7.386119,-3.707105,-12.557830,-2.256823,-14.440481,-11.616968,-1.021898,-3.875849,-9.924557,-11.401567,-31.276871,0.000000,181.000000,4.000000,,,,0.000000,4.000000,4.000000,4.000000,4.000000,4.000000,4.000000,4.000000,4.000000,4.000000,4.000000,4.000000,4.000000,4.000000,4.000000,4.000000,4.000000,4.000000,4.000000,4.000000,4.000000,4.000000,4.000000,4.000000,4.000000,4.000000,4.000000,4.000000,4.000000,4.000000,4.000000,4.000000,4.000000,100.000000
1614563129.333070,26.000000,0.000000,2.340376,-13.557557,-55.682457,-25.247728,-10.607358,-14.492628,-13.516714,-19.485195,-27.865376,-14.927895,-9.649410,-2.529032,-0.624472,-6.142236,-2.142887,-6.890804,-2.070344,-15.418023,-37.578873,-7.141490,-7.808631,-7.891554,-9.857244,-20.237579,-7.895591,-13.913220,-12.118172,-1.533697,-3.359152,-9.914632,-9.851704,-18.425081,0.000000,198.000000,4.000000,,,,0.000000,4.000000,4.000000,4.000000,4.000000,4.000000,4.000000,4.000000,4.000000,4.000000,4.000000,4.000000,4.000000,4.000000,4.000000,4.000000,4.000000,4.000000,4.000000,4.000000,4.000000,4.000000,4.000000,4.000000,4.000000,4.000000,4.000000,4.000000,4.000000,4.000000,4.000000,4.000000,4.000000,100.000000
1614563129.340920,27.000000,0.000000,5.414958,-10.979897,-54.601131,-25.735300,-10.596750,-13.965315,-13.503198,-20.491350,-26.299049,-14.912967,-10.152581,-0.475221,1.940255,-5.623273,-8.294591,-7.909554,-2.068274,-20.017990,-37.541294,-14.826655,-10.364925,-7.883662,-13.437131,-21.755804,-12.503080,-14.412127,-11.080413,-1.019342,-3.355793,-9.904717,-9.329032,-17.381014,0.000000,204.000000,4.000000,,,,0.000000,4.000000,4.000000,4.000000,4.000000,4.000000,4.000000,4.000000,4.000000,4.000000,4.000000,4.000000,4.000000,4.000000,4.000000,4.000000,4.000000,4.000000,4.000000,4.000000,4.000000,4.000000,4.000000,4.000000,4.000000,4.000000,4.000000,4.000000,4.000000,4.000000,4.000000,4.000000,4.000000,100.000000
1614563129.348670,28.000000,0.000000,5.922364,-9.943275,-54.033710,-25.196745,-10.586154,-13.438529,-10.925592,-17.393936,-27.811211,-13.359591,-7.065506,-0.474746,3.476776,-5.617651,-6.747834,-7.901645,-2.066206,-19.485151,-35.965290,-18.914392,-10.867380,-7.362958,-12.910873,-14.041740,-11.977757,-14.397716,-11.582152,-1.018323,-3.352437,-9.894813,-8.806882,-18.902096,0.000000,203.000000,4.000000,,,,0.000000,4.000000,4.000000,4.000000,4.000000,4.000000,4.000000,4.000000,4.000000,4.000000,4.000000,4.000000,4.000000,4.000000,4.000000,4.000000,4.000000,4.000000,4.000000,4.000000,4.000000,4.000000,4.000000,4.000000,4.000000,4.000000,4.000000,4.000000,4.000000,4.000000,4.000000,4.000000,4.000000,100.000000
1614563129.356520,29.000000,0.000000,5.403621,-10.446153,-47.313011,-23.120266,-10.575567,-13.937911,-7.837743,-13.273978,-27.270580,-11.294950,-5.519979,-0.987092,2.960479,-5.612033,-7.253907,-6.868102,-2.064140,-17.414383,-24.647274,-12.741632,-9.830873,-4.791492,-13.410783,-8.899493,-8.888856,-14.383318,-12.083391,-0.504484,-3.349085,-9.884918,-8.798075,-18.370373,0.000000,172.000000,4.000000,,,,0.000000,4.000000,4.000000,4.000000,4.000000,4.000000,4.000000,4.000000,4.000000,4.000000,4.000000,4.000000,4.000000,4.000000,4.000000,4.000000,4.000000,4.000000,4.000000,4.000000,4.000000,4.000000,4.000000,4.000000,4.000000,4.000000,4.000000,4.000000,4.000000,4.000000,4.000000,4.000000,4.000000,100.000000
1614563129.364270,30.000000,0.000000,6.423859,-10.435707,-49.316978,-21.045864,-10.564992,-13.923973,-5.778624,-20.440191,-24.166386,-10.258015,-5.514459,-0.473284,2.957518,-6.119241,-12.374858,-6.861234,-1.549255,-18.422609,-16.930319,-9.651968,-9.821041,-3.248240,-13.397372,-9.916235,-9.905608,-14.368935,-11.558487,-1.016800,-3.345736,-9.875032,-13.917482,-27.069950,0.000000,173.000000,4.000000,,,,0.000000,4.000000,4.000000,4.000000,4.000000,4.000000,4.000000,4.000000,4.000000,4.000000,4.000000,4.000000,4.000000,4.000000,4.000000,4.000000,4.000000,4.000000,4.000000,4.000000,4.000000,4.000000,4.000000,4.000000,4.000000,4.000000,4.000000,4.000000,4.000000,4.000000,4.000000,4.000000,4.000000,100.000000
1614563129.372119,31.000000,0.000000,4.366153,-9.912451,-56.447151,-23.588921,-10.554427,-13.910049,-6.285666,-27.599237,-23.116579,-10.760577,-6.021765,-0.985632,2.954561,-5.600301,-13.388124,-8.392834,-3.086167,-18.404188,-16.913389,-8.616674,-10.324040,-4.270632,-12.871154,-11.444780,-11.946984,-14.354566,-11.546928,-1.015783,-3.342390,-9.865158,-16.467667,-31.658266,0.000000,163.000000,4.000000,,,,0.000000,4.000000,4.000000,4.000000,4.000000,4.000000,4.000000,4.000000,4.000000,4.000000,4.000000,4.000000,4.000000,4.000000,4.000000,4.000000,4.000000,4.000000,4.000000,4.000000,4.000000,4.000000,4.000000,4.000000,4.000000,4.000000,4.000000,4.000000,4.000000,4.000000,4.000000,4.000000,4.000000,100.000000
1614563129.379870,32.000000,0.000000,2.310504,-10.415359,-53.313778,-25.616613,-10.543873,-13.896139,-6.279380,-26.033176,-23.606283,-10.749816,-6.015743,-0.984646,2.951606,-5.594701,-8.246531,-4.281877,-4.621542,-6.078091,-0.486219,6.776557,-8.775255,-3.240721,-13.371103,-5.792310,-5.268371,-14.340211,-11.535381,-0.501947,-3.339048,-9.855292,-11.835815,-24.959940,8064.000000,0.000000,4.000000,,,,0.000000,4.000000,4.000000,4.000000,4.000000,4.000000,4.000000,4.000000,4.000000,4.000000,4.000000,4.000000,4.000000,4.000000,4.000000,4.000000,4.000000,4.000000,4.000000,4.000000,4.000000,4.000000,4.000000,4.000000,4.000000,4.000000,4.000000,4.000000,4.000000,4.000000,4.000000,4.000000,4.000000,100.000000
1614563129.387719,33.000000,0.000000,2.308194,-10.404943,-48.132259,-24.565355,-10.533329,-13.882243,-5.760280,-24.468683,-23.582676,-11.251887,-4.471266,2.606082,2.948654,-6.101927,4.582228,7.004456,-5.642562,11.876705,22.078369,27.282600,-6.202377,-3.237480,-12.332091,3.444252,2.942026,-14.325871,-11.523847,-1.014266,-3.335709,-9.845437,-8.747056,-22.370878,8064.000000,0.000000,4.000000,,,,0.000000,4.000000,4.000000,4.000000,4.000000,4.000000,4.000000,4.000000,4.000000,4.000000,4.000000,4.000000,4.000000,4.000000,4.000000,4.000000,4.000000,4.000000,4.000000,4.000000,4.000000,4.000000,4.000000,4.000000,4.000000,4.000000,4.000000,4.000000,4.000000,4.000000,4.000000,4.000000,4.000000,100.000000
1614563129.395469,34.000000,0.000000,-0.258217,-10.394538,-47.571308,-22.489508,-10.522796,-13.868361,-6.267340,-19.828829,-23.046274,-10.214994,-4.979615,3.116297,3.971347,-5.070184,18.423800,14.689759,-8.713842,19.044315,24.107573,29.306601,-7.221816,-9.900909,-7.191554,5.492089,2.939084,-14.311545,-10.999502,-5.115816,-2.819552,-9.835592,-8.738309,-19.784405,8064.000000,0.000000,4.000000,,,,0.000000,4.000000,4.000000,4.000000,4.000000,4.000000,4.000000,4.000000,4.000000,4.000000,4.000000,4.000000,4.000000,4.000000,4.000000,4.000000,4.000000,4.000000,4.000000,4.000000,4.000000,4.000000,4.000000,4.000000,4.000000,4.000000,4.000000,4.000000,4.000000,4.000000,4.000000,4.000000,4.000000,100.000000
1614563129.403319,35.000000,0.000000,-5.386164,-10.896964,-45.472454,-19.390095,-9.999452,-13.854492,-6.261073,-9.039770,-23.023228,-9.691958,-6.000277,2.600360,3.454555,0.063091,22.507940,12.110967,-13.320514,15.948348,19.468081,15.943961,-8.753056,-14.506392,-5.133080,1.896854,0.884863,-14.297234,-10.475682,-8.187623,-4.355195,-9.825756,-7.703930,-12.585134,8064.000000,0.000000,4.000000,,,,0.000000,4.000000,4.000000,4.000000,4.000000,4.000000,4.000000,4.000000,4.000000,4.000000,4.000000,4.000000,4.000000,4.000000,4.000000,4.000000,4.000000,4.000000,4.000000,4.000000,4.000000,4.000000,4.000000,4.000000,4.000000,4.000000,4.000000,4.000000,4.000000,4.000000,4.000000,4.000000,4.000000,100.000000
1614563129.411069,36.000000,0.000000,-5.893598,-9.860426,-44.914162,-15.780962,-9.989452,-13.327817,-6.254812,-8.005089,-23.513023,-11.733548,1.698032,10.290068,2.938280,3.139951,22.485432,11.586036,-12.794373,16.445221,15.346048,8.748529,-9.769944,-10.389322,-8.717690,2.407777,-0.141663,-14.795756,-11.490848,-8.692256,-6.402121,-9.815930,-9.747508,-11.546907,8064.000000,0.000000,4.000000,,,,0.000000,4.000000,4.000000,4.000000,4.000000,4.000000,4.000000,4.000000,4.000000,4.000000,4.000000,4.000000,4.000000,4.000000,4.000000,4.000000,4.000000,4.000000,4.000000,4.000000,4.000000,4.000000,4.000000,4.000000,4.000000,4.000000,4.000000,4.000000,4.000000,4.000000,4.000000,4.000000,4.000000,100.000000
1614563129.418720,37.000000,0.000000,-1.785140,-7.799284,-43.843605,-14.226720,-11.005104,-9.724746,-6.248557,-10.048366,-22.976690,-7.106431,12.978385,18.997726,4.473803,5.188094,21.437305,15.164193,-9.191834,16.941595,-0.053913,10.791063,-9.760174,-6.276369,-9.221794,1.379729,-0.141522,-13.242499,-10.966536,-6.632281,-4.344437,-9.806114,-7.686478,-11.535360,8064.000000,0.000000,4.000000,,,,0.000000,4.000000,4.000000,4.000000,4.000000,4.000000,4.000000,4.000000,4.000000,4.000000,4.000000,4.000000,4.000000,4.000000,4.000000,4.000000,4.000000,4.000000,4.000000,4.000000,4.000000,4.000000,4.000000,4.000000,4.000000,4.000000,4.000000,4.000000,4.000000,4.000000,4.000000,4.000000,4.000000,100.000000
1614563129.426470,38.000000,0.000000,-2.296176,-6.253023,-40.722839,-13.186852,-9.968458,-5.612457,-5.729488,2.269375,-20.389612,3.669907,6.811560,15.388985,2.930868,6.721367,9.108176,3.866977,-8.669822,2.052859,-15.951295,3.600785,-8.211952,-6.782913,-7.674110,-4.775497,1.397081,-10.665154,-10.442749,-9.189752,-2.801631,-9.796309,0.013516,-8.959723,8064.000000,0.000000,4.000000,,,,0.000000,4.000000,4.000000,4.000000,4.000000,4.000000,4.000000,4.000000,4.000000,4.000000,4.000000,4.000000,4.000000,4.000000,4.000000,4.000000,4.000000,4.000000,4.000000,4.000000,4.000000,4.000000,4.000000,4.000000,4.000000,4.000000,4.000000,4.000000,4.000000,4.000000,4.000000,4.000000,4.000000,100.000000
1614563129.434120,39.000000,0.000000,-6.909264,-6.759591,-47.348782,-15.224947,-9.958489,-7.145306,-7.262220,1.241464,-19.343580,-2.487609,-12.682430,6.142827,-7.328474,-0.464842,-4.747086,-22.803556,-10.712434,-27.179962,-28.243036,-17.428457,-11.280663,-10.365873,-11.769000,-11.437388,-4.245341,-10.141668,-16.073332,-17.385691,-5.875752,-9.786512,-6.653164,-14.591788,8064.000000,0.000000,4.000000,,,,0.000000,4.000000,4.000000,4.000000,4.000000,4.000000,4.000000,4.000000,4.000000,4.000000,4.000000,4.000000,4.000000,4.000000,4.000000,4.000000,4.000000,4.000000,4.000000,4.000000,4.000000,4.000000,4.000000,4.000000,4.000000,4.000000,4.000000,4.000000,4.000000,4.000000,4.000000,4.000000,4.000000,100.000000
1614563129.441870,40.000000,0.000000,-9.979278,-6.752831,-60.634769,-23.414850,-14.563916,-12.779186,-9.819060,-24.400803,-21.888340,-20.946661,-21.387697,1.008479,-16.039093,-15.336172,-9.357723,-40.216652,-12.753004,-45.614323,-47.189152,-30.231541,-22.551434,-13.945251,-16.372616,-20.656721,-23.215454,-11.157168,-24.262386,-24.034971,-7.408339,-9.776726,-23.569588,-22.269505,8064.000000,0.000000,4.000000,,,,0.000000,4.000000,4.000000,4.000000,4.000000,4.000000,4.000000,4.000000,4.000000,4.000000,4.000000,4.000000,4.000000,4.000000,4.000000,4.000000,4.000000,4.000000,4.000000,4.000000,4.000000,4.000000,4.000000,4.000000,4.000000,4.000000,4.000000,4.000000,4.000000,4.000000,4.000000,4.000000,4.000000,100.000000
1614563129.449520,41.000000,0.000000,-8.943658,-6.233257,-64.676697,-29.545282,-17.626274,-14.304869,-10.322062,-35.145634,-23.404913,-27.592381,-20.340668,-1.556633,-16.023054,-21.474682,-15.502212,-37.099510,-12.740251,-43.004604,-54.834270,-28.662848,-28.682728,-14.956947,-17.381884,-28.328371,-36.012753,-10.633190,-26.802227,-22.985294,-6.888110,-9.766949,-29.187044,-25.836979,8064.000000,0.000000,4.000000,,,,0.000000,4.000000,4.000000,4.000000,4.000000,4.000000,4.000000,4.000000,4.000000,4.000000,4.000000,4.000000,4.000000,4.000000,4.000000,4.000000,4.000000,4.000000,4.000000,4.000000,4.000000,4.000000,4.000000,4.000000,4.000000,4.000000,4.000000,4.000000,4.000000,4.000000,4.000000,4.000000,4.000000,100.000000
1614563129.457270,42.000000,0.000000,-8.934714,-6.739845,-61.022278,-30.028557,-15.044546,-13.777743,-9.798919,-23.315615,-23.381508,-26.026327,-20.320328,-3.606358,-15.494211,-17.863462,-20.614914,-32.447025,-12.727510,-38.859035,-46.061485,-28.634186,-28.654045,-14.429170,-17.364502,-29.325684,-32.899818,-10.109736,-26.775425,-22.449490,-6.881221,-9.244362,-28.132215,-29.913706,8064.000000,0.000000,4.000000,,,,0.000000,4.000000,4.000000,4.000000,4.000000,4.000000,4.000000,4.000000,4.000000,4.000000,4.000000,4.000000,4.000000,4.000000,4.000000,4.000000,4.000000,4.000000,4.000000,4.000000,4.000000,4.000000,4.000000,4.000000,4.000000,4.000000,4.000000,4.000000,4.000000,4.000000,4.000000,4.000000,4.000000,100.000000
1614563129.464920,43.000000,0.000000,-9.951421,-6.733105,-55.320229,-29.998528,-14.003860,-14.276786,-10.301941,-18.676914,-23.870947,-24.461838,-21.325649,-6.166854,-15.478717,-17.332779,-13.927633,-31.388939,-13.227604,-37.794537,-38.323116,-23.990166,-29.138212,-15.953202,-19.911240,-30.834820,-24.661789,-11.125268,-24.697367,-24.478321,-6.874340,-10.260758,-25.539982,-26.294048,8064.000000,0.000000,4.000000,,,,0.000000,4.000000,4.000000,4.000000,4.000000,4.000000,4.000000,4.000000,4.000000,4.000000,4.000000,4.000000,4.000000,4.000000,4.000000,4.000000,4.000000,4.000000,4.000000,4.000000,4.000000,4.000000,4.000000,4.000000,4.000000,4.000000,4.000000,4.000000,4.000000,4.000000,4.000000,4.000000,4.000000,100.000000
1614563129.472670,44.000000,0.000000,-8.403008,-6.726372,-46.546959,-22.276222,-13.477036,-12.724048,-9.778818,-18.145418,-21.795794,-14.180966,-19.765862,-4.622226,-12.386315,-16.802626,-6.734219,-19.049856,-13.214376,-23.910587,-25.464281,-4.478997,-22.955229,-14.911608,-21.429790,-26.188601,-17.970461,-7.524399,-17.493183,-16.761536,-4.816184,-10.250498,-11.668287,-11.395959,8064.000000,0.000000,4.000000,,,,0.000000,4.000000,4.000000,4.000000,4.000000,4.000000,4.000000,4.000000,4.000000,4.000000,4.000000,4.000000,4.000000,4.000000,4.000000,4.000000,4.000000,4.000000,4.000000,4.000000,4.000000,4.000000,4.000000,4.000000,4.000000,4.000000,4.000000,4.000000,4.000000,4.000000,4.000000,4.000000,4.000000,100.000000
1614563129.480320,45.000000,0.000000,-3.266399,-6.719646,-38.808105,-8.920612,-9.873816,-8.095940,-7.204937,-8.896502,-15.107331,-1.346272,-11.540967,7.177268,-11.861108,-9.606337,-0.573638,3.020475,-12.688341,-1.322574,-2.874715,10.397277,-11.650222,-10.794132,-16.280155,-9.239335,-12.311464,-1.363029,-11.321843,-2.898620,-3.272906,-6.137683,-0.887388,-1.640973,8064.000000,0.000000,4.000000,,,,0.000000,4.000000,4.000000,4.000000,4.000000,4.000000,4.000000,4.000000,4.000000,4.000000,4.000000,4.000000,4.000000,4.000000,4.000000,4.000000,4.000000,4.000000,4.000000,4.000000,4.000000,4.000000,4.000000,4.000000,4.000000,4.000000,4.000000,4.000000,4.000000,4.000000,4.000000,4.000000,4.000000,100.000000
1614563129.488070,46.000000,0.000000,-0.699030,-6.712926,-36.205196,-7.373230,-6.274198,-6.036561,-5.659270,-5.810683,-11.502481,1.219176,-1.273016,14.349578,-10.310785,-5.494166,13.785910,14.299506,-13.188474,6.371056,5.333288,10.386880,-8.561648,-11.808979,-7.033106,-3.589070,-10.760691,-0.336025,-10.284881,-0.844440,-2.756813,-2.028981,-4.989065,-3.690614,8064.000000,0.000000,4.000000,,,,0.000000,4.000000,4.000000,4.000000,4.000000,4.000000,4.000000,4.000000,4.000000,4.000000,4.000000,4.000000,4.000000,4.000000,4.000000,4.000000,4.000000,4.000000,4.000000,4.000000,4.000000,4.000000,4.000000,4.000000,4.000000,4.000000,4.000000,4.000000,4.000000,4.000000,4.000000,4.000000,4.000000,100.000000
1614563129.495720,47.000000,0.000000,-2.236793,-6.706213,-37.707451,-13.006883,-6.267924,-6.543345,-6.166431,-11.958719,-13.542260,0.192316,1.805180,6.642921,-3.633808,-4.463031,23.002893,11.721104,-12.662464,4.826223,3.276672,9.350852,-9.065907,-9.745888,-3.949150,-5.636763,-9.724289,-4.438252,-11.300237,-4.433339,-3.779697,-2.539773,-8.573819,-12.404873,8064.000000,0.000000,4.000000,,,,0.000000,4.000000,4.000000,4.000000,4.000000,4.000000,4.000000,4.000000,4.000000,4.000000,4.000000,4.000000,4.000000,4.000000,4.000000,4.000000,4.000000,4.000000,4.000000,4.000000,4.000000,4.000000,4.000000,4.000000,4.000000,4.000000,4.000000,4.000000,4.000000,4.000000,4.000000,4.000000,4.000000,100.000000
1614563129.503470,48.000000,0.000000,-1.721735,-6.699507,-40.746666,-12.481055,-6.774477,-6.536802,-6.160265,-12.972402,-16.605640,3.781868,8.982862,4.072176,0.985210,1.182458,21.954248,17.350409,-8.034417,16.103449,10.452883,13.444065,-0.338892,1.545909,-6.509304,11.291951,-8.176104,-6.997917,-11.288937,0.186479,-2.750276,-2.537233,-8.565246,-18.033493,8064.000000,0.000000,4.000000,,,,0.000000,4.000000,4.000000,4.000000,4.000000,4.000000,4.000000,4.000000,4.000000,4.000000,4.000000,4.000000,4.000000,4.000000,4.000000,4.000000,4.000000,4.000000,4.000000,4.000000,4.000000,4.000000,4.000000,4.000000,4.000000,4.000000,4.000000,4.000000,4.000000,4.000000,4.000000,4.000000,4.000000,100.000000
1614563129.511121,49.000000,0.000000,1.356909,-6.692807,-37.116177,-8.878831,-6.254881,-6.530265,-6.154105,-11.420967,-14.537753,5.829368,22.307213,12.273232,-0.554236,6.822301,24.496397,26.051006,-2.385357,23.779652,12.493712,14.456262,7.353754,7.698209,-1.887410,24.101171,-6.629466,-6.478098,-9.226365,3.263216,-0.696244,0.542228,-8.043860,-10.323153,8064.000000,0.000000,4.000000,,,,0.000000,4.000000,4.000000,4.000000,4.000000,4.000000,4.000000,4.000000,4.000000,4.000000,4.000000,4.000000,4.000000,4.000000,4.000000,4.000000,4.000000,4.000000,4.000000,4.000000,4.000000,4.000000,4.000000,4.000000,4.000000,4.000000,4.000000,4.000000,4.000000,4.000000,4.000000,4.000000,4.000000,100.000000
1614563129.518871,50.000000,0.000000,2.381193,-6.686114,-30.412394,-9.382772,-6.248627,-4.472453,-6.147951,-11.922367,-11.446293,1.720974,20.746445,14.825061,-0.553682,7.328300,23.959082,12.178802,-1.357331,11.448180,-1.877756,9.826421,4.269477,2.049485,5.806785,9.718096,-6.110016,-6.471621,-7.165857,-2.381073,0.842914,2.080147,-4.446073,0.456402,8064.000000,0.000000,4.000000,,,,0.000000,4.000000,4.000000,4.000000,4.000000,4.000000,4.000000,4.000000,4.000000,4.000000,4.000000,4.000000,4.000000,4.000000,4.000000,4.000000,4.000000,4.000000,4.000000,4.000000,4.000000,4.000000,4.000000,4.000000,4.000000,4.000000,4.000000,4.000000,4.000000,4.000000,4.000000,4.000000,4.000000,100.000000
1614563129.526521,51.000000,0.000000,1.865992,-6.679428,-29.869160,-11.424671,-6.755198,-2.929519,-5.628983,-12.936086,-12.460487,-3.921772,11.494928,12.758954,0.472513,5.782509,14.704352,-8.346197,-1.868794,-2.409421,-11.619468,6.226851,-1.375818,-0.516667,2.211235,-3.112135,-11.232111,-6.977969,-8.184332,-4.429974,0.329251,1.565246,-7.005729,-0.056875,8064.000000,0.000000,4.000000,,,,0.000000,4.000000,4.000000,4.000000,4.000000,4.000000,4.000000,4.000000,4.000000,4.000000,4.000000,4.000000,4.000000,4.000000,4.000000,4.000000,4.000000,4.000000,4.000000,4.000000,4.000000,4.000000,4.000000,4.000000,4.000000,4.000000,4.000000,4.000000,4.000000,4.000000,4.000000,4.000000,4.000000,100.000000
1614563129.534371,52.000000,0.000000,1.864126,-6.672749,-28.813650,-10.387606,-6.748443,-2.926589,-5.623353,-11.897509,-11.935206,-2.892210,10.970613,9.669271,-0.040780,6.289547,7.510161,-11.414775,-0.841284,-2.919832,-12.120669,5.194983,-1.887262,1.022312,-4.970463,-1.570561,-17.887545,-7.483812,-11.253071,-5.451185,0.328921,1.050860,-22.896160,-5.185023,8064.000000,0.000000,4.000000,,,,0.000000,4.000000,4.000000,4.000000,4.000000,4.000000,4.000000,4.000000,4.000000,4.000000,4.000000,4.000000,4.000000,4.000000,4.000000,4.000000,4.000000,4.000000,4.000000,4.000000,4.000000,4.000000,4.000000,4.000000,4.000000,4.000000,4.000000,4.000000,4.000000,4.000000,4.000000,4.000000,4.000000,100.000000
1614563129.542121,53.000000,0.000000,1.862262,-6.666076,-25.707914,-9.864398,-6.741695,-2.923663,-6.130550,-11.372790,-7.307887,-1.350856,0.703232,-0.083987,-0.553560,7.308899,-2.753760,-10.890539,-1.353263,-3.942554,-12.621368,5.702609,-1.885375,0.508469,-5.478313,-2.081811,-18.895298,-6.450687,-11.241817,-10.061119,0.328592,1.562630,-26.463007,-3.641377,8064.000000,0.000000,4.000000,,,,0.000000,4.000000,4.000000,4.000000,4.000000,4.000000,4.000000,4.000000,4.000000,4.000000,4.000000,4.000000,4.000000,4.000000,4.000000,4.000000,4.000000,4.000000,4.000000,4.000000,4.000000,4.000000,4.000000,4.000000,4.000000,4.000000,4.000000,4.000000,4.000000,4.000000,4.000000,4.000000,4.000000,100.000000
1614563129.549971,54.000000,0.000000,1.860399,-6.659410,-35.938618,-18.059662,-6.222133,-2.920739,-5.611599,-15.976802,-12.428783,-12.118736,-14.169266,-6.750570,0.472634,0.634923,-17.622801,-19.084776,-1.864731,-10.092458,-10.557466,4.671265,-1.883490,0.507960,-5.985656,-4.643832,-17.850763,-6.957057,-9.692115,-11.589520,0.328264,1.048247,-16.692953,-6.201838,8064.000000,0.000000,4.000000,,,,0.000000,4.000000,4.000000,4.000000,4.000000,4.000000,4.000000,4.000000,4.000000,4.000000,4.000000,4.000000,4.000000,4.000000,4.000000,4.000000,4.000000,4.000000,4.000000,4.000000,4.000000,4.000000,4.000000,4.000000,4.000000,4.000000,4.000000,4.000000,4.000000,4.000000,4.000000,4.000000,4.000000,100.000000
1614563129.557721,55.000000,0.000000,1.858539,-6.652750,-55.389858,-32.400578,-7.754372,-2.917818,-6.631629,-22.114672,-26.262508,-26.978413,-17.232019,-8.282281,-1.579120,-15.263147,-20.682100,-22.655436,-0.837225,-17.261852,-19.264856,0.051209,-2.394427,-0.005368,-8.543773,-9.767393,-20.909836,-12.591125,-14.810627,-8.501006,0.327936,-3.055365,-23.855747,-25.169994,8064.000000,0.000000,4.000000,,,,0.000000,4.000000,4.000000,4.000000,4.000000,4.000000,4.000000,4.000000,4.000000,4.000000,4.000000,4.000000,4.000000,4.000000,4.000000,4.000000,4.000000,4.000000,4.000000,4.000000,4.000000,4.000000,4.000000,4.000000,4.000000,4.000000,4.000000,4.000000,4.000000,4.000000,4.000000,4.000000,4.000000,100.000000
1614563129.565571,56.000000,0.000000,1.856680,-6.646098,-63.026775,-37.496380,-10.310720,-2.914901,-12.778844,-24.656660,-32.390091,-31.053997,-25.932737,-18.017588,-8.244207,-24.991474,-23.225521,-23.145601,-4.426131,-24.936897,-42.835335,-9.692431,-8.545878,-5.133568,-9.560870,-26.167883,-22.427387,-17.706739,-22.488125,-7.466865,0.327608,-6.642054,-41.267792,-43.093544,8064.000000,0.000000,4.000000,,,,0.000000,4.000000,4.000000,4.000000,4.000000,4.000000,4.000000,4.000000,4.000000,4.000000,4.000000,4.000000,4.000000,4.000000,4.000000,4.000000,4.000000,4.000000,4.000000,4.000000,4.000000,4.000000,4.000000,4.000000,4.000000,4.000000,4.000000,4.000000,4.000000,4.000000,4.000000,4.000000,4.000000,100.000000
1614563129.573321,57.000000,0.000000,1.854824,-6.639452,-53.732979,-31.305038,-10.813231,-2.911986,-17.381449,-24.119183,-29.280779,-26.920380,-38.727318,-26.717520,-12.338528,-24.453663,-33.971527,-25.686558,-12.626833,-27.988884,-48.946346,-17.887867,-16.229641,-7.692537,-13.653873,-37.423767,-21.892139,-14.612109,-21.952816,-8.485039,0.327280,-6.635412,-38.662418,-33.819679,8064.000000,0.000000,4.000000,,,,0.000000,4.000000,4.000000,4.000000,4.000000,4.000000,4.000000,4.000000,4.000000,4.000000,4.000000,4.000000,4.000000,4.000000,4.000000,4.000000,4.000000,4.000000,4.000000,4.000000,4.000000,4.000000,4.000000,4.000000,4.000000,4.000000,4.000000,4.000000,4.000000,4.000000,4.000000,4.000000,4.000000,100.000000
1614563129.581171,58.000000,0.000000,1.340148,-6.632813,-40.345913,-26.145529,-10.289597,-2.909074,-17.364067,-23.069422,-26.687395,-25.354998,-32.534744,-22.075418,-11.300549,-24.429209,-30.347811,-22.583948,-17.229591,-24.371151,-30.948683,-17.357159,-17.751873,-7.172024,-16.717142,-32.258137,-22.895887,-10.494933,-16.289837,-7.963733,0.326953,-4.064673,-25.290424,-9.170476,8064.000000,0.000000,4.000000,,,,0.000000,4.000000,4.000000,4.000000,4.000000,4.000000,4.000000,4.000000,4.000000,4.000000,4.000000,4.000000,4.000000,4.000000,4.000000,4.000000,4.000000,4.000000,4.000000,4.000000,4.000000,4.000000,4.000000,4.000000,4.000000,4.000000,4.000000,4.000000,4.000000,4.000000,4.000000,4.000000,4.000000,100.000000
1614563129.588921,59.000000,0.000000,1.851629,-6.626180,-37.228642,-26.119383,-10.279306,-2.906164,-17.346704,-23.559174,-27.686350,-25.842463,-20.707336,-18.976419,-11.289248,-24.404779,-18.009771,-15.894697,-16.699541,-20.244217,-22.199785,-8.621853,-16.708479,-9.728954,-11.572220,-28.123314,-20.821711,-10.484439,-14.222265,-7.442949,0.326626,-2.522147,-21.675390,-5.058742,8064.000000,0.000000,4.000000,,,,0.000000,4.000000,4.000000,4.000000,4.000000,4.000000,4.000000,4.000000,4.000000,4.000000,4.000000,4.000000,4.000000,4.000000,4.000000,4.000000,4.000000,4.000000,4.000000,4.000000,4.000000,4.000000,4.000000,4.000000,4.000000,4.000000,4.000000,4.000000,4.000000,4.000000,4.000000,4.000000,4.000000,100.000000
1614563129.596771,60.000000,0.000000,1.849777,-6.619553,-41.293980,-25.067621,-10.269028,-2.903258,-17.842178,-25.074076,-28.171484,-26.329441,-19.148169,-18.957443,-12.303599,-23.867554,-17.991762,-13.314700,-17.195662,-12.018844,-18.587841,0.104717,-17.204592,-10.232046,-8.483725,-25.018269,-15.672683,-10.986774,-15.233685,-7.948327,-0.186521,-4.058087,-24.217817,-18.387016,8064.000000,0.000000,4.000000,,,,0.000000,4.000000,4.000000,4.000000,4.000000,4.000000,4.000000,4.000000,4.000000,4.000000,4.000000,4.000000,4.000000,4.000000,4.000000,4.000000,4.000000,4.000000,4.000000,4.000000,4.000000,4.000000,4.000000,4.000000,4.000000,4.000000,4.000000,4.000000,4.000000,4.000000,4.000000,4.000000,4.000000,100.000000
1614563129.604521,61.000000,0.000000,0.822286,-6.612934,-38.175762,-19.914349,-10.771579,-2.900355,-13.208951,-17.869514,-21.989466,-21.174906,-9.898251,-7.656434,-10.240014,-24.869328,-12.845565,-7.147539,-13.588722,0.300867,-1.646176,2.155895,-14.623284,-5.606429,-8.988062,-12.172737,-15.657010,-10.462967,-15.218451,-7.940378,0.326486,-6.618131,-24.193600,-22.984015,8064.000000,0.000000,4.000000,,,,0.000000,4.000000,4.000000,4.000000,4.000000,4.000000,4.000000,4.000000,4.000000,4.000000,4.000000,4.000000,4.000000,4.000000,4.000000,4.000000,4.000000,4.000000,4.000000,4.000000,4.000000,4.000000,4.000000,4.000000,4.000000,4.000000,4.000000,4.000000,4.000000,4.000000,4.000000,4.000000,4.000000,100.000000
1614563129.612371,62.000000,0.000000,2.872746,-6.606321,-30.445278,-16.817513,-9.735167,-2.897455,-6.529075,-1.954209,-10.685426,-12.435783,2.419340,3.633274,-5.614389,-18.690611,1.013435,1.064736,-5.370006,5.428771,8.099059,1.640918,-9.993277,-3.036720,-6.927792,0.659949,-12.564430,-10.452504,-14.690412,-7.932437,2.377441,-5.585872,-15.451457,-16.807184,8064.000000,0.000000,4.000000,,,,0.000000,4.000000,4.000000,4.000000,4.000000,4.000000,4.000000,4.000000,4.000000,4.000000,4.000000,4.000000,4.000000,4.000000,4.000000,4.000000,4.000000,4.000000,4.000000,4.000000,4.000000,4.000000,4.000000,4.000000,4.000000,4.000000,4.000000,4.000000,4.000000,4.000000,4.000000,4.000000,4.000000,100.000000
1614563129.620121,63.000000,0.000000,7.998078,-6.599714,-28.363550,-17.826336,-7.674149,-2.894557,-5.496905,3.175951,-7.597817,-9.346424,4.468203,4.142461,-3.557493,-5.338588,1.525242,0.550851,-0.749251,2.859240,0.911473,2.152098,-8.957642,-3.546504,-4.869582,3.223391,-4.859558,-10.442052,-12.111619,-7.924505,4.426346,-2.503363,-4.153954,-13.713453,8064.000000,0.000000,4.000000,,,,0.000000,4.000000,4.000000,4.000000,4.000000,4.000000,4.000000,4.000000,4.000000,4.000000,4.000000,4.000000,4.000000,4.000000,4.000000,4.000000,4.000000,4.000000,4.000000,4.000000,4.000000,4.000000,4.000000,4.000000,4.000000,4.000000,4.000000,4.000000,4.000000,4.000000,4.000000,4.000000,4.000000,100.000000
1614563129.627971,64.000000,0.000000,8.502901,-6.593115,-29.873650,-17.808510,-6.128014,-2.891663,-6.004229,-4.519533,-11.692783,-9.849898,2.412453,4.138319,-4.066756,0.820597,-3.604489,-2.526623,-1.261322,1.317919,-4.730464,0.611484,-9.461505,-3.542958,-4.864712,0.656065,-7.418801,-10.431610,-10.561046,-7.916581,3.909099,-3.013680,-6.713902,-15.238201,0.000000,200.000000,4.000000,,,,0.000000,4.000000,4.000000,4.000000,4.000000,4.000000,4.000000,4.000000,4.000000,4.000000,4.000000,4.000000,4.000000,4.000000,4.000000,4.000000,4.000000,4.000000,4.000000,4.000000,4.000000,4.000000,4.000000,4.000000,4.000000,4.000000,4.000000,4.000000,4.000000,4.000000,4.000000,4.000000,4.000000,100.000000
1614563129.635721,65.000000,0.000000,5.417475,-6.586522,-29.843775,-13.175316,-6.634706,-2.888771,-5.485404,-9.130398,-12.193911,-7.275946,0.871579,2.595719,-4.062689,-2.769967,-1.549602,-3.036917,-1.260061,-0.734681,-7.289836,-2.466050,-8.939223,-5.590697,-4.859848,-1.395873,-13.565228,-10.933999,-11.576125,-7.908664,3.905190,-5.574769,-14.912317,-15.222963,0.000000,195.000000,4.000000,,,,0.000000,4.000000,4.000000,4.000000,4.000000,4.000000,4.000000,4.000000,4.000000,4.000000,4.000000,4.000000,4.000000,4.000000,4.000000,4.000000,4.000000,4.000000,4.000000,4.000000,4.000000,4.000000,4.000000,4.000000,4.000000,4.000000,4.000000,4.000000,4.000000,4.000000,4.000000,4.000000,4.000000,100.000000
1614563129.643570,66.000000,0.000000,4.899237,-6.579935,-29.301111,-10.598038,-6.628071,-2.885882,-5.992739,-7.582806,-11.156075,-5.730208,-3.744678,-3.560723,-4.058626,-5.844121,-2.573694,-7.649264,-1.258801,-6.374971,-12.410751,-2.463584,-9.955925,-4.559465,-6.906270,-1.907297,-7.397817,-8.871782,-6.949165,-7.900755,3.901285,-4.543553,-7.205097,-12.130817,0.000000,188.000000,4.000000,,,,0.000000,4.000000,4.000000,4.000000,4.000000,4.000000,4.000000,4.000000,4.000000,4.000000,4.000000,4.000000,4.000000,4.000000,4.000000,4.000000,4.000000,4.000000,4.000000,4.000000,4.000000,4.000000,4.000000,4.000000,4.000000,4.000000,4.000000,4.000000,4.000000,4.000000,4.000000,4.000000,4.000000,100.000000
1614563129.651321,67.000000,0.000000,5.919979,-6.573355,-28.758989,-10.074619,-6.621443,-2.882996,-5.473926,-8.088044,-12.170561,-6.750119,-5.279395,1.571043,-3.541747,-4.812635,-2.571120,-11.744179,-1.770363,-7.907058,-13.423982,0.102982,-9.433148,-0.965162,-8.437825,-2.931031,-2.262214,-3.734706,-0.275549,-7.892855,3.897383,-1.974907,2.545698,-9.554584,0.000000,217.000000,4.000000,,,,0.000000,4.000000,4.000000,4.000000,4.000000,4.000000,4.000000,4.000000,4.000000,4.000000,4.000000,4.000000,4.000000,4.000000,4.000000,4.000000,4.000000,4.000000,4.000000,4.000000,4.000000,4.000000,4.000000,4.000000,4.000000,4.000000,4.000000,4.000000,4.000000,4.000000,4.000000,4.000000,4.000000,100.000000
1614563129.659170,68.000000,0.000000,5.401238,-6.566782,-29.755871,-9.551724,-6.614822,-2.367293,-3.417170,-9.105597,-12.158390,-6.743369,-6.299756,11.313062,-1.486923,-3.782182,1.534015,-10.706794,-1.255772,-6.360690,-11.872096,1.641340,-6.859612,0.574265,-4.839643,-2.415280,-3.285593,-2.705330,-2.326555,-7.884962,3.893486,-1.972932,-2.585053,-11.083490,0.000000,196.000000,4.000000,,,,0.000000,4.000000,4.000000,4.000000,4.000000,2.000000,4.000000,4.000000,4.000000,4.000000,4.000000,4.000000,4.000000,4.000000,4.000000,4.000000,4.000000,4.000000,4.000000,4.000000,4.000000,4.000000,4.000000,4.000000,4.000000,4.000000,4.000000,4.000000,4.000000,4.000000,4.000000,4.000000,4.000000,83.333336
1614563129.666920,69.000000,0.000000,5.395837,-6.560215,-30.238935,-12.106276,-6.608207,-3.903387,-1.875291,-8.583671,-12.146232,-6.736626,-11.421661,5.660723,0.053025,-9.419425,-7.185467,-11.208908,-2.792978,-7.379970,-15.962788,1.639699,-5.827112,0.060870,-1.245060,-2.925685,-0.205384,-3.215445,-7.452434,-7.877077,3.889593,-2.483780,-9.249134,-11.072407,0.000000,144.000000,4.000000,,,,0.000000,4.000000,4.000000,4.000000,4.000000,2.000000,4.000000,4.000000,4.000000,4.000000,4.000000,4.000000,4.000000,4.000000,4.000000,4.000000,4.000000,4.000000,4.000000,4.000000,4.000000,4.000000,4.000000,4.000000,4.000000,4.000000,4.000000,4.000000,4.000000,4.000000,4.000000,4.000000,4.000000,83.333336
1614563129.674571,70.000000,0.000000,5.390441,-6.553655,-28.157415,-16.709553,-6.601599,-5.950766,-2.386236,-8.575088,-12.134086,-6.729889,-13.461522,-4.088528,-0.972669,-15.051031,-14.870589,-11.197699,-5.354287,-6.859769,-13.382723,1.638059,-5.308464,0.060809,-1.756636,-3.435580,-2.769281,-2.699409,-7.444982,-8.382020,3.885703,-2.994117,-8.214245,-9.522873,0.000000,196.000000,4.000000,,,,0.000000,4.000000,4.000000,4.000000,4.000000,2.000000,4.000000,4.000000,4.000000,4.000000,4.000000,4.000000,4.000000,4.000000,4.000000,4.000000,4.000000,4.000000,4.000000,4.000000,4.000000,4.000000,4.000000,4.000000,4.000000,4.000000,4.000000,4.000000,4.000000,4.000000,4.000000,4.000000,4.000000,83.333336
1614563129.682321,71.000000,0.000000,5.385051,-6.547101,-31.206181,-18.231306,-6.594997,-4.919174,-2.383850,-8.566512,-12.121952,-7.235980,-8.832676,-4.597260,-0.971696,-4.779570,-4.086488,-1.442911,-5.348933,0.326578,3.040916,1.636421,-1.200592,-0.452072,-2.267699,0.157600,-15.074204,-5.260812,-8.975998,-7.860818,3.881817,-5.555225,-10.257312,-15.667196,0.000000,225.000000,4.000000,,,,0.000000,4.000000,4.000000,4.000000,4.000000,2.000000,4.000000,4.000000,4.000000,4.000000,4.000000,4.000000,4.000000,4.000000,4.000000,4.000000,4.000000,4.000000,4.000000,4.000000,4.000000,4.000000,4.000000,4.000000,4.000000,4.000000,4.000000,4.000000,4.000000,4.000000,4.000000,4.000000,4.000000,83.333336
1614563129.689971,72.000000,0.000000,5.379666,-6.540554,-40.918564,-17.700254,-6.588402,-2.862973,-2.381466,-8.557945,-12.109830,-8.767205,-3.695638,-3.054201,0.054916,6.507261,5.148367,10.353403,-2.266661,8.018559,15.345568,2.147605,2.390352,2.112483,-1.752611,7.336929,-19.674515,-9.870936,-11.531125,-5.288855,3.877935,-6.575311,-15.888081,-27.959221,0.000000,166.000000,4.000000,,,,0.000000,4.000000,4.000000,4.000000,4.000000,2.000000,4.000000,4.000000,4.000000,4.000000,4.000000,4.000000,4.000000,4.000000,4.000000,4.000000,4.000000,4.000000,4.000000,4.000000,4.000000,4.000000,4.000000,4.000000,4.000000,4.000000,4.000000,4.000000,4.000000,4.000000,4.000000,4.000000,4.000000,83.333336
1614563129.697721,73.000000,0.000000,5.374286,-6.534014,-43.441750,-17.682554,-6.581814,-2.347289,-1.866264,-8.549388,-12.097720,-9.271258,-4.717583,-4.589608,0.054862,0.346907,-1.523448,13.419973,-1.238753,10.061822,15.330222,2.145458,1.875142,6.725755,-1.750859,8.868053,-15.552276,-10.886706,-8.955491,-3.745104,3.874058,-6.055915,-16.897833,-28.444082,0.000000,194.000000,4.000000,,,,0.000000,4.000000,4.000000,4.000000,4.000000,2.000000,4.000000,4.000000,4.000000,4.000000,4.000000,4.000000,4.000000,4.000000,4.000000,4.000000,4.000000,4.000000,4.000000,4.000000,4.000000,4.000000,4.000000,4.000000,4.000000,4.000000,4.000000,4.000000,4.000000,4.000000,4.000000,4.000000,4.000000,83.333336
1614563129.705371,74.000000,0.000000,5.368912,-6.527480,-37.244461,-18.177692,-6.575232,-2.857763,-1.351577,-8.540838,-12.085622,-10.800448,-6.764148,-4.585019,-0.970834,-3.756004,-6.137309,11.355271,-1.750335,11.077401,13.263610,1.117671,1.360446,7.744670,-1.236287,10.397647,-14.511083,-10.362999,-8.433715,-4.254179,3.870183,-6.049859,-15.855294,-19.697691,0.000000,196.000000,4.000000,,,,0.000000,4.000000,4.000000,4.000000,4.000000,2.000000,4.000000,4.000000,4.000000,4.000000,4.000000,4.000000,4.000000,4.000000,4.000000,4.000000,4.000000,4.000000,4.000000,4.000000,4.000000,4.000000,4.000000,4.000000,4.000000,4.000000,4.000000,4.000000,4.000000,4.000000,4.000000,4.000000,4.000000,83.333336
1614563129.713121,75.000000,0.000000,5.363543,-6.520952,-38.232857,-17.646694,-6.568656,-2.854905,-2.888687,-12.634861,-12.073537,-11.302469,4.524668,-4.067613,4.671162,6.504163,-4.079889,12.882378,0.302697,14.143247,15.301628,1.629374,1.871906,7.736925,-2.260692,15.002634,-15.009392,-10.865457,-10.476563,-4.249925,3.866313,-6.043809,-15.839439,-17.113890,0.000000,202.000000,4.000000,,,,0.000000,4.000000,4.000000,4.000000,4.000000,2.000000,4.000000,4.000000,4.000000,4.000000,4.000000,4.000000,4.000000,4.000000,4.000000,4.000000,4.000000,4.000000,4.000000,4.000000,4.000000,4.000000,4.000000,4.000000,4.000000,4.000000,4.000000,4.000000,4.000000,4.000000,4.000000,4.000000,4.000000,83.333336
1614563129.720771,76.000000,0.000000,5.871000,-6.514431,-44.348469,-17.629047,-6.049267,-2.852050,-1.860158,-13.135047,-12.061463,-1.034756,18.366297,-4.063546,12.358799,12.138684,-3.562989,12.869495,3.379318,11.052180,14.260686,2.653386,2.382855,10.806111,-1.745611,14.987632,-11.404639,-10.341770,-9.440446,-4.245676,3.862447,-6.037766,-15.823600,-21.199341,0.000000,183.000000,4.000000,,,,0.000000,4.000000,4.000000,4.000000,4.000000,2.000000,4.000000,4.000000,4.000000,4.000000,4.000000,4.000000,4.000000,4.000000,4.000000,4.000000,4.000000,4.000000,4.000000,4.000000,4.000000,4.000000,4.000000,4.000000,4.000000,4.000000,4.000000,4.000000,4.000000,4.000000,4.000000,4.000000,4.000000,83.333336
1614563129.728521,77.000000,0.000000,5.352308,-6.507916,-45.329762,-18.637058,-6.556039,-1.823557,-1.345477,-5.942425,-12.049401,7.684227,10.142802,-4.059482,6.705414,4.947058,-5.097888,3.113036,2.863118,-2.292205,1.938733,-1.451832,0.329190,10.795305,0.820237,7.793157,-10.367594,-10.331429,-6.866903,-4.241430,3.858584,-6.544549,-16.320597,-22.716602,0.000000,178.000000,4.000000,,,,0.000000,4.000000,4.000000,4.000000,4.000000,2.000000,4.000000,4.000000,4.000000,4.000000,4.000000,4.000000,4.000000,4.000000,4.000000,4.000000,4.000000,4.000000,4.000000,4.000000,4.000000,4.000000,4.000000,4.000000,4.000000,4.000000,4.000000,4.000000,4.000000,4.000000,4.000000,4.000000,4.000000,83.333336
1614563129.736171,78.000000,0.000000,2.782853,-6.501409,-44.771614,-18.105600,-9.113585,-5.411477,-10.574901,-5.936482,-12.550173,-2.067047,-9.354520,-4.055422,-7.660265,-3.263017,-7.656892,-8.172129,-1.242309,-14.084785,-15.499104,-5.552944,-2.748063,8.220407,0.306597,0.093056,-11.895687,-11.346739,-7.372856,-4.237188,3.854726,-5.512363,-16.304276,-21.668245,0.000000,202.000000,4.000000,,,,0.000000,4.000000,4.000000,4.000000,4.000000,2.000000,4.000000,4.000000,4.000000,4.000000,4.000000,4.000000,4.000000,4.000000,4.000000,4.000000,4.000000,4.000000,4.000000,4.000000,4.000000,4.000000,4.000000,4.000000,4.000000,4.000000,4.000000,4.000000,4.000000,4.000000,4.000000,4.000000,4.000000,83.333336
1614563129.743921,79.000000,0.000000,1.241609,-6.494907,-43.701199,-17.061855,-10.642933,-9.508630,-21.333557,-20.802341,-12.024802,-9.757287,-13.960550,-4.051367,-12.780810,-8.900780,-8.674876,-11.240880,-4.830811,-15.096340,-21.124630,-2.470468,-1.206853,6.673726,-1.744992,-7.599345,-8.294048,-9.284110,-6.339842,-4.232951,3.850871,-2.942748,-13.723869,-18.056833,0.000000,206.000000,4.000000,,,,0.000000,4.000000,4.000000,4.000000,4.000000,2.000000,4.000000,4.000000,4.000000,4.000000,4.000000,4.000000,4.000000,4.000000,4.000000,4.000000,4.000000,4.000000,4.000000,4.000000,4.000000,4.000000,4.000000,4.000000,4.000000,4.000000,4.000000,4.000000,4.000000,4.000000,4.000000,4.000000,4.000000,83.333336
1614563129.751571,80.000000,0.000000,2.266008,-6.488412,-43.657497,-19.608894,-10.119470,-8.986300,-18.235300,-27.961025,-12.012777,-7.183427,-11.382487,-4.047316,-10.716747,-12.994443,-8.153381,-10.716818,-6.364441,-13.542783,-20.077864,2.660208,-2.744108,5.128590,-0.204786,-14.258412,-3.670370,-6.710723,-3.256580,-4.228718,3.847020,-1.914164,-11.658863,-15.474673,0.000000,183.000000,4.000000,,,,0.000000,4.000000,4.000000,4.000000,4.000000,2.000000,4.000000,4.000000,4.000000,4.000000,4.000000,4.000000,4.000000,4.000000,4.000000,4.000000,4.000000,4.000000,4.000000,4.000000,4.000000,4.000000,4.000000,4.000000,4.000000,4.000000,4.000000,4.000000,4.000000,4.000000,4.000000,4.000000,4.000000,83.333336
1614563129.759321,81.000000,0.000000,0.725281,-6.481924,-46.177944,-16.512363,-10.109350,-6.413211,-10.011936,-15.625372,-12.513585,-10.253167,-16.499310,-4.043268,-11.218851,-12.981448,-8.658048,-13.270204,-10.973461,-15.580522,-24.673170,0.606265,-12.997774,3.072180,1.846701,-14.756974,-4.179520,-9.780935,-3.766144,-4.224489,3.843173,-2.425070,-13.185666,-15.459199,0.000000,199.000000,4.000000,,,,0.000000,4.000000,4.000000,4.000000,4.000000,2.000000,4.000000,4.000000,4.000000,4.000000,4.000000,4.000000,4.000000,4.000000,4.000000,4.000000,4.000000,4.000000,4.000000,4.000000,4.000000,4.000000,4.000000,4.000000,4.000000,4.000000,4.000000,4.000000,4.000000,4.000000,4.000000,4.000000,4.000000,83.333336
1614563129.766972,82.000000,0.000000,-1.839547,-6.475442,-36.388176,-3.675338,-10.612062,-5.893978,-8.976283,-4.840516,-9.936969,-4.089068,-21.611015,-4.039225,-12.233274,-12.968467,-8.136569,-15.308216,-16.090693,-15.564941,-20.033113,0.092839,-18.112982,3.069107,1.844855,-14.229397,-2.636879,-8.232693,-3.762377,-4.220265,3.839330,-2.422645,-11.121199,-10.828355,0.000000,198.000000,4.000000,,,,0.000000,4.000000,4.000000,4.000000,4.000000,2.000000,4.000000,4.000000,4.000000,4.000000,4.000000,4.000000,4.000000,4.000000,4.000000,4.000000,4.000000,4.000000,4.000000,4.000000,4.000000,4.000000,4.000000,4.000000,4.000000,4.000000,4.000000,4.000000,4.000000,4.000000,4.000000,4.000000,4.000000,83.333336
1614563129.774822,83.000000,0.000000,-2.350528,-6.468966,-17.890249,5.559107,-9.575809,-4.349622,-10.505769,-5.348496,-5.311647,16.427841,-21.589405,-4.548007,-11.195399,-13.981139,-8.128433,-15.805728,-17.100243,-6.831428,-5.141285,6.246592,-12.453842,3.578859,1.843010,-15.240808,4.545245,-1.044973,-1.194512,-4.216044,3.835491,-2.420223,-3.930590,-4.150860,0.000000,177.000000,4.000000,,,,0.000000,4.000000,4.000000,4.000000,4.000000,2.000000,4.000000,4.000000,4.000000,4.000000,4.000000,4.000000,4.000000,4.000000,4.000000,4.000000,4.000000,4.000000,4.000000,4.000000,4.000000,4.000000,4.000000,4.000000,4.000000,4.000000,4.000000,4.000000,4.000000,4.000000,4.000000,4.000000,4.000000,83.333336
1614563129.782572,84.000000,0.000000,-1.835357,-6.462498,-15.821077,5.040727,-7.514950,-2.293991,-9.469622,-4.830327,-4.280694,18.975517,-18.490892,-4.543458,-11.697024,-12.428697,-9.145946,-11.687358,-16.057503,-0.157930,-1.033580,11.881371,-8.851645,3.575280,1.841167,-12.148644,8.643264,-0.531107,-0.167677,-4.211829,3.831655,-2.417802,0.175905,-4.659530,0.000000,202.000000,4.000000,,,,0.000000,4.000000,4.000000,4.000000,4.000000,2.000000,4.000000,4.000000,4.000000,4.000000,4.000000,4.000000,4.000000,4.000000,4.000000,4.000000,4.000000,4.000000,4.000000,4.000000,4.000000,4.000000,4.000000,4.000000,4.000000,4.000000,4.000000,4.000000,4.000000,4.000000,4.000000,4.000000,4.000000,83.333336
1614563129.790422,85.000000,0.000000,-1.833522,-6.456035,-27.087307,4.010045,-5.968974,-2.804517,-9.460153,-1.235753,-4.789234,5.110387,-15.395478,-1.461992,-11.172506,-9.852165,-6.572697,-8.085927,-16.041445,0.355049,2.044377,12.895130,-9.355614,3.571705,1.326505,-3.931368,7.096159,-2.581858,-0.167509,-4.207617,3.827824,-2.415385,-1.362733,-6.706152,0.000000,180.000000,4.000000,,,,0.000000,4.000000,4.000000,4.000000,4.000000,2.000000,4.000000,4.000000,4.000000,4.000000,4.000000,4.000000,4.000000,4.000000,4.000000,4.000000,4.000000,4.000000,4.000000,4.000000,4.000000,4.000000,4.000000,4.000000,4.000000,4.000000,4.000000,4.000000,4.000000,4.000000,4.000000,4.000000,4.000000,83.333336
1614563129.798172,86.000000,0.000000,-1.831688,-6.449579,-29.111502,5.031676,-6.475825,-2.801713,-9.450692,-0.208877,-4.784445,2.541174,-12.303160,2.129214,-7.571590,-9.329493,-1.950740,-7.052200,-16.538223,9.585463,19.478230,16.471979,-4.730874,3.568133,6.453384,7.354615,7.601884,2.036108,2.396761,-4.203409,3.823996,-2.412969,-1.361370,-4.135343,0.000000,171.000000,4.000000,,,,0.000000,4.000000,4.000000,4.000000,4.000000,2.000000,4.000000,4.000000,4.000000,4.000000,4.000000,4.000000,4.000000,4.000000,4.000000,4.000000,4.000000,4.000000,4.000000,4.000000,4.000000,4.000000,4.000000,4.000000,4.000000,4.000000,4.000000,4.000000,4.000000,4.000000,4.000000,4.000000,4.000000,83.333336
1614563129.806022,87.000000,0.000000,-1.829856,-6.443130,-28.569571,5.026645,-6.469350,-2.286090,-8.928421,-1.234309,-4.266840,5.615556,-4.598548,3.152725,-3.974276,-6.756061,-1.435968,1.159980,-16.008865,23.934853,31.253624,20.558071,-1.136399,3.564565,9.011033,15.039568,8.107102,3.572534,3.932826,-4.199206,3.820172,-2.410556,-0.847188,-2.592746,0.000000,218.000000,4.000000,,,,0.000000,4.000000,4.000000,4.000000,4.000000,2.000000,4.000000,4.000000,4.000000,4.000000,4.000000,4.000000,4.000000,4.000000,4.000000,4.000000,4.000000,4.000000,4.000000,4.000000,4.000000,4.000000,4.000000,4.000000,4.000000,4.000000,4.000000,4.000000,4.000000,4.000000,4.000000,4.000000,4.000000,83.333336
1614563129.813772,88.000000,0.000000,-1.828027,-6.436687,-27.515360,5.021618,-5.950060,-2.796625,-9.945133,-0.720254,-4.775393,4.071479,4.636819,6.226496,-3.457481,-0.595459,0.616750,11.415231,-15.992856,22.885277,23.530062,20.024693,-1.648083,4.073821,4.386637,15.024529,6.560534,-2.072065,3.928893,-4.195006,3.816352,-2.408146,-0.846341,-3.615795,0.000000,219.000000,4.000000,,,,0.000000,4.000000,4.000000,4.000000,4.000000,2.000000,4.000000,4.000000,4.000000,4.000000,4.000000,4.000000,4.000000,4.000000,4.000000,4.000000,4.000000,4.000000,4.000000,4.000000,4.000000,4.000000,4.000000,4.000000,4.000000,4.000000,4.000000,4.000000,4.000000,4.000000,4.000000,4.000000,4.000000,83.333336
1614563129.821621,89.000000,0.000000,-1.826198,-6.430250,-19.795536,2.452494,-6.456930,-2.793828,-7.883906,-0.206713,-4.257798,6.118690,7.709105,10.322833,-3.966844,2.994880,7.282800,10.890995,-15.976863,14.144442,13.250122,20.004667,-1.646435,4.069747,1.818148,10.906940,8.605255,-3.608454,3.412143,-4.190812,3.812535,-2.405738,-0.845495,-3.612179,0.000000,204.000000,4.000000,,,,0.000000,4.000000,4.000000,4.000000,4.000000,2.000000,4.000000,4.000000,4.000000,4.000000,4.000000,4.000000,4.000000,4.000000,4.000000,4.000000,4.000000,4.000000,4.000000,4.000000,4.000000,4.000000,4.000000,4.000000,4.000000,4.000000,4.000000,4.000000,4.000000,4.000000,4.000000,4.000000,4.000000,83.333336
1614563129.829372,90.000000,0.000000,-1.824372,-6.423820,-22.339844,-2.165343,-6.450473,-2.791034,-2.747817,-2.257788,-5.279181,6.112571,6.162935,9.799690,-3.962877,2.479065,10.352440,8.316001,-15.960886,12.591836,6.570205,19.471842,-2.157609,3.552857,4.893253,6.280648,10.135112,-3.604846,3.408731,-4.186621,3.808723,-2.403332,-1.870290,-4.121387,0.000000,206.000000,4.000000,,,,0.000000,4.000000,4.000000,4.000000,4.000000,2.000000,4.000000,4.000000,4.000000,4.000000,4.000000,4.000000,4.000000,4.000000,4.000000,4.000000,4.000000,4.000000,4.000000,4.000000,4.000000,4.000000,4.000000,4.000000,4.000000,4.000000,4.000000,4.000000,4.000000,4.000000,4.000000,4.000000,4.000000,83.333336
1614563129.837221,91.000000,0.000000,-1.822548,-6.417396,-38.214939,-3.188819,-5.931202,-4.326705,-3.257890,-1.229890,-5.273902,0.978253,1.541387,6.200147,-3.446094,2.989406,7.777985,9.333326,-15.944925,6.425398,-5.744058,11.760063,-5.745195,4.062124,6.426821,-3.982043,3.971130,-3.601241,3.405323,-4.182434,3.804914,-2.400928,-1.868420,-3.604445,0.000000,228.000000,4.000000,,,,0.000000,4.000000,4.000000,4.000000,4.000000,2.000000,4.000000,4.000000,4.000000,4.000000,4.000000,4.000000,4.000000,4.000000,4.000000,4.000000,4.000000,4.000000,4.000000,4.000000,4.000000,4.000000,4.000000,4.000000,4.000000,4.000000,4.000000,4.000000,4.000000,4.000000,4.000000,4.000000,4.000000,83.333336
1614563129.844971,92.000000,0.000000,-1.820725,-6.410978,-44.843391,-7.288194,-7.976553,-6.373660,-7.870017,-0.203019,-3.217346,-0.561187,-8.716564,2.604203,-3.955468,-0.090506,5.718925,-0.932418,-16.441801,-5.888720,-17.533186,4.568816,-9.329194,3.545242,4.881933,-16.798573,-0.648225,-2.059178,3.401917,-4.178252,3.801109,-2.398528,-0.840910,-3.088020,0.000000,190.000000,4.000000,,,,0.000000,4.000000,4.000000,4.000000,4.000000,2.000000,4.000000,4.000000,4.000000,4.000000,4.000000,4.000000,4.000000,4.000000,4.000000,4.000000,4.000000,4.000000,4.000000,4.000000,4.000000,4.000000,4.000000,4.000000,4.000000,4.000000,4.000000,4.000000,4.000000,4.000000,4.000000,4.000000,4.000000,83.333336
1614563129.852821,93.000000,0.000000,-2.331725,-6.404567,-43.772907,-15.486034,-12.583961,-6.880107,-9.913429,-9.433585,-7.316693,0.465016,-12.810411,0.037496,-3.951512,-6.244262,3.149103,-11.187896,-15.912539,-8.446934,-17.515652,4.051426,-9.832685,-0.560868,5.389872,-17.294596,2.429346,-6.159683,2.372874,-4.174073,3.797308,-2.396129,-3.404172,-8.213138,0.000000,193.000000,4.000000,,,,0.000000,4.000000,4.000000,4.000000,4.000000,2.000000,4.000000,4.000000,4.000000,4.000000,4.000000,4.000000,4.000000,4.000000,4.000000,4.000000,4.000000,4.000000,4.000000,4.000000,4.000000,4.000000,4.000000,4.000000,4.000000,4.000000,4.000000,4.000000,4.000000,4.000000,4.000000,4.000000,4.000000,83.333336
1614563129.860571,94.000000,0.000000,-1.816573,-6.910983,-44.241955,-12.393625,-14.622660,-6.360406,-9.903516,-16.090818,-12.950401,-0.561090,-7.669396,0.550279,-3.947561,-5.725197,3.145954,-0.920297,-13.845345,-2.797461,-8.267367,5.073016,-9.822852,-4.662871,5.384481,-7.533711,0.888455,-9.743267,-1.219242,-4.169899,3.793511,-2.906554,-10.067434,-11.281847,0.000000,198.000000,4.000000,,,,0.000000,4.000000,4.000000,4.000000,4.000000,2.000000,4.000000,4.000000,4.000000,4.000000,4.000000,4.000000,4.000000,4.000000,4.000000,4.000000,4.000000,4.000000,4.000000,4.000000,4.000000,4.000000,4.000000,4.000000,4.000000,4.000000,4.000000,4.000000,4.000000,4.000000,4.000000,4.000000,4.000000,83.333336
1614563129.868321,95.000000,0.000000,0.749346,-5.365611,-31.890020,0.439281,-12.556755,-4.815584,-9.380792,-4.792676,-4.219502,1.490753,-5.610445,3.113832,-3.943613,-1.616908,8.271013,8.824213,-11.780217,0.282260,-0.053972,4.042302,-9.813029,-4.145388,5.379097,-1.885152,-0.138075,-1.015575,-0.705202,-4.165730,3.789717,-0.852365,-5.441982,-3.065437,0.000000,169.000000,4.000000,,,,0.000000,4.000000,4.000000,4.000000,4.000000,2.000000,4.000000,4.000000,4.000000,4.000000,4.000000,4.000000,4.000000,4.000000,4.000000,4.000000,4.000000,4.000000,4.000000,4.000000,4.000000,4.000000,4.000000,4.000000,4.000000,4.000000,4.000000,4.000000,4.000000,4.000000,4.000000,4.000000,4.000000,83.333336
1614563129.876072,96.000000,0.000000,2.287058,-2.796143,-18.011976,6.079867,-10.492916,-2.759487,-7.832949,7.519809,6.041127,8.155929,-7.143296,2.597897,-3.939670,-7.256316,7.237101,0.097440,-12.281257,0.281977,3.023005,4.551080,-9.290396,-3.628422,5.373718,-3.421728,7.554371,8.729031,6.474990,-4.161564,3.785928,1.199770,7.383972,5.655577,8064.000000,0.000000,4.000000,,,,0.000000,4.000000,4.000000,4.000000,4.000000,2.000000,4.000000,4.000000,4.000000,4.000000,4.000000,4.000000,4.000000,4.000000,4.000000,4.000000,4.000000,4.000000,4.000000,4.000000,4.000000,4.000000,4.000000,4.000000,4.000000,4.000000,4.000000,4.000000,4.000000,4.000000,4.000000,4.000000,4.000000,83.333336
1614563129.883722,97.000000,0.000000,1.771951,-2.280526,-23.634991,4.535326,-9.969603,-2.243907,-6.286654,6.486648,0.394060,12.763158,-9.700255,2.082479,-4.448551,-13.915727,2.614480,-7.082145,-13.807437,0.281695,1.994341,4.546529,-9.793926,-4.137614,5.368344,-3.418306,10.110919,5.130558,11.596720,-4.157402,3.782141,1.711390,9.940691,2.572998,8064.000000,0.000000,4.000000,,,,0.000000,4.000000,4.000000,4.000000,4.000000,2.000000,4.000000,4.000000,4.000000,4.000000,4.000000,4.000000,4.000000,4.000000,4.000000,4.000000,4.000000,4.000000,4.000000,4.000000,4.000000,4.000000,4.000000,4.000000,4.000000,4.000000,4.000000,4.000000,4.000000,4.000000,4.000000,4.000000,4.000000,83.333336
1614563129.891472,98.000000,0.000000,1.770179,-2.791066,-31.816483,4.017971,-9.959633,-2.754483,-4.741906,5.454521,-9.349923,12.237574,-10.203376,7.721422,-3.931282,-5.696683,6.714429,-2.972498,-9.178246,0.281414,1.992347,6.080444,-9.271312,-4.133476,5.362976,2.738958,8.049526,-0.002778,6.456918,-4.153244,3.778359,1.196858,5.828186,-5.121882,8064.000000,0.000000,4.000000,,,,0.000000,4.000000,4.000000,4.000000,4.000000,2.000000,4.000000,4.000000,4.000000,4.000000,4.000000,4.000000,4.000000,4.000000,4.000000,4.000000,4.000000,4.000000,4.000000,4.000000,4.000000,4.000000,4.000000,4.000000,4.000000,4.000000,4.000000,4.000000,4.000000,4.000000,4.000000,4.000000,4.000000,83.333336
1614563129.899122,99.000000,0.000000,1.768409,-2.275454,-31.271847,6.065234,-9.436852,-2.751729,-0.121780,8.525990,-8.314933,9.148413,-1.475223,13.867547,-1.363248,8.155168,13.887202,2.158679,0.574523,4.383696,8.657022,13.253851,-3.108194,-0.539599,5.357613,9.402885,10.605579,1.022866,2.860718,-4.149091,3.774581,1.195662,6.847999,-7.168043,8064.000000,0.000000,4.000000,,,,0.000000,4.000000,4.000000,4.000000,4.000000,2.000000,4.000000,4.000000,4.000000,4.000000,4.000000,4.000000,4.000000,4.000000,4.000000,4.000000,4.000000,4.000000,4.000000,4.000000,4.000000,4.000000,4.000000,4.000000,4.000000,4.000000,4.000000,4.000000,4.000000,4.000000,4.000000,4.000000,4.000000,83.333336
1614563129.906872,100.000000,0.000000,1.766640,-2.785999,-35.343140,5.033528,-9.427416,-2.748977,2.442445,2.876437,-7.280976,8.626444,11.859585,15.392140,0.176577,11.736756,14.386135,6.771905,5.189333,8.994698,17.879133,19.907265,2.023119,5.614787,5.352255,10.931945,7.518051,-0.516618,4.909139,-4.144942,3.770807,1.194466,4.789869,-7.160875,8064.000000,0.000000,4.000000,,,,0.000000,4.000000,4.000000,4.000000,4.000000,2.000000,4.000000,4.000000,4.000000,4.000000,4.000000,4.000000,4.000000,4.000000,4.000000,4.000000,4.000000,4.000000,4.000000,4.000000,4.000000,4.000000,4.000000,4.000000,4.000000,4.000000,4.000000,4.000000,4.000000,4.000000,4.000000,4.000000,4.000000,83.333336
1614563129.914522,101.000000,0.000000,1.764874,-2.270393,-33.769333,-0.612531,-9.930809,-2.233408,2.440002,-3.793106,-8.299336,11.181920,14.924648,13.838287,-0.336420,8.648096,12.833287,10.867698,2.107220,8.472882,18.374075,19.887356,2.533916,8.173275,5.346903,8.356910,-2.745878,-3.593025,1.314486,-4.140798,3.767036,1.193271,-3.420049,-8.179355,8064.000000,0.000000,4.000000,,,,0.000000,4.000000,4.000000,4.000000,4.000000,2.000000,4.000000,4.000000,4.000000,4.000000,4.000000,4.000000,4.000000,4.000000,4.000000,4.000000,4.000000,4.000000,4.000000,4.000000,4.000000,4.000000,4.000000,4.000000,4.000000,4.000000,4.000000,4.000000,4.000000,4.000000,4.000000,4.000000,4.000000,83.333336
1614563129.922272,102.000000,0.000000,1.763109,-2.268122,-26.556078,-7.278585,-9.408057,-3.256815,2.437562,-4.814953,-8.803858,8.606636,13.371263,14.850090,-0.336084,10.177910,13.846095,11.882471,3.130754,10.515691,17.330059,20.380289,2.018562,7.652281,5.341556,9.374194,-2.743132,-3.076612,-3.302213,-3.623836,3.763269,1.192078,-4.955091,-6.632714,8064.000000,0.000000,4.000000,,,,0.000000,4.000000,4.000000,4.000000,4.000000,2.000000,4.000000,4.000000,4.000000,4.000000,4.000000,4.000000,4.000000,4.000000,4.000000,4.000000,4.000000,4.000000,4.000000,4.000000,4.000000,4.000000,4.000000,4.000000,4.000000,4.000000,4.000000,4.000000,4.000000,4.000000,4.000000,4.000000,4.000000,83.333336
1614563129.929922,103.000000,0.000000,2.274166,-5.855598,-39.862854,-12.912333,-10.424291,-5.817661,-0.641799,-9.938344,-13.410439,-0.632740,14.896353,14.322419,0.689894,11.706193,13.832250,13.921870,9.281469,17.684662,19.876833,20.359909,2.016544,9.183090,5.336215,10.903281,-0.176286,-5.637637,-2.273269,-4.133033,3.759505,1.190886,-4.950136,-8.677363,8064.000000,0.000000,4.000000,,,,0.000000,4.000000,4.000000,4.000000,4.000000,2.000000,4.000000,4.000000,4.000000,4.000000,4.000000,4.000000,4.000000,4.000000,4.000000,4.000000,4.000000,4.000000,4.000000,4.000000,4.000000,4.000000,4.000000,4.000000,4.000000,4.000000,4.000000,4.000000,4.000000,4.000000,4.000000,4.000000,4.000000,83.333336
1614563129.937672,104.000000,0.000000,2.271892,-9.952307,-53.669144,-17.001984,-12.977969,-6.324664,-5.769362,-18.133533,-19.038054,-3.709030,6.676328,6.102969,-3.413360,2.976538,11.254314,7.754102,4.143983,12.025952,9.600545,12.647242,3.552989,5.071343,6.356520,-1.415314,-5.817135,-10.760205,-1.245355,-3.616079,3.755746,1.189695,-8.534929,-18.412275,8064.000000,0.000000,4.000000,,,,0.000000,4.000000,4.000000,4.000000,4.000000,2.000000,4.000000,4.000000,4.000000,4.000000,4.000000,4.000000,4.000000,4.000000,4.000000,4.000000,4.000000,4.000000,4.000000,4.000000,4.000000,4.000000,4.000000,4.000000,4.000000,4.000000,4.000000,4.000000,4.000000,4.000000,4.000000,4.000000,4.000000,83.333336
1614563129.945322,105.000000,0.000000,1.756800,-10.455174,-40.282143,-17.497803,-13.477812,-5.805519,-8.840515,-20.679502,-19.019016,-2.679680,-10.253425,-4.672365,-9.563793,-12.411054,8.678958,-9.176729,-14.834520,-6.960433,-12.460338,2.378184,0.472512,-5.702959,5.324522,-22.952360,-7.862600,-10.236624,-3.808213,-3.099643,3.751990,2.214147,-4.423830,-15.829761,8064.000000,0.000000,4.000000,,,,0.000000,4.000000,4.000000,4.000000,4.000000,2.000000,4.000000,4.000000,4.000000,4.000000,4.000000,4.000000,4.000000,4.000000,4.000000,4.000000,4.000000,4.000000,4.000000,4.000000,4.000000,4.000000,4.000000,4.000000,4.000000,4.000000,4.000000,4.000000,4.000000,4.000000,4.000000,4.000000,4.000000,83.333336
1614563129.953072,106.000000,0.000000,2.267863,-9.419079,-31.523912,-19.018766,-13.464334,-7.850995,-10.882957,-20.146002,-18.487177,-4.728283,-17.935480,-8.770257,-11.605512,-20.603771,6.106176,-12.757296,-25.076096,-14.132959,-21.678646,-0.188296,-9.784370,-10.825461,1.729454,-28.570435,-2.726532,-7.149465,-4.317225,-6.686286,3.748238,0.673471,2.247261,-0.429316,8064.000000,0.000000,4.000000,,,,0.000000,4.000000,4.000000,4.000000,4.000000,2.000000,4.000000,4.000000,4.000000,4.000000,4.000000,4.000000,4.000000,4.000000,4.000000,4.000000,4.000000,4.000000,4.000000,4.000000,4.000000,4.000000,4.000000,4.000000,4.000000,4.000000,4.000000,4.000000,4.000000,4.000000,4.000000,4.000000,4.000000,83.333336
1614563129.960722,107.000000,0.000000,1.752775,-9.922480,-36.107773,-18.999748,-13.450870,-9.894426,-12.923356,-16.536114,-21.032791,-1.133811,-16.891903,-8.248666,-11.593906,-19.557526,6.100070,-1.462487,-24.025379,-7.452160,-17.554403,0.324712,-17.979713,-13.891559,1.727724,-18.798273,-0.159703,-7.142315,-3.800087,-11.294985,3.744490,-2.916946,-1.857551,0.596755,8064.000000,0.000000,4.000000,,,,0.000000,4.000000,4.000000,4.000000,4.000000,2.000000,4.000000,4.000000,4.000000,4.000000,4.000000,4.000000,4.000000,4.000000,4.000000,4.000000,4.000000,4.000000,4.000000,4.000000,4.000000,4.000000,4.000000,4.000000,4.000000,4.000000,4.000000,4.000000,4.000000,4.000000,4.000000,4.000000,4.000000,83.333336
1614563129.968473,108.000000,0.000000,-4.402824,-9.912558,-20.174229,-5.134594,-13.437418,-10.397352,-13.423253,-8.827270,-18.447657,2.969887,-15.849370,-8.753238,-11.069491,-21.076429,8.145252,-0.948204,-29.129559,-10.008810,-17.536848,0.324388,-23.089939,-21.057156,2.751638,-21.856398,0.866097,-6.622352,-3.796287,-11.283689,3.740745,-1.888388,-3.906975,-1.967945,8064.000000,0.000000,4.000000,,,,0.000000,4.000000,4.000000,4.000000,4.000000,2.000000,4.000000,4.000000,4.000000,4.000000,4.000000,4.000000,4.000000,4.000000,4.000000,4.000000,4.000000,4.000000,4.000000,4.000000,4.000000,4.000000,4.000000,4.000000,4.000000,4.000000,4.000000,4.000000,4.000000,4.000000,4.000000,4.000000,4.000000,83.333336
1614563129.976123,109.000000,0.000000,-12.603549,-9.902645,-6.307901,3.075669,-13.423981,-9.874134,-12.897010,-10.356903,-11.762542,-4.725390,-17.371983,-8.231664,-11.058422,-24.645098,1.470440,-7.613923,-36.279915,-18.716749,-21.109056,0.324063,-29.220695,-23.600201,-4.430601,-35.167873,-2.211692,-5.590089,-3.279670,-11.785227,3.737005,-1.373679,-1.851786,3.675049,8064.000000,0.000000,4.000000,,,,0.000000,4.000000,4.000000,4.000000,4.000000,2.000000,4.000000,4.000000,4.000000,4.000000,4.000000,4.000000,4.000000,4.000000,4.000000,4.000000,4.000000,4.000000,4.000000,4.000000,4.000000,4.000000,4.000000,4.000000,4.000000,4.000000,4.000000,4.000000,4.000000,4.000000,4.000000,4.000000,4.000000,83.333336
1614563129.983873,110.000000,0.000000,-14.129407,-9.892742,-28.352875,-11.799202,-15.461839,-9.864261,-12.884112,-18.551674,-17.904625,-11.900152,-19.405891,-7.710612,-12.073005,-23.081991,-13.402825,-8.119129,-35.730816,-17.672392,-21.087946,-0.189081,-32.268398,-23.063780,-12.631299,-37.696812,-11.440249,-11.225524,-7.378954,-14.850365,3.733268,-10.603075,-12.619165,-9.661960,8064.000000,0.000000,4.000000,,,,0.000000,4.000000,4.000000,4.000000,4.000000,2.000000,4.000000,4.000000,4.000000,4.000000,4.000000,4.000000,4.000000,4.000000,4.000000,4.000000,4.000000,4.000000,4.000000,4.000000,4.000000,4.000000,4.000000,4.000000,4.000000,4.000000,4.000000,4.000000,4.000000,4.000000,4.000000,4.000000,4.000000,83.333336
1614563129.991523,111.000000,0.000000,-9.499893,-9.882850,-48.324524,-21.530993,-16.984838,-9.854396,-13.384049,-16.481840,-26.604670,-6.247227,-19.899307,-8.728542,-10.009649,-20.494806,-21.594551,-10.162292,-29.541239,-15.090617,-19.528397,2.375211,-24.031002,-23.553535,-14.157129,-30.479626,-8.351886,-17.880966,-10.961319,-14.322694,3.729534,-15.720677,-20.298853,-28.113836,8064.000000,0.000000,4.000000,,,,0.000000,4.000000,4.000000,4.000000,4.000000,2.000000,4.000000,4.000000,4.000000,4.000000,4.000000,4.000000,4.000000,4.000000,4.000000,4.000000,4.000000,4.000000,4.000000,4.000000,4.000000,4.000000,4.000000,4.000000,4.000000,4.000000,4.000000,4.000000,4.000000,4.000000,4.000000,4.000000,4.000000,83.333336
1614563129.999373,112.000000,0.000000,-5.900650,-9.872967,-35.968506,-8.688949,-16.967854,-9.844542,-13.370665,-8.260231,-16.321655,1.964149,-15.264023,-4.104429,-2.820153,-19.961491,-21.060135,-10.664950,-13.614262,-14.562706,-8.226817,13.142066,-7.083894,-9.683828,-13.117331,-17.115812,5.502620,-12.734879,-7.360614,-11.231448,3.212984,-6.474187,-9.509324,-14.752389,8064.000000,0.000000,4.000000,,,,0.000000,4.000000,4.000000,4.000000,4.000000,2.000000,4.000000,4.000000,4.000000,4.000000,4.000000,4.000000,4.000000,4.000000,4.000000,4.000000,4.000000,4.000000,4.000000,4.000000,4.000000,4.000000,4.000000,4.000000,4.000000,4.000000,4.000000,4.000000,4.000000,4.000000,4.000000,4.000000,4.000000,83.333336
1614563130.007123,113.000000,0.000000,-5.381928,-9.863093,-22.599203,-1.500772,-16.950886,-9.834697,-10.793192,-7.226330,-2.971999,0.936544,-11.146194,3.079162,0.772411,-14.300504,-19.500614,-3.987619,3.835250,-2.240451,11.268589,22.359694,6.769344,13.402779,-10.027290,3.414123,4.471476,-6.055478,-3.250690,-10.707396,3.722592,-1.852328,-6.935712,-0.891483,8064.000000,0.000000,4.000000,,,,0.000000,4.000000,4.000000,4.000000,4.000000,2.000000,4.000000,4.000000,4.000000,4.000000,4.000000,4.000000,4.000000,4.000000,4.000000,4.000000,4.000000,4.000000,4.000000,4.000000,4.000000,4.000000,4.000000,4.000000,4.000000,4.000000,4.000000,4.000000,4.000000,4.000000,4.000000,4.000000,4.000000,83.333336
1614563130.014873,114.000000,0.000000,-5.376547,-9.853230,-27.191990,-8.165938,-16.933935,-9.824862,-9.243937,-10.296026,-5.533130,-6.756701,-9.596587,1.537622,-0.254003,-6.593895,-20.506754,1.144574,6.908338,11.095122,24.077833,23.875795,10.352319,21.081682,-3.350596,17.769684,-6.815047,-10.664807,-3.760259,-11.209509,5.770151,-5.953040,-18.210829,-12.685463,8064.000000,0.000000,4.000000,,,,0.000000,4.000000,4.000000,4.000000,4.000000,2.000000,4.000000,4.000000,4.000000,4.000000,4.000000,4.000000,4.000000,4.000000,4.000000,4.000000,4.000000,4.000000,4.000000,4.000000,4.000000,4.000000,4.000000,4.000000,4.000000,4.000000,4.000000,4.000000,4.000000,4.000000,4.000000,4.000000,4.000000,83.333336
1614563130.022523,115.000000,0.000000,-5.371170,-9.843377,-33.318642,-11.234695,-17.429821,-9.815038,-9.747514,-12.337012,-12.194263,-10.339687,-7.022888,-3.592121,-0.253749,-4.023199,-21.511889,0.630609,7.927071,12.622489,25.079395,23.339098,9.829145,17.470858,2.293780,17.751913,-5.269770,-15.269526,-4.269320,-11.198299,7.815663,-4.921446,-15.628514,-18.313803,8064.000000,0.000000,4.000000,,,,0.000000,4.000000,4.000000,4.000000,4.000000,2.000000,4.000000,4.000000,4.000000,4.000000,4.000000,4.000000,4.000000,4.000000,4.000000,4.000000,4.000000,4.000000,4.000000,4.000000,4.000000,4.000000,4.000000,4.000000,4.000000,4.000000,4.000000,4.000000,4.000000,4.000000,4.000000,4.000000,4.000000,83.333336
1614563130.030373,116.000000,0.000000,-4.852979,-9.320713,-31.746862,-9.684999,-16.899570,-10.318043,-7.173664,-11.811855,-11.669249,-5.201143,-4.451762,-4.614170,0.259326,-3.506355,-14.823710,2.681260,17.149914,15.686790,26.079958,23.828581,13.409060,22.068771,4.855588,17.221342,1.402166,-11.664514,-3.239409,-10.674281,7.295027,-1.326781,-4.330835,-10.090361,8064.000000,0.000000,4.000000,,,,0.000000,4.000000,4.000000,4.000000,4.000000,2.000000,4.000000,4.000000,4.000000,4.000000,4.000000,4.000000,4.000000,4.000000,4.000000,4.000000,4.000000,4.000000,4.000000,4.000000,4.000000,4.000000,4.000000,4.000000,4.000000,4.000000,4.000000,4.000000,4.000000,4.000000,4.000000,4.000000,4.000000,83.333336
1614563130.038123,117.000000,0.000000,-5.360946,-7.260111,-28.125372,-9.675314,-16.882671,-9.282084,-2.551105,-11.287223,-10.631939,0.445084,-4.447310,-4.096735,-0.253754,-0.938746,5.703934,7.806784,16.107122,25.927513,26.566698,23.291931,14.934113,23.072344,6.389194,18.229761,0.375123,-9.088747,-3.236170,-11.176427,7.287732,-1.838275,-3.813683,-8.028989,8064.000000,0.000000,4.000000,,,,0.000000,4.000000,4.000000,4.000000,4.000000,2.000000,4.000000,4.000000,4.000000,4.000000,4.000000,4.000000,4.000000,4.000000,4.000000,4.000000,4.000000,4.000000,4.000000,4.000000,4.000000,4.000000,4.000000,4.000000,4.000000,4.000000,4.000000,4.000000,4.000000,4.000000,4.000000,4.000000,4.000000,83.333336
1614563130.045973,118.000000,0.000000,-5.355585,-5.714389,-28.097248,-9.152818,-17.378609,-7.221520,-1.010093,-13.327217,-12.159768,0.444639,-4.442863,-2.554177,-0.253500,-0.424987,19.544384,8.824618,4.808964,26.414406,19.873465,23.781460,10.303794,11.254399,5.869985,16.160250,-1.163713,-10.618119,-3.745754,-11.165251,7.280444,-0.297975,-5.348331,-8.533780,8064.000000,0.000000,4.000000,,,,0.000000,4.000000,4.000000,4.000000,4.000000,2.000000,4.000000,4.000000,4.000000,4.000000,4.000000,4.000000,4.000000,4.000000,4.000000,4.000000,4.000000,4.000000,4.000000,4.000000,4.000000,4.000000,4.000000,4.000000,4.000000,4.000000,4.000000,4.000000,4.000000,4.000000,4.000000,4.000000,4.000000,83.333336
1614563130.053723,119.000000,0.000000,-5.350230,-6.221495,-27.556330,-6.579563,-16.848410,-6.188657,-2.034724,-8.698505,-12.147609,-0.068626,-4.951241,2.063762,-0.253247,-1.450203,17.473558,7.790153,2.240052,20.746965,15.238207,21.193575,7.729387,3.038017,6.376935,14.605628,0.375912,-9.581861,-3.742008,-10.641265,7.273164,1.753605,-2.266060,-6.473964,8064.000000,0.000000,4.000000,,,,0.000000,4.000000,4.000000,4.000000,4.000000,2.000000,4.000000,4.000000,4.000000,4.000000,4.000000,4.000000,4.000000,4.000000,4.000000,4.000000,4.000000,4.000000,4.000000,4.000000,4.000000,4.000000,4.000000,4.000000,4.000000,4.000000,4.000000,4.000000,4.000000,4.000000,4.000000,4.000000,4.000000,83.333336
1614563130.061573,120.000000,0.000000,-5.344879,-6.215274,-23.939030,-4.521701,-12.728998,-4.644007,-2.032689,3.105065,-9.571359,0.957084,-4.433469,3.600160,-0.252994,-0.935932,17.968904,7.782363,1.212171,17.649296,12.146046,13.480074,2.593453,3.034979,5.857738,9.462817,-0.650105,-6.495355,-3.738266,-11.143444,7.265891,1.751852,-0.212512,-6.467490,8064.000000,0.000000,4.000000,,,,0.000000,4.000000,4.000000,4.000000,4.000000,2.000000,4.000000,4.000000,4.000000,4.000000,4.000000,4.000000,4.000000,4.000000,4.000000,4.000000,4.000000,4.000000,4.000000,4.000000,4.000000,4.000000,4.000000,4.000000,4.000000,4.000000,4.000000,4.000000,4.000000,4.000000,4.000000,4.000000,4.000000,83.333336
1614563130.069323,121.000000,0.000000,-5.339534,-5.696238,-21.350988,-2.978718,-8.613705,-0.536799,-1.517836,5.666062,-7.510505,0.956127,-4.429036,2.570918,-0.252741,-2.473458,19.489397,8.800221,-8.532631,11.990622,-1.199434,7.312748,-10.742474,-0.557800,0.210854,-2.854338,-3.726378,-5.463219,-4.247349,-11.132300,7.258625,1.750100,-1.237940,-6.973844,8064.000000,0.000000,4.000000,,,,0.000000,4.000000,4.000000,4.000000,4.000000,2.000000,4.000000,4.000000,4.000000,4.000000,4.000000,4.000000,4.000000,4.000000,4.000000,4.000000,4.000000,4.000000,4.000000,4.000000,4.000000,4.000000,4.000000,4.000000,4.000000,4.000000,4.000000,4.000000,4.000000,4.000000,4.000000,4.000000,4.000000,83.333336
1614563130.077173,122.000000,0.000000,-5.334195,-6.203362,-20.303995,-2.462919,-9.630733,1.515020,-2.029138,-2.544732,-8.015815,-0.070471,-6.475889,3.593988,-0.252488,-5.035087,7.675036,6.740139,-15.190765,3.773502,-15.044388,7.305435,-20.988142,-7.736729,-6.456023,-11.569432,-4.748293,-6.996217,-4.243101,-11.121168,7.251366,0.209888,-1.236702,-7.992510,8064.000000,0.000000,4.000000,,,,0.000000,4.000000,4.000000,4.000000,4.000000,2.000000,4.000000,4.000000,4.000000,4.000000,4.000000,4.000000,4.000000,4.000000,4.000000,4.000000,4.000000,4.000000,4.000000,4.000000,4.000000,4.000000,4.000000,4.000000,4.000000,4.000000,4.000000,4.000000,4.000000,4.000000,4.000000,4.000000,4.000000,83.333336
1614563130.084923,123.000000,0.000000,-5.328861,-6.197159,-19.770872,-2.460456,-9.621101,1.000684,-2.027109,-6.131931,-8.007799,0.442420,-8.520695,2.564754,-0.252235,-5.542872,-5.153152,4.169296,-12.611472,2.231267,-10.926780,8.323771,-21.992794,-9.267454,-6.449567,-10.532222,-3.717903,-5.963580,-3.726038,-12.135688,7.244115,-1.841604,-1.235466,-6.958877,8064.000000,0.000000,4.000000,,,,0.000000,4.000000,4.000000,4.000000,4.000000,2.000000,4.000000,4.000000,4.000000,4.000000,4.000000,4.000000,4.000000,4.000000,4.000000,4.000000,4.000000,4.000000,4.000000,4.000000,4.000000,4.000000,4.000000,4.000000,4.000000,4.000000,4.000000,4.000000,4.000000,4.000000,4.000000,4.000000,4.000000,83.333336
1614563130.092773,124.000000,0.000000,-5.323532,-6.190962,-25.392126,-4.509277,-8.585839,0.999684,-2.025082,-3.561696,-6.974150,0.441978,-9.024995,-1.027555,-0.251983,-5.024509,-1.558255,4.677948,-12.598860,4.793139,-1.685084,6.776986,-21.457981,-7.719725,-5.417477,-8.983229,-4.227006,-5.957616,-4.235132,-14.174834,7.236871,-2.352583,-0.721410,-5.413456,8064.000000,0.000000,4.000000,,,,0.000000,4.000000,4.000000,4.000000,4.000000,2.000000,4.000000,4.000000,4.000000,4.000000,4.000000,4.000000,4.000000,4.000000,4.000000,4.000000,4.000000,4.000000,4.000000,4.000000,4.000000,4.000000,4.000000,4.000000,4.000000,4.000000,4.000000,4.000000,4.000000,4.000000,4.000000,4.000000,4.000000,83.333336
1614563130.100523,125.000000,0.000000,-5.831029,-6.184771,-32.546223,-7.068871,-12.679817,1.511504,-1.510236,-4.583776,-9.531279,-3.148208,-9.528790,0.511934,-0.764552,-5.532305,2.545867,2.109167,-13.611902,-0.339860,-4.760322,7.795850,-16.821138,-2.583800,-6.437700,-12.051168,-3.197138,-11.592685,-4.230897,-16.211943,7.229634,-2.350230,-1.233509,-8.997787,8064.000000,0.000000,4.000000,,,,0.000000,4.000000,4.000000,4.000000,4.000000,2.000000,4.000000,4.000000,4.000000,4.000000,4.000000,4.000000,4.000000,4.000000,4.000000,4.000000,4.000000,4.000000,4.000000,4.000000,4.000000,4.000000,4.000000,4.000000,4.000000,4.000000,4.000000,4.000000,4.000000,4.000000,4.000000,4.000000,4.000000,83.333336
1614563130.108373,126.000000,0.000000,-4.799557,-6.691406,-27.898291,-6.548981,-16.256882,0.997172,-2.021547,-5.604833,-11.060209,-3.657880,-6.955159,5.639627,0.774674,-2.962670,-1.046422,-3.533968,-6.418803,-6.493366,-6.806843,14.454720,-5.009446,2.546989,-2.328698,-9.475015,3.472726,-12.093912,-0.124102,-12.605987,7.222404,-2.860700,-1.745096,-4.373405,8064.000000,0.000000,4.000000,,,,0.000000,4.000000,4.000000,4.000000,4.000000,2.000000,4.000000,4.000000,4.000000,4.000000,4.000000,4.000000,4.000000,4.000000,4.000000,4.000000,4.000000,4.000000,4.000000,4.000000,4.000000,4.000000,4.000000,4.000000,4.000000,4.000000,4.000000,4.000000,4.000000,4.000000,4.000000,4.000000,4.000000,83.333336
1614563130.116123,127.000000,0.000000,-2.230655,-5.146254,-18.126802,-3.978330,-12.138061,0.996175,-2.019525,-0.983844,-6.946585,4.550906,-2.332819,7.172449,3.338002,1.655677,-1.045376,-0.453511,4.356846,4.795178,0.379451,21.106932,4.226333,4.082903,7.417220,1.303691,11.161561,-4.902331,6.029868,-4.901073,7.215182,3.296006,0.820752,11.528405,8064.000000,0.000000,4.000000,,,,0.000000,4.000000,4.000000,4.000000,4.000000,2.000000,4.000000,4.000000,4.000000,4.000000,4.000000,4.000000,4.000000,4.000000,4.000000,4.000000,4.000000,4.000000,4.000000,4.000000,4.000000,4.000000,4.000000,4.000000,4.000000,4.000000,4.000000,4.000000,4.000000,4.000000,4.000000,4.000000,4.000000,83.333336
1614563130.123873,0.000000,0.000000,-1.202783,-3.089825,-16.057394,-2.948710,-9.048999,0.995179,-1.504685,2.606884,-4.375535,9.161740,-1.304845,6.139636,3.847485,2.679663,3.058233,7.239251,7.429412,22.226280,7.045738,23.649927,6.273389,7.155744,13.563649,6.943413,10.637579,-2.846147,7.562300,0.232034,7.207967,8.933736,1.845572,11.516876,0.000000,184.000000,4.000000,,,,0.000000,4.000000,4.000000,4.000000,4.000000,2.000000,4.000000,4.000000,4.000000,4.000000,4.000000,4.000000,4.000000,4.000000,4.000000,4.000000,4.000000,4.000000,4.000000,4.000000,4.000000,4.000000,4.000000,4.000000,4.000000,4.000000,4.000000,4.000000,4.000000,4.000000,4.000000,4.000000,4.000000,83.333336
1614563130.131623,1.000000,0.000000,-1.714401,-2.573915,-17.579798,-2.945762,-9.552771,0.994184,-4.580103,-1.498287,-7.448083,2.485911,-0.790720,6.133496,3.330817,2.164162,2.542355,8.257652,6.396342,20.152773,8.064333,23.113457,6.267115,11.251152,13.550086,4.372367,4.985916,-6.433044,7.041917,0.231802,7.200758,3.796597,-3.797299,-5.930538,0.000000,197.000000,4.000000,,,,0.000000,4.000000,4.000000,4.000000,4.000000,2.000000,4.000000,4.000000,4.000000,4.000000,4.000000,4.000000,4.000000,4.000000,4.000000,4.000000,4.000000,4.000000,4.000000,4.000000,4.000000,4.000000,4.000000,4.000000,4.000000,4.000000,4.000000,4.000000,4.000000,4.000000,4.000000,4.000000,4.000000,83.333336
1614563130.139273,2.000000,0.000000,-1.712686,-2.058520,-16.536577,-2.942816,-9.543218,0.993190,-9.190908,-5.086533,-6.414994,0.944964,4.338276,7.665824,3.327486,3.187639,2.539813,8.249394,6.902766,20.645441,17.287039,23.090343,9.337771,11.752722,11.998074,10.009021,5.493750,-6.939432,7.547696,0.231570,7.193558,-2.361046,-9.434527,-10.539991,0.000000,172.000000,4.000000,,,,0.000000,4.000000,4.000000,4.000000,4.000000,2.000000,4.000000,4.000000,4.000000,4.000000,4.000000,4.000000,4.000000,4.000000,4.000000,4.000000,4.000000,4.000000,4.000000,4.000000,4.000000,4.000000,4.000000,4.000000,4.000000,4.000000,4.000000,4.000000,4.000000,4.000000,4.000000,4.000000,4.000000,83.333336
1614563130.147023,3.000000,0.000000,-1.710974,-2.056462,-17.545681,-2.939873,-9.533675,0.992197,-9.181717,-4.055805,-3.331656,9.149147,9.974963,8.170979,3.836979,3.184452,5.614196,15.933453,6.895864,37.547871,33.167187,26.144176,13.430998,12.253789,14.550179,22.819525,11.129282,-5.906851,7.540148,0.744159,7.699185,-2.358685,-6.348170,-5.401247,0.000000,201.000000,4.000000,,,,0.000000,4.000000,4.000000,4.000000,4.000000,2.000000,4.000000,4.000000,4.000000,4.000000,4.000000,4.000000,4.000000,4.000000,4.000000,4.000000,4.000000,4.000000,4.000000,4.000000,4.000000,4.000000,4.000000,4.000000,4.000000,4.000000,4.000000,4.000000,4.000000,4.000000,4.000000,4.000000,4.000000,83.333336
1614563130.154673,4.000000,0.000000,-1.709263,-5.131329,-22.143520,-2.936933,-9.011321,0.991204,-4.044330,-5.077390,-4.353965,13.242562,10.990629,5.085885,3.320322,2.155626,7.147043,21.045725,6.888968,34.946220,30.057096,26.630854,13.417566,9.677433,19.151012,23.822346,10.605332,-6.413765,7.019787,-1.307868,7.178665,-4.407608,-1.726437,-7.959948,0.000000,182.000000,4.000000,,,,0.000000,4.000000,4.000000,4.000000,4.000000,4.000000,4.000000,4.000000,4.000000,4.000000,4.000000,4.000000,4.000000,4.000000,4.000000,4.000000,4.000000,4.000000,4.000000,4.000000,4.000000,4.000000,4.000000,4.000000,4.000000,4.000000,4.000000,4.000000,4.000000,4.000000,4.000000,4.000000,4.000000,100.000000
1614563130.162423,5.000000,0.000000,-1.707553,-5.126197,-24.172659,-2.933996,-4.899745,1.503034,1.600740,-1.995390,-4.349611,10.665217,9.953998,10.209004,3.317001,3.179112,6.627076,17.434935,4.317976,10.808711,4.898834,18.399094,6.224662,0.949807,18.619041,10.978010,8.543445,-6.407351,7.012767,-2.845021,6.658666,-4.403200,-1.211890,-7.439167,0.000000,163.000000,4.000000,,,,0.000000,4.000000,4.000000,4.000000,4.000000,4.000000,4.000000,4.000000,4.000000,4.000000,4.000000,4.000000,4.000000,4.000000,4.000000,4.000000,4.000000,4.000000,4.000000,4.000000,4.000000,4.000000,4.000000,4.000000,4.000000,4.000000,4.000000,4.000000,4.000000,4.000000,4.000000,4.000000,4.000000,100.000000
1614563130.170073,6.000000,0.000000,-1.705846,0.007134,-22.097204,-2.931062,-1.305102,0.475890,2.111959,7.750196,-1.781159,11.680193,5.328659,19.942385,3.826505,2.663112,7.133269,12.802115,-2.353009,2.592774,-12.029141,8.637105,-2.499511,-4.692169,13.985038,-3.904762,8.534902,-6.400944,7.518575,-5.406279,8.703289,0.216588,-0.185037,0.260579,0.000000,207.000000,4.000000,,,,0.000000,4.000000,4.000000,4.000000,4.000000,4.000000,4.000000,4.000000,4.000000,4.000000,4.000000,4.000000,4.000000,4.000000,4.000000,4.000000,4.000000,4.000000,4.000000,4.000000,4.000000,4.000000,4.000000,4.000000,4.000000,4.000000,4.000000,4.000000,4.000000,4.000000,4.000000,4.000000,4.000000,100.000000
1614563130.177823,7.000000,0.000000,-1.704140,-0.505693,-20.536646,-2.928131,-1.816617,-2.088689,-3.018358,9.280907,-2.292198,12.181334,-4.420259,13.255775,2.284217,-7.083141,4.562033,3.045724,-11.581425,0.026079,-13.042753,-0.602301,-12.240602,-4.174656,7.817206,-14.157268,-0.191582,-6.394543,3.921313,-12.067539,6.130484,0.216371,-0.697673,-3.329425,0.000000,205.000000,4.000000,,,,0.000000,4.000000,4.000000,4.000000,4.000000,4.000000,4.000000,4.000000,4.000000,4.000000,4.000000,4.000000,4.000000,4.000000,4.000000,4.000000,4.000000,4.000000,4.000000,4.000000,4.000000,4.000000,4.000000,4.000000,4.000000,4.000000,4.000000,4.000000,4.000000,4.000000,4.000000,4.000000,4.000000,100.000000
1614563130.185473,8.000000,0.000000,-1.702436,-6.659034,-21.541750,-2.925203,-2.327621,-3.112241,-10.194826,1.066498,-4.854009,4.476844,-14.672249,-4.706198,-0.282170,-18.358109,-4.673298,-9.265014,-19.774971,-16.384203,-15.593813,-8.294006,-18.382208,-6.734584,-0.395739,-18.758495,-10.960622,-6.388148,-1.210813,-15.132395,-3.619237,-2.860769,-6.850821,-11.018403,0.000000,188.000000,4.000000,,,,0.000000,4.000000,4.000000,4.000000,4.000000,4.000000,4.000000,4.000000,4.000000,4.000000,4.000000,4.000000,4.000000,4.000000,4.000000,4.000000,4.000000,4.000000,4.000000,4.000000,4.000000,4.000000,4.000000,4.000000,4.000000,4.000000,4.000000,4.000000,4.000000,4.000000,4.000000,4.000000,4.000000,100.000000
1614563130.193224,9.000000,0.000000,-1.700733,-6.652375,-19.468925,-2.922278,-1.299653,-2.596308,-12.748734,-4.062774,-4.849154,-3.219940,-19.785782,-9.316876,-0.794708,-21.929495,-14.925035,-14.383954,-17.703915,-24.060127,-17.629501,-2.131866,-13.748441,-7.753490,-7.062010,-17.714096,-5.308635,-5.868939,-0.183962,-11.014698,-6.692541,-2.345087,-6.843970,-3.827898,0.000000,205.000000,4.000000,,,,0.000000,4.000000,4.000000,4.000000,4.000000,4.000000,4.000000,4.000000,4.000000,4.000000,4.000000,4.000000,4.000000,4.000000,4.000000,4.000000,4.000000,4.000000,4.000000,4.000000,4.000000,4.000000,4.000000,4.000000,4.000000,4.000000,4.000000,4.000000,4.000000,4.000000,4.000000,4.000000,4.000000,100.000000
1614563130.200874,10.000000,0.000000,-1.699033,-5.620081,-20.987919,-2.919356,-2.323994,-2.593712,-12.223165,-6.109993,-3.818665,-4.242362,-20.278816,-7.769098,-0.281093,-19.343462,-19.525496,-16.420853,-8.968262,-20.959145,-11.970846,12.229240,-5.016743,-2.617532,-5.516486,-18.722023,6.491545,-5.863070,2.893146,-6.901119,-1.557643,-2.342742,-3.760203,0.791315,0.000000,196.000000,4.000000,,,,0.000000,4.000000,4.000000,4.000000,4.000000,4.000000,4.000000,4.000000,4.000000,4.000000,4.000000,4.000000,4.000000,4.000000,4.000000,4.000000,4.000000,4.000000,4.000000,4.000000,4.000000,4.000000,4.000000,4.000000,4.000000,4.000000,4.000000,4.000000,4.000000,4.000000,4.000000,4.000000,4.000000,100.000000
1614563130.208624,11.000000,0.000000,-1.697334,-9.204205,-29.172058,-2.916436,-6.937055,-2.591118,-13.236583,-8.155165,-4.327666,-3.212478,-18.207256,-8.274149,-0.280812,-13.683093,-18.480328,-15.378791,-4.856730,-17.861261,-7.343491,15.293934,-2.447624,-0.050812,-1.921226,-18.703300,3.920951,-7.908490,1.351791,-7.407039,-1.556085,-4.904502,-13.500032,-13.568451,0.000000,201.000000,4.000000,,,,0.000000,4.000000,4.000000,4.000000,4.000000,4.000000,4.000000,4.000000,4.000000,4.000000,4.000000,4.000000,4.000000,4.000000,4.000000,4.000000,4.000000,4.000000,4.000000,4.000000,4.000000,4.000000,4.000000,4.000000,4.000000,4.000000,4.000000,4.000000,4.000000,4.000000,4.000000,4.000000,4.000000,100.000000
1614563130.216274,12.000000,0.000000,-1.695636,-9.195001,-24.527502,-2.913520,-10.007041,-3.614168,-13.223346,-6.095728,-4.836159,-3.722086,-13.573664,-3.137670,-0.280531,-9.054026,-14.872105,-2.030078,-2.287770,-2.458785,2.920263,15.791460,-0.906715,1.487701,1.157618,-6.889725,-0.698354,-9.951863,-0.700843,-7.912452,-4.631452,-6.950880,-16.050634,-16.118984,0.000000,201.000000,4.000000,,,,0.000000,4.000000,4.000000,4.000000,4.000000,4.000000,4.000000,4.000000,4.000000,4.000000,4.000000,4.000000,4.000000,4.000000,4.000000,4.000000,4.000000,4.000000,4.000000,4.000000,4.000000,4.000000,4.000000,4.000000,4.000000,4.000000,4.000000,4.000000,4.000000,4.000000,4.000000,4.000000,4.000000,100.000000
1614563130.224024,13.000000,0.000000,-1.693941,-4.057600,-9.118360,-2.910606,-9.484213,-6.174657,-12.697303,-4.551171,-2.267220,-4.231184,-6.380603,2.506493,-0.280251,-8.019331,-11.780309,14.382208,6.432466,19.594955,20.866060,21.929516,4.222397,8.152880,4.746204,10.040241,6.481831,-9.941912,1.863960,-6.366078,-1.549898,-5.405467,2.939774,2.358673,0.000000,208.000000,4.000000,,,,0.000000,4.000000,4.000000,4.000000,4.000000,4.000000,4.000000,4.000000,4.000000,4.000000,4.000000,4.000000,4.000000,4.000000,4.000000,4.000000,4.000000,4.000000,4.000000,4.000000,4.000000,4.000000,4.000000,4.000000,4.000000,4.000000,4.000000,4.000000,4.000000,4.000000,4.000000,4.000000,4.000000,100.000000
1614563130.231674,14.000000,0.000000,-1.692247,-1.489440,-10.647702,-2.907696,-9.474729,-6.681303,-15.248708,-4.546619,0.299149,-1.662851,-4.322941,-1.085757,-0.279970,-8.524132,-12.794169,15.393467,11.554239,26.242027,26.486221,23.958868,7.295098,11.734470,5.767099,15.158406,11.603555,-9.931970,4.426199,-3.795609,1.015755,-3.348780,8.065040,6.458878,0.000000,201.000000,4.000000,,,,0.000000,4.000000,4.000000,4.000000,4.000000,4.000000,4.000000,4.000000,4.000000,4.000000,4.000000,4.000000,4.000000,4.000000,4.000000,4.000000,4.000000,4.000000,4.000000,4.000000,4.000000,4.000000,4.000000,4.000000,4.000000,4.000000,4.000000,4.000000,4.000000,4.000000,4.000000,4.000000,4.000000,100.000000
1614563130.239524,15.000000,0.000000,-1.690554,-2.513592,-23.457567,-2.904788,-9.978075,-6.161801,-19.336023,-3.003611,-2.778073,0.902915,-5.344259,-4.161594,-0.279691,-8.002787,-13.294196,11.275510,10.004223,22.626041,21.331530,23.422089,5.749341,11.209915,5.761332,12.066324,11.591950,-9.922037,3.396132,-3.278993,-0.010902,-2.319790,-2.199435,-3.291171,0.000000,202.000000,4.000000,,,,0.000000,4.000000,4.000000,4.000000,4.000000,4.000000,4.000000,4.000000,4.000000,4.000000,4.000000,4.000000,4.000000,4.000000,4.000000,4.000000,4.000000,4.000000,4.000000,4.000000,4.000000,4.000000,4.000000,4.000000,4.000000,4.000000,4.000000,4.000000,4.000000,4.000000,4.000000,4.000000,4.000000,100.000000
1614563130.247274,16.000000,0.000000,-1.688864,-1.998258,-21.382828,-2.901883,-9.455276,-6.668459,-21.880789,-1.462146,-7.390679,-0.636450,-0.723530,-1.593330,-0.279411,-7.994784,-3.537312,18.956541,10.507039,25.680338,23.874300,25.962769,5.230771,11.711526,7.806852,13.079900,11.067538,-9.912115,3.392736,-3.275714,-0.010891,-2.317470,2.930969,-0.210956,0.000000,195.000000,4.000000,,,,0.000000,4.000000,4.000000,4.000000,4.000000,4.000000,4.000000,4.000000,4.000000,4.000000,4.000000,4.000000,4.000000,4.000000,4.000000,4.000000,4.000000,4.000000,4.000000,4.000000,4.000000,4.000000,4.000000,4.000000,4.000000,4.000000,4.000000,4.000000,4.000000,4.000000,4.000000,4.000000,4.000000,100.000000
1614563130.255124,17.000000,0.000000,-1.687175,-3.021901,-14.694778,-2.386161,-9.445821,-6.148971,-18.781986,-0.435043,-8.408930,1.928289,7.995142,4.049289,-0.791952,-8.499610,10.312379,28.168354,9.470891,31.808504,24.876066,25.423985,6.251182,7.597250,9.337507,13.066819,7.466727,-9.902204,3.902164,-3.785259,-0.010880,-2.315152,4.979320,-1.236386,0.000000,198.000000,4.000000,,,,0.000000,4.000000,4.000000,4.000000,4.000000,4.000000,4.000000,4.000000,4.000000,4.000000,4.000000,4.000000,4.000000,4.000000,4.000000,4.000000,4.000000,4.000000,4.000000,4.000000,4.000000,4.000000,4.000000,4.000000,4.000000,4.000000,4.000000,4.000000,4.000000,4.000000,4.000000,4.000000,4.000000,100.000000
1614563130.262874,18.000000,0.000000,-1.685488,-5.582982,-20.321110,-3.409416,-9.436375,-6.142822,-10.558076,-0.434608,-7.887701,6.028925,10.551250,10.711906,-0.278339,-8.491111,14.917451,24.037622,4.333215,26.648491,13.056319,18.731895,3.168007,0.410166,9.840990,5.361445,0.279773,-9.892302,0.308518,-5.319935,-0.010869,-2.312837,-10.923095,-19.696688,0.000000,207.000000,4.000000,,,,0.000000,4.000000,4.000000,4.000000,4.000000,4.000000,4.000000,4.000000,4.000000,4.000000,4.000000,4.000000,4.000000,4.000000,4.000000,4.000000,4.000000,4.000000,4.000000,4.000000,4.000000,4.000000,4.000000,4.000000,4.000000,4.000000,4.000000,4.000000,4.000000,4.000000,4.000000,4.000000,4.000000,100.000000
1614563130.270724,19.000000,0.000000,-1.683802,-6.603039,-27.480276,-6.482929,-9.426938,-6.649499,-4.906492,-2.485456,-7.879813,0.894691,9.515058,14.803759,2.286041,-8.482619,12.338431,10.167430,1.764780,5.083381,-0.290071,12.559317,-1.450546,-1.128706,7.779867,-2.849045,-1.258968,-9.882409,-3.794355,-7.365898,-0.010859,-2.310524,-12.450634,-24.805197,0.000000,197.000000,4.000000,,,,0.000000,4.000000,4.000000,4.000000,4.000000,4.000000,4.000000,4.000000,4.000000,4.000000,4.000000,4.000000,4.000000,4.000000,4.000000,4.000000,4.000000,4.000000,4.000000,4.000000,4.000000,4.000000,4.000000,4.000000,4.000000,4.000000,4.000000,4.000000,4.000000,4.000000,4.000000,4.000000,4.000000,100.000000
1614563130.278474,20.000000,0.000000,-1.682119,-6.083616,-28.478436,-6.989267,-9.417512,-5.617209,-4.901585,1.619594,-8.384753,-1.670306,9.505543,14.276134,3.822217,-8.474136,11.300452,-0.099147,1.250194,-14.408882,-13.110293,8.957014,-2.474736,-0.101936,1.618241,-6.948760,-0.232068,-9.872526,-4.816202,-7.358532,-0.010848,-2.308214,-1.668952,-11.447059,0.000000,203.000000,4.000000,,,,0.000000,4.000000,4.000000,4.000000,4.000000,4.000000,4.000000,4.000000,4.000000,4.000000,4.000000,4.000000,4.000000,4.000000,4.000000,4.000000,4.000000,4.000000,4.000000,4.000000,4.000000,4.000000,4.000000,4.000000,4.000000,4.000000,4.000000,4.000000,4.000000,4.000000,4.000000,4.000000,4.000000,100.000000
1614563130.286324,21.000000,0.000000,-1.680436,-6.077532,-27.937138,-3.392534,-9.408094,-3.047489,-5.409504,11.874385,-7.863548,5.510851,10.008858,13.749038,3.305574,-8.465663,6.673767,-4.714433,-2.853620,-16.445755,-19.763849,6.383954,-2.985082,-0.614655,-1.973121,-8.480272,-1.257477,-9.862654,-4.298565,-7.351173,-0.010837,-2.305906,-3.718565,-6.307406,0.000000,218.000000,4.000000,,,,0.000000,4.000000,4.000000,4.000000,4.000000,4.000000,4.000000,4.000000,4.000000,4.000000,4.000000,4.000000,4.000000,4.000000,4.000000,4.000000,4.000000,4.000000,4.000000,4.000000,4.000000,4.000000,4.000000,4.000000,4.000000,4.000000,4.000000,4.000000,4.000000,4.000000,4.000000,4.000000,4.000000,100.000000
1614563130.294074,22.000000,0.000000,-1.678756,-6.071455,-26.883558,-2.363501,-9.398686,-2.018800,-4.891274,10.324049,-7.855685,5.505341,9.486028,14.248109,3.302269,-8.457197,2.051708,-5.222539,-6.953331,-9.249823,-6.923573,7.403211,-1.956456,-0.614040,0.592955,-3.343587,-0.743399,-9.339971,-3.781446,-7.343822,-0.010826,-2.816420,-5.766129,-6.813919,0.000000,197.000000,4.000000,,,,0.000000,4.000000,4.000000,4.000000,4.000000,4.000000,4.000000,4.000000,4.000000,4.000000,4.000000,4.000000,4.000000,4.000000,4.000000,4.000000,4.000000,4.000000,4.000000,4.000000,4.000000,4.000000,4.000000,4.000000,4.000000,4.000000,4.000000,4.000000,4.000000,4.000000,4.000000,4.000000,4.000000,100.000000
1614563130.301924,23.000000,0.000000,-1.677077,-6.065383,-28.907957,-5.950881,-9.389287,-2.529602,-4.886383,0.570135,-7.847829,-0.141191,9.476542,14.233861,3.298966,-8.448740,3.075298,-3.678855,-3.869454,-8.214931,7.442325,8.934270,0.609603,-0.613426,2.130824,5.377705,-0.229835,-10.356272,-4.290485,-7.336478,-0.523636,-2.300783,-2.170619,-6.807106,0.000000,223.000000,4.000000,,,,0.000000,4.000000,4.000000,4.000000,4.000000,4.000000,4.000000,4.000000,4.000000,4.000000,4.000000,4.000000,4.000000,4.000000,4.000000,4.000000,4.000000,4.000000,4.000000,4.000000,4.000000,4.000000,4.000000,4.000000,4.000000,4.000000,4.000000,4.000000,4.000000,4.000000,4.000000,4.000000,4.000000,100.000000
1614563130.309674,24.000000,0.000000,-1.675400,-6.059318,-28.879049,-4.406468,-9.892718,-2.014252,-5.394317,0.569565,-8.865623,3.448694,9.467066,13.706806,3.295667,-9.465932,-0.517521,-5.726458,3.826723,-10.257998,5.896421,12.002258,1.121814,-0.099992,0.077411,8.449250,-1.768067,-10.858736,-4.799015,-7.841962,-0.010292,-2.298483,-6.271012,-9.877221,0.000000,215.000000,4.000000,,,,0.000000,4.000000,4.000000,4.000000,4.000000,4.000000,4.000000,4.000000,4.000000,4.000000,4.000000,4.000000,4.000000,4.000000,4.000000,4.000000,4.000000,4.000000,4.000000,4.000000,4.000000,4.000000,4.000000,4.000000,4.000000,4.000000,4.000000,4.000000,4.000000,4.000000,4.000000,4.000000,4.000000,100.000000
1614563130.317524,25.000000,0.000000,-1.673725,-6.053258,-20.132221,0.726143,-9.882826,-3.037879,-5.901743,3.133098,-7.318295,4.983707,9.457599,11.641818,3.292372,-8.943645,-7.696491,-5.207911,6.386999,-0.504151,12.557191,19.682564,2.659154,4.515492,1.615795,12.030545,1.310624,-6.745313,-0.178831,-6.808479,2.041001,-3.321825,-3.700639,-1.149395,0.000000,206.000000,4.000000,,,,0.000000,4.000000,4.000000,4.000000,4.000000,4.000000,4.000000,4.000000,4.000000,4.000000,4.000000,4.000000,4.000000,4.000000,4.000000,4.000000,4.000000,4.000000,4.000000,4.000000,4.000000,4.000000,4.000000,4.000000,4.000000,4.000000,4.000000,4.000000,4.000000,4.000000,4.000000,4.000000,4.000000,100.000000
1614563130.325274,26.000000,0.000000,-1.672051,-6.560026,-12.932603,-0.813044,-8.847301,-5.598944,-5.895842,0.565862,-4.746874,-0.662302,9.448141,10.091715,3.289079,-4.319317,-2.560589,10.181912,5.867791,24.111738,34.595917,25.303907,8.810341,7.587900,6.742384,22.787745,8.488801,-2.123183,6.488014,-4.237568,4.090242,-1.780042,10.149216,14.236369,0.000000,199.000000,4.000000,,,,0.000000,4.000000,4.000000,4.000000,4.000000,4.000000,4.000000,4.000000,4.000000,4.000000,4.000000,4.000000,4.000000,4.000000,4.000000,4.000000,4.000000,4.000000,4.000000,4.000000,4.000000,4.000000,4.000000,4.000000,4.000000,4.000000,4.000000,4.000000,4.000000,4.000000,4.000000,4.000000,4.000000,100.000000
1614563130.333124,27.000000,0.000000,-1.670379,-5.527825,-18.047874,-6.966077,-10.376916,-6.618986,-5.377125,-1.998806,-5.254948,0.876821,9.951513,9.568802,3.285790,-0.725254,8.211202,27.607628,8.426026,41.523525,41.740807,26.817064,13.416915,7.580312,9.299745,28.405983,10.531594,-3.659522,6.994347,-3.207690,3.573331,2.324302,14.241631,4.478543,0.000000,220.000000,4.000000,,,,0.000000,4.000000,4.000000,4.000000,4.000000,4.000000,4.000000,4.000000,4.000000,4.000000,4.000000,4.000000,4.000000,4.000000,4.000000,4.000000,4.000000,4.000000,4.000000,4.000000,4.000000,4.000000,4.000000,4.000000,4.000000,4.000000,4.000000,4.000000,4.000000,4.000000,4.000000,4.000000,4.000000,100.000000
1614563130.340874,28.000000,0.000000,-1.668709,-2.958194,-18.542648,-5.933470,-8.828077,-7.125187,-5.884569,-2.509628,-2.685590,2.927227,9.428741,9.559234,3.282505,-1.750170,11.792734,30.656942,10.468883,41.481998,39.647785,26.277428,12.890677,7.059912,9.803265,26.839115,11.546703,-2.117401,7.500173,-3.717303,3.569758,5.398901,10.124825,-7.320807,0.000000,198.000000,4.000000,,,,0.000000,4.000000,4.000000,4.000000,4.000000,4.000000,4.000000,4.000000,4.000000,4.000000,4.000000,4.000000,4.000000,4.000000,4.000000,4.000000,4.000000,4.000000,4.000000,4.000000,4.000000,4.000000,4.000000,4.000000,4.000000,4.000000,4.000000,4.000000,4.000000,4.000000,4.000000,4.000000,4.000000,100.000000
1614563130.348724,29.000000,0.000000,-1.667040,-1.929595,-6.216413,6.892976,0.411520,-5.066780,-3.827402,2.108266,3.983762,3.949940,9.419312,12.113777,3.279222,2.354144,12.806582,33.703209,9.945593,41.953339,46.787624,25.738329,12.877788,7.565672,11.331923,28.350739,16.663363,8.653948,12.620878,-3.713585,3.566188,5.906322,11.653161,12.686514,0.000000,195.000000,4.000000,,,,0.000000,4.000000,4.000000,4.000000,4.000000,4.000000,4.000000,4.000000,4.000000,4.000000,4.000000,4.000000,4.000000,4.000000,4.000000,4.000000,4.000000,4.000000,4.000000,4.000000,4.000000,4.000000,4.000000,4.000000,4.000000,4.000000,4.000000,4.000000,4.000000,4.000000,4.000000,4.000000,4.000000,100.000000
1614563130.356474,30.000000,0.000000,-1.665373,-2.440486,-0.056350,15.091211,5.539313,-0.959149,3.868733,11.336927,8.082342,14.202401,10.435534,16.717047,3.275943,10.044098,13.306597,37.259251,10.448467,43.449848,40.074169,26.738232,11.326447,7.045286,13.371874,24.219824,18.697981,12.235037,15.172359,-3.709872,3.562622,7.951698,12.667150,26.007160,0.000000,210.000000,4.000000,,,,0.000000,4.000000,4.000000,4.000000,4.000000,4.000000,4.000000,4.000000,4.000000,4.000000,4.000000,4.000000,4.000000,4.000000,4.000000,4.000000,4.000000,4.000000,4.000000,4.000000,4.000000,4.000000,4.000000,4.000000,4.000000,4.000000,4.000000,4.000000,4.000000,4.000000,4.000000,4.000000,4.000000,100.000000
1614563130.364124,31.000000,0.000000,-1.663707,-2.438046,-2.107576,8.409453,0.405569,1.605913,9.505890,13.376872,6.535799,15.726660,8.373816,17.213152,3.272667,10.034054,11.242008,21.324554,7.873917,26.996141,13.880249,26.711494,6.699737,7.038240,12.845681,8.810987,14.576718,6.068956,14.644366,-3.706162,3.559059,9.482208,7.526277,7.519615,0.000000,179.000000,4.000000,,,,0.000000,4.000000,4.000000,4.000000,4.000000,4.000000,4.000000,4.000000,4.000000,4.000000,4.000000,4.000000,4.000000,4.000000,4.000000,4.000000,4.000000,4.000000,4.000000,4.000000,4.000000,4.000000,4.000000,4.000000,4.000000,4.000000,4.000000,4.000000,4.000000,4.000000,4.000000,4.000000,4.000000,100.000000
1614563130.371874,32.000000,0.000000,-1.662044,-2.435608,-1.592648,0.195916,-2.671760,1.604307,7.957922,10.286572,7.042083,1.864779,2.724417,17.708759,3.269394,3.870173,10.717945,-0.235231,0.686556,4.917862,-1.518246,21.556578,4.641755,7.031202,11.294374,-2.992695,14.562141,5.550066,17.706646,-3.702456,3.555500,8.959906,5.467469,-0.180212,8064.000000,0.000000,4.000000,,,,0.000000,4.000000,4.000000,4.000000,4.000000,4.000000,4.000000,4.000000,4.000000,4.000000,4.000000,4.000000,4.000000,4.000000,4.000000,4.000000,4.000000,4.000000,4.000000,4.000000,4.000000,4.000000,4.000000,4.000000,4.000000,4.000000,4.000000,4.000000,4.000000,4.000000,4.000000,4.000000,4.000000,100.000000
1614563130.379524,33.000000,0.000000,-1.660382,-0.381890,-0.565414,0.708540,-1.643447,3.653985,7.949965,10.789106,7.547862,1.862915,-1.380871,20.255152,3.266125,1.815021,9.681586,-5.363202,-2.391054,-1.753722,-4.080831,14.868354,5.662754,4.972889,9.231797,-3.502523,14.547580,11.698362,18.201759,-3.698753,3.551945,8.438125,6.487642,11.102019,8064.000000,0.000000,4.000000,,,,0.000000,4.000000,4.000000,4.000000,4.000000,4.000000,4.000000,4.000000,4.000000,4.000000,4.000000,4.000000,4.000000,4.000000,4.000000,4.000000,4.000000,4.000000,4.000000,4.000000,4.000000,4.000000,4.000000,4.000000,4.000000,4.000000,4.000000,4.000000,4.000000,4.000000,4.000000,4.000000,4.000000,100.000000
1614563130.387274,34.000000,0.000000,-1.658721,1.156953,-1.077669,2.246293,-1.641804,5.701612,9.480476,9.752676,6.514673,11.604642,-3.430773,20.234898,3.262859,2.838847,4.543700,-3.819377,-1.363022,-1.751968,-9.717775,14.340665,5.144271,3.429455,8.709745,-4.524661,11.968929,13.225126,12.029712,-3.695054,4.061213,8.429687,5.968334,12.629378,8064.000000,0.000000,4.000000,,,,0.000000,4.000000,4.000000,4.000000,4.000000,4.000000,4.000000,4.000000,4.000000,4.000000,4.000000,4.000000,4.000000,4.000000,4.000000,4.000000,4.000000,4.000000,4.000000,4.000000,4.000000,4.000000,4.000000,4.000000,4.000000,4.000000,4.000000,4.000000,4.000000,4.000000,4.000000,4.000000,4.000000,100.000000
1614563130.394924,35.000000,0.000000,-1.657063,1.668617,-1.589412,0.705585,-2.152982,4.670270,8.445354,6.153180,7.020978,12.105857,-4.965803,18.676201,3.259596,2.323188,3.513515,-4.841198,-3.412941,-6.365601,-10.733699,13.813503,5.139127,3.426025,8.701035,-7.597060,10.931319,11.673439,6.889476,-3.691359,2.518691,8.934078,5.962366,7.488544,8064.000000,0.000000,4.000000,,,,0.000000,4.000000,4.000000,4.000000,4.000000,4.000000,4.000000,4.000000,4.000000,4.000000,4.000000,4.000000,4.000000,4.000000,4.000000,4.000000,4.000000,4.000000,4.000000,4.000000,4.000000,4.000000,4.000000,4.000000,4.000000,4.000000,4.000000,4.000000,4.000000,4.000000,4.000000,4.000000,4.000000,100.000000
1614563130.402674,36.000000,0.000000,-1.655406,1.666948,-4.151925,-0.833582,-3.689291,2.101497,6.898448,7.172668,7.526778,14.145034,-5.986479,16.093422,3.256336,1.808044,1.458719,-4.323536,-5.460810,-8.923338,-9.184504,7.645844,6.159629,3.935420,8.692334,-7.076642,8.356286,10.636125,6.369767,-3.687668,-0.047931,8.412323,6.469224,6.968235,8064.000000,0.000000,4.000000,,,,0.000000,4.000000,4.000000,4.000000,4.000000,4.000000,4.000000,4.000000,4.000000,4.000000,4.000000,4.000000,4.000000,4.000000,4.000000,4.000000,4.000000,4.000000,4.000000,4.000000,4.000000,4.000000,4.000000,4.000000,4.000000,4.000000,4.000000,4.000000,4.000000,4.000000,4.000000,4.000000,4.000000,100.000000
1614563130.410324,37.000000,0.000000,-1.653750,-1.411642,-16.455465,-6.473774,-5.736884,1.073755,2.276165,4.088572,1.365405,14.130889,-5.467671,7.872200,3.253080,2.319057,-11.363252,-5.857675,-2.891247,-8.401594,-15.841986,0.458711,3.076546,3.418664,9.196463,-7.069565,0.142801,6.522924,5.850576,-3.683980,-0.560703,5.839808,2.873011,0.294600,8064.000000,0.000000,4.000000,,,,0.000000,4.000000,4.000000,4.000000,4.000000,4.000000,4.000000,4.000000,4.000000,4.000000,4.000000,4.000000,4.000000,4.000000,4.000000,4.000000,4.000000,4.000000,4.000000,4.000000,4.000000,4.000000,4.000000,4.000000,4.000000,4.000000,4.000000,4.000000,4.000000,4.000000,4.000000,4.000000,4.000000,100.000000
1614563130.418074,38.000000,0.000000,-1.652096,-6.025615,-30.285164,-12.108326,-5.731147,1.585501,-7.982522,-7.710388,-6.841088,-3.831960,-4.436563,2.736123,3.249827,2.316737,-21.095478,-7.390278,-0.837073,-8.393192,-16.338964,-1.593030,-2.567556,3.415245,6.623164,-6.549675,-5.498367,-1.688727,1.742162,-3.680296,-0.560143,4.295507,-3.796529,-11.500566,8064.000000,0.000000,4.000000,,,,0.000000,4.000000,4.000000,4.000000,4.000000,4.000000,4.000000,4.000000,4.000000,4.000000,4.000000,4.000000,4.000000,4.000000,4.000000,4.000000,4.000000,4.000000,4.000000,4.000000,4.000000,4.000000,4.000000,4.000000,4.000000,4.000000,4.000000,4.000000,4.000000,4.000000,4.000000,4.000000,4.000000,100.000000
