title:26, start timestamp:1614563283.971834, stop timestamp:1614563328.939671, headset type:EPOCFLEX, headset serial:F00001ED, headset firmware:f12, subject name:s15, channels:75, sampling rate:128, samples:5803      , version:2.0
Timestamp,EEG.Counter,EEG.Interpolated,EEG.Cz,EEG.Fz,EEG.Fp1,EEG.F7,EEG.F3,EEG.FC1,EEG.C3,EEG.FC5,EEG.FT9,EEG.T7,EEG.TP9,EEG.CP5,EEG.CP1,EEG.P3,EEG.P7,EEG.O1,EEG.Pz,EEG.Oz,EEG.O2,EEG.P8,EEG.P4,EEG.CP2,EEG.CP6,EEG.TP10,EEG.T8,EEG.FT10,EEG.FC6,EEG.C4,EEG.FC2,EEG.F4,EEG.F8,EEG.Fp2,EEG.HighBitFlex,EEG.RawCq,EEG.Battery,MarkerIndex,MarkerType,MarkerValueInt,EEG.MarkerHardware,CQ.Cz,CQ.Fz,CQ.Fp1,CQ.F7,CQ.F3,CQ.FC1,CQ.C3,CQ.FC5,CQ.FT9,CQ.T7,CQ.TP9,CQ.CP5,CQ.CP1,CQ.P3,CQ.P7,CQ.O1,CQ.Pz,CQ.Oz,CQ.O2,CQ.P8,CQ.P4,CQ.CP2,CQ.CP6,CQ.TP10,CQ.T8,CQ.FT10,CQ.FC6,CQ.C4,CQ.FC2,CQ.F4,CQ.F8,CQ.Fp2,CQ.Overall
1614563283.971834,20.000000,0.000000,-8.301793,5.206034,-1.842422,-16.972834,0.565109,-3.353030,-8.454442,-11.444451,-8.021333,-3.319806,-4.932356,-8.468146,-8.689288,-3.635936,-22.420046,-13.734808,-10.496392,-3.733636,-20.332182,-26.670637,-7.876290,-9.572180,1.620518,-8.845685,12.709942,13.196315,23.080166,8.103187,5.264398,16.948195,43.347599,12.680566,0.000000,178.000000,4.000000,,,,0.000000,4.000000,4.000000,4.000000,4.000000,4.000000,4.000000,4.000000,4.000000,4.000000,4.000000,4.000000,4.000000,4.000000,4.000000,4.000000,4.000000,4.000000,4.000000,4.000000,4.000000,4.000000,4.000000,4.000000,4.000000,4.000000,4.000000,4.000000,4.000000,4.000000,4.000000,4.000000,4.000000,100.000000
1614563283.979484,21.000000,0.000000,-8.293491,5.200828,-19.789297,-18.494324,0.564544,-3.349677,-7.933167,-8.868904,-8.013311,-2.290845,-4.927424,-7.946858,-5.603676,-3.632300,-19.833523,-16.797997,-0.742306,-7.319645,-18.260569,-27.156786,-5.817132,-6.998505,2.644538,-7.811198,4.492104,2.926708,18.441702,8.095083,5.771954,10.264579,28.945278,-9.383397,0.000000,236.000000,4.000000,,,,0.000000,4.000000,4.000000,4.000000,4.000000,4.000000,4.000000,4.000000,4.000000,4.000000,4.000000,4.000000,4.000000,4.000000,4.000000,4.000000,4.000000,4.000000,4.000000,4.000000,4.000000,4.000000,4.000000,4.000000,4.000000,4.000000,4.000000,4.000000,4.000000,4.000000,4.000000,4.000000,4.000000,100.000000
1614563283.987233,22.000000,0.000000,-8.285197,5.195627,-4.384892,-15.911726,0.563980,-3.346328,-7.925234,-7.321574,4.815215,-2.288555,-5.435317,-7.938911,-5.598073,-3.628667,-15.711125,-11.652993,2.848180,-9.363608,-16.191025,-26.616810,-3.760033,-2.376122,1.616253,-5.752105,8.590176,6.513525,17.910439,8.086988,4.227720,11.279955,34.044537,5.497781,0.000000,205.000000,4.000000,,,,0.000000,4.000000,4.000000,4.000000,4.000000,4.000000,4.000000,4.000000,4.000000,4.000000,4.000000,4.000000,4.000000,4.000000,4.000000,4.000000,4.000000,4.000000,4.000000,4.000000,4.000000,4.000000,4.000000,4.000000,4.000000,4.000000,4.000000,4.000000,4.000000,4.000000,4.000000,4.000000,4.000000,100.000000
1614563283.994882,23.000000,0.000000,-8.276913,5.190432,16.132313,-8.203506,0.563416,-2.830161,-10.481411,-6.288611,11.477066,-0.234984,-4.917061,-7.930973,-6.618115,-3.112218,-5.951825,-8.564417,-0.744412,-0.636296,-15.149194,-26.590193,-4.269094,-0.835284,2.127457,-4.207891,16.786715,17.789063,19.430990,8.078901,1.659390,17.935343,42.728443,28.056385,0.000000,193.000000,4.000000,,,,0.000000,4.000000,4.000000,4.000000,4.000000,4.000000,4.000000,4.000000,4.000000,4.000000,4.000000,4.000000,4.000000,4.000000,4.000000,4.000000,4.000000,4.000000,4.000000,4.000000,4.000000,4.000000,4.000000,4.000000,4.000000,4.000000,4.000000,4.000000,4.000000,4.000000,4.000000,4.000000,4.000000,100.000000
1614563284.002632,24.000000,0.000000,-8.268636,5.185241,14.577719,-5.118380,0.562852,-3.340151,-11.496571,-2.179759,6.850204,6.431918,0.216061,-2.282016,-6.098677,-1.570644,5.336178,-0.863545,-1.256488,7.569469,-8.980198,-26.563602,-4.264824,-1.860090,7.253535,-2.152401,16.257107,20.335377,18.898739,8.583643,1.657731,18.943048,41.147251,24.951406,0.000000,197.000000,4.000000,,,,0.000000,4.000000,4.000000,4.000000,4.000000,4.000000,4.000000,4.000000,4.000000,4.000000,4.000000,4.000000,4.000000,4.000000,4.000000,4.000000,4.000000,4.000000,4.000000,4.000000,4.000000,4.000000,4.000000,4.000000,4.000000,4.000000,4.000000,4.000000,4.000000,4.000000,4.000000,4.000000,4.000000,100.000000
1614563284.010281,25.000000,0.000000,-8.260366,5.180056,14.563141,-2.549159,0.562289,-3.336811,-9.433792,3.463447,10.945918,15.656255,3.805588,5.412574,-3.015655,0.482208,19.689817,14.009113,-0.742411,9.613181,-5.381474,-26.024218,-3.234918,-1.345409,10.836024,-0.098967,15.215208,18.776579,18.367020,8.575060,1.656073,17.898464,40.080463,17.234148,0.000000,207.000000,4.000000,,,,0.000000,4.000000,4.000000,4.000000,4.000000,4.000000,4.000000,4.000000,4.000000,4.000000,4.000000,4.000000,4.000000,4.000000,4.000000,4.000000,4.000000,4.000000,4.000000,4.000000,4.000000,4.000000,4.000000,4.000000,4.000000,4.000000,4.000000,4.000000,4.000000,4.000000,4.000000,4.000000,4.000000,100.000000
1614563284.018030,26.000000,0.000000,-8.252107,5.687696,22.753706,3.607236,0.561727,-2.820654,-9.424358,6.024086,18.114460,16.666239,2.776142,6.432802,-4.551101,0.481726,21.208588,11.431002,-3.305771,7.039465,-9.478657,-25.998194,-3.744504,-1.856884,7.748266,-1.124509,15.712813,19.783443,18.861473,7.540843,1.654417,17.880566,40.553204,22.857939,0.000000,189.000000,4.000000,,,,0.000000,4.000000,4.000000,4.000000,4.000000,4.000000,4.000000,4.000000,4.000000,4.000000,4.000000,4.000000,4.000000,4.000000,4.000000,4.000000,4.000000,4.000000,4.000000,4.000000,4.000000,4.000000,4.000000,4.000000,4.000000,4.000000,4.000000,4.000000,4.000000,4.000000,4.000000,4.000000,4.000000,100.000000
1614563284.025680,27.000000,0.000000,-7.731034,4.143547,25.807877,-2.550217,0.561165,-3.330654,-11.466216,1.402677,12.455319,5.880342,2.773366,-0.753118,-12.238857,-2.595679,3.751482,-3.965044,-4.840927,0.878580,-12.033280,-24.946554,-4.253580,-1.342207,6.202056,-4.713128,9.543255,19.250839,19.355433,9.071764,1.652762,18.888325,40.512650,30.014568,0.000000,204.000000,4.000000,,,,0.000000,4.000000,4.000000,4.000000,4.000000,4.000000,4.000000,4.000000,4.000000,4.000000,4.000000,4.000000,4.000000,4.000000,4.000000,4.000000,4.000000,4.000000,4.000000,4.000000,4.000000,4.000000,4.000000,4.000000,4.000000,4.000000,4.000000,4.000000,4.000000,4.000000,4.000000,4.000000,4.000000,100.000000
1614563284.033429,28.000000,0.000000,-9.774585,2.088122,18.602581,-21.009205,0.560604,-7.429887,-11.967570,-12.444880,3.724916,-5.407589,3.283413,-8.957493,-17.867645,-6.695647,-9.072782,-4.473900,-5.861727,-2.199222,-11.508427,-25.434429,-3.223686,-1.340865,6.708674,-3.682774,-2.773981,15.129025,19.848896,8.037051,0.112648,17.843796,31.754189,20.240963,0.000000,199.000000,4.000000,,,,0.000000,4.000000,4.000000,4.000000,4.000000,4.000000,4.000000,4.000000,4.000000,4.000000,4.000000,4.000000,4.000000,4.000000,4.000000,4.000000,4.000000,4.000000,4.000000,4.000000,4.000000,4.000000,4.000000,4.000000,4.000000,4.000000,4.000000,4.000000,4.000000,4.000000,4.000000,4.000000,4.000000,100.000000
1614563284.041079,29.000000,0.000000,-11.816092,1.060392,-0.903201,-29.193325,0.560043,-11.012200,-11.955603,-22.688845,0.131447,-10.530387,-2.873717,-16.128023,-18.362597,-10.278695,-16.243196,-9.597631,-7.907147,-4.248304,-13.035380,-31.050020,-4.758923,-4.929267,1.573761,-4.191912,-10.976335,8.960050,19.316227,0.336707,-1.938747,12.184927,10.183972,-4.907482,0.000000,194.000000,4.000000,,,,0.000000,4.000000,4.000000,4.000000,4.000000,4.000000,4.000000,4.000000,4.000000,4.000000,4.000000,4.000000,4.000000,4.000000,4.000000,4.000000,4.000000,4.000000,4.000000,4.000000,4.000000,4.000000,4.000000,4.000000,4.000000,4.000000,4.000000,4.000000,4.000000,4.000000,4.000000,4.000000,4.000000,100.000000
1614563284.048828,30.000000,0.000000,-9.752995,1.572153,-18.851017,-27.625669,0.559483,-11.001188,-10.405186,-22.666157,-3.458428,-13.083959,-13.640074,-19.701637,-16.805773,-11.294058,-30.073107,-31.639315,-8.924881,-15.526108,-18.663370,-37.172817,-11.933652,-9.026902,-5.094480,-12.392848,-9.426897,1.258782,19.296911,-6.843117,-1.936808,4.480434,-7.774929,-23.364113,0.000000,193.000000,4.000000,,,,0.000000,4.000000,4.000000,4.000000,4.000000,4.000000,4.000000,4.000000,4.000000,4.000000,4.000000,4.000000,4.000000,4.000000,4.000000,4.000000,4.000000,4.000000,4.000000,4.000000,4.000000,4.000000,4.000000,4.000000,4.000000,4.000000,4.000000,4.000000,4.000000,4.000000,4.000000,4.000000,4.000000,100.000000
1614563284.056477,31.000000,0.000000,-7.691959,1.570580,-17.293703,-28.110865,0.558924,-10.477366,-8.343498,-22.130669,-5.506252,-13.583695,-17.216177,-18.143475,-12.686403,-10.769943,-35.684059,-40.838444,-8.915956,-25.254171,-28.901117,-44.827950,-16.024282,-9.017876,-6.115026,-20.072763,-10.955932,-3.357862,18.764793,-7.349095,-2.447692,2.937492,-8.792795,-23.853569,0.000000,202.000000,4.000000,,,,0.000000,4.000000,4.000000,4.000000,4.000000,4.000000,4.000000,4.000000,4.000000,4.000000,4.000000,4.000000,4.000000,4.000000,4.000000,4.000000,4.000000,4.000000,4.000000,4.000000,4.000000,4.000000,4.000000,4.000000,4.000000,4.000000,4.000000,4.000000,4.000000,4.000000,4.000000,4.000000,4.000000,100.000000
1614563284.064227,32.000000,0.000000,-8.197087,1.569010,-10.096923,-27.057112,0.558365,-10.979710,-11.412078,-23.134180,-4.475104,-13.570111,-15.660500,-21.715075,-9.596794,-14.861737,-35.135555,-42.848888,-9.419861,-28.818661,-39.128628,-57.090816,-15.495438,-10.547319,-4.570450,-20.565510,-23.252668,-3.354504,11.566542,-6.316104,-1.932423,3.447375,-7.245541,-20.752792,8064.000000,0.000000,4.000000,,,,0.000000,4.000000,4.000000,4.000000,4.000000,4.000000,4.000000,4.000000,4.000000,4.000000,4.000000,4.000000,4.000000,4.000000,4.000000,4.000000,4.000000,4.000000,4.000000,4.000000,4.000000,4.000000,4.000000,4.000000,4.000000,4.000000,4.000000,4.000000,4.000000,4.000000,4.000000,4.000000,4.000000,100.000000
1614563284.071876,33.000000,0.000000,-8.188890,1.567441,-20.343237,-24.978773,0.557807,-10.455910,-14.990410,-22.085405,-7.034732,-15.607823,-20.773045,-30.411308,-10.612838,-22.026363,-46.895290,-55.626553,-8.384800,-36.482151,-43.192062,-67.290131,-16.505583,-13.100874,-6.104341,-20.032124,-32.460186,-6.940893,-4.855281,-6.822609,-1.930491,-1.171457,-15.956244,-27.911528,8064.000000,0.000000,4.000000,,,,0.000000,4.000000,4.000000,4.000000,4.000000,4.000000,4.000000,4.000000,4.000000,4.000000,4.000000,4.000000,4.000000,4.000000,4.000000,4.000000,4.000000,4.000000,4.000000,4.000000,4.000000,4.000000,4.000000,4.000000,4.000000,4.000000,4.000000,4.000000,4.000000,4.000000,4.000000,4.000000,4.000000,100.000000
1614563284.079725,34.000000,0.000000,-8.180701,1.565873,-33.656227,-28.543537,0.557249,-10.445454,-15.488239,-22.576139,-14.720005,-15.592216,-22.803553,-31.406538,-9.063764,-23.029978,-47.874039,-49.417080,-8.889235,-36.445667,-44.174511,-68.761307,-19.053181,-13.087773,-6.098237,-19.499271,-33.966187,-13.087798,-18.696579,-6.815786,-4.492663,-7.836952,-21.581314,-37.627205,8064.000000,0.000000,4.000000,,,,0.000000,4.000000,4.000000,4.000000,4.000000,4.000000,4.000000,4.000000,4.000000,4.000000,4.000000,4.000000,4.000000,4.000000,4.000000,4.000000,4.000000,4.000000,4.000000,4.000000,4.000000,4.000000,4.000000,4.000000,4.000000,4.000000,4.000000,4.000000,4.000000,4.000000,4.000000,4.000000,4.000000,100.000000
1614563284.087474,35.000000,0.000000,-8.172521,1.564308,-32.084110,-30.566277,0.556692,-10.435008,-16.498392,-21.015102,-17.269388,-10.961239,-10.473058,-26.246927,-6.490597,-13.776178,-23.723598,-22.700996,-8.880346,-21.024607,-37.463669,-67.154083,-18.521307,-12.561865,-5.066497,-19.479773,-31.368118,-13.587531,-17.139421,-6.808970,-6.026632,-9.367577,-14.380245,-35.025475,8064.000000,0.000000,4.000000,,,,0.000000,4.000000,4.000000,4.000000,4.000000,4.000000,4.000000,4.000000,4.000000,4.000000,4.000000,4.000000,4.000000,4.000000,4.000000,4.000000,4.000000,4.000000,4.000000,4.000000,4.000000,4.000000,4.000000,4.000000,4.000000,4.000000,4.000000,4.000000,4.000000,4.000000,4.000000,4.000000,4.000000,100.000000
1614563284.095324,36.000000,0.000000,-8.164349,1.562743,-26.410999,-28.997250,0.043314,-10.424573,-11.353689,-13.301779,-13.149554,-8.898995,2.870749,-19.554012,-5.971286,-1.454710,-4.212696,-7.806500,-0.666338,-7.670249,-18.964668,-54.779236,-12.861759,-12.549303,-5.574252,-15.357729,-20.567518,-11.522661,-5.327410,-4.750880,-1.405221,-5.255645,-4.622275,-23.708399,8064.000000,0.000000,4.000000,,,,0.000000,4.000000,4.000000,4.000000,4.000000,4.000000,4.000000,4.000000,4.000000,4.000000,4.000000,4.000000,4.000000,4.000000,4.000000,4.000000,4.000000,4.000000,4.000000,4.000000,4.000000,4.000000,4.000000,4.000000,4.000000,4.000000,4.000000,4.000000,4.000000,4.000000,4.000000,4.000000,4.000000,100.000000
1614563284.103073,37.000000,0.000000,-8.156184,1.561180,-22.794844,-25.891329,1.581733,-10.414148,-1.598746,-5.083349,-9.033840,-9.402917,6.970442,-10.303690,-3.914033,5.213412,-2.670022,-0.619207,9.590738,-2.534373,-1.509805,-27.544970,-1.566846,-12.536754,-4.543036,1.067886,-5.162335,-9.459856,2.883045,-0.643565,2.185928,1.416277,2.561835,-14.453921,8064.000000,0.000000,4.000000,,,,0.000000,4.000000,4.000000,4.000000,4.000000,4.000000,4.000000,4.000000,4.000000,4.000000,4.000000,4.000000,4.000000,4.000000,4.000000,4.000000,4.000000,4.000000,4.000000,4.000000,4.000000,4.000000,4.000000,4.000000,4.000000,4.000000,4.000000,4.000000,4.000000,4.000000,4.000000,4.000000,4.000000,100.000000
1614563284.110922,38.000000,0.000000,-8.148028,2.072440,-12.002818,-22.275694,3.631433,-10.403734,-6.212532,-2.514163,-7.999166,-9.393514,5.937831,-3.626719,-3.397298,3.669737,-2.154531,6.560900,10.606789,1.570725,8.235294,-2.902040,8.691131,-12.524218,0.589712,19.528357,-0.541789,-5.347832,4.418624,1.408361,1.670922,3.978964,13.841324,-5.721519,8064.000000,0.000000,4.000000,,,,0.000000,4.000000,4.000000,4.000000,4.000000,4.000000,4.000000,4.000000,4.000000,4.000000,4.000000,4.000000,4.000000,4.000000,4.000000,4.000000,4.000000,4.000000,4.000000,4.000000,4.000000,4.000000,4.000000,4.000000,4.000000,4.000000,4.000000,4.000000,4.000000,4.000000,4.000000,4.000000,4.000000,100.000000
1614563284.118671,39.000000,0.000000,-8.139880,0.531906,-5.836969,-19.689316,4.653442,-10.393331,-18.514011,-3.537290,-7.991166,-9.896941,6.444714,-6.187195,-8.009286,1.101965,0.924547,10.656902,7.006439,5.671719,22.073214,5.818810,11.759363,-12.511693,8.281430,23.098572,-2.592529,-2.265562,4.414205,0.894132,1.669251,3.462164,14.340303,-4.177336,8064.000000,0.000000,4.000000,,,,0.000000,4.000000,4.000000,4.000000,4.000000,4.000000,4.000000,4.000000,4.000000,4.000000,4.000000,4.000000,4.000000,4.000000,4.000000,4.000000,4.000000,4.000000,4.000000,4.000000,4.000000,4.000000,4.000000,4.000000,4.000000,4.000000,4.000000,4.000000,4.000000,4.000000,4.000000,4.000000,4.000000,100.000000
1614563284.126521,40.000000,0.000000,-8.131740,-1.519908,-10.959337,-20.182446,4.135969,-10.382937,-20.546780,-3.020932,-7.983175,-6.297301,7.976730,-7.719470,-10.565379,0.588042,3.487725,21.928297,4.948150,12.845534,31.794729,3.248889,10.721963,-13.012002,12.888534,21.537012,-2.077116,-2.776116,4.922612,0.893238,2.180402,3.458702,0.992629,-14.429568,8064.000000,0.000000,4.000000,,,,0.000000,4.000000,4.000000,4.000000,4.000000,4.000000,4.000000,4.000000,4.000000,4.000000,4.000000,4.000000,4.000000,4.000000,4.000000,4.000000,4.000000,4.000000,4.000000,4.000000,4.000000,4.000000,4.000000,4.000000,4.000000,4.000000,4.000000,4.000000,4.000000,4.000000,4.000000,4.000000,4.000000,100.000000
1614563284.134270,41.000000,0.000000,-8.123609,-2.544029,-5.820173,-19.136623,4.131833,-10.372555,-17.962130,-3.017911,-7.462371,0.888484,9.507215,-6.686109,-10.554813,0.587454,6.048339,31.137138,1.866279,18.986534,24.583447,-4.959488,10.711241,-12.486170,11.850003,23.053936,-1.049398,-1.747699,5.430510,1.405165,0.126940,3.968064,0.478816,-9.799754,8064.000000,0.000000,4.000000,,,,0.000000,4.000000,4.000000,4.000000,4.000000,4.000000,4.000000,4.000000,4.000000,4.000000,4.000000,4.000000,4.000000,4.000000,4.000000,4.000000,4.000000,4.000000,4.000000,4.000000,4.000000,4.000000,4.000000,4.000000,4.000000,4.000000,4.000000,4.000000,4.000000,4.000000,4.000000,4.000000,4.000000,100.000000
1614563284.142119,42.000000,0.000000,-8.115484,-2.028665,4.954878,-19.630306,4.127701,-10.875003,-19.482630,-3.014894,-7.454909,1.400416,10.010529,-7.705064,-10.544259,0.074046,7.067932,17.259848,-1.212510,13.839343,17.379377,-13.159657,11.213350,-12.473683,9.786872,17.389856,-1.561169,-2.258772,4.912258,0.890940,-1.924469,3.964096,12.273210,0.466456,8064.000000,0.000000,4.000000,,,,0.000000,4.000000,4.000000,4.000000,4.000000,4.000000,4.000000,4.000000,4.000000,4.000000,4.000000,4.000000,4.000000,4.000000,4.000000,4.000000,4.000000,4.000000,4.000000,4.000000,4.000000,4.000000,4.000000,4.000000,4.000000,4.000000,4.000000,4.000000,4.000000,4.000000,4.000000,4.000000,4.000000,100.000000
1614563284.149869,43.000000,0.000000,-8.107369,-2.026636,-1.716744,-23.713242,4.123573,-10.351307,-19.463146,-3.524699,-8.985915,-1.677908,9.487698,-6.671718,-6.943971,0.073972,8.086505,3.909254,-1.724118,7.671658,18.387638,-14.172138,10.689316,-13.486851,9.264264,10.192979,-3.610890,-6.359077,3.368885,0.890049,-2.435365,2.934491,11.235295,-14.405806,8064.000000,0.000000,4.000000,,,,0.000000,4.000000,4.000000,4.000000,4.000000,4.000000,4.000000,4.000000,4.000000,4.000000,4.000000,4.000000,4.000000,4.000000,4.000000,4.000000,4.000000,4.000000,4.000000,4.000000,4.000000,4.000000,4.000000,4.000000,4.000000,4.000000,4.000000,4.000000,4.000000,4.000000,4.000000,4.000000,4.000000,100.000000
1614563284.157718,44.000000,0.000000,-8.099262,-2.024609,-4.791950,-21.638245,4.119450,-7.264033,-16.366760,-3.521174,-7.951289,-2.189050,9.991031,-5.126585,-0.270360,0.073898,3.975855,3.392524,-1.722394,8.689627,10.676943,-16.722069,8.114524,-11.934902,9.767820,9.157146,-2.068817,-1.737334,9.006541,0.889159,-1.920110,3.957197,9.685598,-18.493963,8064.000000,0.000000,4.000000,,,,0.000000,4.000000,4.000000,4.000000,4.000000,4.000000,4.000000,4.000000,4.000000,4.000000,4.000000,4.000000,4.000000,4.000000,4.000000,4.000000,4.000000,4.000000,4.000000,4.000000,4.000000,4.000000,4.000000,4.000000,4.000000,4.000000,4.000000,4.000000,4.000000,4.000000,4.000000,4.000000,4.000000,100.000000
1614563284.165467,45.000000,0.000000,-8.091163,-2.022585,3.930791,-16.488401,4.115330,-4.179846,-14.299111,-3.004833,-6.917696,-4.750964,7.929757,-7.685561,1.268372,-1.464637,-9.361455,-3.277535,-2.233492,2.014271,-4.718349,-26.961758,5.542307,-6.281941,9.245232,5.558244,4.599918,4.931070,14.638560,0.375449,0.133093,6.517343,21.470785,3.575812,8064.000000,0.000000,4.000000,,,,0.000000,4.000000,4.000000,4.000000,4.000000,4.000000,4.000000,4.000000,4.000000,4.000000,4.000000,4.000000,4.000000,4.000000,4.000000,4.000000,4.000000,4.000000,4.000000,4.000000,4.000000,4.000000,4.000000,4.000000,4.000000,4.000000,4.000000,4.000000,4.000000,4.000000,4.000000,4.000000,4.000000,100.000000
1614563284.173316,46.000000,0.000000,-8.083072,-2.020562,-7.868012,-21.087297,4.111215,-2.637204,-12.746351,-4.540289,-11.526163,-9.361597,3.306443,-11.780439,1.267103,-4.027275,-16.018761,-11.479385,1.358485,-10.295436,-8.816195,-32.063000,5.536765,-0.121814,7.184705,-1.113980,1.518395,-4.817451,8.470076,0.375074,1.671421,5.485184,16.833929,-6.684174,8064.000000,0.000000,4.000000,,,,0.000000,4.000000,4.000000,4.000000,4.000000,4.000000,4.000000,4.000000,4.000000,4.000000,4.000000,4.000000,4.000000,4.000000,4.000000,4.000000,4.000000,4.000000,4.000000,4.000000,4.000000,4.000000,4.000000,4.000000,4.000000,4.000000,4.000000,4.000000,4.000000,4.000000,4.000000,4.000000,4.000000,100.000000
1614563284.181066,47.000000,0.000000,-8.074988,-2.018542,-25.296041,-28.758518,4.107103,-3.147388,-11.707964,-6.587031,-12.540278,-10.377877,0.739034,-11.768659,3.829939,-4.536068,-17.541203,-12.493547,5.972511,-13.362063,-5.730456,-29.466835,6.556869,1.929590,5.639059,-2.651328,-10.790815,-17.633146,0.769298,0.887519,1.669750,1.377135,-3.182905,-36.933899,8064.000000,0.000000,4.000000,,,,0.000000,4.000000,4.000000,4.000000,4.000000,4.000000,4.000000,4.000000,4.000000,4.000000,4.000000,4.000000,4.000000,4.000000,4.000000,4.000000,4.000000,4.000000,4.000000,4.000000,4.000000,4.000000,4.000000,4.000000,4.000000,4.000000,4.000000,4.000000,4.000000,4.000000,4.000000,4.000000,4.000000,100.000000
1614563284.188715,48.000000,0.000000,-8.579734,-2.016523,-15.014335,-24.627195,4.102996,-3.144240,-11.696256,-7.606085,-2.271327,-9.854678,1.763936,-11.756890,4.851750,-3.505891,-24.190329,-11.968233,5.966538,-12.323060,-7.263187,-33.027111,5.011851,0.902020,5.633420,-3.674318,-12.831306,-13.512949,0.255708,-0.139010,1.668080,0.350117,1.435663,-23.050812,8064.000000,0.000000,4.000000,,,,0.000000,4.000000,4.000000,4.000000,4.000000,4.000000,4.000000,4.000000,4.000000,4.000000,4.000000,4.000000,4.000000,4.000000,4.000000,4.000000,4.000000,4.000000,4.000000,4.000000,4.000000,4.000000,4.000000,4.000000,4.000000,4.000000,4.000000,4.000000,4.000000,4.000000,4.000000,4.000000,4.000000,100.000000
1614563284.196464,49.000000,0.000000,-8.058333,-2.014507,-1.153167,-16.910261,4.098894,-3.141096,-11.684560,-7.085659,4.910431,-7.793541,1.762172,-11.745133,4.334078,-4.528027,-20.576395,-7.340880,5.447751,-11.797916,-2.127718,-31.968443,6.545300,3.465220,5.627786,1.457562,-5.638988,-5.807128,0.255452,0.886770,1.666412,2.401049,20.921406,2.100443,8064.000000,0.000000,4.000000,,,,0.000000,4.000000,4.000000,4.000000,4.000000,4.000000,4.000000,4.000000,4.000000,4.000000,4.000000,4.000000,4.000000,4.000000,4.000000,4.000000,4.000000,4.000000,4.000000,4.000000,4.000000,4.000000,4.000000,4.000000,4.000000,4.000000,4.000000,4.000000,4.000000,4.000000,4.000000,4.000000,4.000000,100.000000
1614563284.204114,50.000000,0.000000,-4.973352,-2.012492,-1.664834,-15.354889,4.607615,-3.137955,-12.185696,-7.078573,3.367059,-3.683184,1.760410,-10.194926,4.329743,-3.497858,-5.171202,-2.718155,10.057688,-3.068170,15.310307,-11.423655,15.769525,12.692524,5.622158,21.968925,-0.505144,-5.801321,4.357761,7.039730,1.664745,4.449930,23.464588,-1.491401,8064.000000,0.000000,4.000000,,,,0.000000,4.000000,4.000000,4.000000,4.000000,4.000000,4.000000,4.000000,4.000000,4.000000,4.000000,4.000000,4.000000,4.000000,4.000000,4.000000,4.000000,4.000000,4.000000,4.000000,4.000000,4.000000,4.000000,4.000000,4.000000,4.000000,4.000000,4.000000,4.000000,4.000000,4.000000,4.000000,4.000000,100.000000
1614563284.211863,51.000000,0.000000,-1.378635,-2.010479,-3.201631,-16.365175,4.090187,-3.134817,-9.609407,-7.071494,3.363692,-2.141039,8.938136,-6.594988,4.325414,3.685127,2.526277,1.387127,13.637374,12.319513,32.218075,6.536487,23.958883,18.320858,5.616536,36.305931,7.187669,-6.821161,13.071352,12.673716,1.663081,5.983941,17.800097,-7.643755,8064.000000,0.000000,4.000000,,,,0.000000,4.000000,4.000000,4.000000,4.000000,4.000000,4.000000,4.000000,4.000000,4.000000,4.000000,4.000000,4.000000,4.000000,4.000000,4.000000,4.000000,4.000000,4.000000,4.000000,4.000000,4.000000,4.000000,4.000000,4.000000,4.000000,4.000000,4.000000,4.000000,4.000000,4.000000,4.000000,4.000000,100.000000
1614563284.219513,52.000000,0.000000,-0.351616,-2.008469,-8.326634,-16.348810,4.086097,-3.644503,-3.958772,-7.577243,2.847508,-1.113257,22.775352,4.180838,4.321088,10.860929,9.703238,16.257536,13.623736,23.076426,40.903805,7.555592,25.473385,16.764074,5.610919,36.269623,12.308686,-7.327160,13.571101,12.148222,1.661418,7.003598,16.243835,-15.328420,8064.000000,0.000000,4.000000,,,,0.000000,4.000000,4.000000,4.000000,4.000000,4.000000,4.000000,4.000000,4.000000,4.000000,4.000000,4.000000,4.000000,4.000000,4.000000,4.000000,4.000000,4.000000,4.000000,4.000000,4.000000,4.000000,4.000000,4.000000,4.000000,4.000000,4.000000,4.000000,4.000000,4.000000,4.000000,4.000000,4.000000,100.000000
1614563284.227262,53.000000,0.000000,-0.864085,-2.006461,-14.984975,-15.306820,4.594831,-3.128037,-0.365070,-7.569666,-1.770724,2.477600,32.496166,15.971529,6.880870,11.875710,20.975586,31.113071,13.097292,30.232836,40.350079,4.983933,25.447912,16.747311,5.605309,37.258995,8.193813,-9.371115,8.429325,11.110433,1.659756,7.509415,15.201951,-27.620783,8064.000000,0.000000,4.000000,,,,0.000000,4.000000,4.000000,4.000000,4.000000,4.000000,4.000000,4.000000,4.000000,4.000000,4.000000,4.000000,4.000000,4.000000,4.000000,4.000000,4.000000,4.000000,4.000000,4.000000,4.000000,4.000000,4.000000,4.000000,4.000000,4.000000,4.000000,4.000000,4.000000,4.000000,4.000000,4.000000,4.000000,100.000000
1614563284.234911,54.000000,0.000000,-0.863220,-2.004454,-17.021271,-15.804334,2.538954,-2.612089,-0.364705,-6.536456,-3.820236,0.936660,32.463669,13.904275,8.412451,10.838193,15.826405,25.953754,12.571375,31.228243,31.078960,-0.149256,25.422464,15.704923,5.599703,34.144814,5.108696,-9.874564,8.420896,12.124963,1.658096,6.989085,16.212391,-25.029060,8192.000000,0.000000,4.000000,,,,0.000000,4.000000,4.000000,4.000000,4.000000,4.000000,4.000000,4.000000,4.000000,4.000000,4.000000,4.000000,4.000000,4.000000,4.000000,4.000000,4.000000,4.000000,4.000000,4.000000,4.000000,4.000000,4.000000,4.000000,4.000000,4.000000,4.000000,4.000000,4.000000,4.000000,4.000000,4.000000,4.000000,100.000000
1614563284.242661,55.000000,0.000000,-0.862357,-2.002450,-27.260660,-18.352633,-1.566149,-4.147938,-0.877160,-7.555560,-7.406159,-1.115558,28.328642,6.710884,7.891218,11.340176,2.990066,15.671391,9.994700,28.120092,22.329933,-9.379875,24.884222,9.535372,5.594104,20.777336,5.103588,-9.864690,6.874013,12.112838,1.143618,6.982096,12.093614,-25.004030,8064.000000,0.000000,4.000000,,,,0.000000,4.000000,4.000000,4.000000,4.000000,4.000000,4.000000,4.000000,4.000000,4.000000,4.000000,4.000000,4.000000,4.000000,4.000000,4.000000,4.000000,4.000000,4.000000,4.000000,4.000000,4.000000,4.000000,4.000000,4.000000,4.000000,4.000000,4.000000,4.000000,4.000000,4.000000,4.000000,4.000000,100.000000
1614563284.250310,56.000000,0.000000,-0.861495,-2.000447,-39.028271,-19.872742,-3.615865,-2.092508,-0.363463,-7.035184,-11.501317,2.988122,28.300314,7.216993,7.883327,11.328835,2.987076,15.142899,8.959064,23.989408,19.230680,-14.498701,26.397799,4.910451,5.588510,16.141174,4.072843,-9.854825,4.303037,11.587905,2.168115,6.975114,-0.226172,-34.722618,8064.000000,0.000000,4.000000,,,,0.000000,4.000000,4.000000,4.000000,4.000000,4.000000,4.000000,4.000000,4.000000,4.000000,4.000000,4.000000,4.000000,4.000000,4.000000,4.000000,4.000000,4.000000,4.000000,4.000000,4.000000,4.000000,4.000000,4.000000,4.000000,4.000000,4.000000,4.000000,4.000000,4.000000,4.000000,4.000000,4.000000,100.000000
1614563284.258059,57.000000,0.000000,1.190649,-2.511267,-36.937962,-19.852869,-3.099428,3.550610,-0.363099,-2.412764,-12.002636,5.549236,28.272015,7.209776,7.875443,10.804686,2.471268,12.050832,9.462926,11.657726,5.878116,-21.663689,20.730375,4.905541,6.095742,15.612212,7.145693,-9.844970,4.811554,11.576317,4.217229,7.480959,-2.790049,-25.457125,8064.000000,0.000000,4.000000,,,,0.000000,4.000000,4.000000,4.000000,4.000000,4.000000,4.000000,4.000000,4.000000,4.000000,4.000000,4.000000,4.000000,4.000000,4.000000,4.000000,4.000000,4.000000,4.000000,4.000000,4.000000,4.000000,4.000000,4.000000,4.000000,4.000000,4.000000,4.000000,4.000000,4.000000,4.000000,4.000000,4.000000,100.000000
1614563284.265709,58.000000,0.000000,3.240740,-0.970294,-33.824100,-19.833015,-3.096329,3.034239,-0.362736,1.179392,-12.503454,0.415482,16.961691,3.100003,7.867568,8.742599,-8.813254,-0.268911,9.453464,-8.353931,-14.640583,-36.000999,5.837850,5.413456,5.576825,0.211984,5.600086,-9.835125,0.704178,11.564740,5.751473,6.447838,2.853767,-23.893206,8064.000000,0.000000,4.000000,,,,0.000000,4.000000,4.000000,4.000000,4.000000,4.000000,4.000000,4.000000,4.000000,4.000000,4.000000,4.000000,4.000000,4.000000,4.000000,4.000000,4.000000,4.000000,4.000000,4.000000,4.000000,4.000000,4.000000,4.000000,4.000000,4.000000,4.000000,4.000000,4.000000,4.000000,4.000000,4.000000,4.000000,100.000000
1614563284.273458,59.000000,0.000000,2.724679,1.081958,-35.328739,-19.813183,-3.606053,-2.609821,-1.388015,-0.360249,-15.567874,-2.661857,-1.003989,3.096903,7.859700,7.195395,-13.932647,-13.601975,8.931190,-21.166090,-25.907993,-42.631664,-2.373116,4.895222,3.007146,-15.172843,-6.713206,-9.312469,-5.963192,12.065996,5.232902,3.877287,-0.226010,-45.407776,8064.000000,0.000000,4.000000,,,,0.000000,4.000000,4.000000,4.000000,4.000000,4.000000,4.000000,4.000000,4.000000,4.000000,4.000000,4.000000,4.000000,4.000000,4.000000,4.000000,4.000000,4.000000,4.000000,4.000000,4.000000,4.000000,4.000000,4.000000,4.000000,4.000000,4.000000,4.000000,4.000000,4.000000,4.000000,4.000000,4.000000,100.000000
1614563284.281107,60.000000,0.000000,2.721954,0.568055,-31.703665,-19.793369,-3.089627,-3.632853,-0.360985,-2.411170,-12.988203,-1.633554,-7.669652,2.580985,7.851840,6.675379,-12.380252,-15.639655,9.435079,-20.119284,-26.907726,-41.050571,-1.857923,5.403147,1.978498,-13.106388,-7.219314,-9.303157,-6.982870,12.053930,5.227669,3.360590,-2.789886,-43.823906,8064.000000,0.000000,4.000000,,,,0.000000,4.000000,4.000000,4.000000,4.000000,4.000000,4.000000,4.000000,4.000000,4.000000,4.000000,4.000000,4.000000,4.000000,4.000000,4.000000,4.000000,4.000000,4.000000,4.000000,4.000000,4.000000,4.000000,4.000000,4.000000,4.000000,4.000000,4.000000,4.000000,4.000000,4.000000,4.000000,4.000000,100.000000
1614563284.288957,61.000000,0.000000,2.719232,-1.996615,-29.107859,-19.773577,-3.086537,-3.116399,-0.360624,-5.998503,-7.847010,-3.170382,-0.482495,-4.088263,7.843988,7.181524,-12.880692,-4.854785,9.425644,-10.355574,-17.650049,-40.496700,-1.856065,5.910565,1.976519,-3.349692,3.044316,-10.832315,-5.950246,11.016235,5.222441,3.870049,-0.735815,-24.805721,8064.000000,0.000000,4.000000,,,,0.000000,4.000000,4.000000,4.000000,4.000000,4.000000,4.000000,4.000000,4.000000,4.000000,4.000000,4.000000,4.000000,4.000000,4.000000,4.000000,4.000000,4.000000,4.000000,4.000000,4.000000,4.000000,4.000000,4.000000,4.000000,4.000000,4.000000,4.000000,4.000000,4.000000,4.000000,4.000000,4.000000,100.000000
1614563284.296706,62.000000,0.000000,2.716513,-1.994619,-30.617212,-19.753803,-5.647553,-6.703026,-6.514110,-12.146351,-10.403266,-6.244135,7.210295,-8.699559,7.836144,7.174343,-10.303709,3.868019,9.416218,0.424012,0.316318,-37.892101,2.248356,5.391834,1.974543,4.858786,0.477169,-13.385586,-6.969937,12.030860,5.217218,0.789256,-5.350463,-27.345018,8064.000000,0.000000,4.000000,,,,0.000000,4.000000,4.000000,4.000000,4.000000,4.000000,4.000000,4.000000,4.000000,4.000000,4.000000,4.000000,4.000000,4.000000,4.000000,4.000000,4.000000,4.000000,4.000000,4.000000,4.000000,4.000000,4.000000,4.000000,4.000000,4.000000,4.000000,4.000000,4.000000,4.000000,4.000000,4.000000,4.000000,100.000000
1614563284.304555,63.000000,0.000000,2.713796,-2.505445,-24.432749,-19.734049,-7.180367,-7.209144,-12.148622,-15.211127,-15.008246,-6.237891,8.741547,-8.178039,7.828308,7.167168,-3.113918,5.915432,9.919622,4.526153,11.085233,-30.674723,8.399954,5.386442,1.972568,11.007773,-5.677154,-13.372200,-5.424506,12.018829,4.699181,-0.237174,-4.832293,-33.471519,8064.000000,0.000000,4.000000,,,,0.000000,4.000000,4.000000,4.000000,4.000000,4.000000,4.000000,4.000000,4.000000,4.000000,4.000000,4.000000,4.000000,4.000000,4.000000,4.000000,4.000000,4.000000,4.000000,4.000000,4.000000,4.000000,4.000000,4.000000,4.000000,4.000000,4.000000,4.000000,4.000000,4.000000,4.000000,4.000000,4.000000,100.000000
1614563284.312305,64.000000,0.000000,2.711083,-1.990119,-20.305752,-19.714315,-6.660366,-4.125011,-10.598011,-14.170275,-14.993238,-5.206012,9.758446,-7.144220,7.820480,7.672822,0.991760,5.396697,9.396882,3.495985,7.484404,-28.079945,6.340271,6.406696,1.970596,14.073689,-6.184298,-14.384469,-8.496004,5.340144,5.207302,-0.236937,1.326386,-26.771381,0.000000,197.000000,4.000000,,,,0.000000,4.000000,4.000000,4.000000,4.000000,4.000000,4.000000,4.000000,4.000000,4.000000,4.000000,4.000000,4.000000,4.000000,4.000000,4.000000,4.000000,4.000000,4.000000,4.000000,4.000000,4.000000,4.000000,4.000000,4.000000,4.000000,4.000000,4.000000,4.000000,4.000000,4.000000,4.000000,4.000000,100.000000
1614563284.320154,65.000000,0.000000,2.708372,-1.988128,-23.875191,-19.181780,-6.653706,-2.582425,-7.510490,-14.156105,-14.465425,-5.200806,11.287148,-7.649896,8.838301,8.177969,0.477947,4.365659,7.849024,5.543771,3.374355,-29.077507,2.744188,3.323367,-0.082657,14.572435,-17.460165,-17.447008,-18.231098,-2.870325,5.714915,-4.852085,-5.854427,-24.180508,0.000000,181.000000,4.000000,,,,0.000000,4.000000,4.000000,4.000000,4.000000,4.000000,4.000000,4.000000,4.000000,4.000000,4.000000,4.000000,4.000000,4.000000,4.000000,4.000000,4.000000,4.000000,4.000000,4.000000,4.000000,4.000000,4.000000,4.000000,4.000000,4.000000,4.000000,4.000000,4.000000,4.000000,4.000000,4.000000,4.000000,100.000000
1614563284.327903,66.000000,0.000000,3.218484,-5.063064,-24.876957,-20.188238,-6.647052,-3.092663,-7.502980,-14.654769,-15.476601,-6.221246,9.737400,-7.642246,8.316642,7.656971,-0.548172,11.540780,5.789893,11.179254,3.883801,-28.535608,3.767084,-1.295341,-1.108215,14.557862,-20.519627,-17.429560,-22.315432,-3.893095,4.683559,-7.411335,-14.566522,-20.566584,0.000000,206.000000,4.000000,,,,0.000000,4.000000,4.000000,4.000000,4.000000,4.000000,4.000000,4.000000,4.000000,4.000000,4.000000,4.000000,4.000000,4.000000,4.000000,4.000000,4.000000,4.000000,4.000000,4.000000,4.000000,4.000000,4.000000,4.000000,4.000000,4.000000,4.000000,4.000000,4.000000,4.000000,4.000000,4.000000,4.000000,100.000000
1614563284.335752,67.000000,0.000000,2.702445,-4.545180,-22.800797,-20.168051,-7.153225,-3.602391,-8.521118,-14.127294,-15.973945,-5.702204,10.240483,-7.121783,7.795505,7.136493,-0.547623,19.221548,5.784103,12.193715,3.367097,-28.507072,1.199215,-2.832508,-1.107107,11.979202,-5.114492,-15.360849,-16.652090,-2.350741,5.704517,-2.788539,-5.834007,-10.802427,0.000000,196.000000,4.000000,,,,0.000000,4.000000,4.000000,4.000000,4.000000,4.000000,4.000000,4.000000,4.000000,4.000000,4.000000,4.000000,4.000000,4.000000,4.000000,4.000000,4.000000,4.000000,4.000000,4.000000,4.000000,4.000000,4.000000,4.000000,4.000000,4.000000,4.000000,4.000000,4.000000,4.000000,4.000000,4.000000,4.000000,100.000000
1614563284.343502,68.000000,0.000000,3.212563,2.638853,-19.701073,-19.122242,-6.633252,-3.085968,-7.999776,-14.625987,-14.932329,-4.158041,10.230243,-6.601841,9.326171,8.667818,0.478565,5.356172,6.803960,5.514854,1.312448,-30.529848,-3.417369,-1.804034,-3.670103,8.890300,-7.160660,-12.781385,-12.532874,-3.374031,10.827018,0.803993,1.864135,-4.124959,0.000000,209.000000,4.000000,,,,0.000000,4.000000,4.000000,4.000000,4.000000,4.000000,4.000000,4.000000,4.000000,4.000000,4.000000,4.000000,4.000000,4.000000,4.000000,4.000000,4.000000,4.000000,4.000000,4.000000,4.000000,4.000000,4.000000,4.000000,4.000000,4.000000,4.000000,4.000000,4.000000,4.000000,4.000000,4.000000,4.000000,100.000000
1614563284.351351,69.000000,0.000000,3.209350,4.174675,-18.655731,-21.667223,-6.626618,-2.570062,-6.453315,-16.149822,-15.430218,-9.794909,-3.626141,-10.697803,6.239922,1.992484,-9.778323,-18.238928,4.233053,-5.772712,-3.304249,-32.550602,-4.439593,-2.315051,-5.204894,3.240384,-25.102217,-13.281425,-15.084443,-3.370657,12.867473,-1.248093,-2.240293,-6.684936,0.000000,169.000000,4.000000,,,,0.000000,4.000000,4.000000,4.000000,4.000000,4.000000,4.000000,4.000000,4.000000,4.000000,4.000000,4.000000,4.000000,4.000000,4.000000,4.000000,4.000000,4.000000,4.000000,4.000000,4.000000,4.000000,4.000000,4.000000,4.000000,4.000000,4.000000,4.000000,4.000000,4.000000,4.000000,4.000000,4.000000,100.000000
1614563284.359100,70.000000,0.000000,0.129218,2.119219,-19.149897,-23.696836,-7.132813,-4.618773,-11.062246,-18.184956,-16.440428,-20.041523,-26.186617,-19.405054,-6.074011,-13.906944,-33.358288,-26.938637,-3.976308,-13.972067,-17.659920,-32.518051,-11.614640,-3.851197,-6.225330,-8.044908,-22.513012,-15.832246,-14.043718,-2.854466,10.290503,-0.734024,-4.802155,-9.242353,0.000000,188.000000,4.000000,,,,0.000000,4.000000,4.000000,4.000000,4.000000,4.000000,4.000000,4.000000,4.000000,4.000000,4.000000,4.000000,4.000000,4.000000,4.000000,4.000000,4.000000,4.000000,4.000000,4.000000,4.000000,4.000000,4.000000,4.000000,4.000000,4.000000,4.000000,4.000000,4.000000,4.000000,4.000000,4.000000,4.000000,100.000000
1614563284.366949,71.000000,0.000000,-4.486296,5.706843,-5.284593,-15.468012,-6.100039,-7.691078,-18.743492,-19.192411,-7.706039,-20.021482,-33.852737,-24.001034,-14.273065,-24.662268,-43.581341,-31.527084,-12.690281,-18.060659,-37.642258,-32.485531,-18.782513,-6.411448,-9.296028,-19.318914,-5.567422,-5.560003,-0.696341,-3.364432,8.741751,6.446197,3.407775,3.587402,0.000000,202.000000,4.000000,,,,0.000000,4.000000,4.000000,4.000000,4.000000,4.000000,4.000000,4.000000,4.000000,4.000000,4.000000,4.000000,4.000000,4.000000,4.000000,4.000000,4.000000,4.000000,4.000000,4.000000,4.000000,4.000000,4.000000,4.000000,4.000000,4.000000,4.000000,4.000000,4.000000,4.000000,4.000000,4.000000,4.000000,100.000000
1614563284.374699,72.000000,0.000000,-4.994630,9.290879,19.848898,-5.196134,-4.042656,-4.606464,-17.699106,-14.557834,4.609359,-11.796332,-24.075296,-22.438572,-12.720330,-21.560682,-31.742887,-34.572479,-15.241693,-22.145163,-44.271282,-32.453045,-16.712448,-6.405037,-12.876475,-21.863697,11.361222,14.958377,14.688971,-2.848247,8.733008,11.567956,16.737701,24.609455,0.000000,190.000000,4.000000,,,,0.000000,4.000000,4.000000,4.000000,4.000000,4.000000,4.000000,4.000000,4.000000,4.000000,4.000000,4.000000,4.000000,4.000000,4.000000,4.000000,4.000000,4.000000,4.000000,4.000000,4.000000,4.000000,4.000000,4.000000,4.000000,4.000000,4.000000,4.000000,4.000000,4.000000,4.000000,4.000000,4.000000,100.000000
1614563284.382548,73.000000,0.000000,-4.476815,9.794409,25.470074,-5.703758,-3.012973,0.526348,-12.040382,-5.825327,8.194493,-9.220433,-10.205067,-19.339211,-10.656328,-10.769892,-17.352171,-19.666113,-9.072605,-17.507633,-30.893679,-32.933414,-14.131634,0.780855,-14.402061,-16.200808,22.631912,18.020342,15.699923,-0.794117,8.724276,11.043568,23.900450,24.072025,0.000000,185.000000,4.000000,,,,0.000000,4.000000,4.000000,4.000000,4.000000,4.000000,4.000000,4.000000,4.000000,4.000000,4.000000,4.000000,4.000000,4.000000,4.000000,4.000000,4.000000,4.000000,4.000000,4.000000,4.000000,4.000000,4.000000,4.000000,4.000000,4.000000,4.000000,4.000000,4.000000,4.000000,4.000000,4.000000,4.000000,100.000000
1614563284.390297,74.000000,0.000000,-4.472338,9.271794,17.239475,-5.698054,-4.035601,-2.038281,-12.541162,-2.229759,6.647837,-9.724033,-0.451272,-19.319870,-10.132852,-1.015532,-9.129690,-0.672087,1.705698,-2.105510,-18.555094,-33.413300,-10.014937,8.985203,-10.797915,-5.928197,13.378510,8.771552,10.043198,0.745139,9.228372,10.006883,25.415010,14.304363,0.000000,196.000000,4.000000,,,,0.000000,4.000000,4.000000,4.000000,4.000000,4.000000,4.000000,4.000000,4.000000,4.000000,4.000000,4.000000,4.000000,4.000000,4.000000,4.000000,4.000000,4.000000,4.000000,4.000000,4.000000,4.000000,4.000000,4.000000,4.000000,4.000000,4.000000,4.000000,4.000000,4.000000,4.000000,4.000000,4.000000,100.000000
1614563284.398146,75.000000,0.000000,-4.980687,5.159958,16.196596,-3.128253,-2.493104,-7.164448,-10.990160,-3.253170,6.641190,-9.714310,1.087641,-19.813372,-4.481693,4.113689,-3.992355,1.379867,6.319377,5.076083,-16.998075,-31.841425,3.328411,10.001859,-1.043527,-0.281243,2.595901,11.326883,8.494693,1.770035,7.167861,11.535337,27.953699,19.418264,0.000000,200.000000,4.000000,,,,0.000000,4.000000,4.000000,4.000000,4.000000,4.000000,4.000000,4.000000,4.000000,4.000000,4.000000,4.000000,4.000000,4.000000,4.000000,4.000000,4.000000,4.000000,4.000000,4.000000,4.000000,4.000000,4.000000,4.000000,4.000000,4.000000,4.000000,4.000000,4.000000,4.000000,4.000000,4.000000,4.000000,100.000000
1614563284.405896,76.000000,0.000000,-4.462885,-1.511868,7.462450,-14.407177,-2.490611,-7.157283,-1.235580,-3.249917,4.070446,-9.704595,3.650656,-12.101250,0.650994,9.237781,-0.398619,2.916949,6.313058,1.481263,-7.237489,-32.835224,11.530210,8.453395,3.572901,2.795961,7.208690,8.751453,7.973377,4.332367,2.545309,9.985340,22.797541,10.680897,0.000000,202.000000,4.000000,,,,0.000000,4.000000,4.000000,4.000000,4.000000,4.000000,4.000000,4.000000,4.000000,4.000000,4.000000,4.000000,4.000000,4.000000,4.000000,4.000000,4.000000,4.000000,4.000000,4.000000,4.000000,4.000000,4.000000,4.000000,4.000000,4.000000,4.000000,4.000000,4.000000,4.000000,4.000000,4.000000,4.000000,100.000000
1614563284.413745,77.000000,0.000000,-4.458422,-3.048818,0.788321,-22.597898,-5.052222,-6.124485,4.406682,-3.759487,2.527914,-4.566685,17.493158,3.808287,1.675984,16.920851,10.371010,20.349930,9.896488,15.838757,17.385134,-32.802391,11.005859,9.983403,1.005225,14.588037,4.124558,-3.564990,4.375660,3.815214,0.491482,6.385612,13.543973,-8.816963,0.000000,196.000000,4.000000,,,,0.000000,4.000000,4.000000,4.000000,4.000000,4.000000,4.000000,4.000000,4.000000,4.000000,4.000000,4.000000,4.000000,4.000000,4.000000,4.000000,4.000000,4.000000,4.000000,4.000000,4.000000,4.000000,4.000000,4.000000,4.000000,4.000000,4.000000,4.000000,4.000000,4.000000,4.000000,4.000000,4.000000,100.000000
1614563284.421494,78.000000,0.000000,-4.453964,-2.532948,24.377275,-4.113761,3.670779,-7.144001,4.915095,-0.678805,8.166411,6.207112,31.834641,12.522428,3.725590,22.544954,22.155510,38.278297,13.989156,36.848560,36.854927,-22.000357,16.635880,9.460599,4.593964,28.419603,-2.033412,3.618062,3.345644,4.324220,1.516631,6.892046,23.786839,8.627751,0.000000,197.000000,4.000000,,,,0.000000,4.000000,4.000000,4.000000,4.000000,4.000000,4.000000,4.000000,4.000000,4.000000,4.000000,4.000000,4.000000,4.000000,4.000000,4.000000,4.000000,4.000000,4.000000,4.000000,4.000000,4.000000,4.000000,4.000000,4.000000,4.000000,4.000000,4.000000,4.000000,4.000000,4.000000,4.000000,4.000000,100.000000
1614563284.429144,79.000000,0.000000,-4.449510,-2.017595,39.737514,13.326250,16.487621,-7.136858,6.961462,6.501361,14.312091,10.816290,32.828445,11.484264,5.260326,22.522409,23.158997,39.778481,14.487988,33.221966,34.766792,-7.619382,21.747448,6.374216,12.794498,29.929644,9.250672,20.024700,4.367939,5.345537,1.515114,9.449257,36.070744,32.208866,0.000000,202.000000,4.000000,,,,0.000000,4.000000,4.000000,4.000000,4.000000,4.000000,4.000000,4.000000,4.000000,4.000000,4.000000,4.000000,4.000000,4.000000,4.000000,4.000000,4.000000,4.000000,4.000000,4.000000,4.000000,4.000000,4.000000,4.000000,4.000000,4.000000,4.000000,4.000000,4.000000,4.000000,4.000000,4.000000,4.000000,100.000000
1614563284.436893,80.000000,0.000000,-4.445060,0.548525,17.133675,2.543693,11.342928,-6.616900,6.954501,8.546142,14.297779,7.728550,28.693054,11.472780,4.229425,23.012709,21.597376,32.046394,12.422217,19.855412,19.860229,-6.073301,14.546214,4.829380,12.268883,21.181767,18.985012,18.979034,2.825110,-2.352117,1.000779,9.439808,24.752623,17.817684,0.000000,198.000000,4.000000,,,,0.000000,4.000000,4.000000,4.000000,4.000000,4.000000,4.000000,4.000000,4.000000,4.000000,4.000000,4.000000,4.000000,4.000000,4.000000,4.000000,4.000000,4.000000,4.000000,4.000000,4.000000,4.000000,4.000000,4.000000,4.000000,4.000000,4.000000,4.000000,4.000000,4.000000,4.000000,4.000000,4.000000,100.000000
1614563284.444542,81.000000,0.000000,-4.440616,1.573618,3.783207,-6.689620,0.562354,-7.123104,6.434726,7.511955,13.257840,9.772103,27.638720,10.435666,4.738016,21.451233,21.062958,19.193834,5.743129,17.271454,8.045497,-11.708254,5.813719,5.337371,6.615589,12.955456,15.889103,18.960056,5.899208,-7.477970,1.512599,11.994471,21.650948,11.133200,0.000000,189.000000,4.000000,,,,0.000000,4.000000,4.000000,4.000000,4.000000,4.000000,4.000000,4.000000,4.000000,4.000000,4.000000,4.000000,4.000000,4.000000,4.000000,4.000000,4.000000,4.000000,4.000000,4.000000,4.000000,4.000000,4.000000,4.000000,4.000000,4.000000,4.000000,4.000000,4.000000,4.000000,4.000000,4.000000,4.000000,100.000000
1614563284.452292,82.000000,0.000000,-4.436175,1.572044,19.676859,1.009377,2.613074,-6.090340,8.479573,8.017263,13.757403,9.762332,19.405952,3.245743,4.733278,10.660552,6.682920,0.713103,1.122001,12.125977,1.370785,-13.747828,5.807906,5.332034,5.070511,4.737372,17.924496,30.223146,14.611258,3.811560,1.511086,19.161963,39.578014,32.147709,0.000000,190.000000,4.000000,,,,0.000000,4.000000,4.000000,4.000000,4.000000,4.000000,4.000000,4.000000,4.000000,4.000000,4.000000,4.000000,4.000000,4.000000,4.000000,4.000000,4.000000,4.000000,4.000000,4.000000,4.000000,4.000000,4.000000,4.000000,4.000000,4.000000,4.000000,4.000000,4.000000,4.000000,4.000000,4.000000,4.000000,100.000000
1614563284.459941,83.000000,0.000000,-4.944559,3.621754,28.887953,3.059650,4.661743,-4.032968,-0.246855,4.419503,14.256466,-2.042302,0.412188,-9.065195,0.625980,-3.196263,-15.887865,-18.261969,1.633699,0.831799,-6.322894,-14.759721,6.827739,5.326702,6.091082,-2.446852,24.060417,36.346771,19.724852,15.602620,1.509575,22.732544,42.615360,42.884789,0.000000,201.000000,4.000000,,,,0.000000,4.000000,4.000000,4.000000,4.000000,4.000000,4.000000,4.000000,4.000000,4.000000,4.000000,4.000000,4.000000,4.000000,4.000000,4.000000,4.000000,4.000000,4.000000,4.000000,4.000000,4.000000,4.000000,4.000000,4.000000,4.000000,4.000000,4.000000,4.000000,4.000000,4.000000,4.000000,4.000000,100.000000
1614563284.467691,84.000000,0.000000,-4.426794,5.669414,23.218039,-4.122897,-2.522406,-2.490473,-13.579942,-0.200302,14.242209,-9.732568,-11.895917,-17.261257,-3.990030,-8.321272,-26.641209,-24.910374,2.144886,-3.271596,-11.957596,-17.821884,5.795270,5.321375,5.572170,0.632518,24.036358,35.284782,19.705126,16.099838,1.508065,21.684172,36.931717,39.252163,0.000000,188.000000,4.000000,,,,0.000000,4.000000,4.000000,4.000000,4.000000,4.000000,4.000000,4.000000,4.000000,4.000000,4.000000,4.000000,4.000000,4.000000,4.000000,4.000000,4.000000,4.000000,4.000000,4.000000,4.000000,4.000000,4.000000,4.000000,4.000000,4.000000,4.000000,4.000000,4.000000,4.000000,4.000000,4.000000,4.000000,100.000000
1614563284.475340,85.000000,0.000000,-2.371085,5.150924,18.579435,-7.195697,-4.571166,-3.000803,-9.976618,1.338360,13.202327,-0.492066,-4.704534,-12.115791,-3.473220,-7.800130,-20.973541,-17.193155,1.629921,0.321419,-8.868715,-18.316883,5.789474,5.316053,5.566598,9.862655,22.473860,27.557190,19.172600,14.545277,1.506557,21.149666,42.535812,31.007782,0.000000,207.000000,4.000000,,,,0.000000,4.000000,4.000000,4.000000,4.000000,4.000000,4.000000,4.000000,4.000000,4.000000,4.000000,4.000000,4.000000,4.000000,4.000000,4.000000,4.000000,4.000000,4.000000,4.000000,4.000000,4.000000,4.000000,4.000000,4.000000,4.000000,4.000000,4.000000,4.000000,4.000000,4.000000,4.000000,4.000000,100.000000
1614563284.483089,86.000000,0.000000,-0.317432,5.145773,23.689062,-5.650040,1.587252,-2.997802,1.315410,6.465227,14.214766,9.252016,8.633504,-0.821624,-0.392823,-7.792330,-5.567952,-6.919553,2.141111,4.423661,-4.244462,-18.298565,6.296505,5.310738,5.048211,13.442535,22.451385,18.811684,18.127787,16.582014,1.505051,19.077234,38.903534,25.335749,0.000000,195.000000,4.000000,,,,0.000000,4.000000,4.000000,4.000000,4.000000,4.000000,4.000000,4.000000,4.000000,4.000000,4.000000,4.000000,4.000000,4.000000,4.000000,4.000000,4.000000,4.000000,4.000000,4.000000,4.000000,4.000000,4.000000,4.000000,4.000000,4.000000,4.000000,4.000000,4.000000,4.000000,4.000000,4.000000,4.000000,100.000000
1614563284.490739,87.000000,0.000000,-0.829935,5.653448,36.485886,-3.593108,5.688228,-2.481984,3.878197,9.022864,17.790295,9.755584,12.727435,3.794582,0.633211,-8.297358,8.283770,-2.297248,2.651791,6.983340,-0.650474,-17.767447,7.315850,5.818247,5.555983,12.916272,24.993036,24.433897,16.571198,16.052610,2.529187,18.032516,31.685143,42.746311,0.000000,196.000000,4.000000,,,,0.000000,4.000000,4.000000,4.000000,4.000000,4.000000,4.000000,4.000000,4.000000,4.000000,4.000000,4.000000,4.000000,4.000000,4.000000,4.000000,4.000000,4.000000,4.000000,4.000000,4.000000,4.000000,4.000000,4.000000,4.000000,4.000000,4.000000,4.000000,4.000000,4.000000,4.000000,4.000000,4.000000,100.000000
1614563284.498488,88.000000,0.000000,-0.829105,5.134974,29.269913,-7.179258,3.118438,-2.992322,1.823037,5.424098,16.746862,8.207367,13.227528,3.790787,0.632577,-7.776240,11.352409,-2.807772,3.161959,6.976357,-1.162644,-16.211218,7.308534,6.325250,7.601709,14.441818,20.865480,25.947926,15.528985,16.036558,1.501016,17.501663,35.243202,52.447155,0.000000,196.000000,4.000000,,,,0.000000,4.000000,4.000000,4.000000,4.000000,4.000000,4.000000,4.000000,4.000000,4.000000,4.000000,4.000000,4.000000,4.000000,4.000000,4.000000,4.000000,4.000000,4.000000,4.000000,4.000000,4.000000,4.000000,4.000000,4.000000,4.000000,4.000000,4.000000,4.000000,4.000000,4.000000,4.000000,4.000000,100.000000
1614563284.506137,89.000000,0.000000,-0.828276,5.642660,2.573976,-12.813105,0.038396,-2.989330,3.359675,-0.735172,10.063449,5.635057,16.804045,3.786996,1.144765,-7.255643,9.289775,-0.753682,2.645977,7.482201,-2.699943,-18.246288,6.275585,5.293283,10.158210,12.888914,8.536922,5.921978,10.385251,13.969239,1.499515,13.894419,24.438726,21.625475,0.000000,192.000000,4.000000,,,,0.000000,4.000000,4.000000,4.000000,4.000000,4.000000,4.000000,4.000000,4.000000,4.000000,4.000000,4.000000,4.000000,4.000000,4.000000,4.000000,4.000000,4.000000,4.000000,4.000000,4.000000,4.000000,4.000000,4.000000,4.000000,4.000000,4.000000,4.000000,4.000000,4.000000,4.000000,4.000000,4.000000,100.000000
1614563284.513887,90.000000,0.000000,-0.827448,5.124197,3.084222,-5.620804,1.576819,-2.473520,3.869136,-3.811360,5.438001,7.167884,18.838522,4.808850,1.143620,-6.222746,15.434331,9.503482,2.643331,10.038821,6.020706,-21.304966,7.807771,5.800810,10.660872,9.799103,4.938642,-2.801893,5.246661,7.801424,3.036478,10.803600,3.901467,3.655132,0.000000,185.000000,4.000000,,,,0.000000,4.000000,4.000000,4.000000,4.000000,4.000000,4.000000,4.000000,4.000000,4.000000,4.000000,4.000000,4.000000,4.000000,4.000000,4.000000,4.000000,4.000000,4.000000,4.000000,4.000000,4.000000,4.000000,4.000000,4.000000,4.000000,4.000000,4.000000,4.000000,4.000000,4.000000,4.000000,4.000000,100.000000
1614563284.521536,91.000000,0.000000,-0.826620,3.067790,25.132420,5.154047,1.575242,-1.958226,4.378087,-2.781908,6.458204,10.750460,18.306864,6.342503,-0.395985,-6.216524,20.547102,21.801670,4.179149,11.567245,16.783916,-17.181097,6.774322,5.282189,9.624571,10.814944,8.523446,8.995781,2.164491,-0.411506,-1.069123,9.254335,2.359104,17.497631,0.000000,227.000000,4.000000,,,,0.000000,4.000000,4.000000,4.000000,4.000000,4.000000,4.000000,4.000000,4.000000,4.000000,4.000000,4.000000,4.000000,4.000000,4.000000,4.000000,4.000000,4.000000,4.000000,4.000000,4.000000,4.000000,4.000000,4.000000,4.000000,4.000000,4.000000,4.000000,4.000000,4.000000,4.000000,4.000000,4.000000,100.000000
1614563284.529385,92.000000,0.000000,-0.825794,1.526261,24.081646,-0.492132,-5.605820,-4.007550,3.348068,-4.317587,7.477387,2.534581,16.237274,1.207956,-2.446871,-7.235948,9.757324,22.292690,-1.466056,11.042856,8.562003,-18.702377,-5.540145,-3.441042,9.614946,8.240026,-3.279949,8.986785,-4.504340,-7.077761,-11.324464,5.655338,2.869565,12.864748,0.000000,188.000000,4.000000,,,,0.000000,4.000000,4.000000,4.000000,4.000000,4.000000,4.000000,4.000000,4.000000,4.000000,4.000000,4.000000,4.000000,4.000000,4.000000,4.000000,4.000000,4.000000,4.000000,4.000000,4.000000,4.000000,4.000000,4.000000,4.000000,4.000000,4.000000,4.000000,4.000000,4.000000,4.000000,4.000000,4.000000,100.000000
1614563284.537134,93.000000,0.000000,-0.824968,1.011914,11.749872,-14.850615,-10.728419,-7.080465,0.780617,-9.441475,3.367345,-8.750005,5.451806,-9.049663,-5.008526,-6.203071,-4.098587,6.372961,-13.772282,8.467710,-8.882456,-36.632393,-20.919220,-14.206832,9.605331,-6.640008,-17.635643,-2.304253,-11.166502,-11.173247,-14.390063,2.572759,-8.928176,-2.532732,0.000000,168.000000,4.000000,,,,0.000000,4.000000,4.000000,4.000000,4.000000,4.000000,4.000000,4.000000,4.000000,4.000000,4.000000,4.000000,4.000000,4.000000,4.000000,4.000000,4.000000,4.000000,4.000000,4.000000,4.000000,4.000000,4.000000,4.000000,4.000000,4.000000,4.000000,4.000000,4.000000,4.000000,4.000000,4.000000,4.000000,100.000000
1614563284.544984,94.000000,0.000000,-0.311323,1.523723,8.148379,-17.399866,-10.204870,-6.047744,-3.322727,-10.970495,-0.738586,-9.766896,-10.963902,-14.168818,-8.080441,-8.248150,-9.735515,-15.684694,-20.937996,-3.335629,-20.155624,-51.467556,-23.975224,-17.782368,0.877777,-22.017982,-15.566726,-4.866052,-11.155335,-11.162074,-10.785929,3.083007,-14.560273,0.033904,0.000000,199.000000,4.000000,,,,0.000000,4.000000,4.000000,4.000000,4.000000,4.000000,4.000000,4.000000,4.000000,4.000000,4.000000,4.000000,4.000000,4.000000,4.000000,4.000000,4.000000,4.000000,4.000000,4.000000,4.000000,4.000000,4.000000,4.000000,4.000000,4.000000,4.000000,4.000000,4.000000,4.000000,4.000000,4.000000,4.000000,100.000000
1614563284.552733,95.000000,0.000000,-1.849473,1.522199,-1.603359,-14.818364,-13.784410,-8.092978,-11.011712,-10.959524,-1.250668,-13.346873,-25.824734,-21.334137,-11.662104,-22.598877,-23.571932,-33.104908,-21.429880,-22.819473,-31.930342,-51.928909,-22.925608,-18.790226,-16.558998,-27.636992,-19.140902,-4.348365,-11.144180,-10.638091,-9.749502,2.054283,-14.032892,-2.017412,0.000000,191.000000,4.000000,,,,0.000000,4.000000,4.000000,4.000000,4.000000,4.000000,4.000000,4.000000,4.000000,4.000000,4.000000,4.000000,4.000000,4.000000,4.000000,4.000000,4.000000,4.000000,4.000000,4.000000,4.000000,4.000000,4.000000,4.000000,4.000000,4.000000,4.000000,4.000000,4.000000,4.000000,4.000000,4.000000,4.000000,100.000000
1614563284.560582,96.000000,0.000000,-3.898905,1.520677,-10.832525,-16.854828,-17.360369,-17.315655,-21.257111,-15.563950,-2.275058,-24.102757,-37.080959,-37.723061,-16.778646,-39.499355,-47.138103,-42.815392,-23.972551,-34.078705,-41.129181,-51.364159,-24.953964,-20.822720,-25.773209,-28.122175,-23.737146,-5.369658,-10.620215,-12.165915,-9.226933,-0.511874,-14.531680,-4.066677,8064.000000,0.000000,4.000000,,,,0.000000,4.000000,4.000000,4.000000,4.000000,4.000000,4.000000,4.000000,4.000000,4.000000,4.000000,4.000000,4.000000,4.000000,4.000000,4.000000,4.000000,4.000000,4.000000,4.000000,4.000000,4.000000,4.000000,4.000000,4.000000,4.000000,4.000000,4.000000,4.000000,4.000000,4.000000,4.000000,4.000000,100.000000
1614563284.568332,97.000000,0.000000,-4.920648,1.519156,-8.257589,-17.863613,-11.701982,-23.452185,-24.312777,-17.599669,-5.349706,-24.591475,-40.633621,-47.428925,-18.813150,-40.998318,-61.962761,-49.952065,-24.974220,-35.583088,-40.062408,-50.799973,-18.262342,-20.801895,-19.080769,-28.606873,-7.815973,-4.338647,-4.968570,-9.589646,-5.115141,-1.537003,-11.440226,4.142518,8064.000000,0.000000,4.000000,,,,0.000000,4.000000,4.000000,4.000000,4.000000,4.000000,4.000000,4.000000,4.000000,4.000000,4.000000,4.000000,4.000000,4.000000,4.000000,4.000000,4.000000,4.000000,4.000000,4.000000,4.000000,4.000000,4.000000,4.000000,4.000000,4.000000,4.000000,4.000000,4.000000,4.000000,4.000000,4.000000,4.000000,100.000000
1614563284.576181,98.000000,0.000000,-4.402906,1.517637,-1.582665,-12.717546,-5.536434,-17.787706,-21.211540,-11.428222,-4.318716,-15.848934,-31.362219,-37.125088,-16.743055,-28.649626,-53.695671,-49.389290,-18.282579,-35.034683,-40.535168,-49.723534,-9.526133,-18.729813,-8.805278,-29.091087,1.935433,-3.308667,-3.425140,0.163533,-1.520283,-1.022645,-7.839042,-0.989830,8064.000000,0.000000,4.000000,,,,0.000000,4.000000,4.000000,4.000000,4.000000,4.000000,4.000000,4.000000,4.000000,4.000000,4.000000,4.000000,4.000000,4.000000,4.000000,4.000000,4.000000,4.000000,4.000000,4.000000,4.000000,4.000000,4.000000,4.000000,4.000000,4.000000,4.000000,4.000000,4.000000,4.000000,4.000000,4.000000,4.000000,100.000000
1614563284.583930,99.000000,0.000000,-4.398503,1.516119,5.598404,-7.576622,-6.556539,-11.103252,-17.087765,-5.775768,1.326629,-12.243341,-15.946242,-21.190525,-13.136569,-15.800464,-30.052231,-26.262978,-9.033527,-27.307341,-38.443352,-47.622528,-9.003786,-11.018775,-4.693908,-23.933790,-1.143426,-1.766897,-2.396074,5.291574,-1.518762,-0.508802,-5.779921,-7.655507,8064.000000,0.000000,4.000000,,,,0.000000,4.000000,4.000000,4.000000,4.000000,4.000000,4.000000,4.000000,4.000000,4.000000,4.000000,4.000000,4.000000,4.000000,4.000000,4.000000,4.000000,4.000000,4.000000,4.000000,4.000000,4.000000,4.000000,4.000000,4.000000,4.000000,4.000000,4.000000,4.000000,4.000000,4.000000,4.000000,4.000000,100.000000
1614563284.591779,100.000000,0.000000,-2.855643,1.514603,6.618447,-9.620328,-6.549982,-10.579329,-6.814267,-7.821274,3.376584,-10.692636,-1.571321,-12.451386,-8.508047,-4.502612,-14.124743,-0.082869,-1.845007,-10.356956,-19.943369,-31.677469,-2.840936,4.376860,-6.227676,-3.909857,14.755154,-0.739489,6.837091,4.260642,-2.030064,-1.021114,-0.133115,1.070098,8064.000000,0.000000,4.000000,,,,0.000000,4.000000,4.000000,4.000000,4.000000,4.000000,4.000000,4.000000,4.000000,4.000000,4.000000,4.000000,4.000000,4.000000,4.000000,4.000000,4.000000,4.000000,4.000000,4.000000,4.000000,4.000000,4.000000,4.000000,4.000000,4.000000,4.000000,4.000000,4.000000,4.000000,4.000000,4.000000,4.000000,100.000000
1614563284.599529,101.000000,0.000000,-0.801506,1.513089,-0.054838,-8.072247,-6.543432,-9.030289,4.987419,-6.787812,2.860387,-4.015278,13.302045,-6.797909,-1.832873,7.296762,-10.520874,6.071060,5.336325,9.140579,2.640677,-9.594509,15.110623,13.603252,-6.221448,18.145336,26.535271,0.799712,12.471280,8.358946,-1.515213,-1.020093,3.969582,7.222874,8064.000000,0.000000,4.000000,,,,0.000000,4.000000,4.000000,4.000000,4.000000,4.000000,4.000000,4.000000,4.000000,4.000000,4.000000,4.000000,4.000000,4.000000,4.000000,4.000000,4.000000,4.000000,4.000000,4.000000,4.000000,4.000000,4.000000,4.000000,4.000000,4.000000,4.000000,4.000000,4.000000,4.000000,4.000000,4.000000,4.000000,100.000000
1614563284.607378,102.000000,0.000000,-0.800704,1.511576,8.663165,3.730698,-6.536889,-3.893053,8.059355,2.449745,4.908809,3.681045,24.570793,2.439658,1.758704,14.468953,-0.766764,12.731655,15.587399,27.080156,20.586754,-3.943889,24.839102,14.615290,4.041183,27.357960,17.277966,10.029681,8.869065,15.530074,-2.026519,1.545030,4.991254,15.933599,8064.000000,0.000000,4.000000,,,,0.000000,4.000000,4.000000,4.000000,4.000000,4.000000,4.000000,4.000000,4.000000,4.000000,4.000000,4.000000,4.000000,4.000000,4.000000,4.000000,4.000000,4.000000,4.000000,4.000000,4.000000,4.000000,4.000000,4.000000,4.000000,4.000000,4.000000,4.000000,4.000000,4.000000,4.000000,4.000000,4.000000,100.000000
1614563284.615127,103.000000,0.000000,-0.799903,1.510064,23.526297,13.983377,-3.966249,-1.837878,7.025654,8.601141,6.955182,8.292748,27.110327,11.667988,1.756945,17.018587,13.080157,28.616360,19.161556,35.258205,31.848219,-4.452765,21.224520,13.575033,18.908937,26.817781,22.901712,15.147857,7.321735,16.027365,-2.024492,5.646049,4.986262,23.097153,8192.000000,0.000000,4.000000,,,,0.000000,4.000000,4.000000,4.000000,4.000000,4.000000,4.000000,4.000000,4.000000,4.000000,4.000000,4.000000,4.000000,4.000000,4.000000,4.000000,4.000000,4.000000,4.000000,4.000000,4.000000,4.000000,4.000000,4.000000,4.000000,4.000000,4.000000,4.000000,4.000000,4.000000,4.000000,4.000000,4.000000,100.000000
1614563284.622976,104.000000,0.000000,-0.799103,1.508554,15.810463,12.943753,-4.475104,-2.861681,7.531449,7.054079,6.435406,9.822918,23.493471,13.194781,1.242368,16.488747,12.554256,23.459538,11.962907,28.043459,29.765089,-1.371390,14.536629,5.869151,19.915668,21.149937,34.160862,4.876299,8.852875,12.421594,-2.535288,7.178864,6.006917,11.792005,8064.000000,0.000000,4.000000,,,,0.000000,4.000000,4.000000,4.000000,4.000000,4.000000,4.000000,4.000000,4.000000,4.000000,4.000000,4.000000,4.000000,4.000000,4.000000,4.000000,4.000000,4.000000,4.000000,4.000000,4.000000,4.000000,4.000000,4.000000,4.000000,4.000000,4.000000,4.000000,4.000000,4.000000,4.000000,4.000000,4.000000,100.000000
1614563284.630726,105.000000,0.000000,-0.798304,1.507045,4.512601,9.853887,-6.009090,-2.858819,7.523918,3.970102,6.428971,9.813095,18.854593,10.104664,1.241125,13.908156,6.387856,6.513002,3.232995,21.861570,22.555836,-7.011044,10.932348,-4.393129,12.203446,13.436480,21.819010,1.281679,7.305560,11.383531,-2.019932,6.658865,11.641936,10.241751,8064.000000,0.000000,4.000000,,,,0.000000,4.000000,4.000000,4.000000,4.000000,4.000000,4.000000,4.000000,4.000000,4.000000,4.000000,4.000000,4.000000,4.000000,4.000000,4.000000,4.000000,4.000000,4.000000,4.000000,4.000000,4.000000,4.000000,4.000000,4.000000,4.000000,4.000000,4.000000,4.000000,4.000000,4.000000,4.000000,4.000000,100.000000
1614563284.638575,106.000000,0.000000,-0.797506,1.505538,10.149115,9.331212,-2.413337,-2.343140,7.516394,3.966131,6.422542,9.290462,15.758816,8.043277,1.239884,13.381428,8.432750,8.044950,1.691300,25.429453,24.584562,-15.721982,7.331672,-6.440018,10.139960,8.807658,8.976678,7.947064,4.734152,9.833686,-1.505092,7.165027,5.476448,18.436638,8064.000000,0.000000,4.000000,,,,0.000000,4.000000,4.000000,4.000000,4.000000,4.000000,4.000000,4.000000,4.000000,4.000000,4.000000,4.000000,4.000000,4.000000,4.000000,4.000000,4.000000,4.000000,4.000000,4.000000,4.000000,4.000000,4.000000,4.000000,4.000000,4.000000,4.000000,4.000000,4.000000,4.000000,4.000000,4.000000,4.000000,100.000000
1614563284.646324,107.000000,0.000000,-0.796709,1.504033,16.805632,10.860342,1.178820,-2.853617,6.483236,4.474986,6.416119,10.306811,8.563570,7.522413,0.213003,9.265482,6.885856,7.011264,2.715250,18.737356,13.790748,-17.244720,1.170494,-4.895116,7.565718,0.080902,11.531804,2.810912,3.703777,7.772570,-3.042048,6.645041,-14.016208,3.033586,8064.000000,0.000000,4.000000,,,,0.000000,4.000000,4.000000,4.000000,4.000000,4.000000,4.000000,4.000000,4.000000,4.000000,4.000000,4.000000,4.000000,4.000000,4.000000,4.000000,4.000000,4.000000,4.000000,4.000000,4.000000,4.000000,4.000000,4.000000,4.000000,4.000000,4.000000,4.000000,4.000000,4.000000,4.000000,4.000000,4.000000,100.000000
1614563284.654074,108.000000,0.000000,-0.795912,1.502529,17.814468,10.849482,1.177641,-2.850764,0.835727,3.957690,6.409703,7.732402,-7.342429,1.361044,-4.915415,-3.564296,-4.915902,-11.457285,1.686894,-2.307022,-10.838428,-18.765938,-4.984522,-5.915862,-1.159796,-14.790974,11.520272,-1.294463,4.212893,7.251977,-1.500545,7.151217,-8.873986,-0.559192,8064.000000,0.000000,4.000000,,,,0.000000,4.000000,4.000000,4.000000,4.000000,4.000000,4.000000,4.000000,4.000000,4.000000,4.000000,4.000000,4.000000,4.000000,4.000000,4.000000,4.000000,4.000000,4.000000,4.000000,4.000000,4.000000,4.000000,4.000000,4.000000,4.000000,4.000000,4.000000,4.000000,4.000000,4.000000,4.000000,4.000000,100.000000
1614563284.661823,109.000000,0.000000,-0.795116,1.501026,9.078704,0.582222,0.663643,-2.847913,-6.344595,3.953733,6.403294,-0.993279,-21.181240,-9.409548,-10.551525,-15.355604,-16.193037,-23.240700,1.172387,-12.561126,-17.494257,-20.285633,-5.492358,-6.422767,-3.722739,-22.468491,7.919008,8.963242,6.772783,7.757545,4.141982,7.144065,9.596426,20.979830,8064.000000,0.000000,4.000000,,,,0.000000,4.000000,4.000000,4.000000,4.000000,4.000000,4.000000,4.000000,4.000000,4.000000,4.000000,4.000000,4.000000,4.000000,4.000000,4.000000,4.000000,4.000000,4.000000,4.000000,4.000000,4.000000,4.000000,4.000000,4.000000,4.000000,4.000000,4.000000,4.000000,4.000000,4.000000,4.000000,4.000000,100.000000
1614563284.669472,110.000000,0.000000,-0.794321,1.499525,-3.238067,-8.136309,0.662979,-2.845065,-8.389533,3.949779,6.396890,-9.197413,-22.185701,-16.066805,-11.566615,-16.365889,-17.202486,-24.755920,1.684035,-13.574205,-17.476763,-20.778168,-3.948404,-5.390703,1.922009,-20.907560,4.321345,8.441458,0.612164,7.749788,4.650660,5.598460,-4.772145,3.522952,8064.000000,0.000000,4.000000,,,,0.000000,4.000000,4.000000,4.000000,4.000000,4.000000,4.000000,4.000000,4.000000,4.000000,4.000000,4.000000,4.000000,4.000000,4.000000,4.000000,4.000000,4.000000,4.000000,4.000000,4.000000,4.000000,4.000000,4.000000,4.000000,4.000000,4.000000,4.000000,4.000000,4.000000,4.000000,4.000000,4.000000,100.000000
1614563284.677222,111.000000,0.000000,-0.793527,1.498026,-0.670726,-2.487147,1.687957,-2.842220,-8.381144,3.945829,6.390493,-9.701036,-20.112232,-15.025097,-10.016586,-15.836703,-15.646821,-30.372190,2.195171,-22.791401,-36.433643,-30.500980,-4.970097,-5.385312,-0.131195,-19.861012,1.240101,-5.413138,-9.132038,7.229218,1.569086,3.028759,-25.793015,-26.224161,8064.000000,0.000000,4.000000,,,,0.000000,4.000000,4.000000,4.000000,4.000000,4.000000,4.000000,4.000000,4.000000,4.000000,4.000000,4.000000,4.000000,4.000000,4.000000,4.000000,4.000000,4.000000,4.000000,4.000000,4.000000,4.000000,4.000000,4.000000,4.000000,4.000000,4.000000,4.000000,4.000000,4.000000,4.000000,4.000000,4.000000,100.000000
1614563284.684871,112.000000,0.000000,-0.792733,1.496528,0.868406,-3.510301,3.737551,-2.839378,-9.398403,3.941883,6.384103,-9.691336,-23.681864,-16.035713,-11.545032,-15.820867,-17.169636,-33.931561,1.167335,-31.999378,-52.294647,-42.265350,-7.529230,-5.892747,-13.464397,-21.892433,1.238861,-8.484648,-7.071624,8.247629,4.131619,3.538550,-14.997990,-11.838963,8064.000000,0.000000,4.000000,,,,0.000000,4.000000,4.000000,4.000000,4.000000,4.000000,4.000000,4.000000,4.000000,4.000000,4.000000,4.000000,4.000000,4.000000,4.000000,4.000000,4.000000,4.000000,4.000000,4.000000,4.000000,4.000000,4.000000,4.000000,4.000000,4.000000,4.000000,4.000000,4.000000,4.000000,4.000000,4.000000,4.000000,100.000000
1614563284.692620,113.000000,0.000000,-1.304761,-0.556251,-18.619642,-15.814483,2.195352,-2.836538,-4.773620,3.937941,6.377719,-10.194465,-18.529978,-16.019676,-9.482204,-7.599917,-20.229389,-33.897629,2.704629,-31.454559,-45.062866,-43.761547,-8.547341,-5.374034,-21.656061,-19.819258,-5.941865,-5.399240,-4.500449,8.239382,5.153129,3.022191,-13.957351,-1.057893,8064.000000,0.000000,4.000000,,,,0.000000,4.000000,4.000000,4.000000,4.000000,4.000000,4.000000,4.000000,4.000000,4.000000,4.000000,4.000000,4.000000,4.000000,4.000000,4.000000,4.000000,4.000000,4.000000,4.000000,4.000000,4.000000,4.000000,4.000000,4.000000,4.000000,4.000000,4.000000,4.000000,4.000000,4.000000,4.000000,4.000000,100.000000
1614563284.700270,114.000000,0.000000,0.747826,-2.606977,-23.729227,-12.208924,-0.370946,-2.833702,3.949102,3.934003,5.858521,-7.107347,2.001373,-5.747247,2.834970,5.741016,-19.696339,-28.735527,10.394232,-27.320539,-34.761391,-43.204964,-8.025973,-0.753275,-17.531841,-7.491746,-17.217974,-6.419482,-14.239539,4.641399,-0.493050,-3.134677,-34.456215,-21.056835,8064.000000,0.000000,4.000000,,,,0.000000,4.000000,4.000000,4.000000,4.000000,4.000000,4.000000,4.000000,4.000000,4.000000,4.000000,4.000000,4.000000,4.000000,4.000000,4.000000,4.000000,4.000000,4.000000,4.000000,4.000000,4.000000,4.000000,4.000000,4.000000,4.000000,4.000000,4.000000,4.000000,4.000000,4.000000,4.000000,4.000000,100.000000
1614563284.708019,115.000000,0.000000,2.798360,-2.091549,-13.449088,-6.555690,1.680707,-2.830868,7.534896,3.930069,6.365482,-2.997676,19.435270,8.104654,14.114186,18.042967,-7.368951,-8.193972,17.050505,-17.036810,-30.624065,-43.674580,-8.017947,2.324401,-13.411745,6.361899,-16.687937,-7.438704,-19.353504,0.534193,-3.056659,-8.259748,-38.011501,-24.625521,8064.000000,0.000000,4.000000,,,,0.000000,4.000000,4.000000,4.000000,4.000000,4.000000,4.000000,4.000000,4.000000,4.000000,4.000000,4.000000,4.000000,4.000000,4.000000,4.000000,4.000000,4.000000,4.000000,4.000000,4.000000,4.000000,4.000000,4.000000,4.000000,4.000000,4.000000,4.000000,4.000000,4.000000,4.000000,4.000000,4.000000,100.000000
1614563284.715668,116.000000,0.000000,3.308383,-2.089458,-20.615126,-19.369648,-1.397897,-2.828037,6.501720,3.926139,6.359117,-1.969037,24.031219,12.199114,16.151354,25.717232,8.535854,13.865504,17.033455,-1.122336,-16.747288,-39.015522,-8.009930,1.809256,-12.885512,10.458101,-12.055863,-6.918444,-15.231586,-0.491982,-2.027961,-8.251488,-26.691439,-14.344485,8064.000000,0.000000,4.000000,,,,0.000000,4.000000,4.000000,4.000000,4.000000,4.000000,4.000000,4.000000,4.000000,4.000000,4.000000,4.000000,4.000000,4.000000,4.000000,4.000000,4.000000,4.000000,4.000000,4.000000,4.000000,4.000000,4.000000,4.000000,4.000000,4.000000,4.000000,4.000000,4.000000,4.000000,4.000000,4.000000,4.000000,100.000000
1614563284.723418,117.000000,0.000000,2.792253,-2.087368,-19.568871,-20.888739,-6.524704,-2.825209,6.495219,3.409393,5.839937,-1.967068,24.007187,11.161273,16.135202,26.204336,14.681164,18.467024,17.016420,9.135197,5.320741,-29.745737,-8.001920,1.807447,-10.821345,9.934822,-10.505346,-6.398705,-14.190714,0.021330,-2.025934,-7.730416,-24.100645,-12.278859,8064.000000,0.000000,4.000000,,,,0.000000,4.000000,4.000000,4.000000,4.000000,4.000000,4.000000,4.000000,4.000000,4.000000,4.000000,4.000000,4.000000,4.000000,4.000000,4.000000,4.000000,4.000000,4.000000,4.000000,4.000000,4.000000,4.000000,4.000000,4.000000,4.000000,4.000000,4.000000,4.000000,4.000000,4.000000,4.000000,4.000000,100.000000
1614563284.731067,118.000000,0.000000,2.789461,-0.033999,0.963520,-0.355030,1.686949,-3.335204,7.001544,4.431624,7.372559,-2.477922,25.008821,11.150112,16.119068,24.126848,14.153663,16.397274,17.512224,14.767087,19.674395,-17.921120,-7.993917,4.369742,-5.682318,10.437708,-1.776892,-6.905127,-11.612421,1.046950,-2.536728,-6.697044,-23.563725,-7.651196,8064.000000,0.000000,4.000000,,,,0.000000,4.000000,4.000000,4.000000,4.000000,4.000000,4.000000,4.000000,4.000000,4.000000,4.000000,4.000000,4.000000,4.000000,4.000000,4.000000,4.000000,4.000000,4.000000,4.000000,4.000000,4.000000,4.000000,4.000000,4.000000,4.000000,4.000000,4.000000,4.000000,4.000000,4.000000,4.000000,4.000000,100.000000
1614563284.738817,119.000000,0.000000,2.786672,2.017317,7.116402,8.363274,13.992954,-2.819049,6.481722,6.478475,9.416469,-1.449803,26.009453,11.138962,11.487564,23.077082,14.652329,16.380877,14.417789,18.342064,23.244465,-7.133967,-7.985924,5.903834,4.579774,10.427271,10.019756,-6.385401,-2.370039,3.610006,-2.021371,-4.639065,-15.847853,2.612866,8064.000000,0.000000,4.000000,,,,0.000000,4.000000,4.000000,4.000000,4.000000,4.000000,4.000000,4.000000,4.000000,4.000000,4.000000,4.000000,4.000000,4.000000,4.000000,4.000000,4.000000,4.000000,4.000000,4.000000,4.000000,4.000000,4.000000,4.000000,4.000000,4.000000,4.000000,4.000000,4.000000,4.000000,4.000000,4.000000,4.000000,100.000000
1614563284.746466,120.000000,0.000000,2.783885,1.502479,11.211850,5.277987,16.543064,-1.277768,6.475240,8.010458,9.919872,3.167032,23.419342,12.153464,7.886333,16.900158,15.150497,17.902958,9.275167,19.862183,24.759682,-4.049910,-7.977938,5.385109,15.344425,10.416843,12.573839,-1.250811,2.247715,4.119216,-2.019350,-3.608785,-5.062774,14.917945,8064.000000,0.000000,4.000000,,,,0.000000,4.000000,4.000000,4.000000,4.000000,4.000000,4.000000,4.000000,4.000000,4.000000,4.000000,4.000000,4.000000,4.000000,4.000000,4.000000,4.000000,4.000000,4.000000,4.000000,4.000000,4.000000,4.000000,4.000000,4.000000,4.000000,4.000000,4.000000,4.000000,4.000000,4.000000,4.000000,4.000000,100.000000
1614563284.754315,121.000000,0.000000,2.781101,1.500977,22.995510,9.888094,15.500880,0.774792,6.468765,8.002447,10.422773,8.292069,11.088230,10.090029,7.878447,7.652489,14.622526,17.372234,6.188968,20.355141,26.786203,-5.071501,-7.969960,5.379724,18.918825,9.380785,15.638188,4.904286,0.707006,4.115097,-2.017330,-4.117997,0.070494,21.569695,8064.000000,0.000000,4.000000,,,,0.000000,4.000000,4.000000,4.000000,4.000000,4.000000,4.000000,4.000000,4.000000,4.000000,4.000000,4.000000,4.000000,4.000000,4.000000,4.000000,4.000000,4.000000,4.000000,4.000000,4.000000,4.000000,4.000000,4.000000,4.000000,4.000000,4.000000,4.000000,4.000000,4.000000,4.000000,4.000000,4.000000,100.000000
1614563284.762065,122.000000,0.000000,2.778320,0.986655,14.254566,14.493590,13.434097,1.286837,6.462296,6.968804,9.899529,9.309419,-0.204910,2.900451,5.819286,5.080734,11.530981,6.072811,5.157138,14.693760,20.092751,-5.066430,-8.987631,5.374344,16.335802,8.345763,18.699474,4.386561,0.706299,6.162264,-2.015313,-4.113879,-4.544961,10.778893,8064.000000,0.000000,4.000000,,,,0.000000,4.000000,4.000000,4.000000,4.000000,4.000000,4.000000,4.000000,4.000000,4.000000,4.000000,4.000000,4.000000,4.000000,4.000000,4.000000,4.000000,4.000000,4.000000,4.000000,4.000000,4.000000,4.000000,4.000000,4.000000,4.000000,4.000000,4.000000,4.000000,4.000000,4.000000,4.000000,4.000000,100.000000
1614563284.769914,123.000000,0.000000,2.775542,2.011310,-0.631484,11.914994,6.753996,0.772730,6.455834,4.910553,6.299887,8.787289,-0.204705,-1.717834,3.249364,7.126935,6.904066,-8.805057,5.151981,3.909836,5.713684,-8.138287,-8.465823,5.368970,16.832287,9.875879,14.578210,0.792431,1.218413,8.207384,-2.013298,-4.109765,-7.104518,-2.565219,8064.000000,0.000000,4.000000,,,,0.000000,4.000000,4.000000,4.000000,4.000000,4.000000,4.000000,4.000000,4.000000,4.000000,4.000000,4.000000,4.000000,4.000000,4.000000,4.000000,4.000000,4.000000,4.000000,4.000000,4.000000,4.000000,4.000000,4.000000,4.000000,4.000000,4.000000,4.000000,4.000000,4.000000,4.000000,4.000000,4.000000,100.000000
1614563284.777663,124.000000,0.000000,2.772766,2.522119,-5.246237,8.313335,3.670319,0.771957,6.449378,3.367181,2.703843,9.291322,2.359603,-0.177654,3.758935,6.606987,2.794597,-11.360354,4.121188,-2.247920,-8.138184,-15.309635,-7.944536,5.363601,18.353916,8.840363,10.461068,0.791639,0.704375,7.686356,-2.011284,-4.105655,-4.020491,-4.613935,8064.000000,0.000000,4.000000,,,,0.000000,4.000000,4.000000,4.000000,4.000000,4.000000,4.000000,4.000000,4.000000,4.000000,4.000000,4.000000,4.000000,4.000000,4.000000,4.000000,4.000000,4.000000,4.000000,4.000000,4.000000,4.000000,4.000000,4.000000,4.000000,4.000000,4.000000,4.000000,4.000000,4.000000,4.000000,4.000000,4.000000,100.000000
1614563284.785512,125.000000,0.000000,2.769994,-0.557326,-16.523043,5.740920,4.179469,0.771185,6.442929,3.876634,2.188319,9.282031,-0.719680,-0.690297,3.755176,3.523457,-1.823582,-12.887455,2.578605,-8.912339,-20.437738,-21.448172,-9.987874,4.845417,13.207357,0.113573,10.963428,0.790847,0.190850,7.678669,-2.009273,-4.101550,-4.529291,-4.609322,8064.000000,0.000000,4.000000,,,,0.000000,4.000000,4.000000,4.000000,4.000000,4.000000,4.000000,4.000000,4.000000,4.000000,4.000000,4.000000,4.000000,4.000000,4.000000,4.000000,4.000000,4.000000,4.000000,4.000000,4.000000,4.000000,4.000000,4.000000,4.000000,4.000000,4.000000,4.000000,4.000000,4.000000,4.000000,4.000000,4.000000,100.000000
1614563284.793262,126.000000,0.000000,2.254403,-1.069589,-15.993698,6.248000,3.662469,0.770414,5.923666,3.359937,2.698951,8.759928,1.332322,-1.202428,3.751421,4.032754,-5.411502,-16.464312,0.524745,-11.980350,-17.853197,-21.939545,-5.362502,6.379033,6.014663,-1.425002,10.952464,0.790056,0.703479,7.670991,-2.520084,-4.097448,-1.960659,1.036313,8064.000000,0.000000,4.000000,,,,0.000000,4.000000,4.000000,4.000000,4.000000,4.000000,4.000000,4.000000,4.000000,4.000000,4.000000,4.000000,4.000000,4.000000,4.000000,4.000000,4.000000,4.000000,4.000000,4.000000,4.000000,4.000000,4.000000,4.000000,4.000000,4.000000,4.000000,4.000000,4.000000,4.000000,4.000000,4.000000,4.000000,100.000000
1614563284.801111,127.000000,0.000000,3.790610,4.572506,-3.157192,6.241752,6.222909,0.769644,6.943383,4.382218,2.696252,8.751168,14.151503,4.952621,7.850234,12.233850,-4.380449,-1.063232,2.062681,3.416246,4.215938,-15.763759,9.514656,10.988039,4.983007,10.884115,11.454331,0.789266,3.779699,7.663320,-1.491923,-4.093350,5.220789,3.599380,8064.000000,0.000000,4.000000,,,,0.000000,4.000000,4.000000,4.000000,4.000000,4.000000,4.000000,4.000000,4.000000,4.000000,4.000000,4.000000,4.000000,4.000000,4.000000,4.000000,4.000000,4.000000,4.000000,4.000000,4.000000,4.000000,4.000000,4.000000,4.000000,4.000000,4.000000,4.000000,4.000000,4.000000,4.000000,4.000000,4.000000,100.000000
1614563284.808860,0.000000,0.000000,6.350922,2.003831,-17.000189,-2.482439,7.242328,0.768874,8.987721,6.429118,1.155094,8.229596,25.932222,10.588695,11.432127,20.426744,-1.299146,19.963472,10.778567,20.335907,20.109158,-15.747994,18.735910,13.028333,8.567768,20.616821,9.904416,-0.237164,3.775919,7.655656,1.073671,-4.089257,1.113004,-10.763194,0.000000,182.000000,4.000000,,,,0.000000,4.000000,4.000000,4.000000,4.000000,4.000000,4.000000,4.000000,4.000000,4.000000,4.000000,4.000000,4.000000,4.000000,4.000000,4.000000,4.000000,4.000000,4.000000,4.000000,4.000000,4.000000,4.000000,4.000000,4.000000,4.000000,4.000000,4.000000,4.000000,4.000000,4.000000,4.000000,4.000000,100.000000
1614563284.816709,1.000000,0.000000,6.857392,-4.152019,-31.342163,-9.146624,1.081239,0.768105,10.517196,5.909868,-2.948625,7.708547,27.957573,10.578105,12.446336,21.431959,2.804717,23.533253,17.947277,20.828392,19.063408,-18.296349,17.691534,12.502484,9.072021,21.109024,9.381691,0.788714,3.772143,7.648001,2.098239,-4.597989,-1.452212,-14.854995,0.000000,193.000000,4.000000,,,,0.000000,4.000000,4.000000,4.000000,4.000000,4.000000,4.000000,4.000000,4.000000,4.000000,4.000000,4.000000,4.000000,4.000000,4.000000,4.000000,4.000000,4.000000,4.000000,4.000000,4.000000,4.000000,4.000000,4.000000,4.000000,4.000000,4.000000,4.000000,4.000000,4.000000,4.000000,4.000000,4.000000,100.000000
1614563284.824459,2.000000,0.000000,6.337714,0.467517,-15.413384,-4.522092,-4.048048,0.767337,9.993857,2.314215,-4.484138,8.726479,27.416794,10.567528,11.408249,21.923347,10.494221,26.586643,14.852406,27.987049,26.736652,-6.483181,17.161022,12.489982,8.550128,23.139198,19.628719,4.377669,8.383756,7.127532,1.583320,-3.567750,6.241548,-2.532448,0.000000,210.000000,4.000000,,,,0.000000,4.000000,4.000000,4.000000,4.000000,4.000000,4.000000,4.000000,4.000000,4.000000,4.000000,4.000000,4.000000,4.000000,4.000000,4.000000,4.000000,4.000000,4.000000,4.000000,4.000000,4.000000,4.000000,4.000000,4.000000,4.000000,4.000000,4.000000,4.000000,4.000000,4.000000,4.000000,4.000000,100.000000
1614563284.832308,3.000000,0.000000,6.331376,3.031152,-12.321048,-1.953467,-3.018358,0.766570,8.445402,-0.252202,-3.966833,8.717752,26.363737,10.044139,8.832738,19.850142,14.073470,33.739544,9.196527,40.266754,41.068890,8.395097,18.169502,12.990312,8.028758,24.654520,23.711655,2.834830,6.836911,8.146046,1.581737,-3.051361,3.158384,-9.196582,0.000000,192.000000,4.000000,,,,0.000000,4.000000,4.000000,4.000000,4.000000,4.000000,4.000000,4.000000,4.000000,4.000000,4.000000,4.000000,4.000000,4.000000,4.000000,4.000000,4.000000,4.000000,4.000000,4.000000,4.000000,4.000000,4.000000,4.000000,4.000000,4.000000,4.000000,4.000000,4.000000,4.000000,4.000000,4.000000,4.000000,100.000000
1614563284.840057,4.000000,0.000000,6.325045,-2.100084,-20.513855,-0.413052,-4.040981,0.765803,5.872854,-0.764770,-4.988507,7.170573,22.234808,10.546916,4.721341,13.676445,12.520935,30.116060,9.187331,36.636745,44.104744,9.925163,17.125690,12.464501,10.584831,24.117044,18.559738,1.806354,3.753150,10.189182,1.580155,-5.612412,-2.485800,-16.366873,0.000000,199.000000,4.000000,,,,0.000000,4.000000,4.000000,4.000000,4.000000,4.000000,4.000000,4.000000,4.000000,4.000000,4.000000,4.000000,4.000000,4.000000,4.000000,4.000000,4.000000,4.000000,4.000000,4.000000,4.000000,4.000000,4.000000,4.000000,4.000000,4.000000,4.000000,4.000000,4.000000,4.000000,4.000000,4.000000,4.000000,100.000000
1614563284.847906,5.000000,0.000000,6.318720,3.030221,-3.057444,11.895053,-3.011299,0.252217,6.379802,2.312918,-2.932237,13.317248,19.648472,16.177395,3.690979,15.201230,21.226362,29.060303,9.690965,35.061646,43.034996,11.966520,17.108564,12.452037,16.728092,24.605749,32.387333,8.984035,16.057089,11.204634,1.578575,-2.017056,13.926942,2.111033,0.000000,193.000000,4.000000,,,,0.000000,4.000000,4.000000,4.000000,4.000000,4.000000,4.000000,4.000000,4.000000,4.000000,4.000000,4.000000,4.000000,4.000000,4.000000,4.000000,4.000000,4.000000,4.000000,4.000000,4.000000,4.000000,4.000000,4.000000,4.000000,4.000000,4.000000,4.000000,4.000000,4.000000,4.000000,4.000000,4.000000,100.000000
1614563284.855656,6.000000,0.000000,6.312401,8.155396,6.689203,17.524183,1.094276,2.303247,8.424705,9.490092,2.711721,25.098803,23.218567,22.315063,3.687288,25.442440,34.538471,36.210728,9.168453,42.206074,42.991962,11.954554,17.091457,12.439585,20.813929,22.017040,44.662636,11.026333,20.656418,11.706249,1.576996,6.702909,22.118143,8.775588,0.000000,190.000000,4.000000,,,,0.000000,4.000000,4.000000,4.000000,4.000000,4.000000,4.000000,4.000000,4.000000,4.000000,4.000000,4.000000,4.000000,4.000000,4.000000,4.000000,4.000000,4.000000,4.000000,4.000000,4.000000,4.000000,4.000000,4.000000,4.000000,4.000000,4.000000,4.000000,4.000000,4.000000,4.000000,4.000000,4.000000,100.000000
1614563284.863505,7.000000,0.000000,6.306088,-0.570708,-14.343127,5.198967,-2.496562,4.352226,9.954741,12.044704,1.170548,27.637808,23.708168,22.292747,4.709241,29.519562,35.529572,34.636059,8.646464,34.471558,30.641279,-1.903555,16.561544,12.427145,18.741833,14.815536,21.541052,-0.779565,0.635761,9.130441,1.575419,2.080822,3.121666,-10.207546,0.000000,203.000000,4.000000,,,,0.000000,4.000000,4.000000,4.000000,4.000000,4.000000,4.000000,4.000000,4.000000,4.000000,4.000000,4.000000,4.000000,4.000000,4.000000,4.000000,4.000000,4.000000,4.000000,4.000000,4.000000,4.000000,4.000000,4.000000,4.000000,4.000000,4.000000,4.000000,4.000000,4.000000,4.000000,4.000000,4.000000,100.000000
1614563284.871254,8.000000,0.000000,6.299782,-7.749624,-26.123655,-1.985719,-5.570988,4.347873,11.996068,11.519839,-8.574212,21.969143,22.145998,21.244814,6.755815,28.464401,32.929939,30.498857,9.150638,21.616573,14.713202,-14.209343,17.570623,12.414718,16.671808,11.723798,-2.583054,-8.471093,-11.159747,7.070028,1.573844,-10.741772,-9.701968,-20.453749,0.000000,192.000000,4.000000,,,,0.000000,4.000000,4.000000,4.000000,4.000000,4.000000,4.000000,4.000000,4.000000,4.000000,4.000000,4.000000,4.000000,4.000000,4.000000,4.000000,4.000000,4.000000,4.000000,4.000000,4.000000,4.000000,4.000000,4.000000,4.000000,4.000000,4.000000,4.000000,4.000000,4.000000,4.000000,4.000000,4.000000,100.000000
1614563284.878904,9.000000,0.000000,6.806303,-5.177772,-17.892405,2.118831,2.126891,5.369166,14.035355,12.533960,-12.668202,20.408712,24.175135,22.762032,7.774700,29.461576,30.845728,28.417076,9.141487,20.056496,11.108745,-14.707954,20.117157,12.402303,16.142317,12.737715,4.599017,-5.385699,-2.430638,10.139881,1.572270,-10.731030,-7.128164,-17.356373,0.000000,190.000000,4.000000,,,,0.000000,4.000000,4.000000,4.000000,4.000000,4.000000,4.000000,4.000000,4.000000,4.000000,4.000000,4.000000,4.000000,4.000000,4.000000,4.000000,4.000000,4.000000,4.000000,4.000000,4.000000,4.000000,4.000000,4.000000,4.000000,4.000000,4.000000,4.000000,4.000000,4.000000,4.000000,4.000000,4.000000,100.000000
1614563284.886653,10.000000,0.000000,4.748215,-5.685415,-19.925793,0.065430,3.663225,3.312515,11.970037,7.393221,-11.629893,15.772920,22.612497,18.123884,8.279745,26.355192,18.507191,16.080967,9.132346,12.344131,10.071995,-13.154785,20.097038,12.389901,16.126175,12.724977,11.261085,-5.893134,2.187177,14.745126,1.570698,-3.540812,-6.608215,-16.826195,0.000000,197.000000,4.000000,,,,0.000000,4.000000,4.000000,4.000000,4.000000,4.000000,4.000000,4.000000,4.000000,4.000000,4.000000,4.000000,4.000000,4.000000,4.000000,4.000000,4.000000,4.000000,4.000000,4.000000,4.000000,4.000000,4.000000,4.000000,4.000000,4.000000,4.000000,4.000000,4.000000,4.000000,4.000000,4.000000,4.000000,100.000000
1614563284.894302,11.000000,0.000000,2.692184,-10.295114,-27.598175,-6.088481,-8.135309,-4.383105,7.342682,-3.383403,-12.131083,4.475095,11.307834,5.285248,7.758645,15.559607,1.052785,1.193091,9.636034,-0.488725,1.856794,-13.141630,18.025660,12.890331,16.622869,12.199431,8.685720,-13.579549,-0.379113,14.730381,1.569127,-6.614194,-8.140069,-20.399113,0.000000,203.000000,4.000000,,,,0.000000,4.000000,4.000000,4.000000,4.000000,4.000000,4.000000,4.000000,4.000000,4.000000,4.000000,4.000000,4.000000,4.000000,4.000000,4.000000,4.000000,4.000000,4.000000,4.000000,4.000000,4.000000,4.000000,4.000000,4.000000,4.000000,4.000000,4.000000,4.000000,4.000000,4.000000,4.000000,4.000000,100.000000
1614563284.902052,12.000000,0.000000,2.689492,-9.771998,-26.544935,-6.082393,-12.229738,-6.942824,5.796878,-7.482584,-12.631773,-3.734508,4.117039,-4.976448,5.699605,9.390201,-4.589293,-2.910666,9.113578,-3.565160,-4.811729,-16.718233,14.930711,13.390262,15.067784,11.161592,9.189856,-17.155712,2.698189,15.228471,1.567558,-8.146041,-8.644749,-25.506918,0.000000,202.000000,4.000000,,,,0.000000,4.000000,4.000000,4.000000,4.000000,4.000000,4.000000,4.000000,4.000000,4.000000,4.000000,4.000000,4.000000,4.000000,4.000000,4.000000,4.000000,4.000000,4.000000,4.000000,4.000000,4.000000,4.000000,4.000000,4.000000,4.000000,4.000000,4.000000,4.000000,4.000000,4.000000,4.000000,4.000000,100.000000
1614563284.909701,13.000000,0.000000,3.199623,-9.249406,-23.954288,-5.563490,-9.140586,-3.346138,6.303902,-7.987921,-12.619142,-4.243594,7.189845,-7.022753,3.642623,9.893631,1.056322,0.681988,9.104464,-2.535953,-2.242815,-20.804077,11.838858,11.325589,8.386050,9.099148,5.078102,-15.087275,5.259594,15.726063,1.565990,-2.496870,-6.584822,-24.968592,0.000000,200.000000,4.000000,,,,0.000000,4.000000,4.000000,4.000000,4.000000,4.000000,4.000000,4.000000,4.000000,4.000000,4.000000,4.000000,4.000000,4.000000,4.000000,4.000000,4.000000,4.000000,4.000000,4.000000,4.000000,4.000000,4.000000,4.000000,4.000000,4.000000,4.000000,4.000000,4.000000,4.000000,4.000000,4.000000,4.000000,100.000000
1614563284.917450,14.000000,0.000000,2.683603,-10.778618,-25.981617,-6.070747,-11.695548,-3.342792,6.297598,-8.492754,-11.580881,0.888855,9.233937,0.163757,4.151801,10.396558,9.260393,9.912075,9.608180,4.646070,7.503018,-15.142248,9.262916,9.775803,4.275100,8.577228,7.637126,-13.533726,4.228693,12.633414,1.564424,0.069730,-0.424391,-19.815418,0.000000,201.000000,4.000000,,,,0.000000,4.000000,4.000000,4.000000,4.000000,4.000000,4.000000,4.000000,4.000000,4.000000,4.000000,4.000000,4.000000,4.000000,4.000000,4.000000,4.000000,4.000000,4.000000,4.000000,4.000000,4.000000,4.000000,4.000000,4.000000,4.000000,4.000000,4.000000,4.000000,4.000000,4.000000,4.000000,4.000000,100.000000
1614563284.925100,15.000000,0.000000,2.680920,-5.639634,-22.365891,4.704554,-9.119749,-2.826628,5.778480,0.746508,-6.953916,4.990530,7.686242,10.420003,4.147649,9.360520,14.892159,20.158573,8.572930,21.564501,16.726284,-5.383516,9.253654,9.253206,6.322107,9.081471,21.988462,-11.981730,5.250105,11.595140,1.562860,0.069660,5.217059,-18.257141,0.000000,190.000000,4.000000,,,,0.000000,4.000000,4.000000,4.000000,4.000000,4.000000,4.000000,4.000000,4.000000,4.000000,4.000000,4.000000,4.000000,4.000000,4.000000,4.000000,4.000000,4.000000,4.000000,4.000000,4.000000,4.000000,4.000000,4.000000,4.000000,4.000000,4.000000,4.000000,4.000000,4.000000,4.000000,4.000000,4.000000,100.000000
1614563284.932849,16.000000,0.000000,3.191059,5.648057,-9.010192,18.546003,3.197062,5.381326,6.285522,13.566275,-2.331577,7.036822,8.191376,15.024967,4.143501,9.863980,16.928549,23.215338,4.461794,30.773705,20.812122,-4.865312,9.757220,2.577286,8.879888,9.072390,22.992115,-10.431288,7.296137,11.583545,2.074118,4.172154,4.699021,-11.059396,0.000000,182.000000,4.000000,,,,0.000000,4.000000,4.000000,4.000000,4.000000,4.000000,4.000000,4.000000,4.000000,4.000000,4.000000,4.000000,4.000000,4.000000,4.000000,4.000000,4.000000,4.000000,4.000000,4.000000,4.000000,4.000000,4.000000,4.000000,4.000000,4.000000,4.000000,4.000000,4.000000,4.000000,4.000000,4.000000,4.000000,100.000000
1614563284.940499,17.000000,0.000000,1.136586,10.770614,3.819331,21.091560,9.860532,7.427227,6.279236,16.629631,1.773319,13.696451,8.696005,14.497122,4.139358,10.366937,19.475723,24.217764,-0.158053,30.230110,25.919516,-5.886088,9.747462,-5.630419,9.383828,9.063317,15.789637,-9.395215,8.314483,4.392474,1.559223,7.757726,3.155861,4.849099,0.000000,198.000000,4.000000,,,,0.000000,4.000000,4.000000,4.000000,4.000000,4.000000,4.000000,4.000000,4.000000,4.000000,4.000000,4.000000,4.000000,4.000000,4.000000,4.000000,4.000000,4.000000,4.000000,4.000000,4.000000,4.000000,4.000000,4.000000,4.000000,4.000000,4.000000,4.000000,4.000000,4.000000,4.000000,4.000000,4.000000,100.000000
1614563284.948248,18.000000,0.000000,-0.915833,8.708561,6.892435,19.019186,6.260928,-1.298149,6.785778,15.587360,7.412571,20.862242,8.687309,14.995445,4.135218,10.356570,25.097273,23.167906,-2.209177,30.199881,28.970518,-5.367382,9.737716,-7.163250,7.835982,9.567075,19.876411,-4.770435,9.331809,-3.817047,1.557664,8.262789,6.229628,15.100660,0.000000,194.000000,4.000000,,,,0.000000,4.000000,4.000000,4.000000,4.000000,4.000000,4.000000,4.000000,4.000000,4.000000,4.000000,4.000000,4.000000,4.000000,4.000000,4.000000,4.000000,4.000000,4.000000,4.000000,4.000000,4.000000,4.000000,4.000000,4.000000,4.000000,4.000000,4.000000,4.000000,4.000000,4.000000,4.000000,4.000000,100.000000
1614563284.955897,19.000000,0.000000,-1.427737,4.597289,5.347081,15.410423,2.152103,-7.450697,6.778992,10.956388,4.841056,14.687533,8.678622,14.467629,4.131083,10.346213,26.097816,19.554993,-2.719788,24.528656,23.813343,-11.515861,9.215158,-5.104805,5.776865,8.531866,13.702688,-0.663101,5.732733,-4.838871,2.068927,6.716064,5.197757,13.547098,0.000000,203.000000,4.000000,,,,0.000000,4.000000,4.000000,4.000000,4.000000,4.000000,4.000000,4.000000,4.000000,4.000000,4.000000,4.000000,4.000000,4.000000,4.000000,4.000000,4.000000,4.000000,4.000000,4.000000,4.000000,4.000000,4.000000,4.000000,4.000000,4.000000,4.000000,4.000000,4.000000,4.000000,4.000000,4.000000,4.000000,100.000000
1614563284.963647,20.000000,0.000000,-0.913489,-2.586796,1.239170,5.138603,1.637130,-6.417605,6.259392,1.714663,-4.394555,5.954897,8.669944,15.991624,4.639772,10.335867,22.481976,21.073900,-1.691427,20.401564,13.533119,-17.145370,10.231583,-4.074059,5.258267,9.548976,1.894114,-8.354746,-1.452487,-2.782750,1.554037,-0.982959,-7.115133,3.277141,0.000000,182.000000,4.000000,,,,0.000000,4.000000,4.000000,4.000000,4.000000,4.000000,4.000000,4.000000,4.000000,4.000000,4.000000,4.000000,4.000000,4.000000,4.000000,4.000000,4.000000,4.000000,4.000000,4.000000,4.000000,4.000000,4.000000,4.000000,4.000000,4.000000,4.000000,4.000000,4.000000,4.000000,4.000000,4.000000,4.000000,100.000000
1614563284.971296,21.000000,0.000000,-0.912575,-8.738055,-7.992839,-4.097305,0.609852,-5.898367,6.765953,-3.415257,-7.979904,5.948943,8.661273,14.437170,4.635133,10.325531,20.408211,16.437441,1.387187,16.791418,2.750355,-17.128225,10.221352,-2.018703,5.765829,10.052247,11.635810,-17.064339,-3.502316,-4.318429,-3.062901,-8.161464,-15.313146,-5.956906,0.000000,204.000000,4.000000,,,,0.000000,4.000000,4.000000,4.000000,4.000000,4.000000,4.000000,4.000000,4.000000,4.000000,4.000000,4.000000,4.000000,4.000000,4.000000,4.000000,4.000000,4.000000,4.000000,4.000000,4.000000,4.000000,4.000000,4.000000,4.000000,4.000000,4.000000,4.000000,4.000000,4.000000,4.000000,4.000000,4.000000,100.000000
1614563284.979045,22.000000,0.000000,-1.424483,-9.754958,-19.266897,-8.708592,0.609242,-6.918110,5.220726,-3.411842,-11.561667,1.327609,8.652612,2.627861,2.579216,10.828027,11.157034,-4.604637,2.411441,-3.738194,-8.021626,-16.085455,7.647027,-1.503864,2.170320,3.888349,16.239559,-17.047276,-2.473173,-3.801290,-6.136762,-7.640481,-13.246551,-11.079154,0.000000,204.000000,4.000000,,,,0.000000,4.000000,4.000000,4.000000,4.000000,4.000000,4.000000,4.000000,4.000000,4.000000,4.000000,4.000000,4.000000,4.000000,4.000000,4.000000,4.000000,4.000000,4.000000,4.000000,4.000000,4.000000,4.000000,4.000000,4.000000,4.000000,4.000000,4.000000,4.000000,4.000000,4.000000,4.000000,4.000000,100.000000
1614563284.986695,23.000000,0.000000,-0.910238,-11.283665,-26.939938,-14.853729,0.095813,-6.398371,0.087300,-7.510994,-22.319336,-12.519873,8.643960,-7.631177,0.525354,10.817199,-5.777200,-18.959007,1.896209,-21.683174,-13.141809,-15.556549,7.639380,-1.502360,-1.421594,-4.833488,-7.366425,-20.107151,-7.086084,-0.207745,-5.617805,-8.658483,-23.489714,-25.939869,0.000000,181.000000,4.000000,,,,0.000000,4.000000,4.000000,4.000000,4.000000,4.000000,4.000000,4.000000,4.000000,4.000000,4.000000,4.000000,4.000000,4.000000,4.000000,4.000000,4.000000,4.000000,4.000000,4.000000,4.000000,4.000000,4.000000,4.000000,4.000000,4.000000,4.000000,4.000000,4.000000,4.000000,4.000000,4.000000,4.000000,100.000000
1614563284.994544,24.000000,0.000000,1.654774,-13.323664,-29.477100,-17.915798,0.608537,-6.904793,-4.528172,-12.118868,-24.861120,-19.174019,8.635316,-8.649187,0.524829,10.293561,-14.489372,-15.863125,4.971236,-16.020466,-13.128668,-16.053814,9.683023,0.037604,-1.420172,-5.854296,-20.692392,-24.702429,-11.181562,0.818104,-5.612186,-13.778028,-42.440582,-48.478031,0.000000,197.000000,4.000000,,,,0.000000,4.000000,4.000000,4.000000,4.000000,4.000000,4.000000,4.000000,4.000000,4.000000,4.000000,4.000000,4.000000,4.000000,4.000000,4.000000,4.000000,4.000000,4.000000,4.000000,4.000000,4.000000,4.000000,4.000000,4.000000,4.000000,4.000000,4.000000,4.000000,4.000000,4.000000,4.000000,4.000000,100.000000
1614563285.002293,25.000000,0.000000,3.191581,-13.310340,-28.421982,-16.359421,1.120749,-6.385068,-5.036464,-11.081107,-14.067028,-17.103563,8.626680,-11.717461,-1.014157,10.283267,-12.423600,-14.821621,5.479085,-8.312138,-13.628360,-18.089041,7.622058,2.088848,-1.931573,-1.745878,-12.466571,-21.087982,-10.657560,0.304465,-6.119395,-15.815533,-42.398144,-46.378273,0.000000,188.000000,4.000000,,,,0.000000,4.000000,4.000000,4.000000,4.000000,4.000000,4.000000,4.000000,4.000000,4.000000,4.000000,4.000000,4.000000,4.000000,4.000000,4.000000,4.000000,4.000000,4.000000,4.000000,4.000000,4.000000,4.000000,4.000000,4.000000,4.000000,4.000000,4.000000,4.000000,4.000000,4.000000,4.000000,4.000000,100.000000
1614563285.010042,26.000000,0.000000,3.188390,-12.784209,-29.932022,-17.881523,-0.418833,-5.865862,-4.518608,-11.070026,-7.386294,-17.086460,8.618053,-18.885231,-3.064425,5.657599,-11.898356,-14.293979,0.858222,-7.791005,-13.101911,-17.558132,5.050333,1.573939,-1.929641,-0.718491,-9.377181,-16.451509,-9.621262,1.329802,-5.600455,-15.286897,-32.612156,-25.819073,0.000000,173.000000,4.000000,,,,0.000000,4.000000,4.000000,4.000000,4.000000,4.000000,4.000000,4.000000,4.000000,4.000000,4.000000,4.000000,4.000000,4.000000,4.000000,4.000000,4.000000,4.000000,4.000000,4.000000,4.000000,4.000000,4.000000,4.000000,4.000000,4.000000,4.000000,4.000000,4.000000,4.000000,4.000000,4.000000,4.000000,100.000000
1614563285.017692,27.000000,0.000000,3.185201,-12.771424,-27.850807,-13.761078,-2.982517,-8.424099,-5.026909,-11.058956,-8.404549,-17.582193,8.609435,-21.430447,-3.061361,-4.604469,-13.424920,-5.048915,-3.758021,-5.731931,-13.088809,-23.181599,-0.082922,-5.094302,-0.902071,-4.820336,-10.393445,-16.947878,-10.124461,0.815651,-5.594855,-14.245969,-31.553902,-19.126587,0.000000,220.000000,4.000000,,,,0.000000,4.000000,4.000000,4.000000,4.000000,4.000000,4.000000,4.000000,4.000000,4.000000,4.000000,4.000000,4.000000,4.000000,4.000000,4.000000,4.000000,4.000000,4.000000,4.000000,4.000000,4.000000,4.000000,4.000000,4.000000,4.000000,4.000000,4.000000,4.000000,4.000000,4.000000,4.000000,4.000000,100.000000
1614563285.025541,28.000000,0.000000,1.643554,-12.758654,-16.028086,1.637298,-3.492355,-9.441316,-4.509062,-1.817128,-7.883324,-15.000509,8.600826,-15.255171,-3.571120,-12.292171,-12.385854,-4.018225,-8.369648,-11.367225,-15.127002,-40.594315,-16.493095,-15.858438,-6.029374,-13.020644,-7.306129,-17.443752,-10.114336,-5.339010,-5.589260,-12.180441,-33.573631,-22.697205,0.000000,212.000000,4.000000,,,,0.000000,4.000000,4.000000,4.000000,4.000000,4.000000,4.000000,4.000000,4.000000,4.000000,4.000000,4.000000,4.000000,4.000000,4.000000,4.000000,4.000000,4.000000,4.000000,4.000000,4.000000,4.000000,4.000000,4.000000,4.000000,4.000000,4.000000,4.000000,4.000000,4.000000,4.000000,4.000000,4.000000,100.000000
1614563285.033290,29.000000,0.000000,-0.409371,-12.745894,-5.755647,9.327969,-2.976042,-6.867772,-2.453271,7.928278,-4.285697,-10.370124,8.079405,-7.034788,-2.541908,-11.767059,-12.886289,-10.168054,-12.463842,-13.919960,-16.650337,-49.271671,-28.784294,-20.970785,-15.766934,-17.623009,-7.811643,-16.400667,-10.104222,-11.487517,-5.583671,-10.629799,-32.001595,-21.136045,0.000000,168.000000,4.000000,,,,0.000000,4.000000,4.000000,4.000000,4.000000,4.000000,4.000000,4.000000,4.000000,4.000000,4.000000,4.000000,4.000000,4.000000,4.000000,4.000000,4.000000,4.000000,4.000000,4.000000,4.000000,4.000000,4.000000,4.000000,4.000000,4.000000,4.000000,4.000000,4.000000,4.000000,4.000000,4.000000,4.000000,100.000000
1614563285.041139,30.000000,0.000000,-0.921782,-12.733149,-4.724250,6.241718,-2.973066,-6.860904,-0.399535,7.920351,-3.255770,-5.744369,8.584146,-2.925189,-3.565007,-11.242472,-11.847761,-4.516860,-12.964199,0.965754,-15.095224,-41.530090,-25.678587,-20.949814,-20.879372,-16.066923,-9.855114,-16.384266,-10.094118,-10.963209,-5.578087,-10.619169,-31.456774,-19.576448,0.000000,200.000000,4.000000,,,,0.000000,4.000000,4.000000,4.000000,4.000000,4.000000,4.000000,4.000000,4.000000,4.000000,4.000000,4.000000,4.000000,4.000000,4.000000,4.000000,4.000000,4.000000,4.000000,4.000000,4.000000,4.000000,4.000000,4.000000,4.000000,4.000000,4.000000,4.000000,4.000000,4.000000,4.000000,4.000000,4.000000,100.000000
1614563285.048889,31.000000,0.000000,-2.459322,-12.720415,-5.232347,5.722655,-2.970093,-9.418146,-0.911956,4.322687,-4.278155,-5.225804,9.088382,-3.435084,-10.740930,-12.769691,-9.271811,1.641504,-13.464055,5.580173,-12.516026,-36.873177,-23.601627,-20.416044,-20.345673,-16.050858,-10.358079,-16.367882,-10.084023,-9.926605,-5.572509,-10.608550,-31.938137,-20.582514,0.000000,172.000000,4.000000,,,,0.000000,4.000000,4.000000,4.000000,4.000000,4.000000,4.000000,4.000000,4.000000,4.000000,4.000000,4.000000,4.000000,4.000000,4.000000,4.000000,4.000000,4.000000,4.000000,4.000000,4.000000,4.000000,4.000000,4.000000,4.000000,4.000000,4.000000,4.000000,4.000000,4.000000,4.000000,4.000000,4.000000,100.000000
1614563285.056738,32.000000,0.000000,-5.020965,-12.707695,-7.791217,6.742574,-2.967123,-10.434369,-1.423865,4.318364,-3.761057,-6.246219,8.566473,-3.944469,-14.319932,-9.679998,-8.236897,-7.078087,-12.937771,-2.630535,-11.990690,-39.400406,-23.065205,-17.831526,-20.325327,-18.086088,-11.373362,-16.864334,-10.073939,-11.455140,-5.566936,-12.136403,-31.906199,-20.049110,8064.000000,0.000000,4.000000,,,,0.000000,4.000000,4.000000,4.000000,4.000000,4.000000,4.000000,4.000000,4.000000,4.000000,4.000000,4.000000,4.000000,4.000000,4.000000,4.000000,4.000000,4.000000,4.000000,4.000000,4.000000,4.000000,4.000000,4.000000,4.000000,4.000000,4.000000,4.000000,4.000000,4.000000,4.000000,4.000000,4.000000,100.000000
1614563285.064487,33.000000,0.000000,-4.503124,-12.694987,-15.988554,6.223011,-2.964155,-10.423935,1.141661,4.314045,-4.270116,-3.163050,9.583548,-3.427705,-7.638945,-4.542113,-6.690199,-9.635111,-4.719705,1.987480,-12.491520,-35.771259,-7.144703,-11.147027,-20.817822,-13.452617,-6.746604,-16.847469,-10.063866,-10.930864,-5.561369,-14.175549,-31.874292,-22.080343,8064.000000,0.000000,4.000000,,,,0.000000,4.000000,4.000000,4.000000,4.000000,4.000000,4.000000,4.000000,4.000000,4.000000,4.000000,4.000000,4.000000,4.000000,4.000000,4.000000,4.000000,4.000000,4.000000,4.000000,4.000000,4.000000,4.000000,4.000000,4.000000,4.000000,4.000000,4.000000,4.000000,4.000000,4.000000,4.000000,4.000000,100.000000
1614563285.072336,34.000000,0.000000,-1.934518,-12.682292,-17.511026,8.780890,-2.961191,-7.849408,5.243084,3.796911,-5.291487,2.993959,12.138067,1.191108,-2.503101,-2.999109,0.495978,3.707857,2.977323,6.600877,-12.991849,-30.094463,7.734236,-4.469213,-19.771362,-3.695575,-0.073191,-16.317802,-10.053802,-6.304549,-5.555808,-14.674193,-31.842419,-23.596724,8064.000000,0.000000,4.000000,,,,0.000000,4.000000,4.000000,4.000000,4.000000,4.000000,4.000000,4.000000,4.000000,4.000000,4.000000,4.000000,4.000000,4.000000,4.000000,4.000000,4.000000,4.000000,4.000000,4.000000,4.000000,4.000000,4.000000,4.000000,4.000000,4.000000,4.000000,4.000000,4.000000,4.000000,4.000000,4.000000,4.000000,100.000000
1614563285.080086,35.000000,0.000000,-0.906943,-12.669610,-13.903772,12.874674,-2.958230,-3.226174,7.801943,4.305934,-3.234914,6.580709,11.613109,4.779660,-3.013419,-4.021751,8.187790,11.396457,2.974345,-2.636493,-12.466037,-29.551550,7.213681,-1.387821,-17.187489,0.410685,-3.150041,-18.352766,-9.530928,-2.708501,-5.550252,-16.197981,-31.810575,-23.060307,8064.000000,0.000000,4.000000,,,,0.000000,4.000000,4.000000,4.000000,4.000000,4.000000,4.000000,4.000000,4.000000,4.000000,4.000000,4.000000,4.000000,4.000000,4.000000,4.000000,4.000000,4.000000,4.000000,4.000000,4.000000,4.000000,4.000000,4.000000,4.000000,4.000000,4.000000,4.000000,4.000000,4.000000,4.000000,4.000000,4.000000,100.000000
1614563285.087935,36.000000,0.000000,-0.906036,-12.656940,-19.530893,11.836158,-2.955272,-4.248589,5.742859,1.737526,-5.282960,5.035666,6.986111,0.159496,-2.497585,-3.504909,6.128320,2.667112,2.971371,-8.274882,-11.940750,-29.521997,4.129545,-0.360792,-8.965174,-1.128187,-9.813558,-22.436977,-9.521397,-2.192972,-5.544702,-18.745886,-31.778765,-27.652632,8064.000000,0.000000,4.000000,,,,0.000000,4.000000,4.000000,4.000000,4.000000,4.000000,4.000000,4.000000,4.000000,4.000000,4.000000,4.000000,4.000000,4.000000,4.000000,4.000000,4.000000,4.000000,4.000000,4.000000,4.000000,4.000000,4.000000,4.000000,4.000000,4.000000,4.000000,4.000000,4.000000,4.000000,4.000000,4.000000,4.000000,100.000000
1614563285.095684,37.000000,0.000000,-0.905130,-12.644283,-28.742132,7.208937,-3.465137,-9.885365,0.608911,-2.879596,-13.995626,1.440887,0.825278,-7.020151,-3.520728,-3.501404,-1.057296,-7.079145,3.481220,-9.805069,-12.954451,-30.005297,3.612594,-1.386073,-1.263901,-1.639880,-10.829385,-25.491465,-10.024695,-3.729240,-5.539157,-18.214319,-31.746986,-31.727543,8064.000000,0.000000,4.000000,,,,0.000000,4.000000,4.000000,4.000000,4.000000,4.000000,4.000000,4.000000,4.000000,4.000000,4.000000,4.000000,4.000000,4.000000,4.000000,4.000000,4.000000,4.000000,4.000000,4.000000,4.000000,4.000000,4.000000,4.000000,4.000000,4.000000,4.000000,4.000000,4.000000,4.000000,4.000000,4.000000,4.000000,100.000000
1614563285.103534,38.000000,0.000000,-0.904224,-12.631639,-27.174929,6.176087,-2.948852,-9.875481,-4.519903,-4.415178,-14.494452,-2.150297,-4.816573,-8.038772,-8.132592,-5.549185,-3.620341,-10.661809,1.426457,-14.410648,-11.915854,-29.975290,1.044879,-1.384686,-0.236996,-0.099778,-9.792914,-21.876228,-10.014671,-2.187050,-5.533618,-15.119182,-31.715239,-22.465046,8064.000000,0.000000,4.000000,,,,0.000000,4.000000,4.000000,4.000000,4.000000,4.000000,4.000000,4.000000,4.000000,4.000000,4.000000,4.000000,4.000000,4.000000,4.000000,4.000000,4.000000,4.000000,4.000000,4.000000,4.000000,4.000000,4.000000,4.000000,4.000000,4.000000,4.000000,4.000000,4.000000,4.000000,4.000000,4.000000,4.000000,100.000000
1614563285.111283,39.000000,0.000000,-0.903320,-12.619008,-20.993908,8.734014,-0.894621,-6.788682,-5.541024,-1.846660,-0.633803,-2.660967,-6.350217,-7.005092,-10.688562,-7.594917,-4.642362,-10.138327,0.399389,-11.319315,-6.775734,-28.919674,0.531014,-0.357661,-1.262400,-1.125319,-6.193378,-16.726147,-8.979015,-2.184863,-5.528084,-14.078422,-31.683523,-16.288734,8064.000000,0.000000,4.000000,,,,0.000000,4.000000,4.000000,4.000000,4.000000,4.000000,4.000000,4.000000,4.000000,4.000000,4.000000,4.000000,4.000000,4.000000,4.000000,4.000000,4.000000,4.000000,4.000000,4.000000,4.000000,4.000000,4.000000,4.000000,4.000000,4.000000,4.000000,4.000000,4.000000,4.000000,4.000000,4.000000,4.000000,100.000000
1614563285.118932,40.000000,0.000000,-0.902417,-12.606389,-19.434452,8.725280,1.157556,-5.756252,-2.971380,-0.306352,5.007856,-1.632665,-6.343867,-8.023727,-10.677874,-8.100143,-10.278745,-10.128189,-6.267677,-11.307995,-5.230496,-35.044601,-5.110543,-4.459867,-3.825240,-5.739579,-7.725646,-19.273523,-12.559780,-7.823703,-5.522556,-14.577164,-31.651840,-30.118599,8064.000000,0.000000,4.000000,,,,0.000000,4.000000,4.000000,4.000000,4.000000,4.000000,4.000000,4.000000,4.000000,4.000000,4.000000,4.000000,4.000000,4.000000,4.000000,4.000000,4.000000,4.000000,4.000000,4.000000,4.000000,4.000000,4.000000,4.000000,4.000000,4.000000,4.000000,4.000000,4.000000,4.000000,4.000000,4.000000,4.000000,100.000000
1614563285.126682,41.000000,0.000000,-0.901515,-12.593782,-21.466299,4.101170,0.643578,-6.776137,-0.917127,-2.357328,-5.253561,-4.707956,-13.004190,-8.528524,-10.154375,-7.579222,-17.447954,-13.194983,-21.646025,-18.988995,-8.302189,-48.342888,-18.951586,-13.686176,-13.052184,-11.887686,-20.025612,-25.920918,-19.726707,-13.969726,-5.517034,-15.075407,-31.620190,-42.908993,8064.000000,0.000000,4.000000,,,,0.000000,4.000000,4.000000,4.000000,4.000000,4.000000,4.000000,4.000000,4.000000,4.000000,4.000000,4.000000,4.000000,4.000000,4.000000,4.000000,4.000000,4.000000,4.000000,4.000000,4.000000,4.000000,4.000000,4.000000,4.000000,4.000000,4.000000,4.000000,4.000000,4.000000,4.000000,4.000000,4.000000,100.000000
1614563285.134331,42.000000,0.000000,-0.900613,-12.581188,-23.496115,1.532966,0.642934,-6.256540,-1.429030,-3.893432,-12.427795,-9.318632,-18.632212,-7.494355,-10.144220,-8.597284,-16.917685,-13.694609,-28.291044,-12.303339,-9.319528,-50.345829,-23.548019,-18.287874,-20.731440,-13.414259,-23.595331,-27.433458,-20.219801,-14.981398,-5.511517,-14.034691,-31.075748,-40.301983,8064.000000,0.000000,4.000000,,,,0.000000,4.000000,4.000000,4.000000,4.000000,4.000000,4.000000,4.000000,4.000000,4.000000,4.000000,4.000000,4.000000,4.000000,4.000000,4.000000,4.000000,4.000000,4.000000,4.000000,4.000000,4.000000,4.000000,4.000000,4.000000,4.000000,4.000000,4.000000,4.000000,4.000000,4.000000,4.000000,4.000000,100.000000
1614563285.142080,43.000000,0.000000,-0.899712,-12.568607,-23.985439,2.044253,0.642291,-6.250284,-1.427601,-3.376718,-11.389727,-7.770852,-13.485374,-7.486860,-10.646897,-8.075867,-13.311024,-9.065530,-23.134548,0.016656,-8.284568,-42.603176,-16.857805,-16.218306,-20.710709,-12.888024,-13.315325,-24.329102,-15.071376,-14.453595,-5.506005,-11.969374,-31.044672,-37.697578,8064.000000,0.000000,4.000000,,,,0.000000,4.000000,4.000000,4.000000,4.000000,4.000000,4.000000,4.000000,4.000000,4.000000,4.000000,4.000000,4.000000,4.000000,4.000000,4.000000,4.000000,4.000000,4.000000,4.000000,4.000000,4.000000,4.000000,4.000000,4.000000,4.000000,4.000000,4.000000,4.000000,4.000000,4.000000,4.000000,4.000000,100.000000
1614563285.149730,44.000000,0.000000,-0.898813,-12.556039,-23.448633,2.042209,0.641649,-6.244033,2.163570,-3.373342,-10.865517,-3.660517,-7.318043,-7.992194,-9.610609,-4.478047,-10.733610,-6.492362,-20.547312,-4.085925,-9.301924,-41.534931,-16.328127,-14.663625,-20.177177,-12.875136,-9.712266,-23.791952,-13.517843,-14.951962,-5.500499,-10.931764,-32.039268,-39.711163,8064.000000,0.000000,4.000000,,,,0.000000,4.000000,4.000000,4.000000,4.000000,4.000000,4.000000,4.000000,4.000000,4.000000,4.000000,4.000000,4.000000,4.000000,4.000000,4.000000,4.000000,4.000000,4.000000,4.000000,4.000000,4.000000,4.000000,4.000000,4.000000,4.000000,4.000000,4.000000,4.000000,4.000000,4.000000,4.000000,4.000000,100.000000
1614563285.157479,45.000000,0.000000,-0.897914,-13.056303,-24.450827,1.527346,0.641008,-6.237790,6.263970,-3.882789,-11.880292,-2.118395,-5.772263,-4.394458,-6.011255,-0.371005,-4.569030,-6.485869,-13.347278,-7.671582,-8.779801,-42.006218,-15.798978,-13.110500,-20.669821,-12.862261,-11.241015,-23.255339,-14.017146,-14.424190,-5.494998,-10.408011,-30.981588,-39.158630,8064.000000,0.000000,4.000000,,,,0.000000,4.000000,4.000000,4.000000,4.000000,4.000000,4.000000,4.000000,4.000000,4.000000,4.000000,4.000000,4.000000,4.000000,4.000000,4.000000,4.000000,4.000000,4.000000,4.000000,4.000000,4.000000,4.000000,4.000000,4.000000,4.000000,4.000000,4.000000,4.000000,4.000000,4.000000,4.000000,4.000000,100.000000
1614563285.165129,46.000000,0.000000,-0.897016,-12.530426,-26.990479,1.525819,0.640367,-6.231552,7.283348,-3.366085,-12.381232,0.447826,0.387355,3.302244,-2.928320,6.296033,3.640667,-3.402461,3.589147,-0.997244,-6.719739,-37.861645,-4.501127,-6.430723,-20.136330,-12.336578,-9.691313,-25.283365,-13.490308,-14.409765,-5.489504,-10.397603,-31.463427,-38.606651,8064.000000,0.000000,4.000000,,,,0.000000,4.000000,4.000000,4.000000,4.000000,4.000000,4.000000,4.000000,4.000000,4.000000,4.000000,4.000000,4.000000,4.000000,4.000000,4.000000,4.000000,4.000000,4.000000,4.000000,4.000000,4.000000,4.000000,4.000000,4.000000,4.000000,4.000000,4.000000,4.000000,4.000000,4.000000,4.000000,4.000000,100.000000
1614563285.172878,47.000000,0.000000,-0.896119,-13.030716,-27.989128,2.037114,0.639726,-6.225320,5.224782,-3.875540,-11.856030,1.985839,6.027994,7.914326,-1.386931,12.956404,8.765231,-2.886238,10.765045,-0.483426,-5.687379,-37.823784,3.195682,0.242375,-19.090551,-9.760139,-13.784185,-27.822186,-13.989638,-13.369715,-5.996835,-15.515410,-38.611450,-43.183430,8064.000000,0.000000,4.000000,,,,0.000000,4.000000,4.000000,4.000000,4.000000,4.000000,4.000000,4.000000,4.000000,4.000000,4.000000,4.000000,4.000000,4.000000,4.000000,4.000000,4.000000,4.000000,4.000000,4.000000,4.000000,4.000000,4.000000,4.000000,4.000000,4.000000,4.000000,4.000000,4.000000,4.000000,4.000000,4.000000,4.000000,100.000000
1614563285.180527,48.000000,0.000000,-1.408043,-13.530506,-27.448318,1.522256,0.639086,-6.219095,3.681096,-3.358844,-11.331353,0.958213,6.534786,7.906412,0.665738,16.020370,7.218005,-1.857710,11.267100,1.568339,-3.630409,-35.734680,4.730947,3.319055,-14.968898,-3.596533,-14.796042,-23.691799,-12.437187,-5.664037,-4.965197,-18.063997,-43.701046,-42.114605,8064.000000,0.000000,4.000000,,,,0.000000,4.000000,4.000000,4.000000,4.000000,4.000000,4.000000,4.000000,4.000000,4.000000,4.000000,4.000000,4.000000,4.000000,4.000000,4.000000,4.000000,4.000000,4.000000,4.000000,4.000000,4.000000,4.000000,4.000000,4.000000,4.000000,4.000000,4.000000,4.000000,4.000000,4.000000,4.000000,4.000000,100.000000
1614563285.188376,49.000000,0.000000,0.644647,-8.901591,-27.420870,2.033555,2.176909,-6.212876,2.651774,-1.817023,-11.320023,5.572639,9.605174,7.385685,1.177893,14.465888,6.185146,7.374917,19.460962,11.823181,0.988606,-24.929714,8.315960,5.879839,-6.235980,2.048089,-3.499195,-17.001440,-7.296545,5.110857,-2.908950,-11.892088,-37.503498,-32.328899,8064.000000,0.000000,4.000000,,,,0.000000,4.000000,4.000000,4.000000,4.000000,4.000000,4.000000,4.000000,4.000000,4.000000,4.000000,4.000000,4.000000,4.000000,4.000000,4.000000,4.000000,4.000000,4.000000,4.000000,4.000000,4.000000,4.000000,4.000000,4.000000,4.000000,4.000000,4.000000,4.000000,4.000000,4.000000,4.000000,4.000000,100.000000
1614563285.196126,50.000000,0.000000,2.695284,-2.738843,-27.393450,4.595623,4.738834,-6.206663,2.649122,0.748896,-10.795882,12.233733,13.185313,7.378299,1.176715,14.964243,9.768704,13.008568,19.954321,11.811358,3.038899,-18.750938,10.358926,6.386779,-0.588718,3.071682,5.735074,-15.445977,-5.237967,9.721131,-1.367579,-6.239170,-30.799328,-26.655546,8064.000000,0.000000,4.000000,,,,0.000000,4.000000,4.000000,4.000000,4.000000,4.000000,4.000000,4.000000,4.000000,4.000000,4.000000,4.000000,4.000000,4.000000,4.000000,4.000000,4.000000,4.000000,4.000000,4.000000,4.000000,4.000000,4.000000,4.000000,4.000000,4.000000,4.000000,4.000000,4.000000,4.000000,4.000000,4.000000,4.000000,100.000000
1614563285.203875,51.000000,0.000000,2.692589,-0.684822,-26.853235,6.642310,4.734096,-6.200456,2.646473,1.260968,-3.092778,11.708679,9.582384,8.396562,1.175539,14.436459,11.297397,9.918635,8.652315,1.030316,2.010219,-21.296289,8.297285,6.380393,-1.100950,3.068610,5.729338,-16.456173,-5.745549,5.608846,-1.879032,-6.745751,-31.281349,-26.628891,8064.000000,0.000000,4.000000,,,,0.000000,4.000000,4.000000,4.000000,4.000000,4.000000,4.000000,4.000000,4.000000,4.000000,4.000000,4.000000,4.000000,4.000000,4.000000,4.000000,4.000000,4.000000,4.000000,4.000000,4.000000,4.000000,4.000000,4.000000,4.000000,4.000000,4.000000,4.000000,4.000000,4.000000,4.000000,4.000000,4.000000,100.000000
1614563285.211525,52.000000,0.000000,2.689896,-1.709779,-27.339203,5.610026,3.703721,-6.194256,2.131006,0.234066,7.166725,9.132868,1.367673,5.824063,-3.441022,4.678432,0.004048,5.293333,1.976997,-1.534817,2.521029,-22.813454,5.724885,6.886833,-1.099849,2.039901,2.646686,-16.439716,-6.252624,-0.550609,-1.877153,-7.764647,-32.788528,-23.012518,8064.000000,0.000000,4.000000,,,,0.000000,4.000000,4.000000,4.000000,4.000000,4.000000,4.000000,4.000000,4.000000,4.000000,4.000000,4.000000,4.000000,4.000000,4.000000,4.000000,4.000000,4.000000,4.000000,4.000000,4.000000,4.000000,4.000000,4.000000,4.000000,4.000000,4.000000,4.000000,4.000000,4.000000,4.000000,4.000000,4.000000,100.000000
1614563285.219374,53.000000,0.000000,3.200027,-1.708069,-28.337505,5.604416,4.725658,-6.188062,2.641695,-0.278989,5.621097,8.610914,-11.454207,-2.899710,-10.617067,-10.198041,-14.354930,-3.429909,-5.717288,-1.533282,0.980047,-25.354744,-6.075711,0.726100,-1.098749,-6.680088,-1.971345,-15.910456,-7.784833,-3.114161,-1.875276,-6.731241,-29.678818,-18.374121,8064.000000,0.000000,4.000000,,,,0.000000,4.000000,4.000000,4.000000,4.000000,4.000000,4.000000,4.000000,4.000000,4.000000,4.000000,4.000000,4.000000,4.000000,4.000000,4.000000,4.000000,4.000000,4.000000,4.000000,4.000000,4.000000,4.000000,4.000000,4.000000,4.000000,4.000000,4.000000,4.000000,4.000000,4.000000,4.000000,4.000000,100.000000
1614563285.227123,54.000000,0.000000,0.119904,-0.680720,-26.257885,6.624453,4.720932,-6.181873,3.151874,1.259752,-5.666576,3.986919,-23.750444,-7.512195,-11.119271,-17.367331,-17.417498,-14.195710,-18.532084,-4.095851,-1.585036,-29.431953,-21.454250,-10.043858,-5.200215,-14.878536,-6.584759,-15.894546,-9.315510,-3.111047,-1.873401,-6.724510,-31.187599,-20.919849,8064.000000,0.000000,4.000000,,,,0.000000,4.000000,4.000000,4.000000,4.000000,4.000000,4.000000,4.000000,4.000000,4.000000,4.000000,4.000000,4.000000,4.000000,4.000000,4.000000,4.000000,4.000000,4.000000,4.000000,4.000000,4.000000,4.000000,4.000000,4.000000,4.000000,4.000000,4.000000,4.000000,4.000000,4.000000,4.000000,4.000000,100.000000
1614563285.234972,55.000000,0.000000,-4.495601,-0.680039,-28.282909,0.463983,1.126468,-5.662871,1.097440,-3.869713,-11.814755,-2.683735,-24.752337,-8.017503,-9.569691,-15.298681,-16.374439,-13.155873,-21.590475,-5.117396,-2.096271,-30.428162,-23.996899,-14.136377,-8.784759,-16.914940,-7.603815,-16.391472,-10.331835,-3.107936,-1.871527,-7.230606,-36.797440,-28.591238,8064.000000,0.000000,4.000000,,,,0.000000,4.000000,4.000000,4.000000,4.000000,4.000000,4.000000,4.000000,4.000000,4.000000,4.000000,4.000000,4.000000,4.000000,4.000000,4.000000,4.000000,4.000000,4.000000,4.000000,4.000000,4.000000,4.000000,4.000000,4.000000,4.000000,4.000000,4.000000,4.000000,4.000000,4.000000,4.000000,4.000000,100.000000
1614563285.242722,56.000000,0.000000,-3.465464,-2.730641,-32.357189,-9.792892,-3.490043,-6.170029,-1.467760,-15.147895,-11.290120,-3.706692,-20.625019,-15.701794,-12.124224,-16.821844,-16.870886,-8.527333,-18.491961,-6.137920,-2.606996,-30.910555,-19.357517,-14.122241,-9.801615,-18.949306,-8.109032,-17.400721,-11.347144,-4.130469,-2.382476,-7.736196,-28.555511,-27.024185,8064.000000,0.000000,4.000000,,,,0.000000,4.000000,4.000000,4.000000,4.000000,4.000000,4.000000,4.000000,4.000000,4.000000,4.000000,4.000000,4.000000,4.000000,4.000000,4.000000,4.000000,4.000000,4.000000,4.000000,4.000000,4.000000,4.000000,4.000000,4.000000,4.000000,4.000000,4.000000,4.000000,4.000000,4.000000,4.000000,4.000000,100.000000
1614563285.250571,57.000000,0.000000,1.666206,-1.702269,-25.658167,-11.321560,-3.486553,-6.163859,-0.953471,-14.107105,-11.791651,-3.190165,-15.476190,-20.814297,-9.035176,-17.830664,-14.802732,-9.031627,-13.858085,-4.080500,-3.117209,-29.854002,-11.133032,-12.056837,-9.278993,-10.212409,-3.998358,-13.280756,-6.720412,-3.613518,-1.867273,-7.215639,-11.603880,-14.176647,8064.000000,0.000000,4.000000,,,,0.000000,4.000000,4.000000,4.000000,4.000000,4.000000,4.000000,4.000000,4.000000,4.000000,4.000000,4.000000,4.000000,4.000000,4.000000,4.000000,4.000000,4.000000,4.000000,4.000000,4.000000,4.000000,4.000000,4.000000,4.000000,4.000000,4.000000,4.000000,4.000000,4.000000,4.000000,4.000000,4.000000,100.000000
1614563285.258320,58.000000,0.000000,3.203002,-0.162106,-14.350457,-2.079470,-2.970246,-5.644874,2.124405,0.778796,-11.779859,-1.648513,-1.614559,-8.998610,0.717449,-2.428217,-10.172545,-1.330287,1.540389,5.154349,3.552575,-24.183123,7.339640,-0.249908,-4.654329,13.387547,2.159486,-9.677732,-2.098307,0.492660,-1.352585,-6.695602,-14.669199,-12.624009,8064.000000,0.000000,4.000000,,,,0.000000,4.000000,4.000000,4.000000,4.000000,4.000000,4.000000,4.000000,4.000000,4.000000,4.000000,4.000000,4.000000,4.000000,4.000000,4.000000,4.000000,4.000000,4.000000,4.000000,4.000000,4.000000,4.000000,4.000000,4.000000,4.000000,4.000000,4.000000,4.000000,4.000000,4.000000,4.000000,4.000000,100.000000
1614563285.266169,59.000000,0.000000,2.174158,-8.367072,-16.387388,-2.077390,-3.480097,-7.690512,3.147922,3.342120,-11.768079,-3.185326,11.207568,-0.271663,5.844937,15.010109,-1.957245,10.978736,15.897823,10.790221,9.702868,-22.620478,18.614351,10.006752,4.068274,25.681852,-2.458058,-13.257797,-8.762876,5.107552,-3.915335,-9.253010,-26.962221,-21.842154,8064.000000,0.000000,4.000000,,,,0.000000,4.000000,4.000000,4.000000,4.000000,4.000000,4.000000,4.000000,4.000000,4.000000,4.000000,4.000000,4.000000,4.000000,4.000000,4.000000,4.000000,4.000000,4.000000,4.000000,4.000000,4.000000,4.000000,4.000000,4.000000,4.000000,4.000000,4.000000,4.000000,4.000000,4.000000,4.000000,4.000000,100.000000
1614563285.273919,60.000000,0.000000,2.684804,-15.538192,-20.986387,-12.331723,-3.476616,-12.811027,1.093492,-4.353530,-12.269132,-4.720603,13.760463,-0.271392,4.300630,19.097662,10.865225,11.993398,17.933207,9.753790,7.129063,-22.085037,17.570095,9.483925,10.218052,21.040785,-0.917139,-12.731719,-7.728472,4.076803,-5.449882,-8.730936,-20.781414,-11.051082,8064.000000,0.000000,4.000000,,,,0.000000,4.000000,4.000000,4.000000,4.000000,4.000000,4.000000,4.000000,4.000000,4.000000,4.000000,4.000000,4.000000,4.000000,4.000000,4.000000,4.000000,4.000000,4.000000,4.000000,4.000000,4.000000,4.000000,4.000000,4.000000,4.000000,4.000000,4.000000,4.000000,4.000000,4.000000,4.000000,4.000000,100.000000
1614563285.281768,61.000000,0.000000,3.194940,-6.804705,-13.785913,-5.139904,-0.909037,-14.336677,3.143680,4.881593,-6.103016,8.617452,18.874908,13.062213,7.886073,23.693949,24.187693,15.058328,18.940914,18.461985,15.327063,-12.832183,21.655090,9.474441,9.695014,24.096668,19.083778,-5.539500,13.304897,4.585547,0.709414,-0.517077,-11.017042,6.395867,8064.000000,0.000000,4.000000,,,,0.000000,4.000000,4.000000,4.000000,4.000000,4.000000,4.000000,4.000000,4.000000,4.000000,4.000000,4.000000,4.000000,4.000000,4.000000,4.000000,4.000000,4.000000,4.000000,4.000000,4.000000,4.000000,4.000000,4.000000,4.000000,4.000000,4.000000,4.000000,4.000000,4.000000,4.000000,4.000000,4.000000,100.000000
1614563285.289517,62.000000,0.000000,2.678924,2.945690,-9.156742,15.378057,1.143154,-11.245417,8.781562,19.748507,2.621036,23.993450,27.573982,27.920946,8.903828,30.336922,30.830172,26.838140,20.973257,29.725574,32.747631,-4.101402,24.197536,9.977787,9.685319,32.790520,26.244183,-5.533961,23.548002,10.221987,6.862551,3.073184,-18.698334,-5.405401,8064.000000,0.000000,4.000000,,,,0.000000,4.000000,4.000000,4.000000,4.000000,4.000000,4.000000,4.000000,4.000000,4.000000,4.000000,4.000000,4.000000,4.000000,4.000000,4.000000,4.000000,4.000000,4.000000,4.000000,4.000000,4.000000,4.000000,4.000000,4.000000,4.000000,4.000000,4.000000,4.000000,4.000000,4.000000,4.000000,4.000000,100.000000
